##NAMES=Shattuckite
##RRUFFID=R050133
##IDEAL CHEMISTRY=Cu^2+^_5_(SiO_3_)_4_(OH)_2_
##LOCALITY=Ajo, Pima County, Arizona, USA
##OWNER=RRUFF
##SOURCE=University of Arizona Mineral Museum
##DESCRIPTION=Aggregate of blue flattened grains
##STATUS=The identification of this mineral has been confirmed by X-ray diffraction and chemical analysis
##URL=rruff.info/R050133
##MEASURED CHEMISTRY=Cu_5.00_(Si_0.99_Al_0.01_O_3_)_4_((OH)_0.97_(H_2_O)_0.03_)_2_
93.08527, 0.0000000E+00
93.56738, 427.2594
94.04950, 428.8533
94.53162, 432.5991
95.01373, 433.8656
95.49585, 434.8384
95.97797, 434.8793
96.46008, 432.8963
96.94220, 429.5297
97.42432, 425.3436
97.90643, 419.4405
98.38855, 413.5306
98.87067, 408.8170
99.35278, 405.6442
99.83490, 403.3554
100.3170, 400.4287
100.7991, 395.1806
101.2813, 390.4548
101.7634, 386.6055
102.2455, 383.2419
102.7276, 379.7577
103.2097, 375.7599
103.6918, 371.4691
104.1739, 368.4234
104.6561, 367.0575
105.1382, 366.0184
105.6203, 364.8093
106.1024, 363.4431
106.5845, 362.1301
107.0666, 361.0002
107.5488, 360.0287
108.0309, 359.0220
108.5130, 357.8054
108.9951, 356.5935
109.4772, 355.6418
109.9593, 354.9746
110.4415, 354.4700
110.9236, 354.0878
111.4057, 353.7799
111.8878, 353.4706
112.3699, 353.0798
112.8520, 352.6253
113.3342, 352.2891
113.8163, 352.1787
114.2984, 352.0811
114.7805, 351.9457
115.2626, 351.7523
115.7447, 351.4754
116.2269, 351.0994
116.7090, 350.6458
117.1911, 349.9939
117.6732, 348.7896
118.1553, 347.6683
118.6374, 347.0938
119.1196, 347.1089
119.6017, 347.3356
120.0838, 347.1547
120.5659, 346.1254
121.0480, 345.3310
121.5301, 345.1134
122.0123, 345.0007
122.4944, 344.3682
122.9765, 342.9242
123.4586, 341.0818
123.9407, 340.0346
124.4228, 340.0734
124.9050, 340.0875
125.3871, 339.6185
125.8692, 338.8036
126.3513, 338.0826
126.8334, 337.6850
127.3155, 337.5117
127.7977, 337.3437
128.2798, 337.2733
128.7619, 337.0609
129.2440, 336.3849
129.7261, 335.1663
130.2082, 334.0089
130.6904, 333.1047
131.1725, 332.4521
131.6546, 332.1207
132.1367, 332.2127
132.6188, 332.5624
133.1009, 332.7984
133.5831, 332.9809
134.0652, 332.9113
134.5473, 332.3958
135.0294, 331.6614
135.5115, 331.0132
135.9936, 330.6609
136.4758, 330.5811
136.9579, 330.4275
137.4400, 330.0932
137.9221, 329.7847
138.4042, 329.5790
138.8863, 329.4479
139.3685, 329.3246
139.8506, 329.1659
140.3327, 328.9891
140.8148, 328.6022
141.2969, 327.7629
141.7790, 326.9531
142.2612, 326.5277
142.7433, 326.4838
143.2254, 326.4746
143.7075, 326.0864
144.1896, 325.2284
144.6717, 324.5793
145.1539, 324.1876
145.6360, 324.0141
146.1181, 324.1061
146.6002, 324.5311
147.0823, 324.9696
147.5644, 324.9885
148.0466, 324.6481
148.5287, 324.2577
149.0108, 323.8453
149.4929, 323.4602
149.9750, 323.2953
150.4571, 323.5271
150.9393, 323.8166
151.4214, 323.8552
151.9035, 323.6572
152.3856, 323.4353
152.8677, 323.4487
153.3498, 323.7315
153.8320, 323.7177
154.3141, 322.9070
154.7962, 322.0411
155.2783, 321.4409
155.7604, 321.1654
156.2425, 321.1448
156.7247, 321.3590
157.2068, 322.0296
157.6889, 322.3815
158.1710, 322.2068
158.6531, 321.8618
159.1352, 321.5823
159.6174, 321.4424
160.0995, 321.3664
160.5816, 321.2070
161.0637, 320.9685
161.5458, 320.6203
162.0279, 319.9763
162.5101, 319.3000
162.9922, 318.9069
163.4743, 318.9372
163.9564, 319.2301
164.4385, 319.3176
164.9206, 319.0468
165.4028, 318.7855
165.8849, 318.5689
166.3670, 318.4031
166.8491, 318.3314
167.3312, 318.4169
167.8133, 318.5484
168.2955, 318.3847
168.7776, 317.7759
169.2597, 317.1423
169.7418, 316.6282
170.2239, 316.2408
170.7060, 316.0426
171.1882, 316.1898
171.6703, 316.4833
172.1524, 316.5028
172.6345, 316.0496
173.1166, 315.5866
173.5987, 315.6834
174.0809, 316.4276
174.5630, 316.9147
175.0451, 316.4268
175.5272, 315.5494
176.0093, 314.8009
176.4914, 314.3245
176.9736, 314.0358
177.4557, 313.8194
177.9378, 313.7183
178.4199, 313.5815
178.9020, 313.3191
179.3841, 313.0135
179.8663, 312.7484
180.3484, 312.5664
180.8305, 312.4407
181.3126, 312.2967
181.7947, 312.1510
182.2768, 311.9539
182.7590, 311.5946
183.2411, 311.2090
183.7232, 310.9946
184.2053, 311.0821
184.6874, 311.3969
185.1695, 311.4742
185.6517, 310.9122
186.1338, 310.5176
186.6159, 310.6310
187.0980, 310.9784
187.5801, 311.0757
188.0622, 310.5765
188.5444, 309.5457
189.0265, 308.8574
189.5086, 308.7061
189.9907, 308.6321
190.4728, 308.6324
190.9549, 308.6151
191.4371, 308.3428
191.9192, 307.5790
192.4013, 306.3936
192.8834, 305.6877
193.3655, 305.7895
193.8476, 305.9939
194.3298, 305.9576
194.8119, 305.6951
195.2940, 305.3818
195.7761, 305.1526
196.2582, 304.9728
196.7403, 304.6532
197.2225, 304.0804
197.7046, 303.4496
198.1867, 302.8612
198.6688, 302.3135
199.1509, 301.9142
199.6330, 301.7756
200.1152, 301.8435
200.5973, 302.0063
201.0794, 302.4211
201.5615, 302.8082
202.0436, 302.7542
202.5257, 302.1654
203.0079, 301.5454
203.4900, 301.1168
203.9721, 300.8515
204.4542, 300.7720
204.9363, 300.9974
205.4184, 301.3283
205.9006, 301.3749
206.3827, 301.0594
206.8648, 300.6237
207.3469, 300.0456
207.8290, 299.4561
208.3111, 299.0069
208.7932, 298.7489
209.2754, 298.6989
209.7575, 298.9767
210.2396, 299.9996
210.7217, 300.6635
211.2038, 300.5243
211.6859, 299.9410
212.1681, 299.3405
212.6502, 298.9495
213.1323, 298.7317
213.6144, 298.5273
214.0965, 298.3376
214.5786, 298.1621
215.0608, 297.9260
215.5429, 297.7182
216.0250, 297.7012
216.5071, 297.9916
216.9892, 298.4944
217.4713, 298.6683
217.9535, 298.1073
218.4356, 297.6193
218.9177, 297.2895
219.3998, 297.1119
219.8819, 297.0913
220.3640, 297.2437
220.8462, 297.5237
221.3283, 297.6279
221.8104, 297.3990
222.2925, 297.1804
222.7746, 297.0166
223.2567, 296.9128
223.7389, 296.9133
224.2210, 297.0725
224.7031, 297.3141
225.1852, 297.1831
225.6673, 296.3088
226.1494, 295.5565
226.6316, 295.2503
227.1137, 295.2526
227.5958, 295.2549
228.0779, 295.0988
228.5600, 294.8225
229.0421, 294.5820
229.5243, 294.3635
230.0064, 294.1869
230.4885, 293.9817
230.9706, 293.8102
231.4527, 293.9210
231.9348, 294.5872
232.4170, 295.4518
232.8991, 295.6026
233.3812, 294.7200
233.8633, 293.7988
234.3454, 293.3198
234.8275, 293.2266
235.3097, 293.3127
235.7918, 293.5940
236.2739, 293.9208
236.7560, 294.0264
237.2381, 293.8440
237.7202, 293.6481
238.2024, 293.6169
238.6845, 293.7321
239.1666, 293.8878
239.6487, 294.1305
240.1308, 294.3153
240.6129, 294.2656
241.0951, 293.9501
241.5772, 293.5848
242.0593, 293.3313
242.5414, 293.1807
243.0235, 292.9926
243.5056, 292.6063
243.9878, 292.2955
244.4699, 292.3438
244.9520, 292.7601
245.4341, 293.1935
245.9162, 293.3546
246.3983, 293.2449
246.8805, 293.0551
247.3626, 292.6059
247.8447, 292.2852
248.3268, 292.4308
248.8089, 293.0018
249.2910, 293.5955
249.7732, 293.8419
250.2553, 293.7302
250.7374, 293.6253
251.2195, 293.7378
251.7016, 293.6815
252.1837, 293.1466
252.6659, 292.2321
253.1480, 291.3266
253.6301, 290.7823
254.1122, 290.6156
254.5943, 290.5187
255.0764, 290.5204
255.5586, 290.5722
256.0407, 290.6969
256.5228, 290.8635
257.0049, 290.9989
257.4870, 291.0312
257.9691, 290.9568
258.4513, 290.9262
258.9334, 291.0765
259.4155, 291.1391
259.8976, 290.8812
260.3797, 290.4701
260.8618, 290.2694
261.3440, 290.5919
261.8261, 291.4119
262.3082, 291.9705
262.7903, 292.1952
263.2724, 292.1950
263.7545, 291.8179
264.2367, 291.2413
264.7188, 290.7450
265.2009, 290.5149
265.6830, 290.5243
266.1651, 290.5641
266.6472, 290.9559
267.1294, 291.0203
267.6115, 290.2448
268.0936, 289.1454
268.5757, 288.5343
269.0578, 288.8845
269.5399, 289.9373
270.0221, 290.5543
270.5042, 290.2944
270.9863, 290.0687
271.4684, 289.9748
271.9505, 289.9653
272.4326, 290.0177
272.9148, 290.1255
273.3969, 290.2018
273.8790, 290.0048
274.3611, 289.0702
274.8432, 288.4111
275.3253, 288.1999
275.8075, 288.2212
276.2896, 288.2724
276.7717, 288.2776
277.2538, 288.2221
277.7359, 288.0754
278.2180, 287.7580
278.7002, 287.4605
279.1823, 287.1164
279.6644, 286.8278
280.1465, 286.7454
280.6286, 286.8952
281.1107, 287.0940
281.5929, 287.0905
282.0750, 286.8286
282.5571, 286.4427
283.0392, 285.6849
283.5213, 284.9590
284.0034, 284.6888
284.4856, 284.9054
284.9677, 285.1985
285.4498, 285.1150
285.9319, 284.5498
286.4140, 284.0997
286.8961, 283.7433
287.3783, 283.5105
287.8604, 283.5210
288.3425, 283.7321
288.8246, 283.8731
289.3067, 283.7006
289.7888, 283.1987
290.2710, 282.7397
290.7531, 282.2775
291.2352, 281.8915
291.7173, 281.6708
292.1994, 281.5827
292.6815, 281.4766
293.1637, 281.2357
293.6458, 280.8994
294.1279, 280.7149
294.6100, 280.9044
295.0921, 280.9979
295.5742, 280.6610
296.0564, 280.0565
296.5385, 279.6577
297.0206, 279.7516
297.5027, 280.1313
297.9848, 280.1383
298.4669, 279.5482
298.9491, 279.0535
299.4312, 278.9869
299.9133, 279.1529
300.3954, 279.1754
300.8775, 278.9184
301.3596, 278.4729
301.8418, 277.9542
302.3239, 277.2857
302.8060, 276.8013
303.2881, 276.7588
303.7702, 276.8868
304.2523, 276.7415
304.7345, 276.1927
305.2166, 275.5992
305.6987, 275.4599
306.1808, 275.8072
306.6629, 276.1212
307.1451, 276.4356
307.6272, 276.6291
308.1093, 276.4913
308.5914, 275.9988
309.0735, 275.4938
309.5556, 275.3274
310.0378, 275.4783
310.5199, 275.4112
311.0020, 274.8622
311.4841, 274.2689
311.9662, 273.9278
312.4483, 273.8472
312.9305, 273.9914
313.4126, 274.4816
313.8947, 275.1506
314.3768, 275.2982
314.8589, 274.4237
315.3410, 273.5719
315.8232, 273.3302
316.3053, 273.5757
316.7874, 273.8869
317.2695, 274.0826
317.7516, 274.2134
318.2337, 274.4292
318.7159, 274.8279
319.1980, 275.0807
319.6801, 275.0023
320.1622, 274.6977
320.6443, 274.3409
321.1264, 273.9572
321.6086, 273.6256
322.0907, 273.5150
322.5728, 273.6416
323.0549, 273.7566
323.5370, 273.8276
324.0191, 273.8503
324.5013, 273.8029
324.9834, 273.6792
325.4655, 273.5432
325.9476, 273.4762
326.4297, 273.4797
326.9118, 273.4035
327.3940, 273.2913
327.8761, 273.0615
328.3582, 272.5497
328.8403, 271.7869
329.3224, 271.1028
329.8045, 270.7302
330.2866, 270.6538
330.7687, 270.6266
331.2509, 270.8820
331.7330, 270.9590
332.2151, 270.4689
332.6972, 269.5749
333.1793, 268.7987
333.6614, 268.3970
334.1436, 268.2584
334.6257, 268.0840
335.1078, 267.8388
335.5899, 267.6274
336.0720, 267.6037
336.5541, 267.6042
337.0363, 267.2868
337.5184, 266.5074
338.0005, 265.6226
338.4826, 265.1990
338.9647, 265.3619
339.4468, 265.4198
339.9290, 265.2509
340.4111, 264.9703
340.8932, 264.6530
341.3753, 264.3191
341.8574, 264.0352
342.3395, 263.8837
342.8217, 263.8782
343.3038, 263.7809
343.7859, 263.5088
344.2680, 263.2227
344.7501, 263.0327
345.2322, 262.9189
345.7144, 262.7357
346.1965, 262.0150
346.6786, 262.5015
347.1607, 262.6783
347.6428, 262.5622
348.1249, 261.2755
348.6071, 261.5003
349.0892, 261.1194
349.5713, 260.7136
350.0534, 261.1512
350.5355, 260.0347
351.0176, 259.8444
351.4998, 260.2060
351.9819, 260.4730
352.4640, 260.7672
352.9461, 260.8517
353.4282, 260.3160
353.9103, 259.1525
354.3925, 257.9835
354.8746, 257.5177
355.3567, 257.9013
355.8388, 258.3434
356.3209, 258.9948
356.8030, 259.5615
357.2852, 259.8655
357.7673, 259.9381
358.2494, 259.9311
358.7315, 259.9642
359.2136, 260.0096
359.6957, 259.7811
360.1779, 258.8651
360.6600, 258.1703
361.1421, 257.9011
361.6242, 257.9548
362.1063, 258.2588
362.5884, 258.7799
363.0706, 259.3579
363.5527, 259.6400
364.0348, 259.5682
364.5169, 259.2484
364.9990, 258.4087
365.4811, 257.5305
365.9633, 257.0329
366.4454, 256.9483
366.9275, 256.9454
367.4096, 256.6086
367.8917, 255.8002
368.3738, 255.4196
368.8560, 255.8757
369.3381, 256.3208
369.8202, 256.3672
370.3023, 256.1400
370.7844, 256.0067
371.2665, 256.2407
371.7487, 256.7346
372.2308, 256.8600
372.7129, 256.1799
373.1950, 255.7016
373.6771, 255.7089
374.1592, 255.9312
374.6414, 256.1185
375.1235, 256.1762
375.6056, 256.0962
376.0877, 255.7954
376.5698, 255.0753
377.0519, 254.7078
377.5341, 254.9663
378.0162, 255.4034
378.4983, 255.8853
378.9804, 256.3431
379.4625, 256.6613
379.9446, 256.7042
380.4268, 256.4797
380.9089, 256.2598
381.3910, 256.0409
381.8731, 255.8356
382.3552, 255.6058
382.8373, 255.4007
383.3195, 255.3029
383.8016, 255.3646
384.2837, 255.5365
384.7658, 255.7654
385.2479, 256.1256
385.7300, 256.2904
386.2122, 256.0546
386.6943, 255.6296
387.1764, 255.0683
387.6585, 254.3752
388.1406, 253.8533
388.6227, 253.9373
389.1049, 254.5689
389.5870, 254.8889
390.0691, 254.5397
390.5512, 254.1734
391.0333, 254.3858
391.5154, 255.0188
391.9976, 255.4827
392.4797, 255.4229
392.9618, 255.0431
393.4439, 254.6791
393.9260, 254.3215
394.4081, 254.0387
394.8903, 253.8967
395.3724, 253.8514
395.8545, 253.8229
396.3366, 253.7855
396.8187, 253.7943
397.3008, 254.0363
397.7830, 254.4054
398.2651, 254.3733
398.7472, 253.6445
399.2293, 252.6694
399.7114, 252.1133
400.1935, 251.9740
400.6757, 251.8729
401.1578, 251.7317
401.6399, 251.5554
402.1220, 251.3512
402.6041, 251.1198
403.0862, 250.8487
403.5684, 250.4813
404.0505, 250.0508
404.5326, 249.8491
405.0147, 250.1565
405.4968, 250.4068
405.9789, 250.2137
406.4611, 249.7485
406.9432, 249.4696
407.4253, 249.6048
407.9074, 249.9332
408.3895, 249.9467
408.8716, 249.4732
409.3538, 249.0111
409.8359, 248.4373
410.3180, 247.9827
410.8001, 247.9926
411.2822, 248.4430
411.7643, 248.8592
412.2465, 248.7252
412.7286, 247.9559
413.2107, 247.5742
413.6928, 247.8450
414.1749, 248.1556
414.6570, 248.3698
415.1392, 248.4664
415.6213, 248.4126
416.1034, 248.1864
416.5855, 247.8660
417.0676, 247.6516
417.5497, 247.5162
418.0319, 247.5539
418.5140, 247.9192
418.9961, 248.3286
419.4782, 248.5886
419.9603, 248.6697
420.4424, 248.6507
420.9246, 248.6000
421.4067, 248.5172
421.8888, 248.4057
422.3709, 248.0700
422.8530, 247.9546
423.3351, 248.3698
423.8173, 249.0592
424.2994, 249.6293
424.7815, 249.9090
425.2636, 249.9511
425.7457, 249.7710
426.2278, 249.2727
426.7100, 248.9725
427.1921, 249.1504
427.6742, 249.4891
428.1563, 249.8534
428.6384, 250.2133
429.1205, 250.3708
429.6027, 250.0219
430.0848, 249.3354
430.5669, 248.9470
431.0490, 248.9898
431.5311, 249.1124
432.0132, 248.9953
432.4954, 248.7784
432.9775, 248.7638
433.4596, 249.2363
433.9417, 249.6883
434.4238, 249.5671
434.9059, 248.9662
435.3881, 248.4401
435.8702, 248.1560
436.3523, 248.1105
436.8344, 248.4532
437.3165, 249.3261
437.7986, 249.7342
438.2808, 249.0097
438.7629, 247.9064
439.2450, 247.2658
439.7271, 247.1873
440.2092, 247.3786
440.6913, 247.6782
441.1735, 248.0621
441.6556, 248.1085
442.1377, 247.5230
442.6198, 246.9836
443.1019, 246.7126
443.5840, 246.6368
444.0662, 246.6520
444.5483, 246.7172
445.0304, 246.7986
445.5125, 246.8344
445.9946, 246.7841
446.4767, 246.7797
446.9589, 247.0447
447.4410, 247.1574
447.9231, 246.7396
448.4052, 245.9251
448.8873, 245.1802
449.3694, 244.8702
449.8516, 244.8990
450.3337, 244.6756
450.8158, 243.9167
451.2979, 243.3500
451.7800, 243.2005
452.2621, 243.2317
452.7443, 243.2689
453.2264, 243.2561
453.7085, 243.1458
454.1906, 242.7949
454.6727, 242.1883
455.1548, 241.8593
455.6370, 242.0379
456.1191, 242.2566
456.6012, 242.2991
457.0833, 242.1833
457.5654, 241.9220
458.0475, 241.3638
458.5297, 240.8351
459.0118, 240.9232
459.4939, 241.6475
459.9760, 242.2556
460.4581, 242.4617
460.9402, 242.4148
461.4224, 242.3836
461.9045, 242.3947
462.3866, 242.2039
462.8687, 241.3969
463.3508, 240.4475
463.8329, 240.2267
464.3151, 240.8435
464.7972, 241.3878
465.2793, 241.1115
465.7614, 240.1171
466.2435, 239.3865
466.7256, 239.0471
467.2078, 238.8091
467.6899, 238.5730
468.1720, 238.3687
468.6541, 238.2411
469.1362, 238.2057
469.6183, 238.2690
470.1005, 238.4624
470.5826, 238.8801
471.0647, 239.1049
471.5468, 239.1175
472.0289, 238.9871
472.5110, 238.6354
472.9932, 238.1731
473.4753, 237.8397
473.9574, 237.7898
474.4395, 237.9081
474.9216, 237.8011
475.4037, 237.2307
475.8859, 236.9216
476.3680, 237.2073
476.8501, 237.5747
477.3322, 237.6921
477.8143, 237.5188
478.2964, 237.1641
478.7786, 236.5424
479.2607, 235.7593
479.7428, 235.6161
480.2249, 236.4519
480.7070, 237.1896
481.1891, 237.1640
481.6713, 236.7915
482.1534, 236.5858
482.6355, 236.6942
483.1176, 236.8496
483.5997, 236.8598
484.0818, 236.7365
484.5640, 236.4836
485.0461, 236.0464
485.5282, 235.6383
486.0103, 235.4771
486.4924, 235.5469
486.9745, 235.7425
487.4567, 236.2726
487.9388, 236.7319
488.4209, 236.7305
488.9030, 236.4082
489.3851, 236.2210
489.8672, 236.3917
490.3494, 236.7451
490.8315, 236.9186
491.3136, 236.7209
491.7957, 236.7108
492.2778, 237.0803
492.7599, 237.4856
493.2421, 237.6378
493.7242, 237.5872
494.2063, 237.6016
494.6884, 237.8883
495.1705, 238.3829
495.6526, 238.7383
496.1347, 238.8610
496.6169, 238.9921
497.0990, 239.2075
497.5811, 239.4202
498.0632, 239.5458
498.5453, 239.5776
499.0274, 239.5878
499.5096, 239.6710
499.9917, 239.8111
500.4738, 239.8178
500.9559, 239.6048
501.4380, 239.4287
501.9201, 239.5047
502.4023, 239.6674
502.8844, 239.6565
503.3665, 239.3358
503.8486, 239.0642
504.3307, 239.2790
504.8128, 239.8055
505.2950, 239.9987
505.7771, 239.6713
506.2592, 239.1559
506.7413, 238.7346
507.2234, 238.4112
507.7055, 238.1837
508.1877, 238.1819
508.6698, 238.1529
509.1519, 237.9488
509.6340, 237.6048
510.1161, 237.1920
510.5982, 236.7325
511.0804, 236.2718
511.5625, 235.8955
512.0446, 235.6951
512.5267, 235.3393
513.0089, 234.5966
513.4910, 233.9341
513.9731, 233.7072
514.4552, 233.7616
514.9373, 233.6723
515.4194, 233.1682
515.9016, 232.4613
516.3837, 232.1589
516.8658, 232.4730
517.3479, 232.6121
517.8300, 232.4319
518.3121, 232.0446
518.7943, 231.3821
519.2764, 230.5211
519.7585, 229.7814
520.2406, 229.4267
520.7227, 229.3085
521.2048, 229.0899
521.6870, 228.7519
522.1691, 228.4778
522.6512, 228.3655
523.1333, 228.3585
523.6154, 228.4029
524.0975, 228.5600
524.5797, 228.4898
525.0618, 227.7883
525.5439, 226.9308
526.0260, 226.5883
526.5081, 226.7903
526.9902, 227.0325
527.4724, 226.9341
527.9545, 226.5771
528.4366, 226.4642
528.9187, 227.0483
529.4008, 227.2695
529.8829, 226.6316
530.3651, 225.7853
530.8472, 224.6735
531.3293, 225.2655
531.8114, 225.5478
532.2935, 225.5371
532.7756, 224.3559
533.2578, 224.6861
533.7399, 224.4107
534.2220, 224.1104
534.7041, 224.6534
535.1862, 223.6424
535.6683, 224.1721
536.1505, 224.0867
536.6326, 224.2828
537.1147, 223.8695
537.5968, 223.6444
538.0789, 224.0289
538.5610, 224.0759
539.0432, 223.5924
539.5253, 223.8064
540.0074, 222.7741
540.4895, 222.8355
540.9716, 223.3687
541.4537, 222.9158
541.9359, 223.1409
542.4180, 223.1078
542.9001, 222.6186
543.3822, 222.7360
543.8643, 222.8765
544.3464, 222.8896
544.8286, 222.7704
545.3107, 222.7021
545.7928, 222.6738
546.2749, 222.7002
546.7570, 222.8936
547.2391, 223.0932
547.7213, 223.0695
548.2034, 222.7767
548.6855, 222.4163
549.1676, 222.2472
549.6497, 222.2868
550.1318, 222.1986
550.6140, 221.8272
551.0961, 221.5488
551.5782, 221.5392
552.0603, 221.6799
552.5424, 221.8361
553.0245, 221.9808
553.5067, 222.0774
553.9888, 222.0204
554.4709, 221.8773
554.9530, 221.9541
555.4351, 222.3576
555.9172, 222.7289
556.3994, 222.7385
556.8815, 222.4566
557.3636, 222.3086
557.8457, 222.4000
558.3278, 222.5137
558.8099, 222.6393
559.2921, 222.7052
559.7742, 222.5943
560.2563, 222.2839
560.7384, 221.8445
561.2205, 221.3224
561.7026, 220.7039
562.1848, 220.3030
562.6669, 220.2777
563.1490, 220.2970
563.6311, 220.3677
564.1132, 220.4204
564.5953, 220.3440
565.0775, 220.1264
565.5596, 219.9358
566.0417, 220.0384
566.5238, 220.3860
567.0059, 220.4175
567.4880, 219.9946
567.9702, 219.5575
568.4523, 219.3304
568.9344, 219.2424
569.4165, 219.2118
569.8986, 219.2282
570.3807, 219.3005
570.8629, 219.5765
571.3450, 219.8633
571.8271, 219.7126
572.3092, 219.0819
572.7913, 218.5620
573.2734, 218.6498
573.7556, 219.2304
574.2377, 219.4871
574.7198, 219.1261
575.2019, 218.8483
575.6840, 218.8430
576.1661, 218.8895
576.6483, 218.6993
577.1304, 218.3057
577.6124, 218.0667
578.0945, 218.3418
578.5767, 219.0035
579.0588, 219.3080
579.5409, 219.1048
580.0230, 218.8902
580.5051, 218.8784
580.9872, 218.8609
581.4694, 218.6252
581.9515, 218.1735
582.4336, 217.7755
582.9157, 217.6409
583.3978, 217.6316
583.8799, 217.5276
584.3621, 217.3268
584.8442, 217.1122
585.3263, 216.8897
585.8084, 216.7252
586.2905, 216.7873
586.7726, 217.1878
587.2548, 217.4585
587.7369, 217.5104
588.2190, 217.4607
