##NAMES=Shibkovite
##RRUFFID=R080040
##IDEAL CHEMISTRY=K_2_Ca_2_(Zn^2+^_3_Si_12_)O_30_
##LOCALITY=Dara-i-Pioz Glacier, Alayskiy (Alai) Range, Tien Shan Mts, Region of Republican Subordination, Tajikistan
##OWNER=RRUFF
##SOURCE=Michael Scott
##DESCRIPTION=Colorless, vitreous, massive containing some black inclusions. Sample fluoresces neon-orange under SWUV light.
##STATUS=The identification of this mineral has been confirmed only by single crystal X-ray diffraction.
##URL=rruff.info/R080040
120.0043, 221.8159
120.4864, 224.1047
120.9686, 226.5689
121.4507, 229.4630
121.9328, 233.0965
122.4149, 237.2215
122.8970, 241.1980
123.3791, 244.7337
123.8613, 248.3631
124.3434, 252.7850
124.8255, 257.9216
125.3076, 262.6752
125.7897, 266.0919
126.2718, 268.0802
126.7540, 269.9114
127.2361, 271.7893
127.7182, 273.5627
128.2003, 275.0630
128.6824, 276.2825
129.1645, 277.4208
129.6467, 278.7792
130.1288, 280.3142
130.6109, 282.1934
131.0930, 284.3968
131.5751, 286.8751
132.0572, 289.6655
132.5394, 292.7831
133.0215, 296.1015
133.5036, 299.2401
133.9857, 301.8252
134.4678, 304.6406
134.9499, 307.8602
135.4321, 311.3539
135.9142, 314.9152
136.3963, 318.4175
136.8784, 321.9010
137.3605, 325.6270
137.8426, 329.5607
138.3248, 333.7224
138.8069, 338.0663
139.2890, 342.6371
139.7711, 347.6183
140.2532, 353.2817
140.7353, 359.5491
141.2175, 365.6974
141.6996, 371.0048
142.1817, 376.5617
142.6638, 383.8493
143.1459, 393.1910
143.6280, 402.6845
144.1102, 410.8875
144.5923, 418.3111
145.0744, 425.7559
145.5565, 433.5103
146.0386, 441.5045
146.5207, 449.5306
147.0029, 457.2659
147.4850, 465.6035
147.9671, 474.9575
148.4492, 485.1315
148.9313, 495.6950
149.4134, 506.2819
149.8955, 516.8738
150.3777, 528.0810
150.8598, 540.2682
151.3419, 552.8444
151.8240, 565.6173
152.3061, 578.6376
152.7882, 592.0233
153.2704, 606.0637
153.7525, 621.1082
154.2346, 635.6224
154.7167, 651.3903
155.1988, 665.6250
155.6809, 676.9347
156.1631, 685.0649
156.6452, 690.2791
157.1273, 692.7815
157.6094, 690.8118
158.0915, 689.5608
158.5736, 689.3626
159.0558, 689.7040
159.5379, 690.0829
160.0200, 690.3468
160.5021, 690.7183
160.9842, 691.7561
161.4663, 693.8220
161.9485, 695.2842
162.4306, 695.3163
162.9127, 694.5410
163.3948, 694.1910
163.8769, 694.7692
164.3590, 695.7790
164.8412, 696.4684
165.3233, 696.8671
165.8054, 696.9882
166.2875, 696.8467
166.7696, 696.4395
167.2517, 695.7294
167.7339, 694.6068
168.2160, 693.2151
168.6981, 691.7531
169.1802, 690.2493
169.6623, 688.5974
170.1444, 686.6547
170.6266, 684.3809
171.1087, 682.0768
171.5908, 679.7292
172.0729, 677.4445
172.5550, 675.3998
173.0371, 673.6662
173.5193, 671.9017
174.0014, 669.4407
174.4835, 665.8982
174.9656, 662.4797
175.4477, 659.4651
175.9298, 656.6020
176.4120, 653.7902
176.8941, 650.9924
177.3762, 648.0144
177.8583, 644.3036
178.3404, 638.8836
178.8225, 633.9875
179.3047, 630.1562
179.7868, 626.8141
180.2689, 623.2532
180.7510, 619.1287
181.2331, 614.5486
181.7152, 610.0830
182.1974, 605.6713
182.6795, 601.4114
183.1616, 597.6193
183.6437, 593.9534
184.1258, 589.7577
184.6079, 584.6021
185.0900, 578.6623
185.5722, 573.2126
186.0543, 568.6082
186.5364, 563.9929
187.0185, 559.2923
187.5006, 554.4014
187.9827, 548.8010
188.4649, 541.9344
188.9470, 534.1897
189.4291, 527.4510
189.9112, 522.4316
190.3933, 517.6937
190.8754, 512.5030
191.3576, 506.8495
191.8397, 500.8549
192.3218, 494.3462
192.8039, 487.5780
193.2860, 481.0973
193.7681, 475.2120
194.2503, 469.4062
194.7324, 463.0381
195.2145, 455.9845
195.6966, 449.0315
196.1787, 442.7597
196.6608, 436.7905
197.1430, 430.6697
197.6251, 424.1357
198.1072, 417.5092
198.5893, 411.4360
199.0714, 406.1727
199.5535, 400.7118
200.0357, 394.3845
200.5178, 387.7135
200.9999, 381.2403
201.4820, 375.1563
201.9641, 369.4134
202.4462, 363.9109
202.9284, 358.6881
203.4105, 353.6371
203.8926, 348.8168
204.3747, 344.0800
204.8568, 339.2264
205.3389, 334.1579
205.8211, 328.9139
206.3032, 323.7643
206.7853, 318.4926
207.2674, 313.6054
207.7495, 309.2951
208.2316, 305.3766
208.7138, 301.5894
209.1959, 297.7871
209.6780, 293.9730
210.1601, 290.2891
210.6422, 286.7049
211.1243, 283.2949
211.6065, 280.2052
212.0886, 277.2819
212.5707, 274.2659
213.0528, 270.9806
213.5349, 267.4817
214.0170, 264.3993
214.4992, 262.0683
214.9813, 259.7583
215.4634, 257.2617
215.9455, 254.6553
216.4276, 252.0636
216.9097, 249.5550
217.3919, 247.1510
217.8740, 245.1088
218.3561, 243.6245
218.8382, 242.2139
219.3203, 240.7145
219.8024, 239.1487
220.2845, 237.5851
220.7667, 236.0278
221.2488, 234.5203
221.7309, 233.2563
222.2130, 232.4549
222.6951, 231.6581
223.1772, 230.5063
223.6594, 229.1017
224.1415, 227.9695
224.6236, 227.5305
225.1057, 227.5349
225.5878, 227.0914
226.0699, 225.8405
226.5521, 224.5543
227.0342, 223.6870
227.5163, 223.2244
227.9984, 223.0586
228.4805, 223.3245
228.9626, 223.7697
229.4448, 223.9103
229.9269, 223.6428
230.4090, 223.1788
230.8911, 222.5822
231.3732, 221.8532
231.8553, 221.3226
232.3375, 221.2729
232.8196, 221.4454
233.3017, 221.5023
233.7838, 221.3441
234.2659, 221.2061
234.7480, 221.3753
235.2302, 221.8857
235.7123, 222.3788
236.1944, 222.7296
236.6765, 223.0023
237.1586, 223.1683
237.6407, 223.1801
238.1229, 223.3295
238.6050, 224.0419
239.0871, 225.4219
239.5692, 226.7869
240.0513, 227.9763
240.5334, 229.0759
241.0156, 230.0662
241.4977, 230.9382
241.9798, 231.9154
242.4619, 233.3575
242.9440, 235.4310
243.4261, 237.3436
243.9083, 238.5804
244.3904, 239.8647
244.8725, 241.6711
245.3546, 244.0901
245.8367, 246.8603
246.3188, 249.6911
246.8010, 252.6766
247.2831, 255.4149
247.7652, 257.9127
248.2473, 260.1613
248.7294, 262.1511
249.2115, 263.8739
249.6937, 265.2743
250.1758, 266.1932
250.6579, 266.3549
251.1400, 266.7936
251.6221, 267.6949
252.1042, 268.7003
252.5864, 269.5032
253.0685, 270.1360
253.5506, 270.9286
254.0327, 272.3336
254.5148, 274.5948
254.9969, 276.6915
255.4790, 278.4209
255.9612, 280.1938
256.4433, 282.1342
256.9254, 284.2998
257.4075, 286.7622
257.8896, 289.5648
258.3718, 292.6512
258.8539, 296.3768
259.3360, 300.7309
259.8181, 305.5631
260.3002, 310.6269
260.7823, 316.0362
261.2645, 322.2323
261.7466, 329.6838
262.2287, 338.5399
262.7108, 347.6242
263.1929, 356.8490
263.6750, 366.2943
264.1572, 376.4056
264.6393, 386.9380
265.1214, 397.3172
265.6035, 407.4391
266.0856, 417.3481
266.5677, 423.3400
267.0499, 426.2935
267.5320, 425.5965
268.0141, 420.5423
268.4962, 411.5466
268.9783, 399.5276
269.4604, 384.8633
269.9426, 367.6776
270.4247, 350.3401
270.9068, 331.6728
271.3889, 314.0030
271.8710, 297.9549
272.3531, 283.5468
272.8352, 270.7654
273.3174, 259.6557
273.7995, 250.1330
274.2816, 241.8917
274.7637, 235.2542
275.2458, 229.1926
275.7279, 223.2634
276.2101, 217.6809
276.6922, 212.9856
277.1743, 209.4555
277.6564, 206.8499
278.1385, 204.5104
278.6206, 202.4967
279.1028, 200.5817
279.5849, 198.6931
280.0670, 196.8728
280.5491, 195.1746
281.0312, 193.6083
281.5133, 192.1973
281.9955, 191.0387
282.4776, 190.1878
282.9597, 189.3142
283.4418, 188.2246
283.9239, 187.0832
284.4060, 186.1733
284.8882, 185.5853
285.3703, 185.1339
285.8524, 184.4981
286.3345, 183.6186
286.8166, 183.0824
287.2987, 183.2916
287.7809, 183.8017
288.2630, 184.0393
288.7451, 183.8926
289.2272, 183.5888
289.7093, 183.2303
290.1914, 182.8369
290.6736, 182.8954
291.1557, 183.9280
291.6378, 185.2089
292.1199, 185.8753
292.6020, 185.8257
293.0841, 185.7349
293.5663, 186.1961
294.0484, 187.1017
294.5305, 187.8377
295.0126, 188.4427
295.4947, 188.7840
295.9768, 188.5789
296.4590, 187.8488
296.9411, 187.2241
297.4232, 187.1524
297.9053, 187.4806
298.3874, 187.6743
298.8695, 187.7242
299.3517, 187.6261
299.8338, 187.3610
300.3159, 186.9358
300.7980, 186.3709
301.2801, 185.5718
301.7622, 184.7259
302.2444, 184.2473
302.7265, 184.3514
303.2086, 184.3049
303.6907, 183.4215
304.1728, 181.9803
304.6549, 181.0537
305.1371, 181.1253
305.6192, 181.6635
306.1013, 181.9105
306.5834, 181.8643
307.0655, 181.6845
307.5476, 181.3520
308.0298, 180.9395
308.5119, 180.5899
308.9940, 180.3030
309.4761, 180.1583
309.9582, 180.2862
310.4403, 180.6497
310.9225, 181.1010
311.4046, 181.5620
311.8867, 182.0936
312.3688, 182.8347
312.8509, 183.8355
313.3330, 184.8514
313.8152, 185.6933
314.2973, 186.3799
314.7794, 186.9250
315.2615, 187.3274
315.7436, 187.5949
316.2257, 187.7068
316.7079, 187.6604
317.1900, 187.5657
317.6721, 187.5227
318.1542, 187.4639
318.6363, 187.2479
319.1184, 186.8794
319.6006, 186.3321
320.0827, 185.4350
320.5648, 184.2544
321.0469, 183.3534
321.5290, 183.2222
322.0111, 183.2775
322.4933, 182.4479
322.9754, 180.5187
323.4575, 178.4018
323.9396, 176.4959
324.4217, 174.7714
324.9038, 173.1752
325.3860, 171.7250
325.8681, 170.3231
326.3502, 168.8520
326.8323, 167.3044
327.3144, 165.7334
327.7965, 164.0925
328.2787, 162.4530
328.7608, 160.9194
329.2429, 159.4934
329.7250, 158.2593
330.2071, 157.4577
330.6892, 156.9969
331.1714, 156.3170
331.6535, 155.1280
332.1356, 153.7837
332.6177, 152.5887
333.0998, 151.5613
333.5819, 150.7985
334.0641, 150.5084
334.5462, 150.5408
335.0283, 150.2679
335.5104, 149.4311
335.9925, 148.5227
336.4746, 147.7784
336.9568, 147.2094
337.4389, 146.9342
337.9210, 147.1286
338.4031, 147.5232
338.8852, 147.4426
339.3673, 146.6441
339.8495, 146.0190
340.3316, 146.0380
340.8137, 146.4661
341.2958, 146.8751
341.7779, 147.1635
342.2600, 147.3103
342.7421, 147.2228
343.2242, 146.8741
343.7064, 146.5921
344.1885, 146.3695
344.6706, 146.2784
345.1527, 146.4682
345.6348, 146.9574
346.1169, 147.4823
346.5991, 147.8178
347.0812, 147.9442
347.5633, 148.0013
348.0454, 147.8658
348.5275, 147.7642
349.0096, 147.9056
349.4918, 148.2422
349.9739, 148.5322
350.4560, 148.6341
350.9381, 148.5681
351.4202, 148.4455
351.9023, 147.8110
352.3845, 147.6397
352.8666, 148.5806
353.3487, 150.1388
353.8308, 151.4216
354.3129, 152.0758
354.7950, 152.3390
355.2772, 152.6538
355.7593, 153.0096
356.2414, 153.4407
356.7235, 153.9430
357.2056, 154.5273
357.6877, 155.2452
358.1699, 156.0934
358.6520, 156.9409
359.1341, 157.6410
359.6162, 158.1540
360.0983, 158.7252
360.5804, 159.2342
361.0626, 159.9004
361.5447, 160.9580
362.0268, 162.3095
362.5089, 163.6382
362.9910, 164.7303
363.4731, 165.6047
363.9553, 166.3853
364.4374, 166.8433
364.9195, 167.4904
365.4016, 168.5442
365.8837, 169.8182
366.3658, 171.0299
366.8480, 172.0657
367.3301, 173.0576
367.8122, 174.2948
368.2943, 176.0697
368.7764, 177.6380
369.2585, 178.6500
369.7407, 179.7085
370.2228, 181.4760
370.7049, 183.9214
371.1870, 186.2942
371.6691, 187.7011
372.1512, 187.9127
372.6334, 188.5027
373.1155, 189.8839
373.5976, 191.2064
374.0797, 192.3302
374.5618, 193.1434
375.0439, 193.4696
375.5261, 193.1464
376.0082, 192.3061
376.4903, 191.6279
376.9724, 191.2869
377.4545, 190.8579
377.9366, 190.2070
378.4188, 189.4704
378.9009, 188.7706
379.3830, 188.1529
379.8651, 187.6082
380.3472, 187.0837
380.8293, 186.4707
381.3115, 186.2344
381.7936, 186.7119
382.2757, 187.3331
382.7578, 187.9166
383.2399, 188.3953
383.7220, 188.6695
384.2042, 188.5229
384.6863, 188.0071
385.1684, 187.9283
385.6505, 188.5874
386.1326, 189.2769
386.6147, 189.6685
387.0969, 189.9040
387.5790, 190.2077
388.0611, 190.6791
388.5432, 191.2710
389.0253, 191.9402
389.5074, 192.7316
389.9896, 193.4117
390.4717, 193.7749
390.9538, 194.0664
391.4359, 194.4692
391.9180, 195.0092
392.4001, 195.6455
392.8823, 196.3201
393.3644, 197.0488
393.8465, 197.9947
394.3286, 199.3428
394.8107, 200.6309
395.2928, 201.3847
395.7750, 201.7414
396.2571, 202.1889
396.7392, 203.1478
397.2213, 204.1954
397.7034, 204.6176
398.1855, 204.3507
398.6677, 204.1471
399.1498, 204.4617
399.6319, 205.1378
400.1140, 205.7823
400.5961, 206.4235
401.0782, 206.9537
401.5604, 207.4046
402.0425, 207.7055
402.5246, 207.5354
403.0067, 206.6437
403.4888, 205.6487
403.9709, 205.6080
404.4531, 206.6282
404.9352, 207.4232
405.4173, 207.7215
405.8994, 207.7193
406.3815, 207.5278
406.8636, 207.1860
407.3458, 206.8628
407.8279, 206.7316
408.3100, 206.7637
408.7921, 206.5118
409.2742, 205.7104
409.7563, 204.9605
410.2385, 204.5071
410.7206, 204.2545
411.2027, 204.0232
411.6848, 203.7366
412.1669, 203.4460
412.6490, 203.2510
413.1311, 203.1012
413.6133, 203.1663
414.0954, 203.6912
414.5775, 204.2437
415.0596, 204.5288
415.5417, 204.5123
416.0238, 204.2967
416.5060, 203.9431
416.9881, 203.4449
417.4702, 203.1260
417.9523, 203.2415
418.4344, 203.2633
418.9165, 202.7581
419.3987, 202.1697
419.8808, 202.2603
420.3629, 203.3976
420.8450, 204.9673
421.3271, 205.5554
421.8092, 204.5765
422.2914, 204.0911
422.7735, 204.6195
423.2556, 205.4529
423.7377, 206.1619
424.2198, 206.7290
424.7019, 207.4194
425.1841, 208.5058
425.6662, 209.9526
426.1483, 211.3651
426.6304, 212.7148
427.1125, 214.0696
427.5946, 215.3832
428.0768, 216.7456
428.5589, 218.2842
429.0410, 220.0706
429.5231, 222.0057
430.0052, 223.9359
430.4873, 225.8577
430.9695, 227.9538
431.4516, 230.1807
431.9337, 232.7405
432.4158, 235.8144
432.8979, 239.4112
433.3800, 243.1694
433.8622, 247.0452
434.3443, 250.9297
434.8264, 254.5773
435.3085, 257.9112
435.7906, 261.3763
436.2727, 265.2097
436.7549, 269.4989
437.2370, 274.3571
437.7191, 279.8125
438.2012, 285.8001
438.6833, 292.5962
439.1654, 299.9159
439.6476, 306.9948
440.1297, 313.4799
440.6118, 319.9027
441.0939, 327.1619
441.5760, 335.4172
442.0581, 344.1796
442.5403, 353.5282
443.0224, 363.3228
443.5045, 373.4166
443.9866, 383.8195
444.4687, 394.7151
444.9508, 406.4442
445.4330, 418.7618
445.9151, 429.4017
446.3972, 437.4606
446.8793, 444.8129
447.3614, 452.1954
447.8435, 458.8014
448.3257, 463.8203
448.8078, 466.9678
449.2899, 468.3578
449.7720, 468.1013
450.2541, 466.1414
450.7362, 462.6922
451.2184, 457.2300
451.7005, 450.7166
452.1826, 443.5020
452.6647, 435.5114
453.1468, 426.3416
453.6289, 415.6010
454.1111, 403.6901
454.5932, 391.6963
455.0753, 379.4044
455.5574, 367.4026
456.0395, 356.1470
456.5216, 345.1322
457.0038, 334.0237
457.4859, 322.6781
457.9680, 311.4923
458.4501, 300.7239
458.9322, 290.3106
459.4143, 280.0822
459.8965, 269.8476
460.3786, 260.3218
460.8607, 252.4182
461.3428, 245.7004
461.8249, 239.1207
462.3070, 232.1224
462.7892, 225.5736
463.2713, 220.1539
463.7534, 215.7624
464.2355, 212.1489
464.7176, 209.3025
465.1997, 206.9362
465.6819, 204.4938
466.1640, 201.7969
466.6461, 199.7507
467.1282, 198.5847
467.6103, 198.0163
468.0924, 198.0816
468.5746, 198.6116
469.0567, 198.9534
469.5388, 198.5454
470.0209, 197.5913
470.5030, 197.5212
470.9851, 199.2772
471.4673, 200.7879
471.9494, 201.5456
472.4315, 202.0957
472.9136, 202.9555
473.3957, 204.2641
473.8778, 205.8803
474.3600, 207.6419
474.8421, 209.5442
475.3242, 211.6256
475.8063, 214.0741
476.2884, 216.5247
476.7705, 218.8784
477.2527, 221.1550
477.7348, 223.3377
478.2169, 225.3561
478.6990, 227.4927
479.1811, 230.3012
479.6632, 233.8830
480.1454, 237.3501
480.6275, 240.3587
481.1096, 243.3401
481.5917, 246.6536
482.0738, 250.2769
482.5559, 253.9843
483.0380, 257.7510
483.5201, 261.5229
484.0023, 265.2414
484.4844, 268.9101
484.9665, 272.3512
485.4486, 275.3847
485.9307, 278.1529
486.4128, 281.0934
486.8950, 284.3050
487.3771, 287.4501
487.8592, 290.5733
488.3413, 293.4930
488.8234, 295.9348
489.3055, 297.8669
489.7877, 299.5437
490.2698, 301.2410
490.7519, 302.9919
491.2340, 304.1802
491.7161, 305.0194
492.1982, 305.1845
492.6804, 304.4194
493.1625, 302.9682
493.6446, 301.1888
494.1267, 299.2098
494.6088, 296.8869
495.0909, 293.9649
495.5731, 290.3228
496.0552, 286.4618
496.5373, 282.2663
497.0194, 277.9482
497.5015, 273.5450
497.9836, 269.0973
498.4658, 264.6752
498.9479, 260.3269
499.4300, 256.0134
499.9121, 251.5869
500.3942, 247.0399
500.8763, 242.5940
501.3585, 238.2846
501.8406, 234.1482
502.3227, 230.2014
502.8048, 226.4380
503.2869, 222.6959
503.7690, 218.9087
504.2512, 215.0827
504.7333, 211.1952
505.2154, 207.2164
505.6975, 203.4756
506.1796, 200.2422
506.6617, 197.3372
507.1439, 194.1751
507.6260, 190.5317
508.1081, 187.0349
508.5902, 183.9503
509.0723, 181.0522
509.5544, 177.9639
510.0366, 174.6892
510.5187, 171.6341
511.0008, 169.2144
511.4829, 167.4280
511.9650, 165.5622
512.4471, 163.7179
512.9293, 161.6715
513.4114, 159.0714
513.8935, 156.3917
514.3756, 154.1994
514.8577, 152.6413
515.3398, 151.3455
515.8220, 149.8162
516.3041, 148.0115
516.7862, 146.4678
517.2683, 145.4069
517.7504, 144.3376
518.2325, 143.0842
518.7147, 141.6681
519.1968, 140.1222
519.6789, 138.4282
520.1610, 136.6861
520.6431, 134.8792
521.1252, 133.0629
521.6074, 131.7474
522.0895, 131.2009
522.5716, 130.9058
523.0537, 130.3369
523.5358, 129.5266
524.0179, 128.6522
524.5001, 127.6995
524.9822, 126.7276
525.4643, 125.6349
525.9464, 124.5442
526.4285, 123.9328
526.9106, 124.0656
527.3928, 124.3764
527.8749, 123.7529
528.3570, 121.4414
528.8391, 119.9388
529.3212, 119.8490
529.8033, 119.9521
530.2855, 119.6299
530.7676, 118.9232
531.2497, 118.0757
531.7318, 117.2065
532.2139, 116.3914
532.6960, 115.8717
533.1782, 115.7932
533.6603, 115.5957
534.1424, 115.1199
534.6245, 114.5500
535.1066, 113.8810
535.5887, 113.1828
536.0709, 112.6901
536.5530, 112.7046
537.0351, 112.9337
537.5172, 112.8320
537.9993, 112.3901
538.4814, 111.7952
538.9636, 110.9626
539.4457, 110.1717
539.9278, 109.9442
540.4099, 110.3861
540.8920, 110.6786
541.3741, 110.5668
541.8563, 110.2224
542.3384, 109.6824
542.8205, 109.0269
543.3026, 108.5856
543.7847, 108.5934
544.2668, 108.9189
544.7490, 109.0884
545.2311, 109.1175
545.7132, 108.9454
546.1953, 108.2369
546.6774, 107.5849
547.1595, 107.5013
547.6417, 107.9341
548.1238, 108.4545
548.6059, 108.7668
549.0880, 108.8880
549.5701, 108.8512
550.0522, 108.5466
550.5344, 108.3685
551.0165, 108.5901
551.4986, 108.8877
551.9807, 108.9836
552.4628, 108.8660
552.9449, 108.7930
553.4271, 108.9332
553.9092, 109.2090
554.3913, 109.5388
554.8734, 109.9189
555.3555, 110.1505
555.8376, 110.0307
556.3198, 109.7694
556.8019, 109.9536
557.2840, 110.7731
557.7661, 111.4759
558.2482, 111.9867
558.7303, 112.2743
559.2125, 112.0748
559.6946, 111.5516
560.1767, 111.3992
560.6588, 112.1452
561.1409, 113.5676
561.6230, 114.7166
562.1052, 115.5255
562.5873, 116.1707
563.0694, 116.6481
563.5515, 117.0091
564.0336, 117.2211
564.5157, 117.3303
564.9979, 117.5044
565.4800, 117.9577
565.9621, 118.5039
566.4442, 118.7444
566.9263, 118.7182
567.4084, 118.1020
567.8906, 116.5679
568.3727, 114.5312
568.8548, 112.5709
569.3369, 110.6980
569.8190, 108.7323
570.3011, 106.5701
570.7833, 104.3324
571.2654, 102.1423
571.7475, 99.99719
572.2296, 97.83295
572.7117, 95.54882
573.1938, 93.35819
573.6760, 91.76074
574.1581, 91.19755
574.6402, 90.45200
575.1223, 89.32113
575.6044, 88.20079
576.0865, 87.29588
576.5687, 86.59720
577.0508, 86.02882
577.5329, 85.56229
578.0150, 85.14500
578.4971, 84.67490
578.9792, 84.15340
579.4614, 83.57404
579.9435, 82.85888
580.4256, 82.16950
580.9077, 81.67664
581.3898, 81.32294
581.8719, 80.86791
582.3541, 80.00153
582.8362, 79.20635
583.3183, 79.16936
583.8004, 79.65083
584.2825, 79.68286
584.7646, 78.89517
585.2468, 77.85515
585.7289, 77.30769
586.2110, 77.38380
586.6931, 77.21247
587.1752, 76.55760
587.6573, 75.93063
588.1394, 75.58397
588.6215, 75.38486
589.1036, 75.08511
589.5858, 74.60654
590.0679, 74.12619
590.5500, 73.92476
591.0321, 74.04119
591.5142, 74.01362
591.9963, 73.75982
592.4785, 73.47866
592.9606, 73.29722
593.4427, 73.12644
593.9248, 72.78862
594.4069, 72.18135
594.8890, 71.70112
595.3712, 71.81977
595.8533, 72.25163
596.3354, 72.29197
596.8175, 71.83533
597.2996, 71.27256
597.7817, 70.86293
598.2639, 70.58562
598.7460, 70.34127
599.2281, 69.94511
599.7102, 69.82323
600.1923, 70.37237
600.6744, 70.99590
601.1566, 71.09065
601.6387, 70.67906
602.1208, 70.21536
602.6029, 70.03329
603.0850, 70.08522
603.5671, 70.21815
604.0493, 70.52055
604.5314, 70.66634
605.0135, 70.44184
605.4956, 70.14344
605.9777, 69.96157
606.4598, 69.89249
606.9420, 69.83701
607.4241, 69.72879
607.9062, 69.62328
608.3883, 69.56390
608.8704, 69.55908
609.3525, 69.69262
609.8347, 70.03017
610.3168, 70.38040
610.7989, 70.43559
611.2810, 70.07600
611.7631, 70.05159
612.2452, 70.61302
612.7274, 71.22243
613.2095, 71.72206
613.6916, 72.09968
614.1737, 72.28667
