##NAMES=Shigaite
##RRUFFID=R080090
##IDEAL CHEMISTRY=NaAl_3_Mn^2+^_6_(S^6+^O_4_)_2_(OH)_18_&#183;12H_2_O
##LOCALITY=Ioi Mine, Shiga Prefecture, Kinki Region, Honshu Island, Japan
##OWNER=RRUFF
##SOURCE=Michael Scott
##DESCRIPTION=Semi-transparent, dull-yellow to pale yellow coating
##STATUS=The identification of this mineral has been confirmed by single-crystal X-ray diffraction.
##URL=rruff.info/R080090
92.52344, 209.9964
93.00555, 209.1312
93.48767, 209.3779
93.96979, 214.7827
94.45190, 220.4078
94.93402, 225.6382
95.41614, 227.4243
95.89825, 226.7037
96.38037, 225.2986
96.86249, 223.3389
97.34460, 221.3343
97.82672, 219.8017
98.30884, 218.0814
98.79095, 215.9919
99.27307, 213.3843
99.75519, 210.4016
100.2373, 207.7627
100.7194, 205.6195
101.2015, 203.7776
101.6837, 202.1532
102.1658, 200.7385
102.6479, 199.5246
103.1300, 198.4907
103.6121, 197.6373
104.0942, 197.0051
104.5764, 196.5161
105.0585, 196.1197
105.5406, 195.8211
106.0227, 195.5859
106.5048, 195.3261
106.9869, 195.0023
107.4691, 194.5800
107.9512, 194.0792
108.4333, 193.4837
108.9154, 192.7586
109.3975, 191.7632
109.8796, 190.3816
110.3618, 189.4436
110.8439, 189.1169
111.3260, 189.0606
111.8081, 189.3122
112.2902, 189.7826
112.7723, 190.2055
113.2544, 190.1803
113.7366, 189.3022
114.2187, 188.7120
114.7008, 188.5517
115.1829, 188.5746
115.6650, 188.5840
116.1471, 188.5096
116.6293, 188.3689
117.1114, 188.1929
117.5935, 187.9621
118.0756, 187.7343
118.5577, 187.4901
119.0398, 187.2536
119.5220, 187.0961
120.0041, 187.0906
120.4862, 187.1461
120.9683, 187.0539
121.4504, 186.7236
121.9325, 186.3958
122.4147, 186.2930
122.8968, 186.4333
123.3789, 186.5634
123.8610, 186.5379
124.3431, 186.4388
124.8252, 186.3377
125.3074, 186.2622
125.7895, 186.1882
126.2716, 186.0348
126.7537, 185.6644
127.2358, 185.4781
127.7179, 185.6989
128.2001, 186.1214
128.6822, 186.4667
129.1643, 186.5382
129.6464, 186.3696
130.1285, 186.3855
130.6107, 186.9916
131.0928, 187.4037
131.5749, 187.3221
132.0570, 186.8751
132.5391, 186.3753
133.0212, 186.0993
133.5034, 186.0869
133.9855, 186.0500
134.4676, 185.9800
134.9497, 185.9006
135.4318, 185.8076
135.9139, 185.7080
136.3960, 185.6365
136.8782, 185.6369
137.3603, 185.7240
137.8424, 185.8265
138.3245, 185.9543
138.8066, 186.0900
139.2887, 186.2433
139.7709, 186.4385
140.2530, 186.5592
140.7351, 186.3718
141.2172, 185.9080
141.6993, 185.5268
142.1814, 185.4667
142.6636, 185.6351
143.1457, 185.6825
143.6278, 185.4765
144.1099, 185.1867
144.5920, 184.9031
145.0741, 184.6360
145.5563, 184.5025
146.0384, 184.7018
146.5205, 185.2957
147.0026, 185.6926
147.4847, 185.5935
147.9668, 185.3899
148.4490, 185.2905
148.9311, 185.3380
149.4132, 185.4304
149.8953, 185.4017
150.3774, 185.1537
150.8595, 184.9834
151.3417, 185.0717
151.8238, 185.1477
152.3059, 184.9012
152.7880, 184.2348
153.2701, 183.4009
153.7522, 183.0506
154.2344, 184.0856
154.7165, 184.5901
155.1986, 184.0333
155.6807, 183.0335
156.1628, 182.3581
156.6449, 182.3966
157.1271, 183.0078
157.6092, 183.6500
158.0913, 184.7049
158.5734, 185.3855
159.0555, 185.2544
159.5376, 184.5423
160.0198, 183.8463
160.5019, 183.4916
160.9840, 183.4103
161.4661, 183.2912
161.9482, 183.1904
162.4303, 183.0004
162.9125, 182.5296
163.3946, 181.7958
163.8767, 181.2511
164.3588, 181.3308
164.8409, 181.7347
165.3230, 181.9501
165.8052, 181.8292
166.2873, 181.5437
166.7694, 181.3016
167.2515, 181.1055
167.7336, 180.9431
168.2157, 180.7282
168.6979, 180.5603
169.1800, 180.6169
169.6621, 181.1043
170.1442, 181.7697
170.6263, 181.8398
171.1084, 180.8381
171.5906, 179.9841
172.0727, 179.7171
172.5548, 179.8082
173.0369, 179.9342
173.5190, 179.8941
174.0011, 179.7168
174.4833, 179.6487
174.9654, 179.8419
175.4475, 179.9986
175.9296, 180.0501
176.4117, 180.0181
176.8938, 179.9540
177.3760, 179.8970
177.8581, 179.8484
178.3402, 179.7501
178.8223, 179.5629
179.3044, 179.3717
179.7865, 179.1930
180.2687, 179.0344
180.7508, 178.9050
181.2329, 178.8142
181.7150, 178.7653
182.1971, 178.7444
182.6792, 178.7363
183.1614, 178.7639
183.6435, 178.8768
184.1256, 179.0625
184.6077, 179.2131
185.0898, 179.1996
185.5719, 179.0133
186.0541, 178.9894
186.5362, 179.3668
187.0183, 179.7743
187.5004, 179.7679
187.9825, 179.2762
188.4646, 178.8188
188.9468, 179.0052
189.4289, 179.6701
189.9110, 180.1508
190.3931, 180.2375
190.8752, 180.0717
191.3573, 179.8472
191.8395, 179.5564
192.3216, 179.2660
192.8037, 178.9162
193.2858, 178.5885
193.7679, 178.5139
194.2500, 179.0092
194.7322, 179.8613
195.2143, 180.3592
195.6964, 180.3008
196.1785, 180.1633
196.6606, 180.2758
197.1427, 180.5267
197.6249, 180.6567
198.1070, 180.3412
198.5891, 179.6668
199.0712, 179.5438
199.5533, 180.4339
200.0354, 181.4120
200.5176, 182.2685
200.9997, 182.9377
201.4818, 183.3237
201.9639, 183.2980
202.4460, 182.8493
202.9281, 182.4655
203.4103, 182.1357
203.8924, 181.8916
204.3745, 181.7524
204.8566, 181.7118
205.3387, 181.7558
205.8208, 181.8730
206.3030, 182.0656
206.7851, 182.3294
207.2672, 182.8221
207.7493, 183.2354
208.2314, 183.4120
208.7135, 183.3839
209.1957, 183.2823
209.6778, 183.2135
210.1599, 183.1714
210.6420, 183.2301
211.1241, 183.3438
211.6062, 183.5701
212.0884, 184.0249
212.5705, 184.6572
213.0526, 185.2701
213.5347, 185.7211
214.0168, 185.9956
214.4989, 185.9237
214.9811, 184.0478
215.4632, 185.4444
215.9453, 186.1800
216.4274, 186.2901
216.9095, 183.9012
217.3916, 184.7392
217.8737, 184.2840
218.3559, 183.7758
218.8380, 185.0680
219.3201, 183.0426
219.8022, 184.3062
220.2843, 184.2569
220.7664, 184.8085
221.2486, 184.0589
221.7307, 183.7113
222.2128, 184.6652
222.6949, 184.8984
223.1770, 183.9990
223.6591, 184.5888
224.1413, 182.5179
224.6234, 182.7818
225.1055, 184.0531
225.5876, 183.2192
226.0697, 183.8328
226.5518, 183.8951
227.0340, 181.4519
227.5161, 183.3660
227.9982, 183.3957
228.4803, 183.2682
228.9624, 183.4665
229.4445, 183.1408
229.9267, 182.7188
230.4088, 182.3857
230.8909, 182.0149
231.3730, 181.3833
231.8551, 180.4938
232.3372, 179.3190
232.8194, 177.3899
233.3015, 175.3277
233.7836, 173.9049
234.2657, 173.5327
234.7478, 173.8311
235.2299, 173.9596
235.7121, 173.8386
236.1942, 173.7020
236.6763, 173.6413
237.1584, 173.5963
237.6405, 173.4905
238.1227, 173.2823
238.6048, 173.0267
239.0869, 172.8700
239.5690, 172.8739
240.0511, 172.8727
240.5332, 172.7260
241.0154, 172.6037
241.4975, 172.7292
241.9796, 173.2018
242.4617, 173.8397
242.9438, 174.1695
243.4259, 173.9467
243.9081, 173.7847
244.3902, 173.8815
244.8723, 174.0051
245.3544, 173.8286
245.8365, 173.2383
246.3186, 172.5504
246.8008, 172.5235
247.2829, 173.9676
247.7650, 174.9097
248.2471, 175.0601
248.7292, 174.8130
249.2113, 174.4485
249.6935, 174.0810
250.1756, 173.7720
250.6577, 173.6469
251.1398, 173.8512
251.6219, 174.0456
252.1040, 174.2755
252.5862, 174.4702
253.0683, 174.5211
253.5504, 174.4085
254.0325, 174.2707
254.5146, 174.3471
254.9967, 174.8750
255.4789, 175.1724
255.9610, 175.1605
256.4431, 174.9697
256.9252, 174.6335
257.4073, 174.1790
257.8894, 173.7711
258.3716, 173.6467
258.8537, 173.9688
259.3358, 174.1705
259.8179, 174.0756
260.3000, 173.9669
260.7821, 174.1425
261.2643, 174.6416
261.7464, 175.1972
262.2285, 175.5138
262.7106, 175.5261
263.1927, 175.5739
263.6748, 175.7231
264.1570, 175.8688
264.6391, 175.9146
265.1212, 175.8523
265.6033, 175.7469
266.0854, 175.6585
266.5675, 175.5860
267.0497, 175.4751
267.5318, 175.2664
268.0139, 175.0592
268.4960, 174.9139
268.9781, 174.8376
269.4602, 174.8532
269.9424, 175.0125
270.4245, 175.2943
270.9066, 175.5108
271.3887, 175.7520
271.8708, 175.8567
272.3529, 175.5807
272.8351, 174.9630
273.3172, 174.4732
273.7993, 174.4678
274.2814, 174.7947
274.7635, 174.9105
275.2456, 174.6911
275.7278, 174.3876
276.2099, 174.1337
276.6920, 173.9328
277.1741, 173.8259
277.6562, 173.8987
278.1383, 174.0356
278.6205, 174.0121
279.1026, 173.7956
279.5847, 173.4883
280.0668, 172.3677
280.5489, 173.0726
281.0310, 173.4104
281.5132, 173.4010
281.9953, 172.0040
282.4774, 172.3988
282.9595, 172.0755
283.4416, 171.7227
283.9237, 172.3696
284.4059, 171.1745
284.8880, 171.8055
285.3701, 171.7076
285.8522, 171.9433
286.3343, 171.4565
286.8164, 171.1929
287.2986, 171.6520
287.7807, 171.7109
288.2628, 171.1410
288.7449, 171.3979
289.2270, 170.1775
289.7091, 170.2535
290.1913, 170.8887
290.6734, 170.3551
291.1555, 170.6252
291.6376, 169.9116
292.1197, 169.9766
292.6018, 169.9669
293.0840, 169.8311
293.5661, 169.7276
294.0482, 169.8487
294.5303, 170.0700
295.0124, 170.1499
295.4945, 169.8892
295.9767, 169.4887
296.4588, 169.3168
296.9409, 169.4197
297.4230, 169.5958
297.9051, 169.7989
298.3872, 169.9985
298.8694, 170.1678
299.3515, 170.3266
299.8336, 170.4055
300.3157, 170.2899
300.7978, 169.9522
301.2799, 169.5762
301.7621, 169.0798
302.2442, 168.6596
302.7263, 168.5315
303.2084, 168.7630
303.6905, 169.1171
304.1726, 169.3835
304.6548, 169.5605
305.1369, 169.6738
305.6190, 169.7581
306.1011, 169.7466
306.5832, 169.5384
307.0653, 169.1370
307.5475, 168.7551
308.0296, 168.5663
308.5117, 168.5592
308.9938, 168.6001
309.4759, 168.7207
309.9580, 168.8307
310.4402, 168.8337
310.9223, 168.7638
311.4044, 168.7516
311.8865, 168.9327
312.3686, 169.2517
312.8507, 169.4728
313.3329, 169.5869
313.8150, 169.6011
314.2971, 169.4104
314.7792, 169.1431
315.2613, 169.0598
315.7434, 169.4058
316.2256, 169.9244
316.7077, 170.0308
317.1898, 169.5990
317.6719, 169.0998
318.1540, 168.6358
318.6361, 168.2560
319.1183, 168.0138
319.6004, 167.9113
320.0825, 167.9869
320.5646, 168.3955
321.0467, 169.2208
321.5288, 169.8465
322.0110, 170.0118
322.4931, 169.9238
322.9752, 169.6129
323.4573, 169.0748
323.9394, 168.6723
324.4215, 168.9469
324.9037, 169.8755
325.3858, 170.2981
325.8679, 169.6338
326.3500, 168.7714
326.8321, 168.3383
327.3142, 168.3025
327.7964, 168.3568
328.2785, 168.2772
328.7606, 168.1096
329.2427, 168.1110
329.7248, 168.4405
330.2069, 168.6834
330.6891, 168.4772
331.1712, 168.0119
331.6533, 167.6899
332.1354, 167.7389
332.6175, 168.0211
333.0996, 168.2592
333.5818, 168.4330
334.0639, 168.6319
334.5460, 169.0220
335.0281, 169.4199
335.5102, 169.5912
335.9923, 169.4336
336.4745, 169.1319
336.9566, 168.8669
337.4387, 168.6378
337.9208, 168.4775
338.4029, 168.4659
338.8850, 168.4793
339.3671, 168.3403
339.8492, 168.0159
340.3314, 167.8119
340.8135, 168.1268
341.2956, 168.8423
341.7777, 169.1494
342.2598, 168.6700
342.7419, 168.0847
343.2241, 168.0468
343.7062, 168.4519
344.1883, 168.7838
344.6704, 168.7184
345.1525, 168.4218
345.6346, 168.2413
346.1168, 168.1980
346.5989, 168.2585
347.0810, 168.5300
347.5631, 168.8800
348.0452, 169.0543
348.5273, 168.8483
349.0095, 168.5655
349.4916, 168.6258
349.9737, 169.0398
350.4558, 169.3062
350.9379, 169.1282
351.4200, 168.6921
351.9022, 168.2786
352.3843, 167.8412
352.8664, 167.5957
353.3485, 167.8357
353.8306, 168.4271
354.3127, 168.8449
354.7949, 168.9481
355.2770, 168.8185
355.7591, 168.4259
356.2412, 167.7664
356.7233, 167.4093
357.2054, 167.7745
357.6876, 168.4996
358.1697, 169.0379
358.6518, 169.3179
359.1339, 169.4299
359.6160, 169.4553
360.0981, 169.3743
360.5803, 169.0886
361.0624, 168.3006
361.5445, 167.5186
362.0266, 167.1978
362.5087, 167.3018
362.9908, 167.5113
363.4730, 167.7041
363.9551, 167.8461
364.4372, 167.8306
364.9193, 167.4589
365.4014, 167.2661
365.8835, 167.7381
366.3657, 168.5186
366.8478, 168.8009
367.3299, 168.2467
367.8120, 167.4028
368.2941, 167.1461
368.7762, 167.5869
369.2584, 168.0621
369.7405, 168.6031
370.2226, 169.0686
370.7047, 169.3716
371.1868, 169.4870
371.6689, 169.2878
372.1511, 168.5547
372.6332, 167.2587
373.1153, 166.5087
373.5974, 166.6163
374.0795, 166.8964
374.5616, 167.1399
375.0438, 167.2955
375.5259, 167.2350
376.0080, 166.8440
376.4901, 166.2919
376.9722, 166.1941
377.4543, 167.2064
377.9365, 167.8202
378.4186, 167.5908
378.9007, 167.0182
379.3828, 166.5641
379.8649, 166.3789
380.3470, 166.5040
380.8292, 167.0752
381.3113, 168.4935
381.7934, 169.1018
382.2755, 168.4253
382.7576, 167.4685
383.2397, 166.6324
383.7219, 166.0126
384.2040, 165.6641
384.6861, 165.6448
385.1682, 165.9401
385.6503, 166.3175
386.1324, 167.1085
386.6146, 167.6062
387.0967, 167.5314
387.5788, 167.1415
388.0609, 166.7171
388.5430, 166.3808
389.0251, 166.1591
389.5073, 166.0981
389.9894, 166.1774
390.4715, 166.4829
390.9536, 167.3111
391.4357, 168.1058
391.9178, 168.5311
392.4000, 168.5507
392.8821, 168.3066
393.3642, 167.8362
393.8463, 167.1214
394.3284, 166.7834
394.8105, 167.2339
395.2927, 167.5937
395.7748, 167.5105
396.2569, 167.1487
396.7390, 166.7783
397.2211, 166.5146
397.7032, 166.3612
398.1854, 166.3542
398.6675, 166.5540
399.1496, 166.7197
399.6317, 166.8067
400.1138, 166.8212
400.5959, 166.7296
401.0781, 166.5306
401.5602, 166.3367
402.0423, 166.2247
402.5244, 166.1977
403.0065, 166.3080
403.4886, 166.6417
403.9708, 166.9999
404.4529, 167.3245
404.9350, 167.5735
405.4171, 167.6148
405.8992, 167.2770
406.3813, 166.7556
406.8635, 166.3055
407.3456, 165.9143
407.8277, 165.7155
408.3098, 165.9200
408.7919, 166.2924
409.2740, 166.4234
409.7562, 166.2216
410.2383, 165.9615
410.7204, 165.7557
411.2025, 165.6190
411.6846, 165.6001
412.1667, 165.7256
412.6489, 165.9341
413.1310, 166.2032
413.6131, 166.5352
414.0952, 166.7291
414.5773, 166.6423
415.0594, 166.4760
415.5416, 166.3841
416.0237, 166.3815
416.5058, 166.4947
416.9879, 166.8034
417.4700, 167.2225
417.9521, 167.2886
418.4343, 166.6375
418.9164, 166.1308
419.3985, 166.0583
419.8806, 166.2549
420.3627, 166.4704
420.8448, 166.6248
421.3270, 166.8283
421.8091, 167.2623
422.2912, 168.0540
422.7733, 168.7089
423.2554, 169.3221
423.7375, 169.7294
424.2197, 169.7037
424.7018, 169.3568
425.1839, 169.0258
425.6660, 168.9510
426.1481, 169.1026
426.6302, 169.2793
427.1124, 169.4693
427.5945, 169.7041
428.0766, 170.0485
428.5587, 170.4084
429.0408, 170.6947
429.5229, 170.8798
430.0051, 170.9984
430.4872, 171.0868
430.9693, 171.1312
431.4514, 171.2039
431.9335, 171.3335
432.4156, 171.4712
432.8978, 171.5745
433.3799, 171.6695
433.8620, 171.8373
434.3441, 172.1765
434.8262, 172.5831
435.3083, 172.7093
435.7905, 172.4216
436.2726, 172.2225
436.7547, 172.3670
437.2368, 172.6415
437.7189, 172.9096
438.2010, 173.1550
438.6832, 173.2668
439.1653, 172.9675
439.6474, 172.3858
440.1295, 172.2798
440.6116, 172.9409
441.0938, 173.7574
441.5759, 174.1921
442.0580, 174.3498
442.5401, 174.5301
443.0222, 174.7734
443.5043, 175.1039
443.9865, 175.6707
444.4686, 176.4233
444.9507, 176.9225
445.4328, 176.9224
445.9149, 176.5782
446.3970, 176.2062
446.8792, 175.7314
447.3613, 175.4344
447.8434, 175.5231
448.3255, 175.7709
448.8076, 175.9079
449.2897, 175.8882
449.7719, 175.8026
450.2540, 175.7414
450.7361, 175.7088
451.2182, 175.5786
451.7003, 175.2894
452.1824, 174.9871
452.6646, 174.5664
453.1467, 174.2003
453.6288, 174.2726
454.1109, 174.9530
454.5930, 175.8445
455.0751, 176.1204
455.5573, 175.2866
456.0394, 174.7945
456.5215, 174.9387
457.0036, 175.1145
457.4857, 174.9482
457.9678, 174.4733
458.4500, 173.9352
458.9321, 173.5017
459.4142, 173.1699
459.8963, 172.9347
460.3784, 172.8981
460.8605, 172.7741
461.3427, 172.3058
461.8248, 171.8197
462.3069, 171.7192
462.7890, 172.1035
463.2711, 172.5042
463.7532, 172.3881
464.2354, 171.7932
464.7175, 171.2720
465.1996, 170.9590
465.6817, 170.6087
466.1638, 169.9120
466.6459, 169.0378
467.1281, 168.4283
467.6102, 168.3431
468.0923, 168.4839
468.5744, 168.5435
469.0565, 168.5330
469.5386, 168.5936
470.0208, 168.8616
470.5029, 169.1233
470.9850, 168.9532
471.4671, 168.2969
471.9492, 167.6486
472.4313, 167.0509
472.9135, 166.5673
473.3956, 166.3237
473.8777, 166.3042
474.3598, 166.2622
474.8419, 164.9475
475.3240, 165.6849
475.8062, 166.0520
476.2883, 166.0688
476.7704, 164.6860
477.2525, 165.1105
477.7346, 164.8107
478.2167, 164.4813
478.6989, 165.1601
479.1810, 163.9809
479.6631, 164.6438
480.1452, 164.5714
480.6273, 164.8355
481.1094, 164.3708
481.5916, 164.8834
482.0737, 165.0646
482.5558, 165.0355
483.0379, 164.6607
483.5200, 163.8165
484.0021, 162.8883
484.4843, 162.6889
484.9664, 163.3970
485.4485, 164.0148
485.9306, 164.5060
486.4127, 164.7005
486.8948, 164.2996
487.3770, 163.4205
487.8591, 162.6976
488.3412, 162.6160
488.8233, 162.8957
489.3054, 163.0085
489.7875, 162.9393
490.2697, 162.7945
490.7518, 162.5170
491.2339, 162.2667
491.7160, 162.4049
492.1981, 163.1622
492.6802, 163.6308
493.1624, 163.0676
493.6445, 162.1099
494.1266, 161.8255
494.6087, 162.3777
495.0908, 162.9571
495.5729, 162.7634
496.0551, 161.8155
496.5372, 161.5517
497.0193, 162.5402
497.5014, 163.4406
497.9835, 163.8008
498.4656, 163.8419
498.9478, 163.8842
499.4299, 164.0357
499.9120, 164.2031
500.3941, 164.2204
500.8762, 163.9855
501.3583, 164.0110
501.8405, 164.6252
502.3226, 165.1657
502.8047, 165.3359
503.2868, 165.2698
503.7689, 165.2007
504.2510, 165.2231
504.7331, 165.3817
505.2152, 165.8597
505.6974, 166.7608
506.1795, 167.3338
506.6616, 167.1627
507.1437, 166.8579
507.6258, 166.8463
508.1079, 167.1076
508.5901, 167.4641
509.0722, 167.7999
509.5543, 168.1963
510.0364, 168.8106
510.5185, 169.6390
511.0006, 170.5213
511.4828, 171.4862
511.9649, 172.3586
512.4470, 172.7028
512.9291, 172.3550
513.4113, 172.1424
513.8934, 172.2487
514.3755, 172.6074
514.8576, 173.2307
515.3397, 174.0766
515.8218, 174.9523
516.3040, 175.7392
516.7861, 176.4246
517.2682, 176.9090
517.7503, 176.8512
518.2324, 177.0177
518.7145, 177.7098
519.1967, 178.5196
519.6788, 178.9737
520.1609, 179.0498
520.6430, 179.1961
521.1251, 179.9274
521.6072, 181.2238
522.0894, 182.2337
522.5715, 182.8902
523.0536, 183.3531
523.5357, 183.5481
524.0178, 183.6664
524.4999, 183.9700
524.9821, 184.5452
525.4642, 185.0956
525.9463, 185.2621
526.4284, 185.1501
526.9105, 185.3427
527.3926, 186.0878
527.8748, 186.6229
528.3569, 186.1187
528.8390, 184.8933
529.3211, 184.0546
529.8032, 184.0445
530.2853, 184.0647
530.7675, 183.7598
531.2496, 183.1667
531.7317, 182.3045
532.2138, 181.1719
532.6959, 179.9307
533.1780, 178.7677
533.6602, 177.6747
534.1423, 176.7107
534.6244, 175.8640
535.1065, 175.1279
535.5886, 174.6522
536.0707, 174.2425
536.5529, 173.5634
537.0350, 172.4939
537.5171, 171.2944
537.9992, 170.4126
538.4813, 169.9206
538.9634, 169.3800
539.4456, 168.7153
539.9277, 168.0693
540.4098, 167.5493
540.8919, 167.0949
541.3740, 166.5702
541.8561, 165.8864
542.3383, 165.1895
542.8204, 164.6331
543.3025, 164.2177
543.7846, 163.9850
544.2667, 164.0291
544.7488, 164.0931
545.2310, 163.8318
545.7131, 163.2882
546.1952, 162.8602
546.6773, 162.6797
547.1594, 162.5667
547.6415, 162.4498
548.1237, 162.3054
548.6058, 162.0589
549.0879, 161.6761
549.5700, 161.2681
550.0521, 161.0218
550.5342, 160.9923
551.0164, 160.9677
551.4985, 160.9561
551.9806, 160.9415
552.4627, 160.9166
552.9448, 160.8835
553.4269, 160.8589
553.9091, 160.8545
554.3912, 160.8218
554.8733, 160.6383
555.3554, 160.2627
555.8375, 160.0176
556.3196, 160.0354
556.8018, 160.0884
557.2839, 160.0667
557.7660, 159.9642
558.2481, 159.7545
558.7302, 159.3114
559.2123, 158.8977
559.6945, 158.8162
560.1766, 159.0101
560.6587, 159.2381
561.1408, 159.4376
561.6229, 159.6231
562.1050, 159.8757
562.5872, 160.2436
563.0693, 160.1859
563.5514, 159.1042
564.0335, 158.1923
564.5156, 158.2726
564.9977, 158.9130
565.4799, 159.2514
565.9620, 158.9498
566.4441, 158.4285
566.9262, 158.4221
567.4083, 159.1716
567.8904, 159.4517
568.3726, 158.8005
568.8547, 158.1354
569.3368, 157.7022
569.8189, 157.4793
570.3010, 157.3985
570.7831, 157.4290
571.2653, 157.6185
571.7474, 158.2090
572.2295, 159.1044
572.7116, 159.4673
573.1937, 159.0050
573.6758, 158.3888
574.1580, 158.1879
574.6401, 158.3017
575.1222, 158.3342
575.6043, 158.2260
576.0864, 158.0558
576.5685, 157.6827
577.0507, 157.3260
577.5328, 157.5312
578.0149, 158.3872
578.4970, 159.1255
578.9791, 158.8448
579.4612, 157.4850
579.9434, 156.6288
580.4255, 156.6697
580.9076, 156.7692
581.3897, 156.7856
581.8718, 156.7788
582.3539, 156.8464
582.8361, 157.0004
583.3182, 157.1302
583.8003, 157.1196
584.2824, 156.9827
584.7645, 156.8062
585.2466, 156.5500
585.7288, 156.3679
586.2108, 156.3745
586.6929, 156.4842
587.1750, 156.5596
587.6572, 156.5622
588.1393, 156.6563
588.6214, 157.0784
589.1035, 157.5523
