##NAMES=Shigaite
##RRUFFID=R080090
##IDEAL CHEMISTRY=NaAl_3_Mn^2+^_6_(S^6+^O_4_)_2_(OH)_18_&#183;12H_2_O
##LOCALITY=Ioi Mine, Shiga Prefecture, Kinki Region, Honshu Island, Japan
##OWNER=RRUFF
##SOURCE=Michael Scott
##DESCRIPTION=Semi-transparent, dull-yellow to pale yellow coating
##STATUS=The identification of this mineral has been confirmed by single-crystal X-ray diffraction.
##URL=rruff.info/R080090
91.87140, 0.0000000E+00
92.35352, 6.267697
92.83563, 6.185819
93.31775, 6.151113
93.79987, 6.158628
94.28198, 6.212702
94.76410, 6.323534
95.24622, 6.483858
95.72833, 6.710688
96.21045, 7.048468
96.69257, 7.501788
97.17468, 8.013749
97.65680, 8.566633
98.13892, 9.160716
98.62103, 9.666810
99.10315, 9.975550
99.58527, 10.14439
100.0674, 10.56885
100.5495, 11.28628
101.0316, 12.16988
101.5137, 13.01826
101.9958, 13.76591
102.4780, 14.73157
102.9601, 16.05502
103.4422, 17.79628
103.9243, 19.48367
104.4064, 21.07606
104.8885, 22.64976
105.3707, 24.40518
105.8528, 26.48834
106.3349, 28.52695
106.8170, 30.35759
107.2991, 31.85010
107.7813, 33.38377
108.2634, 35.02874
108.7455, 36.73269
109.2276, 38.26101
109.7097, 39.39550
110.1918, 40.52645
110.6740, 41.81750
111.1561, 43.37235
111.6382, 44.97553
112.1203, 46.53451
112.6024, 48.10022
113.0845, 49.89718
113.5667, 52.09781
114.0488, 54.45733
114.5309, 56.83687
115.0130, 59.21481
115.4951, 61.57761
115.9772, 63.84483
116.4594, 66.04489
116.9415, 68.46768
117.4236, 71.56837
117.9057, 74.83797
118.3878, 77.71947
118.8699, 79.80089
119.3521, 81.62844
119.8342, 83.49491
120.3163, 85.41541
120.7984, 87.40745
121.2805, 89.44779
121.7626, 91.56902
122.2448, 93.82676
122.7269, 96.89788
123.2090, 99.80363
123.6911, 101.4427
124.1732, 101.5210
124.6553, 101.0792
125.1375, 100.7776
125.6196, 100.6720
126.1017, 100.9394
126.5838, 101.7038
127.0659, 102.9122
127.5480, 104.5433
128.0302, 106.7276
128.5123, 109.0699
128.9944, 111.0185
129.4765, 112.6025
129.9586, 114.0948
130.4407, 115.7019
130.9229, 117.3852
131.4050, 118.9985
131.8871, 120.4743
132.3692, 121.8581
132.8513, 123.1527
133.3334, 124.1462
133.8156, 124.6892
134.2977, 125.1809
134.7798, 126.0398
135.2619, 126.8579
135.7440, 127.5414
136.2261, 128.1145
136.7083, 128.7201
137.1904, 129.3492
137.6725, 130.0524
138.1546, 131.0223
138.6367, 132.3922
139.1188, 133.3384
139.6010, 133.6246
140.0831, 133.2548
140.5652, 132.6248
141.0473, 131.4865
141.5294, 130.4111
142.0115, 130.2900
142.4937, 131.6407
142.9758, 132.7013
143.4579, 132.8477
143.9400, 131.8023
144.4221, 131.1947
144.9042, 131.1563
145.3864, 131.4618
145.8685, 131.7544
146.3506, 132.1467
146.8327, 132.3745
147.3148, 132.3198
147.7969, 131.7864
148.2791, 131.4147
148.7612, 131.2619
149.2433, 131.2642
149.7254, 131.2740
150.2075, 131.2110
150.6896, 131.2281
151.1718, 131.3851
151.6539, 131.7792
152.1360, 132.1720
152.6181, 132.5708
153.1002, 132.9679
153.5823, 133.3371
154.0645, 133.8921
154.5466, 134.2682
155.0287, 134.2947
155.5108, 133.7315
155.9929, 133.0860
156.4750, 132.2425
156.9572, 131.3108
157.4393, 130.7712
157.9214, 131.1565
158.4035, 131.6953
158.8856, 131.9081
159.3677, 131.2271
159.8499, 130.6741
160.3320, 130.5620
160.8141, 130.8409
161.2962, 131.2276
161.7783, 131.9489
162.2604, 132.5836
162.7426, 132.7844
163.2247, 131.9030
163.7068, 131.0469
164.1889, 130.7449
164.6710, 130.9723
165.1531, 131.2812
165.6353, 131.6349
166.1174, 131.8944
166.5995, 131.9099
167.0816, 131.2810
167.5637, 130.6459
168.0458, 130.4776
168.5280, 130.7812
169.0101, 131.1019
169.4922, 131.0633
169.9743, 130.8758
170.4564, 130.8341
170.9385, 131.3595
171.4207, 131.9030
171.9028, 131.8979
172.3849, 131.3024
172.8670, 130.6394
173.3491, 130.3207
173.8312, 130.2180
174.3134, 130.0847
174.7955, 129.6776
175.2776, 129.2390
175.7597, 129.0953
176.2418, 129.2873
176.7239, 129.5660
177.2061, 129.8118
177.6882, 129.9808
178.1703, 129.9507
178.6524, 129.4270
179.1345, 128.7247
179.6166, 128.4395
180.0988, 128.6574
180.5809, 128.9927
181.0630, 128.9626
181.5451, 128.6537
182.0272, 128.4145
182.5093, 128.4873
182.9915, 128.7578
183.4736, 128.9445
183.9557, 129.0184
184.4378, 129.0473
184.9199, 129.0732
185.4020, 129.1088
185.8842, 129.2540
186.3663, 129.8064
186.8484, 130.5606
187.3305, 130.6157
187.8126, 129.7312
188.2947, 128.5938
188.7769, 128.3537
189.2590, 128.9744
189.7411, 129.7022
190.2232, 130.0998
190.7053, 130.2219
191.1874, 130.4373
191.6696, 130.7982
192.1517, 131.2264
192.6338, 131.5822
193.1159, 131.8639
193.5980, 132.1249
194.0801, 132.3251
194.5623, 132.4809
195.0444, 132.9110
195.5265, 133.7355
196.0086, 134.7113
196.4907, 135.2159
196.9728, 135.1759
197.4550, 135.2701
197.9371, 136.0375
198.4192, 137.4921
198.9013, 138.7045
199.3834, 139.5882
199.8655, 140.1902
200.3477, 140.5415
200.8298, 140.5668
201.3119, 140.6835
201.7940, 141.2197
202.2761, 142.2257
202.7582, 143.0943
203.2404, 143.7728
203.7225, 144.2848
204.2046, 144.6446
204.6867, 144.7961
205.1688, 144.9929
205.6509, 145.3513
206.1331, 145.8554
206.6152, 146.6563
207.0973, 147.8514
207.5794, 149.3082
208.0615, 150.5953
208.5436, 151.6408
209.0258, 152.7119
209.5079, 153.9907
209.9900, 155.5258
210.4721, 157.0202
210.9542, 158.4804
211.4363, 159.8718
211.9185, 161.0801
212.4006, 162.0945
212.8827, 162.9521
213.3648, 163.6324
213.8469, 164.0975
214.3290, 164.5922
214.8112, 165.3029
215.2933, 166.0168
215.7754, 165.9787
216.2575, 165.0748
216.7396, 163.6262
217.2217, 161.7752
217.7039, 159.4353
218.1860, 156.9776
218.6681, 154.4504
219.1502, 151.8354
219.6323, 149.0420
220.1144, 145.9339
220.5966, 142.9254
221.0787, 140.2711
221.5608, 138.0135
222.0429, 136.0154
222.5250, 134.3038
223.0071, 132.8483
223.4893, 131.6165
223.9714, 130.6648
224.4535, 129.8337
224.9356, 129.0529
225.4177, 128.4067
225.8998, 127.5957
226.3820, 126.4704
226.8641, 125.1820
227.3462, 124.3127
227.8283, 124.0325
228.3104, 123.9092
228.7925, 123.7453
229.2747, 123.5659
229.7568, 123.2601
230.2389, 122.7137
230.7210, 122.0510
231.2031, 121.7221
231.6852, 121.9612
232.1674, 122.1857
232.6495, 122.0917
233.1316, 121.4982
233.6137, 120.9784
234.0958, 120.4961
234.5779, 120.1109
235.0601, 120.0333
235.5422, 120.4760
236.0243, 120.9184
236.5064, 121.1095
236.9885, 120.8755
237.4706, 120.7850
237.9528, 120.9201
238.4349, 121.1784
238.9170, 121.2866
239.3991, 121.1144
239.8812, 120.9869
240.3633, 121.0707
240.8455, 121.5312
241.3276, 121.7816
241.8097, 121.7209
242.2918, 121.4844
242.7739, 121.3634
243.2560, 121.3803
243.7382, 121.4797
244.2203, 121.6689
244.7024, 122.0339
245.1845, 122.2329
245.6666, 122.1567
246.1487, 121.9672
246.6309, 121.9735
247.1130, 122.2234
247.5951, 122.5957
248.0772, 123.0985
248.5593, 123.8476
249.0414, 124.2980
249.5236, 124.3304
250.0057, 124.1375
250.4878, 124.0232
250.9699, 123.9761
251.4520, 124.0269
251.9341, 124.1899
252.4163, 124.4762
252.8984, 124.8342
253.3805, 125.3307
253.8626, 125.8505
254.3447, 126.1812
254.8268, 126.1753
255.3090, 126.3032
255.7911, 126.8136
256.2732, 127.8200
256.7553, 128.2129
257.2374, 127.6547
257.7195, 126.8158
258.2017, 126.5426
258.6838, 127.0512
259.1659, 127.6297
259.6480, 128.1187
260.1301, 128.5103
260.6122, 128.9261
261.0944, 129.3945
261.5765, 129.8546
262.0586, 130.2583
262.5407, 130.6308
263.0228, 130.8757
263.5049, 130.9509
263.9871, 130.8631
264.4692, 130.7375
264.9513, 130.5285
265.4334, 130.3540
265.9155, 130.3524
266.3976, 130.6005
266.8798, 130.7522
267.3619, 130.6941
267.8440, 130.4687
268.3261, 130.4545
268.8082, 130.7359
269.2903, 131.0502
269.7725, 131.2069
270.2546, 131.2073
270.7367, 131.0330
271.2188, 130.6558
271.7009, 130.1074
272.1830, 129.4350
272.6652, 128.5291
273.1473, 127.8119
273.6294, 127.6980
274.1115, 128.3391
274.5936, 128.6117
275.0757, 128.2913
275.5579, 127.6128
276.0400, 127.2955
276.5221, 127.4227
277.0042, 127.5712
277.4863, 127.4784
277.9684, 127.1256
278.4506, 126.7850
278.9327, 126.4878
279.4148, 126.1963
279.8969, 125.7750
280.3790, 125.1875
280.8611, 124.7318
281.3433, 124.6460
281.8254, 124.9268
282.3075, 125.0545
282.7896, 125.0199
283.2717, 124.8217
283.7538, 124.4255
284.2360, 123.8270
284.7181, 123.1595
285.2002, 122.3600
285.6823, 121.4786
286.1644, 121.0222
286.6465, 121.0522
287.1287, 121.2959
287.6108, 121.4748
288.0929, 121.5851
288.5750, 121.5615
289.0571, 121.3049
289.5392, 120.8910
290.0214, 120.6686
290.5035, 120.6635
290.9856, 120.6457
291.4677, 120.3280
291.9498, 119.7568
292.4319, 119.2223
292.9141, 118.7730
293.3962, 118.4347
293.8783, 118.3344
294.3604, 118.4774
294.8425, 118.6134
295.3246, 118.4927
295.8068, 118.1838
296.2889, 117.9147
296.7710, 117.7354
297.2531, 117.6247
297.7352, 117.5834
298.2173, 117.6014
298.6995, 117.5879
299.1816, 117.4678
299.6637, 117.2680
300.1458, 117.0065
300.6279, 116.6076
301.1100, 116.3122
301.5922, 116.6534
302.0743, 117.4451
302.5564, 117.9389
303.0385, 117.2448
303.5206, 116.1251
304.0027, 115.7914
304.4849, 116.5637
304.9670, 117.4487
305.4491, 117.3666
305.9312, 116.6485
306.4133, 116.0888
306.8954, 116.2970
307.3776, 116.7451
307.8597, 116.8552
308.3418, 116.5631
308.8239, 116.2828
309.3060, 116.4266
309.7881, 116.7707
310.2703, 116.9565
310.7524, 116.6466
311.2345, 116.2713
311.7166, 116.1666
312.1987, 116.3291
312.6808, 116.4969
313.1630, 116.5400
313.6451, 116.5041
314.1272, 116.4371
314.6093, 116.2403
315.0914, 116.1214
315.5735, 116.2303
316.0557, 116.5279
316.5378, 116.8104
317.0199, 117.0380
317.5020, 117.1891
317.9841, 117.2300
318.4662, 116.9840
318.9484, 116.8808
319.4305, 117.2312
319.9126, 117.8495
320.3947, 118.2481
320.8768, 118.1505
321.3589, 117.9010
321.8411, 117.6162
322.3232, 117.1828
322.8053, 117.0409
323.2874, 117.4948
323.7695, 118.2508
324.2516, 118.8437
324.7338, 119.1730
325.2159, 119.3553
325.6980, 119.3649
326.1801, 119.1275
326.6622, 119.0542
327.1443, 119.3764
327.6265, 119.7873
328.1086, 119.9785
328.5907, 119.8013
329.0728, 119.5625
329.5549, 119.2088
330.0370, 118.7361
330.5192, 118.5940
331.0013, 118.9815
331.4834, 119.5299
331.9655, 120.0011
332.4476, 120.4159
332.9297, 120.7082
333.4119, 120.7792
333.8940, 120.7111
334.3761, 120.9119
334.8582, 121.6096
335.3403, 122.2055
335.8224, 122.3710
336.3046, 121.9671
336.7867, 121.4954
337.2688, 120.8124
337.7509, 120.1777
338.2330, 120.2337
338.7151, 121.2517
339.1973, 122.1035
339.6794, 122.2346
340.1615, 121.5941
340.6436, 121.3982
341.1257, 121.7620
341.6078, 122.3281
342.0900, 122.6648
342.5721, 122.7588
343.0542, 122.7489
343.5363, 122.6072
344.0184, 122.4004
344.5005, 122.4302
344.9827, 122.7119
345.4648, 123.1206
345.9469, 123.6769
346.4290, 124.3315
346.9111, 124.5783
347.3932, 124.1406
347.8754, 123.4929
348.3575, 123.6774
348.8396, 124.6226
349.3217, 125.5543
349.8038, 125.8800
350.2859, 125.7985
350.7681, 125.7957
351.2502, 125.9394
351.7323, 126.1177
352.2144, 126.1690
352.6965, 126.1428
353.1786, 126.1874
353.6608, 126.3884
354.1429, 126.6988
354.6250, 127.1579
355.1071, 127.7787
355.5892, 128.2130
356.0714, 128.0179
356.5535, 127.5030
357.0356, 127.1238
357.5177, 127.0686
357.9998, 127.1898
358.4819, 127.4581
358.9641, 127.8455
359.4462, 128.1878
359.9283, 128.3633
360.4104, 128.4750
360.8925, 128.6037
361.3746, 128.7529
361.8568, 128.9427
362.3389, 129.2345
362.8210, 129.5711
363.3031, 129.8314
363.7852, 129.9571
364.2673, 130.0120
364.7495, 130.0100
365.2316, 129.9303
365.7137, 129.8753
366.1958, 129.9170
366.6779, 129.9761
367.1600, 129.9594
367.6422, 129.5908
368.1243, 129.4210
368.6064, 129.7011
369.0885, 130.4677
369.5706, 130.8981
370.0527, 130.7032
370.5349, 130.4004
371.0170, 130.3463
371.4991, 130.8694
371.9812, 131.0677
372.4633, 130.6752
372.9454, 129.9237
373.4276, 129.6487
373.9097, 130.0158
374.3918, 130.5709
374.8739, 131.1511
375.3560, 131.8175
375.8381, 132.2475
376.3203, 132.3720
376.8024, 132.3433
377.2845, 132.3851
377.7666, 132.5071
378.2487, 132.6340
378.7308, 132.7021
379.2130, 132.7422
379.6951, 132.9908
380.1772, 133.4752
380.6593, 134.0340
381.1414, 134.6035
381.6235, 135.1575
382.1057, 135.4585
382.5878, 135.3542
383.0699, 135.1101
383.5520, 135.3012
384.0341, 135.8852
384.5162, 136.4102
384.9984, 136.5473
385.4805, 136.4278
385.9626, 136.2863
386.4447, 136.1168
386.9268, 136.0830
387.4089, 136.4281
387.8911, 137.0395
388.3732, 137.6570
388.8553, 138.3051
389.3374, 138.8183
389.8195, 138.8835
390.3016, 138.5348
390.7838, 138.3431
391.2659, 138.9308
391.7480, 139.7490
392.2301, 140.2129
392.7122, 139.9520
393.1943, 139.6042
393.6765, 139.3168
394.1586, 139.1599
394.6407, 139.3304
395.1228, 140.4530
395.6049, 141.4813
396.0870, 141.7685
396.5692, 140.8882
397.0513, 140.4201
397.5334, 140.8911
398.0155, 141.8646
398.4976, 142.7854
398.9797, 143.7892
399.4619, 144.5355
399.9440, 144.8951
400.4261, 144.8688
400.9082, 144.8321
401.3903, 144.7146
401.8724, 144.6492
402.3546, 144.7202
402.8367, 144.9445
403.3188, 145.2692
403.8009, 145.7256
404.2830, 146.2656
404.7651, 146.8170
405.2473, 147.4597
405.7294, 147.8661
406.2115, 147.7540
406.6936, 147.0970
407.1757, 147.0106
407.6578, 147.6447
408.1400, 148.4466
408.6221, 148.7218
409.1042, 148.4843
409.5863, 148.3611
410.0684, 148.5463
410.5505, 148.9282
411.0327, 149.2225
411.5148, 149.4369
411.9969, 149.7491
412.4790, 150.3919
412.9611, 151.2264
413.4432, 151.8781
413.9254, 152.2644
414.4075, 152.6253
414.8896, 153.2727
415.3717, 154.0999
415.8538, 154.8518
416.3359, 155.3620
416.8181, 155.7653
417.3002, 156.1200
417.7823, 156.4387
418.2644, 156.8542
418.7465, 157.5700
419.2286, 158.3689
419.7108, 159.0162
420.1929, 159.2224
420.6750, 159.5851
421.1571, 160.5151
421.6392, 161.7909
422.1213, 162.8159
422.6035, 163.1594
423.0856, 163.4510
423.5677, 163.9843
424.0498, 164.8819
424.5319, 165.6504
425.0140, 166.0505
425.4962, 166.4112
425.9783, 167.0696
426.4604, 168.2195
426.9425, 169.3899
427.4246, 170.5002
427.9067, 171.5786
428.3889, 172.7714
428.8710, 174.1915
429.3531, 175.5238
429.8352, 176.5589
430.3173, 177.1928
430.7994, 177.9830
431.2816, 178.9565
431.7637, 180.0614
432.2458, 181.2025
432.7279, 182.3764
433.2100, 183.6082
433.6921, 184.9401
434.1743, 186.3332
434.6564, 187.6342
435.1385, 188.8600
435.6206, 189.9727
436.1027, 190.8894
436.5848, 191.6703
437.0670, 192.5114
437.5491, 193.5136
438.0312, 194.4352
438.5133, 194.8278
438.9954, 194.9024
439.4775, 195.2416
439.9597, 196.4461
440.4418, 197.8627
440.9239, 198.9165
441.4060, 199.5759
441.8881, 200.0888
442.3702, 200.3292
442.8524, 200.6083
443.3345, 201.2389
443.8166, 202.7735
444.2987, 204.1161
444.7808, 204.7651
445.2629, 204.9414
445.7451, 205.2988
446.2272, 206.1187
446.7093, 206.9987
447.1914, 207.7926
447.6735, 208.4789
448.1556, 209.1287
448.6378, 209.7776
449.1199, 210.3587
449.6020, 210.7809
450.0841, 210.9024
450.5662, 211.1633
451.0483, 211.7299
451.5305, 212.4847
452.0126, 212.8900
452.4947, 212.9144
452.9768, 212.6968
453.4589, 212.2104
453.9410, 211.4392
454.4232, 210.9200
454.9053, 210.6921
455.3874, 210.5950
455.8695, 210.5245
456.3516, 210.4447
456.8337, 210.0877
457.3159, 209.2119
457.7980, 208.1332
458.2801, 207.4536
458.7622, 207.1279
459.2443, 206.8118
459.7264, 206.2182
460.2086, 205.5219
460.6907, 204.9885
461.1728, 204.6979
461.6549, 204.3904
462.1370, 203.8988
462.6191, 203.2758
463.1013, 202.6074
463.5834, 202.0072
464.0655, 201.2912
464.5476, 200.3276
465.0297, 199.1469
465.5118, 197.9750
465.9940, 196.7854
466.4761, 195.7023
466.9582, 194.8072
467.4403, 194.1862
467.9224, 193.5898
468.4045, 193.0073
468.8867, 192.4487
469.3688, 191.9270
469.8509, 191.5007
470.3330, 191.0168
470.8151, 190.3903
471.2972, 189.6536
471.7794, 189.1905
472.2615, 189.1135
472.7436, 188.9966
473.2257, 188.4991
473.7078, 187.6116
474.1899, 186.7608
474.6721, 185.9507
475.1542, 185.2440
475.6363, 184.7185
476.1184, 184.3732
476.6005, 184.2201
477.0826, 184.4397
477.5648, 184.7484
478.0469, 184.5894
478.5290, 184.0122
479.0111, 183.4684
479.4932, 183.3527
479.9753, 183.4162
480.4575, 183.3296
480.9396, 182.9596
481.4217, 182.6881
481.9038, 182.9030
482.3859, 183.3343
482.8680, 183.5823
483.3502, 183.2611
483.8323, 182.9793
484.3144, 183.0856
484.7965, 183.5357
485.2786, 183.6567
485.7607, 183.0080
486.2429, 182.2686
486.7250, 181.7605
487.2071, 181.5069
487.6892, 181.4598
488.1713, 181.7471
488.6534, 182.1543
489.1356, 182.3796
489.6177, 182.3985
490.0998, 182.2959
490.5819, 181.9884
491.0640, 181.5867
491.5461, 181.7101
492.0283, 182.4156
492.5104, 183.2449
492.9925, 183.8923
493.4746, 184.3966
493.9567, 184.9053
494.4388, 185.4384
494.9210, 185.9603
495.4031, 186.2432
495.8852, 186.4743
496.3673, 187.1683
496.8494, 188.9405
497.3315, 190.8360
497.8137, 191.7608
498.2958, 191.9535
498.7779, 192.3635
499.2600, 193.4970
499.7421, 195.0280
500.2242, 196.8495
500.7064, 199.0964
501.1885, 201.0325
501.6706, 202.2239
502.1527, 203.0867
502.6348, 204.0183
503.1169, 205.0723
503.5991, 206.1980
504.0812, 207.3308
504.5633, 208.5152
505.0454, 209.9653
505.5275, 211.7439
506.0096, 213.6456
506.4918, 215.6693
506.9739, 217.8769
507.4560, 219.5807
507.9381, 220.6523
508.4202, 221.5628
508.9023, 222.7922
509.3845, 224.3245
509.8666, 225.8831
510.3487, 227.4026
510.8308, 228.9531
511.3129, 230.6928
511.7950, 232.5857
512.2772, 234.4582
512.7593, 236.1654
513.2414, 237.8283
513.7235, 239.6549
514.2056, 241.6393
514.6877, 243.5788
515.1699, 245.2771
515.6520, 246.9033
516.1341, 248.5963
516.6162, 250.3342
517.0983, 252.2458
517.5804, 254.5361
518.0626, 257.0037
518.5447, 259.3195
519.0268, 261.1790
519.5089, 263.1587
519.9910, 265.4828
520.4731, 268.1176
520.9553, 270.3848
521.4374, 272.0538
521.9195, 273.6659
522.4016, 275.5300
522.8837, 277.6765
523.3658, 279.8799
523.8480, 282.2084
524.3301, 284.4622
524.8122, 286.4626
525.2943, 288.1900
525.7764, 289.3239
526.2585, 289.6299
526.7407, 289.4666
527.2228, 289.6127
527.7049, 289.9596
528.1870, 289.8749
528.6691, 289.0223
529.1512, 287.5005
529.6334, 285.3581
530.1155, 282.5706
530.5976, 279.4311
531.0797, 275.9994
531.5618, 272.3069
532.0439, 268.4117
532.5261, 264.0227
533.0082, 259.8011
533.4903, 255.9017
533.9724, 252.2468
534.4545, 248.5716
534.9366, 244.7547
535.4188, 241.0677
535.9009, 237.6475
536.3830, 234.4884
536.8651, 231.2138
537.3472, 227.7618
537.8293, 224.3394
538.3115, 221.0847
538.7936, 218.0067
539.2757, 215.1700
539.7578, 212.6090
540.2399, 210.2664
540.7220, 208.0523
541.2042, 205.9858
541.6863, 204.0039
542.1684, 202.0065
542.6505, 200.1509
543.1326, 198.8570
543.6147, 197.9576
544.0969, 196.7780
544.5790, 194.4996
545.0611, 192.0853
545.5432, 190.4061
546.0253, 189.5694
546.5074, 188.7796
546.9896, 187.7244
547.4717, 186.5752
547.9538, 185.4638
548.4359, 184.1869
548.9180, 183.2674
549.4001, 183.1235
549.8823, 183.2399
550.3644, 182.6812
550.8465, 180.9218
551.3286, 179.4744
551.8107, 178.7732
552.2928, 178.7187
552.7750, 178.6044
553.2571, 178.4178
553.7392, 178.2339
554.2213, 178.1203
554.7034, 178.0589
555.1855, 177.9766
555.6677, 177.8855
556.1498, 177.6486
556.6319, 176.8854
557.1140, 175.8945
557.5961, 175.3346
558.0782, 175.5844
558.5604, 175.9979
559.0425, 176.0710
559.5246, 175.9094
560.0067, 175.7460
560.4888, 175.5912
560.9709, 175.5338
561.4531, 175.6394
561.9352, 175.9085
562.4173, 176.2009
562.8994, 176.4485
563.3815, 176.7586
563.8636, 177.2161
564.3458, 177.9471
564.8279, 178.4689
565.3100, 178.7181
565.7921, 178.8479
566.2742, 179.0797
566.7563, 179.4410
567.2385, 179.6155
567.7206, 179.4213
568.2027, 179.1457
568.6848, 179.5050
569.1669, 180.4267
569.6490, 181.3383
570.1312, 181.8493
570.6133, 182.2135
571.0954, 182.8605
571.5775, 183.7810
572.0596, 184.5775
572.5417, 185.0055
573.0239, 185.2018
573.5060, 185.2221
573.9881, 184.9389
574.4702, 184.8673
574.9523, 185.3334
575.4344, 186.0352
575.9166, 186.5851
576.3987, 186.8965
576.8808, 187.1471
577.3629, 187.3731
577.8450, 187.5509
578.3271, 187.5936
578.8093, 187.4653
579.2914, 187.2955
579.7735, 187.0619
580.2556, 186.8070
580.7377, 186.9766
581.2198, 187.6139
581.7020, 188.1648
582.1841, 188.1003
582.6662, 187.6056
583.1483, 187.0398
583.6304, 186.4060
584.1125, 185.9947
584.5947, 186.3228
585.0768, 186.9753
585.5589, 187.3404
586.0410, 186.9330
586.5231, 186.5173
587.0052, 186.4729
587.4874, 186.6724
587.9695, 186.7686
