##NAMES=Shomiokite-(Y)
##RRUFFID=R060670
##IDEAL CHEMISTRY=Na_3_Y(CO_3_)_3_&#183;3H_2_O
##LOCALITY=Alluaiv Mountain, Lovozero massif, Kola Peninsula, Russia
##OWNER=RRUFF
##SOURCE=Michael Scott
##DESCRIPTION=Colorless prismatic crystal covered with thin white coating of adamsite-(Y)
##STATUS=The identification of this mineral is confirmed by single-crystal X-ray diffraction and chemical analysis.
##URL=rruff.info/R060670
##MEASURED CHEMISTRY=Na_2.80_(Y_0.81_Gd_0.02_Er_0.01_Sm_0.01_Dy_0.01_Yb_0.01_Eu_0.01_)_Σ=0.88_(CO_3_)_3.09_·2.86H_2_O
134.7162, 2036.012
135.1983, 2101.448
135.6804, 2172.005
136.1626, 2245.640
136.6447, 2326.019
137.1268, 2422.887
137.6089, 2539.526
138.0910, 2658.610
138.5731, 2768.772
139.0553, 2869.832
139.5374, 2969.353
140.0195, 3068.478
140.5016, 3166.077
140.9837, 3252.564
141.4658, 3323.668
141.9480, 3391.711
142.4301, 3466.162
142.9122, 3555.905
143.3943, 3632.429
143.8764, 3688.750
144.3585, 3724.922
144.8407, 3768.628
145.3228, 3828.729
145.8049, 3889.326
146.2870, 3934.850
146.7691, 3956.103
147.2512, 3973.681
147.7334, 3991.374
148.2155, 4010.587
148.6976, 4024.351
149.1797, 4037.854
149.6618, 4044.363
150.1439, 4035.044
150.6261, 3993.031
151.1082, 3950.441
151.5903, 3915.703
152.0724, 3892.341
152.5545, 3869.628
153.0366, 3844.200
153.5188, 3819.152
154.0009, 3800.643
154.4830, 3796.068
154.9651, 3793.185
155.4472, 3786.000
155.9293, 3767.057
156.4115, 3753.730
156.8936, 3747.177
157.3757, 3748.310
157.8578, 3759.928
158.3399, 3789.538
158.8221, 3826.032
159.3042, 3862.408
159.7863, 3891.325
160.2684, 3925.411
160.7505, 3967.369
161.2326, 4017.664
161.7148, 4077.114
162.1969, 4152.527
162.6790, 4235.173
163.1611, 4315.644
163.6432, 4390.460
164.1253, 4463.458
164.6075, 4533.389
165.0896, 4600.095
165.5717, 4674.599
166.0538, 4774.204
166.5359, 4883.617
167.0180, 4981.208
167.5002, 5054.056
167.9823, 5115.106
168.4644, 5174.014
168.9465, 5231.879
169.4286, 5284.842
169.9107, 5333.287
170.3929, 5374.667
170.8750, 5404.859
171.3571, 5433.722
171.8392, 5444.776
172.3213, 5414.469
172.8034, 5332.581
173.2856, 5234.372
173.7677, 5144.207
174.2498, 5062.435
174.7319, 4991.779
175.2140, 4936.759
175.6961, 4893.006
176.1783, 4854.803
176.6604, 4822.663
177.1425, 4793.803
177.6246, 4762.392
178.1067, 4729.982
178.5888, 4704.600
179.0710, 4694.998
179.5531, 4697.044
180.0352, 4703.358
180.5173, 4716.604
180.9994, 4728.668
181.4815, 4720.080
181.9637, 4691.540
182.4458, 4667.233
182.9279, 4672.360
183.4100, 4700.160
183.8921, 4725.415
184.3742, 4741.836
184.8564, 4750.741
185.3385, 4754.478
185.8206, 4753.055
186.3027, 4746.749
186.7848, 4731.589
187.2669, 4709.363
187.7491, 4693.458
188.2312, 4694.410
188.7133, 4705.580
189.1954, 4700.431
189.6775, 4676.825
190.1596, 4646.489
190.6418, 4621.425
191.1239, 4601.741
191.6060, 4586.334
192.0881, 4576.832
192.5702, 4572.339
193.0524, 4564.728
193.5345, 4553.481
194.0166, 4540.529
194.4987, 4530.200
194.9808, 4522.903
195.4629, 4512.017
195.9451, 4494.037
196.4272, 4468.851
196.9093, 4440.753
197.3914, 4407.766
197.8735, 4375.181
198.3556, 4353.591
198.8378, 4344.045
199.3199, 4339.089
199.8020, 4336.645
200.2841, 4337.150
200.7662, 4333.530
201.2483, 4324.100
201.7305, 4311.496
202.2126, 4302.531
202.6947, 4298.065
203.1768, 4294.032
203.6589, 4289.068
204.1410, 4283.839
204.6232, 4272.817
205.1053, 4253.850
205.5874, 4229.502
206.0695, 4207.979
206.5516, 4189.405
207.0337, 4173.326
207.5159, 4162.420
207.9980, 4160.634
208.4801, 4144.272
208.9622, 4102.328
209.4443, 4043.751
209.9264, 4015.939
210.4086, 4029.814
210.8907, 4052.572
211.3728, 4058.040
211.8549, 4040.635
212.3370, 4024.722
212.8191, 4011.907
213.3013, 4002.953
213.7834, 4005.106
214.2655, 4023.383
214.7476, 4044.768
215.2297, 4057.279
215.7118, 4057.469
216.1940, 4058.928
216.6761, 4065.620
217.1582, 4077.054
217.6403, 4080.964
218.1224, 4075.446
218.6045, 4064.916
219.0867, 4054.188
219.5688, 4046.172
220.0509, 4030.832
220.5330, 4004.017
221.0151, 3965.017
221.4972, 3932.006
221.9794, 3905.378
222.4615, 3883.959
222.9436, 3865.898
223.4257, 3849.921
223.9078, 3840.312
224.3899, 3841.438
224.8721, 3855.071
225.3542, 3855.521
225.8363, 3836.827
226.3184, 3810.629
226.8005, 3790.392
227.2827, 3778.898
227.7648, 3768.352
228.2469, 3756.789
228.7290, 3743.986
229.2111, 3732.304
229.6932, 3722.393
230.1754, 3713.214
230.6575, 3703.141
231.1396, 3691.310
231.6217, 3680.352
232.1038, 3672.306
232.5859, 3669.072
233.0681, 3657.724
233.5502, 3633.132
234.0323, 3604.188
234.5144, 3583.918
234.9965, 3577.233
235.4786, 3571.204
235.9608, 3561.741
236.4429, 3547.918
236.9250, 3535.403
237.4071, 3523.713
237.8892, 3513.733
238.3713, 3508.606
238.8535, 3517.294
239.3356, 3515.532
239.8177, 3491.114
240.2998, 3432.867
240.7819, 3395.992
241.2640, 3389.995
241.7462, 3399.238
242.2283, 3395.775
242.7104, 3369.992
243.1925, 3347.350
243.6746, 3337.132
244.1567, 3343.618
244.6389, 3348.128
245.1210, 3350.872
245.6031, 3351.530
246.0852, 3348.533
246.5673, 3337.406
247.0494, 3330.303
247.5316, 3332.592
248.0137, 3348.044
248.4958, 3359.991
248.9779, 3366.571
249.4600, 3370.630
249.9421, 3377.160
250.4243, 3386.507
250.9064, 3397.702
251.3885, 3409.304
251.8706, 3418.602
252.3527, 3438.910
252.8348, 3476.143
253.3170, 3520.631
253.7991, 3553.472
254.2812, 3570.128
254.7633, 3583.181
255.2454, 3597.211
255.7275, 3612.864
256.2097, 3625.592
256.6918, 3630.700
257.1739, 3635.952
257.6560, 3658.641
258.1381, 3709.476
258.6202, 3755.726
259.1024, 3783.424
259.5845, 3786.350
260.0666, 3796.478
260.5487, 3818.987
261.0308, 3844.731
261.5129, 3856.459
261.9951, 3848.875
262.4772, 3839.734
262.9593, 3838.064
263.4414, 3848.122
263.9235, 3844.684
264.4056, 3824.849
264.8878, 3794.096
265.3699, 3761.214
265.8520, 3725.952
266.3341, 3688.453
266.8162, 3647.789
267.2983, 3603.753
267.7805, 3560.677
268.2626, 3520.426
268.7447, 3479.421
269.2268, 3430.480
269.7089, 3371.519
270.1910, 3312.330
270.6732, 3256.345
271.1553, 3204.270
271.6374, 3150.508
272.1195, 3093.987
272.6016, 3037.234
273.0837, 2985.882
273.5659, 2939.863
274.0480, 2898.391
274.5301, 2863.006
275.0122, 2834.274
275.4943, 2798.122
275.9764, 2751.928
276.4586, 2703.248
276.9407, 2663.976
277.4228, 2635.578
277.9049, 2608.010
278.3870, 2577.796
278.8691, 2545.059
279.3513, 2512.070
279.8334, 2478.156
280.3155, 2445.722
280.7976, 2420.099
281.2798, 2401.965
281.7619, 2379.748
282.2440, 2344.423
282.7261, 2299.214
283.2082, 2270.343
283.6903, 2260.031
284.1725, 2257.885
284.6546, 2255.369
285.1367, 2252.177
285.6188, 2238.770
286.1009, 2203.271
286.5830, 2154.004
287.0652, 2129.733
287.5473, 2133.338
288.0294, 2146.031
288.5115, 2148.136
288.9936, 2140.733
289.4757, 2132.920
289.9579, 2129.195
290.4400, 2126.875
290.9221, 2117.934
291.4042, 2102.091
291.8863, 2083.110
292.3684, 2062.411
292.8506, 2041.076
293.3327, 2023.601
293.8148, 2012.886
294.2969, 2005.920
294.7790, 1996.526
295.2611, 1984.656
295.7433, 1972.596
296.2254, 1964.044
296.7075, 1956.885
297.1896, 1945.393
297.6717, 1925.900
298.1538, 1902.705
298.6360, 1882.523
299.1181, 1864.963
299.6002, 1847.572
300.0823, 1822.352
300.5644, 1796.451
301.0465, 1784.769
301.5287, 1799.628
302.0108, 1819.676
302.4929, 1817.979
302.9750, 1797.944
303.4571, 1779.212
303.9392, 1777.257
304.4214, 1783.823
304.9035, 1787.738
305.3856, 1785.502
305.8677, 1781.186
306.3498, 1777.732
306.8319, 1775.031
307.3141, 1772.622
307.7962, 1770.147
308.2783, 1767.913
308.7604, 1765.452
309.2425, 1760.815
309.7246, 1760.186
310.2068, 1771.234
310.6889, 1789.872
311.1710, 1805.587
311.6531, 1812.459
312.1352, 1815.009
312.6173, 1815.102
313.0995, 1810.739
313.5816, 1810.711
314.0637, 1825.542
314.5458, 1847.215
315.0279, 1860.778
315.5100, 1852.510
315.9922, 1840.646
316.4743, 1834.889
316.9564, 1837.468
317.4385, 1841.560
317.9206, 1846.092
318.4027, 1850.525
318.8849, 1854.106
319.3670, 1860.720
319.8491, 1862.856
320.3312, 1854.762
320.8133, 1833.223
321.2954, 1818.682
321.7776, 1823.510
322.2597, 1833.939
322.7418, 1835.292
323.2239, 1813.464
323.7060, 1794.348
324.1881, 1784.759
324.6703, 1785.632
325.1524, 1786.771
325.6345, 1793.317
326.1166, 1796.770
326.5987, 1790.189
327.0808, 1757.305
327.5630, 1733.583
328.0451, 1726.861
328.5272, 1736.169
329.0093, 1740.215
329.4914, 1735.175
329.9735, 1728.277
330.4557, 1724.384
330.9378, 1726.571
331.4199, 1726.116
331.9020, 1719.843
332.3841, 1709.983
332.8662, 1707.946
333.3484, 1717.230
333.8305, 1729.066
334.3126, 1739.668
334.7947, 1750.300
335.2768, 1754.988
335.7589, 1751.237
336.2411, 1742.581
336.7232, 1737.968
337.2053, 1738.478
337.6874, 1739.985
338.1695, 1740.541
338.6516, 1739.969
339.1338, 1739.918
339.6159, 1740.381
340.0980, 1741.433
340.5801, 1743.428
341.0622, 1746.514
341.5443, 1749.532
342.0265, 1755.602
342.5086, 1763.078
342.9907, 1752.363
343.4728, 1719.354
343.9549, 1684.601
344.4370, 1678.369
344.9192, 1697.511
345.4013, 1711.626
345.8834, 1706.781
346.3655, 1690.075
346.8476, 1680.072
347.3297, 1676.944
347.8119, 1676.263
348.2940, 1675.704
348.7761, 1674.542
349.2582, 1670.051
349.7403, 1657.896
350.2225, 1645.612
350.7046, 1647.701
351.1867, 1662.118
351.6688, 1672.927
352.1509, 1664.801
352.6331, 1646.744
353.1152, 1632.222
353.5973, 1624.874
354.0794, 1620.540
354.5615, 1615.467
355.0436, 1610.346
355.5258, 1607.285
356.0079, 1607.305
356.4900, 1609.968
356.9721, 1615.826
357.4542, 1626.372
357.9363, 1635.337
358.4185, 1640.635
358.9006, 1641.822
359.3827, 1638.131
359.8648, 1626.853
360.3469, 1612.528
360.8290, 1595.433
361.3112, 1574.410
361.7933, 1559.339
362.2754, 1559.345
362.7575, 1564.532
363.2396, 1564.146
363.7217, 1546.330
364.2039, 1532.143
364.6860, 1529.239
365.1681, 1537.860
365.6502, 1543.458
366.1323, 1543.982
366.6144, 1541.263
367.0966, 1536.472
367.5787, 1524.186
368.0608, 1516.684
368.5429, 1517.294
369.0250, 1524.114
369.5071, 1527.245
369.9893, 1523.845
370.4714, 1520.063
370.9535, 1519.542
371.4356, 1526.574
371.9177, 1526.422
372.3998, 1514.758
372.8820, 1497.892
373.3641, 1490.843
373.8462, 1497.305
374.3283, 1504.020
374.8104, 1505.660
375.2925, 1501.820
375.7747, 1497.522
376.2568, 1492.405
376.7389, 1487.469
377.2210, 1484.621
377.7031, 1484.073
378.1852, 1482.544
378.6674, 1478.641
379.1495, 1472.975
379.6316, 1468.091
380.1137, 1464.120
380.5958, 1460.107
381.0779, 1453.133
381.5601, 1444.589
382.0422, 1443.080
382.5243, 1454.809
383.0064, 1468.868
383.4885, 1464.876
383.9706, 1444.805
384.4528, 1423.530
384.9349, 1408.325
385.4170, 1399.119
385.8991, 1397.282
386.3812, 1405.559
386.8633, 1412.816
387.3455, 1404.224
387.8276, 1386.459
388.3097, 1374.681
388.7918, 1382.023
389.2739, 1395.057
389.7560, 1403.817
390.2382, 1407.449
390.7203, 1407.843
391.2024, 1403.514
391.6845, 1397.367
392.1666, 1392.697
392.6487, 1390.797
393.1309, 1390.429
393.6130, 1392.013
394.0951, 1395.281
394.5772, 1397.401
395.0593, 1397.627
395.5414, 1396.499
396.0236, 1394.344
396.5057, 1390.103
396.9878, 1386.133
397.4699, 1383.340
397.9520, 1381.076
398.4341, 1377.145
398.9163, 1365.096
399.3984, 1358.162
399.8805, 1363.378
400.3626, 1389.257
400.8447, 1401.014
401.3268, 1390.348
401.8090, 1371.679
402.2911, 1366.177
402.7732, 1379.329
403.2553, 1391.447
403.7374, 1397.114
404.2195, 1396.687
404.7017, 1396.791
405.1838, 1397.797
405.6659, 1398.316
406.1480, 1396.148
406.6301, 1391.205
407.1122, 1388.838
407.5944, 1390.243
408.0765, 1394.549
408.5586, 1400.615
409.0407, 1408.416
409.5228, 1415.209
410.0049, 1420.068
410.4871, 1422.489
410.9692, 1419.460
411.4513, 1409.130
411.9334, 1399.581
412.4155, 1402.455
412.8976, 1413.977
413.3798, 1423.105
413.8619, 1423.657
414.3440, 1420.099
414.8261, 1415.402
415.3082, 1409.710
415.7903, 1407.323
416.2725, 1413.068
416.7546, 1422.873
417.2367, 1432.471
417.7188, 1444.393
418.2009, 1451.319
418.6830, 1443.226
419.1652, 1425.470
419.6473, 1418.023
420.1294, 1439.213
420.6115, 1463.792
421.0937, 1478.144
421.5758, 1476.383
422.0579, 1472.558
422.5400, 1464.186
423.0221, 1455.702
423.5042, 1454.375
423.9864, 1469.599
424.4685, 1481.620
424.9506, 1484.393
425.4327, 1476.747
425.9148, 1474.980
426.3969, 1482.949
426.8791, 1492.396
427.3612, 1495.298
427.8433, 1488.475
428.3254, 1485.197
428.8075, 1487.964
429.2896, 1495.287
429.7718, 1502.948
430.2539, 1511.516
430.7360, 1517.599
431.2181, 1515.046
431.7002, 1505.187
432.1823, 1510.991
432.6645, 1537.539
433.1466, 1566.654
433.6287, 1569.052
434.1108, 1549.902
434.5929, 1534.902
435.0750, 1538.497
435.5572, 1551.285
436.0393, 1555.912
436.5214, 1552.794
437.0035, 1550.755
437.4856, 1560.781
437.9677, 1574.980
438.4499, 1581.831
438.9320, 1575.469
439.4141, 1566.101
439.8962, 1558.562
440.3783, 1553.475
440.8604, 1552.220
441.3426, 1558.962
441.8247, 1567.052
442.3068, 1571.850
442.7889, 1571.459
443.2710, 1574.529
443.7531, 1588.336
444.2353, 1604.822
444.7174, 1615.317
445.1995, 1612.487
445.6816, 1610.116
446.1637, 1610.826
446.6458, 1614.285
447.1280, 1616.777
447.6101, 1615.782
448.0922, 1616.622
448.5743, 1623.082
449.0564, 1639.331
449.5385, 1650.031
450.0207, 1653.488
450.5028, 1652.412
450.9849, 1652.496
451.4670, 1654.759
451.9491, 1652.669
452.4312, 1639.440
452.9134, 1618.079
453.3955, 1614.131
453.8776, 1629.412
454.3597, 1649.015
454.8418, 1658.673
455.3239, 1660.241
455.8061, 1660.297
456.2882, 1658.459
456.7703, 1658.733
457.2524, 1671.881
457.7345, 1693.882
458.2166, 1708.524
458.6988, 1698.747
459.1809, 1680.120
459.6630, 1669.539
460.1451, 1669.324
460.6272, 1672.034
461.1093, 1673.393
461.5915, 1674.782
462.0736, 1677.902
462.5557, 1686.256
463.0378, 1693.556
463.5199, 1697.692
464.0020, 1698.736
464.4842, 1697.627
464.9663, 1691.126
465.4484, 1685.043
465.9305, 1682.463
466.4126, 1685.044
466.8947, 1688.413
467.3769, 1693.244
467.8590, 1698.551
468.3411, 1703.188
468.8232, 1708.660
469.3053, 1710.266
469.7874, 1706.111
470.2696, 1696.484
470.7517, 1684.933
471.2338, 1669.221
471.7159, 1658.485
472.1980, 1664.919
472.6801, 1687.986
473.1623, 1702.534
473.6444, 1703.819
474.1265, 1697.684
474.6086, 1692.221
475.0907, 1687.598
475.5728, 1684.911
476.0550, 1687.366
476.5371, 1691.214
477.0192, 1688.811
477.5013, 1679.797
477.9834, 1672.317
478.4655, 1675.639
478.9477, 1683.347
479.4298, 1686.709
479.9119, 1678.286
480.3940, 1671.098
480.8761, 1675.128
481.3582, 1686.210
481.8404, 1692.312
482.3225, 1682.518
482.8046, 1672.622
483.2867, 1671.509
483.7688, 1684.632
484.2509, 1690.166
484.7331, 1680.266
485.2152, 1665.039
485.6973, 1653.341
486.1794, 1644.994
486.6615, 1640.736
487.1436, 1642.236
487.6258, 1647.956
488.1079, 1649.893
488.5900, 1646.157
489.0721, 1643.859
489.5542, 1650.034
490.0363, 1664.883
490.5185, 1666.601
491.0006, 1652.204
491.4827, 1632.719
491.9648, 1621.276
492.4470, 1617.135
492.9291, 1617.103
493.4112, 1623.042
493.8933, 1629.971
494.3754, 1628.779
494.8575, 1620.616
495.3397, 1612.804
495.8218, 1608.527
496.3039, 1607.836
496.7860, 1612.244
497.2681, 1624.028
497.7502, 1632.844
498.2324, 1629.511
498.7145, 1620.984
499.1966, 1616.659
499.6787, 1624.812
500.1608, 1632.060
500.6429, 1633.206
501.1251, 1628.669
501.6072, 1626.567
502.0893, 1630.050
502.5714, 1633.770
503.0535, 1635.148
503.5356, 1632.939
504.0178, 1631.451
504.4999, 1631.306
504.9820, 1631.325
505.4641, 1629.719
505.9462, 1626.368
506.4283, 1621.831
506.9105, 1615.100
507.3926, 1607.598
507.8747, 1606.024
508.3568, 1610.679
508.8389, 1615.772
509.3210, 1617.575
509.8032, 1616.533
510.2853, 1613.081
510.7674, 1606.498
511.2495, 1600.841
511.7316, 1601.859
512.2137, 1606.804
512.6959, 1610.068
513.1780, 1606.946
513.6601, 1603.355
514.1422, 1604.680
514.6243, 1609.881
515.1064, 1611.680
515.5886, 1600.827
516.0707, 1590.165
516.5528, 1588.384
517.0349, 1602.572
517.5170, 1613.037
517.9991, 1618.160
518.4813, 1618.410
518.9634, 1613.450
519.4455, 1597.826
519.9276, 1586.404
520.4097, 1582.767
520.8918, 1586.006
521.3740, 1590.126
521.8561, 1595.309
522.3382, 1600.766
522.8203, 1607.680
523.3024, 1615.580
523.7845, 1616.002
524.2667, 1607.113
524.7488, 1595.881
525.2309, 1589.099
525.7130, 1586.691
526.1951, 1588.757
526.6772, 1598.591
527.1594, 1609.795
527.6415, 1613.368
528.1236, 1611.061
528.6057, 1610.658
529.0878, 1620.210
529.5699, 1630.984
530.0521, 1636.285
530.5342, 1634.645
531.0163, 1630.563
531.4984, 1620.116
531.9805, 1610.219
532.4626, 1608.152
532.9448, 1627.765
533.4269, 1639.654
533.9090, 1636.617
534.3911, 1623.047
534.8732, 1616.058
535.3553, 1617.070
535.8375, 1622.038
536.3196, 1630.919
536.8017, 1644.305
537.2838, 1650.790
537.7659, 1649.269
538.2480, 1644.671
538.7302, 1641.495
539.2123, 1639.694
539.6944, 1638.956
540.1765, 1638.799
540.6586, 1640.430
541.1407, 1648.248
541.6229, 1660.028
542.1050, 1667.921
542.5871, 1664.983
543.0692, 1658.070
543.5513, 1653.068
544.0334, 1650.331
544.5156, 1647.516
544.9977, 1641.292
545.4798, 1635.827
545.9619, 1634.557
546.4440, 1640.191
546.9261, 1646.960
547.4083, 1656.058
547.8904, 1665.440
548.3725, 1671.157
548.8546, 1670.967
549.3367, 1670.858
549.8188, 1672.303
550.3010, 1675.166
550.7831, 1678.146
551.2652, 1681.624
551.7473, 1683.952
552.2294, 1682.379
552.7115, 1677.630
553.1937, 1677.544
553.6758, 1683.250
554.1579, 1691.507
554.6400, 1702.099
555.1221, 1712.402
555.6042, 1714.143
556.0864, 1695.286
556.5685, 1675.865
557.0506, 1678.932
557.5327, 1698.963
558.0148, 1715.426
558.4969, 1715.782
558.9791, 1711.403
559.4612, 1709.336
559.9433, 1711.202
560.4254, 1710.856
560.9075, 1705.061
561.3896, 1697.762
561.8718, 1692.189
562.3539, 1687.113
562.8360, 1686.043
563.3181, 1690.364
563.8002, 1698.309
564.2823, 1706.122
564.7645, 1713.914
565.2466, 1720.845
565.7287, 1726.987
566.2108, 1731.991
566.6929, 1733.058
567.1750, 1730.010
567.6572, 1726.855
568.1393, 1729.276
568.6214, 1733.651
569.1035, 1730.311
569.5856, 1714.799
570.0677, 1703.559
570.5499, 1718.063
571.0320, 1744.156
571.5141, 1759.534
571.9962, 1742.332
572.4783, 1726.509
572.9604, 1728.405
573.4426, 1744.557
573.9247, 1756.276
574.4068, 1756.795
574.8889, 1755.660
575.3710, 1756.204
575.8531, 1758.583
576.3353, 1761.881
576.8174, 1766.595
577.2995, 1771.444
577.7816, 1776.028
578.2637, 1780.643
578.7458, 1780.618
579.2280, 1773.676
579.7101, 1764.744
580.1922, 1763.545
580.6743, 1768.810
581.1564, 1773.366
581.6385, 1772.253
582.1207, 1769.433
582.6028, 1769.318
583.0849, 1771.947
583.5670, 1777.573
584.0491, 1789.849
584.5313, 1802.943
585.0134, 1811.478
585.4955, 1812.320
585.9776, 1816.196
586.4597, 1829.822
586.9418, 1846.183
587.4240, 1857.163
587.9061, 1860.386
588.3882, 1861.633
588.8703, 1860.418
589.3524, 1857.919
589.8345, 1857.792
590.3167, 1860.555
590.7988, 1863.830
591.2809, 1867.897
591.7630, 1871.798
592.2451, 1867.336
592.7272, 1854.014
593.2094, 1844.493
593.6915, 1854.272
594.1736, 1874.341
594.6557, 1886.833
595.1378, 1887.206
595.6199, 1886.044
596.1021, 1891.865
596.5842, 1900.941
597.0663, 1907.983
597.5485, 1907.067
598.0306, 1908.132
598.5127, 1916.351
598.9948, 1929.714
599.4769, 1939.439
599.9590, 1942.797
600.4412, 1945.199
600.9233, 1947.163
601.4054, 1948.271
601.8875, 1956.772
602.3696, 1975.428
602.8517, 1994.564
603.3339, 2004.205
603.8160, 2005.323
604.2981, 2010.242
604.7802, 2021.205
605.2623, 2032.945
605.7444, 2038.216
606.2266, 2038.709
606.7087, 2038.776
607.1908, 2040.892
607.6729, 2042.351
608.1550, 2037.526
608.6371, 2029.638
609.1193, 2028.993
609.6014, 2050.811
610.0835, 2071.361
610.5656, 2076.063
611.0477, 2060.827
611.5298, 2055.885
612.0120, 2069.274
612.4941, 2086.130
612.9762, 2095.968
613.4583, 2095.563
613.9404, 2100.179
614.4225, 2111.846
614.9047, 2126.106
615.3868, 2137.854
615.8689, 2147.077
616.3510, 2151.722
616.8331, 2148.810
617.3152, 2144.151
617.7974, 2146.109
618.2795, 2154.009
618.7616, 2165.202
619.2437, 2185.877
619.7258, 2203.552
620.2079, 2204.986
620.6901, 2189.766
621.1722, 2180.657
621.6543, 2194.468
622.1364, 2210.727
622.6185, 2215.031
623.1006, 2197.492
623.5828, 2188.414
624.0649, 2189.808
624.5470, 2197.820
625.0291, 2208.044
625.5112, 2220.303
625.9933, 2236.679
626.4755, 2259.569
626.9576, 2283.774
627.4397, 2298.422
627.9218, 2304.105
