##NAMES=Shortite
##RRUFFID=R040184
##IDEAL CHEMISTRY=Na_2_Ca_2_(CO_3_)_3_
##LOCALITY=Green River, Wyoming, USA
##OWNER=RRUFF
##SOURCE=University of Arizona Mineral Museum
##DESCRIPTION=Colorless single crystal fragments
##STATUS=The identification of this mineral has been confirmed by X-ray diffraction and chemical analysis
##URL=rruff.info/R040184
##MEASURED CHEMISTRY=(Na_1.47_Ca_0.27_[box]_0.26_)_Î£=2_Ca_2.00_(CO_3_)_3_
167.7847, 19892.64
168.2668, 20129.80
168.7490, 20341.53
169.2311, 20526.77
169.7132, 20689.05
170.1953, 20842.49
170.6774, 20976.00
171.1595, 21067.63
171.6417, 21101.00
172.1238, 21088.68
172.6059, 21057.80
173.0880, 20998.63
173.5701, 20939.99
174.0522, 20892.01
174.5344, 20852.66
175.0165, 20820.65
175.4986, 20796.62
175.9807, 20778.52
176.4628, 20759.16
176.9449, 20732.88
177.4271, 20716.68
177.9092, 20711.94
178.3913, 20720.44
178.8734, 20746.89
179.3555, 20798.19
179.8376, 20865.06
180.3197, 20919.35
180.8019, 20951.11
181.2840, 20987.89
181.7661, 21036.36
182.2482, 21094.55
182.7303, 21161.71
183.2124, 21239.83
183.6946, 21323.00
184.1767, 21394.18
184.6588, 21448.70
185.1409, 21497.50
185.6230, 21536.05
186.1051, 21573.85
186.5873, 21623.40
187.0694, 21691.95
187.5515, 21771.54
188.0336, 21842.88
188.5157, 21903.07
188.9978, 21958.07
189.4800, 22004.47
189.9621, 22048.83
190.4442, 22097.74
190.9263, 22153.58
191.4084, 22216.34
191.8905, 22287.72
192.3727, 22378.56
192.8548, 22458.63
193.3369, 22523.20
193.8190, 22576.78
194.3011, 22617.85
194.7832, 22645.35
195.2654, 22673.84
195.7475, 22737.72
196.2296, 22864.73
196.7117, 22976.73
197.1938, 23043.34
197.6759, 23104.06
198.1581, 23197.29
198.6402, 23335.54
199.1223, 23493.98
199.6044, 23627.64
200.0865, 23731.46
200.5686, 23817.92
201.0508, 23883.63
201.5329, 23939.27
202.0150, 23993.46
202.4971, 24048.50
202.9792, 24097.87
203.4613, 24134.19
203.9435, 24167.23
204.4256, 24161.57
204.9077, 24098.15
205.3898, 24014.65
205.8719, 23937.45
206.3540, 23871.17
206.8362, 23801.18
207.3183, 23703.15
207.8004, 23560.88
208.2825, 23433.73
208.7646, 23305.42
209.2467, 23202.09
209.7289, 23157.27
210.2110, 23165.06
210.6931, 23177.16
211.1752, 23129.19
211.6573, 22991.65
212.1395, 22904.57
212.6216, 22896.69
213.1037, 22910.85
213.5858, 22927.71
214.0679, 22942.44
214.5500, 22955.18
215.0322, 22966.42
215.5143, 22976.68
215.9964, 22981.51
216.4785, 22968.70
216.9606, 22961.86
217.4427, 22972.89
217.9249, 22998.46
218.4070, 23028.13
218.8891, 23055.17
219.3712, 23079.90
219.8533, 23089.79
220.3354, 23042.42
220.8176, 23021.65
221.2997, 23073.57
221.7818, 23169.99
222.2639, 23253.53
222.7460, 23282.26
223.2281, 23261.63
223.7103, 23247.94
224.1924, 23238.88
224.6745, 23240.68
225.1566, 23268.09
225.6387, 23304.52
226.1208, 23324.26
226.6030, 23310.81
227.0851, 23273.29
227.5672, 23250.33
228.0493, 23255.39
228.5314, 23257.60
229.0135, 23247.34
229.4957, 23233.18
229.9778, 23222.76
230.4599, 23219.19
230.9420, 23225.46
231.4241, 23252.85
231.9062, 23328.66
232.3884, 23377.12
232.8705, 23361.52
233.3526, 23333.22
233.8347, 23343.41
234.3168, 23407.73
234.7989, 23491.90
235.2811, 23534.34
235.7632, 23513.85
236.2453, 23501.34
236.7274, 23501.91
237.2095, 23511.80
237.6916, 23530.66
238.1738, 23557.59
238.6559, 23588.71
239.1380, 23621.10
239.6201, 23657.18
240.1022, 23685.34
240.5843, 23695.91
241.0665, 23706.01
241.5486, 23723.17
242.0307, 23747.97
242.5128, 23777.33
242.9949, 23809.22
243.4770, 23843.98
243.9592, 23877.56
244.4413, 23899.88
244.9234, 23931.60
245.4055, 23997.53
245.8876, 24081.37
246.3697, 24140.39
246.8519, 24132.18
247.3340, 24067.82
247.8161, 24049.37
248.2982, 24107.66
248.7803, 24173.80
249.2624, 24223.15
249.7446, 24263.63
250.2267, 24311.16
250.7088, 24380.03
251.1909, 24455.66
251.6730, 24489.55
252.1551, 24450.80
252.6373, 24433.89
253.1194, 24473.94
253.6015, 24546.47
254.0836, 24633.93
254.5657, 24735.62
255.0478, 24828.22
255.5300, 24861.55
256.0121, 24811.57
256.4942, 24793.78
256.9763, 24875.56
257.4584, 24982.85
257.9406, 25061.00
258.4227, 25097.75
258.9048, 25128.12
259.3869, 25195.50
259.8690, 25302.39
260.3511, 25390.57
260.8333, 25443.94
261.3154, 25478.76
261.7975, 25510.47
262.2796, 25538.59
262.7617, 25549.91
263.2438, 25528.08
263.7260, 25478.42
264.2081, 25433.27
264.6902, 25401.10
265.1723, 25365.42
265.6544, 25320.75
266.1365, 25264.99
266.6187, 25189.56
267.1008, 25074.88
267.5829, 24940.53
268.0650, 24828.42
268.5471, 24743.15
269.0292, 24668.71
269.5114, 24602.89
269.9935, 24540.24
270.4756, 24469.85
270.9577, 24384.37
271.4398, 24293.75
271.9219, 24206.53
272.4041, 24122.41
272.8862, 24047.00
273.3683, 23985.54
273.8504, 23934.18
274.3325, 23884.50
274.8146, 23836.17
275.2968, 23789.35
275.7789, 23732.68
276.2610, 23674.17
276.7431, 23653.41
277.2252, 23701.18
277.7073, 23770.23
278.1895, 23776.55
278.6716, 23709.12
279.1537, 23647.07
279.6358, 23621.12
280.1179, 23618.54
280.6000, 23621.29
281.0822, 23626.86
281.5643, 23627.95
282.0464, 23610.19
282.5285, 23570.71
283.0106, 23550.45
283.4927, 23571.48
283.9749, 23602.64
284.4570, 23610.37
284.9391, 23594.13
285.4212, 23586.24
285.9033, 23619.04
286.3854, 23690.75
286.8676, 23724.79
287.3497, 23697.68
287.8318, 23659.54
288.3139, 23629.12
288.7960, 23606.81
289.2781, 23591.38
289.7603, 23582.95
290.2424, 23579.44
290.7245, 23572.31
291.2066, 23551.10
291.6887, 23539.30
292.1708, 23546.20
292.6530, 23562.40
293.1351, 23577.67
293.6172, 23588.28
294.0993, 23594.31
294.5814, 23596.45
295.0635, 23599.99
295.5457, 23587.64
296.0278, 23544.84
296.5099, 23498.01
296.9920, 23463.09
297.4741, 23443.18
297.9562, 23435.82
298.4384, 23439.37
298.9205, 23455.24
299.4026, 23472.71
299.8847, 23491.96
300.3668, 23512.57
300.8489, 23533.17
301.3311, 23555.15
301.8131, 23582.50
302.2953, 23619.59
302.7774, 23662.39
303.2595, 23690.31
303.7416, 23698.45
304.2237, 23697.20
304.7058, 23670.62
305.1880, 23644.64
305.6701, 23653.84
306.1522, 23712.18
306.6343, 23786.01
307.1164, 23819.47
307.5985, 23803.92
308.0807, 23779.46
308.5628, 23731.85
309.0449, 23692.29
309.5270, 23687.37
310.0091, 23716.63
310.4912, 23748.46
310.9734, 23760.31
311.4555, 23752.38
311.9376, 23721.44
312.4197, 23644.61
312.9018, 23578.07
313.3839, 23561.21
313.8661, 23580.72
314.3482, 23603.28
314.8303, 23622.66
315.3124, 23632.08
315.7945, 23614.53
316.2766, 23565.58
316.7588, 23515.63
317.2409, 23479.34
317.7230, 23453.52
318.2051, 23432.73
318.6872, 23415.73
319.1693, 23405.05
319.6515, 23408.91
320.1336, 23422.89
320.6157, 23425.96
321.0978, 23408.01
321.5799, 23380.79
322.0620, 23363.08
322.5442, 23356.13
323.0263, 23348.38
323.5084, 23330.80
323.9905, 23312.99
324.4726, 23308.17
324.9547, 23318.51
325.4369, 23336.96
325.9190, 23360.34
326.4011, 23389.55
326.8832, 23400.15
327.3653, 23378.80
327.8474, 23351.94
328.3296, 23330.80
328.8117, 23316.21
329.2938, 23305.94
329.7759, 23297.53
330.2580, 23294.25
330.7401, 23311.33
331.2223, 23401.91
331.7044, 23446.82
332.1865, 23393.13
332.6686, 23306.36
333.1507, 23264.46
333.6328, 23288.64
334.1150, 23331.02
334.5971, 23314.14
335.0792, 23197.47
335.5613, 23132.72
336.0434, 23157.12
336.5255, 23193.94
337.0077, 23212.02
337.4898, 23208.02
337.9719, 23185.76
338.4540, 23139.44
338.9361, 23076.25
339.4182, 23065.86
339.9004, 23158.82
340.3825, 23230.30
340.8646, 23240.84
341.3467, 23212.96
341.8288, 23167.43
342.3109, 23106.81
342.7931, 23055.68
343.2752, 23064.05
343.7573, 23144.43
344.2394, 23194.18
344.7215, 23164.80
345.2036, 23114.27
345.6858, 23091.46
346.1679, 23098.02
346.6500, 23099.78
347.1321, 23067.97
347.6142, 23015.04
348.0963, 22972.64
348.5785, 22941.60
349.0606, 22928.18
349.5427, 22950.06
350.0248, 22995.29
350.5069, 23028.49
350.9890, 23036.81
351.4712, 23036.26
351.9533, 23042.06
352.4354, 23051.73
352.9175, 23048.72
353.3996, 23019.21
353.8817, 22979.18
354.3639, 22976.14
354.8460, 23035.53
355.3281, 23070.82
355.8102, 23038.93
356.2923, 22983.59
356.7744, 22964.16
357.2566, 22990.98
357.7387, 23019.44
358.2208, 22995.53
358.7029, 22903.31
359.1850, 22848.19
359.6671, 22851.35
360.1493, 22864.67
360.6314, 22871.47
361.1135, 22871.33
361.5956, 22869.88
362.0777, 22871.40
362.5598, 22870.65
363.0420, 22846.61
363.5241, 22775.42
364.0062, 22719.24
364.4883, 22678.31
364.9704, 22657.68
365.4525, 22671.39
365.9347, 22718.38
366.4168, 22768.13
366.8989, 22782.59
367.3810, 22759.22
367.8631, 22745.23
368.3452, 22752.29
368.8274, 22756.96
369.3095, 22738.13
369.7916, 22707.68
370.2737, 22695.58
370.7558, 22727.57
371.2379, 22776.23
371.7201, 22794.68
372.2022, 22780.76
372.6843, 22755.96
373.1664, 22716.11
373.6485, 22678.96
374.1306, 22672.73
374.6128, 22706.71
375.0949, 22741.21
375.5770, 22754.21
376.0591, 22753.37
376.5412, 22755.59
377.0233, 22765.26
377.5055, 22769.65
377.9876, 22750.14
378.4697, 22703.28
378.9518, 22682.75
379.4339, 22733.51
379.9160, 22770.92
380.3982, 22725.56
380.8803, 22622.91
381.3624, 22539.36
381.8445, 22517.40
382.3266, 22538.47
382.8087, 22546.30
383.2909, 22535.66
383.7730, 22516.83
384.2551, 22473.22
384.7372, 22432.60
385.2193, 22427.57
385.7014, 22457.16
386.1836, 22482.50
386.6657, 22452.85
387.1478, 22362.51
387.6299, 22331.59
388.1120, 22435.00
388.5941, 22511.82
389.0763, 22483.81
389.5584, 22401.96
390.0405, 22348.67
390.5226, 22361.69
391.0047, 22409.11
391.4868, 22442.91
391.9690, 22461.70
392.4511, 22479.64
392.9332, 22506.52
393.4153, 22527.56
393.8974, 22532.08
394.3795, 22519.82
394.8617, 22490.23
395.3438, 22418.71
395.8259, 22338.01
396.3080, 22308.85
396.7901, 22338.74
397.2722, 22381.93
397.7544, 22413.24
398.2365, 22430.93
398.7186, 22433.45
399.2007, 22402.86
399.6828, 22377.51
400.1649, 22382.24
400.6471, 22399.69
401.1292, 22398.34
401.6113, 22367.69
402.0934, 22325.64
402.5755, 22298.16
403.0576, 22290.00
403.5398, 22283.31
404.0219, 22284.54
404.5040, 22281.02
404.9861, 22261.86
405.4682, 22232.32
405.9503, 22206.57
406.4325, 22194.30
406.9146, 22190.78
407.3967, 22179.75
407.8788, 22159.76
408.3609, 22134.90
408.8430, 22093.85
409.3252, 22056.41
409.8073, 22041.82
410.2894, 22051.82
410.7715, 22066.29
411.2536, 22064.29
411.7357, 22050.73
412.2179, 22053.82
412.7000, 22082.66
413.1821, 22110.53
413.6642, 22115.68
414.1463, 22106.83
414.6284, 22100.16
415.1106, 22101.30
415.5927, 22102.20
416.0748, 22101.60
416.5569, 22096.58
417.0390, 22072.35
417.5211, 22019.11
418.0033, 21963.22
418.4854, 21948.72
418.9675, 21996.44
419.4496, 22013.80
419.9317, 21969.04
420.4138, 21916.49
420.8960, 21887.61
421.3781, 21883.34
421.8602, 21897.11
422.3423, 21927.02
422.8244, 21966.52
423.3065, 21987.19
423.7887, 21982.13
424.2708, 21967.48
424.7529, 21946.80
425.2350, 21917.10
425.7171, 21868.10
426.1992, 21802.32
426.6814, 21743.71
427.1635, 21717.62
427.6456, 21721.41
428.1277, 21727.80
428.6098, 21741.35
429.0919, 21748.56
429.5741, 21738.41
430.0562, 21718.82
430.5383, 21700.31
431.0204, 21683.62
431.5025, 21672.23
431.9846, 21673.28
432.4668, 21682.77
432.9489, 21685.63
433.4310, 21676.98
433.9131, 21664.34
434.3952, 21657.26
434.8773, 21656.74
435.3595, 21650.56
435.8416, 21637.46
436.3237, 21619.08
436.8058, 21593.17
437.2879, 21562.76
437.7701, 21531.78
438.2522, 21501.29
438.7343, 21477.84
439.2164, 21481.21
439.6985, 21546.81
440.1806, 21574.98
440.6628, 21536.21
441.1449, 21487.15
441.6270, 21466.34
442.1091, 21471.12
442.5912, 21473.32
443.0733, 21447.67
443.5555, 21404.63
444.0376, 21388.18
444.5197, 21409.63
445.0018, 21425.96
445.4839, 21413.59
445.9660, 21391.64
446.4482, 21378.72
446.9303, 21378.08
447.4124, 21379.04
447.8945, 21380.49
448.3766, 21377.87
448.8587, 21356.69
449.3409, 21313.40
449.8230, 21273.63
450.3051, 21259.14
450.7872, 21267.31
451.2693, 21267.49
451.7514, 21259.74
452.2336, 21244.72
452.7157, 21211.26
453.1978, 21174.76
453.6799, 21165.09
454.1620, 21188.21
454.6441, 21209.39
455.1263, 21178.54
455.6084, 21081.10
456.0905, 21014.50
456.5726, 20995.69
457.0547, 20992.86
457.5368, 21009.99
458.0190, 21033.91
458.5011, 21041.76
458.9832, 21020.72
459.4653, 20995.95
459.9474, 21010.02
460.4295, 21063.66
460.9117, 21103.36
461.3938, 21120.24
461.8759, 21117.93
462.3580, 21092.88
462.8401, 21049.69
463.3222, 21012.18
463.8044, 20981.82
464.2865, 20963.52
464.7686, 20965.15
465.2507, 20983.58
465.7328, 21010.84
466.2149, 21046.78
466.6971, 21077.92
467.1792, 21076.36
467.6613, 21020.04
468.1434, 20975.97
468.6255, 20944.89
469.1076, 20924.98
469.5898, 20924.16
470.0719, 20934.28
470.5540, 20934.18
471.0361, 20908.92
471.5182, 20868.85
472.0003, 20843.93
472.4825, 20838.47
472.9646, 20836.91
473.4467, 20843.86
473.9288, 20848.00
474.4109, 20840.26
474.8930, 20821.15
475.3752, 20800.11
475.8573, 20772.98
476.3394, 20751.14
476.8215, 20765.51
477.3036, 20817.07
477.7857, 20847.97
478.2679, 20824.25
478.7500, 20765.74
479.2321, 20718.11
479.7142, 20680.56
480.1963, 20653.79
480.6784, 20641.39
481.1606, 20637.55
481.6427, 20639.93
482.1248, 20646.46
482.6069, 20653.02
483.0890, 20657.63
483.5711, 20658.51
484.0533, 20643.78
484.5354, 20591.56
485.0175, 20560.33
485.4996, 20574.70
485.9817, 20599.11
486.4638, 20606.67
486.9460, 20594.16
487.4281, 20573.09
487.9102, 20541.11
488.3923, 20507.97
488.8744, 20513.10
489.3565, 20566.13
489.8387, 20601.57
490.3208, 20573.81
490.8029, 20513.66
491.2850, 20486.20
491.7671, 20498.72
492.2492, 20521.55
492.7314, 20569.29
493.2135, 20608.37
493.6956, 20588.43
494.1777, 20512.17
494.6598, 20432.33
495.1419, 20387.71
495.6241, 20374.93
496.1062, 20371.58
496.5883, 20391.28
497.0704, 20401.18
497.5525, 20398.36
498.0346, 20384.88
498.5168, 20352.22
498.9989, 20305.69
499.4810, 20274.57
499.9631, 20296.46
500.4452, 20352.56
500.9273, 20365.90
501.4095, 20325.40
501.8916, 20289.52
502.3737, 20291.77
502.8558, 20308.35
503.3379, 20301.26
503.8200, 20265.37
504.3022, 20224.82
504.7843, 20177.88
505.2664, 20137.25
505.7485, 20122.13
506.2306, 20131.21
506.7127, 20145.94
507.1949, 20154.38
507.6770, 20158.02
508.1591, 20163.50
508.6412, 20176.29
509.1233, 20182.68
509.6054, 20187.95
510.0876, 20182.42
510.5697, 20148.33
511.0518, 20093.20
511.5339, 20050.50
512.0161, 20050.78
512.4982, 20076.64
512.9803, 20080.67
513.4624, 20060.66
513.9445, 20030.35
514.4266, 19982.72
514.9088, 19937.43
515.3909, 19920.97
515.8730, 19935.11
516.3551, 19952.40
516.8372, 19976.03
517.3193, 19990.80
517.8015, 19974.69
518.2836, 19934.77
518.7657, 19900.33
519.2478, 19886.97
519.7299, 19888.58
520.2120, 19892.34
520.6942, 19910.73
521.1763, 19906.44
521.6584, 19847.16
522.1405, 19798.04
522.6226, 19806.22
523.1047, 19853.59
523.5869, 19890.02
524.0690, 19888.97
524.5511, 19864.79
525.0332, 19834.66
525.5153, 19798.69
525.9974, 19775.76
526.4796, 19775.32
526.9617, 19781.16
527.4438, 19775.09
527.9259, 19758.78
528.4080, 19746.36
528.8901, 19742.02
529.3723, 19739.90
529.8544, 19737.28
530.3365, 19734.21
530.8186, 19733.45
531.3007, 19735.56
531.7828, 19731.95
532.2650, 19706.77
532.7471, 19652.11
533.2292, 19624.98
533.7113, 19652.16
534.1934, 19676.89
534.6755, 19685.06
535.1577, 19679.42
535.6398, 19661.53
536.1219, 19630.40
536.6040, 19600.10
537.0861, 19587.89
537.5682, 19587.23
538.0504, 19573.40
538.5325, 19541.22
539.0146, 19514.97
539.4967, 19515.46
539.9788, 19536.08
540.4609, 19543.78
540.9431, 19541.60
541.4252, 19524.23
541.9073, 19476.60
542.3894, 19422.41
542.8715, 19386.05
543.3536, 19368.00
543.8358, 19350.88
544.3179, 19319.33
544.8000, 19278.93
545.2821, 19254.12
545.7642, 19247.26
546.2463, 19249.63
546.7285, 19263.31
547.2106, 19282.74
547.6927, 19315.44
548.1748, 19357.12
548.6569, 19367.41
549.1390, 19286.58
549.6211, 19195.10
550.1032, 19200.19
550.5853, 19279.42
551.0674, 19326.29
551.5496, 19295.55
552.0317, 19229.03
552.5138, 19194.38
552.9959, 19203.10
553.4780, 19205.02
553.9601, 19202.32
554.4423, 19191.63
554.9244, 19165.28
555.4065, 19132.02
555.8886, 19101.43
556.3707, 19076.49
556.8528, 19066.83
557.3350, 19098.22
557.8171, 19162.45
558.2992, 19187.54
558.7813, 19156.88
559.2634, 19119.04
559.7455, 19108.32
560.2277, 19114.34
560.7098, 19102.63
561.1919, 19058.28
561.6740, 19021.83
562.1561, 19014.90
562.6382, 19016.71
563.1204, 19000.52
563.6025, 18967.79
564.0846, 18944.25
564.5667, 18950.88
565.0488, 18977.04
565.5309, 18978.59
566.0131, 18942.90
566.4952, 18914.62
566.9773, 18908.54
567.4594, 18906.45
567.9415, 18894.10
568.4236, 18874.52
568.9058, 18864.12
569.3879, 18883.23
569.8700, 18902.38
570.3521, 18883.25
570.8342, 18837.95
571.3163, 18810.76
571.7985, 18816.65
572.2806, 18828.92
572.7627, 18813.43
573.2448, 18765.19
573.7269, 18735.91
574.2090, 18738.71
574.6912, 18743.39
575.1733, 18746.01
575.6554, 18744.76
576.1375, 18738.45
576.6196, 18726.69
577.1017, 18709.42
577.5839, 18677.15
578.0660, 18639.41
578.5481, 18634.04
579.0302, 18665.62
579.5123, 18692.77
579.9944, 18692.23
580.4766, 18680.28
580.9587, 18697.04
581.4408, 18760.89
581.9229, 18775.58
582.4050, 18677.88
582.8871, 18572.23
583.3693, 18524.14
583.8514, 18524.10
584.3335, 18545.22
584.8156, 18575.63
585.2977, 18601.30
585.7798, 18595.56
586.2620, 18555.02
586.7441, 18522.87
587.2262, 18502.06
587.7083, 18487.93
588.1904, 18477.68
588.6725, 18472.27
589.1547, 18476.23
589.6368, 18497.19
590.1189, 18508.75
590.6010, 18497.21
591.0831, 18469.67
591.5652, 18420.19
592.0474, 18358.07
592.5295, 18332.54
593.0116, 18383.33
593.4937, 18473.44
593.9758, 18479.73
594.4579, 18343.34
594.9401, 18263.17
595.4222, 18315.64
595.9043, 18373.85
596.3864, 18366.64
596.8685, 18314.95
597.3506, 18280.01
597.8328, 18292.30
598.3149, 18312.98
598.7970, 18299.21
599.2791, 18267.06
599.7612, 18265.05
600.2433, 18302.64
600.7255, 18337.08
601.2076, 18332.33
601.6897, 18292.14
602.1718, 18246.73
602.6539, 18168.54
603.1360, 18124.20
603.6182, 18143.40
604.1003, 18178.09
604.5824, 18201.68
605.0645, 18207.92
605.5466, 18190.96
606.0287, 18135.85
606.5109, 18071.47
606.9930, 18041.05
607.4751, 18041.87
607.9572, 18055.52
608.4393, 18080.73
608.9214, 18105.54
609.4036, 18119.89
609.8857, 18123.65
610.3678, 18111.88
610.8499, 18076.71
611.3320, 18037.73
611.8141, 17990.77
612.2963, 17947.49
612.7784, 17927.42
613.2605, 17926.98
613.7426, 17915.30
614.2247, 17857.05
614.7068, 17780.96
615.1890, 17765.65
615.6711, 17814.06
616.1532, 17857.52
616.6353, 17876.02
617.1174, 17883.38
617.5995, 17900.39
618.0817, 17927.32
618.5638, 17920.09
619.0459, 17831.26
619.5280, 17760.93
620.0101, 17767.12
620.4922, 17803.95
620.9744, 17812.89
621.4565, 17783.54
621.9386, 17743.43
622.4207, 17712.47
622.9028, 17692.60
623.3849, 17698.55
623.8671, 17737.41
624.3492, 17759.82
624.8313, 17744.90
625.3134, 17714.05
625.7955, 17687.79
626.2776, 17665.87
626.7598, 17657.10
627.2419, 17675.01
627.7240, 17693.09
628.2061, 17697.40
628.6882, 17693.62
629.1703, 17690.75
629.6525, 17690.71
630.1346, 17689.70
630.6167, 17686.88
631.0988, 17679.34
631.5809, 17644.16
632.0630, 17568.76
632.5452, 17515.26
633.0273, 17512.72
633.5094, 17530.21
633.9915, 17535.46
634.4736, 17529.02
634.9557, 17518.20
635.4379, 17496.14
635.9200, 17478.80
636.4021, 17481.75
636.8842, 17492.88
637.3663, 17493.02
637.8484, 17477.85
638.3306, 17455.18
638.8127, 17428.19
639.2948, 17401.25
639.7769, 17411.06
640.2590, 17478.37
640.7411, 17507.12
641.2233, 17447.94
641.7054, 17359.61
642.1875, 17292.49
642.6696, 17246.93
643.1517, 17235.19
643.6339, 17298.79
644.1160, 17355.15
644.5981, 17352.58
645.0802, 17316.00
645.5623, 17278.93
646.0444, 17251.23
646.5266, 17233.48
647.0087, 17228.57
647.4908, 17232.87
647.9729, 17227.83
648.4550, 17210.29
648.9371, 17196.01
649.4193, 17187.22
649.9014, 17185.11
650.3835, 17197.22
650.8656, 17220.02
651.3477, 17227.27
651.8298, 17213.24
652.3120, 17184.37
652.7941, 17121.88
653.2762, 17056.80
653.7583, 17038.73
654.2404, 17069.10
654.7225, 17102.28
655.2047, 17100.87
655.6868, 17074.85
656.1689, 17054.74
656.6510, 17039.78
657.1331, 17038.13
657.6152, 17064.92
658.0974, 17086.25
658.5795, 17060.98
659.0616, 17000.99
659.5437, 16959.90
660.0258, 16958.26
660.5079, 16956.43
660.9901, 16934.59
661.4722, 16909.99
661.9543, 16904.99
662.4364, 16917.18
662.9185, 16924.23
663.4006, 16909.77
663.8828, 16885.46
