##NAMES=Shortite
##RRUFFID=R050248
##IDEAL CHEMISTRY=Na_2_Ca_2_(CO_3_)_3_
##LOCALITY=Stauffer mine, Green River, Wyoming, USA
##OWNER=RRUFF
##SOURCE=Marcus Origlieri
##DESCRIPTION=Colorless wedge-shaped single crystal
##STATUS=The identification of this mineral has been confirmed by X-ray diffraction and chemical analysis
##URL=rruff.info/R050248
##MEASURED CHEMISTRY=Na_2.00_Ca_2.00_(CO_3_)_3_ ; CO2 not measured but estimated by difference and stoichiometry.
92.35352, 584.9812
92.83563, 576.2459
93.31775, 573.8111
93.79987, 585.8699
94.28198, 597.8973
94.76410, 605.9688
95.24622, 611.1553
95.72833, 614.6614
96.21045, 616.9857
96.69257, 617.9086
97.17468, 618.7070
97.65680, 620.9811
98.13892, 623.3286
98.62103, 624.4229
99.10315, 622.8752
99.58527, 619.0193
100.0674, 616.4816
100.5495, 616.1991
101.0316, 616.3799
101.5137, 616.6653
101.9958, 617.0504
102.4780, 617.5411
102.9601, 618.0780
103.4422, 618.5892
103.9243, 620.2750
104.4064, 623.2486
104.8885, 626.7927
105.3707, 630.5472
105.8528, 634.4971
106.3349, 638.8175
106.8170, 643.5481
107.2991, 648.6682
107.7813, 654.5786
108.2634, 661.1279
108.7455, 668.5127
109.2276, 677.4749
109.7097, 688.7078
110.1918, 699.8817
110.6740, 708.3409
111.1561, 714.4241
111.6382, 719.4982
112.1203, 724.0240
112.6024, 728.0443
113.0845, 731.7509
113.5666, 734.1252
114.0488, 737.1524
114.5309, 742.0480
115.0130, 748.9618
115.4951, 757.3598
115.9772, 766.7293
116.4593, 777.1318
116.9415, 788.4631
117.4236, 801.9991
117.9057, 815.5468
118.3878, 827.6417
118.8699, 837.6575
119.3520, 846.0123
119.8342, 853.6708
120.3163, 860.4982
120.7984, 866.6756
121.2805, 870.9070
121.7626, 874.7706
122.2447, 880.2487
122.7269, 888.5071
123.2090, 899.3445
123.6911, 911.3646
124.1732, 924.7928
124.6553, 938.8242
125.1374, 952.4716
125.6196, 966.1744
126.1017, 981.7327
126.5838, 1000.296
127.0659, 1022.204
127.5480, 1046.186
128.0302, 1071.608
128.5123, 1099.328
128.9944, 1131.840
129.4765, 1170.668
129.9586, 1207.345
130.4407, 1238.895
130.9229, 1264.191
131.4050, 1277.513
131.8871, 1273.389
132.3692, 1255.175
132.8513, 1232.477
133.3334, 1199.559
133.8155, 1170.426
134.2977, 1150.249
134.7798, 1138.746
135.2619, 1134.804
135.7440, 1138.486
136.2261, 1150.275
136.7082, 1165.263
137.1904, 1192.839
137.6725, 1216.057
138.1546, 1230.869
138.6367, 1235.547
139.1188, 1227.905
139.6009, 1203.976
140.0831, 1155.602
140.5652, 1109.479
141.0473, 1062.325
141.5294, 1019.009
142.0115, 983.4227
142.4936, 956.5239
142.9758, 936.5636
143.4579, 921.0677
143.9400, 911.2546
144.4221, 904.5275
144.9042, 901.4759
145.3863, 901.3398
145.8685, 903.4661
146.3506, 907.7916
146.8327, 913.6907
147.3148, 919.8195
147.7969, 925.7944
148.2790, 932.6991
148.7612, 940.8082
149.2433, 950.1398
149.7254, 960.7269
150.2075, 972.7812
150.6896, 986.2441
151.1717, 1000.799
151.6539, 1017.023
152.1360, 1033.027
152.6181, 1047.692
153.1002, 1061.243
153.5823, 1072.049
154.0644, 1081.208
154.5466, 1086.147
155.0287, 1084.306
155.5108, 1075.000
155.9929, 1058.514
156.4750, 1034.011
156.9571, 997.1844
157.4393, 961.6906
157.9214, 930.0074
158.4035, 901.3729
158.8856, 875.1185
159.3677, 850.8260
159.8498, 828.8821
160.3320, 810.7735
160.8141, 797.8982
161.2962, 787.7906
161.7783, 780.7527
162.2604, 775.9684
162.7425, 772.5301
163.2247, 769.8925
163.7068, 768.0290
164.1889, 766.8121
164.6710, 766.7545
165.1531, 766.7511
165.6352, 766.0270
166.1174, 765.0516
166.5995, 764.9733
167.0816, 766.6796
167.5637, 770.2044
168.0458, 774.1147
168.5279, 779.4528
169.0101, 784.2245
169.4922, 787.5217
169.9743, 789.2784
170.4564, 789.6617
170.9385, 788.6397
171.4206, 786.1392
171.9028, 782.9383
172.3849, 779.0383
172.8670, 774.4799
173.3491, 768.8403
173.8312, 761.8927
174.3133, 755.4307
174.7955, 750.9054
175.2776, 747.9709
175.7597, 746.3094
176.2418, 745.7411
176.7239, 746.4032
177.2060, 748.6937
177.6882, 752.9313
178.1703, 758.2892
178.6524, 764.2853
179.1345, 770.8516
179.6166, 777.8477
180.0987, 785.1395
180.5809, 792.7967
181.0630, 801.2755
181.5451, 811.8157
182.0272, 821.6713
182.5093, 830.3553
182.9914, 837.5743
183.4736, 842.7596
183.9557, 845.2000
184.4378, 844.8260
184.9199, 843.7767
185.4020, 841.1623
185.8841, 838.6139
186.3663, 836.0204
186.8484, 833.8246
187.3305, 832.9771
187.8126, 834.5352
188.2947, 838.9724
188.7768, 843.0783
189.2590, 846.6115
189.7411, 850.0655
190.2232, 853.7877
190.7053, 857.6959
191.1874, 861.4559
191.6695, 864.7636
192.1517, 867.6945
192.6338, 869.5938
193.1159, 868.6747
193.5980, 868.1964
194.0801, 870.4629
194.5622, 875.6183
195.0444, 882.0310
195.5265, 887.9822
196.0086, 893.3355
196.4907, 898.5596
196.9728, 903.9089
197.4549, 909.0032
197.9371, 913.7682
198.4192, 918.1982
198.9013, 921.6314
199.3834, 923.0286
199.8655, 922.4025
200.3476, 921.2449
200.8298, 917.9156
201.3119, 914.8253
201.7940, 916.7039
202.2761, 925.6747
202.7582, 934.2291
203.2403, 932.8223
203.7225, 923.5500
204.2046, 913.9070
204.6867, 907.0988
205.1688, 901.7150
205.6509, 894.2621
206.1330, 883.6053
206.6152, 872.1114
207.0973, 861.1819
207.5794, 850.8088
208.0615, 841.5013
208.5436, 834.1976
209.0257, 828.3951
209.5079, 821.6638
209.9900, 813.5811
210.4721, 804.8438
210.9542, 795.6510
211.4363, 786.1984
211.9184, 776.9852
212.4006, 768.3120
212.8827, 760.1804
213.3648, 752.7191
213.8469, 746.2429
214.3290, 740.2426
214.8111, 734.2803
215.2933, 728.5497
215.7754, 723.6068
216.2575, 720.2421
216.7396, 718.5977
217.2217, 715.7318
217.7038, 709.1915
218.1859, 703.5934
218.6681, 700.7137
219.1502, 700.0784
219.6323, 700.0749
220.1144, 699.3431
220.5965, 697.8099
221.0786, 696.3812
221.5608, 694.7891
222.0429, 693.5306
222.5250, 692.7048
223.0071, 692.3654
223.4892, 692.6135
223.9713, 693.5930
224.4535, 695.4068
224.9356, 697.0244
225.4177, 698.1630
225.8998, 699.4063
226.3819, 701.0095
226.8640, 702.9451
227.3462, 705.0575
227.8283, 707.2492
228.3104, 709.5417
228.7925, 711.5715
229.2746, 712.7009
229.7567, 714.1749
230.2389, 716.8066
230.7210, 720.4437
231.2031, 724.1794
231.6852, 727.2025
232.1673, 729.5334
232.6494, 732.8702
233.1316, 737.7269
233.6137, 743.0154
234.0958, 747.9114
234.5779, 752.5331
235.0600, 757.8106
235.5421, 764.6429
236.0243, 772.8719
236.5064, 780.5522
236.9885, 787.3831
237.4706, 793.8721
237.9527, 799.6018
238.4348, 804.7953
238.9170, 811.6618
239.3991, 822.0654
239.8812, 835.4365
240.3633, 848.6409
240.8454, 860.8207
241.3275, 873.6235
241.8097, 888.2322
242.2918, 904.6909
242.7739, 922.5732
243.2560, 941.5695
243.7381, 962.2119
244.2202, 985.0724
244.7024, 1010.579
245.1845, 1037.766
245.6666, 1066.607
246.1487, 1097.043
246.6308, 1126.931
247.1129, 1155.096
247.5951, 1182.086
248.0772, 1208.823
248.5593, 1235.867
249.0414, 1261.536
249.5235, 1283.648
250.0056, 1301.979
250.4878, 1319.901
250.9699, 1338.145
251.4520, 1356.705
251.9341, 1375.062
252.4162, 1393.061
252.8983, 1411.874
253.3805, 1432.901
253.8626, 1456.398
254.3447, 1480.173
254.8268, 1503.988
255.3089, 1527.598
255.7910, 1550.545
256.2732, 1572.739
256.7553, 1594.800
257.2374, 1616.984
257.7195, 1639.014
258.2016, 1662.762
258.6837, 1689.751
259.1659, 1717.741
259.6480, 1745.422
260.1301, 1772.774
260.6122, 1801.243
261.0943, 1832.617
261.5764, 1867.114
262.0586, 1902.076
262.5407, 1937.849
263.0228, 1974.010
263.5049, 2011.721
263.9870, 2050.233
264.4691, 2086.454
264.9513, 2120.225
265.4334, 2153.566
265.9155, 2169.677
266.3976, 2166.802
266.8797, 2146.491
267.3618, 2106.698
267.8440, 2048.872
268.3261, 1975.801
268.8082, 1887.822
269.2903, 1784.290
269.7724, 1683.393
270.2545, 1581.116
270.7367, 1485.850
271.2188, 1399.818
271.7009, 1322.762
272.1830, 1253.849
272.6651, 1192.264
273.1472, 1138.029
273.6294, 1089.842
274.1115, 1049.759
274.5936, 1014.456
275.0757, 984.4306
275.5578, 958.7844
276.0399, 936.6614
276.5221, 917.6896
277.0042, 901.4789
277.4863, 885.9631
277.9684, 870.3417
278.4505, 856.4108
278.9326, 845.0120
279.4148, 835.1887
279.8969, 825.5714
280.3790, 815.4180
280.8611, 805.1808
281.3432, 796.2814
281.8253, 789.5662
282.3075, 783.2927
282.7896, 777.2944
283.2717, 771.7167
283.7538, 767.0063
284.2359, 763.3024
284.7180, 759.8721
285.2002, 755.1348
285.6823, 746.5027
286.1644, 740.2411
286.6465, 737.8948
287.1286, 736.9567
287.6107, 735.2056
288.0929, 732.0549
288.5750, 728.4645
289.0571, 725.8977
289.5392, 725.1933
290.0213, 723.6622
290.5034, 720.5042
290.9856, 717.1461
291.4677, 714.7108
291.9498, 713.3102
292.4319, 712.2120
292.9140, 710.5535
293.3961, 708.0311
293.8783, 706.3680
294.3604, 706.1873
294.8425, 706.2178
295.3246, 705.8917
295.8067, 705.1144
296.2888, 703.8709
296.7710, 702.0372
297.2531, 699.5679
297.7352, 697.8571
298.2173, 697.4261
298.6994, 697.0880
299.1815, 696.4319
299.6637, 695.4531
300.1458, 694.2074
300.6279, 692.6735
301.1100, 690.9215
301.5921, 689.4926
302.0742, 688.7937
302.5564, 687.9044
303.0385, 686.0049
303.5206, 683.8055
304.0027, 682.6872
304.4848, 683.4120
304.9669, 685.3522
305.4491, 686.6307
305.9312, 687.2143
306.4133, 687.2496
306.8954, 686.0676
307.3775, 684.5786
307.8596, 683.9879
308.3418, 684.7112
308.8239, 686.2476
309.3060, 687.7728
309.7881, 689.4647
310.2702, 690.7371
310.7523, 691.0115
311.2345, 691.1671
311.7166, 692.1697
312.1987, 694.1600
312.6808, 696.3565
313.1629, 697.7932
313.6451, 698.1397
314.1272, 699.0995
314.6093, 700.9221
315.0914, 703.1174
315.5735, 705.5939
316.0556, 708.2218
316.5378, 710.5663
317.0199, 712.2262
317.5020, 713.1691
317.9841, 714.4344
318.4662, 716.6165
318.9483, 718.4896
319.4305, 719.0842
319.9126, 718.8728
320.3947, 719.2152
320.8768, 720.9951
321.3589, 723.9053
321.8410, 726.3280
322.3232, 728.4827
322.8053, 730.0319
323.2874, 730.6364
323.7695, 730.6352
324.2516, 730.5372
324.7337, 730.5519
325.2159, 730.5598
325.6980, 730.2552
326.1801, 729.0822
326.6622, 728.5795
327.1443, 729.2479
327.6264, 730.4366
328.1086, 731.7733
328.5907, 733.0996
329.0728, 733.8401
329.5549, 733.1146
330.0370, 730.1442
330.5191, 728.2107
331.0013, 728.1798
331.4834, 728.4812
331.9655, 727.9215
332.4476, 726.5320
332.9297, 725.2737
333.4118, 725.1058
333.8940, 726.1320
334.3761, 725.8434
334.8582, 722.7322
335.3403, 720.1142
335.8224, 719.8448
336.3045, 721.1364
336.7867, 722.0336
337.2688, 721.3679
337.7509, 719.4384
338.2330, 717.6432
338.7151, 716.3870
339.1972, 714.7706
339.6793, 712.2460
340.1614, 709.4226
340.6436, 707.1194
341.1257, 705.6218
341.6078, 704.5828
342.0899, 703.3289
342.5720, 701.7523
343.0541, 700.1255
343.5363, 698.8596
344.0184, 697.2766
344.5005, 694.4928
344.9826, 690.5576
345.4647, 686.5828
345.9468, 683.8103
346.4290, 682.4258
346.9111, 681.3909
347.3932, 681.5165
347.8753, 681.1633
348.3574, 679.2922
348.8395, 676.2465
349.3217, 673.0289
349.8038, 670.3481
350.2859, 668.1696
350.7680, 666.2619
351.2501, 664.9659
351.7322, 663.5419
352.2144, 661.6833
352.6965, 659.6760
353.1786, 657.9352
353.6607, 656.6467
354.1428, 655.6511
354.6249, 654.5851
355.1071, 653.5955
355.5892, 652.2791
356.0713, 649.9686
356.5534, 647.7960
357.0355, 646.8843
357.5176, 647.3099
357.9998, 648.0374
358.4819, 647.7100
358.9640, 645.9279
359.4461, 644.7704
359.9282, 644.8497
360.4103, 644.9404
360.8925, 644.4251
361.3746, 643.4680
361.8567, 642.6062
362.3388, 642.2264
362.8209, 642.2940
363.3030, 642.5045
363.7852, 642.9239
364.2673, 643.4090
364.7494, 643.8007
365.2315, 644.2708
365.7136, 645.1583
366.1957, 646.6329
366.6779, 648.2242
367.1600, 648.7845
367.6421, 647.5759
368.1242, 647.2018
368.6063, 648.3894
369.0884, 650.2185
369.5706, 652.4313
370.0527, 654.8381
370.5348, 656.8092
371.0169, 657.4014
371.4990, 656.4669
371.9811, 656.2183
372.4633, 656.8262
372.9454, 658.1036
373.4275, 660.3889
373.9096, 663.2633
374.3917, 665.8502
374.8738, 667.7078
375.3560, 668.8556
375.8381, 669.0450
376.3202, 667.5056
376.8023, 666.8406
377.2844, 668.8528
377.7665, 671.9071
378.2487, 674.3125
378.7308, 675.5771
379.2129, 676.2380
379.6950, 676.8351
380.1771, 677.3645
380.6592, 677.8809
381.1414, 678.2052
381.6235, 678.7209
382.1056, 679.9698
382.5877, 681.9010
383.0698, 683.4719
383.5519, 684.0003
384.0341, 683.6828
384.5162, 682.9810
384.9983, 681.6816
385.4804, 680.6467
385.9625, 681.2057
386.4446, 682.5255
386.9268, 682.7480
387.4089, 680.6418
387.8910, 677.8055
388.3731, 676.2262
388.8552, 675.8431
389.3373, 674.7277
389.8195, 671.5263
390.3016, 667.3542
390.7837, 664.4516
391.2658, 663.1870
391.7479, 662.0805
392.2300, 660.3065
392.7122, 658.1923
393.1943, 656.6221
393.6764, 655.9586
394.1585, 655.2039
394.6406, 652.7313
395.1227, 648.4631
395.6049, 645.5109
396.0870, 645.3862
396.5691, 645.9637
397.0512, 645.3801
397.5333, 643.6428
398.0154, 641.9191
398.4976, 641.0812
398.9797, 640.8936
399.4618, 639.8520
399.9439, 636.8849
400.4260, 634.4525
400.9081, 633.4318
401.3903, 633.3799
401.8724, 633.7861
402.3545, 634.4797
402.8366, 635.1212
403.3187, 635.1608
403.8008, 634.5843
404.2830, 633.2725
404.7651, 630.0323
405.2472, 626.9996
405.7293, 625.9370
406.2114, 626.6980
406.6935, 627.8133
407.1757, 628.0582
407.6578, 627.4570
408.1399, 627.0808
408.6220, 627.1746
409.1041, 627.2149
409.5862, 627.1953
410.0684, 627.0228
410.5505, 626.4760
411.0326, 625.4659
411.5147, 624.3408
411.9968, 623.8824
412.4789, 624.6776
412.9611, 624.8190
413.4432, 623.6702
413.9253, 622.3622
414.4074, 621.5508
414.8895, 621.2588
415.3716, 621.1692
415.8538, 621.1127
416.3359, 621.0621
416.8180, 620.4681
417.3001, 618.6166
417.7822, 617.2626
418.2643, 617.4688
418.7465, 618.3349
419.2286, 618.6077
419.7107, 617.7457
420.1928, 616.3112
420.6749, 614.8813
421.1570, 613.3234
421.6392, 612.8165
422.1213, 614.9326
422.6034, 617.1429
423.0855, 617.2615
423.5676, 615.3407
424.0497, 613.3121
424.5319, 612.5951
425.0140, 612.6809
425.4961, 612.0477
425.9782, 610.3747
426.4603, 608.7644
426.9424, 608.1818
427.4246, 608.2018
427.9067, 607.9668
428.3888, 606.9820
428.8709, 606.1390
429.3530, 606.4742
429.8351, 607.6833
430.3173, 608.3203
430.7994, 607.7729
431.2815, 606.5742
431.7636, 605.4620
432.2457, 604.3691
432.7278, 603.6741
433.2100, 603.9967
433.6921, 604.4607
434.1742, 603.9794
434.6563, 602.5146
435.1384, 600.9750
435.6205, 600.0471
436.1027, 599.7227
436.5848, 599.7000
437.0669, 600.4861
437.5490, 600.9562
438.0311, 600.5349
438.5132, 599.6351
438.9954, 598.8425
439.4775, 598.3810
439.9596, 598.2036
440.4417, 598.2679
440.9238, 598.8068
441.4059, 599.0305
441.8881, 598.7804
442.3702, 598.3964
442.8523, 597.9568
443.3344, 597.5419
443.8165, 597.2906
444.2986, 597.3202
444.7808, 597.5873
445.2629, 597.8892
445.7450, 598.7018
446.2271, 598.7609
446.7092, 596.6761
447.1913, 594.4340
447.6735, 594.4553
448.1556, 597.2654
448.6377, 600.3317
449.1198, 600.3224
449.6019, 597.0184
450.0840, 594.5412
450.5662, 593.6943
451.0483, 593.1360
451.5304, 591.9874
452.0125, 590.5305
452.4946, 589.4959
452.9767, 589.4933
453.4589, 589.8195
453.9410, 589.1747
454.4231, 587.4693
454.9052, 586.0752
455.3873, 585.4288
455.8694, 585.4930
456.3516, 586.2945
456.8337, 587.9965
457.3158, 589.3563
457.7979, 589.9058
458.2800, 589.6910
458.7621, 588.3875
459.2443, 585.8569
459.7264, 583.7227
460.2085, 583.4899
460.6906, 585.0107
461.1727, 585.9855
461.6548, 585.7673
462.1370, 585.6747
462.6191, 586.5021
463.1012, 587.8536
463.5833, 589.0052
464.0654, 589.7015
464.5475, 589.9510
465.0297, 589.7477
465.5118, 588.8986
465.9939, 588.0247
466.4760, 586.6426
466.9581, 585.6512
467.4402, 585.9670
467.9224, 587.1996
468.4045, 588.1788
468.8866, 588.1160
469.3687, 587.1827
469.8508, 586.1312
470.3329, 584.5830
470.8151, 583.5645
471.2972, 583.4257
471.7793, 583.6661
472.2614, 584.0653
472.7435, 584.4948
473.2256, 584.6106
473.7078, 583.8756
474.1899, 582.3158
474.6720, 581.1697
475.1541, 580.5944
475.6362, 580.2053
476.1183, 579.8350
476.6005, 579.4961
477.0826, 579.2426
477.5647, 579.1492
478.0468, 578.9974
478.5289, 578.4547
479.0110, 577.5725
479.4932, 576.8341
479.9753, 576.3554
480.4574, 576.0854
480.9395, 576.3008
481.4216, 576.9250
481.9037, 576.6428
482.3859, 573.9646
482.8680, 571.0361
483.3501, 570.2630
483.8322, 571.3993
484.3143, 572.2601
484.7964, 571.6145
485.2786, 569.9352
485.7607, 568.6349
486.2428, 567.9841
486.7249, 567.2106
487.2070, 565.8889
487.6891, 564.6025
488.1713, 563.9957
488.6534, 564.0780
489.1355, 564.3913
489.6176, 564.6124
490.0997, 564.7219
490.5818, 563.9337
491.0640, 560.9480
491.5461, 558.5212
492.0282, 557.2664
492.5103, 556.7188
492.9924, 556.4910
493.4745, 556.4283
493.9567, 556.3414
494.4388, 555.9777
494.9209, 555.3200
495.4030, 554.6444
495.8851, 554.2990
496.3672, 553.4886
496.8494, 551.1608
497.3315, 548.2269
497.8136, 546.5446
498.2957, 547.2416
498.7778, 548.7910
499.2599, 549.3826
499.7421, 549.0497
500.2242, 548.4186
500.7063, 547.6307
501.1884, 546.6450
501.6705, 545.1530
502.1526, 543.1727
502.6348, 541.9064
503.1169, 542.1981
503.5990, 542.9431
504.0811, 543.1050
504.5632, 542.7073
505.0453, 542.2382
505.5274, 541.9570
506.0096, 541.7915
506.4917, 541.5449
506.9738, 541.3893
507.4559, 540.8654
507.9380, 539.6950
508.4201, 538.3138
508.9023, 536.9519
509.3844, 535.7151
509.8665, 534.7776
510.3486, 534.3485
510.8307, 534.3305
511.3128, 533.8155
511.7950, 531.8848
512.2771, 530.8632
512.7592, 532.3800
513.2413, 534.1619
513.7234, 533.6097
514.2056, 530.4268
514.6877, 527.2731
515.1698, 527.1569
515.6519, 529.6619
516.1340, 530.9913
516.6161, 530.6076
517.0983, 529.9547
517.5804, 529.8417
518.0625, 529.9842
518.5446, 530.0182
519.0267, 529.9468
519.5089, 529.5768
519.9910, 528.5475
520.4731, 527.1100
520.9552, 525.9317
521.4373, 525.1517
521.9194, 524.6649
522.4016, 524.4331
522.8837, 524.4683
523.3658, 524.3496
523.8479, 524.1159
524.3300, 523.6906
524.8121, 522.9174
525.2943, 521.9565
525.7764, 521.0024
526.2585, 520.1401
526.7406, 519.4894
527.2227, 519.2366
527.7048, 519.3708
528.1870, 519.9570
528.6691, 522.2887
529.1512, 523.7187
529.6333, 522.4313
530.1154, 519.6458
530.5975, 517.6627
531.0797, 517.6320
531.5618, 518.4337
532.0439, 517.9193
532.5260, 515.7887
533.0081, 514.8212
533.4902, 516.5349
533.9724, 518.3120
534.4545, 518.2114
534.9366, 516.5845
535.4187, 514.7857
535.9008, 512.8276
536.3829, 511.3376
536.8651, 511.3847
537.3472, 512.7285
537.8293, 513.7905
538.3114, 514.0069
538.7935, 513.6355
539.2756, 512.9470
539.7578, 511.8026
540.2399, 511.0372
540.7220, 510.7605
541.2041, 510.8566
541.6862, 511.7007
542.1683, 512.8714
542.6505, 513.1830
543.1326, 511.9495
543.6147, 509.8968
544.0968, 508.8359
544.5789, 509.4077
545.0610, 509.6844
545.5432, 509.4498
546.0253, 509.0960
546.5074, 508.9245
546.9895, 508.8286
547.4716, 508.4091
547.9537, 507.2758
548.4359, 505.9293
548.9180, 505.5493
549.4001, 506.2708
549.8822, 507.0345
550.3643, 507.7348
550.8464, 508.1771
551.3286, 508.1644
551.8107, 507.7202
552.2928, 507.1360
552.7749, 506.3306
553.2570, 505.5655
553.7391, 505.2914
554.2213, 505.3955
554.7034, 505.0679
555.1855, 503.7658
555.6676, 502.2382
556.1497, 502.0734
556.6318, 504.2347
557.1140, 505.5332
557.5961, 505.6666
558.0782, 505.1481
558.5603, 503.9017
559.0424, 502.2861
559.5245, 501.0409
560.0067, 500.5854
560.4888, 500.7304
560.9709, 501.0699
561.4530, 501.7360
561.9351, 502.2219
562.4172, 502.4771
562.8994, 502.5227
563.3815, 502.3492
563.8636, 501.9661
564.3457, 501.3542
564.8278, 500.2436
565.3099, 499.1902
565.7921, 499.3114
566.2742, 500.5367
566.7563, 501.1948
567.2384, 500.5468
567.7205, 499.4770
568.2026, 499.1029
568.6848, 499.3896
569.1669, 499.9106
569.6490, 501.3387
570.1311, 502.3115
570.6132, 501.3429
571.0953, 499.1998
571.5775, 497.9444
572.0596, 498.4839
572.5417, 499.7216
573.0238, 499.6232
573.5059, 497.3060
573.9880, 496.3753
574.4702, 498.3650
574.9523, 500.0728
575.4344, 499.9232
575.9165, 498.6696
576.3986, 497.7267
576.8807, 497.7150
577.3629, 498.1262
577.8450, 498.3419
578.3271, 498.3626
578.8092, 498.0118
579.2913, 496.8502
579.7734, 496.0354
580.2556, 497.1846
580.7377, 499.3865
581.2198, 500.2713
581.7019, 498.3704
582.1840, 496.3921
582.6661, 496.4772
583.1483, 497.5973
583.6304, 497.3395
584.1125, 495.1230
584.5946, 493.1087
585.0767, 493.7594
585.5588, 497.2200
586.0409, 499.1403
586.5230, 498.7690
587.0051, 497.8910
587.4872, 496.3917
