##NAMES=Shortite
##RRUFFID=R040184
##IDEAL CHEMISTRY=Na_2_Ca_2_(CO_3_)_3_
##LOCALITY=Green River, Wyoming, USA
##OWNER=RRUFF
##SOURCE=University of Arizona Mineral Museum
##DESCRIPTION=Colorless single crystal fragments
##STATUS=The identification of this mineral has been confirmed by X-ray diffraction and chemical analysis
##URL=rruff.info/R040184
##MEASURED CHEMISTRY=(Na_1.47_Ca_0.27_[box]_0.26_)_Î£=2_Ca_2.00_(CO_3_)_3_
157.3757, 9901.111
157.8578, 9946.163
158.3399, 10017.13
158.8221, 10093.64
159.3042, 10163.06
159.7863, 10212.98
160.2684, 10264.50
160.7505, 10324.22
161.2326, 10392.05
161.7148, 10463.15
162.1969, 10532.56
162.6790, 10605.81
163.1611, 10687.28
163.6432, 10784.65
164.1253, 10886.42
164.6075, 10982.72
165.0896, 11073.06
165.5717, 11175.40
166.0538, 11303.50
166.5359, 11449.43
167.0180, 11601.89
167.5002, 11763.79
167.9823, 11926.96
168.4644, 12095.23
168.9465, 12274.11
169.4286, 12421.63
169.9107, 12505.34
170.3929, 12534.51
170.8750, 12530.72
171.3571, 12498.60
171.8392, 12441.73
172.3213, 12361.24
172.8034, 12255.50
173.2856, 12134.78
173.7677, 11997.50
174.2498, 11849.45
174.7319, 11712.99
175.2140, 11595.17
175.6961, 11498.55
176.1783, 11429.86
176.6604, 11395.77
177.1425, 11381.56
177.6246, 11376.77
178.1067, 11379.78
178.5888, 11379.69
179.0710, 11360.57
179.5531, 11332.59
180.0352, 11319.48
180.5173, 11330.95
180.9994, 11355.93
181.4815, 11377.57
181.9637, 11396.15
182.4458, 11414.32
182.9279, 11430.88
183.4100, 11448.10
183.8921, 11475.91
184.3742, 11525.01
184.8564, 11583.11
185.3385, 11616.74
185.8206, 11624.58
186.3027, 11627.40
186.7848, 11642.57
187.2669, 11670.06
187.7491, 11710.49
188.2312, 11776.04
188.7133, 11855.00
189.1954, 11896.95
189.6775, 11894.51
190.1596, 11886.92
190.6418, 11927.21
191.1239, 12014.17
191.6060, 12102.05
192.0881, 12169.91
192.5702, 12220.66
193.0524, 12278.41
193.5345, 12342.05
194.0166, 12415.05
194.4987, 12503.23
194.9808, 12607.16
195.4629, 12718.10
195.9451, 12834.74
196.4272, 12958.29
196.9093, 13069.52
197.3914, 13164.45
197.8735, 13252.40
198.3556, 13353.56
198.8378, 13470.22
199.3199, 13583.25
199.8020, 13678.80
200.2841, 13754.51
200.7662, 13836.64
201.2483, 13929.03
201.7305, 14026.49
202.2126, 14122.73
202.6947, 14224.15
203.1768, 14300.45
203.6589, 14337.12
204.1410, 14335.04
204.6232, 14281.65
205.1053, 14164.21
205.5874, 13999.76
206.0695, 13843.51
206.5516, 13697.33
207.0337, 13554.41
207.5159, 13402.96
207.9980, 13237.67
208.4801, 13103.58
208.9622, 13012.19
209.4443, 12956.20
209.9264, 12899.70
210.4086, 12839.94
210.8907, 12785.04
211.3728, 12746.20
211.8549, 12732.23
212.3370, 12700.66
212.8191, 12633.42
213.3013, 12539.10
213.7834, 12488.96
214.2655, 12497.44
214.7476, 12526.93
215.2297, 12546.37
215.7118, 12553.74
216.1940, 12556.17
216.6761, 12549.99
217.1582, 12536.34
217.6403, 12546.59
218.1224, 12594.91
218.6045, 12648.00
219.0867, 12670.94
219.5688, 12648.31
220.0509, 12631.38
220.5330, 12630.82
221.0151, 12646.83
221.4972, 12669.55
221.9794, 12705.90
222.4615, 12741.49
222.9436, 12758.76
223.4257, 12744.68
223.9078, 12739.74
224.3899, 12757.14
224.8721, 12799.89
225.3542, 12826.80
225.8363, 12828.35
226.3184, 12823.34
226.8005, 12834.41
227.2827, 12866.81
227.7648, 12905.66
228.2469, 12950.47
228.7290, 13003.41
229.2111, 13043.49
229.6932, 13064.58
230.1754, 13077.32
230.6575, 13096.81
231.1396, 13130.15
231.6217, 13157.13
232.1038, 13168.78
232.5859, 13159.46
233.0681, 13165.65
233.5502, 13192.25
234.0323, 13230.70
234.5144, 13270.44
234.9965, 13315.44
235.4786, 13354.50
235.9608, 13383.96
236.4429, 13402.28
236.9250, 13416.57
237.4071, 13425.19
237.8892, 13430.66
238.3713, 13436.62
238.8535, 13442.17
239.3356, 13449.69
239.8177, 13459.59
240.2998, 13471.38
240.7819, 13487.55
241.2640, 13508.84
241.7462, 13534.31
242.2283, 13561.56
242.7104, 13585.51
243.1925, 13619.78
243.6746, 13672.31
244.1567, 13752.82
244.6389, 13818.29
245.1210, 13862.19
245.6031, 13894.85
246.0852, 13933.14
246.5673, 13975.87
247.0494, 14026.37
247.5316, 14087.67
248.0137, 14164.61
248.4958, 14237.08
248.9779, 14307.66
249.4600, 14371.91
249.9421, 14415.06
250.4243, 14415.28
250.9064, 14434.06
251.3885, 14498.40
251.8706, 14625.64
252.3527, 14742.97
252.8348, 14850.86
253.3170, 14948.39
253.7991, 15029.05
254.2812, 15077.05
254.7633, 15136.84
255.2454, 15229.50
255.7275, 15366.64
256.2097, 15490.82
256.6918, 15599.37
257.1739, 15695.41
257.6560, 15784.06
258.1381, 15860.99
258.6202, 15939.86
259.1024, 16026.50
259.5845, 16120.68
260.0666, 16223.98
260.5487, 16351.71
261.0308, 16476.65
261.5129, 16549.95
261.9951, 16555.86
262.4772, 16546.31
262.9593, 16545.63
263.4414, 16563.47
263.9235, 16542.80
264.4056, 16477.00
264.8878, 16378.30
265.3699, 16265.02
265.8520, 16134.36
266.3341, 15994.11
266.8162, 15839.95
267.2983, 15667.80
267.7805, 15518.08
268.2626, 15397.35
268.7447, 15293.26
269.2268, 15181.69
269.7089, 15056.36
270.1910, 14946.61
270.6732, 14868.67
271.1553, 14827.54
271.6374, 14770.58
272.1195, 14691.32
272.6016, 14605.57
273.0837, 14542.90
273.5659, 14506.64
274.0480, 14474.68
274.5301, 14436.94
275.0122, 14393.10
275.4943, 14359.59
275.9764, 14339.69
276.4586, 14323.97
276.9407, 14293.17
277.4228, 14244.35
277.9049, 14209.30
278.3870, 14208.36
278.8691, 14239.36
279.3513, 14249.02
279.8334, 14232.14
280.3155, 14207.26
280.7976, 14202.23
281.2798, 14218.16
281.7619, 14228.90
282.2440, 14221.88
282.7261, 14199.83
283.2082, 14183.49
283.6903, 14173.35
284.1725, 14167.11
284.6546, 14163.32
285.1367, 14161.88
285.6188, 14158.83
286.1009, 14149.11
286.5830, 14136.29
287.0652, 14138.54
287.5473, 14157.79
288.0294, 14180.51
288.5115, 14191.93
288.9936, 14193.06
289.4757, 14191.89
289.9579, 14189.88
290.4400, 14187.82
290.9221, 14188.68
291.4042, 14192.75
291.8863, 14196.35
292.3684, 14193.75
292.8506, 14186.81
293.3327, 14183.03
293.8148, 14181.67
294.2969, 14186.64
294.7790, 14211.88
295.2611, 14257.55
295.7433, 14299.83
296.2254, 14314.19
296.7075, 14308.65
297.1896, 14305.73
297.6717, 14315.35
298.1538, 14327.97
298.6360, 14327.37
299.1181, 14314.52
299.6002, 14300.88
300.0823, 14290.18
300.5644, 14285.39
301.0465, 14292.78
301.5287, 14318.10
302.0108, 14351.04
302.4929, 14384.57
302.9750, 14417.59
303.4571, 14441.80
303.9392, 14440.88
304.4214, 14431.24
304.9035, 14437.82
305.3856, 14478.09
305.8677, 14517.18
306.3498, 14519.89
306.8319, 14494.02
307.3141, 14466.90
307.7962, 14445.36
308.2783, 14434.96
308.7604, 14443.51
309.2425, 14479.45
309.7246, 14519.18
310.2068, 14552.74
310.6889, 14579.04
311.1710, 14595.71
311.6531, 14598.47
312.1352, 14593.13
312.6173, 14580.81
313.0995, 14556.32
313.5816, 14541.07
314.0637, 14547.44
314.5458, 14569.87
315.0279, 14597.82
315.5100, 14648.01
315.9922, 14687.00
316.4743, 14688.41
316.9564, 14636.02
317.4385, 14600.92
317.9206, 14620.29
318.4027, 14667.88
318.8849, 14707.04
319.3670, 14730.28
319.8491, 14741.37
320.3312, 14735.70
320.8133, 14708.13
321.2954, 14693.81
321.7776, 14710.49
322.2597, 14739.40
322.7418, 14760.49
323.2239, 14763.64
323.7060, 14765.95
324.1881, 14768.81
324.6703, 14771.63
325.1524, 14783.91
325.6345, 14823.00
326.1166, 14862.84
326.5987, 14882.65
327.0808, 14858.00
327.5630, 14842.00
328.0451, 14844.86
328.5272, 14865.42
329.0093, 14878.38
329.4914, 14875.54
329.9735, 14872.27
330.4557, 14879.16
330.9378, 14904.71
331.4199, 14925.42
331.9020, 14937.22
332.3841, 14942.49
332.8662, 14954.61
333.3484, 14982.40
333.8305, 15003.46
334.3126, 14998.69
334.7947, 14947.55
335.2768, 14937.95
335.7589, 14992.01
336.2411, 15080.16
336.7232, 15127.33
337.2053, 15123.19
337.6874, 15107.11
338.1695, 15094.08
338.6516, 15083.51
339.1338, 15082.59
339.6159, 15092.50
340.0980, 15110.49
340.5801, 15133.88
341.0622, 15163.77
341.5443, 15191.34
342.0265, 15210.69
342.5086, 15223.25
342.9907, 15250.88
343.4728, 15299.29
343.9549, 15339.31
344.4370, 15318.22
344.9192, 15244.03
345.4013, 15193.53
345.8834, 15204.62
346.3655, 15256.19
346.8476, 15298.88
347.3297, 15332.82
347.8119, 15351.68
348.2940, 15332.56
348.7761, 15290.95
349.2582, 15274.34
349.7403, 15303.06
350.2225, 15355.38
350.7046, 15412.55
351.1867, 15472.07
351.6688, 15510.64
352.1509, 15495.38
352.6331, 15452.74
353.1152, 15420.79
353.5973, 15405.67
354.0794, 15407.61
354.5615, 15440.64
355.0436, 15493.87
355.5258, 15534.22
356.0079, 15531.11
356.4900, 15514.02
356.9721, 15510.23
357.4542, 15528.50
357.9363, 15544.58
358.4185, 15534.41
358.9006, 15513.98
359.3827, 15510.94
359.8648, 15552.57
360.3469, 15601.30
360.8290, 15640.89
361.3112, 15670.61
361.7933, 15686.13
362.2754, 15678.87
362.7575, 15659.66
363.2396, 15640.19
363.7217, 15598.90
364.2039, 15582.04
364.6860, 15620.61
365.1681, 15715.57
365.6502, 15772.51
366.1323, 15750.97
366.6144, 15706.64
367.0966, 15677.61
367.5787, 15667.55
368.0608, 15670.62
368.5429, 15696.99
369.0250, 15739.65
369.5071, 15761.29
369.9893, 15746.09
370.4714, 15728.28
370.9535, 15725.24
371.4356, 15746.71
371.9177, 15760.41
372.3998, 15762.43
372.8820, 15758.28
373.3641, 15758.73
373.8462, 15761.94
374.3283, 15774.68
374.8104, 15803.56
375.2925, 15851.23
375.7747, 15886.61
376.2568, 15908.94
376.7389, 15921.11
377.2210, 15923.64
377.7031, 15915.65
378.1852, 15910.95
378.6674, 15914.76
379.1495, 15925.18
379.6316, 15932.85
380.1137, 15937.01
380.5958, 15944.74
381.0779, 15969.09
381.5601, 16005.27
382.0422, 16027.50
382.5243, 16028.38
383.0064, 16015.38
383.4885, 15991.77
383.9706, 15960.38
384.4528, 15943.75
384.9349, 15972.33
385.4170, 16021.76
385.8991, 16048.70
386.3812, 16040.62
386.8633, 16030.38
387.3455, 16057.18
387.8276, 16105.68
388.3097, 16141.14
388.7918, 16130.76
389.2739, 16109.68
389.7560, 16106.31
390.2382, 16123.86
390.7203, 16146.51
391.2024, 16171.52
391.6845, 16194.87
392.1666, 16212.23
392.6487, 16210.55
393.1309, 16213.30
393.6130, 16236.57
394.0951, 16277.76
394.5772, 16305.13
395.0593, 16299.65
395.5414, 16284.79
396.0236, 16275.21
396.5057, 16273.65
396.9878, 16276.59
397.4699, 16288.20
397.9520, 16304.72
398.4341, 16313.97
398.9163, 16304.51
399.3984, 16299.74
399.8805, 16310.74
400.3626, 16348.26
400.8447, 16368.43
401.3268, 16361.44
401.8090, 16344.31
402.2911, 16340.57
402.7732, 16352.38
403.2553, 16372.97
403.7374, 16406.92
404.2195, 16452.26
404.7017, 16469.38
405.1838, 16451.33
405.6659, 16423.72
406.1480, 16404.95
406.6301, 16394.74
407.1122, 16404.30
407.5944, 16441.91
408.0765, 16494.11
408.5586, 16533.18
409.0407, 16559.28
409.5228, 16567.45
410.0049, 16536.41
410.4871, 16484.46
410.9692, 16465.52
411.4513, 16489.06
411.9334, 16529.64
412.4155, 16566.71
412.8976, 16598.84
413.3798, 16620.85
413.8619, 16623.05
414.3440, 16618.78
414.8261, 16621.29
415.3082, 16630.97
415.7903, 16644.09
416.2725, 16662.68
416.7546, 16681.75
417.2367, 16695.98
417.7188, 16701.35
418.2009, 16703.74
418.6830, 16707.02
419.1652, 16709.83
419.6473, 16707.00
420.1294, 16679.91
420.6115, 16659.17
421.0937, 16658.57
421.5758, 16640.33
422.0579, 16704.00
422.5400, 16747.19
423.0221, 16771.01
423.5042, 16717.41
423.9864, 16763.79
424.4685, 16770.09
424.9506, 16774.75
425.4327, 16835.19
425.9148, 16792.85
426.3969, 16852.41
426.8791, 16871.29
427.3612, 16908.79
427.8433, 16891.90
428.3254, 16899.68
428.8075, 16889.05
429.2896, 16869.53
429.7718, 16876.68
430.2539, 16914.80
430.7360, 16956.41
431.2181, 16989.83
431.7002, 17014.47
432.1823, 17015.59
432.6645, 16985.93
433.1466, 16954.43
433.6287, 16965.08
434.1108, 17011.03
434.5929, 17059.33
435.0750, 17103.96
435.5572, 17138.83
436.0393, 17148.21
436.5214, 17133.08
437.0035, 17114.01
437.4856, 17107.21
437.9677, 17106.60
438.4499, 17102.53
438.9320, 17086.37
439.4141, 17076.76
439.8962, 17092.94
440.3783, 17126.55
440.8604, 17156.54
441.3426, 17171.56
441.8247, 17181.49
442.3068, 17190.32
442.7889, 17197.30
443.2710, 17208.87
443.7531, 17232.95
444.2353, 17260.01
444.7174, 17279.92
445.1995, 17286.87
445.6816, 17291.09
446.1637, 17295.76
446.6458, 17300.22
447.1280, 17295.30
447.6101, 17264.69
448.0922, 17242.68
448.5743, 17251.50
449.0564, 17308.68
449.5385, 17349.59
450.0207, 17367.87
450.5028, 17373.38
450.9849, 17385.52
451.4670, 17406.56
451.9491, 17422.20
452.4312, 17425.90
452.9134, 17418.92
453.3955, 17408.52
453.8776, 17393.51
454.3597, 17383.71
454.8418, 17394.01
455.3239, 17419.29
455.8061, 17437.01
456.2882, 17438.83
456.7703, 17436.22
457.2524, 17444.39
457.7345, 17462.08
458.2166, 17484.59
458.6988, 17523.97
459.1809, 17559.07
459.6630, 17558.30
460.1451, 17512.69
460.6272, 17474.55
461.1093, 17485.46
461.5915, 17520.56
462.0736, 17548.84
462.5557, 17551.94
463.0378, 17554.42
463.5199, 17570.94
464.0020, 17598.06
464.4842, 17609.71
464.9663, 17570.71
465.4484, 17536.79
465.9305, 17539.36
466.4126, 17613.29
466.8947, 17664.38
467.3769, 17686.21
467.8590, 17688.00
468.3411, 17682.85
468.8232, 17663.92
469.3053, 17651.54
469.7874, 17650.19
470.2696, 17659.84
470.7517, 17684.67
471.2338, 17731.36
471.7159, 17772.54
472.1980, 17777.27
472.6801, 17746.62
473.1623, 17728.68
473.6444, 17730.73
474.1265, 17747.03
474.6086, 17777.14
475.0907, 17817.33
475.5728, 17843.40
476.0550, 17829.16
476.5371, 17797.27
477.0192, 17783.35
477.5013, 17788.53
477.9834, 17804.79
478.4655, 17834.63
478.9477, 17869.23
479.4298, 17896.91
479.9119, 17915.21
480.3940, 17924.97
480.8761, 17922.98
481.3582, 17912.22
481.8404, 17901.20
482.3225, 17886.46
482.8046, 17877.25
483.2867, 17878.06
483.7688, 17890.87
484.2509, 17908.21
484.7331, 17940.49
485.2152, 17971.22
485.6973, 17984.14
486.1794, 17963.25
486.6615, 17952.10
487.1436, 17958.62
487.6258, 17979.56
488.1079, 17999.91
488.5900, 18019.44
489.0721, 18038.71
489.5542, 18064.52
490.0363, 18097.32
490.5185, 18095.38
491.0006, 18050.17
491.4827, 17995.07
491.9648, 17972.46
492.4470, 17978.58
492.9291, 17994.70
493.4112, 18019.30
493.8933, 18046.01
494.3754, 18063.48
494.8575, 18073.03
495.3397, 18081.81
495.8218, 18096.55
496.3039, 18112.24
496.7860, 18121.46
497.2681, 18120.50
497.7502, 18124.18
498.2324, 18149.08
498.7145, 18180.98
499.1966, 18201.00
499.6787, 18184.62
500.1608, 18174.41
500.6429, 18189.20
501.1251, 18227.04
501.6072, 18253.01
502.0893, 18264.02
502.5714, 18263.57
503.0535, 18250.19
503.5356, 18208.75
504.0178, 18191.85
504.4999, 18208.17
504.9820, 18241.38
505.4641, 18270.41
505.9462, 18296.96
506.4283, 18308.76
506.9105, 18294.87
507.3926, 18265.08
507.8747, 18262.09
508.3568, 18287.23
508.8389, 18314.59
509.3210, 18319.96
509.8032, 18312.92
510.2853, 18323.25
510.7674, 18358.52
511.2495, 18394.71
511.7316, 18400.56
512.2137, 18389.52
512.6959, 18388.82
513.1780, 18433.97
513.6601, 18473.22
514.1422, 18453.10
514.6243, 18385.78
515.1064, 18355.40
515.5886, 18444.85
516.0707, 18546.54
516.5528, 18590.88
517.0349, 18536.05
517.5170, 18493.95
517.9991, 18476.61
518.4813, 18477.24
518.9634, 18489.86
519.4455, 18527.04
519.9276, 18554.20
520.4097, 18560.90
520.8918, 18550.86
521.3740, 18550.70
521.8561, 18563.88
522.3382, 18575.50
522.8203, 18569.90
523.3024, 18549.13
523.7845, 18549.46
524.2667, 18575.40
524.7488, 18613.27
525.2309, 18653.22
525.7130, 18692.90
526.1951, 18723.97
526.6772, 18748.31
527.1594, 18758.58
527.6415, 18737.43
528.1236, 18691.43
528.6057, 18648.72
529.0878, 18615.62
529.5699, 18598.80
530.0521, 18607.72
530.5342, 18649.21
531.0163, 18690.74
531.4984, 18728.14
531.9805, 18758.05
532.4626, 18777.13
532.9448, 18775.81
533.4269, 18774.07
533.9090, 18768.95
534.3911, 18764.45
534.8732, 18778.56
535.3553, 18823.64
535.8375, 18864.52
536.3196, 18883.57
536.8017, 18879.80
537.2838, 18883.93
537.7659, 18900.38
538.2480, 18910.27
538.7302, 18879.36
539.2123, 18816.48
539.6944, 18788.24
540.1765, 18819.33
540.6586, 18872.33
541.1407, 18901.17
541.6229, 18908.61
542.1050, 18905.38
542.5871, 18883.53
543.0692, 18862.52
543.5513, 18862.04
544.0334, 18883.02
544.5156, 18907.58
544.9977, 18931.31
545.4798, 18952.93
545.9619, 18971.01
546.4440, 18982.81
546.9261, 18994.78
547.4083, 19015.68
547.8904, 19035.64
548.3725, 19034.55
548.8546, 18988.90
549.3367, 18961.23
549.8188, 18971.30
550.3010, 19015.57
550.7831, 19055.69
551.2652, 19094.62
551.7473, 19119.56
552.2294, 19114.25
552.7115, 19082.27
553.1937, 19057.38
553.6758, 19041.01
554.1579, 19036.82
554.6400, 19061.66
555.1221, 19103.70
555.6042, 19127.22
556.0864, 19097.78
556.5685, 19066.68
557.0506, 19095.92
557.5327, 19169.15
558.0148, 19225.16
558.4969, 19222.51
558.9791, 19202.17
559.4612, 19186.03
559.9433, 19175.68
560.4254, 19173.74
560.9075, 19188.53
561.3896, 19207.61
561.8718, 19219.08
562.3539, 19207.30
562.8360, 19217.00
563.3181, 19267.04
563.8002, 19332.98
564.2823, 19348.30
564.7645, 19299.09
565.2466, 19261.55
565.7287, 19271.99
566.2108, 19319.29
566.6929, 19351.01
567.1750, 19366.70
567.6572, 19371.08
568.1393, 19360.61
568.6214, 19342.70
569.1035, 19333.30
569.5856, 19336.30
570.0677, 19341.82
570.5499, 19340.28
571.0320, 19336.10
571.5141, 19336.28
571.9962, 19349.52
572.4783, 19361.45
572.9604, 19362.74
573.4426, 19356.33
573.9247, 19357.61
574.4068, 19378.68
574.8889, 19399.08
575.3710, 19410.38
575.8531, 19410.37
576.3353, 19412.67
576.8174, 19419.04
577.2995, 19425.12
577.7816, 19423.41
578.2637, 19411.97
578.7458, 19416.03
579.2280, 19443.80
579.7101, 19480.20
580.1922, 19498.58
580.6743, 19501.09
581.1564, 19499.88
581.6385, 19492.95
582.1207, 19489.54
582.6028, 19510.14
583.0849, 19550.54
583.5670, 19579.13
584.0491, 19555.20
584.5313, 19526.07
585.0134, 19535.71
585.4955, 19609.90
585.9776, 19659.52
586.4597, 19631.56
586.9418, 19579.96
587.4240, 19566.95
587.9061, 19623.46
588.3882, 19673.55
588.8703, 19713.83
589.3524, 19741.25
589.8345, 19741.80
590.3167, 19707.49
590.7988, 19676.97
591.2809, 19669.84
591.7630, 19680.94
592.2451, 19681.34
592.7272, 19670.37
593.2094, 19665.55
593.6915, 19691.73
594.1736, 19732.37
594.6557, 19754.08
595.1378, 19747.83
595.6199, 19736.48
596.1021, 19736.02
596.5842, 19741.50
597.0663, 19745.90
597.5485, 19732.25
598.0306, 19732.54
598.5127, 19771.64
598.9948, 19837.15
599.4769, 19875.30
599.9590, 19868.88
600.4412, 19852.11
600.9233, 19828.21
601.4054, 19794.25
601.8875, 19803.46
602.3696, 19871.35
602.8517, 19944.24
603.3339, 19975.86
603.8160, 19968.84
604.2981, 19944.15
604.7802, 19897.22
605.2623, 19858.34
605.7444, 19878.81
606.2266, 19940.10
606.7087, 19991.29
607.1908, 20008.51
607.6729, 20014.80
608.1550, 20031.12
608.6371, 20052.28
609.1193, 20062.03
609.6014, 20038.35
610.0835, 20014.92
610.5656, 20007.54
611.0477, 20018.37
611.5298, 20037.48
612.0120, 20080.60
612.4941, 20115.60
612.9762, 20116.38
613.4583, 20068.30
613.9404, 20040.01
614.4225, 20038.04
614.9047, 20049.97
615.3868, 20059.79
615.8689, 20067.69
616.3510, 20074.83
616.8331, 20081.03
617.3152, 20087.36
617.7974, 20090.02
618.2795, 20092.77
618.7616, 20110.02
619.2437, 20178.20
619.7258, 20242.58
620.2079, 20256.51
620.6901, 20217.81
621.1722, 20177.43
621.6543, 20139.37
622.1364, 20114.88
622.6185, 20113.69
623.1006, 20148.56
623.5828, 20179.08
624.0649, 20206.62
624.5470, 20228.55
625.0291, 20240.15
625.5112, 20239.32
625.9933, 20238.67
626.4755, 20238.53
626.9576, 20242.41
627.4397, 20263.76
627.9218, 20299.50
628.4039, 20326.11
628.8860, 20332.36
629.3682, 20322.61
629.8503, 20291.01
630.3324, 20242.32
630.8145, 20212.43
631.2966, 20241.45
631.7787, 20283.67
632.2609, 20305.26
632.7430, 20295.59
633.2251, 20290.25
633.7072, 20310.30
634.1893, 20328.49
634.6714, 20318.05
635.1536, 20247.57
635.6357, 20220.65
636.1178, 20257.43
636.5999, 20327.87
637.0820, 20382.92
637.5641, 20422.36
638.0463, 20441.12
638.5284, 20424.74
639.0105, 20398.10
639.4926, 20423.00
639.9747, 20489.58
640.4568, 20539.94
640.9390, 20519.96
641.4211, 20480.53
641.9032, 20474.28
642.3853, 20504.87
642.8674, 20523.20
643.3495, 20491.16
643.8317, 20452.41
644.3138, 20437.49
644.7959, 20463.63
645.2780, 20487.96
645.7601, 20509.86
646.2422, 20530.41
646.7244, 20554.97
647.2065, 20588.24
647.6886, 20596.93
648.1707, 20566.71
648.6528, 20520.93
649.1349, 20505.66
649.6171, 20518.24
650.0992, 20538.97
650.5813, 20570.97
651.0634, 20598.45
651.5455, 20595.10
652.0276, 20566.51
652.5098, 20542.93
652.9919, 20538.75
653.4740, 20545.94
