##NAMES=Shuiskite-(Mg)
##RRUFFID=R070109
##IDEAL CHEMISTRY=Ca_2_MgCr^3+^_2_(SiO_4_)(Si_2_O_7_)(OH)_2_&#183;H_2_O
##LOCALITY=Sarnay, Ural, Russia
##OWNER=RRUFF
##SOURCE=Bob Jenkins
##DESCRIPTION=Aggregates of brownish-gray fibrous prismatic crystals associated with uvarovite
##STATUS=The identification of this mineral has been confirmed only by single crystal X-ray diffraction.
##URL=rruff.info/R070109
188.8064, 11763.87
189.2885, 11781.69
189.7706, 11833.36
190.2527, 11881.27
190.7348, 11915.03
191.2169, 11936.67
191.6991, 11947.75
192.1812, 11946.38
192.6633, 11939.02
193.1454, 11946.29
193.6275, 11968.13
194.1096, 12000.03
194.5918, 12053.34
195.0739, 12115.11
195.5560, 12156.77
196.0381, 12162.93
196.5202, 12149.66
197.0023, 12154.01
197.4845, 12173.38
197.9666, 12208.41
198.4487, 12277.97
198.9308, 12361.66
199.4129, 12414.92
199.8950, 12416.80
200.3771, 12397.29
200.8593, 12418.50
201.3414, 12489.43
201.8235, 12553.71
202.3056, 12588.68
202.7877, 12608.01
203.2698, 12635.82
203.7520, 12680.70
204.2341, 12730.56
204.7162, 12763.66
205.1983, 12776.98
205.6804, 12799.49
206.1625, 12844.83
206.6447, 12901.74
207.1268, 12952.94
207.6089, 12993.86
208.0910, 13032.87
208.5731, 13084.38
209.0552, 13149.63
209.5374, 13201.42
210.0195, 13223.47
210.5016, 13233.08
210.9837, 13252.83
211.4658, 13287.06
211.9479, 13324.78
212.4301, 13355.67
212.9122, 13380.07
213.3943, 13399.67
213.8764, 13409.46
214.3585, 13417.42
214.8406, 13436.01
215.3228, 13467.14
215.8049, 13492.84
216.2870, 13492.11
216.7691, 13469.18
217.2512, 13460.45
217.7333, 13475.21
218.2155, 13501.76
218.6976, 13530.71
219.1797, 13561.45
219.6618, 13597.00
220.1439, 13645.71
220.6260, 13700.96
221.1082, 13733.80
221.5903, 13715.56
222.0724, 13696.58
222.5545, 13720.21
223.0366, 13781.69
223.5187, 13837.63
224.0009, 13860.87
224.4830, 13861.01
224.9651, 13874.70
225.4472, 13913.90
225.9293, 13952.12
226.4114, 13973.31
226.8936, 13980.37
227.3757, 13985.08
227.8578, 13994.19
228.3399, 14002.51
228.8220, 13997.14
229.3041, 13969.86
229.7863, 13946.83
230.2684, 13938.22
230.7505, 13942.42
231.2326, 13958.82
231.7147, 13992.36
232.1968, 14028.29
232.6790, 14038.45
233.1611, 14021.77
233.6432, 13995.00
234.1253, 13952.70
234.6074, 13905.74
235.0895, 13872.07
235.5717, 13855.83
236.0538, 13855.33
236.5359, 13877.70
237.0180, 13927.75
237.5001, 13955.50
237.9822, 13933.13
238.4644, 13891.06
238.9465, 13867.74
239.4286, 13870.25
239.9107, 13879.18
240.3928, 13876.18
240.8749, 13860.54
241.3571, 13838.12
241.8392, 13803.23
242.3213, 13765.70
242.8034, 13734.50
243.2855, 13710.01
243.7676, 13685.20
244.2497, 13649.67
244.7319, 13606.37
245.2140, 13591.79
245.6961, 13641.22
246.1782, 13687.58
246.6603, 13686.89
247.1424, 13645.65
247.6246, 13597.98
248.1067, 13561.97
248.5888, 13537.26
249.0709, 13519.50
249.5530, 13508.94
250.0351, 13503.68
250.5173, 13511.81
250.9994, 13524.65
251.4815, 13520.70
251.9636, 13487.45
252.4457, 13438.24
252.9278, 13411.73
253.4100, 13423.02
253.8921, 13429.03
254.3742, 13418.91
254.8563, 13400.13
255.3384, 13379.10
255.8205, 13357.51
256.3027, 13343.00
256.7848, 13350.21
257.2669, 13398.20
257.7490, 13425.99
258.2311, 13409.65
258.7133, 13385.64
259.1954, 13389.68
259.6775, 13426.07
260.1596, 13469.60
260.6417, 13491.47
261.1238, 13484.46
261.6060, 13487.49
262.0880, 13500.94
262.5702, 13522.77
263.0523, 13563.45
263.5344, 13614.89
264.0165, 13649.20
264.4986, 13641.43
264.9807, 13591.39
265.4629, 13558.40
265.9450, 13547.96
266.4271, 13546.03
266.9092, 13553.46
267.3913, 13565.84
267.8734, 13575.66
268.3556, 13578.36
268.8377, 13576.28
269.3198, 13579.36
269.8019, 13581.02
270.2840, 13596.84
270.7661, 13640.28
271.2483, 13693.56
271.7304, 13740.40
272.2125, 13774.35
272.6946, 13794.30
273.1767, 13797.11
273.6588, 13770.79
274.1410, 13747.77
274.6231, 13715.25
275.1052, 13694.97
275.5873, 13712.88
276.0694, 13766.94
276.5515, 13823.20
277.0337, 13839.58
277.5158, 13805.58
277.9979, 13779.74
278.4800, 13777.59
278.9621, 13769.22
279.4442, 13730.76
279.9264, 13673.75
280.4085, 13632.21
280.8906, 13638.34
281.3727, 13685.86
281.8548, 13699.57
282.3369, 13643.57
282.8191, 13597.67
283.3012, 13590.83
283.7833, 13605.46
284.2654, 13614.91
284.7475, 13604.77
285.2296, 13585.74
285.7118, 13585.43
286.1939, 13614.34
286.6760, 13636.95
287.1581, 13639.94
287.6402, 13636.15
288.1223, 13635.11
288.6045, 13639.29
289.0866, 13647.19
289.5687, 13660.09
290.0508, 13679.33
290.5329, 13688.69
291.0150, 13672.77
291.4972, 13657.32
291.9793, 13660.05
292.4614, 13680.27
292.9435, 13705.17
293.4256, 13734.02
293.9077, 13762.31
294.3899, 13765.23
294.8720, 13729.14
295.3541, 13690.02
295.8362, 13669.65
296.3183, 13664.30
296.8004, 13667.46
297.2826, 13680.25
297.7647, 13698.20
298.2468, 13718.39
298.7289, 13742.33
299.2110, 13754.62
299.6931, 13734.21
300.1753, 13701.57
300.6574, 13694.66
301.1395, 13728.93
301.6216, 13768.23
302.1037, 13784.46
302.5858, 13782.71
303.0680, 13784.60
303.5501, 13795.80
304.0322, 13816.60
304.5143, 13854.26
304.9964, 13915.30
305.4785, 13955.08
305.9607, 13942.18
306.4428, 13904.95
306.9249, 13882.72
307.4070, 13882.97
307.8891, 13896.66
308.3712, 13918.32
308.8534, 13949.25
309.3355, 13970.42
309.8176, 13970.11
310.2997, 13969.10
310.7818, 13988.08
311.2639, 14022.02
311.7461, 14044.05
312.2282, 14033.82
312.7103, 13997.70
313.1924, 13980.97
313.6745, 13985.65
314.1566, 14003.39
314.6388, 14046.87
315.1209, 14098.22
315.6030, 14128.08
316.0851, 14124.93
316.5672, 14107.97
317.0493, 14115.97
317.5315, 14180.58
318.0136, 14214.71
318.4957, 14195.91
318.9778, 14165.25
319.4599, 14151.18
319.9420, 14156.80
320.4242, 14168.48
320.9063, 14172.79
321.3884, 14169.06
321.8705, 14164.75
322.3526, 14148.57
322.8347, 14143.47
323.3169, 14171.87
323.7990, 14214.56
324.2811, 14235.58
324.7632, 14211.03
325.2453, 14157.40
325.7274, 14129.13
326.2096, 14141.80
326.6917, 14149.34
327.1738, 14138.11
327.6559, 14120.08
328.1380, 14104.75
328.6201, 14094.67
329.1023, 14087.69
329.5844, 14077.53
330.0665, 14063.00
330.5486, 14068.02
331.0307, 14115.37
331.5128, 14162.70
331.9950, 14179.60
332.4771, 14170.85
332.9592, 14160.32
333.4413, 14159.49
333.9234, 14166.78
334.4055, 14181.53
334.8877, 14207.15
335.3698, 14226.72
335.8519, 14217.84
336.3340, 14197.84
336.8161, 14199.55
337.2982, 14242.28
337.7804, 14288.91
338.2625, 14308.38
338.7446, 14304.84
339.2267, 14297.11
339.7088, 14287.57
340.1909, 14283.74
340.6731, 14304.13
341.1552, 14355.34
341.6373, 14395.30
342.1194, 14400.11
342.6015, 14393.54
343.0836, 14403.25
343.5658, 14433.98
344.0479, 14480.19
344.5300, 14541.98
345.0121, 14621.22
345.4942, 14674.91
345.9763, 14681.98
346.4584, 14686.17
346.9406, 14705.97
347.4227, 14739.08
347.9048, 14778.82
348.3869, 14822.53
348.8690, 14867.33
349.3511, 14904.13
349.8333, 14925.51
350.3154, 14948.20
350.7975, 14971.01
351.2796, 14996.48
351.7617, 15034.34
352.2438, 15082.66
352.7260, 15120.29
353.2081, 15115.87
353.6902, 15057.92
354.1723, 15027.01
354.6544, 15049.88
355.1365, 15076.51
355.6187, 15100.00
356.1008, 15114.58
356.5829, 15110.32
357.0650, 15077.51
357.5471, 15027.71
358.0292, 14983.73
358.5114, 14933.83
358.9935, 14924.42
359.4756, 15029.61
359.9577, 15150.02
360.4398, 15200.97
360.9219, 15165.69
361.4041, 15086.51
361.8862, 14969.96
362.3683, 14830.07
362.8504, 14752.22
363.3325, 14771.59
363.8146, 14814.61
364.2968, 14807.93
364.7789, 14765.40
365.2610, 14745.01
365.7431, 14780.91
366.2252, 14834.29
366.7073, 14866.50
367.1895, 14878.01
367.6716, 14886.66
368.1537, 14904.77
368.6358, 14924.81
369.1179, 14920.89
369.6000, 14874.98
370.0822, 14838.84
370.5643, 14826.41
371.0464, 14831.99
371.5285, 14857.55
372.0106, 14901.65
372.4927, 14937.92
372.9749, 14931.10
373.4570, 14867.41
373.9391, 14819.78
374.4212, 14805.79
374.9033, 14788.57
375.3854, 14740.42
375.8676, 14675.79
376.3497, 14630.92
376.8318, 14629.77
377.3139, 14656.85
377.7960, 14657.34
378.2781, 14613.22
378.7603, 14573.03
379.2424, 14537.28
379.7245, 14511.25
380.2066, 14503.70
380.6887, 14514.21
381.1708, 14526.64
381.6530, 14527.01
382.1351, 14515.32
382.6172, 14490.74
383.0993, 14447.04
383.5814, 14398.73
384.0635, 14343.07
384.5457, 14289.72
385.0278, 14260.38
385.5099, 14274.58
385.9920, 14303.37
386.4741, 14312.91
386.9562, 14303.54
387.4384, 14284.38
387.9205, 14254.01
388.4026, 14220.01
388.8847, 14193.97
389.3668, 14175.87
389.8489, 14163.12
390.3311, 14159.36
390.8132, 14158.26
391.2953, 14150.85
391.7774, 14136.10
392.2595, 14119.31
392.7416, 14103.24
393.2238, 14088.15
393.7059, 14085.18
394.1880, 14114.64
394.6701, 14131.66
395.1522, 14106.99
395.6343, 14064.19
396.1165, 14042.94
396.5986, 14058.50
397.0807, 14090.05
397.5628, 14100.53
398.0449, 14081.63
398.5270, 14060.46
399.0092, 14019.74
399.4913, 13992.27
399.9734, 14010.13
400.4555, 14058.42
400.9376, 14092.14
401.4197, 14076.01
401.9019, 14023.60
402.3840, 13982.71
402.8661, 13951.05
403.3482, 13937.42
403.8303, 13960.95
404.3124, 13995.23
404.7946, 14015.31
405.2767, 14015.65
405.7588, 14013.39
406.2409, 14026.67
406.7230, 14049.26
407.2051, 14052.51
407.6873, 14023.85
408.1694, 14000.85
408.6515, 14026.94
409.1336, 14090.79
409.6157, 14134.94
410.0978, 14146.56
410.5800, 14141.28
411.0621, 14120.08
411.5442, 14089.69
412.0263, 14066.70
412.5084, 14057.70
412.9905, 14062.96
413.4727, 14084.56
413.9548, 14139.85
414.4369, 14178.45
414.9190, 14182.14
415.4011, 14182.95
415.8832, 14209.03
416.3654, 14255.63
416.8475, 14294.55
417.3296, 14302.32
417.8117, 14284.98
418.2938, 14287.40
418.7759, 14327.90
419.2581, 14359.94
419.7402, 14369.51
420.2223, 14370.42
420.7044, 14375.48
421.1865, 14387.72
421.6686, 14401.97
422.1508, 14413.77
422.6329, 14423.15
423.1150, 14430.28
423.5971, 14434.59
424.0792, 14437.63
424.5613, 14448.22
425.0435, 14458.40
425.5256, 14446.63
426.0077, 14381.97
426.4898, 14322.06
426.9719, 14331.82
427.4540, 14392.28
427.9361, 14422.85
428.4182, 14390.93
428.9004, 14330.21
429.3825, 14291.80
429.8646, 14280.87
430.3467, 14272.81
430.8288, 14280.45
431.3109, 14278.85
431.7931, 14241.08
432.2752, 14176.31
432.7573, 14116.21
433.2394, 14080.30
433.7215, 14066.59
434.2036, 14069.08
434.6858, 14110.12
435.1679, 14131.18
435.6500, 14115.02
436.1321, 14087.15
436.6142, 14064.91
437.0963, 14051.51
437.5785, 14042.94
438.0606, 14035.08
438.5427, 14028.62
439.0248, 14031.28
439.5069, 14050.59
439.9890, 14062.41
440.4712, 14047.38
440.9533, 14020.31
441.4354, 13998.57
441.9175, 13984.30
442.3996, 13978.74
442.8817, 13983.67
443.3639, 13998.08
443.8460, 14024.86
444.3281, 14068.11
444.8102, 14102.14
445.2923, 14098.12
445.7744, 14052.44
446.2566, 14013.96
446.7387, 13988.98
447.2208, 13964.88
447.7029, 13929.71
448.1850, 13892.28
448.6671, 13869.93
449.1493, 13869.87
449.6314, 13883.67
450.1135, 13896.44
450.5956, 13905.84
451.0777, 13920.38
451.5598, 13952.18
452.0420, 13977.35
452.5241, 13983.56
453.0062, 13974.15
453.4883, 13958.15
453.9704, 13939.20
454.4525, 13918.88
454.9347, 13899.26
455.4168, 13879.87
455.8989, 13866.11
456.3810, 13866.95
456.8631, 13867.07
457.3452, 13846.13
457.8274, 13804.29
458.3095, 13772.57
458.7916, 13764.31
459.2737, 13771.91
459.7558, 13790.82
460.2379, 13819.01
460.7201, 13845.93
461.2022, 13867.00
461.6843, 13880.63
462.1664, 13880.11
462.6485, 13848.08
463.1306, 13828.57
463.6128, 13836.73
464.0949, 13851.17
464.5770, 13849.42
465.0591, 13832.89
465.5412, 13822.86
466.0233, 13838.69
466.5055, 13876.67
466.9876, 13908.52
467.4697, 13934.32
467.9518, 13953.09
468.4339, 13961.96
468.9160, 13966.12
469.3982, 13969.80
469.8803, 13973.86
470.3624, 13978.05
470.8445, 13980.86
471.3266, 13983.64
471.8087, 13992.03
472.2909, 14007.94
472.7730, 14022.45
473.2551, 14030.32
473.7372, 14031.84
474.2193, 14029.13
474.7014, 14010.79
475.1836, 14004.96
475.6657, 14036.34
476.1478, 14080.99
476.6299, 14099.15
477.1120, 14085.09
477.5941, 14073.94
478.0763, 14105.40
478.5584, 14182.33
479.0405, 14230.56
479.5226, 14213.02
480.0047, 14208.82
480.4868, 14239.61
480.9690, 14289.35
481.4511, 14343.10
481.9332, 14396.04
482.4153, 14439.38
482.8974, 14455.05
483.3795, 14445.93
483.8617, 14463.38
484.3438, 14528.48
484.8259, 14584.23
485.3080, 14568.36
485.7901, 14520.33
486.2722, 14516.27
486.7544, 14589.35
487.2365, 14674.40
487.7186, 14736.31
488.2007, 14779.58
488.6828, 14811.16
489.1649, 14832.63
489.6471, 14848.55
490.1292, 14862.11
490.6113, 14872.30
491.0934, 14893.89
491.5755, 14939.17
492.0576, 14980.04
492.5398, 15014.11
493.0219, 15036.80
493.5040, 15041.38
493.9861, 15026.24
494.4682, 14999.24
494.9503, 14966.84
495.4325, 14928.21
495.9146, 14899.33
496.3967, 14889.95
496.8788, 14875.26
497.3609, 14831.51
497.8430, 14776.94
498.3252, 14743.72
498.8073, 14747.04
499.2894, 14754.47
499.7715, 14740.65
500.2536, 14712.96
500.7357, 14685.74
501.2179, 14661.16
501.7000, 14650.45
502.1821, 14671.28
502.6642, 14723.99
503.1463, 14737.13
503.6284, 14665.39
504.1106, 14613.44
504.5927, 14630.94
505.0748, 14674.55
505.5569, 14686.33
506.0390, 14653.64
506.5211, 14615.41
507.0033, 14617.93
507.4854, 14661.33
507.9675, 14705.23
508.4496, 14756.98
508.9317, 14796.54
509.4138, 14805.69
509.8959, 14802.59
510.3781, 14813.81
510.8602, 14850.09
511.3423, 14875.24
511.8244, 14843.28
512.3065, 14786.68
512.7886, 14781.02
513.2708, 14837.35
513.7529, 14902.41
514.2350, 14938.95
514.7171, 14948.89
515.1992, 14946.03
515.6813, 14912.67
516.1635, 14890.97
516.6456, 14894.41
517.1277, 14908.67
517.6098, 14920.87
518.0919, 14928.89
518.5740, 14937.72
519.0562, 14954.16
519.5383, 14974.92
520.0204, 14975.69
520.5025, 14941.14
520.9846, 14923.87
521.4667, 14965.54
521.9489, 15019.00
522.4310, 15041.37
522.9131, 15028.25
523.3952, 15005.29
523.8773, 14969.42
524.3594, 14939.48
524.8416, 14950.12
525.3237, 14998.55
525.8058, 15043.44
526.2879, 15063.05
526.7700, 15063.59
527.2521, 15060.99
527.7343, 15042.92
528.2164, 15043.08
528.6985, 15090.05
529.1806, 15130.30
529.6627, 15120.80
530.1448, 15073.96
530.6270, 15032.25
531.1091, 15021.55
531.5912, 15027.15
532.0733, 15013.34
532.5554, 14975.21
533.0375, 14956.86
533.5197, 14978.24
534.0018, 15009.07
534.4839, 15026.16
534.9660, 15030.38
535.4481, 15024.58
535.9302, 15000.82
536.4124, 14975.20
536.8945, 14961.02
537.3766, 14954.39
537.8587, 14949.00
538.3408, 14942.94
538.8229, 14926.45
539.3051, 14881.45
539.7872, 14797.20
540.2693, 14751.43
540.7514, 14785.68
541.2335, 14811.20
541.7156, 14804.82
542.1978, 14775.69
542.6799, 14733.10
543.1620, 14680.01
543.6441, 14628.02
544.1262, 14587.80
544.6083, 14558.33
545.0905, 14540.32
545.5726, 14538.26
546.0547, 14526.46
546.5368, 14479.84
547.0189, 14414.95
547.5010, 14383.49
547.9832, 14412.11
548.4653, 14420.10
548.9474, 14360.77
549.4295, 14287.07
549.9116, 14254.08
550.3937, 14261.69
550.8759, 14278.95
551.3580, 14286.38
551.8401, 14282.08
552.3222, 14253.94
552.8043, 14181.61
553.2864, 14136.46
553.7686, 14166.26
554.2507, 14197.69
554.7328, 14177.89
555.2149, 14117.37
555.6970, 14070.71
556.1791, 14075.37
556.6613, 14093.04
557.1434, 14075.49
557.6255, 14032.71
558.1076, 14005.26
558.5897, 14005.83
559.0718, 14026.21
559.5540, 14062.04
560.0361, 14120.17
560.5182, 14143.30
561.0003, 14115.09
561.4824, 14076.29
561.9645, 14021.57
562.4467, 13971.65
562.9288, 13955.49
563.4109, 13979.00
563.8930, 14015.95
564.3751, 14043.05
564.8572, 14060.56
565.3394, 14066.66
565.8215, 14056.74
566.3036, 14053.27
566.7857, 14075.27
567.2678, 14106.01
567.7499, 14111.11
568.2321, 14080.32
568.7142, 14061.54
569.1963, 14087.20
569.6784, 14116.47
570.1605, 14101.55
570.6426, 14054.50
571.1248, 14028.02
571.6069, 14052.77
572.0890, 14102.86
572.5711, 14117.21
573.0532, 14079.36
573.5353, 14060.32
574.0175, 14082.07
574.4996, 14104.38
574.9817, 14108.13
575.4638, 14098.16
575.9459, 14083.28
576.4280, 14058.23
576.9102, 14047.32
577.3923, 14089.56
577.8744, 14158.12
578.3565, 14184.04
578.8386, 14155.15
579.3207, 14116.79
579.8029, 14105.57
580.2850, 14117.98
580.7671, 14125.98
581.2492, 14127.13
581.7313, 14126.75
582.2134, 14129.06
582.6956, 14127.03
583.1777, 14108.88
583.6598, 14079.45
584.1419, 14060.47
584.6240, 14072.68
585.1061, 14096.00
585.5883, 14085.36
586.0704, 14042.12
586.5525, 14020.91
587.0346, 14042.68
587.5167, 14078.75
587.9988, 14100.02
588.4810, 14105.62
588.9631, 14106.22
589.4452, 14076.25
589.9273, 14070.46
590.4094, 14137.44
590.8915, 14228.80
591.3737, 14275.87
591.8558, 14266.74
592.3379, 14248.47
592.8200, 14271.50
593.3021, 14327.05
593.7842, 14351.59
594.2664, 14330.02
594.7485, 14327.33
595.2306, 14383.13
595.7127, 14455.95
596.1948, 14493.84
596.6769, 14494.79
597.1591, 14502.60
597.6412, 14537.72
598.1233, 14577.36
598.6054, 14602.74
599.0875, 14618.36
599.5696, 14639.03
600.0518, 14669.92
600.5339, 14698.55
601.0160, 14705.45
601.4981, 14687.90
601.9802, 14678.26
602.4623, 14693.47
602.9445, 14690.35
603.4266, 14638.60
603.9087, 14569.77
604.3908, 14525.04
604.8729, 14512.62
605.3550, 14488.33
605.8372, 14417.96
606.3193, 14328.05
606.8014, 14237.16
607.2835, 14155.12
607.7656, 14131.49
608.2477, 14198.73
608.7299, 14286.37
609.2120, 14256.69
609.6941, 14059.78
610.1762, 13908.03
610.6583, 13823.58
611.1404, 13760.61
611.6226, 13711.68
612.1047, 13672.22
612.5868, 13637.34
613.0689, 13605.55
613.5510, 13578.47
614.0331, 13559.03
614.5153, 13544.63
614.9974, 13530.44
615.4795, 13516.06
615.9616, 13502.71
616.4437, 13492.74
616.9258, 13481.10
617.4080, 13454.72
617.8901, 13396.28
618.3722, 13361.79
618.8543, 13369.57
619.3364, 13380.40
619.8185, 13373.96
620.3007, 13358.13
620.7828, 13348.48
621.2649, 13351.00
621.7470, 13357.14
622.2291, 13359.27
622.7112, 13357.88
623.1934, 13353.32
623.6755, 13345.26
624.1576, 13339.89
624.6397, 13341.48
625.1218, 13347.53
625.6039, 13351.74
626.0861, 13354.08
626.5682, 13354.42
627.0503, 13347.80
627.5324, 13343.93
628.0145, 13352.34
628.4966, 13366.78
628.9788, 13375.20
629.4609, 13372.71
629.9430, 13363.42
630.4251, 13348.88
630.9072, 13331.09
631.3893, 13320.78
631.8715, 13319.84
632.3535, 13320.16
632.8356, 13318.25
633.3177, 13313.57
633.7999, 13305.24
634.2820, 13298.12
634.7641, 13276.94
635.2462, 13208.47
635.7283, 13156.01
636.2104, 13179.95
636.6926, 13245.76
637.1747, 13279.71
637.6568, 13250.97
638.1389, 13195.15
638.6210, 13145.03
639.1031, 13103.67
639.5853, 13097.43
640.0674, 13135.48
640.5495, 13165.25
641.0316, 13153.26
641.5137, 13116.35
641.9958, 13096.57
642.4780, 13100.44
642.9601, 13103.12
643.4422, 13107.60
643.9243, 13105.71
644.4064, 13081.33
644.8885, 13049.58
645.3707, 13043.67
645.8528, 13076.52
646.3349, 13112.63
646.8170, 13103.61
647.2991, 13059.44
647.7813, 13036.41
648.2634, 13041.55
648.7455, 13036.65
649.2276, 12993.35
649.7097, 12936.71
650.1918, 12920.58
650.6740, 12961.56
651.1561, 12991.27
651.6382, 13001.16
652.1203, 13004.10
652.6024, 13009.43
653.0845, 13011.48
653.5667, 12995.37
654.0488, 12957.46
654.5309, 12922.54
655.0130, 12927.45
655.4951, 12957.24
655.9772, 12946.25
656.4594, 12888.02
656.9415, 12857.03
657.4236, 12896.58
657.9057, 12962.21
658.3878, 12979.35
658.8699, 12930.47
659.3521, 12897.89
659.8342, 12879.99
660.3163, 12879.70
660.7984, 12908.58
661.2805, 12950.87
661.7626, 12993.33
662.2448, 13030.08
662.7269, 13046.64
663.2090, 13015.22
663.6911, 12959.19
664.1732, 12931.28
664.6553, 12931.11
665.1375, 12947.18
665.6196, 12980.81
666.1017, 13011.81
666.5838, 13011.37
667.0659, 12974.22
667.5480, 12956.10
668.0302, 12959.58
668.5123, 12977.33
668.9944, 13026.05
669.4765, 13076.46
669.9586, 13097.57
670.4407, 13088.97
670.9229, 13076.47
671.4050, 13075.22
671.8871, 13079.71
672.3692, 13080.21
672.8513, 13079.00
673.3334, 13086.46
673.8156, 13105.33
674.2977, 13132.22
674.7798, 13166.08
675.2619, 13205.46
675.7440, 13233.28
676.2261, 13242.91
676.7083, 13250.98
677.1904, 13257.81
677.6725, 13265.05
678.1546, 13273.96
678.6367, 13284.28
679.1188, 13293.62
679.6010, 13294.81
680.0831, 13306.17
680.5652, 13350.26
681.0473, 13414.05
681.5294, 13473.45
682.0115, 13524.14
682.4937, 13568.27
682.9758, 13606.61
683.4579, 13640.48
683.9400, 13672.39
684.4221, 13698.21
684.9042, 13734.23
685.3864, 13790.08
