##NAMES=Siderite
##RRUFFID=R050262
##IDEAL CHEMISTRY=Fe^2+^CO_3_
##LOCALITY=Panasqueira mine, Barroca Grande, Beira Baixa, Portugal
##OWNER=RRUFF
##SOURCE=Marcus Origlieri
##DESCRIPTION=Group of yellowish brown flattened twinned crystals
##STATUS=The identification of this mineral has been confirmed by X-ray diffraction and chemical analysis
##URL=rruff.info/R050262
##MEASURED CHEMISTRY=(Fe_0.71_Mg_0.24_Mn_0.05_)_Σ=1_CO_3_ ; light :  (Fe_0.60_Mg_0.36_Mn_0.04_)_Σ=1_CO_3_ ; intermediate : (Fe_0.54_Mg_0.42_Mn_0.04_)_Σ=1_CO_3_ ; darker :  (Mg_0.54_Fe_0.42_Mn_0.04_)_Σ=1_CO_3_ darkest = magnesite
92.19073, 0.0000000E+00
92.67285, 122.1509
93.15497, 123.0839
93.63708, 123.0557
94.11920, 123.1772
94.60132, 124.2570
95.08344, 126.4184
95.56555, 127.1775
96.04767, 126.5781
96.52979, 125.5381
97.01190, 124.3133
97.49402, 123.4714
97.97614, 123.4557
98.45825, 123.0319
98.94037, 122.0739
99.42249, 120.4894
99.90460, 118.0898
100.3867, 114.7155
100.8688, 111.5816
101.3510, 110.5581
101.8331, 112.2423
102.3152, 114.1147
102.7973, 114.1990
103.2794, 112.4092
103.7615, 110.6721
104.2437, 109.6575
104.7258, 109.1455
105.2079, 109.1486
105.6900, 109.8021
106.1721, 110.7396
106.6542, 111.1243
107.1364, 110.6516
107.6185, 110.0113
108.1006, 109.7325
108.5827, 109.3737
109.0648, 108.1588
109.5469, 105.3384
110.0291, 100.9862
110.5112, 98.85273
110.9933, 101.0085
111.4754, 103.2982
111.9575, 104.6324
112.4396, 105.0050
112.9218, 104.9265
113.4039, 104.8749
113.8860, 104.8985
114.3681, 104.5978
114.8502, 103.5565
115.3323, 102.4829
115.8145, 101.8481
116.2966, 101.7417
116.7787, 102.1278
117.2608, 103.2507
117.7429, 105.1693
118.2250, 106.6225
118.7072, 107.1813
119.1893, 107.0712
119.6714, 106.6823
120.1535, 105.8586
120.6356, 105.1625
121.1177, 105.2957
121.5999, 106.2644
122.0820, 107.2185
122.5641, 107.4336
123.0462, 106.8662
123.5283, 106.3770
124.0104, 106.1566
124.4925, 106.0993
124.9747, 106.2645
125.4568, 106.6573
125.9389, 107.0256
126.4210, 106.8895
126.9031, 105.8119
127.3852, 105.1300
127.8674, 104.9399
128.3495, 105.1583
128.8316, 105.8951
129.3137, 107.1992
129.7958, 108.7596
130.2780, 109.4289
130.7601, 108.1174
131.2422, 107.0327
131.7243, 106.2345
132.2064, 105.8397
132.6885, 106.1121
133.1707, 107.3183
133.6528, 109.3033
134.1349, 110.4233
134.6170, 110.0454
135.0991, 109.6083
135.5812, 109.8328
136.0634, 110.6405
136.5455, 111.4662
137.0276, 111.9325
137.5097, 112.0341
137.9918, 111.9582
138.4739, 111.0984
138.9561, 110.3781
139.4382, 111.1481
139.9203, 113.8315
140.4024, 116.3186
140.8845, 116.6899
141.3666, 115.7284
141.8488, 114.7263
142.3309, 114.2205
142.8130, 114.0948
143.2951, 113.9311
143.7772, 113.5564
144.2593, 113.4149
144.7415, 113.6654
145.2236, 114.2778
145.7057, 115.1646
146.1878, 116.2482
146.6699, 117.5178
147.1520, 119.1128
147.6342, 122.0186
148.1163, 124.4326
148.5984, 125.6205
149.0805, 125.6268
149.5626, 124.9262
150.0447, 123.8430
150.5269, 121.7335
151.0090, 121.3542
151.4911, 123.8115
151.9732, 126.7840
152.4553, 128.8968
152.9374, 129.8725
153.4196, 130.3100
153.9017, 131.0457
154.3838, 132.2035
154.8659, 133.4870
155.3480, 134.8817
155.8301, 136.4082
156.3122, 138.2451
156.7944, 140.4888
157.2765, 142.6868
157.7586, 143.7570
158.2407, 143.3182
158.7228, 143.4721
159.2049, 145.2156
159.6871, 147.9773
160.1692, 150.4038
160.6513, 151.8588
161.1334, 153.0775
161.6155, 155.1743
162.0976, 158.2571
162.5798, 161.5139
163.0619, 164.4610
163.5440, 167.1121
164.0261, 169.6257
164.5082, 171.7242
164.9903, 173.9362
165.4725, 176.7904
165.9546, 180.3808
166.4367, 184.2744
166.9188, 187.8459
167.4009, 190.9354
167.8830, 194.4344
168.3652, 198.5275
168.8473, 203.1156
169.3294, 208.4065
169.8115, 214.4846
170.2936, 220.7792
170.7757, 226.1749
171.2579, 230.1768
171.7400, 234.0966
172.2221, 237.7090
172.7042, 241.5226
173.1863, 246.0808
173.6684, 251.6233
174.1506, 257.8804
174.6327, 264.0226
175.1148, 270.2541
175.5969, 276.1317
176.0790, 281.3049
176.5611, 286.1751
177.0433, 291.4729
177.5254, 297.6426
178.0075, 304.2762
178.4896, 309.2920
178.9717, 311.0367
179.4538, 313.2158
179.9360, 316.6890
180.4181, 321.2111
180.9002, 326.3522
181.3823, 332.0130
181.8644, 337.9697
182.3465, 343.0871
182.8287, 347.1203
183.3108, 350.7054
183.7929, 353.9784
184.2750, 356.9837
184.7571, 360.0047
185.2392, 363.2982
185.7214, 366.6721
186.2035, 369.6629
186.6856, 372.3307
187.1677, 374.5315
187.6498, 376.1349
188.1319, 377.1426
188.6141, 377.6277
189.0962, 377.8837
189.5783, 377.4952
190.0604, 375.8748
190.5425, 372.9736
191.0246, 368.6873
191.5068, 362.5075
191.9889, 353.9162
192.4710, 345.1314
192.9531, 337.5430
193.4352, 330.2194
193.9173, 322.1548
194.3995, 312.9781
194.8816, 302.8193
195.3637, 291.6533
195.8458, 278.6976
196.3279, 266.2531
196.8100, 255.2460
197.2922, 244.9114
197.7743, 234.3256
198.2564, 222.8992
198.7385, 211.0855
199.2206, 200.6652
199.7027, 192.7623
200.1849, 184.9225
200.6670, 176.3637
201.1491, 167.7025
201.6312, 159.7092
202.1133, 152.8565
202.5954, 147.0948
203.0776, 142.1600
203.5597, 138.5317
204.0418, 135.3500
204.5239, 132.8713
205.0060, 130.7156
205.4881, 128.2803
205.9703, 125.1400
206.4524, 121.4521
206.9345, 118.7341
207.4166, 117.6822
207.8987, 116.7151
208.3808, 115.4799
208.8630, 114.0313
209.3451, 112.5186
209.8272, 111.0109
210.3093, 109.5335
210.7914, 108.2437
211.2735, 106.8769
211.7557, 105.9118
212.2378, 105.7092
212.7199, 106.1078
213.2020, 106.6064
213.6841, 106.9360
214.1662, 107.1187
214.6484, 107.3075
215.1305, 108.1307
215.6126, 108.3758
216.0947, 106.7990
216.5768, 103.7162
217.0589, 101.2120
217.5411, 100.6012
218.0232, 101.3733
218.5053, 101.8409
218.9874, 101.7207
219.4695, 101.6139
219.9516, 102.1720
220.4338, 103.3771
220.9159, 104.2846
221.3980, 104.1963
221.8801, 103.6407
222.3622, 103.4127
222.8443, 103.7498
223.3265, 104.1785
223.8086, 104.0128
224.2907, 103.1388
224.7728, 102.7754
225.2549, 104.2391
225.7370, 106.0841
226.2192, 106.9561
226.7013, 106.4403
227.1834, 105.2944
227.6655, 104.4289
228.1476, 103.9014
228.6297, 103.4065
229.1119, 102.4698
229.5940, 101.7404
230.0761, 101.8473
230.5582, 102.9960
231.0403, 104.5838
231.5224, 105.5448
232.0046, 105.3777
232.4867, 106.1093
232.9688, 109.4067
233.4509, 112.9005
233.9330, 114.8219
234.4151, 114.6892
234.8973, 113.3759
235.3794, 112.1488
235.8615, 110.8149
236.3436, 110.0547
236.8257, 109.7329
237.3078, 110.0111
237.7900, 111.3696
238.2721, 113.8076
238.7542, 116.4437
239.2363, 117.7603
239.7184, 116.9350
240.2005, 116.3583
240.6827, 115.6726
241.1648, 115.4690
241.6469, 116.3474
242.1290, 118.3627
242.6111, 120.9706
243.0932, 123.4834
243.5754, 126.7777
244.0575, 127.9432
244.5396, 124.7539
245.0217, 121.2165
245.5038, 120.4745
245.9859, 122.9848
246.4681, 126.7520
246.9502, 129.1319
247.4323, 129.5143
247.9144, 129.8194
248.3965, 129.7466
248.8786, 129.8033
249.3608, 130.3364
249.8429, 131.4056
250.3250, 132.8960
250.8071, 134.7287
251.2892, 137.0479
251.7713, 139.1506
252.2535, 141.0901
252.7356, 142.7732
253.2177, 143.8920
253.6998, 144.4973
254.1819, 145.2632
254.6640, 146.9119
255.1462, 149.6208
255.6283, 152.2154
256.1104, 154.8711
256.5925, 157.2786
257.0746, 159.0404
257.5567, 160.1905
258.0388, 161.3039
258.5210, 162.6680
259.0031, 164.4060
259.4852, 167.3365
259.9673, 172.8690
260.4494, 178.5578
260.9315, 182.1403
261.4137, 183.7142
261.8958, 185.6563
262.3779, 189.7240
262.8600, 195.7571
263.3421, 201.6734
263.8242, 207.2734
264.3064, 212.8624
264.7885, 218.4160
265.2706, 223.9838
265.7527, 230.1612
266.2348, 237.3939
266.7169, 245.4637
267.1991, 253.5267
267.6812, 261.1111
268.1633, 269.1781
268.6454, 278.4124
269.1275, 288.7621
269.6096, 299.8954
270.0918, 311.8223
270.5739, 324.4057
271.0560, 337.1122
271.5381, 349.5880
272.0202, 363.0734
272.5023, 378.6715
272.9845, 396.2190
273.4666, 414.2251
273.9487, 432.3511
274.4308, 450.7279
274.9129, 469.4382
275.3951, 488.3843
275.8772, 507.8047
276.3593, 527.3000
276.8414, 547.1335
277.3235, 569.2054
277.8056, 594.7295
278.2878, 621.8217
278.7699, 648.4518
279.2520, 674.8230
279.7341, 700.6260
280.2162, 725.1268
280.6983, 748.8036
281.1805, 773.6188
281.6626, 800.3414
282.1447, 827.5598
282.6268, 853.8610
283.1089, 879.4897
283.5910, 905.5330
284.0732, 932.8566
284.5553, 961.0738
285.0374, 989.1381
285.5195, 1017.117
286.0016, 1044.523
286.4837, 1071.797
286.9659, 1098.415
287.4480, 1123.144
287.9301, 1144.847
288.4122, 1164.394
288.8943, 1184.219
289.3764, 1205.328
289.8586, 1224.533
290.3407, 1240.857
290.8228, 1254.607
291.3049, 1266.145
291.7870, 1275.458
292.2691, 1282.713
292.7513, 1288.874
293.2334, 1295.069
293.7155, 1296.596
294.1976, 1289.752
294.6797, 1278.629
295.1618, 1266.665
295.6440, 1255.089
296.1261, 1242.430
296.6082, 1226.961
297.0903, 1208.904
297.5724, 1186.948
298.0545, 1158.327
298.5367, 1126.829
299.0188, 1094.513
299.5009, 1061.739
299.9830, 1028.265
300.4651, 993.5878
300.9472, 957.3975
301.4294, 920.7877
301.9115, 882.9558
302.3936, 845.3355
302.8757, 808.0065
303.3578, 771.1807
303.8399, 736.0370
304.3221, 703.9249
304.8042, 674.9649
305.2863, 645.5705
305.7684, 614.2723
306.2505, 583.8895
306.7326, 555.4592
307.2148, 529.0061
307.6969, 504.4044
308.1790, 481.7566
308.6611, 460.9647
309.1432, 441.1446
309.6253, 422.7374
310.1075, 404.8402
310.5896, 386.5680
311.0717, 368.7041
311.5538, 352.4593
312.0359, 338.7080
312.5180, 326.7494
313.0002, 314.4354
313.4823, 301.0829
313.9644, 288.8524
314.4465, 278.1362
314.9286, 268.6423
315.4107, 260.2938
315.8929, 253.0835
316.3750, 246.4233
316.8571, 239.2358
317.3392, 231.0662
317.8213, 223.6882
318.3034, 217.5474
318.7856, 212.2129
319.2677, 207.7007
319.7498, 203.9164
320.2319, 200.3139
320.7140, 196.2682
321.1961, 191.7204
321.6783, 187.2039
322.1604, 182.4837
322.6425, 178.0690
323.1246, 174.0875
323.6067, 170.6292
324.0888, 167.8608
324.5710, 166.3071
325.0531, 165.8463
325.5352, 164.3689
326.0173, 161.0115
326.4994, 157.6834
326.9815, 155.3792
327.4637, 153.6315
327.9458, 151.5281
328.4279, 148.3749
328.9100, 144.6633
329.3921, 141.9551
329.8742, 140.7044
330.3564, 139.5703
330.8385, 138.2473
331.3206, 136.7420
331.8027, 134.9878
332.2848, 132.9255
332.7669, 130.8030
333.2491, 128.9806
333.7312, 127.4554
334.2133, 126.2147
334.6954, 125.5218
335.1775, 124.9521
335.6596, 124.2123
336.1418, 123.2600
336.6239, 122.3181
337.1060, 121.7237
337.5881, 121.5019
338.0702, 120.8626
338.5523, 119.4799
339.0345, 117.8744
339.5166, 116.1179
339.9987, 114.3451
340.4808, 112.9891
340.9629, 112.6693
341.4450, 113.0921
341.9272, 112.6710
342.4093, 110.7858
342.8914, 109.1456
343.3735, 108.8125
343.8556, 109.1936
344.3377, 109.3549
344.8199, 108.7999
345.3020, 107.9563
345.7841, 107.7391
346.2662, 108.4201
346.7483, 108.6558
347.2304, 107.4441
347.7126, 105.7350
348.1947, 104.4055
348.6768, 103.7119
349.1589, 102.9165
349.6410, 100.7775
350.1231, 97.32600
350.6053, 95.32700
351.0874, 96.41124
351.5695, 98.20979
352.0516, 98.82401
352.5337, 98.25212
353.0158, 97.16731
353.4980, 95.53817
353.9801, 93.67326
354.4622, 92.80215
354.9443, 93.49184
355.4264, 94.19483
355.9085, 93.28938
356.3907, 91.53057
356.8728, 90.71146
357.3549, 92.44689
357.8370, 94.89460
358.3191, 95.10325
358.8012, 92.79543
359.2834, 90.63326
359.7655, 90.10155
360.2476, 90.53683
360.7297, 91.02898
361.2118, 91.77573
361.6939, 91.91998
362.1761, 90.17104
362.6582, 86.96687
363.1403, 84.90134
363.6224, 85.25809
364.1045, 86.45380
364.5866, 86.24326
365.0688, 84.55973
365.5509, 83.13250
366.0330, 83.26466
366.5151, 83.96731
366.9972, 83.09843
367.4793, 80.02322
367.9615, 77.13685
368.4436, 77.10753
368.9257, 79.42294
369.4078, 80.96052
369.8899, 80.74976
370.3720, 79.99486
370.8542, 79.78469
371.3363, 80.05746
371.8184, 79.93167
372.3005, 78.62619
372.7826, 76.71966
373.2647, 76.18523
373.7469, 78.05850
374.2290, 79.54527
374.7111, 79.35552
375.1932, 78.03645
375.6753, 76.40445
376.1574, 74.61021
376.6396, 73.24538
377.1217, 73.52343
377.6038, 76.06668
378.0859, 77.80981
378.5680, 77.99423
379.0501, 77.53403
379.5323, 77.40874
380.0144, 77.65031
380.4965, 77.27615
380.9786, 75.10283
381.4607, 71.05930
381.9428, 69.40571
382.4250, 72.70855
382.9071, 75.40042
383.3892, 74.40407
383.8713, 71.08013
384.3534, 68.47981
384.8355, 68.22258
385.3177, 69.57604
385.7998, 70.39231
386.2819, 70.44355
386.7640, 70.19034
387.2461, 69.15247
387.7282, 68.08473
388.2104, 67.92895
388.6925, 68.78867
389.1746, 69.69541
389.6567, 69.33019
390.1388, 67.09377
390.6209, 66.00263
391.1031, 67.29095
391.5852, 68.34890
392.0673, 67.56776
392.5494, 65.55788
393.0315, 64.00866
393.5136, 64.11344
393.9958, 65.59790
394.4779, 66.86690
394.9600, 68.29783
395.4421, 68.93655
395.9242, 68.19624
396.4063, 66.86378
396.8885, 65.61676
397.3706, 64.70102
397.8527, 64.14470
398.3348, 64.14465
398.8169, 65.01357
399.2990, 65.32520
399.7812, 64.26365
400.2633, 63.23647
400.7454, 62.96301
401.2275, 63.36612
401.7096, 63.95800
402.1917, 64.48426
402.6739, 64.89883
403.1560, 64.86196
403.6381, 64.03339
404.1202, 63.34871
404.6023, 63.15797
405.0844, 63.29943
405.5666, 63.66912
406.0487, 64.31718
406.5308, 64.87734
407.0129, 64.80964
407.4950, 64.07232
407.9771, 63.30108
408.4593, 62.87353
408.9414, 62.22881
409.4235, 60.43947
409.9056, 57.61135
410.3877, 55.73000
410.8698, 56.55281
411.3520, 59.11261
411.8341, 61.00628
412.3162, 62.03621
412.7983, 62.47948
413.2804, 62.05751
413.7625, 61.21328
414.2447, 61.01787
414.7268, 62.38805
415.2089, 63.67698
415.6910, 63.07807
416.1731, 61.00203
416.6552, 59.79707
417.1374, 60.75170
417.6195, 62.53673
418.1016, 62.41862
418.5837, 59.92837
419.0658, 58.18407
419.5479, 58.73387
420.0301, 60.15174
420.5122, 60.50442
420.9943, 59.53845
421.4764, 58.62176
421.9585, 59.12205
422.4406, 61.06988
422.9228, 62.16922
423.4049, 61.78118
423.8870, 61.28335
424.3691, 61.24775
424.8512, 61.55608
425.3333, 61.99408
425.8155, 62.48647
426.2976, 62.85345
426.7797, 62.66301
427.2618, 61.26471
427.7439, 60.27894
428.2260, 59.71986
428.7082, 59.54856
429.1903, 59.93982
429.6724, 60.77492
430.1545, 61.53182
430.6366, 61.65354
431.1187, 61.11526
431.6009, 61.05511
432.0830, 62.31134
432.5651, 63.16374
433.0472, 62.84926
433.5293, 62.03583
434.0114, 61.63156
434.4936, 62.03070
434.9757, 62.95414
435.4578, 64.06553
435.9399, 65.67590
436.4220, 66.43728
436.9041, 65.20721
437.3863, 63.83696
437.8684, 63.38642
438.3505, 63.80767
438.8326, 64.37440
439.3147, 64.55800
439.7968, 64.44844
440.2790, 64.36211
440.7611, 64.13717
441.2432, 64.32285
441.7253, 65.67068
442.2074, 67.40999
442.6895, 68.62999
443.1717, 69.10363
443.6538, 69.05207
444.1359, 68.31651
444.6180, 67.07607
445.1001, 66.57172
445.5822, 67.39676
446.0644, 68.57598
446.5465, 69.04012
447.0286, 68.86243
447.5107, 68.42478
447.9928, 67.41135
448.4749, 66.44675
448.9571, 66.21487
449.4392, 66.71708
449.9213, 67.65152
450.4034, 69.06165
450.8855, 70.64197
451.3676, 71.17010
451.8498, 70.03226
452.3319, 68.97865
452.8140, 68.33865
453.2961, 68.07514
453.7782, 68.24670
454.2603, 68.84295
454.7425, 69.55539
455.2246, 69.97430
455.7067, 69.93689
456.1888, 70.60912
456.6709, 72.89555
457.1530, 74.83010
457.6352, 75.20219
458.1173, 74.69516
458.5994, 74.83223
459.0815, 76.45425
459.5636, 78.66843
460.0457, 79.00945
460.5279, 75.82076
461.0100, 74.16315
461.4921, 75.38303
461.9742, 77.24025
462.4563, 78.45122
462.9384, 78.87612
463.4205, 78.93870
463.9026, 78.97076
464.3848, 78.94487
464.8669, 78.50282
465.3490, 76.92670
465.8311, 76.34868
466.3132, 78.49449
466.7953, 81.64432
467.2775, 83.90677
467.7596, 84.77754
468.2417, 84.76425
468.7238, 83.74660
469.2059, 81.98142
469.6880, 81.67187
470.1702, 83.93343
470.6523, 86.44881
471.1344, 86.52117
471.6165, 84.79322
472.0986, 83.92313
472.5807, 85.00821
473.0629, 86.91904
473.5450, 88.98699
474.0271, 91.07016
474.5092, 92.51850
474.9913, 92.97440
475.4734, 92.66964
475.9556, 91.97645
476.4377, 90.41992
476.9198, 89.68960
477.4019, 90.70226
477.8840, 92.24732
478.3661, 93.19131
478.8483, 93.44131
479.3304, 93.52805
479.8125, 93.89261
480.2946, 94.51253
480.7767, 95.02959
481.2589, 94.83332
481.7410, 95.26968
482.2231, 97.34516
482.7052, 99.79545
483.1873, 101.1371
483.6694, 100.9901
484.1516, 100.1896
484.6337, 99.65459
485.1158, 99.28372
485.5979, 99.81020
486.0800, 102.3870
486.5621, 104.6330
487.0443, 105.6930
487.5264, 105.7763
488.0085, 105.1570
488.4906, 103.6982
488.9727, 102.2338
489.4548, 102.4943
489.9370, 104.6556
490.4191, 105.5833
490.9012, 103.0297
491.3833, 100.4585
491.8654, 101.9208
492.3475, 107.0439
492.8297, 110.9860
493.3118, 111.1452
493.7939, 109.3115
494.2760, 107.1093
494.7581, 104.7153
495.2402, 104.0324
495.7224, 106.8373
496.2045, 111.5967
496.6866, 113.5226
497.1687, 111.3181
497.6508, 109.4448
498.1329, 109.0300
498.6151, 109.3971
499.0972, 109.9818
499.5793, 110.6189
500.0614, 111.0775
500.5435, 111.0601
501.0256, 110.5810
501.5078, 110.8624
501.9899, 113.7814
502.4720, 115.2226
502.9541, 112.8335
503.4362, 109.2601
503.9183, 107.8446
504.4005, 109.4620
504.8826, 111.9923
505.3647, 112.6268
505.8468, 111.1003
506.3289, 109.7130
506.8110, 108.1029
507.2932, 107.1350
507.7753, 107.4969
508.2574, 108.6350
508.7395, 109.6327
509.2216, 110.1777
509.7037, 110.3460
510.1859, 110.0195
510.6680, 109.2443
511.1501, 108.9729
511.6322, 109.7792
512.1143, 110.6595
512.5964, 110.4198
513.0786, 109.2147
513.5607, 108.0287
514.0428, 106.8192
514.5249, 105.9628
515.0070, 106.1914
515.4891, 107.2027
515.9713, 107.6350
516.4534, 106.7951
516.9355, 105.1538
517.4176, 103.6919
517.8997, 102.2246
518.3818, 101.3676
518.8640, 101.3141
519.3461, 101.7262
519.8282, 102.8730
520.3103, 104.3420
520.7924, 104.8932
521.2745, 103.5450
521.7567, 100.8922
522.2388, 99.58161
522.7209, 100.7664
523.2030, 101.1644
523.6851, 99.81803
524.1672, 98.01317
524.6494, 96.67625
525.1315, 95.87149
525.6136, 95.09389
526.0957, 93.77052
526.5778, 92.16139
527.0599, 91.30385
527.5421, 91.43049
528.0242, 91.50942
528.5063, 90.89790
528.9884, 90.05897
529.4705, 89.78704
529.9526, 90.39635
530.4348, 90.37497
530.9169, 88.10322
531.3990, 84.96381
531.8811, 83.43672
532.3632, 83.83859
532.8453, 84.68800
533.3275, 84.99619
533.8096, 84.76897
534.2917, 84.02626
534.7738, 81.79258
535.2559, 80.34657
535.7380, 80.95095
536.2202, 82.21463
536.7023, 82.59425
537.1844, 81.79565
537.6665, 80.51173
538.1486, 79.48338
538.6307, 78.71871
539.1129, 77.50789
539.5950, 75.12075
540.0771, 73.26281
540.5592, 72.47238
541.0413, 72.33682
541.5234, 72.55993
542.0056, 73.04074
542.4877, 73.36513
542.9698, 72.96613
543.4519, 71.96035
543.9340, 71.33402
544.4161, 71.48641
544.8983, 71.21001
545.3804, 68.71870
545.8625, 65.41172
546.3446, 64.19405
546.8267, 66.66809
547.3088, 69.03886
547.7910, 68.76196
548.2731, 66.89964
548.7552, 65.57693
549.2373, 65.26884
549.7194, 65.04117
550.2015, 63.83632
550.6837, 61.60636
551.1658, 60.58007
551.6479, 61.95818
552.1300, 62.91013
552.6121, 62.23867
553.0942, 60.89161
553.5764, 60.16009
554.0585, 60.36000
554.5406, 60.75663
555.0227, 60.48449
555.5048, 59.51081
555.9869, 58.34246
556.4691, 56.71569
556.9512, 55.26747
557.4333, 54.19090
557.9154, 53.40644
558.3975, 52.83731
558.8796, 52.47259
559.3618, 52.25917
559.8439, 52.23846
560.3260, 52.34274
560.8081, 52.28976
561.2902, 52.00462
561.7723, 51.73341
562.2545, 51.76609
562.7366, 51.97115
563.2187, 51.76154
563.7008, 50.85988
564.1829, 49.89164
564.6650, 48.94366
565.1472, 48.13626
565.6293, 47.72248
566.1114, 47.71893
566.5935, 47.76933
567.0756, 47.51620
567.5577, 46.96085
568.0399, 46.45122
568.5220, 46.19430
569.0041, 45.72320
569.4862, 44.38768
569.9683, 43.12588
570.4504, 43.26100
570.9326, 44.88072
571.4147, 46.32410
571.8968, 45.76832
572.3789, 43.53249
572.8610, 41.56661
573.3431, 39.75459
573.8253, 38.60566
574.3074, 38.80571
574.7895, 39.65034
575.2716, 40.14760
575.7537, 40.16284
576.2358, 40.10020
576.7180, 40.48855
577.2001, 40.75783
577.6822, 39.75519
578.1643, 37.51089
578.6464, 35.55125
579.1285, 34.91894
579.6107, 35.40167
580.0928, 36.08500
580.5749, 37.56898
581.0570, 38.43969
581.5391, 38.20593
582.0212, 37.67662
582.5034, 37.68297
582.9855, 38.06987
583.4676, 37.90220
