##NAMES=Siderite
##RRUFFID=R050349
##IDEAL CHEMISTRY=Fe^2+^CO_3_
##LOCALITY=Litchfield County, Connecticut, USA
##OWNER=RRUFF
##SOURCE=California Institute of Technology
##DESCRIPTION=Grayish brown rhombohedral cleavage fragment
##STATUS=The identification of this mineral has been confirmed by X-ray diffraction and chemical analysis
##URL=rruff.info/R050349
##MEASURED CHEMISTRY=(Fe_0.83_Mg_0.09_Mn_0.05_Ca_0.01_)_Î£=0.98_CO_3_
91.87140, 0.0000000E+00
92.35352, 3.316938
92.83563, 3.054067
93.31775, 2.942143
93.79987, 3.063609
94.28198, 3.346964
94.76410, 3.577728
95.24622, 3.682606
95.72833, 3.744257
96.21045, 3.962946
96.69257, 4.349200
97.17468, 4.740582
97.65680, 4.922365
98.13892, 4.902073
98.62103, 5.034070
99.10315, 5.393287
99.58527, 5.974808
100.0674, 6.854270
100.5495, 8.181647
101.0316, 9.459665
101.5137, 9.917177
101.9958, 9.262660
102.4780, 8.828326
102.9601, 9.082105
103.4422, 10.13336
103.9243, 11.16342
104.4064, 12.21744
104.8885, 13.22770
105.3707, 14.06903
105.8528, 14.55919
106.3349, 15.12716
106.8170, 15.96531
107.2991, 17.39245
107.7813, 18.47953
108.2634, 19.03902
108.7455, 19.23504
109.2276, 19.59854
109.7097, 20.28524
110.1918, 21.03111
110.6740, 21.72794
111.1561, 22.30595
111.6382, 22.91023
112.1203, 23.49774
112.6024, 24.09753
113.0845, 24.85462
113.5667, 25.65843
114.0488, 26.69571
114.5309, 28.10429
115.0130, 30.56857
115.4951, 32.77784
115.9772, 34.13060
116.4594, 34.66305
116.9415, 35.48671
117.4236, 37.48784
117.9057, 39.84114
118.3878, 41.65578
118.8699, 42.19872
119.3521, 42.44138
119.8342, 42.86770
120.3163, 43.50264
120.7984, 44.38509
121.2805, 45.71721
121.7626, 47.30192
122.2448, 48.80230
122.7269, 50.30467
123.2090, 51.52838
123.6911, 52.05559
124.1732, 51.69921
124.6553, 51.24572
125.1375, 51.35766
125.6196, 51.95851
126.1017, 52.80605
126.5838, 53.93830
127.0659, 55.19538
127.5480, 56.27807
128.0302, 57.11125
128.5123, 57.84244
128.9944, 58.63048
129.4765, 59.47886
129.9586, 60.42008
130.4407, 61.57476
130.9229, 62.87088
131.4050, 64.01213
131.8871, 64.88174
132.3692, 65.76852
132.8513, 66.33652
133.3334, 67.01814
133.8156, 67.44428
134.2977, 67.71329
134.7798, 68.05751
135.2619, 68.39880
135.7440, 68.69198
136.2261, 68.96821
136.7083, 69.40852
137.1904, 70.02790
137.6725, 70.76348
138.1546, 71.64289
138.6367, 72.74276
139.1188, 73.59858
139.6010, 74.08394
140.0831, 74.20027
140.5652, 74.16076
141.0473, 73.85693
141.5294, 73.54456
142.0115, 73.59660
142.4937, 74.17748
142.9758, 74.71959
143.4579, 74.98888
143.9400, 74.84078
144.4221, 75.13090
144.9042, 76.06262
145.3864, 77.30552
145.8685, 78.26862
146.3506, 78.77850
146.8327, 79.25819
147.3148, 79.88134
147.7969, 80.83883
148.2791, 81.48880
148.7612, 81.49681
149.2433, 81.22793
149.7254, 81.53594
150.2075, 82.89620
150.6896, 84.41370
151.1718, 85.75804
151.6539, 86.82433
152.1360, 87.88089
152.6181, 88.93204
153.1002, 89.97836
153.5823, 91.01569
154.0645, 91.91573
154.5466, 92.90916
155.0287, 94.10094
155.5108, 95.66603
155.9929, 97.25183
156.4750, 98.77309
156.9572, 100.2585
157.4393, 101.7953
157.9214, 103.2302
158.4035, 104.8381
158.8856, 106.7927
159.3677, 109.6462
159.8499, 112.3444
160.3320, 114.3063
160.8141, 115.6977
161.2962, 117.5467
161.7783, 120.7944
162.2604, 124.3688
162.7426, 127.3858
163.2247, 128.7949
163.7068, 130.2863
164.1889, 132.6903
164.6710, 135.9424
165.1531, 139.3359
165.6353, 142.5689
166.1174, 145.7424
166.5995, 148.9653
167.0816, 152.1599
167.5637, 155.4993
168.0458, 159.1358
168.5280, 163.0379
169.0101, 167.0815
169.4922, 171.2895
169.9743, 175.5288
170.4564, 179.5876
170.9385, 183.2259
171.4207, 186.7387
171.9028, 190.4663
172.3849, 194.4191
172.8670, 198.2284
173.3491, 201.5378
173.8312, 204.5303
174.3134, 207.5685
174.7955, 210.6644
175.2776, 213.9305
175.7597, 217.5263
176.2418, 221.5134
176.7239, 225.6263
177.2061, 229.8175
177.6882, 234.0559
178.1703, 238.1714
178.6524, 242.0059
179.1345, 245.7397
179.6166, 249.7328
180.0988, 254.1266
180.5809, 258.3474
181.0630, 261.7316
181.5451, 264.4066
182.0272, 266.7357
182.5093, 269.0805
182.9915, 271.2418
183.4736, 272.6183
183.9557, 273.0933
184.4378, 273.1124
184.9199, 273.6477
185.4020, 274.4998
185.8842, 274.3061
186.3663, 272.3363
186.8484, 268.7073
187.3305, 263.8968
187.8126, 257.8803
188.2947, 250.7288
188.7769, 242.1733
189.2590, 232.2699
189.7411, 222.1828
190.2232, 212.4870
190.7053, 203.1416
191.1874, 193.6156
191.6696, 183.7160
192.1517, 173.7034
192.6338, 163.8045
193.1159, 153.9997
193.5980, 144.7786
194.0801, 136.5204
194.5623, 129.2137
195.0444, 122.1882
195.5265, 115.3679
196.0086, 108.9083
196.4907, 103.1576
196.9728, 98.13658
197.4550, 93.63051
197.9371, 89.62721
198.4192, 86.13325
198.9013, 82.64075
199.3834, 79.00809
199.8655, 75.46457
200.3477, 72.57613
200.8298, 70.43934
201.3119, 68.55847
201.7940, 66.61131
202.2761, 64.57790
202.7582, 62.69496
203.2404, 60.96379
203.7225, 59.40942
204.2046, 58.14198
204.6867, 57.21714
205.1688, 56.38427
205.6509, 55.48472
206.1331, 54.48735
206.6152, 53.60333
207.0973, 52.87223
207.5794, 52.25428
208.0615, 51.61605
208.5436, 50.92792
209.0258, 50.29448
209.5079, 49.81559
209.9900, 49.54260
210.4721, 49.17204
210.9542, 48.61344
211.4363, 47.96278
211.9185, 47.55271
212.4006, 47.42885
212.8827, 47.44550
213.3648, 47.54930
213.8469, 47.79281
214.3290, 47.92994
214.8112, 47.92041
215.2933, 47.79556
215.7754, 47.66289
216.2575, 47.52028
216.7396, 47.37249
217.2217, 47.23159
217.7039, 47.11954
218.1860, 46.92602
218.6681, 46.54390
219.1502, 46.09056
219.6323, 46.07253
220.1144, 46.76480
220.5966, 47.42213
221.0787, 47.57524
221.5608, 46.99909
222.0429, 46.52134
222.5250, 46.14664
223.0071, 45.90983
223.4893, 46.00268
223.9714, 46.65914
224.4535, 47.27904
224.9356, 47.51312
225.4177, 47.16007
225.8998, 46.89884
226.3820, 46.75470
226.8641, 46.72464
227.3462, 46.81973
227.8283, 47.11375
228.3104, 47.41903
228.7925, 47.64307
229.2747, 47.79044
229.7568, 47.83544
230.2389, 47.69678
230.7210, 47.46728
231.2031, 47.45948
231.6852, 47.77722
232.1674, 48.16130
232.6495, 48.48893
233.1316, 48.74481
233.6137, 48.97924
234.0958, 49.19871
234.5779, 49.39380
235.0601, 49.51741
235.5422, 49.47520
236.0243, 49.50094
236.5064, 49.73998
236.9885, 50.42965
237.4706, 50.78395
237.9528, 50.61533
238.4349, 50.15724
238.9170, 49.98838
239.3991, 50.17837
239.8812, 50.55412
240.3633, 51.09614
240.8455, 51.99462
241.3276, 52.56997
241.8097, 52.67112
242.2918, 52.49774
242.7739, 52.47271
243.2560, 52.60634
243.7382, 52.87310
244.2203, 53.28157
244.7024, 53.88896
245.1845, 54.48150
245.6666, 55.07703
246.1487, 55.64816
246.6309, 56.14093
247.1130, 56.48254
247.5951, 56.86624
248.0772, 57.35102
248.5593, 57.94398
249.0414, 58.63725
249.5236, 59.53644
250.0057, 60.46751
250.4878, 61.12368
250.9699, 61.29746
251.4520, 61.57033
251.9341, 62.17202
252.4163, 63.21336
252.8984, 64.03081
253.3805, 64.50687
253.8626, 64.85381
254.3447, 65.35598
254.8268, 66.02117
255.3090, 66.83688
255.7911, 67.78329
256.2732, 68.85665
256.7553, 70.14350
257.2374, 71.75117
257.7195, 73.47310
258.2017, 75.02373
258.6838, 76.26673
259.1659, 77.68286
259.6480, 79.44149
260.1301, 81.54024
260.6122, 83.59641
261.0944, 85.49397
261.5765, 87.50582
262.0586, 89.96800
262.5407, 93.01103
263.0228, 96.13205
263.5049, 99.23751
263.9871, 102.3487
264.4692, 105.2114
264.9513, 107.6025
265.4334, 110.1417
265.9155, 113.5406
266.3976, 117.9794
266.8798, 122.4650
267.3619, 126.7903
267.8440, 131.0086
268.3261, 135.2016
268.8082, 139.2916
269.2903, 143.4989
269.7725, 147.9362
270.2546, 152.5147
270.7367, 157.4685
271.2188, 162.8415
271.7009, 168.5564
272.1830, 174.4717
272.6652, 180.6009
273.1473, 186.7733
273.6294, 192.9489
274.1115, 199.1229
274.5936, 205.2096
275.0757, 211.0380
275.5579, 216.9397
276.0400, 223.8948
276.5221, 232.1658
277.0042, 240.4183
277.4863, 247.7071
277.9684, 253.9294
278.4506, 260.5865
278.9327, 267.8160
279.4148, 275.4804
279.8969, 283.4611
280.3790, 291.8457
280.8611, 299.9409
281.3433, 307.3153
281.8254, 314.0044
282.3075, 320.7723
282.7896, 327.9218
283.2717, 334.6491
283.7538, 339.6679
284.2360, 342.9570
284.7181, 345.1821
285.2002, 346.7280
285.6823, 347.5283
286.1644, 347.0106
286.6465, 345.2104
287.1287, 341.9924
287.6108, 336.7675
288.0929, 329.6216
288.5750, 322.1754
289.0571, 315.2407
289.5392, 308.4577
290.0214, 300.4871
290.5035, 291.3079
290.9856, 281.4510
291.4677, 271.2718
291.9498, 260.7922
292.4319, 250.4630
292.9141, 240.1803
293.3962, 230.1683
293.8783, 221.0741
294.3604, 212.9499
294.8425, 205.1067
295.3246, 196.7022
295.8068, 187.9676
296.2889, 179.8700
296.7710, 172.6597
297.2531, 166.0344
297.7352, 159.6472
298.2173, 153.5181
298.6995, 147.5570
299.1816, 141.5766
299.6637, 135.7600
300.1458, 130.6941
300.6279, 126.5543
301.1100, 122.9196
301.5922, 119.3462
302.0743, 115.8687
302.5564, 112.6450
303.0385, 109.8166
303.5206, 107.2639
304.0027, 104.7734
304.4849, 102.3478
304.9670, 99.95750
305.4491, 97.55157
305.9312, 95.18123
306.4133, 92.96876
306.8954, 91.01828
307.3776, 89.23048
307.8597, 87.57946
308.3418, 86.06006
308.8239, 84.54012
309.3060, 82.84370
309.7881, 81.07903
310.2703, 79.47108
310.7524, 78.14999
311.2345, 76.96595
311.7166, 75.82975
312.1987, 74.74036
312.6808, 73.74233
313.1630, 72.92577
313.6451, 72.17882
314.1272, 71.37320
314.6093, 70.38764
315.0914, 69.41759
315.5735, 68.58327
316.0557, 67.86346
316.5378, 67.14799
317.0199, 66.29302
317.5020, 65.48342
317.9841, 64.87208
318.4662, 64.76745
318.9484, 64.47210
319.4305, 63.54350
319.9126, 62.22949
320.3947, 61.18092
320.8768, 60.54450
321.3589, 60.25260
321.8411, 60.36509
322.3232, 61.17195
322.8053, 61.68004
323.2874, 61.55334
323.7695, 61.04017
324.2516, 60.53360
324.7338, 60.14564
325.2159, 59.72493
325.6980, 59.20127
326.1801, 58.53090
326.6622, 57.93433
327.1443, 57.46724
327.6265, 57.05935
328.1086, 56.63695
328.5907, 55.96977
329.0728, 55.55463
329.5549, 55.66078
330.0370, 56.29772
330.5192, 56.39544
331.0013, 55.41927
331.4834, 54.35845
331.9655, 53.91314
332.4476, 54.54889
332.9297, 55.00310
333.4119, 55.13230
333.8940, 54.99464
334.3761, 54.83409
334.8582, 54.65776
335.3403, 54.45219
335.8224, 54.19861
336.3046, 53.85878
336.7867, 53.58034
337.2688, 53.36585
337.7509, 53.21155
338.2330, 53.12772
338.7151, 53.15271
339.1973, 53.12946
339.6794, 52.98404
340.1615, 52.71237
340.6436, 52.41644
341.1257, 52.05381
341.6078, 51.76727
342.0900, 51.85992
342.5721, 52.37784
343.0542, 52.62729
343.5363, 52.29691
344.0184, 51.54476
344.5005, 51.03981
344.9827, 50.80042
345.4648, 50.70460
345.9469, 50.66757
346.4290, 50.68739
346.9111, 50.78850
347.3932, 51.06138
347.8754, 51.29965
348.3575, 50.93847
348.8396, 50.03831
349.3217, 49.28141
349.8038, 49.29652
350.2859, 49.79420
350.7681, 50.05753
351.2502, 49.97003
351.7323, 49.76523
352.2144, 49.65939
352.6965, 49.64719
353.1786, 49.71611
353.6608, 50.04624
354.1429, 50.36846
354.6250, 50.26521
355.1071, 49.70781
355.5892, 49.14170
356.0714, 48.91378
356.5535, 48.89880
357.0356, 48.91134
357.5177, 48.86280
357.9998, 48.83646
358.4819, 48.97306
358.9641, 49.22563
359.4462, 49.32473
359.9283, 48.91679
360.4104, 48.40813
360.8925, 48.15441
361.3746, 48.37225
361.8568, 48.61488
362.3389, 48.73472
362.8210, 48.74516
363.3031, 48.68069
363.7852, 48.49453
364.2673, 48.28130
364.7495, 48.05661
365.2316, 47.78148
365.7137, 47.64568
366.1958, 47.77867
366.6779, 48.03944
367.1600, 48.26347
367.6422, 48.49052
368.1243, 48.61952
368.6064, 48.61481
369.0885, 48.47063
369.5706, 48.28094
370.0527, 47.86255
370.5349, 47.53920
371.0170, 47.55006
371.4991, 48.27917
371.9812, 48.68551
372.4633, 48.60560
372.9454, 48.15802
373.4276, 47.73319
373.9097, 47.24439
374.3918, 46.92288
374.8739, 46.91350
375.3560, 47.29231
375.8381, 47.65148
376.3203, 48.01809
376.8024, 48.32480
377.2845, 48.44634
377.7666, 48.35528
378.2487, 48.21315
378.7308, 48.02450
379.2130, 47.81717
379.6951, 47.84671
380.1772, 48.15321
380.6593, 48.48954
381.1414, 48.61538
381.6235, 48.55031
382.1057, 48.49263
382.5878, 48.49934
383.0699, 48.51133
383.5520, 48.34678
384.0341, 48.03105
384.5162, 47.83609
384.9984, 48.02960
385.4805, 48.45470
385.9626, 48.81889
386.4447, 49.11695
386.9268, 49.22565
387.4089, 48.66314
387.8911, 47.80178
388.3732, 47.49353
388.8553, 48.79869
389.3374, 50.40136
389.8195, 50.93604
390.3016, 50.43628
390.7838, 49.82273
391.2659, 49.67951
391.7480, 49.71425
392.2301, 49.61577
392.7122, 49.18955
393.1943, 48.76784
393.6765, 48.51790
394.1586, 48.39914
394.6407, 48.29940
395.1228, 48.15140
395.6049, 48.03458
396.0870, 47.98637
396.5692, 48.01610
397.0513, 48.10193
397.5334, 48.30962
398.0155, 48.54938
398.4976, 48.70619
398.9797, 48.60019
399.4619, 48.59209
399.9440, 48.82575
400.4261, 49.29860
400.9082, 49.56700
401.3903, 49.53664
401.8724, 49.38993
402.3546, 49.20815
402.8367, 48.84798
403.3188, 48.79837
403.8009, 49.25996
404.2830, 49.97234
404.7651, 50.22151
405.2473, 49.83712
405.7294, 49.47342
406.2115, 49.47014
406.6936, 49.84608
407.1757, 49.86761
407.6578, 49.44378
408.1400, 48.91212
408.6221, 48.71174
409.1042, 48.83308
409.5863, 48.81499
410.0684, 48.47101
410.5505, 47.96149
411.0327, 47.66290
411.5148, 47.56911
411.9969, 47.51906
412.4790, 47.41386
412.9611, 47.26403
413.4432, 47.09125
413.9254, 46.89158
414.4075, 46.69004
414.8896, 46.51501
415.3717, 46.35846
415.8538, 46.20246
416.3359, 46.03154
416.8181, 45.86290
417.3002, 45.67523
417.7823, 45.47179
418.2644, 45.38911
418.7465, 45.63538
419.2286, 45.97709
419.7108, 46.18467
420.1929, 46.14814
420.6750, 46.03906
421.1571, 45.86193
421.6392, 45.65586
422.1213, 45.52779
422.6035, 45.67255
423.0856, 45.75874
423.5677, 45.57798
424.0498, 44.95778
424.5319, 44.64644
425.0140, 45.03185
425.4962, 45.59490
425.9783, 45.80724
426.4604, 45.40437
426.9425, 45.03408
427.4246, 44.75169
427.9067, 44.56460
428.3889, 44.57686
428.8710, 44.93711
429.3531, 45.23466
429.8352, 45.15510
430.3173, 44.55306
430.7994, 44.37390
431.2816, 44.77287
431.7637, 45.38938
432.2458, 45.61129
432.7279, 45.41541
433.2100, 45.20769
433.6921, 45.14979
434.1743, 45.18606
434.6564, 45.08233
435.1385, 44.83125
435.6206, 44.61161
436.1027, 44.55718
436.5848, 44.65281
437.0670, 44.89406
437.5491, 45.34432
438.0312, 45.78053
438.5133, 45.97150
438.9954, 45.94946
439.4775, 45.80262
439.9597, 45.35660
440.4418, 44.94646
440.9239, 44.94245
441.4060, 45.36627
441.8881, 45.79420
442.3702, 45.92953
442.8524, 45.97294
443.3345, 46.12206
443.8166, 46.59721
444.2987, 46.98736
444.7808, 47.12202
445.2629, 47.06912
445.7451, 47.02814
446.2272, 47.07658
446.7093, 47.11114
447.1914, 47.08864
447.6735, 46.98969
448.1556, 46.88288
448.6378, 46.65060
449.1199, 46.48977
449.6020, 46.64191
450.0841, 47.34761
450.5662, 47.84851
451.0483, 47.97521
451.5305, 47.81329
452.0126, 47.73694
452.4947, 47.75708
452.9768, 47.82704
453.4589, 47.89073
453.9410, 47.94578
454.4232, 48.22015
454.9053, 48.77555
455.3874, 49.37309
455.8695, 49.73884
456.3516, 49.88379
456.8337, 49.85730
457.3159, 49.51676
457.7980, 49.14763
458.2801, 49.38461
458.7622, 50.14479
459.2443, 50.85514
459.7264, 51.05114
460.2086, 50.98759
460.6907, 50.98695
461.1728, 51.10350
461.6549, 51.24999
462.1370, 51.43305
462.6191, 51.59064
463.1013, 51.62617
463.5834, 51.26301
464.0655, 50.99459
464.5476, 51.07380
465.0297, 51.47227
465.5118, 51.92650
465.9940, 52.60258
466.4761, 53.13491
466.9582, 53.29247
467.4403, 52.73677
467.9224, 52.38099
468.4045, 52.24660
468.8867, 52.31863
469.3688, 52.60094
469.8509, 53.21302
470.3330, 53.82204
470.8151, 54.42222
471.2972, 54.98547
471.7794, 55.15400
472.2615, 54.81162
472.7436, 54.39686
473.2257, 54.17403
473.7078, 54.14356
474.1899, 54.34993
474.6721, 54.86135
475.1542, 55.43272
475.6363, 55.62131
476.1184, 55.49677
476.6005, 55.51480
477.0826, 56.00148
477.5648, 56.65356
478.0469, 56.94041
478.5290, 56.89412
479.0111, 56.80584
479.4932, 56.83547
479.9753, 56.95792
480.4575, 57.15438
480.9396, 57.43682
481.4217, 57.74403
481.9038, 58.06245
482.3859, 58.37181
482.8680, 58.63781
483.3502, 58.90360
483.8323, 59.07047
484.3144, 59.02397
484.7965, 58.78688
485.2786, 58.68742
485.7607, 58.76752
486.2429, 59.00444
486.7250, 59.41056
487.2071, 60.14384
487.6892, 60.68933
488.1713, 60.95278
488.6534, 61.09460
489.1356, 61.35737
489.6177, 61.78779
490.0998, 62.22356
490.5819, 62.68354
491.0640, 63.12248
491.5461, 63.23135
492.0283, 62.96639
492.5104, 62.70919
492.9925, 62.76894
493.4746, 63.08076
493.9567, 63.30066
494.4388, 63.39955
494.9210, 63.44269
495.4031, 63.41352
495.8852, 63.38291
496.3673, 63.54318
496.8494, 64.14817
497.3315, 64.79594
497.8137, 65.12941
498.2958, 65.17994
498.7779, 65.06554
499.2600, 64.45846
499.7421, 63.97805
500.2242, 64.19933
500.7064, 65.41431
501.1885, 66.31838
501.6706, 66.32346
502.1527, 65.91167
502.6348, 65.56600
503.1169, 65.18642
503.5991, 65.07703
504.0812, 65.41703
504.5633, 66.06417
505.0454, 66.49882
505.5275, 66.65473
506.0096, 66.69890
506.4918, 66.68824
506.9739, 66.62181
507.4560, 66.49155
507.9381, 66.27423
508.4202, 66.05462
508.9023, 65.86572
509.3845, 65.71743
509.8666, 65.81837
510.3487, 66.27448
510.8308, 66.87299
511.3129, 67.35156
511.7950, 67.68961
512.2772, 67.78910
512.7593, 67.41978
513.2414, 66.87871
513.7235, 66.50785
514.2056, 66.31190
514.6877, 66.18761
515.1699, 66.03884
515.6520, 65.94642
516.1341, 66.01515
516.6162, 66.42358
517.0983, 66.68599
517.5804, 66.55978
518.0626, 66.20353
518.5447, 65.87773
519.0268, 65.54647
519.5089, 65.33363
519.9910, 65.31041
520.4731, 65.46120
520.9553, 65.56400
521.4374, 65.67473
521.9195, 65.65434
522.4016, 65.38247
522.8837, 64.79526
523.3658, 64.29884
523.8480, 63.88654
524.3301, 63.58805
524.8122, 63.54540
525.2943, 63.73377
525.7764, 63.69622
526.2585, 63.18200
526.7407, 62.52086
527.2228, 62.33414
527.7049, 62.56417
528.1870, 62.87312
528.6691, 63.21738
529.1512, 63.44758
529.6334, 63.34505
530.1155, 62.88585
530.5976, 62.34805
531.0797, 61.71754
531.5618, 61.16865
532.0439, 60.90076
532.5261, 61.29222
533.0082, 61.48821
533.4903, 61.14010
533.9724, 60.46189
534.4545, 59.90072
534.9366, 59.38896
535.4188, 59.13559
535.9009, 59.35094
536.3830, 60.01435
536.8651, 60.13288
537.3472, 59.48783
537.8293, 58.73312
538.3115, 58.31092
538.7936, 58.24711
539.2757, 58.18052
539.7578, 58.10494
540.2399, 57.99791
540.7220, 57.85164
541.2042, 57.65581
541.6863, 57.31776
542.1684, 56.67456
542.6505, 56.03035
543.1326, 55.94489
543.6147, 56.27510
544.0969, 56.47313
544.5790, 56.08530
545.0611, 55.51624
545.5432, 55.09971
546.0253, 54.87190
546.5074, 54.64150
546.9896, 54.26321
547.4717, 53.88842
547.9538, 53.64167
548.4359, 53.66454
548.9180, 53.65289
549.4001, 53.60389
549.8823, 53.50111
550.3644, 53.30222
550.8465, 52.92244
551.3286, 52.60923
551.8107, 52.46376
552.2928, 52.44683
552.7750, 52.24753
553.2571, 51.82811
553.7392, 51.40894
554.2213, 51.16810
554.7034, 51.06670
555.1855, 50.81340
555.6677, 50.36401
556.1498, 49.98805
556.6319, 50.17153
557.1140, 50.62120
557.5961, 50.69781
558.0782, 50.03698
558.5604, 49.25288
559.0425, 48.82453
559.5246, 48.65356
560.0067, 48.52650
560.4888, 48.42625
560.9709, 48.28875
561.4531, 48.05024
561.9352, 47.70977
562.4173, 47.45284
562.8994, 47.42294
563.3815, 47.38658
563.8636, 47.21954
564.3458, 46.86543
564.8279, 46.53267
565.3100, 46.21222
565.7921, 45.92052
566.2742, 45.66340
566.7563, 45.43025
567.2385, 45.33175
567.7206, 45.42312
568.2027, 45.62478
568.6848, 45.84862
569.1669, 46.06933
569.6490, 46.06854
570.1312, 45.45312
570.6133, 44.67139
571.0954, 44.49473
571.5775, 44.89328
572.0596, 45.20091
572.5417, 44.82847
573.0239, 44.27003
573.5060, 43.99514
573.9881, 44.23044
574.4702, 44.34464
574.9523, 44.00454
575.4344, 43.49298
575.9166, 43.17260
576.3987, 43.25291
576.8808, 43.26904
577.3629, 43.10078
577.8450, 42.84068
578.3271, 42.82854
578.8093, 43.16772
579.2914, 43.44640
579.7735, 43.48403
580.2556, 43.30578
580.7377, 43.07770
581.2198, 42.79301
581.7020, 42.53841
582.1841, 42.37562
582.6662, 42.29805
583.1483, 42.34701
583.6304, 42.57098
584.1125, 42.67615
584.5947, 42.22897
585.0768, 41.54217
585.5589, 41.07534
586.0410, 41.14225
586.5231, 41.28445
587.0052, 41.34269
587.4874, 41.33485
