##NAMES=Siderite
##RRUFFID=R050349
##IDEAL CHEMISTRY=Fe^2+^CO_3_
##LOCALITY=Litchfield County, Connecticut, USA
##OWNER=RRUFF
##SOURCE=California Institute of Technology
##DESCRIPTION=Grayish brown rhombohedral cleavage fragment
##STATUS=The identification of this mineral has been confirmed by X-ray diffraction and chemical analysis
##URL=rruff.info/R050349
##MEASURED CHEMISTRY=(Fe_0.83_Mg_0.09_Mn_0.05_Ca_0.01_)_Î£=0.98_CO_3_
92.52344, 96.06414
93.00555, 94.95721
93.48767, 95.15518
93.96979, 99.10960
94.45190, 102.8983
94.93402, 106.0479
95.41614, 107.3447
95.89825, 107.3988
96.38037, 107.1426
96.86249, 106.6289
97.34460, 106.0775
97.82672, 105.6021
98.30884, 105.1721
98.79095, 104.9130
99.27307, 104.5776
99.75519, 103.8585
100.2373, 102.8628
100.7194, 101.7424
101.2015, 100.8531
101.6837, 100.0207
102.1658, 99.44931
102.6479, 99.39317
103.1300, 99.88360
103.6121, 100.4416
104.0942, 100.6138
104.5764, 100.5975
105.0585, 100.7112
105.5406, 101.1976
106.0227, 101.9036
106.5048, 102.3922
106.9869, 102.7386
107.4691, 102.6435
107.9512, 101.7083
108.4333, 100.2288
108.9154, 98.93026
109.3975, 98.50198
109.8796, 99.10041
110.3618, 99.51768
110.8439, 99.70602
111.3260, 99.75735
111.8081, 99.61246
112.2902, 99.31306
112.7723, 99.02162
113.2544, 98.98927
113.7366, 99.51624
114.2187, 99.73401
114.7008, 99.33389
115.1829, 98.80363
115.6650, 98.59061
116.1471, 98.85448
116.6293, 99.43028
117.1114, 99.95872
117.5935, 100.4221
118.0756, 100.8761
118.5577, 101.4675
119.0398, 102.0714
119.5220, 102.3394
120.0041, 101.9563
120.4862, 101.2695
120.9683, 101.0591
121.4504, 101.4892
121.9325, 102.0990
122.4147, 102.5186
122.8968, 102.7281
123.3789, 102.9822
123.8610, 103.4556
124.3431, 104.0263
124.8252, 104.6284
125.3074, 105.3214
125.7895, 105.9372
126.2716, 106.0420
126.7537, 105.2084
127.2358, 104.6256
127.7179, 104.8606
128.2001, 105.4845
128.6822, 105.9074
129.1643, 105.7121
129.6464, 104.9711
130.1285, 104.6236
130.6107, 104.9856
131.0928, 105.4742
131.5749, 106.1436
132.0570, 106.8527
132.5391, 107.3171
133.0212, 107.2207
133.5034, 106.3948
133.9855, 106.2416
134.4676, 107.1533
134.9497, 108.2695
135.4318, 109.1762
135.9139, 109.8096
136.3960, 110.2751
136.8782, 110.6565
137.3603, 110.9299
137.8424, 111.2517
138.3245, 111.6061
138.8066, 112.0217
139.2887, 112.5443
139.7709, 113.1928
140.2530, 113.9039
140.7351, 114.6232
141.2172, 115.3465
141.6993, 116.0356
142.1814, 116.6680
142.6636, 117.2467
143.1457, 117.7579
143.6278, 118.0409
144.1099, 118.4487
144.5920, 119.3131
145.0741, 120.6266
145.5563, 122.0311
146.0384, 123.2187
146.5205, 124.1639
147.0026, 125.0942
147.4847, 126.1625
147.9668, 127.1513
148.4490, 127.8449
148.9311, 128.2210
149.4132, 128.5564
149.8953, 129.2410
150.3774, 130.2844
150.8595, 131.7395
151.3417, 133.9257
151.8238, 136.2555
152.3059, 138.1924
152.7880, 139.5364
153.2701, 140.5881
153.7522, 142.0875
154.2344, 144.7329
154.7165, 147.0454
155.1986, 148.7371
155.6807, 150.1353
156.1628, 151.6352
156.6449, 153.4249
157.1271, 155.4623
157.6092, 157.5933
158.0913, 159.6527
158.5734, 161.9702
159.0555, 164.7427
159.5376, 167.8586
160.0198, 171.0223
160.5019, 174.0539
160.9840, 177.0306
161.4661, 180.1652
161.9482, 183.3809
162.4303, 186.8183
162.9125, 190.6973
163.3946, 194.9956
163.8767, 199.1763
164.3588, 202.6492
164.8409, 205.8639
165.3230, 209.6467
165.8052, 214.4145
166.2873, 219.5345
166.7694, 224.0544
167.2515, 227.8159
167.7336, 231.5750
168.2157, 235.9303
168.6979, 240.4530
169.1800, 244.6242
169.6621, 248.1016
170.1442, 251.1773
170.6263, 254.7212
171.1084, 259.0436
171.5906, 263.3616
172.0727, 267.5660
172.5548, 271.5933
173.0369, 275.3571
173.5190, 278.7775
174.0011, 281.8911
174.4833, 284.9995
174.9654, 287.7591
175.4475, 290.9060
175.9296, 294.9252
176.4117, 299.4355
176.8938, 303.7797
177.3760, 307.4381
177.8581, 310.3883
178.3402, 313.5142
178.8223, 317.3563
179.3044, 320.8318
179.7865, 323.4998
180.2687, 325.4394
180.7508, 326.9391
181.2329, 328.1878
181.7150, 329.1602
182.1971, 330.2401
182.6792, 332.1042
183.1614, 333.5216
183.6435, 333.7050
184.1256, 332.6559
184.6077, 331.0205
185.0898, 329.5039
185.5719, 328.0421
186.0541, 325.1665
186.5362, 320.5623
187.0183, 314.6841
187.5004, 307.7644
187.9825, 299.7796
188.4646, 291.3139
188.9468, 282.9249
189.4289, 274.5134
189.9110, 265.3308
190.3931, 254.4589
190.8752, 242.9549
191.3573, 232.4012
191.8395, 223.0816
192.3216, 214.2410
192.8037, 205.3535
193.2858, 196.5105
193.7679, 187.8983
194.2500, 179.4790
194.7322, 171.3651
195.2143, 163.7330
195.6964, 156.4204
196.1785, 150.0210
196.6606, 144.8601
197.1427, 140.6646
197.6249, 136.9135
198.1070, 133.4454
198.5891, 130.2071
199.0712, 126.6043
199.5533, 121.8523
200.0354, 117.6322
200.5176, 114.8634
200.9997, 113.1481
201.4818, 111.5654
201.9639, 109.3421
202.4460, 106.4486
202.9281, 104.0709
203.4103, 102.7484
203.8924, 101.5032
204.3745, 100.0468
204.8566, 98.41879
205.3387, 96.81989
205.8208, 95.40550
206.3030, 94.16438
206.7851, 93.18914
207.2672, 92.72118
207.7493, 92.26144
208.2314, 91.51469
208.7135, 90.57172
209.1957, 89.78194
209.6778, 89.49639
210.1599, 89.81580
210.6420, 89.85681
211.1241, 89.42860
211.6062, 88.94690
212.0884, 88.66332
212.5705, 88.55512
213.0526, 88.38232
213.5347, 87.87167
214.0168, 86.95975
214.4989, 86.53838
214.9811, 87.13148
215.4632, 87.76453
215.9453, 87.69720
216.4274, 86.92888
216.9095, 86.09944
217.3916, 85.76546
217.8737, 85.95056
218.3559, 86.04805
218.8380, 85.96713
219.3201, 85.84885
219.8022, 85.80794
220.2843, 85.85326
220.7664, 85.94839
221.2486, 86.10157
221.7307, 86.28847
222.2128, 86.39966
222.6949, 86.27864
223.1770, 86.14767
223.6591, 86.29839
224.1413, 86.77315
224.6234, 87.28441
225.1055, 87.67947
225.5876, 87.95853
226.0697, 88.08993
226.5518, 87.98891
227.0340, 87.77326
227.5161, 87.59779
227.9982, 87.45518
228.4803, 87.37928
228.9624, 87.51478
229.4445, 87.70159
229.9267, 87.67765
230.4088, 87.15742
230.8909, 86.53161
231.3730, 86.67045
231.8551, 87.94344
232.3372, 89.04402
232.8194, 89.29180
233.3015, 89.12811
233.7836, 89.04498
234.2657, 89.25076
234.7478, 89.64252
235.2299, 90.00698
235.7121, 90.38064
236.1942, 90.64635
236.6763, 90.67863
237.1584, 90.64045
237.6405, 90.67948
238.1227, 90.84875
238.6048, 91.17182
239.0869, 91.74854
239.5690, 92.84484
240.0511, 93.72505
240.5332, 94.06331
241.0154, 94.23402
241.4975, 94.61035
241.9796, 95.35271
242.4617, 96.33114
242.9438, 97.22635
243.4259, 98.08141
243.9081, 98.76570
244.3902, 99.10350
244.8723, 99.35926
245.3544, 99.78989
245.8365, 100.4960
246.3186, 101.3728
246.8008, 102.1953
247.2829, 102.9593
247.7650, 103.6575
248.2471, 104.2113
248.7292, 104.7430
249.2113, 105.3278
249.6935, 105.9994
250.1756, 106.8003
250.6577, 107.8174
251.1398, 109.1209
251.6219, 110.5684
252.1040, 112.2031
252.5862, 113.9388
253.0683, 115.7177
253.5504, 117.5108
254.0325, 119.3074
254.5146, 121.0841
254.9967, 122.7769
255.4789, 124.5660
255.9610, 126.2211
256.4431, 128.0879
256.9252, 130.5832
257.4073, 133.7825
257.8894, 137.2544
258.3716, 140.3913
258.8537, 142.8740
259.3358, 145.9399
259.8179, 150.0343
260.3000, 154.4561
260.7821, 158.4315
261.2643, 161.8765
261.7464, 165.5585
262.2285, 170.4084
262.7106, 176.7800
263.1927, 182.9546
263.6748, 188.4246
264.1570, 193.9808
264.6391, 200.3361
265.1212, 207.5407
265.6033, 215.0457
266.0854, 222.3022
266.5675, 229.2837
267.0497, 236.3457
267.5318, 243.5781
268.0139, 250.8010
268.4960, 257.8156
268.9781, 264.6113
269.4602, 271.4564
269.9424, 278.5749
270.4245, 285.9282
270.9066, 293.2070
271.3887, 299.8600
271.8708, 306.8773
272.3529, 315.2809
272.8351, 324.9780
273.3172, 334.5694
273.7993, 343.1774
274.2814, 351.0800
274.7635, 359.3408
275.2456, 368.0583
275.7278, 376.9990
276.2099, 386.0472
276.6920, 395.1944
277.1741, 404.3415
277.6562, 413.2171
278.1383, 422.2160
278.6205, 432.0052
279.1026, 443.1786
279.5847, 454.0627
280.0668, 463.3026
280.5489, 471.1871
281.0310, 479.3002
281.5132, 488.6144
281.9953, 497.9317
282.4774, 505.7621
282.9595, 512.0742
283.4416, 517.1918
283.9237, 521.4422
284.4059, 524.6949
284.8880, 526.4280
285.3701, 526.4927
285.8522, 524.8295
286.3343, 521.6611
286.8164, 517.0455
287.2986, 511.0504
287.7807, 503.6158
288.2628, 494.8002
288.7449, 484.7960
289.2270, 473.3534
289.7091, 461.1035
290.1913, 448.4085
290.6734, 435.3535
291.1555, 421.8130
291.6376, 407.4853
292.1197, 392.7535
292.6018, 378.2191
293.0840, 363.8927
293.5661, 350.0322
294.0482, 336.8699
294.5303, 324.2933
295.0124, 311.9630
295.4945, 299.7739
295.9767, 287.8627
296.4588, 276.3896
296.9409, 265.2394
297.4230, 254.9144
297.9051, 245.8473
298.3872, 237.6140
298.8694, 229.8328
299.3515, 222.4517
299.8336, 215.3738
300.3157, 208.3093
300.7978, 201.1113
301.2799, 194.5816
301.7621, 189.3781
302.2442, 184.8147
302.7263, 180.2961
303.2084, 175.6889
303.6905, 171.2640
304.1726, 167.3571
304.6548, 164.0003
305.1369, 160.5786
305.6190, 156.7637
306.1011, 152.9684
306.5832, 149.4768
307.0653, 146.3123
307.5475, 143.4382
308.0296, 140.9270
308.5117, 138.7522
308.9938, 136.5101
309.4759, 134.0417
309.9580, 131.6437
310.4402, 129.4939
310.9223, 127.5766
311.4044, 125.8157
311.8865, 124.3165
312.3686, 122.9807
312.8507, 121.2576
313.3329, 118.7547
313.8150, 116.5505
314.2971, 115.3149
314.7792, 114.7193
315.2613, 114.1830
315.7434, 113.5072
316.2256, 112.6810
316.7077, 111.6188
317.1898, 110.1786
317.6719, 108.8735
318.1540, 108.0079
318.6361, 107.3599
319.1183, 106.7220
319.6004, 106.0429
320.0825, 105.3174
320.5646, 104.5049
321.0467, 103.5801
321.5288, 102.7331
322.0110, 102.2016
322.4931, 101.6597
322.9752, 100.7682
323.4573, 99.46864
323.9394, 98.20175
324.4215, 97.41761
324.9037, 97.11073
325.3858, 96.80607
325.8679, 96.42573
326.3500, 96.02548
326.8321, 95.64217
327.3142, 95.27530
327.7964, 94.91716
328.2785, 94.58170
328.7606, 94.25683
329.2427, 93.89417
329.7248, 93.54001
330.2069, 93.05598
330.6891, 92.21498
331.1712, 91.19853
331.6533, 90.40223
332.1354, 90.12758
332.6175, 90.12196
333.0996, 89.85218
333.5818, 89.23682
334.0639, 88.61491
334.5460, 88.08948
335.0281, 87.67709
335.5102, 87.45325
335.9923, 87.50509
336.4745, 87.58984
336.9566, 87.39302
337.4387, 86.89783
337.9208, 86.41166
338.4029, 85.95907
338.8850, 85.62287
339.3671, 85.54549
339.8492, 85.75923
340.3314, 85.92410
340.8135, 85.78848
341.2956, 85.37918
341.7777, 84.83793
342.2598, 84.06758
342.7419, 83.35010
343.2241, 82.92287
343.7062, 82.74882
344.1883, 82.67535
344.6704, 82.68851
345.1525, 82.74233
345.6346, 82.75867
346.1168, 82.75735
346.5989, 82.64199
347.0810, 82.24194
347.5631, 81.68656
348.0452, 81.18023
348.5273, 80.68050
349.0095, 80.33629
349.4916, 80.46347
349.9737, 81.07662
350.4558, 81.47403
350.9379, 81.24594
351.4200, 80.64138
351.9022, 80.08507
352.3843, 79.60114
352.8664, 79.15483
353.3485, 78.65182
353.8306, 78.15015
354.3127, 77.91858
354.7949, 78.12582
355.2770, 78.47208
355.7591, 78.52152
356.2412, 78.27767
356.7233, 78.18279
357.2054, 78.55278
357.6876, 79.11980
358.1697, 79.45712
358.6518, 79.49761
359.1339, 79.40466
359.6160, 79.33108
360.0981, 79.24606
360.5803, 78.99052
361.0624, 78.22996
361.5445, 77.52975
362.0266, 77.50607
362.5087, 78.07210
362.9908, 78.50279
363.4730, 78.37595
363.9551, 77.83649
364.4372, 77.34988
364.9193, 76.81404
365.4014, 76.48742
365.8835, 76.59721
366.3657, 76.98074
366.8478, 77.37112
367.3299, 77.71696
367.8120, 77.88091
368.2941, 77.52945
368.7762, 76.47438
369.2584, 75.77023
369.7405, 75.77295
370.2226, 76.06850
370.7047, 76.27788
371.1868, 76.34968
371.6689, 76.40858
372.1511, 76.57931
372.6332, 76.86830
373.1153, 77.05063
373.5974, 77.20222
374.0795, 77.19006
374.5616, 76.72575
375.0438, 76.03271
375.5259, 75.71711
376.0080, 76.16424
376.4901, 77.09779
376.9722, 77.53203
377.4543, 77.03226
377.9365, 76.60365
378.4186, 76.39114
378.9007, 76.27868
379.3828, 76.09932
379.8649, 75.81837
380.3470, 75.60117
380.8292, 75.69495
381.3113, 76.23876
381.7934, 76.69547
382.2755, 77.22746
382.7576, 77.54942
383.2397, 77.31119
383.7219, 76.67222
384.2040, 76.17139
384.6861, 76.26894
385.1682, 76.91065
385.6503, 77.22249
386.1324, 76.87254
386.6146, 76.54316
387.0967, 76.36980
387.5788, 76.27639
388.0609, 76.11610
388.5430, 75.82911
389.0251, 75.55580
389.5073, 75.63853
389.9894, 76.44875
390.4715, 76.81937
390.9536, 76.33937
391.4357, 75.73547
391.9178, 75.42039
392.4000, 75.45316
392.8821, 75.70605
393.3642, 76.16075
393.8463, 76.83579
394.3284, 77.05150
394.8105, 76.26604
395.2927, 75.63674
395.7748, 75.59773
396.2569, 75.96579
396.7390, 76.46523
397.2211, 77.02163
397.7032, 77.49567
398.1854, 77.52019
398.6675, 76.94348
399.1496, 76.37698
399.6317, 75.91618
400.1138, 75.57557
400.5959, 75.42600
401.0781, 75.47389
401.5602, 75.53731
402.0423, 75.48210
402.5244, 75.30787
403.0065, 74.96085
403.4886, 74.24203
403.9708, 73.64009
404.4529, 73.49718
404.9350, 73.72381
405.4171, 74.09158
405.8992, 74.71368
406.3813, 75.31252
406.8635, 75.40787
407.3456, 74.95907
407.8277, 74.36222
408.3098, 73.66985
408.7919, 73.01218
409.2740, 72.61581
409.7562, 72.57032
410.2383, 72.57940
410.7204, 72.49632
411.2025, 72.32761
411.6846, 72.06603
412.1667, 71.67561
412.6489, 71.28699
413.1310, 71.09090
413.6131, 71.07925
414.0952, 71.02945
414.5773, 70.84776
415.0594, 70.64927
415.5416, 70.57908
416.0237, 70.62278
416.5058, 70.58991
416.9879, 70.31483
417.4700, 69.87289
417.9521, 69.67760
418.4343, 70.00784
418.9164, 70.20742
419.3985, 70.01368
419.8806, 69.60547
420.3627, 69.22033
420.8448, 68.93472
421.3270, 68.74036
421.8091, 68.63560
422.2912, 68.67397
422.7733, 68.64925
423.2554, 68.36484
423.7375, 68.19033
424.2197, 68.48539
424.7018, 69.11545
425.1839, 69.62561
425.6660, 69.67971
426.1481, 69.34134
426.6302, 69.03526
427.1124, 68.64822
427.5945, 68.45356
428.0766, 68.64790
428.5587, 68.96445
429.0408, 69.17673
429.5229, 69.20435
430.0051, 69.04490
430.4872, 68.62241
430.9693, 67.81915
431.4514, 67.25555
431.9335, 67.07381
432.4156, 67.03477
432.8978, 67.07661
433.3799, 67.18831
433.8620, 67.37082
434.3441, 67.63672
434.8262, 67.96292
435.3083, 68.29044
435.7905, 68.63027
436.2726, 68.93713
436.7547, 69.31954
437.2368, 69.59541
437.7189, 69.51543
438.2010, 69.01067
438.6832, 68.48447
439.1653, 68.31343
439.6474, 68.43315
440.1295, 68.47739
440.6116, 68.33595
441.0938, 68.21827
441.5759, 68.31855
442.0580, 68.58743
442.5401, 68.90053
443.0222, 69.34344
443.5043, 69.73146
443.9865, 69.80298
444.4686, 69.59727
444.9507, 69.48479
445.4328, 69.67380
445.9149, 70.02654
446.3970, 70.21088
446.8792, 70.15295
447.3613, 70.16862
447.8434, 70.45550
448.3255, 70.81081
448.8076, 70.95947
449.2897, 70.86357
449.7719, 70.71803
450.2540, 70.72199
450.7361, 70.88876
451.2182, 70.88213
451.7003, 70.30069
452.1824, 70.00735
452.6646, 70.57131
453.1467, 71.58060
453.6288, 72.31594
454.1109, 72.46289
454.5930, 72.29439
455.0751, 72.36547
455.5573, 72.87432
456.0394, 73.23666
456.5215, 73.30211
457.0036, 73.37272
457.4857, 73.72836
457.9678, 74.27601
458.4500, 74.65789
458.9321, 74.55481
459.4142, 74.07115
459.8963, 73.81538
460.3784, 73.81374
460.8605, 74.01233
461.3427, 74.58281
461.8248, 75.22073
462.3069, 75.61152
462.7890, 75.67717
463.2711, 75.62896
463.7532, 75.67693
464.2354, 75.81342
464.7175, 75.91434
465.1996, 75.91917
465.6817, 75.96383
466.1638, 76.18430
466.6459, 76.51723
467.1281, 76.80277
467.6102, 76.93899
468.0923, 77.04819
468.5744, 77.20889
469.0565, 77.43396
469.5386, 77.88897
470.0208, 78.76238
470.5029, 79.74161
470.9850, 80.24924
471.4671, 80.25636
471.9492, 80.14755
472.4313, 79.77625
472.9135, 79.47786
473.3956, 79.72290
473.8777, 80.49690
474.3598, 81.28762
474.8419, 81.69096
475.3240, 81.75793
475.8062, 81.98214
476.2883, 82.54443
476.7704, 83.02190
477.2525, 83.32027
477.7346, 83.49244
478.2167, 83.56651
478.6989, 83.56460
479.1810, 83.55928
479.6631, 83.63114
480.1452, 83.76518
480.6273, 84.05551
481.1094, 84.79005
481.5916, 85.38258
482.0737, 85.57202
482.5558, 85.49667
483.0379, 85.38675
483.5200, 85.33972
484.0021, 85.37737
484.4843, 85.57447
484.9664, 85.98112
485.4485, 86.31712
485.9306, 86.45191
486.4127, 86.56474
486.8948, 86.71169
487.3770, 86.92257
487.8591, 87.30806
488.3412, 88.12065
488.8233, 89.09120
489.3054, 89.69716
489.7875, 89.91728
490.2697, 89.88982
490.7518, 89.45077
491.2339, 88.93990
491.7160, 89.07310
492.1981, 90.13844
492.6802, 91.00047
493.1624, 90.95362
493.6445, 90.48846
494.1266, 90.35194
494.6087, 90.66691
495.0908, 91.09588
495.5729, 91.34547
496.0551, 91.41729
496.5372, 91.55999
497.0193, 91.84802
497.5014, 92.10875
497.9835, 92.29935
498.4656, 92.42805
498.9478, 92.47932
499.4299, 92.45631
499.9120, 92.45185
500.3941, 92.65562
500.8762, 93.24004
501.3583, 93.34246
501.8405, 92.25670
502.3226, 91.40695
502.8047, 91.41010
503.2868, 92.00497
503.7689, 92.74569
504.2510, 93.47241
504.7331, 94.00508
505.2152, 93.88468
505.6974, 92.96272
506.1795, 92.32092
506.6616, 92.43409
507.1437, 92.65675
507.6258, 92.41122
508.1079, 91.79427
508.5901, 91.39213
509.0722, 91.60290
509.5543, 92.13539
510.0364, 92.62247
510.5185, 93.05869
511.0006, 93.37952
511.4828, 93.52969
511.9649, 93.56399
512.4470, 93.62139
512.9291, 93.76558
513.4113, 93.72898
513.8934, 93.30985
514.3755, 92.75655
514.8576, 92.27402
515.3397, 91.90394
515.8218, 91.69736
516.3040, 91.71162
516.7861, 91.91114
517.2682, 92.03842
517.7503, 92.24995
518.2324, 92.18071
518.7145, 91.56646
519.1967, 90.79353
519.6788, 90.21401
520.1609, 89.88929
520.6430, 89.66442
521.1251, 89.38448
521.6072, 89.05149
522.0894, 88.78174
522.5715, 88.52290
523.0536, 88.42005
523.5357, 88.80042
524.0178, 89.21778
524.4999, 89.04618
524.9821, 88.07647
525.4642, 87.05994
525.9463, 86.79273
526.4284, 87.09494
526.9105, 87.12890
527.3926, 86.73588
527.8748, 86.20779
528.3569, 85.77037
528.8390, 85.38023
529.3211, 84.87385
529.8032, 84.00549
530.2853, 83.28220
530.7675, 83.17326
531.2496, 83.37447
531.7317, 83.22332
532.2138, 82.52107
532.6959, 81.70815
533.1780, 81.33549
533.6602, 81.48198
534.1423, 81.58709
534.6244, 81.73686
535.1065, 81.76075
535.5886, 81.56511
536.0707, 81.21062
536.5529, 80.76689
537.0350, 80.26789
537.5171, 79.75737
537.9992, 79.34995
538.4813, 79.10487
538.9634, 78.66420
539.4456, 77.99271
539.9277, 77.13182
540.4098, 75.75930
540.8919, 74.26721
541.3740, 73.48494
541.8561, 73.94579
542.3383, 74.79499
542.8204, 75.01162
543.3025, 74.64957
543.7846, 74.21557
544.2667, 73.81402
544.7488, 73.41408
545.2310, 72.93687
545.7131, 72.39905
546.1952, 71.99937
546.6773, 71.84214
547.1594, 71.76482
547.6415, 71.68979
548.1237, 71.60933
548.6058, 71.55516
549.0879, 71.54815
549.5700, 71.44552
550.0521, 70.97356
550.5342, 69.91409
551.0164, 69.16409
551.4985, 68.89391
551.9806, 68.71335
552.4627, 68.48003
552.9448, 68.20267
553.4269, 67.91732
553.9091, 67.63811
554.3912, 67.38796
554.8733, 67.26118
555.3554, 67.30746
555.8375, 67.10514
556.3196, 66.32936
556.8018, 65.60793
557.2839, 65.46426
557.7660, 65.69073
558.2481, 65.69173
558.7302, 65.11328
559.2123, 64.39342
559.6945, 63.98588
560.1766, 63.83109
560.6587, 63.66536
561.1408, 63.40469
561.6229, 63.12555
562.1050, 62.95704
562.5872, 62.93959
563.0693, 62.68412
563.5514, 61.96090
564.0335, 61.22659
564.5156, 60.63266
564.9977, 60.21280
565.4799, 60.04824
565.9620, 60.16595
566.4441, 60.38479
566.9262, 60.43683
567.4083, 60.32808
567.8904, 60.02375
568.3726, 59.16032
568.8547, 58.47896
569.3368, 58.34037
569.8189, 58.52618
570.3010, 58.65767
570.7831, 58.58078
571.2653, 58.49323
571.7474, 58.75399
572.2295, 59.28329
572.7116, 59.37480
573.1937, 58.77436
573.6758, 58.07513
574.1580, 57.77909
574.6401, 57.79934
575.1222, 57.79578
575.6043, 57.80107
576.0864, 57.70378
576.5685, 57.36821
577.0507, 56.91734
577.5328, 56.53086
578.0149, 56.25910
578.4970, 56.11835
578.9791, 56.15699
579.4612, 56.38971
579.9434, 56.43341
580.4255, 56.10762
580.9076, 55.80035
581.3897, 55.58772
581.8718, 55.42392
582.3539, 55.24403
582.8361, 55.03775
583.3182, 54.86860
583.8003, 54.91241
584.2824, 55.09751
584.7645, 54.80644
585.2466, 53.81644
585.7288, 52.97772
586.2108, 52.78065
586.6929, 52.95707
587.1750, 53.16795
587.6572, 53.42191
588.1393, 53.56921
588.6214, 53.44908
