##NAMES=Siderite
##RRUFFID=R040034
##IDEAL CHEMISTRY=Fe^2+^CO_3_
##LOCALITY=Pribram, Czech Republic
##OWNER=RRUFF
##SOURCE=University of Arizona Mineral Museum
##DESCRIPTION=Group of tan colored flattened rhombohedra
##STATUS=The identification of this mineral has been confirmed by X-ray diffraction and chemical analysis
##URL=rruff.info/R040034
##MEASURED CHEMISTRY=(Fe_0.72_Mg_0.24_Mn_0.03_Ca_0.01_)_Î£=1_C_1.00_O_3_; CO_2_ estimated by difference
122.9549, 185.7823
123.4371, 186.2501
123.9192, 186.6668
124.4013, 186.7150
124.8834, 185.7845
125.3655, 183.7844
125.8476, 182.3142
126.3298, 183.2137
126.8119, 186.7458
127.2940, 189.3566
127.7761, 188.9306
128.2582, 187.9017
128.7404, 187.8444
129.2225, 189.1800
129.7046, 190.9159
130.1867, 191.1811
130.6688, 188.5999
131.1509, 187.1733
131.6331, 188.0147
132.1152, 189.7947
132.5973, 191.3050
133.0794, 191.9518
133.5615, 191.9607
134.0436, 192.2578
134.5258, 192.5655
135.0079, 193.5030
135.4900, 195.9919
135.9721, 199.1329
136.4542, 201.3794
136.9363, 201.6461
137.4184, 200.0543
137.9006, 198.8661
138.3827, 197.7730
138.8648, 197.2330
139.3469, 197.7962
139.8290, 199.3021
140.3111, 200.7639
140.7933, 201.2970
141.2754, 201.0189
141.7575, 201.1975
142.2396, 202.4335
142.7217, 203.8925
143.2038, 204.4374
143.6860, 203.7491
144.1681, 203.3058
144.6502, 204.8868
145.1323, 207.7041
145.6144, 210.0683
146.0965, 210.8524
146.5787, 210.6005
147.0608, 211.0677
147.5429, 212.6566
148.0250, 214.5739
148.5071, 216.4623
148.9892, 218.2802
149.4714, 219.9525
149.9535, 221.3705
150.4356, 222.5150
150.9177, 223.6595
151.3998, 224.6869
151.8819, 225.8060
152.3641, 227.1361
152.8462, 228.6619
153.3283, 230.2585
153.8104, 231.7049
154.2925, 232.6406
154.7746, 234.4944
155.2568, 237.7451
155.7389, 241.3616
156.2210, 244.8030
156.7031, 247.9115
157.1852, 250.7719
157.6673, 253.5005
158.1495, 255.9820
158.6316, 258.4907
159.1137, 261.0270
159.5958, 263.5956
160.0779, 266.0834
160.5600, 268.4458
161.0422, 270.9754
161.5243, 274.3826
162.0064, 278.9017
162.4885, 283.5735
162.9706, 288.0343
163.4527, 292.5132
163.9349, 297.5666
164.4170, 303.6133
164.8991, 310.0362
165.3812, 315.5753
165.8633, 319.8547
166.3454, 324.5151
166.8276, 330.9195
167.3097, 338.7950
167.7918, 346.2101
168.2739, 351.8550
168.7560, 357.0470
169.2381, 363.5130
169.7203, 371.7397
170.2024, 380.1251
170.6845, 386.7078
171.1666, 391.0165
171.6487, 396.1607
172.1308, 404.4460
172.6130, 413.4046
173.0951, 421.1662
173.5772, 427.1101
174.0593, 431.9522
174.5414, 436.8436
175.0235, 441.5102
175.5057, 446.8338
175.9878, 453.6076
176.4699, 460.7092
176.9520, 467.1086
177.4341, 472.2946
177.9162, 476.6448
178.3984, 481.3913
178.8805, 486.6208
179.3626, 492.2077
179.8447, 498.3828
180.3268, 504.8357
180.8089, 511.3713
181.2911, 517.8856
181.7732, 524.2531
182.2553, 529.7839
182.7374, 533.3276
183.2195, 537.3296
183.7016, 543.0325
184.1838, 549.4909
184.6659, 554.9291
185.1480, 558.1927
185.6301, 559.5082
186.1122, 561.1514
186.5943, 564.3771
187.0765, 566.6100
187.5586, 566.3791
188.0407, 564.1823
188.5228, 561.8821
189.0049, 561.0978
189.4870, 561.1368
189.9692, 558.2469
190.4513, 551.8397
190.9334, 543.2354
191.4155, 533.2770
191.8976, 521.9815
192.3797, 508.6764
192.8619, 492.2520
193.3440, 473.4580
193.8261, 454.8181
194.3082, 436.8664
194.7903, 419.0353
195.2724, 400.7344
195.7546, 381.9065
196.2367, 363.2322
196.7188, 344.8851
197.2009, 327.0282
197.6830, 309.9113
198.1651, 293.0401
198.6473, 277.3597
199.1294, 264.7154
199.6115, 256.0020
200.0936, 248.2839
200.5757, 240.2459
201.0578, 232.2227
201.5400, 224.5470
202.0221, 217.2564
202.5042, 210.5465
202.9863, 205.0523
203.4684, 201.7559
203.9505, 198.1527
204.4327, 192.5918
204.9148, 186.4380
205.3969, 181.6303
205.8790, 179.4062
206.3611, 179.2526
206.8432, 178.5144
207.3254, 176.7927
207.8075, 174.8849
208.2896, 172.7464
208.7717, 170.5889
209.2538, 168.7279
209.7359, 167.4175
210.2181, 166.5593
210.7002, 165.2847
211.1823, 162.8662
211.6644, 160.7690
212.1465, 159.3539
212.6286, 158.4560
213.1108, 157.7880
213.5929, 157.1799
214.0750, 156.6206
214.5571, 155.9604
215.0392, 154.8116
215.5213, 153.9709
216.0035, 153.8418
216.4856, 154.2096
216.9677, 154.6300
217.4498, 154.8384
217.9319, 154.8315
218.4140, 154.5540
218.8961, 154.0149
219.3783, 153.2750
219.8604, 151.9930
220.3425, 150.4505
220.8246, 149.5166
221.3067, 149.8960
221.7888, 151.3523
222.2710, 152.0937
222.7531, 151.5355
223.2352, 150.9117
223.7173, 150.8025
224.1994, 151.1612
224.6815, 151.7247
225.1637, 152.4057
225.6458, 153.1548
226.1279, 153.7996
226.6100, 154.5322
227.0921, 154.9809
227.5742, 154.7005
228.0564, 153.7661
228.5385, 152.9502
229.0206, 152.7239
229.5027, 152.8892
229.9848, 152.9639
230.4669, 152.8642
230.9491, 152.7458
231.4312, 152.7480
231.9133, 152.8713
232.3954, 152.9975
232.8775, 152.9195
233.3596, 152.9019
233.8418, 153.3825
234.3239, 154.6725
234.8060, 155.9465
235.2881, 156.0416
235.7702, 154.7693
236.2523, 154.1049
236.7345, 155.5335
237.2166, 157.5754
237.6987, 158.9492
238.1808, 159.3477
238.6629, 159.2734
239.1451, 159.2799
239.6272, 159.3820
240.1093, 159.4870
240.5914, 159.7793
241.0735, 159.9406
241.5556, 159.4765
242.0378, 158.2434
242.5199, 157.1692
243.0020, 157.7143
243.4841, 160.4604
243.9662, 162.6569
244.4483, 163.2940
244.9305, 163.5615
245.4126, 164.2812
245.8947, 165.6128
246.3768, 167.0227
246.8589, 167.7678
247.3410, 167.6694
247.8232, 167.4391
248.3053, 166.5974
248.7874, 166.0335
249.2695, 166.5027
249.7516, 168.0449
250.2337, 169.9172
250.7159, 171.0980
251.1980, 171.2575
251.6801, 171.6134
252.1622, 172.0960
252.6443, 172.8203
253.1264, 174.0759
253.6086, 175.7785
254.0907, 177.4077
254.5728, 178.2070
255.0549, 177.6667
255.5370, 177.8825
256.0191, 179.1570
256.5013, 180.7927
256.9834, 182.3621
257.4655, 183.8676
257.9476, 185.6686
258.4297, 188.2928
258.9118, 192.2611
259.3940, 194.8684
259.8761, 194.5716
260.3582, 194.5250
260.8403, 196.7738
261.3224, 201.0300
261.8045, 205.3741
262.2867, 207.8619
262.7688, 207.9892
263.2509, 209.7303
263.7330, 213.6595
264.2151, 218.2538
264.6972, 222.8927
265.1794, 227.5553
265.6615, 232.6737
266.1436, 238.7187
266.6257, 245.8055
267.1078, 251.3643
267.5899, 254.0375
268.0721, 256.9190
268.5542, 261.2520
269.0363, 266.9099
269.5184, 273.3082
270.0005, 280.0373
270.4826, 287.1301
270.9648, 294.6952
271.4469, 303.1370
271.9290, 311.5120
272.4111, 319.0621
272.8932, 326.2220
273.3753, 334.1918
273.8575, 343.7416
274.3396, 354.5262
274.8217, 364.7836
275.3038, 374.7226
275.7859, 384.0476
276.2680, 391.9958
276.7502, 399.2579
277.2323, 407.4102
277.7144, 417.2657
278.1965, 428.2953
278.6786, 438.9947
279.1607, 448.9579
279.6429, 459.2859
280.1250, 470.6097
280.6071, 482.5095
281.0892, 494.0316
281.5713, 504.7896
282.0534, 515.3690
282.5356, 527.1637
283.0177, 540.5599
283.4998, 553.5490
283.9819, 565.1627
284.4640, 576.1513
284.9461, 587.7324
285.4283, 600.2906
285.9104, 613.1768
286.3925, 625.6066
286.8746, 637.6098
287.3567, 649.2627
287.8388, 661.5400
288.3210, 673.1622
288.8031, 681.6829
289.2852, 686.4523
289.7673, 690.8174
290.2494, 699.2197
290.7315, 711.3841
291.2137, 720.7716
291.6958, 725.4845
292.1779, 727.4871
292.6600, 729.1758
293.1421, 730.8274
293.6242, 730.3806
294.1064, 725.6533
294.5885, 717.0516
295.0706, 707.5974
295.5527, 697.9844
296.0348, 687.3246
296.5169, 674.7006
296.9991, 660.1586
297.4812, 644.5192
297.9633, 628.2289
298.4454, 611.1749
298.9275, 593.3829
299.4096, 574.5421
299.8918, 555.3046
300.3739, 536.1210
300.8560, 516.9180
301.3381, 497.3911
301.8202, 476.8059
302.3023, 456.2698
302.7845, 437.3769
303.2666, 420.4738
303.7487, 404.6281
304.2308, 389.6230
304.7129, 375.3930
305.1950, 361.4659
305.6772, 347.3971
306.1593, 334.0497
306.6414, 322.7516
307.1235, 313.5609
307.6056, 304.7259
308.0877, 295.0293
308.5699, 285.1308
309.0520, 276.6693
309.5341, 270.2711
310.0162, 264.6408
310.4983, 258.2979
310.9804, 251.3416
311.4626, 244.8450
311.9447, 239.2597
312.4268, 234.3032
312.9089, 229.5288
313.3910, 224.8595
313.8731, 220.3929
314.3553, 216.0158
314.8374, 211.8644
315.3195, 208.4421
315.8016, 206.6300
316.2837, 205.1334
316.7658, 202.2817
317.2480, 197.9996
317.7301, 194.0889
318.2122, 191.9745
318.6943, 190.9229
319.1764, 189.0798
319.6585, 185.7065
320.1407, 182.2769
320.6228, 179.9657
321.1049, 178.6597
321.5870, 177.5430
322.0691, 176.4671
322.5512, 175.2204
323.0334, 173.3482
323.5155, 170.5537
323.9976, 168.1182
324.4797, 166.9445
324.9618, 166.7031
325.4439, 166.4515
325.9261, 166.0063
326.4082, 165.3194
326.8903, 164.3380
327.3724, 163.0999
327.8545, 161.5200
328.3366, 159.0974
328.8188, 156.4467
329.3009, 154.5299
329.7830, 153.4925
330.2651, 153.2065
330.7472, 154.1680
331.2293, 156.0387
331.7115, 156.8143
332.1936, 155.1615
332.6757, 152.8141
333.1578, 151.7610
333.6399, 152.0918
334.1220, 152.2689
334.6042, 151.1339
335.0863, 149.0312
335.5684, 147.4293
336.0505, 146.5147
336.5326, 145.9611
337.0147, 145.6774
337.4969, 145.6134
337.9790, 145.5649
338.4611, 145.4976
338.9432, 145.3245
339.4253, 144.8288
339.9074, 143.8774
340.3896, 142.9973
340.8717, 142.4673
341.3538, 142.1440
341.8359, 141.7733
342.3180, 141.3053
342.8001, 140.6801
343.2822, 139.6032
343.7643, 137.9556
344.2465, 136.9859
344.7286, 137.4416
345.2107, 138.4296
345.6928, 139.0645
346.1749, 139.2196
346.6570, 138.9698
347.1392, 138.3821
347.6213, 137.4031
348.1034, 136.0504
348.5855, 133.2190
349.0676, 130.9307
349.5497, 130.8764
350.0319, 132.7090
350.5140, 134.7265
350.9961, 136.0876
351.4782, 136.7399
351.9603, 136.4731
352.4424, 134.7542
352.9246, 132.9445
353.4067, 131.1010
353.8888, 129.4929
354.3709, 128.7719
354.8530, 129.2587
355.3351, 130.2921
355.8173, 130.5768
356.2994, 129.6299
356.7815, 129.0681
357.2636, 129.5450
357.7457, 130.1816
358.2278, 129.8888
358.7100, 128.5626
359.1921, 127.3008
359.6742, 127.4520
360.1563, 129.4428
360.6384, 130.1394
361.1205, 128.4119
361.6027, 126.5564
362.0848, 126.0713
362.5669, 126.6106
363.0490, 126.7202
363.5311, 125.3015
364.0132, 122.6467
364.4954, 121.1929
364.9775, 121.8902
365.4596, 122.5809
365.9417, 122.9599
366.4238, 123.0510
366.9059, 122.9160
367.3881, 122.5790
367.8702, 122.0302
368.3523, 121.1857
368.8344, 119.1312
369.3165, 118.3660
369.7986, 120.2198
370.2808, 122.3263
370.7629, 122.7144
371.2450, 121.2703
371.7271, 119.4131
372.2092, 118.7203
372.6913, 119.4340
373.1735, 119.7243
373.6556, 119.5138
374.1377, 118.9884
374.6198, 117.8778
375.1019, 116.5076
375.5840, 115.5085
376.0662, 115.2996
376.5483, 115.7445
377.0304, 116.2315
377.5125, 117.0667
377.9946, 117.4668
378.4767, 116.9632
378.9589, 116.1707
379.4410, 115.7042
379.9231, 115.7643
380.4052, 116.1016
380.8873, 116.4650
381.3694, 117.0807
381.8516, 116.9480
382.3337, 115.2290
382.8158, 113.3698
383.2979, 111.8919
383.7800, 110.9245
384.2621, 110.5729
384.7443, 111.2728
385.2264, 112.8695
385.7085, 113.3574
386.1906, 111.9231
386.6727, 110.5116
387.1548, 109.9216
387.6370, 109.8470
388.1191, 109.8876
388.6012, 109.9634
389.0833, 109.8804
389.5654, 109.0520
390.0475, 107.1628
390.5297, 105.9800
391.0118, 106.7193
391.4939, 108.0263
391.9760, 108.9298
392.4581, 109.2960
392.9402, 109.3254
393.4224, 109.0201
393.9045, 108.4532
394.3866, 108.1371
394.8687, 108.3568
395.3508, 108.4725
395.8329, 107.6881
396.3151, 106.3214
396.7972, 105.4474
397.2793, 105.7291
397.7614, 106.6154
398.2435, 107.5491
398.7256, 108.5644
399.2078, 108.9397
399.6899, 107.7159
400.1720, 105.7832
400.6541, 105.1257
401.1362, 106.4645
401.6183, 107.8771
402.1005, 108.1497
402.5826, 107.6012
403.0647, 107.1215
403.5468, 106.9936
404.0289, 106.9842
404.5110, 106.8438
404.9932, 106.6245
405.4753, 105.9528
405.9574, 103.9013
406.4395, 101.8990
406.9216, 101.5954
407.4037, 103.0065
407.8859, 104.6725
408.3680, 105.4975
408.8501, 105.5389
409.3322, 105.6471
409.8143, 106.3203
410.2964, 106.5092
410.7786, 105.2918
411.2607, 103.4397
411.7428, 102.3442
412.2249, 102.5975
412.7070, 103.6255
413.1891, 104.3255
413.6713, 104.5851
414.1534, 104.6638
414.6355, 104.6834
415.1176, 104.4438
415.5997, 103.5010
416.0818, 102.0273
416.5640, 100.8356
417.0461, 100.6897
417.5282, 101.6008
418.0103, 102.5623
418.4924, 104.3382
418.9745, 105.3045
419.4567, 104.4267
419.9388, 102.7235
420.4209, 101.6353
420.9030, 101.8268
421.3851, 102.6761
421.8672, 102.8637
422.3494, 101.9991
422.8315, 101.4764
423.3136, 101.5081
423.7957, 101.8355
424.2778, 102.5375
424.7599, 103.4806
425.2421, 104.1605
425.7242, 103.9662
426.2063, 103.0253
426.6884, 102.6306
427.1705, 103.1169
427.6526, 103.6004
428.1348, 103.7225
428.6169, 103.5953
429.0990, 103.3566
429.5811, 103.0305
430.0632, 102.6665
430.5453, 102.2081
431.0275, 101.6449
431.5096, 101.5192
431.9917, 102.1838
432.4738, 103.1722
432.9559, 104.1143
433.4380, 105.0055
433.9202, 105.4590
434.4023, 104.9166
434.8844, 103.9245
435.3665, 103.5552
435.8486, 103.9717
436.3307, 104.3374
436.8129, 103.8327
437.2950, 102.7779
437.7771, 102.5172
438.2592, 103.9564
438.7413, 105.2575
439.2234, 105.1777
439.7056, 104.2018
440.1877, 103.5029
440.6698, 103.5183
441.1519, 103.9246
441.6340, 104.2104
442.1161, 104.3100
442.5983, 104.4813
443.0804, 104.8302
443.5625, 105.1846
444.0446, 105.3129
444.5267, 105.2830
445.0089, 105.5175
445.4910, 106.4385
445.9731, 107.8866
446.4552, 108.3147
446.9373, 105.9444
447.4194, 104.6883
447.9016, 106.0471
448.3837, 108.3790
448.8658, 109.8374
449.3479, 109.8773
449.8300, 109.2769
450.3121, 109.1500
450.7943, 109.6789
451.2764, 109.9965
451.7585, 109.7383
452.2406, 109.6092
452.7227, 110.1195
453.2048, 110.9756
453.6870, 111.4512
454.1691, 110.9943
454.6512, 110.0563
455.1333, 109.8744
455.6154, 110.7370
456.0975, 111.4955
456.5797, 111.6850
457.0618, 111.6875
457.5439, 111.8033
458.0260, 112.0722
458.5081, 112.2878
458.9902, 112.1267
459.4724, 111.7625
459.9545, 111.8840
460.4366, 112.6904
460.9187, 113.6336
461.4008, 114.3656
461.8829, 114.9182
462.3651, 115.3192
462.8472, 115.1994
463.3293, 115.3258
463.8114, 116.6712
464.2935, 118.8351
464.7756, 120.3039
465.2578, 120.4343
465.7399, 119.8523
466.2220, 119.5391
466.7041, 119.5064
467.1862, 119.6577
467.6683, 120.3194
468.1505, 120.9190
468.6326, 120.8313
469.1147, 120.1542
469.5968, 119.5310
470.0789, 119.4019
470.5610, 119.7236
471.0432, 120.2080
471.5253, 121.0814
472.0074, 121.8438
472.4895, 122.3156
472.9716, 122.7203
473.4537, 123.3713
473.9359, 124.2936
474.4180, 125.1233
474.9001, 125.2818
475.3822, 124.5968
475.8643, 124.6698
476.3464, 126.2723
476.8286, 127.8429
477.3107, 129.0271
477.7928, 129.8134
478.2749, 130.1509
478.7570, 129.9386
479.2391, 129.5615
479.7213, 129.7110
480.2034, 130.4628
480.6855, 131.0792
481.1676, 131.2064
481.6497, 131.3401
482.1318, 131.9772
482.6140, 133.0506
483.0961, 133.9807
483.5782, 134.3578
484.0603, 134.4816
484.5424, 134.9484
485.0245, 135.7955
485.5067, 136.2698
485.9888, 135.7172
486.4709, 134.6485
486.9530, 134.4370
487.4351, 135.4998
487.9172, 136.4407
488.3994, 136.5026
488.8815, 136.2867
489.3636, 136.8196
489.8457, 138.2401
490.3278, 139.4603
490.8099, 139.3334
491.2921, 137.7772
491.7742, 136.9546
492.2563, 136.9847
492.7384, 137.4740
493.2205, 138.7511
493.7026, 140.2664
494.1848, 141.2516
494.6669, 141.4253
495.1490, 141.1529
495.6311, 140.8938
496.1132, 140.4320
496.5953, 140.6974
497.0775, 142.9681
497.5596, 144.7592
498.0417, 144.6900
498.5238, 143.3793
499.0059, 142.2608
499.4880, 142.1069
499.9702, 142.5262
500.4523, 142.6486
500.9344, 142.3465
501.4165, 142.6235
501.8986, 144.6096
502.3807, 146.5186
502.8629, 146.4237
503.3450, 144.3849
503.8271, 142.6056
504.3092, 142.2793
504.7913, 142.7889
505.2734, 143.2629
505.7556, 143.6532
506.2377, 144.0856
506.7198, 144.8266
507.2019, 145.5462
507.6840, 145.1502
508.1661, 142.8202
508.6482, 141.0816
509.1303, 140.9778
509.6125, 141.6094
510.0946, 142.1307
510.5767, 142.3309
511.0588, 142.0874
511.5409, 141.1956
512.0231, 139.6624
512.5052, 138.6673
512.9873, 138.6323
513.4694, 138.6364
513.9515, 138.3368
514.4337, 138.0663
514.9158, 138.4496
515.3979, 139.5817
515.8800, 140.5703
516.3621, 140.0009
516.8442, 137.6365
517.3264, 136.2713
517.8085, 136.4288
518.2906, 136.9803
518.7727, 137.7059
519.2548, 138.3757
519.7369, 138.6160
520.2191, 138.2831
520.7012, 137.5306
521.1833, 136.3023
521.6654, 134.6941
522.1475, 133.4777
522.6296, 132.8952
523.1118, 132.6274
523.5939, 132.3955
524.0760, 132.1972
524.5581, 132.0318
525.0402, 132.0145
525.5223, 131.9287
526.0045, 131.6792
526.4866, 131.2372
526.9687, 130.4337
527.4508, 129.1532
527.9329, 127.7790
528.4150, 127.0761
528.8972, 127.5828
529.3793, 127.5104
529.8614, 126.5688
530.3435, 125.3609
530.8256, 123.9781
531.3077, 122.6130
531.7899, 121.6261
532.2720, 121.2578
532.7541, 121.2784
533.2362, 121.0869
533.7183, 120.5905
534.2004, 120.1421
534.6826, 120.1731
535.1647, 119.9645
535.6468, 118.9323
536.1289, 117.1977
536.6110, 115.4444
537.0931, 113.8710
537.5753, 112.6358
538.0574, 112.2780
538.5395, 112.8490
539.0216, 113.1217
539.5037, 112.4946
539.9858, 111.3680
540.4680, 110.2697
540.9501, 109.0615
541.4322, 108.5368
541.9143, 109.6951
542.3964, 111.1259
542.8785, 111.3519
543.3607, 110.4108
543.8428, 109.1771
544.3249, 108.1720
544.8070, 107.3610
545.2891, 106.6247
545.7712, 106.3591
546.2534, 105.5956
546.7355, 103.4926
547.2176, 101.5144
547.6997, 100.8364
548.1818, 101.4085
548.6639, 102.4774
549.1461, 103.6661
549.6282, 104.7366
550.1103, 104.5249
550.5924, 102.4960
551.0745, 100.5722
551.5566, 99.07437
552.0388, 98.07703
552.5209, 97.99541
553.0030, 98.79680
553.4851, 99.17619
553.9672, 97.86218
554.4493, 95.81886
554.9315, 94.85158
555.4136, 95.05602
555.8957, 95.45892
556.3778, 95.63220
556.8599, 95.57536
557.3420, 95.25075
557.8242, 94.58697
558.3063, 93.88627
558.7884, 93.10646
559.2705, 92.38457
559.7526, 91.88797
560.2347, 91.59532
560.7169, 91.36367
561.1990, 91.11748
561.6811, 90.80501
562.1632, 90.13567
562.6453, 88.53764
563.1274, 87.59071
563.6096, 88.11275
564.0917, 88.76045
564.5738, 88.43096
565.0559, 87.20123
565.5380, 86.04868
566.0201, 85.78383
566.5023, 86.03545
566.9844, 85.78838
567.4665, 84.96059
567.9486, 84.15635
568.4307, 83.58132
568.9128, 83.17200
569.3950, 82.87998
569.8771, 82.72591
570.3592, 82.43875
570.8413, 81.74370
571.3234, 80.99677
571.8055, 80.66450
572.2877, 80.67095
572.7698, 80.47804
573.2519, 79.73737
573.7340, 78.77605
574.2161, 78.45665
574.6982, 79.37752
575.1804, 79.90785
575.6625, 79.82936
576.1446, 79.57359
576.6267, 79.44774
577.1088, 79.37212
577.5909, 79.01906
578.0731, 78.13341
578.5552, 77.05586
579.0373, 76.66135
579.5194, 77.14076
580.0015, 77.22433
580.4836, 76.37122
580.9658, 75.34861
581.4479, 74.70844
581.9300, 74.40314
582.4121, 74.20377
582.8942, 74.15624
583.3763, 74.07478
583.8585, 73.66722
584.3406, 73.04900
584.8227, 72.72887
585.3048, 72.94070
585.7869, 73.20512
586.2690, 72.80179
586.7512, 71.49983
587.2333, 70.68383
587.7154, 70.57054
588.1975, 70.66817
588.6796, 71.04292
589.1617, 71.40681
589.6438, 71.22514
590.1259, 70.33125
590.6080, 69.29118
591.0901, 69.00070
591.5723, 69.56892
592.0544, 69.78777
592.5365, 69.32088
593.0186, 68.97674
593.5007, 69.57738
593.9828, 70.38499
594.4650, 70.12151
594.9471, 68.20033
595.4292, 66.29684
595.9113, 65.79610
596.3934, 66.24757
596.8755, 66.68948
597.3577, 66.98314
597.8398, 67.09870
598.3219, 66.95312
598.8040, 66.60664
599.2861, 66.47511
599.7682, 66.72491
600.2504, 66.93459
600.7325, 66.94927
601.2146, 66.95580
601.6967, 67.34481
602.1788, 67.98872
602.6609, 68.16163
603.1431, 67.18191
603.6252, 65.36743
604.1073, 64.12275
604.5894, 63.56348
605.0715, 63.27023
605.5536, 63.28688
606.0358, 63.43288
606.5179, 63.67955
607.0000, 63.98142
607.4821, 64.08724
607.9642, 63.83543
608.4464, 63.35035
608.9285, 62.57402
609.4106, 61.61739
609.8927, 61.13676
610.3748, 61.40043
610.8569, 62.21309
611.3391, 63.48304
611.8212, 65.65514
612.3033, 66.32536
612.7854, 64.11380
613.2675, 61.93296
613.7496, 61.24640
614.2318, 61.41510
614.7139, 61.17792
615.1960, 60.10040
615.6781, 58.98727
616.1602, 59.18420
616.6423, 60.78808
617.1245, 61.37434
617.6066, 60.30733
618.0887, 59.27277
