##NAMES=Siegenite
##RRUFFID=R050092
##IDEAL CHEMISTRY=Co^2+^Ni^3+^_2_S^2-^_4_
##LOCALITY=Bunker Hill mine, Jasper County, Missouri, USA
##OWNER=RRUFF
##SOURCE=Rock Currier
##DESCRIPTION=Silver metallic octahedra coating chalcopyrite
##STATUS=The identification of this mineral has been confirmed only by X-ray diffraction
##URL=rruff.info/R050092
147.9943, 639.5850
148.4765, 650.2534
148.9586, 664.6600
149.4407, 677.0357
149.9228, 689.0930
150.4049, 696.6786
150.8870, 696.5060
151.3692, 688.7057
151.8513, 686.5012
152.3334, 694.9594
152.8155, 706.3219
153.2976, 714.9368
153.7797, 714.5774
154.2619, 717.3920
154.7440, 727.3920
155.2261, 746.4172
155.7082, 761.4191
156.1903, 769.7161
156.6724, 773.6510
157.1546, 775.7701
157.6367, 774.4064
158.1188, 773.1352
158.6009, 772.8493
159.0830, 773.1494
159.5651, 775.8437
160.0473, 782.4113
160.5294, 791.6822
161.0115, 801.2588
161.4936, 814.7297
161.9757, 825.4926
162.4578, 829.1170
162.9400, 819.8985
163.4221, 811.7163
163.9042, 810.2040
164.3863, 814.1530
164.8684, 819.5384
165.3505, 827.0479
165.8327, 834.0076
166.3148, 838.0251
166.7969, 834.3686
167.2790, 831.7009
167.7611, 836.3209
168.2433, 847.3961
168.7254, 857.5116
169.2075, 860.9650
169.6896, 861.4929
170.1717, 863.4559
170.6538, 871.8128
171.1360, 880.0371
171.6181, 882.3817
172.1002, 878.6048
172.5823, 873.7291
173.0644, 870.4279
173.5465, 868.6222
174.0287, 868.0983
174.5108, 870.0011
174.9929, 872.5786
175.4750, 872.7811
175.9571, 869.6261
176.4392, 868.6953
176.9214, 879.2586
177.4035, 897.0647
177.8856, 910.4404
178.3677, 909.5435
178.8498, 901.0043
179.3319, 894.9958
179.8141, 892.8571
180.2962, 893.1378
180.7783, 894.5350
181.2604, 896.9592
181.7425, 900.0684
182.2246, 905.8672
182.7068, 912.1724
183.1889, 913.1526
183.6710, 905.5358
184.1531, 895.2716
184.6352, 893.2200
185.1173, 898.9408
185.5995, 904.6927
186.0816, 900.9574
186.5637, 891.2908
187.0458, 889.7527
187.5279, 904.0966
188.0100, 925.8615
188.4922, 933.4788
188.9743, 926.1909
189.4564, 916.9504
189.9385, 920.1663
190.4206, 933.9967
190.9027, 944.1567
191.3849, 945.1893
191.8670, 939.3354
192.3491, 934.8749
192.8312, 931.8987
193.3133, 929.6659
193.7954, 926.4596
194.2776, 922.3542
194.7597, 921.0780
195.2418, 926.0861
195.7239, 936.1351
196.2060, 939.8569
196.6881, 935.1141
197.1703, 929.3858
197.6524, 936.6184
198.1345, 957.8686
198.6166, 974.9162
199.0987, 977.8972
199.5808, 966.7975
200.0630, 956.0513
200.5451, 944.8807
201.0272, 935.6780
201.5093, 933.9753
201.9914, 941.1602
202.4735, 948.8964
202.9557, 952.4528
203.4378, 951.3223
203.9199, 952.5862
204.4020, 957.9406
204.8841, 964.7252
205.3662, 964.8369
205.8484, 955.8721
206.3305, 948.4323
206.8126, 950.4691
207.2947, 964.2498
207.7768, 973.1473
208.2589, 974.6127
208.7411, 970.5881
209.2232, 967.7599
209.7053, 966.3984
210.1874, 965.5714
210.6695, 963.9133
211.1517, 960.3624
211.6338, 961.2033
212.1159, 970.0245
212.5980, 984.2536
213.0801, 987.2021
213.5622, 974.2460
214.0444, 958.6642
214.5265, 951.2540
215.0086, 953.7421
215.4907, 958.9041
215.9728, 966.8804
216.4549, 977.2254
216.9371, 984.0945
217.4192, 987.3782
217.9013, 987.2434
218.3834, 983.0670
218.8655, 973.0489
219.3476, 963.7278
219.8298, 955.1078
220.3119, 947.1949
220.7940, 947.4526
221.2761, 959.9713
221.7582, 975.9747
222.2403, 986.0814
222.7225, 988.4101
223.2046, 988.5417
223.6867, 986.2960
224.1688, 980.9354
224.6509, 982.3495
225.1330, 994.6761
225.6152, 1009.928
226.0973, 1017.114
226.5794, 1012.149
227.0615, 1007.370
227.5436, 1006.329
228.0257, 1009.818
228.5079, 1012.247
228.9900, 1013.348
229.4721, 1013.615
229.9542, 1013.104
230.4363, 1009.060
230.9184, 1009.409
231.4006, 1018.861
231.8827, 1041.993
232.3648, 1054.012
232.8469, 1049.681
233.3290, 1037.400
233.8111, 1032.246
234.2933, 1039.740
234.7754, 1045.092
235.2575, 1041.871
235.7396, 1025.020
236.2217, 1016.486
236.7038, 1020.558
237.1860, 1030.934
237.6681, 1034.230
238.1502, 1024.181
238.6323, 1016.967
239.1144, 1019.674
239.5965, 1038.105
240.0787, 1050.686
240.5608, 1055.779
241.0429, 1055.621
241.5250, 1055.368
242.0071, 1056.563
242.4892, 1055.290
242.9714, 1048.918
243.4535, 1032.098
243.9356, 1022.611
244.4177, 1022.200
244.8998, 1028.687
245.3819, 1037.134
245.8641, 1050.775
246.3462, 1061.644
246.8283, 1065.304
247.3104, 1057.480
247.7925, 1052.776
248.2746, 1052.768
248.7568, 1055.692
249.2389, 1055.864
249.7210, 1049.451
250.2031, 1046.090
250.6852, 1051.683
251.1674, 1072.491
251.6495, 1087.186
252.1316, 1094.345
252.6137, 1095.091
253.0958, 1091.854
253.5779, 1081.035
254.0601, 1071.800
254.5422, 1069.439
255.0243, 1076.708
255.5064, 1084.013
255.9885, 1092.526
256.4706, 1100.540
256.9528, 1101.591
257.4349, 1091.326
257.9170, 1081.277
258.3991, 1077.296
258.8812, 1080.190
259.3633, 1088.153
259.8455, 1106.094
260.3276, 1128.199
260.8097, 1131.888
261.2918, 1108.372
261.7739, 1082.597
262.2560, 1068.278
262.7382, 1068.016
263.2203, 1071.986
263.7024, 1081.692
264.1845, 1094.700
264.6666, 1102.694
265.1487, 1104.401
265.6309, 1103.581
266.1130, 1102.903
266.5951, 1103.609
267.0772, 1098.864
267.5593, 1084.730
268.0414, 1065.941
268.5236, 1060.633
269.0057, 1073.657
269.4878, 1088.339
269.9699, 1093.911
270.4520, 1087.783
270.9341, 1084.398
271.4163, 1085.786
271.8984, 1090.247
272.3805, 1092.110
272.8626, 1090.310
273.3447, 1089.116
273.8268, 1091.388
274.3090, 1097.557
274.7911, 1104.510
275.2732, 1112.935
275.7553, 1121.202
276.2374, 1124.523
276.7195, 1122.387
277.2017, 1117.380
277.6838, 1109.831
278.1659, 1099.307
278.6480, 1091.571
279.1301, 1087.022
279.6122, 1085.664
280.0944, 1088.067
280.5765, 1094.697
281.0586, 1102.445
281.5407, 1111.129
282.0228, 1120.797
282.5049, 1123.469
282.9871, 1115.728
283.4692, 1104.116
283.9513, 1103.946
284.4334, 1116.120
284.9155, 1129.181
285.3976, 1136.803
285.8798, 1139.197
286.3619, 1138.429
286.8440, 1133.380
287.3261, 1127.440
287.8082, 1127.743
288.2903, 1134.343
288.7725, 1141.247
289.2546, 1144.544
289.7367, 1144.871
290.2188, 1146.254
290.7009, 1149.349
291.1830, 1152.884
291.6652, 1154.666
292.1473, 1154.801
292.6294, 1154.526
293.1115, 1153.647
293.5936, 1152.792
294.0757, 1154.650
294.5579, 1160.062
295.0400, 1166.337
295.5221, 1170.860
296.0042, 1173.449
296.4863, 1172.800
296.9684, 1162.520
297.4506, 1148.880
297.9327, 1148.930
298.4148, 1165.956
298.8969, 1187.220
299.3790, 1199.215
299.8611, 1202.884
300.3433, 1200.821
300.8254, 1187.306
301.3075, 1170.811
301.7896, 1166.695
302.2717, 1176.880
302.7538, 1192.145
303.2360, 1206.484
303.7181, 1219.017
304.2002, 1227.817
304.6823, 1229.844
305.1644, 1228.498
305.6465, 1227.734
306.1287, 1227.814
306.6108, 1227.440
307.0929, 1224.132
307.5750, 1219.727
308.0571, 1217.461
308.5392, 1219.868
309.0214, 1224.363
309.5035, 1230.314
309.9856, 1237.755
310.4677, 1241.749
310.9498, 1237.535
311.4319, 1228.204
311.9141, 1218.047
312.3962, 1205.488
312.8783, 1194.963
313.3604, 1189.252
313.8426, 1188.362
314.3247, 1190.833
314.8068, 1200.779
315.2889, 1211.870
315.7710, 1217.580
316.2531, 1208.915
316.7353, 1200.650
317.2174, 1202.364
317.6995, 1212.731
318.1816, 1217.719
318.6637, 1205.463
319.1458, 1188.792
319.6280, 1178.008
320.1101, 1180.949
320.5922, 1184.792
321.0743, 1186.542
321.5564, 1186.321
322.0385, 1184.885
322.5207, 1178.614
323.0028, 1173.581
323.4849, 1173.708
323.9670, 1188.639
324.4491, 1197.931
324.9312, 1193.841
325.4134, 1180.537
325.8955, 1173.706
326.3776, 1182.271
326.8597, 1192.434
327.3418, 1197.811
327.8239, 1194.026
328.3061, 1190.976
328.7882, 1170.438
329.2703, 1186.971
329.7524, 1196.082
330.2345, 1198.169
330.7166, 1172.196
331.1988, 1182.457
331.6809, 1178.197
332.1630, 1173.342
332.6451, 1188.702
333.1272, 1166.811
333.6093, 1181.851
334.0915, 1182.148
334.5736, 1189.193
335.0557, 1181.627
335.5378, 1178.574
336.0199, 1190.136
336.5020, 1193.606
336.9842, 1184.359
337.4663, 1191.832
337.9484, 1169.430
338.4305, 1173.245
338.9126, 1188.370
339.3947, 1184.239
339.8769, 1187.753
340.3590, 1184.277
340.8411, 1179.155
341.3232, 1178.344
341.8053, 1182.303
342.2874, 1187.008
342.7696, 1190.954
343.2517, 1194.830
343.7338, 1203.719
344.2159, 1219.176
344.6980, 1232.094
345.1801, 1231.798
345.6623, 1219.321
346.1444, 1209.840
346.6265, 1206.766
347.1086, 1208.468
347.5907, 1211.551
348.0728, 1215.964
348.5550, 1221.868
349.0371, 1232.172
349.5192, 1244.395
350.0013, 1249.907
350.4834, 1245.566
350.9655, 1237.139
351.4477, 1232.326
351.9298, 1230.633
352.4119, 1229.998
352.8940, 1228.002
353.3761, 1226.528
353.8582, 1229.743
354.3404, 1239.411
354.8225, 1248.908
355.3046, 1251.931
355.7867, 1249.859
356.2688, 1246.002
356.7509, 1239.668
357.2331, 1233.661
357.7152, 1230.888
358.1973, 1231.784
358.6794, 1233.659
359.1615, 1234.992
359.6436, 1236.189
360.1258, 1237.817
360.6079, 1240.422
361.0900, 1243.244
361.5721, 1245.348
362.0542, 1246.760
362.5363, 1249.759
363.0185, 1259.473
363.5006, 1269.282
363.9827, 1273.161
364.4648, 1263.630
364.9469, 1254.235
365.4290, 1249.878
365.9112, 1249.630
366.3933, 1246.365
366.8754, 1230.123
367.3575, 1216.246
367.8396, 1213.649
368.3217, 1239.383
368.8039, 1256.247
369.2860, 1256.284
369.7681, 1245.299
370.2502, 1240.776
370.7323, 1248.875
371.2144, 1257.291
371.6966, 1261.045
372.1787, 1257.280
372.6608, 1255.987
373.1429, 1257.841
373.6250, 1261.804
374.1071, 1266.829
374.5893, 1275.112
375.0714, 1279.904
375.5535, 1277.559
376.0356, 1267.317
376.5177, 1262.428
376.9998, 1264.777
377.4820, 1269.335
377.9641, 1269.251
378.4462, 1263.274
378.9283, 1261.224
379.4104, 1267.122
379.8925, 1278.761
380.3747, 1286.499
380.8568, 1290.405
381.3389, 1290.390
381.8210, 1283.371
382.3031, 1270.734
382.7852, 1263.753
383.2674, 1265.473
383.7495, 1272.602
384.2316, 1279.541
384.7137, 1286.416
385.1958, 1293.600
385.6779, 1303.663
386.1601, 1313.978
386.6422, 1317.925
387.1243, 1313.643
387.6064, 1306.971
388.0885, 1304.230
388.5706, 1304.005
389.0528, 1302.708
389.5349, 1294.792
390.0170, 1287.117
390.4991, 1288.084
390.9812, 1298.781
391.4633, 1308.414
391.9455, 1307.985
392.4276, 1302.939
392.9097, 1300.196
393.3918, 1308.033
393.8739, 1313.516
394.3561, 1309.066
394.8382, 1295.581
395.3203, 1282.189
395.8024, 1269.180
396.2845, 1259.392
396.7667, 1254.938
397.2488, 1260.654
397.7309, 1266.126
398.2130, 1270.433
398.6951, 1273.301
399.1772, 1273.870
399.6594, 1269.682
400.1415, 1265.193
400.6236, 1261.574
401.1057, 1257.388
401.5878, 1257.737
402.0699, 1266.015
402.5521, 1277.174
403.0342, 1283.974
403.5163, 1285.917
403.9984, 1284.197
404.4805, 1277.787
404.9626, 1266.615
405.4448, 1258.615
405.9269, 1253.713
406.4090, 1252.121
406.8911, 1255.432
407.3732, 1264.795
407.8553, 1271.408
408.3375, 1273.615
408.8196, 1272.059
409.3017, 1266.375
409.7838, 1255.845
410.2659, 1249.303
410.7480, 1257.802
411.2302, 1277.289
411.7123, 1285.892
412.1944, 1279.059
412.6765, 1266.841
413.1586, 1262.232
413.6407, 1264.041
414.1229, 1267.072
414.6050, 1267.811
415.0871, 1268.543
415.5692, 1272.804
416.0513, 1280.846
416.5334, 1290.661
417.0156, 1306.020
417.4977, 1321.127
417.9798, 1327.124
418.4619, 1312.351
418.9440, 1294.895
419.4261, 1284.041
419.9083, 1279.832
420.3904, 1281.196
420.8725, 1295.579
421.3546, 1310.594
421.8367, 1316.716
422.3188, 1306.479
422.8010, 1297.372
423.2831, 1294.878
423.7652, 1296.414
424.2473, 1296.307
424.7294, 1285.488
425.2115, 1280.486
425.6937, 1291.487
426.1758, 1328.169
426.6579, 1342.292
427.1400, 1316.814
427.6221, 1280.225
428.1042, 1261.434
428.5864, 1268.026
429.0685, 1277.344
429.5506, 1286.022
430.0327, 1294.188
430.5148, 1303.798
430.9969, 1316.225
431.4791, 1326.664
431.9612, 1330.988
432.4433, 1328.864
432.9254, 1326.448
433.4075, 1323.825
433.8896, 1321.957
434.3718, 1323.647
434.8539, 1328.765
435.3360, 1332.692
435.8181, 1333.390
436.3002, 1331.139
436.7823, 1325.542
437.2645, 1316.295
437.7466, 1307.320
438.2287, 1302.180
438.7108, 1300.208
439.1929, 1299.974
439.6750, 1301.286
440.1572, 1303.846
440.6393, 1308.716
441.1214, 1315.159
441.6035, 1319.530
442.0856, 1315.580
442.5677, 1310.999
443.0499, 1313.494
443.5320, 1328.701
444.0141, 1340.464
444.4962, 1339.836
444.9783, 1331.987
445.4604, 1325.578
445.9426, 1324.448
446.4247, 1323.585
446.9068, 1320.660
447.3889, 1315.003
447.8710, 1311.939
448.3531, 1311.112
448.8353, 1313.399
449.3174, 1320.162
449.7995, 1338.417
450.2816, 1348.945
450.7637, 1345.994
451.2458, 1334.045
451.7280, 1331.159
452.2101, 1340.150
452.6922, 1351.414
453.1743, 1362.595
453.6564, 1374.674
454.1385, 1373.709
454.6207, 1356.035
455.1028, 1333.022
455.5849, 1319.774
456.0670, 1315.997
456.5491, 1316.304
457.0313, 1319.410
457.5134, 1325.120
457.9955, 1334.821
458.4776, 1348.354
458.9597, 1359.246
459.4418, 1361.019
459.9240, 1357.011
460.4061, 1352.459
460.8882, 1347.817
461.3703, 1344.443
461.8524, 1344.284
462.3345, 1346.367
462.8167, 1348.452
463.2988, 1347.551
463.7809, 1347.747
464.2630, 1353.476
464.7451, 1365.882
465.2272, 1373.674
465.7094, 1369.267
466.1915, 1360.219
466.6736, 1353.259
467.1557, 1335.185
467.6378, 1353.227
468.1199, 1363.847
468.6021, 1367.443
469.0842, 1342.979
469.5663, 1354.748
470.0484, 1351.997
470.5305, 1348.650
471.0126, 1365.520
471.4948, 1345.137
471.9769, 1361.686
472.4590, 1363.492
472.9411, 1372.046
473.4232, 1365.989
473.9053, 1364.445
474.3875, 1377.516
474.8696, 1382.494
475.3517, 1374.755
475.8338, 1383.738
476.3159, 1362.845
476.7981, 1368.168
477.2802, 1384.802
477.7623, 1377.798
478.2444, 1371.096
478.7265, 1386.364
479.2086, 1394.210
479.6908, 1395.032
480.1729, 1367.794
480.6550, 1376.790
481.1371, 1371.265
481.6192, 1365.145
482.1013, 1379.241
482.5835, 1356.084
483.0656, 1369.859
483.5477, 1368.891
484.0298, 1374.671
484.5119, 1365.841
484.9940, 1374.124
485.4762, 1383.957
485.9583, 1393.208
486.4404, 1398.000
486.9225, 1396.246
487.4046, 1391.503
487.8867, 1383.068
488.3689, 1369.143
488.8510, 1362.590
489.3331, 1365.908
489.8152, 1373.497
490.2973, 1380.665
490.7794, 1387.814
491.2616, 1392.334
491.7437, 1392.971
492.2258, 1391.377
492.7079, 1393.212
493.1900, 1398.761
493.6721, 1401.766
494.1543, 1396.044
494.6364, 1384.625
495.1185, 1377.477
495.6006, 1375.216
496.0827, 1376.726
496.5648, 1384.207
497.0470, 1394.504
497.5291, 1400.843
498.0112, 1398.953
498.4933, 1394.333
498.9754, 1389.950
499.4576, 1386.282
499.9397, 1385.445
500.4218, 1390.956
500.9039, 1397.792
501.3860, 1403.402
501.8681, 1408.083
502.3503, 1409.196
502.8324, 1401.571
503.3145, 1391.755
503.7966, 1387.615
504.2787, 1394.571
504.7608, 1401.149
505.2430, 1406.333
505.7251, 1410.015
506.2072, 1411.062
506.6893, 1407.614
507.1714, 1404.843
507.6535, 1406.373
508.1357, 1413.070
508.6178, 1417.012
509.0999, 1404.397
509.5820, 1421.162
510.0641, 1430.504
510.5462, 1432.823
511.0284, 1407.081
511.5105, 1417.573
511.9926, 1413.545
512.4747, 1408.921
512.9568, 1424.512
513.4389, 1402.852
513.9210, 1418.124
514.4031, 1418.653
514.8853, 1425.929
515.3674, 1418.594
515.8495, 1415.773
516.3316, 1427.566
516.8137, 1431.267
517.2958, 1422.251
517.7780, 1429.956
518.2601, 1407.786
518.7422, 1411.832
519.2244, 1427.188
519.7065, 1418.907
520.1886, 1426.879
520.6707, 1428.661
521.1528, 1402.310
521.6349, 1424.885
522.1171, 1426.301
522.5992, 1405.992
523.0813, 1407.372
523.5634, 1411.763
524.0455, 1428.483
524.5276, 1440.825
525.0098, 1443.381
525.4919, 1439.009
525.9740, 1437.240
526.4561, 1438.128
526.9382, 1439.433
527.4203, 1440.042
527.9025, 1439.891
528.3846, 1438.484
528.8667, 1435.552
529.3488, 1432.802
529.8309, 1431.415
530.3130, 1431.389
530.7952, 1432.724
531.2773, 1434.623
531.7594, 1438.612
532.2415, 1448.815
532.7236, 1462.939
533.2057, 1470.671
533.6879, 1462.414
534.1700, 1452.135
534.6521, 1446.427
535.1342, 1446.491
535.6163, 1449.659
536.0984, 1459.792
536.5806, 1470.292
537.0627, 1473.227
537.5448, 1463.711
538.0269, 1458.879
538.5090, 1463.056
538.9911, 1472.965
539.4733, 1477.645
539.9554, 1476.634
540.4375, 1474.039
540.9196, 1471.707
541.4017, 1469.600
541.8839, 1468.021
542.3660, 1467.104
542.8481, 1465.336
543.3302, 1459.527
543.8123, 1451.996
544.2944, 1447.260
544.7766, 1446.814
545.2587, 1449.152
545.7408, 1456.020
546.2229, 1464.907
546.7050, 1469.779
547.1871, 1460.879
547.6693, 1453.636
548.1514, 1458.000
548.6335, 1476.163
549.1156, 1488.585
549.5977, 1485.951
550.0798, 1480.960
550.5620, 1482.855
551.0441, 1499.592
551.5262, 1507.068
552.0083, 1500.844
552.4904, 1487.395
552.9725, 1479.108
553.4547, 1476.590
553.9368, 1476.168
554.4189, 1477.277
554.9010, 1479.395
555.3831, 1479.417
555.8652, 1477.256
556.3474, 1477.388
556.8295, 1487.930
557.3116, 1502.570
557.7937, 1506.668
558.2758, 1496.186
558.7579, 1484.150
559.2401, 1482.999
559.7222, 1487.355
560.2043, 1488.920
560.6864, 1480.376
561.1685, 1472.443
561.6506, 1471.120
562.1328, 1475.053
562.6149, 1476.659
563.0970, 1470.047
563.5791, 1464.821
564.0612, 1465.510
564.5433, 1474.413
565.0255, 1480.192
565.5076, 1480.835
565.9897, 1480.674
566.4718, 1484.313
566.9539, 1492.253
567.4360, 1500.895
567.9182, 1510.127
568.4003, 1518.998
568.8824, 1526.257
569.3645, 1531.684
569.8466, 1533.287
570.3287, 1527.539
570.8109, 1518.165
571.2930, 1509.733
571.7751, 1502.459
572.2572, 1500.450
572.7393, 1514.737
573.2214, 1531.682
573.7036, 1536.086
574.1857, 1518.994
574.6678, 1502.779
575.1499, 1494.928
575.6320, 1493.179
576.1141, 1494.158
576.5963, 1501.488
577.0784, 1506.801
577.5605, 1506.787
578.0426, 1502.842
578.5247, 1504.465
579.0068, 1513.800
579.4890, 1524.290
579.9711, 1535.026
580.4532, 1546.533
580.9353, 1544.078
581.4174, 1524.609
581.8995, 1503.824
582.3817, 1500.725
582.8638, 1511.349
583.3459, 1521.373
583.8280, 1527.721
584.3101, 1531.444
584.7922, 1533.550
585.2744, 1533.876
585.7565, 1532.068
586.2386, 1520.187
586.7207, 1512.607
587.2028, 1523.597
587.6849, 1552.510
588.1671, 1570.042
588.6492, 1560.148
589.1313, 1542.290
589.6134, 1527.348
590.0955, 1512.697
590.5776, 1507.649
591.0598, 1516.528
591.5419, 1531.131
592.0240, 1540.955
592.5061, 1545.373
592.9882, 1548.297
593.4703, 1550.970
593.9525, 1552.209
594.4346, 1546.684
594.9167, 1535.061
595.3988, 1526.692
595.8809, 1530.180
596.3630, 1539.145
596.8452, 1542.248
597.3273, 1539.148
597.8094, 1537.423
598.2915, 1544.274
598.7736, 1553.888
599.2557, 1560.851
599.7379, 1564.000
600.2200, 1564.258
600.7021, 1560.020
601.1842, 1553.485
601.6663, 1548.173
602.1484, 1545.475
602.6306, 1542.102
603.1127, 1536.160
603.5948, 1528.958
604.0769, 1527.988
604.5590, 1534.791
605.0411, 1542.786
605.5233, 1547.976
606.0054, 1550.915
606.4875, 1558.289
606.9696, 1570.905
607.4517, 1579.269
607.9338, 1568.533
608.4160, 1547.555
608.8981, 1535.276
609.3802, 1537.178
609.8623, 1543.712
610.3444, 1549.771
610.8265, 1555.160
611.3087, 1559.682
611.7908, 1565.594
612.2729, 1568.201
612.7550, 1561.184
613.2371, 1547.083
613.7192, 1544.690
614.2014, 1564.213
614.6835, 1583.459
615.1656, 1593.361
615.6477, 1592.976
616.1298, 1592.009
616.6119, 1590.530
617.0941, 1588.266
617.5762, 1584.746
618.0583, 1580.059
618.5404, 1575.111
619.0225, 1569.926
619.5046, 1564.878
619.9868, 1560.442
620.4689, 1556.497
620.9510, 1552.593
621.4331, 1542.583
621.9152, 1537.773
622.3973, 1553.424
622.8795, 1582.902
623.3616, 1598.926
623.8437, 1575.564
624.3258, 1551.407
624.8079, 1546.520
625.2900, 1565.456
625.7722, 1576.783
626.2543, 1577.437
626.7364, 1574.290
627.2185, 1572.077
627.7006, 1570.869
628.1827, 1570.098
628.6649, 1569.647
629.1470, 1569.831
629.6291, 1569.907
630.1112, 1570.582
630.5933, 1576.344
631.0754, 1593.829
631.5576, 1610.867
632.0397, 1608.530
632.5218, 1592.378
633.0039, 1579.788
633.4860, 1582.123
633.9681, 1588.567
634.4503, 1594.026
634.9324, 1598.154
635.4145, 1600.244
635.8966, 1599.365
636.3787, 1596.948
636.8608, 1593.241
637.3430, 1586.261
637.8251, 1584.120
638.3072, 1589.089
638.7893, 1595.469
639.2714, 1594.401
639.7535, 1585.783
640.2357, 1583.672
640.7178, 1592.759
641.1999, 1606.104
641.6820, 1614.830
642.1641, 1618.856
642.6462, 1617.826
643.1284, 1604.062
643.6105, 1590.901
644.0926, 1591.402
644.5747, 1603.661
645.0568, 1615.071
645.5389, 1626.183
646.0211, 1630.795
