##NAMES=Siegenite
##RRUFFID=R050092
##IDEAL CHEMISTRY=Co^2+^Ni^3+^_2_S^2-^_4_
##LOCALITY=Bunker Hill mine, Jasper County, Missouri, USA
##OWNER=RRUFF
##SOURCE=Rock Currier
##DESCRIPTION=Silver metallic octahedra coating chalcopyrite
##STATUS=The identification of this mineral has been confirmed only by X-ray diffraction
##URL=rruff.info/R050092
127.7788, 4226.335
128.2609, 4379.691
128.7430, 4568.130
129.2252, 4776.471
129.7073, 5048.437
130.1894, 5450.229
130.6715, 5905.315
131.1536, 6310.554
131.6357, 6603.370
132.1179, 6793.268
132.6000, 6953.564
133.0821, 7107.304
133.5642, 7203.404
134.0463, 7222.403
134.5284, 7175.895
135.0106, 7078.345
135.4927, 6935.324
135.9748, 6749.954
136.4569, 6589.042
136.9390, 6447.499
137.4211, 6332.712
137.9033, 6259.891
138.3854, 6217.155
138.8675, 6179.488
139.3496, 6130.607
139.8317, 6070.309
140.3138, 5990.305
140.7960, 5878.356
141.2781, 5763.321
141.7602, 5636.768
142.2423, 5512.517
142.7244, 5428.397
143.2065, 5410.255
143.6887, 5463.557
144.1708, 5586.557
144.6529, 5797.963
145.1350, 6052.924
145.6171, 6339.521
146.0992, 6652.018
146.5814, 6971.414
147.0635, 7284.413
147.5456, 7590.189
148.0277, 7892.702
148.5098, 8245.612
148.9919, 8556.476
149.4741, 8747.245
149.9562, 8817.978
150.4383, 8842.541
150.9204, 8887.339
151.4025, 8940.649
151.8846, 8916.490
152.3668, 8801.112
152.8489, 8611.246
153.3310, 8358.358
153.8131, 8043.420
154.2952, 7665.781
154.7773, 7171.268
155.2595, 6597.892
155.7416, 6116.857
156.2237, 5765.756
156.7058, 5514.720
157.1879, 5335.116
157.6700, 5227.082
158.1522, 5181.848
158.6343, 5215.183
159.1164, 5309.491
159.5985, 5432.645
160.0806, 5635.567
160.5627, 5840.992
161.0449, 5916.950
161.5270, 5831.834
162.0091, 5723.680
162.4912, 5697.432
162.9733, 5718.645
163.4554, 5726.616
163.9376, 5700.514
164.4197, 5648.490
164.9018, 5582.747
165.3839, 5500.413
165.8660, 5412.565
166.3481, 5326.638
166.8303, 5240.231
167.3124, 5148.246
167.7945, 5044.610
168.2766, 4934.989
168.7587, 4826.518
169.2408, 4708.419
169.7230, 4616.849
170.2051, 4588.676
170.6872, 4594.380
171.1693, 4588.897
171.6514, 4550.877
172.1335, 4488.827
172.6157, 4420.326
173.0978, 4336.400
173.5799, 4264.909
174.0620, 4220.611
174.5441, 4193.857
175.0262, 4171.822
175.5084, 4146.374
175.9905, 4122.541
176.4726, 4120.029
176.9547, 4164.589
177.4368, 4180.915
177.9189, 4123.852
178.4010, 4029.678
178.8832, 3946.617
179.3653, 3897.602
179.8474, 3874.413
180.3295, 3852.700
180.8116, 3832.154
181.2937, 3813.938
181.7759, 3797.994
182.2580, 3784.178
182.7401, 3772.656
183.2222, 3763.766
183.7043, 3756.772
184.1864, 3750.084
184.6686, 3746.044
185.1507, 3737.895
185.6328, 3713.149
186.1149, 3687.661
186.5970, 3681.400
187.0791, 3705.581
187.5613, 3748.830
188.0434, 3783.941
188.5255, 3818.114
189.0076, 3828.182
189.4897, 3802.880
189.9718, 3758.268
190.4540, 3706.885
190.9361, 3653.381
191.4182, 3603.127
191.9003, 3569.802
192.3824, 3559.908
192.8645, 3556.861
193.3467, 3562.862
193.8288, 3570.653
194.3109, 3572.328
194.7930, 3564.654
195.2751, 3552.580
195.7572, 3548.183
196.2394, 3561.398
196.7215, 3562.924
197.2036, 3549.026
197.6857, 3524.190
198.1678, 3487.612
198.6499, 3439.622
199.1321, 3390.933
199.6142, 3362.712
200.0963, 3366.133
200.5784, 3368.788
201.0605, 3365.394
201.5426, 3361.613
202.0248, 3363.224
202.5069, 3371.383
202.9890, 3380.733
203.4711, 3382.092
203.9532, 3370.909
204.4353, 3361.769
204.9175, 3359.760
205.3996, 3356.730
205.8817, 3346.907
206.3638, 3329.274
206.8459, 3307.078
207.3280, 3283.244
207.8102, 3254.387
208.2923, 3233.505
208.7744, 3223.159
209.2565, 3217.665
209.7386, 3214.658
210.2207, 3213.487
210.7029, 3214.302
211.1850, 3219.002
211.6671, 3231.659
212.1492, 3232.618
212.6313, 3209.765
213.1134, 3186.413
213.5956, 3174.492
214.0777, 3173.589
214.5598, 3175.873
215.0419, 3174.112
215.5240, 3168.062
216.0061, 3159.395
216.4883, 3140.363
216.9704, 3125.856
217.4525, 3124.657
217.9346, 3133.607
218.4167, 3142.688
218.8988, 3142.915
219.3810, 3133.906
219.8631, 3129.984
220.3452, 3139.019
220.8273, 3145.673
221.3094, 3144.182
221.7915, 3137.080
222.2737, 3130.025
222.7558, 3127.166
223.2379, 3127.943
223.7200, 3126.555
224.2021, 3120.117
224.6842, 3114.544
225.1664, 3115.317
225.6485, 3116.920
226.1306, 3109.622
226.6127, 3086.597
227.0948, 3053.349
227.5770, 3033.325
228.0591, 3036.266
228.5412, 3040.341
229.0233, 3044.615
229.5054, 3046.925
229.9875, 3044.270
230.4697, 3035.153
230.9518, 3022.353
231.4339, 3012.249
231.9160, 3003.739
232.3981, 3000.609
232.8802, 3003.806
233.3624, 3011.349
233.8445, 3024.442
234.3266, 3042.947
234.8087, 3059.947
235.2908, 3062.458
235.7729, 3044.085
236.2551, 3025.922
236.7372, 3005.667
237.2193, 2988.804
237.7014, 2980.028
238.1835, 2979.788
238.6656, 2983.571
239.1478, 2985.977
239.6299, 2986.429
240.1120, 2987.663
240.5941, 2986.799
241.0762, 2989.163
241.5583, 3003.739
242.0405, 3026.937
242.5226, 3042.516
243.0047, 3030.018
243.4868, 2985.871
243.9689, 2956.479
244.4510, 2954.289
244.9332, 2956.026
245.4153, 2952.891
245.8974, 2946.492
246.3795, 2942.835
246.8616, 2947.406
247.3437, 2958.993
247.8259, 2966.583
248.3080, 2970.238
248.7901, 2969.152
249.2722, 2959.199
249.7543, 2945.473
250.2364, 2936.389
250.7186, 2937.271
251.2007, 2944.742
251.6828, 2948.441
252.1649, 2944.860
252.6470, 2944.826
253.1291, 2953.403
253.6113, 2966.188
254.0934, 2979.365
254.5755, 2992.099
255.0576, 3002.652
255.5397, 3009.314
256.0219, 3013.187
256.5040, 3008.693
256.9861, 2983.874
257.4682, 2955.896
257.9503, 2936.374
258.4324, 2927.798
258.9146, 2926.617
259.3967, 2931.610
259.8788, 2943.188
260.3609, 2951.764
260.8430, 2957.334
261.3251, 2957.221
261.8073, 2946.581
262.2894, 2926.281
262.7715, 2908.241
263.2536, 2902.715
263.7357, 2907.523
264.2178, 2909.341
264.7000, 2903.615
265.1821, 2899.895
265.6642, 2910.409
266.1463, 2929.811
266.6284, 2939.587
267.1105, 2923.794
267.5927, 2893.783
268.0748, 2872.446
268.5569, 2860.443
269.0390, 2856.750
269.5211, 2869.566
270.0032, 2889.673
270.4854, 2900.687
270.9675, 2892.794
271.4496, 2878.677
271.9317, 2873.343
272.4138, 2877.077
272.8959, 2879.689
273.3781, 2877.421
273.8602, 2869.864
274.3423, 2855.980
274.8244, 2829.599
275.3065, 2807.994
275.7886, 2804.438
276.2708, 2815.905
276.7529, 2831.475
277.2350, 2850.567
277.7171, 2867.535
278.1992, 2872.335
278.6813, 2863.634
279.1635, 2852.829
279.6456, 2840.120
280.1277, 2828.824
280.6098, 2827.615
281.0919, 2840.007
281.5740, 2852.384
282.0562, 2844.710
282.5383, 2814.446
283.0204, 2797.268
283.5025, 2804.723
283.9846, 2822.186
284.4667, 2838.955
284.9489, 2853.490
285.4310, 2864.838
285.9131, 2871.930
286.3952, 2874.612
286.8773, 2875.843
287.3594, 2878.938
287.8416, 2877.588
288.3237, 2862.439
288.8058, 2839.692
289.2879, 2826.898
289.7700, 2835.135
290.2521, 2858.374
290.7343, 2871.097
291.2164, 2863.314
291.6985, 2858.166
292.1806, 2861.603
292.6627, 2868.647
293.1448, 2872.961
293.6270, 2872.336
294.1091, 2869.114
294.5912, 2867.459
295.0733, 2868.822
295.5554, 2869.019
296.0375, 2864.035
296.5197, 2860.822
297.0018, 2865.359
297.4839, 2877.603
297.9660, 2892.664
298.4481, 2906.214
298.9302, 2918.785
299.4124, 2925.943
299.8945, 2918.365
300.3766, 2914.817
300.8587, 2924.872
301.3408, 2944.078
301.8229, 2962.352
302.3050, 2973.058
302.7871, 2977.518
303.2693, 2982.240
303.7514, 2985.793
304.2335, 2991.976
304.7156, 3003.080
305.1977, 3016.230
305.6798, 3029.254
306.1620, 3041.463
306.6441, 3051.034
307.1262, 3053.551
307.6083, 3046.225
308.0904, 3042.222
308.5725, 3048.996
309.0547, 3056.222
309.5368, 3058.333
310.0189, 3054.637
310.5010, 3046.829
310.9831, 3035.587
311.4652, 3021.097
311.9474, 3005.349
312.4295, 2987.618
312.9116, 2969.933
313.3937, 2950.359
313.8758, 2931.366
314.3579, 2920.161
314.8401, 2927.205
315.3222, 2940.846
315.8043, 2938.107
316.2864, 2915.993
316.7685, 2894.941
317.2506, 2884.424
317.7328, 2882.887
318.2149, 2889.173
318.6970, 2909.243
319.1791, 2926.388
319.6612, 2927.874
320.1433, 2915.593
320.6255, 2895.611
321.1076, 2865.118
321.5897, 2835.615
322.0718, 2827.772
322.5539, 2843.791
323.0360, 2860.150
323.5182, 2873.441
324.0003, 2882.077
324.4824, 2883.801
324.9645, 2878.245
325.4466, 2866.594
325.9287, 2847.858
326.4109, 2821.037
326.8930, 2803.616
327.3751, 2799.858
327.8572, 2801.053
328.3393, 2801.937
328.8214, 2803.573
329.3036, 2811.579
329.7857, 2830.645
330.2678, 2856.272
330.7499, 2867.400
331.2320, 2852.197
331.7141, 2837.059
332.1963, 2821.239
332.6784, 2808.323
333.1605, 2803.883
333.6426, 2809.039
334.1247, 2817.277
334.6068, 2818.320
335.0890, 2807.650
335.5711, 2802.079
336.0532, 2807.332
336.5353, 2812.022
337.0174, 2805.105
337.4995, 2791.276
337.9817, 2787.369
338.4638, 2811.827
338.9459, 2858.937
339.4280, 2874.418
339.9101, 2828.308
340.3922, 2794.465
340.8744, 2800.349
341.3565, 2827.213
341.8386, 2853.231
342.3207, 2871.245
342.8028, 2881.177
343.2849, 2879.160
343.7671, 2862.451
344.2492, 2853.454
344.7313, 2861.187
345.2134, 2876.090
345.6955, 2892.678
346.1776, 2910.392
346.6598, 2924.723
347.1419, 2931.836
347.6240, 2933.422
348.1061, 2933.392
348.5882, 2931.204
349.0703, 2930.224
349.5525, 2932.036
350.0346, 2937.071
350.5167, 2947.509
350.9988, 2978.299
351.4809, 3003.144
351.9630, 2956.304
352.4452, 2997.205
352.9273, 3016.739
353.4094, 3016.053
353.8915, 2934.587
354.3736, 2957.432
354.8557, 2938.474
355.3379, 2917.801
355.8200, 2955.327
356.3021, 2885.611
356.7842, 2922.214
357.2663, 2916.377
357.7484, 2929.964
358.2306, 2901.488
358.7127, 2886.005
359.1948, 2912.597
359.6769, 2915.892
360.1590, 2862.167
360.6411, 2850.331
361.1233, 2833.730
361.6054, 2817.522
362.0875, 2804.473
362.5696, 2794.731
363.0517, 2788.811
363.5338, 2787.840
364.0160, 2789.289
364.4981, 2795.709
364.9802, 2802.351
365.4623, 2803.773
365.9444, 2799.432
366.4265, 2795.516
366.9087, 2801.658
367.3908, 2819.069
367.8729, 2826.225
368.3550, 2813.377
368.8371, 2800.674
369.3192, 2798.623
369.8014, 2804.554
370.2835, 2811.847
370.7656, 2818.121
371.2477, 2823.401
371.7298, 2826.417
372.2119, 2826.564
372.6941, 2830.353
373.1762, 2842.442
373.6583, 2858.754
374.1404, 2872.445
374.6225, 2882.181
375.1046, 2893.363
375.5868, 2915.674
376.0689, 2940.170
376.5510, 2944.040
377.0331, 2920.204
377.5152, 2894.868
377.9973, 2896.668
378.4795, 2929.187
378.9616, 2953.187
379.4437, 2964.731
379.9258, 2970.743
380.4079, 2972.116
380.8900, 2971.000
381.3722, 2972.645
381.8543, 2980.246
382.3364, 2991.295
382.8185, 2998.188
383.3006, 2991.568
383.7827, 2993.304
384.2649, 3011.618
384.7470, 3033.273
385.2291, 3047.705
385.7112, 3053.222
386.1933, 3054.849
386.6754, 3058.618
387.1576, 3065.045
387.6397, 3063.169
388.1218, 3045.516
388.6039, 3027.744
389.0860, 3014.940
389.5681, 3005.388
390.0503, 2996.568
390.5324, 2987.639
391.0145, 2977.960
391.4966, 2967.223
391.9787, 2955.848
392.4608, 2939.578
392.9430, 2914.983
393.4251, 2886.921
393.9072, 2858.942
394.3893, 2831.113
394.8714, 2806.999
395.3535, 2788.370
395.8357, 2774.554
396.3178, 2765.642
396.7999, 2761.945
397.2820, 2758.406
397.7641, 2751.519
398.2462, 2741.792
398.7284, 2732.474
399.2105, 2718.149
399.6926, 2710.274
400.1747, 2721.592
400.6568, 2740.378
401.1389, 2745.733
401.6211, 2730.719
402.1032, 2706.187
402.5853, 2687.024
403.0674, 2672.108
403.5495, 2667.587
404.0316, 2684.132
404.5138, 2699.644
404.9959, 2700.214
405.4780, 2690.088
405.9601, 2682.395
406.4422, 2686.131
406.9243, 2696.871
407.4065, 2698.065
407.8886, 2683.518
408.3707, 2672.110
408.8528, 2667.664
409.3349, 2667.310
409.8170, 2669.149
410.2992, 2672.823
410.7813, 2678.653
411.2634, 2689.668
411.7455, 2703.933
412.2276, 2711.023
412.7097, 2709.555
413.1919, 2702.520
413.6740, 2683.320
414.1561, 2660.535
414.6382, 2653.543
415.1203, 2675.309
415.6024, 2702.273
416.0846, 2720.593
416.5667, 2730.490
417.0488, 2730.336
417.5309, 2717.750
418.0130, 2701.670
418.4951, 2696.234
418.9773, 2706.326
419.4594, 2710.504
419.9415, 2703.854
420.4236, 2694.514
420.9057, 2687.933
421.3878, 2683.631
421.8700, 2677.928
422.3521, 2668.029
422.8342, 2655.701
423.3163, 2648.656
423.7984, 2649.743
424.2805, 2651.985
424.7627, 2654.688
425.2448, 2658.088
425.7269, 2664.476
426.2090, 2673.100
426.6911, 2677.864
427.1732, 2668.700
427.6554, 2647.545
428.1375, 2639.483
428.6196, 2649.847
429.1017, 2663.215
429.5838, 2675.713
430.0659, 2685.060
430.5481, 2686.565
431.0302, 2676.785
431.5123, 2625.016
431.9944, 2675.314
432.4765, 2703.807
432.9586, 2711.667
433.4408, 2637.097
433.9229, 2668.968
434.4050, 2658.183
434.8871, 2645.648
435.3692, 2692.501
435.8513, 2629.920
436.3335, 2675.831
436.8156, 2678.434
437.2977, 2700.858
437.7798, 2680.362
438.2619, 2673.122
438.7440, 2708.817
439.2262, 2720.738
439.7083, 2695.301
440.1904, 2687.345
440.6725, 2659.705
441.1546, 2625.748
441.6367, 2604.971
442.1189, 2599.547
442.6010, 2605.834
443.0831, 2626.746
443.5652, 2655.100
444.0473, 2659.587
444.5294, 2629.977
445.0116, 2605.156
445.4937, 2602.772
445.9758, 2611.160
446.4579, 2620.838
446.9400, 2630.978
447.4221, 2639.624
447.9043, 2647.498
448.3864, 2652.646
448.8685, 2648.072
449.3506, 2631.958
449.8327, 2618.730
450.3148, 2621.641
450.7970, 2638.552
451.2791, 2646.454
451.7612, 2637.328
452.2433, 2629.260
452.7254, 2629.265
453.2076, 2633.492
453.6897, 2636.685
454.1718, 2637.271
454.6539, 2636.818
455.1360, 2637.800
455.6181, 2641.278
456.1003, 2640.180
456.5824, 2627.198
457.0645, 2617.068
457.5466, 2615.625
458.0287, 2619.687
458.5108, 2624.664
458.9930, 2629.174
459.4751, 2631.263
459.9572, 2625.819
460.4393, 2612.668
460.9214, 2605.233
461.4035, 2607.277
461.8857, 2614.278
462.3678, 2624.017
462.8499, 2635.702
463.3320, 2644.976
463.8141, 2653.095
464.2962, 2656.448
464.7784, 2646.933
465.2605, 2628.609
465.7426, 2618.117
466.2247, 2623.544
466.7068, 2637.491
467.1889, 2645.594
467.6711, 2644.539
468.1532, 2644.258
468.6353, 2643.675
469.1174, 2644.766
469.5995, 2653.011
470.0816, 2664.310
470.5638, 2666.753
471.0459, 2651.453
471.5280, 2626.015
472.0101, 2613.506
472.4922, 2619.696
472.9743, 2623.298
473.4565, 2614.824
473.9386, 2605.978
474.4207, 2606.874
474.9028, 2616.581
475.3849, 2622.336
475.8670, 2611.298
476.3492, 2593.856
476.8313, 2588.925
477.3134, 2597.039
477.7955, 2606.856
478.2776, 2614.542
478.7597, 2618.867
479.2419, 2615.733
479.7240, 2601.649
480.2061, 2590.171
480.6882, 2582.628
481.1703, 2579.621
481.6524, 2583.362
482.1346, 2592.826
482.6167, 2603.748
483.0988, 2613.512
483.5809, 2621.508
484.0630, 2624.368
484.5451, 2619.849
485.0273, 2613.563
485.5094, 2602.749
485.9915, 2593.203
486.4736, 2591.909
486.9557, 2598.326
487.4378, 2602.755
487.9200, 2592.105
488.4021, 2573.885
488.8842, 2573.389
489.3663, 2593.737
489.8484, 2615.494
490.3305, 2634.319
490.8127, 2645.046
491.2948, 2635.968
491.7769, 2596.166
492.2590, 2568.265
492.7411, 2577.315
493.2232, 2599.948
493.7054, 2610.896
494.1875, 2607.499
494.6696, 2598.158
495.1517, 2588.363
495.6338, 2578.704
496.1159, 2572.727
496.5981, 2570.060
497.0802, 2572.133
497.5623, 2583.980
498.0444, 2597.016
498.5265, 2605.219
499.0086, 2607.373
499.4908, 2604.117
499.9729, 2592.134
500.4550, 2575.286
500.9371, 2569.698
501.4192, 2577.873
501.9013, 2587.148
502.3835, 2595.851
502.8656, 2599.952
503.3477, 2591.103
503.8298, 2547.826
504.3119, 2573.714
504.7940, 2588.698
505.2762, 2593.367
505.7583, 2556.820
506.2404, 2573.494
506.7225, 2568.840
507.2046, 2563.311
507.6867, 2587.476
508.1689, 2556.924
508.6510, 2580.618
509.1331, 2582.657
509.6152, 2594.608
510.0973, 2585.098
510.5794, 2582.217
511.0616, 2600.802
511.5437, 2607.501
512.0258, 2595.521
512.5079, 2608.102
512.9901, 2576.800
513.4722, 2568.463
513.9543, 2559.448
514.4364, 2564.419
514.9185, 2573.480
515.4006, 2573.048
515.8828, 2562.368
516.3649, 2552.572
516.8470, 2542.346
517.3291, 2537.871
517.8112, 2551.866
518.2933, 2578.554
518.7755, 2594.013
519.2576, 2584.522
519.7397, 2560.664
520.2218, 2547.989
520.7039, 2555.133
521.1860, 2557.008
521.6682, 2548.672
522.1503, 2540.319
522.6324, 2539.240
523.1145, 2542.677
523.5966, 2542.065
524.0787, 2531.052
524.5609, 2517.874
525.0430, 2517.115
525.5251, 2528.698
526.0072, 2540.977
526.4893, 2553.942
526.9714, 2562.289
527.4536, 2554.036
527.9357, 2532.002
528.4178, 2524.252
528.8999, 2547.607
529.3820, 2573.549
529.8641, 2585.409
530.3463, 2587.656
530.8284, 2590.795
531.3105, 2598.283
531.7926, 2603.290
532.2747, 2595.678
532.7568, 2573.224
533.2390, 2551.562
533.7211, 2523.100
534.2032, 2504.643
534.6853, 2505.523
535.1674, 2517.601
535.6495, 2530.633
536.1317, 2541.947
536.6138, 2551.992
537.0959, 2561.808
537.5780, 2570.703
538.0601, 2577.117
538.5422, 2581.246
539.0244, 2579.606
539.5065, 2568.212
539.9886, 2548.987
540.4707, 2531.985
540.9528, 2515.212
541.4349, 2502.842
541.9171, 2493.196
542.3992, 2489.923
542.8813, 2500.096
543.3634, 2521.751
543.8455, 2543.501
544.3276, 2556.563
544.8098, 2562.167
545.2919, 2565.985
545.7740, 2569.318
546.2561, 2567.207
546.7382, 2551.553
547.2203, 2535.055
547.7024, 2527.442
548.1845, 2528.681
548.6666, 2532.845
549.1487, 2539.788
549.6309, 2546.688
550.1130, 2552.402
550.5951, 2555.786
551.0772, 2550.357
551.5593, 2532.153
552.0414, 2510.928
552.5236, 2503.206
553.0057, 2515.174
553.4878, 2519.656
553.9699, 2509.722
554.4520, 2500.849
554.9341, 2496.487
555.4163, 2498.131
555.8984, 2510.425
556.3805, 2535.540
556.8626, 2559.308
557.3447, 2561.605
557.8268, 2545.356
558.3090, 2534.360
558.7911, 2531.239
559.2732, 2532.027
559.7553, 2535.661
560.2374, 2541.135
560.7195, 2545.060
561.2017, 2546.484
561.6838, 2548.000
562.1659, 2552.467
562.6480, 2556.175
563.1301, 2554.905
563.6122, 2548.581
564.0944, 2520.698
564.5765, 2545.685
565.0586, 2559.770
565.5407, 2563.538
566.0228, 2526.091
566.5049, 2541.865
566.9871, 2536.311
567.4692, 2529.881
567.9513, 2553.146
568.4334, 2521.693
568.9155, 2544.487
569.3976, 2545.627
569.8798, 2556.677
570.3619, 2546.267
570.8440, 2542.485
571.3261, 2560.170
571.8082, 2565.969
572.2903, 2553.088
572.7725, 2564.769
573.2546, 2532.566
573.7367, 2538.871
574.2188, 2561.791
574.7009, 2549.989
575.1830, 2545.541
575.6652, 2547.683
576.1473, 2552.587
576.6294, 2560.356
577.1115, 2561.768
577.5936, 2540.642
578.0757, 2506.547
578.5579, 2494.228
579.0400, 2506.389
579.5221, 2521.162
580.0042, 2530.667
580.4863, 2535.214
580.9684, 2533.435
581.4506, 2522.619
581.9327, 2517.686
582.4148, 2526.699
582.8969, 2536.786
583.3790, 2538.540
583.8611, 2534.640
584.3433, 2532.272
584.8254, 2534.732
585.3075, 2539.436
585.7896, 2544.478
586.2717, 2550.772
586.7538, 2544.148
587.2360, 2511.872
587.7181, 2486.462
588.2002, 2494.498
588.6823, 2519.360
589.1644, 2534.699
589.6465, 2535.873
590.1287, 2530.604
590.6108, 2520.498
591.0929, 2507.167
591.5750, 2488.677
592.0571, 2467.502
592.5392, 2455.850
593.0214, 2462.797
593.5035, 2482.358
593.9856, 2496.474
594.4677, 2504.095
594.9498, 2508.603
595.4319, 2510.983
595.9141, 2509.427
596.3962, 2499.597
596.8783, 2485.103
597.3604, 2474.559
597.8425, 2470.871
598.3246, 2472.732
598.8068, 2481.316
599.2889, 2494.341
599.7710, 2507.184
600.2531, 2519.016
600.7352, 2526.437
601.2173, 2526.171
601.6995, 2518.968
602.1816, 2510.880
602.6637, 2498.276
603.1458, 2489.920
603.6279, 2487.483
604.1100, 2488.640
604.5922, 2493.031
605.0743, 2499.619
605.5564, 2505.645
606.0385, 2509.344
606.5206, 2511.924
607.0027, 2515.372
607.4849, 2519.510
607.9670, 2523.409
608.4491, 2527.438
608.9312, 2528.793
609.4133, 2524.007
609.8954, 2513.029
610.3776, 2503.430
610.8597, 2489.804
611.3418, 2484.213
611.8239, 2497.256
612.3060, 2514.775
612.7881, 2522.586
613.2703, 2519.364
613.7524, 2512.544
614.2345, 2507.233
614.7166, 2502.718
615.1987, 2495.926
615.6808, 2486.532
616.1630, 2483.598
616.6451, 2493.762
617.1272, 2503.938
617.6093, 2495.177
618.0914, 2466.990
618.5735, 2455.182
619.0557, 2477.685
619.5378, 2497.625
620.0199, 2499.413
620.5020, 2491.310
620.9841, 2480.579
621.4662, 2470.711
621.9484, 2468.537
622.4305, 2484.348
622.9126, 2511.005
623.3947, 2517.703
623.8768, 2500.489
624.3589, 2486.215
624.8411, 2482.702
625.3232, 2485.811
625.8053, 2494.758
