##NAMES=Siegenite
##RRUFFID=R070252
##IDEAL CHEMISTRY=Co^2+^Ni^3+^_2_S^2-^_4_
##LOCALITY=Gruge Viktoria Musen, Siegen, Siegerland, North Rhine-Westphalia, Germany
##OWNER=RRUFF
##SOURCE=Michael Scott
##DESCRIPTION=Steel gray cubo-octahedra associated with dark gray tetrahedrite (with parallel growth on corners), siderite and minor quartz
##STATUS=The identification of this mineral is confirmed by single-crystal X-ray diffraction and chemical analysis.
##URL=rruff.info/R070252
##MEASURED CHEMISTRY=Co_1.00_(Ni_1.56_Co_0.42_Fe_0.02_)_Î£=2_S_4_
129.6975, 1058.631
130.1796, 1180.244
130.6617, 1327.719
131.1439, 1515.463
131.6260, 1758.332
132.1081, 2042.969
132.5902, 2263.968
133.0723, 2375.735
133.5544, 2465.560
134.0366, 2553.275
134.5187, 2629.242
135.0008, 2677.272
135.4829, 2688.024
135.9650, 2661.010
136.4471, 2572.898
136.9293, 2381.790
137.4114, 2179.524
137.8935, 1971.278
138.3756, 1771.690
138.8577, 1605.062
139.3398, 1491.548
139.8220, 1431.798
140.3041, 1380.134
140.7862, 1334.782
141.2683, 1296.898
141.7504, 1264.831
142.2325, 1240.272
142.7147, 1228.531
143.1968, 1234.028
143.6789, 1257.877
144.1610, 1291.876
144.6431, 1321.943
145.1252, 1372.012
145.6074, 1464.303
146.0895, 1594.674
146.5716, 1733.717
147.0537, 1858.940
147.5358, 1969.864
148.0179, 2086.352
148.5001, 2218.946
148.9822, 2349.170
149.4643, 2470.093
149.9464, 2580.855
150.4285, 2670.669
150.9106, 2734.512
151.3928, 2767.773
151.8749, 2762.747
152.3570, 2695.663
152.8391, 2603.960
153.3212, 2524.886
153.8033, 2461.918
154.2855, 2385.835
154.7676, 2262.131
155.2497, 2102.010
155.7318, 1955.880
156.2139, 1829.423
156.6960, 1721.742
157.1782, 1631.369
157.6603, 1558.064
158.1424, 1503.924
158.6245, 1477.766
159.1066, 1473.218
159.5887, 1478.523
160.0709, 1491.365
160.5530, 1512.256
161.0351, 1545.347
161.5172, 1594.264
161.9993, 1641.487
162.4814, 1677.148
162.9636, 1702.247
163.4457, 1716.058
163.9278, 1712.548
164.4099, 1698.970
164.8920, 1687.052
165.3741, 1675.780
165.8563, 1669.276
166.3384, 1673.079
166.8205, 1682.910
167.3026, 1692.175
167.7847, 1701.923
168.2668, 1708.282
168.7490, 1700.474
169.2311, 1671.708
169.7132, 1643.985
170.1953, 1629.694
170.6774, 1623.791
171.1595, 1618.910
171.6417, 1611.553
172.1238, 1603.120
172.6059, 1598.408
173.0880, 1601.799
173.5701, 1599.683
174.0522, 1581.147
174.5344, 1554.814
175.0165, 1532.703
175.4986, 1519.044
175.9807, 1514.191
176.4628, 1521.577
176.9449, 1551.545
177.4271, 1574.426
177.9092, 1577.557
178.3913, 1568.244
178.8734, 1555.685
179.3555, 1543.498
179.8376, 1531.606
180.3197, 1518.987
180.8019, 1502.581
181.2840, 1491.361
181.7661, 1490.935
182.2482, 1495.511
182.7303, 1497.129
183.2124, 1490.670
183.6946, 1480.842
184.1767, 1482.643
184.6588, 1506.136
185.1409, 1523.607
185.6230, 1524.183
186.1051, 1516.940
186.5873, 1511.964
187.0694, 1513.890
187.5515, 1520.873
188.0336, 1528.151
188.5157, 1535.028
188.9978, 1543.495
189.4800, 1557.566
189.9621, 1571.681
190.4442, 1580.276
190.9263, 1580.759
191.4084, 1574.710
191.8905, 1565.442
192.3727, 1550.601
192.8548, 1536.544
193.3369, 1519.590
193.8190, 1505.842
194.3011, 1501.934
194.7832, 1510.580
195.2654, 1527.600
195.7475, 1545.682
196.2296, 1572.761
196.7117, 1584.907
197.1938, 1573.223
197.6759, 1551.378
198.1581, 1528.932
198.6402, 1509.376
199.1223, 1494.120
199.6044, 1486.075
200.0865, 1487.345
200.5686, 1492.401
201.0508, 1503.966
201.5329, 1516.386
202.0150, 1525.595
202.4971, 1530.416
202.9792, 1531.780
203.4613, 1530.626
203.9435, 1524.876
204.4256, 1521.356
204.9077, 1519.758
205.3898, 1520.472
205.8719, 1525.161
206.3540, 1533.541
206.8362, 1542.233
207.3183, 1546.492
207.8004, 1544.642
208.2825, 1542.325
208.7646, 1541.328
209.2467, 1538.659
209.7289, 1530.898
210.2110, 1518.623
210.6931, 1506.422
211.1752, 1499.554
211.6573, 1498.805
212.1395, 1500.917
212.6216, 1509.189
213.1037, 1517.296
213.5858, 1522.056
214.0679, 1523.533
214.5500, 1523.802
215.0322, 1525.191
215.5143, 1528.325
215.9964, 1528.267
216.4785, 1516.656
216.9606, 1509.615
217.4427, 1517.366
217.9249, 1535.911
218.4070, 1553.043
218.8891, 1557.874
219.3712, 1549.951
219.8533, 1546.110
220.3354, 1545.121
220.8176, 1549.864
221.2997, 1568.729
221.7818, 1594.009
222.2639, 1610.095
222.7460, 1604.142
223.2281, 1579.072
223.7103, 1567.085
224.1924, 1585.332
224.6745, 1598.594
225.1566, 1594.046
225.6387, 1581.004
226.1208, 1574.560
226.6030, 1584.195
227.0851, 1605.134
227.5672, 1616.828
228.0493, 1608.272
228.5314, 1605.184
229.0135, 1617.561
229.4957, 1635.307
229.9778, 1646.194
230.4599, 1644.548
230.9420, 1635.471
231.4241, 1631.386
231.9062, 1634.156
232.3884, 1639.312
232.8705, 1647.998
233.3526, 1657.454
233.8347, 1665.795
234.3168, 1672.297
234.7989, 1676.784
235.2811, 1678.504
235.7632, 1675.850
236.2453, 1674.232
236.7274, 1678.001
237.2095, 1680.194
237.6916, 1673.510
238.1738, 1657.720
238.6559, 1641.674
239.1380, 1637.832
239.6201, 1650.818
240.1022, 1658.854
240.5843, 1654.137
241.0665, 1650.090
241.5486, 1655.267
242.0307, 1668.576
242.5128, 1681.480
242.9949, 1685.706
243.4770, 1680.657
243.9592, 1673.925
244.4413, 1660.829
244.9234, 1650.546
245.4055, 1648.126
245.8876, 1651.550
246.3697, 1655.329
246.8519, 1655.625
247.3340, 1652.771
247.8161, 1649.577
248.2982, 1644.149
248.7803, 1641.117
249.2624, 1642.123
249.7446, 1646.286
250.2267, 1652.746
250.7088, 1662.284
251.1909, 1672.507
251.6730, 1676.009
252.1551, 1669.753
252.6373, 1662.740
253.1194, 1657.066
253.6015, 1652.562
254.0836, 1649.795
254.5657, 1649.541
255.0478, 1648.910
255.5300, 1642.448
256.0121, 1628.410
256.4942, 1615.215
256.9763, 1603.790
257.4584, 1595.042
257.9406, 1591.137
258.4227, 1592.732
258.9048, 1594.439
259.3869, 1589.531
259.8690, 1577.615
260.3511, 1568.041
260.8333, 1563.422
261.3154, 1561.037
261.7975, 1559.393
262.2796, 1558.299
262.7617, 1556.844
263.2438, 1554.686
263.7260, 1551.712
264.2081, 1546.635
264.6902, 1536.539
265.1723, 1528.807
265.6544, 1529.137
266.1365, 1535.981
266.6187, 1544.583
267.1008, 1555.891
267.5829, 1566.877
268.0650, 1570.458
268.5471, 1565.124
269.0292, 1556.798
269.5114, 1546.234
269.9935, 1535.704
270.4756, 1529.761
270.9577, 1532.121
271.4398, 1537.465
271.9219, 1541.097
272.4041, 1543.071
272.8862, 1540.906
273.3683, 1530.671
273.8504, 1516.630
274.3325, 1506.775
274.8146, 1501.474
275.2968, 1500.378
275.7789, 1505.388
276.2610, 1515.032
276.7431, 1523.966
277.2252, 1531.742
277.7073, 1535.824
278.1895, 1529.680
278.6716, 1510.069
279.1537, 1496.947
279.6358, 1501.224
280.1179, 1515.867
280.6000, 1530.465
281.0822, 1543.435
281.5643, 1551.995
282.0464, 1550.117
282.5285, 1536.465
283.0106, 1529.643
283.4927, 1539.826
283.9749, 1552.590
284.4570, 1553.221
284.9391, 1541.264
285.4212, 1528.279
285.9033, 1523.751
286.3854, 1527.674
286.8676, 1529.564
287.3497, 1526.313
287.8318, 1524.222
288.3139, 1528.563
288.7960, 1536.781
289.2781, 1540.705
289.7603, 1534.650
290.2424, 1522.791
290.7245, 1523.143
291.2066, 1554.620
291.6887, 1574.177
292.1708, 1568.056
292.6530, 1549.101
293.1351, 1531.469
293.6172, 1520.304
294.0993, 1515.373
294.5814, 1516.942
295.0635, 1532.089
295.5457, 1540.200
296.0278, 1533.766
296.5099, 1526.202
296.9920, 1527.935
297.4741, 1539.399
297.9562, 1553.441
298.4384, 1562.865
298.9205, 1567.130
299.4026, 1570.444
299.8847, 1572.482
300.3668, 1573.929
300.8489, 1574.701
301.3311, 1575.066
301.8131, 1575.452
302.2953, 1576.114
302.7774, 1577.052
303.2595, 1578.452
303.7416, 1582.090
304.2237, 1583.376
304.7058, 1579.514
305.1880, 1573.901
305.6701, 1569.152
306.1522, 1566.108
306.6343, 1566.761
307.1164, 1577.743
307.5985, 1605.017
308.0807, 1620.114
308.5628, 1605.779
309.0449, 1585.959
309.5270, 1572.915
310.0091, 1568.289
310.4912, 1569.231
310.9734, 1577.614
311.4555, 1592.012
311.9376, 1594.894
312.4197, 1576.558
312.9018, 1558.777
313.3839, 1556.427
313.8661, 1565.183
314.3482, 1574.108
314.8303, 1580.761
315.3124, 1583.493
315.7945, 1576.382
316.2766, 1557.000
316.7588, 1542.314
317.2409, 1547.213
317.7230, 1560.857
318.2051, 1564.474
318.6872, 1550.650
319.1693, 1535.711
319.6515, 1534.665
320.1336, 1543.915
320.6157, 1546.081
321.0978, 1532.571
321.5799, 1513.782
322.0620, 1507.122
322.5442, 1513.949
323.0263, 1520.441
323.5084, 1522.674
323.9905, 1522.437
324.4726, 1521.540
324.9547, 1520.300
325.4369, 1519.593
325.9190, 1520.521
326.4011, 1523.302
326.8832, 1524.783
327.3653, 1525.087
327.8474, 1524.059
328.3296, 1520.269
328.8117, 1514.876
329.2938, 1511.019
329.7759, 1510.498
330.2580, 1512.941
330.7401, 1516.693
331.2223, 1530.537
331.7044, 1534.732
332.1865, 1514.830
332.6686, 1489.929
333.1507, 1483.034
333.6328, 1500.305
334.1150, 1526.952
334.5971, 1540.632
335.0792, 1534.947
335.5613, 1533.285
336.0434, 1542.046
336.5255, 1548.730
337.0077, 1543.768
337.4898, 1530.213
337.9719, 1519.296
338.4540, 1521.152
338.9361, 1533.825
339.4182, 1539.178
339.9004, 1530.762
340.3825, 1524.385
340.8646, 1525.167
341.3467, 1530.204
341.8288, 1536.458
342.3109, 1543.217
342.7931, 1548.849
343.2752, 1550.215
343.7573, 1546.626
344.2394, 1543.665
344.7215, 1542.607
345.2036, 1542.753
345.6858, 1544.277
346.1679, 1547.068
346.6500, 1548.546
347.1321, 1544.750
347.6142, 1538.424
348.0963, 1537.927
348.5785, 1545.476
349.0606, 1554.527
349.5427, 1560.417
350.0248, 1563.754
350.5069, 1566.003
350.9890, 1567.693
351.4712, 1568.174
351.9533, 1565.410
352.4354, 1560.335
352.9175, 1557.917
353.3996, 1560.803
353.8817, 1567.429
354.3639, 1574.306
354.8460, 1583.179
355.3281, 1588.786
355.8102, 1587.504
356.2923, 1583.433
356.7744, 1582.142
357.2566, 1584.597
357.7387, 1586.535
358.2208, 1582.824
358.7029, 1571.978
359.1850, 1563.630
359.6671, 1557.054
360.1493, 1553.262
360.6314, 1553.867
361.1135, 1557.571
361.5956, 1562.235
362.0777, 1566.875
362.5598, 1570.658
363.0420, 1570.472
363.5241, 1564.471
364.0062, 1557.141
364.4883, 1544.814
364.9704, 1534.111
365.4525, 1531.753
365.9347, 1538.661
366.4168, 1548.699
366.8989, 1555.218
367.3810, 1558.060
367.8631, 1560.887
368.3452, 1565.102
368.8274, 1567.652
369.3095, 1564.216
369.7916, 1558.016
370.2737, 1557.293
370.7558, 1570.580
371.2379, 1587.703
371.7201, 1587.844
372.2022, 1568.590
372.6843, 1555.753
373.1664, 1562.707
373.6485, 1581.253
374.1306, 1599.546
374.6128, 1618.821
375.0949, 1632.148
375.5770, 1632.260
376.0591, 1624.391
376.5412, 1618.392
377.0233, 1616.163
377.5055, 1616.565
377.9876, 1618.423
378.4697, 1621.865
378.9518, 1627.980
379.4339, 1639.360
379.9160, 1651.089
380.3982, 1661.268
380.8803, 1669.401
381.3624, 1674.224
381.8445, 1674.806
382.3266, 1672.526
382.8087, 1671.540
383.2909, 1671.941
383.7730, 1673.740
384.2551, 1677.058
384.7372, 1681.654
385.2193, 1688.144
385.7014, 1696.153
386.1836, 1703.804
386.6657, 1709.430
387.1478, 1713.058
387.6299, 1713.739
388.1120, 1710.234
388.5941, 1704.912
389.0763, 1696.969
389.5584, 1688.169
390.0405, 1681.816
390.5226, 1680.054
391.0047, 1678.935
391.4868, 1670.997
391.9690, 1655.328
392.4511, 1642.107
392.9332, 1637.174
393.4153, 1632.819
393.8974, 1619.071
394.3795, 1596.039
394.8617, 1579.456
395.3438, 1585.447
395.8259, 1599.926
396.3080, 1596.572
396.7901, 1572.190
397.2722, 1547.203
397.7544, 1535.499
398.2365, 1535.415
398.7186, 1534.879
399.2007, 1533.255
399.6828, 1531.908
400.1649, 1531.050
400.6471, 1530.891
401.1292, 1532.380
401.6113, 1535.853
402.0934, 1539.216
402.5755, 1539.352
403.0576, 1535.317
403.5398, 1530.657
404.0219, 1524.845
404.5040, 1518.946
404.9861, 1511.599
405.4682, 1504.562
405.9503, 1502.497
406.4325, 1509.161
406.9146, 1521.096
407.3967, 1525.201
407.8788, 1516.098
408.3609, 1510.204
408.8430, 1513.923
409.3252, 1519.671
409.8073, 1520.758
410.2894, 1516.436
410.7715, 1512.387
411.2536, 1515.170
411.7357, 1522.955
412.2179, 1525.688
412.7000, 1521.102
413.1821, 1515.345
413.6642, 1512.301
414.1463, 1511.135
414.6284, 1510.638
415.1106, 1512.158
415.5927, 1512.353
416.0748, 1506.319
416.5569, 1496.657
417.0390, 1492.509
417.5211, 1497.955
418.0033, 1506.400
418.4854, 1507.305
418.9675, 1496.800
419.4496, 1492.134
419.9317, 1499.318
420.4138, 1508.075
420.8960, 1510.497
421.3781, 1508.061
421.8602, 1508.053
422.3423, 1515.848
422.8244, 1528.277
423.3065, 1531.286
423.7887, 1516.636
424.2708, 1505.176
424.7529, 1500.698
425.2350, 1498.856
425.7171, 1495.698
426.1992, 1490.890
426.6814, 1487.525
427.1635, 1489.137
427.6456, 1495.321
428.1277, 1501.431
428.6098, 1508.547
429.0919, 1513.435
429.5741, 1513.860
430.0562, 1511.254
430.5383, 1507.122
431.0204, 1500.796
431.5025, 1495.219
431.9846, 1491.955
432.4668, 1491.312
432.9489, 1495.902
433.4310, 1508.042
433.9131, 1519.942
434.3952, 1521.972
434.8773, 1513.116
435.3595, 1503.492
435.8416, 1488.979
436.3237, 1478.029
436.8058, 1478.020
437.2879, 1485.861
437.7701, 1493.815
438.2522, 1498.068
438.7343, 1499.039
439.2164, 1497.505
439.6985, 1490.932
440.1806, 1486.391
440.6628, 1485.069
441.1449, 1484.657
441.6270, 1482.932
442.1091, 1480.494
442.5912, 1480.036
443.0733, 1483.702
443.5555, 1490.890
444.0376, 1500.902
444.5197, 1517.255
445.0018, 1526.515
445.4839, 1516.228
445.9660, 1499.972
446.4482, 1491.188
446.9303, 1492.290
447.4124, 1494.918
447.8945, 1494.152
448.3766, 1491.260
448.8587, 1488.610
449.3409, 1486.461
449.8230, 1485.185
450.3051, 1485.383
450.7872, 1486.844
451.2693, 1487.356
451.7514, 1487.330
452.2336, 1485.977
452.7157, 1479.954
453.1978, 1473.557
453.6799, 1474.371
454.1620, 1484.063
454.6441, 1495.308
455.1263, 1497.860
455.6084, 1489.221
456.0905, 1486.055
456.5726, 1495.186
457.0547, 1502.998
457.5368, 1505.704
458.0190, 1504.280
458.5011, 1500.139
458.9832, 1493.452
459.4653, 1486.299
459.9474, 1480.814
460.4295, 1476.982
460.9117, 1477.702
461.3938, 1486.875
461.8759, 1496.193
462.3580, 1496.510
462.8401, 1489.758
463.3222, 1486.221
463.8044, 1492.454
464.2865, 1500.099
464.7686, 1501.083
465.2507, 1496.766
465.7328, 1492.961
466.2149, 1492.164
466.6971, 1493.317
467.1792, 1494.677
467.6613, 1498.367
468.1434, 1497.328
468.6255, 1487.239
469.1076, 1476.263
469.5898, 1469.105
470.0719, 1465.580
470.5540, 1463.594
471.0361, 1461.789
471.5182, 1460.661
472.0003, 1462.004
472.4825, 1466.966
472.9646, 1471.241
473.4467, 1472.679
473.9288, 1474.023
474.4109, 1477.876
474.8930, 1483.913
475.3752, 1488.392
475.8573, 1489.289
476.3394, 1487.224
476.8215, 1481.303
477.3036, 1471.483
477.7857, 1466.075
478.2679, 1470.970
478.7500, 1481.483
479.2321, 1486.028
479.7142, 1482.572
480.1963, 1479.323
480.6784, 1478.841
481.1606, 1478.554
481.6427, 1474.856
482.1248, 1468.458
482.6069, 1464.291
483.0890, 1466.454
483.5711, 1473.454
484.0533, 1476.629
484.5354, 1470.752
485.0175, 1469.811
485.4996, 1482.237
485.9817, 1495.252
486.4638, 1497.181
486.9460, 1487.687
487.4281, 1476.949
487.9102, 1473.447
488.3923, 1474.785
488.8744, 1473.406
489.3565, 1468.755
489.8387, 1464.071
490.3208, 1459.369
490.8029, 1456.685
491.2850, 1460.669
491.7671, 1475.065
492.2492, 1485.259
492.7314, 1481.777
493.2135, 1474.003
493.6956, 1473.541
494.1777, 1480.776
494.6598, 1487.689
495.1419, 1487.979
495.6241, 1482.836
496.1062, 1480.078
496.5883, 1483.414
497.0704, 1483.891
497.5525, 1477.824
498.0346, 1470.617
498.5168, 1467.430
498.9989, 1468.357
499.4810, 1468.875
499.9631, 1463.292
500.4452, 1454.384
500.9273, 1453.319
501.4095, 1461.406
501.8916, 1472.276
502.3737, 1487.486
502.8558, 1501.215
503.3379, 1503.884
503.8200, 1492.806
504.3022, 1481.284
504.7843, 1472.906
505.2664, 1467.498
505.7485, 1465.943
506.2306, 1467.747
506.7127, 1470.056
507.1949, 1470.963
507.6770, 1470.865
508.1591, 1471.560
508.6412, 1475.360
509.1233, 1476.449
509.6054, 1472.355
510.0876, 1467.252
510.5697, 1463.614
511.0518, 1461.881
511.5339, 1461.922
512.0161, 1464.360
512.4982, 1468.043
512.9803, 1469.322
513.4624, 1467.578
513.9445, 1467.327
514.4266, 1471.681
514.9088, 1476.938
515.3909, 1478.388
515.8730, 1475.880
516.3551, 1471.988
516.8372, 1465.847
517.3193, 1459.870
517.8015, 1456.940
518.2836, 1456.397
518.7657, 1454.066
519.2478, 1447.144
519.7299, 1439.878
520.2120, 1443.277
520.6942, 1468.001
521.1763, 1482.960
521.6584, 1481.046
522.1405, 1477.215
522.6226, 1480.913
523.1047, 1489.379
523.5869, 1493.447
524.0690, 1486.787
524.5511, 1476.772
525.0332, 1477.351
525.5153, 1488.427
525.9974, 1493.869
526.4796, 1487.708
526.9617, 1478.267
527.4438, 1474.247
527.9259, 1475.005
528.4080, 1476.072
528.8901, 1479.186
529.3723, 1480.116
529.8544, 1473.419
530.3365, 1463.282
530.8186, 1458.985
531.3007, 1463.498
531.7828, 1469.807
532.2650, 1467.002
532.7471, 1452.089
533.2292, 1446.834
533.7113, 1460.887
534.1934, 1473.812
534.6755, 1481.347
535.1577, 1483.355
535.6398, 1478.205
536.1219, 1464.576
536.6040, 1451.808
537.0861, 1450.475
537.5682, 1457.066
538.0504, 1459.712
538.5325, 1456.525
539.0146, 1453.165
539.4967, 1453.020
539.9788, 1456.080
540.4609, 1462.123
540.9431, 1481.075
541.4252, 1489.282
541.9073, 1471.500
542.3894, 1447.633
542.8715, 1436.159
543.3536, 1438.808
543.8358, 1447.827
544.3179, 1458.230
544.8000, 1468.840
545.2821, 1473.564
545.7642, 1469.270
546.2463, 1467.789
546.7285, 1479.770
547.2106, 1489.740
547.6927, 1482.843
548.1748, 1460.218
548.6569, 1439.858
549.1390, 1427.935
549.6211, 1423.451
550.1032, 1429.386
550.5853, 1442.913
551.0674, 1451.915
551.5496, 1451.274
552.0317, 1445.709
552.5138, 1442.545
552.9959, 1441.745
553.4780, 1443.639
553.9601, 1454.169
554.4423, 1460.683
554.9244, 1452.516
555.4065, 1438.713
555.8886, 1434.828
556.3707, 1446.801
556.8528, 1462.681
557.3350, 1465.710
557.8171, 1458.227
558.2992, 1461.538
558.7813, 1481.806
559.2634, 1499.467
559.7455, 1500.903
560.2277, 1489.611
560.7098, 1478.147
561.1919, 1463.437
561.6740, 1454.060
562.1561, 1459.203
562.6382, 1467.048
563.1204, 1461.651
563.6025, 1444.327
564.0846, 1431.647
564.5667, 1436.718
565.0488, 1453.888
565.5309, 1459.744
566.0131, 1447.586
566.4952, 1441.073
566.9773, 1451.856
567.4594, 1463.391
567.9415, 1464.654
568.4236, 1456.994
568.9058, 1448.889
569.3879, 1441.348
569.8700, 1437.184
570.3521, 1441.517
570.8342, 1451.868
571.3163, 1460.706
571.7985, 1465.982
572.2806, 1466.171
572.7627, 1457.651
573.2448, 1438.218
573.7269, 1430.946
574.2090, 1446.960
574.6912, 1461.130
575.1733, 1469.300
575.6554, 1471.278
576.1375, 1465.155
576.6196, 1451.342
577.1017, 1437.128
577.5839, 1427.275
578.0660, 1422.310
578.5481, 1426.320
579.0302, 1440.678
579.5123, 1452.013
579.9944, 1453.179
580.4766, 1448.681
580.9587, 1447.082
581.4408, 1449.041
581.9229, 1450.453
582.4050, 1451.048
582.8871, 1450.671
583.3693, 1449.080
583.8514, 1446.455
584.3335, 1442.526
584.8156, 1437.163
585.2977, 1432.463
585.7798, 1431.809
586.2620, 1435.404
586.7441, 1441.556
587.2262, 1454.332
587.7083, 1462.855
588.1904, 1456.358
588.6725, 1442.783
589.1547, 1435.376
589.6368, 1438.053
590.1189, 1441.116
590.6010, 1438.334
591.0831, 1434.161
591.5652, 1435.364
592.0474, 1441.573
592.5295, 1446.304
593.0116, 1444.789
593.4937, 1440.112
593.9758, 1442.583
594.4579, 1457.153
594.9401, 1467.058
595.4222, 1470.693
595.9043, 1469.346
596.3864, 1459.470
596.8685, 1445.103
597.3506, 1436.382
597.8328, 1439.543
598.3149, 1444.663
598.7970, 1440.652
599.2791, 1431.778
599.7612, 1430.204
600.2433, 1438.292
600.7255, 1447.610
601.2076, 1451.020
601.6897, 1449.293
602.1718, 1448.729
602.6539, 1449.773
603.1360, 1451.452
603.6182, 1453.215
604.1003, 1455.945
604.5824, 1462.704
605.0645, 1471.559
605.5466, 1475.143
606.0287, 1467.251
606.5109, 1454.531
606.9930, 1446.920
607.4751, 1443.807
607.9572, 1440.520
608.4393, 1435.913
608.9214, 1430.517
609.4036, 1423.602
609.8857, 1415.183
610.3678, 1414.642
610.8499, 1432.083
611.3320, 1443.844
611.8141, 1439.777
612.2963, 1430.378
612.7784, 1426.157
613.2605, 1428.177
613.7426, 1431.076
614.2247, 1430.834
614.7068, 1428.584
615.1890, 1427.325
615.6711, 1427.149
616.1532, 1425.406
616.6353, 1419.988
617.1174, 1415.176
617.5995, 1416.516
618.0817, 1424.169
618.5638, 1430.413
619.0459, 1436.966
619.5280, 1439.748
620.0101, 1432.714
620.4922, 1423.230
620.9744, 1421.995
621.4565, 1429.970
621.9386, 1437.673
622.4207, 1435.641
