##NAMES=Siegenite
##RRUFFID=R060502
##IDEAL CHEMISTRY=Co^2+^Ni^3+^_2_S^2-^_4_
##LOCALITY=Magmont mine, Viburnum Trend Lead Belt, southeastern Missouri, USA
##OWNER=RRUFF
##SOURCE=Michael Scott
##DESCRIPTION=Black octahedra covering a surface
##STATUS=The identification of this mineral is confirmed by single-crystal X-ray diffraction and chemical analysis.
##URL=rruff.info/R060502
##MEASURED CHEMISTRY=Co_1.00_(Ni_1.53_Co_0.32_Fe_0.15_)_Î£=2_S_4.00_ ; trace amounts of Cr
180.822, 1388.866
181.305, 1383.730
181.787, 1386.710
182.269, 1395.432
182.751, 1403.208
183.233, 1408.571
183.715, 1411.428
184.197, 1409.276
184.679, 1401.712
185.161, 1396.227
185.644, 1403.479
186.126, 1420.690
186.608, 1434.199
187.090, 1439.148
187.572, 1436.750
188.054, 1428.228
188.536, 1412.429
189.018, 1397.470
189.501, 1395.577
189.983, 1405.613
190.465, 1414.092
190.947, 1411.802
191.429, 1401.766
191.911, 1396.811
192.393, 1391.968
192.875, 1379.917
193.357, 1399.150
193.840, 1410.789
194.322, 1415.243
194.804, 1390.987
195.286, 1403.803
195.768, 1401.763
196.250, 1399.113
196.732, 1417.146
197.214, 1397.067
197.697, 1414.772
198.179, 1417.394
198.661, 1416.521
199.143, 1405.529
199.625, 1410.027
200.107, 1410.764
200.589, 1407.944
201.071, 1390.910
201.553, 1392.229
202.036, 1386.194
202.518, 1383.800
203.000, 1371.965
203.482, 1363.940
203.964, 1362.746
204.446, 1366.353
204.928, 1369.041
205.410, 1370.593
205.893, 1371.701
206.375, 1376.776
206.857, 1390.039
207.339, 1380.700
207.821, 1371.348
208.303, 1377.899
208.785, 1380.590
209.267, 1379.629
209.749, 1364.073
210.232, 1367.106
210.714, 1366.321
211.196, 1366.664
211.678, 1374.252
212.160, 1386.927
212.642, 1385.667
213.124, 1358.368
213.606, 1339.205
214.089, 1317.234
214.571, 1341.607
215.053, 1354.730
215.535, 1357.208
216.017, 1317.157
216.499, 1332.024
216.981, 1324.882
217.463, 1316.838
217.945, 1339.433
218.428, 1305.569
218.910, 1327.678
219.392, 1327.444
219.874, 1337.436
220.356, 1320.710
220.838, 1338.862
221.320, 1350.404
221.802, 1351.445
222.285, 1336.037
222.767, 1323.989
223.249, 1322.082
223.731, 1330.993
224.213, 1321.220
224.695, 1332.509
225.177, 1338.686
225.659, 1340.025
226.141, 1322.035
226.624, 1329.004
227.106, 1328.277
227.588, 1323.431
228.070, 1314.764
228.552, 1327.641
229.034, 1335.289
229.516, 1337.987
229.998, 1320.915
230.480, 1329.373
230.963, 1327.600
231.445, 1325.407
231.927, 1337.458
232.409, 1323.262
232.891, 1335.087
233.373, 1336.525
233.855, 1342.717
234.337, 1338.614
234.820, 1337.691
235.302, 1347.066
235.784, 1350.739
236.266, 1340.218
236.748, 1349.275
237.230, 1354.117
237.712, 1342.122
238.194, 1351.869
238.676, 1352.903
239.159, 1358.250
239.641, 1378.755
240.123, 1376.424
240.605, 1364.744
241.087, 1362.767
241.569, 1373.451
242.051, 1389.083
242.533, 1379.832
243.016, 1401.186
243.498, 1415.111
243.980, 1422.006
244.462, 1400.816
244.944, 1415.893
245.426, 1416.435
245.908, 1416.381
246.390, 1436.562
246.872, 1419.456
247.355, 1439.316
247.837, 1444.420
248.319, 1456.277
248.801, 1450.490
249.283, 1451.951
249.765, 1455.906
250.247, 1458.385
250.729, 1459.847
251.212, 1454.496
251.694, 1461.444
252.176, 1465.406
252.658, 1466.544
253.140, 1456.395
253.622, 1460.820
254.104, 1459.405
254.586, 1460.881
255.068, 1466.451
255.551, 1464.682
256.033, 1459.171
256.515, 1454.946
256.997, 1451.349
257.479, 1450.563
257.961, 1455.101
258.443, 1467.608
258.925, 1470.205
259.408, 1458.021
259.890, 1440.363
260.372, 1431.574
260.854, 1435.739
261.336, 1439.697
261.818, 1439.236
262.300, 1433.683
262.782, 1427.633
263.264, 1412.325
263.746, 1425.572
264.229, 1431.888
264.711, 1431.644
265.193, 1405.198
265.675, 1412.588
266.157, 1406.418
266.639, 1399.692
267.121, 1411.843
267.603, 1389.208
268.086, 1401.060
268.568, 1399.146
269.050, 1403.532
269.532, 1391.457
270.014, 1387.484
270.496, 1385.152
270.978, 1385.455
271.460, 1385.976
271.943, 1382.737
272.425, 1374.387
272.907, 1368.088
273.389, 1366.252
273.871, 1368.894
274.353, 1372.730
274.835, 1378.623
275.317, 1383.899
275.799, 1384.797
276.282, 1380.614
276.764, 1376.201
277.246, 1373.541
277.728, 1372.299
278.210, 1367.055
278.692, 1356.453
279.174, 1345.577
279.656, 1340.553
280.138, 1341.753
280.621, 1344.137
281.103, 1346.045
281.585, 1347.843
282.067, 1353.269
282.549, 1363.637
283.031, 1372.611
283.513, 1371.610
283.995, 1360.640
284.478, 1352.756
284.960, 1352.666
285.442, 1358.214
285.924, 1360.533
286.406, 1359.224
286.888, 1357.239
287.370, 1356.010
287.852, 1355.829
288.335, 1360.468
288.817, 1373.005
289.299, 1389.899
289.781, 1402.714
290.263, 1411.497
290.745, 1415.635
291.227, 1409.597
291.709, 1396.364
292.191, 1392.752
292.674, 1405.714
293.156, 1427.443
293.638, 1442.702
294.120, 1451.442
294.602, 1457.370
295.084, 1460.841
295.566, 1463.437
296.048, 1470.293
296.530, 1483.434
297.013, 1500.159
297.495, 1517.961
297.977, 1536.642
298.459, 1551.793
298.941, 1554.660
299.423, 1552.609
299.905, 1562.227
300.387, 1589.661
300.870, 1623.750
301.352, 1645.107
301.834, 1658.618
302.316, 1686.979
302.798, 1694.206
303.280, 1709.026
303.762, 1722.004
304.244, 1733.239
304.727, 1737.503
305.209, 1750.766
305.691, 1760.423
306.173, 1769.931
306.655, 1784.461
307.137, 1789.740
307.619, 1804.191
308.101, 1814.308
308.583, 1843.543
309.065, 1839.872
309.548, 1813.697
310.030, 1786.675
310.512, 1770.108
310.994, 1756.624
311.476, 1740.226
311.958, 1719.969
312.440, 1699.604
312.922, 1681.064
313.405, 1663.739
313.887, 1646.551
314.369, 1627.884
314.851, 1610.139
315.333, 1595.780
315.815, 1585.282
316.297, 1572.893
316.779, 1555.415
317.262, 1535.034
317.744, 1523.564
318.226, 1519.360
318.708, 1513.391
319.190, 1505.754
319.672, 1491.448
320.154, 1485.754
320.636, 1476.609
321.118, 1467.321
321.601, 1462.838
322.083, 1449.502
322.565, 1444.472
323.047, 1440.107
323.529, 1446.835
324.011, 1449.204
324.493, 1439.863
324.975, 1428.457
325.457, 1420.865
325.940, 1421.500
326.422, 1407.803
326.904, 1415.772
327.386, 1418.480
327.868, 1416.213
328.350, 1394.065
328.832, 1397.589
329.314, 1390.825
329.797, 1383.638
330.279, 1390.776
330.761, 1371.518
331.243, 1378.429
331.725, 1374.894
332.207, 1376.140
332.689, 1364.895
333.171, 1372.429
333.654, 1366.003
334.136, 1363.447
334.618, 1366.434
335.100, 1372.246
335.582, 1376.403
336.064, 1378.531
336.546, 1379.839
337.028, 1380.960
337.510, 1382.095
337.992, 1380.395
338.475, 1373.850
338.957, 1367.382
339.439, 1369.132
339.921, 1381.733
340.403, 1388.385
340.885, 1380.350
341.367, 1360.395
341.849, 1356.845
342.332, 1373.108
342.814, 1393.754
343.296, 1401.513
343.778, 1396.606
344.260, 1397.078
344.742, 1408.273
345.224, 1427.026
345.706, 1446.071
346.189, 1465.887
346.671, 1480.776
347.153, 1480.439
347.635, 1469.690
348.117, 1470.464
348.599, 1489.755
349.081, 1516.533
349.563, 1532.584
350.045, 1539.048
350.528, 1544.270
351.010, 1554.760
351.492, 1567.397
351.974, 1576.156
352.456, 1579.999
352.938, 1581.127
353.420, 1581.222
353.902, 1580.387
354.384, 1578.932
354.867, 1566.480
355.349, 1569.770
355.831, 1569.238
356.313, 1565.090
356.795, 1546.498
357.277, 1546.559
357.759, 1539.144
358.241, 1531.423
358.724, 1534.109
359.206, 1517.617
359.688, 1520.137
360.170, 1515.069
360.652, 1513.474
361.134, 1504.358
361.616, 1497.565
362.098, 1498.294
362.581, 1494.858
363.063, 1484.877
363.545, 1483.502
364.027, 1466.749
364.509, 1463.490
364.991, 1466.054
365.473, 1456.450
365.955, 1455.214
366.437, 1450.790
366.919, 1431.885
367.402, 1438.165
367.884, 1426.676
368.366, 1427.483
368.848, 1420.105
369.330, 1417.058
369.812, 1415.520
370.294, 1407.832
370.776, 1416.645
371.259, 1421.453
371.741, 1422.470
372.223, 1408.346
372.705, 1413.774
373.187, 1411.366
373.669, 1408.637
374.151, 1416.817
374.633, 1404.895
375.116, 1412.902
375.598, 1412.954
376.080, 1411.161
376.562, 1441.241
377.044, 1463.115
377.526, 1477.223
378.008, 1460.309
378.490, 1483.456
378.973, 1490.547
379.455, 1496.980
379.937, 1516.924
380.419, 1525.221
380.901, 1530.091
381.383, 1527.758
381.865, 1523.495
382.347, 1527.773
382.829, 1539.875
383.311, 1551.497
383.794, 1557.325
384.276, 1559.527
384.758, 1564.243
385.240, 1572.210
385.722, 1579.513
386.204, 1580.455
386.686, 1577.411
387.168, 1576.410
387.651, 1581.392
388.133, 1588.778
388.615, 1595.958
389.097, 1602.759
389.579, 1606.341
390.061, 1606.301
390.543, 1601.348
391.025, 1589.859
391.508, 1570.112
391.990, 1545.361
392.472, 1514.015
392.954, 1478.234
393.436, 1446.205
393.918, 1420.858
394.400, 1400.760
394.882, 1384.999
395.364, 1373.957
395.847, 1366.176
396.329, 1362.850
396.811, 1362.278
397.293, 1361.629
397.775, 1345.971
398.257, 1343.909
398.739, 1330.234
399.221, 1343.818
399.703, 1350.785
400.186, 1351.491
400.668, 1327.183
401.150, 1335.176
401.632, 1330.223
402.114, 1324.740
402.596, 1337.279
403.078, 1316.609
403.560, 1328.862
404.043, 1327.972
404.525, 1333.098
405.007, 1325.198
405.489, 1321.322
405.971, 1330.475
406.453, 1332.413
406.935, 1323.015
407.417, 1328.522
407.900, 1313.336
408.382, 1289.484
408.864, 1291.285
409.346, 1314.033
409.828, 1321.756
410.310, 1312.936
410.792, 1297.886
411.274, 1283.760
411.756, 1261.040
412.238, 1291.800
412.721, 1309.578
413.203, 1315.072
413.685, 1271.490
414.167, 1291.279
414.649, 1285.672
415.131, 1279.023
415.613, 1307.733
416.095, 1271.288
416.578, 1299.437
417.060, 1301.800
417.542, 1315.965
418.024, 1299.298
418.506, 1301.431
418.988, 1276.025
419.470, 1250.876
419.952, 1244.382
420.435, 1260.237
420.917, 1278.926
421.399, 1301.788
421.881, 1320.948
422.363, 1328.305
422.845, 1310.356
423.327, 1293.147
423.809, 1283.072
424.291, 1279.640
424.774, 1274.800
425.256, 1258.024
425.738, 1239.312
426.220, 1272.149
426.702, 1292.473
427.184, 1300.957
427.666, 1262.136
428.148, 1284.399
428.630, 1282.182
429.113, 1278.961
429.595, 1309.821
430.077, 1277.881
430.559, 1304.858
431.041, 1311.227
431.523, 1316.499
432.005, 1317.932
432.487, 1309.927
432.970, 1292.615
433.452, 1279.295
433.934, 1273.141
434.416, 1272.796
434.898, 1276.845
435.380, 1285.077
435.862, 1292.499
436.344, 1294.880
436.827, 1294.041
437.309, 1294.249
437.791, 1296.516
438.273, 1298.084
438.755, 1295.552
439.237, 1290.238
439.719, 1285.010
440.201, 1277.497
440.683, 1273.173
441.165, 1279.161
441.648, 1295.356
442.130, 1308.632
442.612, 1311.171
443.094, 1308.329
443.576, 1304.562
444.058, 1298.271
444.540, 1294.406
445.022, 1293.893
445.505, 1296.756
445.987, 1302.980
446.469, 1320.541
446.951, 1334.520
447.433, 1337.972
447.915, 1326.352
448.397, 1318.851
448.879, 1318.542
449.362, 1320.319
449.844, 1317.323
450.326, 1304.835
450.808, 1298.819
451.290, 1305.323
451.772, 1321.559
452.254, 1328.002
452.736, 1322.096
453.218, 1314.598
453.701, 1313.684
454.183, 1319.183
454.665, 1322.311
455.147, 1321.848
455.629, 1319.776
456.111, 1318.895
456.593, 1319.122
457.075, 1319.819
457.557, 1319.378
458.040, 1319.605
458.522, 1325.885
459.004, 1338.197
459.486, 1348.087
459.968, 1348.024
460.450, 1341.581
460.932, 1333.121
461.414, 1320.434
461.897, 1311.260
462.379, 1313.385
462.861, 1323.121
463.343, 1330.853
463.825, 1334.170
464.307, 1333.340
464.789, 1325.656
465.271, 1307.262
465.754, 1298.670
466.236, 1314.230
466.718, 1336.839
467.200, 1349.312
467.682, 1344.518
468.164, 1336.368
468.646, 1323.373
469.128, 1307.128
469.610, 1298.881
470.093, 1302.482
470.575, 1307.977
471.057, 1309.262
471.539, 1304.125
472.021, 1306.869
472.503, 1321.225
472.985, 1337.440
473.467, 1338.467
473.949, 1323.880
474.432, 1312.198
474.914, 1310.581
475.396, 1315.691
475.878, 1318.599
476.360, 1319.352
476.842, 1319.457
477.324, 1320.619
477.806, 1321.917
478.289, 1321.078
478.771, 1316.914
479.253, 1313.174
479.735, 1316.569
480.217, 1322.841
480.699, 1323.217
481.181, 1300.511
481.663, 1281.370
482.146, 1287.624
482.628, 1319.590
483.110, 1341.742
483.592, 1333.268
484.074, 1315.085
484.556, 1302.595
485.038, 1299.215
485.520, 1300.016
486.002, 1309.837
486.484, 1322.995
486.967, 1326.649
487.449, 1310.604
487.931, 1299.656
488.413, 1303.487
488.895, 1323.550
489.377, 1337.742
489.859, 1345.475
490.341, 1348.138
490.824, 1345.833
491.306, 1338.363
491.788, 1330.010
492.270, 1319.949
492.752, 1311.721
493.234, 1316.356
493.716, 1332.373
494.198, 1344.446
494.681, 1339.362
495.163, 1325.776
495.645, 1320.404
496.127, 1324.029
496.609, 1329.945
497.091, 1335.240
497.573, 1338.576
498.055, 1337.866
498.537, 1329.231
499.020, 1320.634
499.502, 1315.338
499.984, 1313.352
500.466, 1314.531
500.948, 1323.185
501.430, 1331.353
501.912, 1335.236
502.394, 1333.370
502.876, 1332.047
503.359, 1332.512
503.841, 1333.245
504.323, 1332.924
504.805, 1330.907
505.287, 1325.575
505.769, 1335.220
506.251, 1341.229
506.733, 1343.798
507.216, 1332.623
507.698, 1339.196
508.180, 1338.657
508.662, 1337.825
509.144, 1346.896
509.626, 1337.720
510.108, 1346.634
510.590, 1347.004
511.073, 1364.276
511.555, 1373.237
512.037, 1363.737
512.519, 1348.187
513.001, 1340.283
513.483, 1338.972
513.965, 1340.887
514.447, 1347.205
514.929, 1353.996
515.412, 1358.837
515.894, 1361.649
516.376, 1360.836
516.858, 1348.110
517.340, 1335.140
517.822, 1332.634
518.304, 1359.897
518.786, 1377.611
519.268, 1372.002
519.751, 1352.311
520.233, 1346.342
520.715, 1366.110
521.197, 1381.742
521.679, 1377.680
522.161, 1350.247
522.643, 1353.814
523.125, 1340.416
523.607, 1358.448
524.090, 1368.851
524.572, 1372.034
525.054, 1346.375
525.536, 1357.960
526.018, 1354.619
526.500, 1350.667
526.982, 1367.493
527.464, 1346.029
527.947, 1362.527
528.429, 1363.871
528.911, 1372.150
529.393, 1365.411
529.875, 1363.311
530.357, 1376.234
530.839, 1380.838
531.321, 1372.371
531.804, 1381.091
532.286, 1359.102
532.768, 1364.061
533.250, 1380.646
533.732, 1372.934
534.214, 1381.928
534.696, 1384.560
535.178, 1358.275
535.661, 1382.279
536.143, 1384.535
536.625, 1364.459
537.107, 1386.740
537.589, 1369.744
538.071, 1366.767
538.553, 1373.838
539.035, 1368.950
539.517, 1369.954
540.000, 1380.355
540.482, 1398.465
540.964, 1405.416
541.446, 1386.416
541.928, 1357.182
542.410, 1347.630
542.892, 1355.607
543.374, 1365.044
543.856, 1364.112
544.339, 1359.649
544.821, 1358.860
545.303, 1363.171
545.785, 1369.245
546.267, 1381.809
546.749, 1392.979
547.231, 1393.424
547.713, 1360.260
548.195, 1339.020
548.678, 1348.201
549.160, 1379.532
549.642, 1395.489
550.124, 1388.854
550.606, 1376.762
551.088, 1363.101
551.570, 1346.175
552.052, 1344.344
552.534, 1362.488
553.017, 1383.989
553.499, 1390.013
553.981, 1381.520
554.463, 1377.340
554.945, 1382.655
555.427, 1390.392
555.909, 1386.850
556.391, 1375.052
556.874, 1366.774
557.356, 1374.626
557.838, 1385.022
558.320, 1381.770
558.802, 1365.354
559.284, 1350.311
559.766, 1341.482
560.248, 1339.179
560.731, 1344.907
561.213, 1365.421
561.695, 1381.011
562.177, 1385.158
562.659, 1383.082
563.141, 1382.611
563.623, 1384.225
564.105, 1387.111
564.588, 1393.104
565.070, 1400.549
565.552, 1397.833
566.034, 1381.419
566.516, 1367.040
566.998, 1363.960
567.480, 1371.565
567.962, 1383.927
568.444, 1401.835
568.927, 1418.058
569.409, 1424.240
569.891, 1422.617
570.373, 1418.293
570.855, 1412.065
571.337, 1404.553
571.819, 1394.227
572.301, 1382.918
572.783, 1374.670
573.266, 1372.269
573.748, 1372.577
574.230, 1374.983
574.712, 1379.472
575.194, 1382.986
575.676, 1384.058
576.158, 1384.680
576.640, 1385.437
577.122, 1383.557
577.605, 1387.151
578.087, 1379.036
578.569, 1389.224
579.051, 1394.969
579.533, 1396.510
580.015, 1381.254
580.497, 1387.688
580.979, 1385.430
581.461, 1382.815
581.944, 1392.301
582.426, 1379.488
582.908, 1387.596
583.390, 1397.342
583.872, 1406.579
584.354, 1414.358
584.836, 1415.432
585.318, 1397.061
585.801, 1374.927
586.283, 1364.571
586.765, 1378.044
587.247, 1390.250
587.729, 1391.282
588.211, 1387.563
588.693, 1391.336
589.175, 1413.357
589.657, 1428.153
590.140, 1427.180
590.622, 1413.335
591.104, 1410.107
591.586, 1420.495
592.068, 1431.710
592.550, 1436.357
593.032, 1434.844
593.515, 1431.612
593.997, 1426.657
594.479, 1420.826
594.961, 1400.932
595.443, 1387.598
595.925, 1404.891
596.407, 1414.750
596.889, 1417.574
597.371, 1392.291
597.854, 1403.302
598.336, 1399.768
598.818, 1395.638
599.300, 1411.757
599.782, 1390.563
600.264, 1406.360
600.746, 1407.392
601.228, 1415.181
601.710, 1408.336
602.193, 1406.011
602.675, 1418.326
603.157, 1406.252
603.639, 1407.559
604.121, 1430.334
604.603, 1435.105
605.085, 1422.551
605.567, 1412.840
606.049, 1409.710
606.532, 1411.715
607.014, 1419.893
607.496, 1431.984
607.978, 1440.368
608.460, 1407.115
608.942, 1389.097
609.424, 1412.536
609.906, 1425.911
610.388, 1429.764
610.871, 1395.573
611.353, 1410.508
611.835, 1405.755
612.317, 1400.195
612.799, 1422.044
613.281, 1393.387
613.763, 1414.801
614.245, 1416.228
614.728, 1426.802
615.210, 1417.568
615.692, 1414.451
616.174, 1431.151
616.656, 1436.878
617.138, 1425.363
617.620, 1436.519
618.102, 1407.170
618.584, 1413.364
619.067, 1434.894
619.549, 1424.376
620.031, 1435.894
620.513, 1439.019
620.995, 1404.002
621.477, 1435.318
621.959, 1437.948
622.442, 1411.122
622.924, 1420.745
623.406, 1430.539
623.888, 1438.318
624.370, 1437.193
624.852, 1437.981
625.334, 1443.634
625.816, 1449.558
626.298, 1445.253
626.781, 1426.942
627.263, 1415.866
627.745, 1416.463
628.227, 1403.997
628.709, 1422.138
629.191, 1432.851
629.673, 1436.532
630.155, 1412.125
630.638, 1423.989
631.120, 1421.316
631.602, 1418.048
632.084, 1435.016
632.566, 1428.185
633.048, 1424.198
633.530, 1418.160
634.012, 1402.314
634.494, 1397.058
634.977, 1417.429
635.459, 1445.452
635.941, 1459.486
636.423, 1452.690
636.905, 1445.340
637.387, 1439.252
637.869, 1435.140
638.351, 1436.975
638.833, 1445.417
639.316, 1449.360
639.798, 1441.007
640.280, 1425.568
640.762, 1414.739
641.244, 1408.508
641.726, 1406.004
642.208, 1410.548
642.690, 1416.269
643.172, 1415.844
643.655, 1406.985
644.137, 1401.555
644.619, 1411.708
645.101, 1423.603
645.583, 1424.918
646.065, 1397.817
646.547, 1382.596
647.029, 1383.585
647.511, 1394.611
647.994, 1406.221
648.476, 1418.725
648.958, 1430.284
649.440, 1440.379
649.922, 1448.915
650.404, 1456.831
650.886, 1463.568
651.369, 1464.135
651.851, 1446.746
652.333, 1425.918
652.815, 1423.879
653.297, 1440.022
653.779, 1455.193
654.261, 1457.271
654.743, 1455.268
655.225, 1455.837
655.708, 1461.329
656.190, 1465.309
656.672, 1466.390
657.154, 1466.089
657.636, 1465.803
658.118, 1466.128
658.600, 1464.857
659.082, 1461.851
659.565, 1457.078
660.047, 1447.698
660.529, 1434.220
661.011, 1429.420
661.493, 1444.143
661.975, 1463.113
662.457, 1458.052
662.939, 1434.903
663.421, 1416.917
663.904, 1422.678
664.386, 1433.688
664.868, 1436.597
665.350, 1430.779
665.832, 1427.059
666.314, 1429.099
666.796, 1433.278
667.278, 1438.068
667.760, 1444.667
668.243, 1447.302
668.725, 1444.095
669.207, 1439.921
669.689, 1440.966
670.171, 1447.036
670.653, 1448.595
671.135, 1442.963
671.617, 1435.596
672.099, 1432.510
672.582, 1433.536
673.064, 1438.841
673.546, 1457.037
674.028, 1470.146
674.510, 1462.288
674.992, 1439.346
675.474, 1427.674
675.956, 1444.438
676.439, 1454.299
676.921, 1457.628
677.403, 1434.862
677.885, 1445.336
678.367, 1439.758
678.849, 1431.694
679.331, 1431.482
679.813, 1439.072
680.295, 1450.155
680.778, 1465.609
681.260, 1477.299
681.742, 1473.072
682.224, 1460.213
682.706, 1453.936
683.188, 1457.816
683.670, 1463.872
684.153, 1472.292
684.635, 1477.435
685.117, 1472.426
685.599, 1438.887
686.081, 1414.940
686.563, 1410.585
687.045, 1418.801
687.527, 1428.690
688.009, 1442.528
688.492, 1446.089
688.974, 1433.491
689.456, 1449.710
689.938, 1458.933
690.420, 1461.538
690.902, 1437.698
691.384, 1448.006
691.866, 1444.629
692.348, 1440.690
692.831, 1455.804
693.313, 1435.811
693.795, 1450.622
694.277, 1451.540
694.759, 1458.817
695.241, 1449.480
695.723, 1449.118
696.205, 1459.937
696.688, 1471.794
697.170, 1477.869
697.652, 1476.559
698.134, 1474.764
698.616, 1472.599
699.098, 1470.280
699.580, 1467.849
700.062, 1465.461
700.544, 1463.673
701.027, 1462.102
701.509, 1462.508
701.991, 1471.367
702.473, 1483.333
702.955, 1487.408
