##NAMES=Siegenite
##RRUFFID=R070252
##IDEAL CHEMISTRY=Co^2+^Ni^3+^_2_S^2-^_4_
##LOCALITY=Gruge Viktoria Musen, Siegen, Siegerland, North Rhine-Westphalia, Germany
##OWNER=RRUFF
##SOURCE=Michael Scott
##DESCRIPTION=Steel gray cubo-octahedra associated with dark gray tetrahedrite (with parallel growth on corners), siderite and minor quartz
##STATUS=The identification of this mineral is confirmed by single-crystal X-ray diffraction and chemical analysis.
##URL=rruff.info/R070252
##MEASURED CHEMISTRY=Co_1.00_(Ni_1.56_Co_0.42_Fe_0.02_)_Î£=2_S_4_
163.1611, 781.2410
163.6432, 770.4681
164.1253, 761.3796
164.6075, 763.4325
165.0896, 777.0509
165.5717, 788.7713
166.0538, 788.2034
166.5359, 781.5005
167.0180, 777.4824
167.5002, 784.3771
167.9823, 792.4456
168.4644, 792.5020
168.9465, 782.5131
169.4286, 773.9920
169.9107, 777.4052
170.3929, 788.5849
170.8750, 798.8487
171.3571, 800.0616
171.8392, 799.6031
172.3213, 807.4958
172.8034, 827.8682
173.2856, 846.8197
173.7677, 849.6082
174.2498, 839.4930
174.7319, 827.6832
175.2140, 817.3018
175.6961, 810.3143
176.1783, 810.7618
176.6604, 821.5714
177.1425, 836.0518
177.6246, 847.6774
178.1067, 856.2877
178.5888, 861.5812
179.0710, 861.1907
179.5531, 857.2336
180.0352, 854.4695
180.5173, 854.6691
180.9994, 855.9601
181.4815, 854.6617
181.9637, 850.8647
182.4458, 847.7722
182.9279, 848.5509
183.4100, 852.4297
183.8921, 856.5428
184.3742, 860.2996
184.8564, 863.6738
185.3385, 866.3970
185.8206, 868.4612
186.3027, 870.2514
186.7848, 871.8651
187.2669, 873.4020
187.7491, 875.6890
188.2312, 879.5703
188.7133, 884.4341
189.1954, 888.3826
189.6775, 891.5093
190.1596, 893.1570
190.6418, 891.0437
191.1239, 885.3273
191.6060, 881.8839
192.0881, 884.8300
192.5702, 893.1459
193.0524, 897.3740
193.5345, 896.6675
194.0166, 894.0629
194.4987, 894.1426
194.9808, 897.0424
195.4629, 900.5924
195.9451, 904.0768
196.4272, 907.5283
196.9093, 909.7971
197.3914, 910.1757
197.8735, 910.4279
198.3556, 915.2881
198.8378, 925.8375
199.3199, 934.0657
199.8020, 934.0178
200.2841, 924.9375
200.7662, 918.7369
201.2483, 915.9166
201.7305, 916.5069
202.2126, 922.8074
202.6947, 937.3377
203.1768, 948.1703
203.6589, 945.3859
204.1410, 926.2389
204.6232, 913.2305
205.1053, 908.9752
205.5874, 911.8447
206.0695, 917.5791
206.5516, 927.6683
207.0337, 936.7098
207.5159, 940.5415
207.9980, 938.0157
208.4801, 935.4022
208.9622, 933.3997
209.4443, 931.8901
209.9264, 930.1683
210.4086, 927.9118
210.8907, 926.0871
211.3728, 925.4396
211.8549, 926.0646
212.3370, 927.9106
212.8191, 932.7755
213.3013, 939.5062
213.7834, 936.6797
214.2655, 918.1151
214.7476, 899.9061
215.2297, 897.3828
215.7118, 916.4794
216.1940, 934.9681
216.6761, 949.6102
217.1582, 960.4903
217.6403, 967.6840
218.1224, 971.0561
218.6045, 970.8343
219.0867, 966.0661
219.5688, 953.4227
220.0509, 944.1855
220.5330, 940.9515
221.0151, 943.7446
221.4972, 949.6304
221.9794, 961.1091
222.4615, 972.9473
222.9436, 978.9033
223.4257, 974.8900
223.9078, 973.6578
224.3899, 979.7868
224.8721, 994.4534
225.3542, 1001.522
225.8363, 997.2067
226.3184, 988.9490
226.8005, 985.3771
227.2827, 987.6898
227.7648, 992.6567
228.2469, 1000.905
228.7290, 1013.562
229.2111, 1020.012
229.6932, 1016.312
230.1754, 1009.529
230.6575, 1009.406
231.1396, 1020.263
231.6217, 1030.143
232.1038, 1035.484
232.5859, 1035.310
233.0681, 1036.023
233.5502, 1038.853
234.0323, 1041.692
234.5144, 1041.097
234.9965, 1034.477
235.4786, 1028.796
235.9608, 1026.161
236.4429, 1027.047
236.9250, 1028.965
237.4071, 1032.476
237.8892, 1036.660
238.3713, 1039.998
238.8535, 1041.922
239.3356, 1044.015
239.8177, 1047.595
240.2998, 1054.458
240.7819, 1055.238
241.2640, 1045.673
241.7462, 1032.515
242.2283, 1027.922
242.7104, 1037.094
243.1925, 1046.282
243.6746, 1050.777
244.1567, 1049.010
244.6389, 1047.875
245.1210, 1047.525
245.6031, 1047.715
246.0852, 1047.452
246.5673, 1044.065
247.0494, 1044.899
247.5316, 1054.846
248.0137, 1080.243
248.4958, 1092.487
248.9779, 1085.779
249.4600, 1069.085
249.9421, 1058.947
250.4243, 1057.016
250.9064, 1058.584
251.3885, 1063.290
251.8706, 1074.104
252.3527, 1077.444
252.8348, 1069.605
253.3170, 1056.611
253.7991, 1050.063
254.2812, 1052.299
254.7633, 1056.659
255.2454, 1061.593
255.7275, 1068.439
256.2097, 1070.007
256.6918, 1062.939
257.1739, 1052.883
257.6560, 1051.196
258.1381, 1062.310
258.6202, 1072.645
259.1024, 1076.288
259.5845, 1070.687
260.0666, 1069.371
260.5487, 1074.941
261.0308, 1082.817
261.5129, 1083.741
261.9951, 1074.141
262.4772, 1066.147
262.9593, 1066.018
263.4414, 1076.791
263.9235, 1080.322
264.4056, 1073.953
264.8878, 1062.838
265.3699, 1055.666
265.8520, 1052.926
266.3341, 1052.614
266.8162, 1055.265
267.2983, 1062.094
267.7805, 1063.028
268.2626, 1055.254
268.7447, 1044.703
269.2268, 1042.721
269.7089, 1051.963
270.1910, 1060.210
270.6732, 1061.586
271.1553, 1054.922
271.6374, 1052.990
272.1195, 1056.602
272.6016, 1063.763
273.0837, 1072.403
273.5659, 1083.524
274.0480, 1091.243
274.5301, 1092.201
275.0122, 1086.094
275.4943, 1081.553
275.9764, 1078.707
276.4586, 1077.179
276.9407, 1076.547
277.4228, 1076.856
277.9049, 1077.683
278.3870, 1078.562
278.8691, 1079.566
279.3513, 1082.580
279.8334, 1087.922
280.3155, 1094.462
280.7976, 1102.823
281.2798, 1113.283
281.7619, 1117.335
282.2440, 1107.241
282.7261, 1085.984
283.2082, 1077.666
283.6903, 1084.199
284.1725, 1096.637
284.6546, 1105.278
285.1367, 1110.106
285.6188, 1112.502
286.1009, 1112.627
286.5830, 1110.675
287.0652, 1106.396
287.5473, 1099.263
288.0294, 1093.180
288.5115, 1093.554
288.9936, 1099.656
289.4757, 1105.283
289.9579, 1107.170
290.4400, 1107.399
290.9221, 1113.029
291.4042, 1124.501
291.8863, 1135.868
292.3684, 1140.013
292.8506, 1138.505
293.3327, 1138.415
293.8148, 1143.742
294.2969, 1150.841
294.7790, 1152.474
295.2611, 1148.622
295.7433, 1142.347
296.2254, 1133.720
296.7075, 1124.412
297.1896, 1119.391
297.6717, 1120.600
298.1538, 1126.203
298.6360, 1136.078
299.1181, 1149.708
299.6002, 1159.958
300.0823, 1157.677
300.5644, 1148.632
301.0465, 1143.999
301.5287, 1148.529
302.0108, 1156.343
302.4929, 1161.616
302.9750, 1164.552
303.4571, 1166.029
303.9392, 1166.910
304.4214, 1166.640
304.9035, 1163.798
305.3856, 1155.598
305.8677, 1148.813
306.3498, 1151.836
306.8319, 1162.069
307.3141, 1170.418
307.7962, 1169.318
308.2783, 1164.666
308.7604, 1161.992
309.2425, 1162.318
309.7246, 1165.085
310.2068, 1173.096
310.6889, 1183.682
311.1710, 1190.033
311.6531, 1185.663
312.1352, 1177.766
312.6173, 1171.659
313.0995, 1168.859
313.5816, 1166.123
314.0637, 1159.055
314.5458, 1151.152
315.0279, 1148.902
315.5100, 1162.453
315.9922, 1176.537
316.4743, 1182.098
316.9564, 1175.954
317.4385, 1170.167
317.9206, 1169.042
318.4027, 1170.579
318.8849, 1171.983
319.3670, 1173.198
319.8491, 1173.544
320.3312, 1172.222
320.8133, 1168.693
321.2954, 1166.478
321.7776, 1166.722
322.2597, 1168.412
322.7418, 1170.464
323.2239, 1176.629
323.7060, 1179.244
324.1881, 1174.428
324.6703, 1161.188
325.1524, 1152.168
325.6345, 1147.778
326.1166, 1148.288
326.5987, 1153.973
327.0808, 1173.159
327.5630, 1187.718
328.0451, 1195.519
328.5272, 1196.681
329.0093, 1193.539
329.4914, 1183.964
329.9735, 1172.125
330.4557, 1159.935
330.9378, 1141.646
331.4199, 1133.541
331.9020, 1141.347
332.3841, 1161.014
332.8662, 1172.630
333.3484, 1173.355
333.8305, 1170.164
334.3126, 1165.731
334.7947, 1158.001
335.2768, 1155.993
335.7589, 1162.383
336.2411, 1173.510
336.7232, 1179.907
337.2053, 1179.996
337.6874, 1179.823
338.1695, 1183.069
338.6516, 1190.500
339.1338, 1193.571
339.6159, 1190.287
340.0980, 1185.514
340.5801, 1188.774
341.0622, 1201.119
341.5443, 1212.198
342.0265, 1217.544
342.5086, 1217.670
342.9907, 1217.877
343.4728, 1218.352
343.9549, 1218.172
344.4370, 1215.737
344.9192, 1211.293
345.4013, 1206.871
345.8834, 1201.920
346.3655, 1197.900
346.8476, 1200.101
347.3297, 1208.683
347.8119, 1218.319
348.2940, 1223.159
348.7761, 1224.891
349.2582, 1228.817
349.7403, 1238.753
350.2225, 1249.308
350.7046, 1251.929
351.1867, 1247.418
351.6688, 1241.783
352.1509, 1237.748
352.6331, 1235.762
353.1152, 1237.008
353.5973, 1243.281
354.0794, 1249.951
354.5615, 1253.953
355.0436, 1255.180
355.5258, 1253.304
356.0079, 1242.296
356.4900, 1231.347
356.9721, 1229.925
357.4542, 1242.401
357.9363, 1254.504
358.4185, 1260.233
358.9006, 1259.966
359.3827, 1254.355
359.8648, 1233.659
360.3469, 1215.606
360.8290, 1211.854
361.3112, 1225.654
361.7933, 1236.927
362.2754, 1236.657
362.7575, 1231.626
363.2396, 1229.197
363.7217, 1232.471
364.2039, 1237.093
364.6860, 1243.617
365.1681, 1252.052
365.6502, 1256.009
366.1323, 1251.514
366.6144, 1244.337
367.0966, 1238.382
367.5787, 1231.194
368.0608, 1228.571
368.5429, 1233.593
369.0250, 1244.357
369.5071, 1250.870
369.9893, 1250.351
370.4714, 1248.815
370.9535, 1249.060
371.4356, 1251.522
371.9177, 1254.794
372.3998, 1258.985
372.8820, 1263.935
373.3641, 1269.655
373.8462, 1277.094
374.3283, 1282.803
374.8104, 1284.883
375.2925, 1282.985
375.7747, 1281.242
376.2568, 1278.897
376.7389, 1278.165
377.2210, 1283.819
377.7031, 1296.530
378.1852, 1305.771
378.6674, 1306.940
379.1495, 1302.156
379.6316, 1300.545
380.1137, 1302.311
380.5958, 1305.525
381.0779, 1309.666
381.5601, 1314.171
382.0422, 1315.328
382.5243, 1310.128
383.0064, 1304.062
383.4885, 1309.826
383.9706, 1325.475
384.4528, 1336.291
384.9349, 1324.280
385.4170, 1302.966
385.8991, 1296.501
386.3812, 1312.062
386.8633, 1330.814
387.3455, 1335.599
387.8276, 1330.149
388.3097, 1323.014
388.7918, 1315.754
389.2739, 1310.336
389.7560, 1310.054
390.2382, 1315.806
390.7203, 1318.799
391.2024, 1309.427
391.6845, 1296.348
392.1666, 1289.438
392.6487, 1299.464
393.1309, 1309.325
393.6130, 1311.807
394.0951, 1307.384
394.5772, 1302.692
395.0593, 1302.127
395.5414, 1300.114
396.0236, 1293.137
396.5057, 1270.459
396.9878, 1254.935
397.4699, 1252.056
397.9520, 1258.387
398.4341, 1263.120
398.9163, 1265.392
399.3984, 1266.952
399.8805, 1268.397
400.3626, 1269.810
400.8447, 1270.638
401.3268, 1269.409
401.8090, 1268.686
402.2911, 1273.339
402.7732, 1287.156
403.2553, 1296.070
403.7374, 1294.379
404.2195, 1282.933
404.7017, 1277.689
405.1838, 1279.947
405.6659, 1284.915
406.1480, 1289.313
406.6301, 1293.206
407.1122, 1293.479
407.5944, 1287.928
408.0765, 1280.133
408.5586, 1279.336
409.0407, 1285.412
409.5228, 1292.683
410.0049, 1298.431
410.4871, 1302.445
410.9692, 1304.170
411.4513, 1303.515
411.9334, 1300.681
412.4155, 1292.137
412.8976, 1280.960
413.3798, 1276.187
413.8619, 1289.511
414.3440, 1306.781
414.8261, 1312.527
415.3082, 1306.434
415.7903, 1298.079
416.2725, 1289.232
416.7546, 1283.245
417.2367, 1283.964
417.7188, 1297.726
418.2009, 1312.811
418.6830, 1326.684
419.1652, 1338.251
419.6473, 1342.946
420.1294, 1331.489
420.6115, 1318.561
421.0937, 1312.882
421.5758, 1321.277
422.0579, 1324.863
422.5400, 1315.402
423.0221, 1300.883
423.5042, 1294.256
423.9864, 1300.663
424.4685, 1309.821
424.9506, 1322.109
425.4327, 1338.338
425.9148, 1343.498
426.3969, 1327.562
426.8791, 1311.974
427.3612, 1318.961
427.8433, 1360.176
428.3254, 1386.739
428.8075, 1388.882
429.2896, 1372.797
429.7718, 1357.812
430.2539, 1343.362
430.7360, 1332.664
431.2181, 1330.840
431.7002, 1336.860
432.1823, 1333.343
432.6645, 1316.831
433.1466, 1299.424
433.6287, 1299.370
434.1108, 1313.920
434.5929, 1329.827
435.0750, 1344.696
435.5572, 1356.077
436.0393, 1356.829
436.5214, 1347.471
437.0035, 1338.982
437.4856, 1342.675
437.9677, 1351.823
438.4499, 1356.548
438.9320, 1351.386
439.4141, 1346.266
439.8962, 1351.817
440.3783, 1363.251
440.8604, 1368.389
441.3426, 1351.484
441.8247, 1334.544
442.3068, 1332.453
442.7889, 1350.896
443.2710, 1364.476
443.7531, 1362.234
444.2353, 1353.302
444.7174, 1347.740
445.1995, 1351.313
445.6816, 1353.619
446.1637, 1351.014
446.6458, 1344.363
447.1280, 1343.320
447.6101, 1352.640
448.0922, 1362.347
448.5743, 1366.141
449.0564, 1359.790
449.5385, 1359.801
450.0207, 1370.223
450.5028, 1383.877
450.9849, 1385.162
451.4670, 1371.098
451.9491, 1359.854
452.4312, 1360.178
452.9134, 1370.143
453.3955, 1374.168
453.8776, 1371.692
454.3597, 1367.259
454.8418, 1363.372
455.3239, 1360.789
455.8061, 1363.875
456.2882, 1376.875
456.7703, 1390.915
457.2524, 1392.145
457.7345, 1382.897
458.2166, 1372.620
458.6988, 1363.032
459.1809, 1357.385
459.6630, 1362.039
460.1451, 1379.408
460.6272, 1394.035
461.1093, 1393.561
461.5915, 1385.417
462.0736, 1378.807
462.5557, 1371.095
463.0378, 1370.991
463.5199, 1390.195
464.0020, 1424.465
464.4842, 1443.109
464.9663, 1423.990
465.4484, 1399.051
465.9305, 1384.680
466.4126, 1383.087
466.8947, 1389.674
467.3769, 1413.697
467.8590, 1441.823
468.3411, 1450.884
468.8232, 1430.026
469.3053, 1411.639
469.7874, 1405.555
470.2696, 1410.864
470.7517, 1409.226
471.2338, 1397.949
471.7159, 1388.000
472.1980, 1391.644
472.6801, 1408.462
473.1623, 1418.984
473.6444, 1419.491
474.1265, 1414.621
474.6086, 1410.382
475.0907, 1407.103
475.5728, 1406.910
476.0550, 1414.327
476.5371, 1424.385
477.0192, 1428.572
477.5013, 1426.584
477.9834, 1422.732
478.4655, 1417.765
478.9477, 1413.721
479.4298, 1413.656
479.9119, 1423.225
480.3940, 1430.958
480.8761, 1428.046
481.3582, 1418.165
481.8404, 1411.910
482.3225, 1415.364
482.8046, 1421.063
483.2867, 1425.731
483.7688, 1428.732
484.2509, 1431.933
484.7331, 1437.241
485.2152, 1441.883
485.6973, 1442.917
486.1794, 1435.938
486.6615, 1433.235
487.1436, 1439.003
487.6258, 1450.472
488.1079, 1454.202
488.5900, 1448.639
489.0721, 1439.500
489.5542, 1426.726
490.0363, 1410.118
490.5185, 1406.144
491.0006, 1417.238
491.4827, 1434.374
491.9648, 1448.838
492.4470, 1460.078
492.9291, 1464.088
493.4112, 1455.764
493.8933, 1442.608
494.3754, 1436.643
494.8575, 1436.865
495.3397, 1437.306
495.8218, 1434.116
496.3039, 1429.015
496.7860, 1423.450
497.2681, 1417.029
497.7502, 1412.260
498.2324, 1410.888
498.7145, 1411.813
499.1966, 1413.514
499.6787, 1411.806
500.1608, 1414.597
500.6429, 1429.176
501.1251, 1454.181
501.6072, 1467.845
502.0893, 1458.730
502.5714, 1446.962
503.0535, 1442.117
503.5356, 1448.138
504.0178, 1451.802
504.4999, 1453.126
504.9820, 1452.016
505.4641, 1447.044
505.9462, 1436.815
506.4283, 1429.935
506.9105, 1428.720
507.3926, 1432.827
507.8747, 1443.510
508.3568, 1461.324
508.8389, 1476.009
509.3210, 1478.508
509.8032, 1472.176
510.2853, 1465.558
510.7674, 1459.180
511.2495, 1454.856
511.7316, 1455.513
512.2137, 1459.555
512.6959, 1463.702
513.1780, 1469.214
513.6601, 1472.223
514.1422, 1466.936
514.6243, 1455.127
515.1064, 1448.838
515.5886, 1457.741
516.0707, 1470.163
516.5528, 1478.964
517.0349, 1481.845
517.5170, 1484.187
517.9991, 1488.169
518.4813, 1491.202
518.9634, 1489.330
519.4455, 1477.137
519.9276, 1469.623
520.4097, 1472.002
520.8918, 1482.095
521.3740, 1484.630
521.8561, 1477.242
522.3382, 1470.132
522.8203, 1470.998
523.3024, 1479.258
523.7845, 1485.520
524.2667, 1489.603
524.7488, 1490.436
525.2309, 1483.609
525.7130, 1471.834
526.1951, 1464.732
526.6772, 1467.124
527.1594, 1474.299
527.6415, 1483.629
528.1236, 1493.871
528.6057, 1499.719
529.0878, 1489.904
529.5699, 1479.873
530.0521, 1484.970
530.5342, 1512.836
531.0163, 1529.951
531.4984, 1512.652
531.9805, 1484.862
532.4626, 1471.954
532.9448, 1494.712
533.4269, 1511.622
533.9090, 1515.880
534.3911, 1510.694
534.8732, 1508.149
535.3553, 1508.489
535.8375, 1511.134
536.3196, 1517.995
536.8017, 1529.833
537.2838, 1529.734
537.7659, 1514.762
538.2480, 1497.530
538.7302, 1491.616
539.2123, 1495.804
539.6944, 1503.022
540.1765, 1513.925
540.6586, 1523.171
541.1407, 1520.042
541.6229, 1508.078
542.1050, 1499.949
542.5871, 1506.234
543.0692, 1516.919
543.5513, 1522.388
544.0334, 1522.141
544.5156, 1523.596
544.9977, 1537.447
545.4798, 1550.276
545.9619, 1550.542
546.4440, 1521.081
546.9261, 1501.354
547.4083, 1502.805
547.8904, 1516.206
548.3725, 1524.771
548.8546, 1524.903
549.3367, 1526.365
549.8188, 1532.811
550.3010, 1543.414
550.7831, 1547.847
551.2652, 1544.822
551.7473, 1539.913
552.2294, 1535.716
552.7115, 1532.518
553.1937, 1534.540
553.6758, 1543.088
554.1579, 1552.814
554.6400, 1557.638
555.1221, 1558.326
555.6042, 1556.920
556.0864, 1552.830
556.5685, 1548.298
557.0506, 1544.752
557.5327, 1542.409
558.0148, 1542.167
558.4969, 1548.633
558.9791, 1554.196
559.4612, 1552.046
559.9433, 1538.669
560.4254, 1532.459
560.9075, 1545.008
561.3896, 1561.521
561.8718, 1568.943
562.3539, 1561.004
562.8360, 1554.444
563.3181, 1550.165
563.8002, 1548.202
564.2823, 1549.418
564.7645, 1554.766
565.2466, 1558.812
565.7287, 1557.730
566.2108, 1553.440
566.6929, 1557.496
567.1750, 1570.287
567.6572, 1581.838
568.1393, 1582.031
568.6214, 1575.125
569.1035, 1569.266
569.5856, 1565.602
570.0677, 1563.404
570.5499, 1563.797
571.0320, 1564.862
571.5141, 1563.575
571.9962, 1554.066
572.4783, 1546.736
572.9604, 1546.818
573.4426, 1553.130
573.9247, 1559.337
574.4068, 1568.049
574.8889, 1572.944
575.3710, 1569.234
575.8531, 1553.126
576.3353, 1549.657
576.8174, 1564.753
577.2995, 1583.747
577.7816, 1592.046
578.2637, 1588.468
578.7458, 1586.752
579.2280, 1589.892
579.7101, 1593.881
580.1922, 1590.624
580.6743, 1581.252
581.1564, 1572.154
581.6385, 1564.560
582.1207, 1559.817
582.6028, 1561.264
583.0849, 1568.194
583.5670, 1575.155
584.0491, 1578.326
584.5313, 1580.626
585.0134, 1584.303
585.4955, 1589.914
585.9776, 1596.150
586.4597, 1607.155
586.9418, 1616.669
587.4240, 1616.947
587.9061, 1596.813
588.3882, 1585.167
588.8703, 1589.313
589.3524, 1602.773
589.8345, 1604.937
590.3167, 1592.224
590.7988, 1582.048
591.2809, 1583.571
591.7630, 1594.160
592.2451, 1600.203
592.7272, 1601.561
593.2094, 1601.771
593.6915, 1603.712
594.1736, 1606.610
594.6557, 1609.477
595.1378, 1612.574
595.6199, 1613.583
596.1021, 1607.921
596.5842, 1599.805
597.0663, 1595.230
597.5485, 1600.591
598.0306, 1605.232
598.5127, 1605.032
598.9948, 1601.106
599.4769, 1598.418
599.9590, 1596.852
600.4412, 1597.003
600.9233, 1599.142
601.4054, 1603.319
601.8875, 1609.672
602.3696, 1619.936
602.8517, 1627.979
603.3339, 1626.714
603.8160, 1616.994
604.2981, 1609.584
604.7802, 1605.488
605.2623, 1604.824
605.7444, 1610.138
606.2266, 1619.250
606.7087, 1626.154
607.1908, 1629.444
607.6729, 1629.019
608.1550, 1621.047
608.6371, 1608.649
609.1193, 1601.694
609.6014, 1612.694
610.0835, 1622.779
610.5656, 1619.217
611.0477, 1597.811
611.5298, 1591.042
612.0120, 1610.675
612.4941, 1634.406
612.9762, 1647.384
613.4583, 1646.860
613.9404, 1645.308
614.4225, 1643.088
614.9047, 1640.125
615.3868, 1635.637
615.8689, 1629.790
616.3510, 1625.331
616.8331, 1623.286
617.3152, 1622.736
617.7974, 1621.827
618.2795, 1621.051
618.7616, 1622.219
619.2437, 1626.787
619.7258, 1633.322
620.2079, 1643.148
620.6901, 1656.099
621.1722, 1662.945
621.6543, 1655.859
622.1364, 1644.845
622.6185, 1635.808
623.1006, 1626.768
623.5828, 1625.320
624.0649, 1636.225
624.5470, 1650.354
625.0291, 1655.754
625.5112, 1650.229
625.9933, 1648.565
626.4755, 1655.641
626.9576, 1665.000
627.4397, 1660.747
627.9218, 1644.729
628.4039, 1631.024
628.8860, 1627.074
629.3682, 1629.164
629.8503, 1634.646
630.3324, 1642.762
630.8145, 1648.000
631.2966, 1639.932
631.7787, 1632.804
632.2609, 1640.066
632.7430, 1670.074
633.2251, 1687.989
633.7072, 1676.436
634.1893, 1656.379
634.6714, 1644.695
635.1536, 1643.252
635.6357, 1646.963
636.1178, 1658.344
636.5999, 1671.652
637.0820, 1673.719
637.5641, 1663.858
638.0463, 1660.268
638.5284, 1672.689
639.0105, 1691.623
639.4926, 1697.128
639.9747, 1691.159
640.4568, 1684.973
640.9390, 1687.098
641.4211, 1691.014
641.9032, 1689.357
642.3853, 1681.632
642.8674, 1676.851
643.3495, 1682.313
643.8317, 1689.509
644.3138, 1692.143
644.7959, 1684.016
645.2780, 1682.469
645.7601, 1692.513
646.2422, 1704.734
646.7244, 1707.401
647.2065, 1698.581
647.6886, 1689.554
648.1707, 1681.104
648.6528, 1675.185
649.1349, 1677.725
649.6171, 1687.513
650.0992, 1696.014
650.5813, 1699.675
651.0634, 1699.612
651.5455, 1694.730
652.0276, 1686.281
652.5098, 1681.241
652.9919, 1682.930
653.4740, 1689.481
653.9561, 1703.259
654.4382, 1727.682
654.9203, 1739.095
655.4025, 1723.951
655.8846, 1703.660
