##NAMES=Siegenite
##RRUFFID=R050092
##IDEAL CHEMISTRY=Co^2+^Ni^3+^_2_S^2-^_4_
##LOCALITY=Bunker Hill mine, Jasper County, Missouri, USA
##OWNER=RRUFF
##SOURCE=Rock Currier
##DESCRIPTION=Silver metallic octahedra coating chalcopyrite
##STATUS=The identification of this mineral has been confirmed only by X-ray diffraction
##URL=rruff.info/R050092
162.779, 3352.000
164.161, 3270.000
165.544, 3304.000
166.926, 3235.000
168.308, 3366.000
169.689, 3279.000
171.070, 3269.000
172.452, 3194.000
173.833, 3237.000
175.213, 3195.324
176.594, 3224.000
177.974, 3178.000
179.354, 3169.000
180.734, 3190.000
182.114, 3111.000
183.493, 3187.000
184.872, 3212.000
186.251, 3169.000
187.630, 3092.000
189.008, 3173.000
190.387, 3166.000
191.765, 3230.000
193.143, 3250.000
194.520, 3273.000
195.898, 3307.000
197.275, 3315.273
198.652, 3313.445
200.029, 3334.000
201.405, 3330.000
202.782, 3329.000
204.158, 3426.000
205.534, 3520.000
206.909, 3487.000
208.285, 3444.000
209.660, 3213.000
211.035, 2905.000
212.410, 2950.000
213.784, 2950.000
215.159, 2988.000
216.533, 3006.000
217.907, 2958.000
219.281, 2982.000
220.654, 2964.000
222.027, 2973.000
223.400, 2976.000
224.773, 2958.000
226.146, 2913.000
227.518, 2946.000
228.891, 3003.000
230.263, 2964.000
231.634, 2978.000
233.006, 3008.000
234.377, 2956.000
235.748, 2966.000
237.119, 2901.000
238.490, 2995.000
239.860, 2972.000
241.231, 2945.000
242.601, 2983.000
243.970, 2953.000
245.340, 2957.000
246.709, 2912.000
248.079, 3008.000
249.448, 2997.000
250.816, 3024.000
252.185, 3039.000
253.553, 3056.000
254.921, 3074.000
256.289, 3047.000
257.657, 3094.000
259.024, 3035.000
260.391, 3081.000
261.758, 3067.000
263.125, 3077.000
264.492, 3086.000
265.858, 3069.000
267.224, 3106.000
268.590, 3010.000
269.956, 3125.000
271.321, 3064.000
272.687, 3008.000
274.052, 3047.000
275.416, 3044.307
276.781, 3105.000
278.146, 3132.000
279.510, 3249.000
280.874, 3312.000
282.237, 3442.000
283.601, 3537.000
284.964, 3699.000
286.327, 4034.000
287.690, 4195.000
289.053, 4190.000
290.416, 4072.000
291.778, 3733.000
293.140, 3590.000
294.502, 3510.000
295.863, 3429.000
297.225, 3465.000
298.586, 3542.000
299.947, 3574.000
301.308, 3539.000
302.668, 3574.000
304.029, 3576.882
305.389, 3670.000
306.749, 3570.000
308.108, 3609.000
309.468, 3545.000
310.827, 3407.000
312.186, 3374.000
313.545, 3285.000
314.903, 3290.000
316.262, 3210.000
317.620, 3170.000
318.978, 3119.000
320.336, 3159.000
321.693, 3147.000
323.051, 3116.000
324.408, 3049.000
325.765, 3088.000
327.121, 3000.000
328.478, 3057.000
329.834, 3038.000
331.190, 3042.000
332.546, 3049.004
333.902, 2999.000
335.257, 3032.000
336.612, 3025.000
337.967, 3008.000
339.322, 3047.000
340.677, 3029.000
342.031, 3036.000
343.385, 3066.000
344.739, 3084.513
346.093, 3122.000
347.446, 3162.000
348.799, 3258.000
350.153, 3310.000
351.505, 3286.000
352.858, 3264.000
354.210, 3257.000
355.563, 3240.000
356.915, 3182.000
358.267, 3097.000
359.618, 3043.000
360.969, 3123.000
362.321, 3096.000
363.672, 3120.000
365.022, 3163.000
366.373, 3135.287
367.723, 3168.092
369.073, 3105.000
370.423, 3180.000
371.773, 3151.000
373.122, 3129.000
374.471, 3153.000
375.821, 3120.000
377.169, 3187.000
378.518, 3181.000
379.866, 3196.000
381.215, 3284.000
382.563, 3308.000
383.910, 3333.000
385.258, 3426.000
386.605, 3478.000
387.952, 3341.000
389.299, 3352.000
390.646, 3367.000
391.992, 3223.951
393.339, 3064.000
394.685, 3028.000
396.031, 2988.000
397.376, 2955.000
398.722, 2972.000
400.067, 2917.000
401.412, 2887.000
402.757, 3010.000
404.101, 2928.000
405.446, 2882.000
406.790, 2961.000
408.134, 2926.000
409.478, 2918.000
410.821, 2902.000
412.165, 2889.702
413.508, 2908.000
414.851, 2889.000
416.193, 2867.000
417.536, 2893.000
418.878, 2867.742
420.220, 2873.140
421.562, 2868.000
422.904, 2861.000
424.245, 2900.000
425.586, 2872.000
426.927, 2897.000
428.268, 2860.000
429.609, 2837.000
430.949, 2865.000
432.289, 2944.000
433.629, 2904.000
434.969, 2928.000
436.309, 2875.000
437.648, 2948.000
438.987, 2872.000
440.326, 2861.000
441.665, 2871.000
443.003, 2934.000
444.342, 2922.000
445.680, 2964.000
447.018, 2940.000
448.355, 2946.000
449.693, 2945.000
451.030, 2959.782
452.367, 2956.136
453.704, 2970.000
455.041, 2991.000
456.377, 2918.000
457.713, 3006.000
459.049, 2928.000
460.385, 3001.000
461.721, 3014.000
463.056, 3041.000
464.391, 2987.000
465.726, 3089.000
467.061, 2983.000
468.395, 3060.000
469.730, 3084.000
471.064, 3066.000
472.398, 3094.000
473.731, 3092.595
475.065, 3101.416
476.398, 3100.000
477.731, 3089.000
479.064, 3091.404
480.397, 3011.457
481.729, 3050.000
483.062, 3008.000
484.394, 3031.000
485.725, 3008.000
487.057, 3031.000
488.389, 3065.000
489.720, 3008.000
491.051, 3058.000
492.382, 3047.000
493.712, 2989.000
495.043, 3032.000
496.373, 3021.000
497.703, 3032.000
499.032, 3076.000
500.362, 3067.000
501.691, 3110.000
503.020, 3082.751
504.349, 3110.000
505.678, 3040.000
507.007, 3084.000
508.335, 3097.000
509.663, 3054.000
510.991, 3111.000
512.319, 3082.000
513.646, 3105.000
514.973, 3106.000
516.300, 3121.000
517.627, 3138.000
518.954, 3105.000
520.280, 3127.000
521.607, 3116.000
522.933, 3096.000
524.259, 3141.000
525.584, 3089.000
526.910, 3112.000
528.235, 3117.000
529.560, 3150.000
530.885, 3152.388
532.209, 3136.000
533.534, 3159.000
534.858, 3142.000
536.182, 3130.000
537.506, 3132.000
538.829, 3135.354
540.152, 3150.100
541.476, 3166.000
542.799, 3167.000
544.121, 3195.000
545.444, 3148.000
546.766, 3150.000
548.088, 3162.000
549.410, 3194.000
550.732, 3115.000
552.053, 3161.000
553.375, 3164.000
554.696, 3148.000
556.017, 3200.000
557.337, 3200.000
558.658, 3211.000
559.978, 3178.000
561.298, 3212.000
562.618, 3204.000
563.938, 3190.000
565.257, 3207.000
566.576, 3244.000
567.895, 3191.767
569.214, 3228.000
570.533, 3140.000
571.851, 3114.000
573.170, 3164.000
574.488, 3160.000
575.805, 3159.000
577.123, 3151.000
578.440, 3190.000
579.758, 3200.000
581.075, 3065.000
582.391, 3180.000
583.708, 3092.000
585.024, 3142.000
586.341, 3136.000
587.657, 3089.000
588.972, 3094.000
590.288, 3129.000
591.603, 3051.000
592.918, 3102.000
594.233, 3130.000
595.548, 3046.000
596.863, 3046.000
598.177, 3096.000
599.491, 3105.000
600.805, 3099.000
602.119, 3018.000
603.432, 3137.000
604.746, 3061.000
606.059, 3076.000
607.372, 3089.000
608.685, 3082.000
609.997, 3050.000
611.309, 3039.000
612.621, 3074.000
613.933, 3059.000
615.245, 3086.000
616.557, 3049.000
617.868, 3094.000
619.179, 3072.000
620.490, 3014.000
621.801, 3090.000
623.111, 3095.000
624.421, 3104.000
625.731, 3007.000
627.041, 3045.000
628.351, 3050.000
629.660, 3081.000
630.970, 3127.000
632.279, 3022.000
633.588, 3091.000
634.896, 3049.000
636.205, 3096.000
637.513, 3090.000
638.821, 3088.000
640.129, 3088.000
641.437, 3118.000
642.744, 3096.000
644.051, 3088.000
645.358, 3057.977
646.665, 3097.129
647.972, 3119.489
649.278, 3125.959
650.584, 3092.000
651.890, 3139.000
653.196, 3140.000
654.502, 3106.000
655.807, 3106.000
657.113, 3142.000
658.418, 3098.693
659.722, 3127.000
661.027, 3079.000
662.331, 3110.000
663.636, 3166.000
664.940, 3131.000
666.244, 3174.000
667.547, 3073.000
668.851, 3151.000
670.154, 3131.000
671.457, 3138.000
672.760, 3151.000
674.062, 3133.000
675.365, 3110.000
676.667, 3148.000
677.969, 3075.000
679.271, 3163.000
680.572, 3105.000
681.874, 3159.000
683.175, 3106.000
684.476, 3148.000
685.777, 3108.000
687.077, 3063.000
688.378, 3075.000
689.678, 3075.000
690.978, 3077.000
692.278, 3075.262
693.577, 3022.012
694.877, 3086.867
696.176, 3123.054
697.475, 3132.112
698.774, 3032.790
700.072, 3073.419
701.371, 3057.962
702.669, 3040.205
703.967, 3100.532
705.265, 3016.974
706.562, 3076.063
707.860, 3078.209
709.157, 3106.417
710.454, 3078.193
711.751, 3067.398
713.047, 3113.055
714.344, 3127.454
715.640, 3092.734
716.936, 3122.599
718.232, 3037.070
719.527, 3052.802
720.823, 3112.221
722.118, 3080.339
723.413, 3111.236
724.708, 3118.224
726.002, 3016.551
727.297, 3103.849
728.591, 3109.424
729.885, 3031.086
731.179, 3111.910
732.472, 3045.140
733.766, 3031.053
735.059, 3056.612
736.352, 3040.841
737.645, 3090.232
738.937, 3076.848
740.230, 3057.855
741.522, 3063.339
742.814, 3051.000
744.106, 3092.000
745.397, 3059.000
746.689, 3085.000
747.980, 3092.000
749.271, 3061.000
750.562, 3138.000
751.853, 3085.000
753.143, 3076.000
754.433, 3127.000
755.723, 3077.000
757.013, 3134.000
758.303, 3057.000
759.592, 3085.000
760.881, 3151.000
762.170, 3110.000
763.459, 3096.000
764.748, 3049.000
766.036, 3058.883
767.325, 3099.000
768.613, 3106.000
769.901, 3069.000
771.188, 3148.000
772.476, 3077.000
773.763, 3065.000
775.050, 3098.000
776.337, 3107.000
777.624, 3076.000
778.910, 3072.000
780.196, 3134.000
781.482, 3103.895
782.768, 3111.436
784.054, 3097.000
785.339, 3112.000
786.625, 3095.000
787.910, 3145.000
789.195, 3112.000
790.479, 3140.000
791.764, 3153.000
793.048, 3128.000
794.332, 3162.000
795.616, 3144.000
796.900, 3147.000
798.183, 3137.000
799.467, 3194.000
800.750, 3129.000
802.033, 3126.000
803.316, 3150.000
804.598, 3060.000
805.880, 3188.000
807.163, 3164.000
808.445, 3182.000
809.726, 3112.000
811.008, 3140.000
812.289, 3146.000
813.570, 3176.000
814.851, 3178.000
816.132, 3166.000
817.413, 3169.000
818.693, 3169.000
819.973, 3130.000
821.253, 3169.000
822.533, 3177.000
823.813, 3166.000
825.092, 3200.000
826.371, 3204.000
827.650, 3197.916
828.929, 3185.575
830.208, 3172.000
831.486, 3169.000
832.764, 3132.000
834.042, 3208.000
835.320, 3242.000
836.598, 3194.000
837.875, 3175.000
839.152, 3224.000
840.429, 3216.000
841.706, 3237.000
842.983, 3203.000
844.259, 3223.000
845.536, 3210.000
846.812, 3260.000
848.088, 3212.000
849.363, 3284.000
850.639, 3218.000
851.914, 3222.000
853.189, 3322.000
854.464, 3306.000
855.739, 3313.000
857.013, 3260.000
858.288, 3297.000
859.562, 3257.000
860.836, 3249.000
862.110, 3243.000
863.383, 3305.000
864.656, 3294.000
865.930, 3331.000
867.203, 3332.000
868.475, 3306.745
869.748, 3297.793
871.020, 3283.000
872.292, 3244.000
873.564, 3311.000
874.836, 3314.000
876.108, 3272.000
877.379, 3349.000
878.650, 3355.000
879.922, 3317.000
881.192, 3284.000
882.463, 3317.000
883.733, 3379.000
885.004, 3274.000
886.274, 3316.000
887.544, 3378.000
888.813, 3318.000
890.083, 3350.000
891.352, 3355.000
892.621, 3436.000
893.890, 3337.000
895.159, 3403.000
896.427, 3357.000
897.695, 3473.000
898.964, 3362.000
900.232, 3368.000
901.499, 3377.000
902.767, 3434.000
904.034, 3442.000
905.301, 3457.000
906.568, 3477.000
907.835, 3474.294
909.102, 3468.000
910.368, 3472.000
911.634, 3445.000
912.900, 3440.000
914.166, 3488.000
915.432, 3476.000
916.697, 3401.000
917.962, 3505.000
919.227, 3464.000
920.492, 3520.000
921.757, 3461.000
923.021, 3491.000
924.285, 3533.000
925.550, 3498.000
926.813, 3492.000
928.077, 3497.000
929.341, 3497.347
930.604, 3523.000
931.867, 3530.000
933.130, 3539.000
934.393, 3561.000
935.655, 3498.000
936.918, 3626.000
938.180, 3555.000
939.442, 3500.001
940.703, 3577.693
941.965, 3623.177
943.226, 3638.179
944.488, 3531.417
945.749, 3581.889
947.009, 3569.344
948.270, 3588.000
949.530, 3621.000
950.791, 3600.000
952.051, 3553.000
953.311, 3612.000
954.570, 3577.959
955.830, 3639.000
957.089, 3600.000
958.348, 3585.000
959.607, 3650.000
960.866, 3610.000
962.124, 3582.000
963.383, 3634.000
964.641, 3619.000
965.899, 3623.000
967.156, 3705.000
968.414, 3609.000
969.671, 3674.000
970.928, 3691.000
972.185, 3734.000
973.442, 3689.000
974.699, 3695.000
975.955, 3731.000
977.211, 3696.000
978.468, 3765.000
979.723, 3725.000
980.979, 3717.000
982.234, 3744.000
983.490, 3698.000
984.745, 3773.000
986.000, 3732.000
987.254, 3724.000
988.509, 3808.000
989.763, 3803.000
991.017, 3776.000
992.271, 3731.000
993.525, 3780.000
994.779, 3805.000
996.032, 3799.000
997.285, 3842.000
998.538, 3809.000
999.791, 3843.000
1001.044, 3827.000
1002.296, 3859.000
1003.548, 3865.000
1004.800, 3795.000
1006.052, 3911.000
1007.304, 3872.000
1008.555, 3939.000
1009.807, 3898.000
1011.058, 3846.000
1012.309, 3886.000
1013.559, 3928.000
1014.810, 3828.000
1016.060, 3909.000
1017.310, 3917.000
1018.560, 3866.000
1019.810, 3869.000
1021.060, 3902.000
1022.309, 3859.000
1023.558, 3888.000
1024.807, 3887.000
1026.056, 3870.000
1027.305, 3890.000
1028.553, 3897.000
1029.801, 3947.000
1031.049, 3904.000
1032.297, 3895.000
1033.545, 3972.000
1034.793, 3897.000
1036.040, 3988.000
1037.287, 3952.000
1038.534, 3942.000
1039.781, 4014.000
1041.027, 3973.229
1042.274, 3980.354
1043.520, 3951.000
1044.766, 3963.000
1046.012, 3930.000
1047.257, 3949.000
1048.503, 4022.000
1049.748, 3968.000
1050.993, 3996.000
1052.238, 4022.000
1053.483, 3945.000
1054.727, 3905.000
1055.971, 4055.000
1057.216, 3990.000
1058.459, 4019.000
1059.703, 4018.000
1060.947, 4010.000
1062.190, 4005.000
1063.433, 4013.000
1064.676, 3956.000
1065.919, 4003.000
1067.162, 4123.000
1068.404, 3989.000
1069.646, 4034.000
1070.888, 4025.000
1072.130, 3982.000
1073.372, 4047.000
1074.613, 4034.000
1075.855, 4054.000
1077.096, 4062.783
1078.337, 4036.000
1079.578, 4051.000
1080.818, 4019.000
1082.059, 3995.000
1083.299, 3992.461
1084.539, 3981.958
1085.779, 3976.000
1087.018, 3990.000
1088.258, 3998.000
1089.497, 4012.000
1090.736, 4011.000
1091.975, 3990.000
1093.213, 4038.000
1094.452, 4017.000
1095.690, 3966.000
1096.928, 3996.000
1098.166, 4001.000
1099.404, 4081.000
1100.642, 3971.000
1101.879, 4062.000
1103.116, 3991.000
1104.353, 3999.000
1105.590, 3974.000
1106.827, 4016.000
1108.063, 3958.000
1109.299, 4036.000
1110.536, 4034.000
1111.771, 3984.000
1113.007, 4025.000
1114.243, 4076.000
1115.478, 3996.000
1116.713, 4054.000
1117.948, 4082.000
1119.183, 4036.000
1120.418, 3990.057
1121.652, 4041.889
1122.886, 4069.988
1124.120, 4075.628
1125.354, 3991.544
1126.588, 4023.321
1127.821, 4008.667
1129.055, 4017.000
1130.288, 4049.000
1131.521, 3949.000
1132.753, 3961.000
1133.986, 4037.000
1135.218, 4097.000
1136.450, 4016.000
1137.682, 4032.000
1138.914, 4020.000
1140.146, 4008.000
1141.377, 4004.000
1142.609, 4018.000
1143.840, 3998.232
1145.071, 4068.000
1146.301, 3974.000
1147.532, 3994.000
1148.762, 3986.000
1149.992, 4062.000
1151.222, 4034.000
1152.452, 4078.000
1153.682, 4067.000
1154.911, 4006.000
1156.140, 4032.000
1157.369, 4048.000
1158.598, 4005.000
1159.827, 4081.000
1161.055, 4033.000
1162.284, 4042.000
1163.512, 4050.969
1164.740, 4042.269
1165.967, 4023.000
1167.195, 4072.000
1168.422, 4020.000
1169.650, 4059.000
1170.877, 4071.000
1172.103, 4063.000
1173.330, 4033.000
1174.557, 4064.000
1175.783, 4121.000
1177.009, 4023.000
1178.235, 4083.000
1179.461, 4052.000
1180.686, 4085.000
1181.912, 4115.000
1183.137, 4093.000
1184.362, 4088.000
1185.587, 4074.000
1186.811, 4076.551
1188.036, 4065.000
1189.260, 4067.000
1190.484, 4135.000
1191.708, 4090.000
1192.932, 4131.000
1194.155, 4102.000
1195.378, 4090.000
1196.602, 4114.000
1197.825, 4107.000
1199.047, 4163.000
1200.270, 4176.000
1201.492, 4145.000
1202.715, 4112.000
1203.937, 4166.000
1205.159, 4133.000
1206.380, 4146.000
1207.602, 4151.000
1208.823, 4138.000
1210.044, 4182.000
1211.265, 4108.000
1212.486, 4212.000
1213.707, 4131.000
1214.927, 4172.000
1216.147, 4206.000
1217.367, 4218.000
1218.587, 4230.000
1219.807, 4282.000
1221.027, 4214.000
1222.246, 4197.000
1223.465, 4313.000
1224.684, 4212.000
1225.903, 4273.000
1227.121, 4281.000
1228.340, 4234.000
1229.558, 4225.000
1230.776, 4316.000
1231.994, 4238.000
1233.212, 4317.000
1234.429, 4333.621
1235.646, 4307.561
1236.864, 4377.000
1238.081, 4306.000
1239.297, 4282.000
1240.514, 4320.000
1241.730, 4330.000
1242.947, 4340.000
1244.163, 4315.000
1245.378, 4360.000
1246.594, 4417.000
1247.810, 4381.000
1249.025, 4342.000
1250.240, 4401.000
1251.455, 4417.000
1252.670, 4404.000
1253.885, 4352.000
1255.099, 4426.000
1256.313, 4392.405
1257.527, 4387.720
1258.741, 4409.000
1259.955, 4379.000
1261.168, 4410.000
1262.382, 4444.000
1263.595, 4464.000
1264.808, 4482.317
1266.021, 4459.000
1267.233, 4474.000
1268.446, 4498.000
1269.658, 4488.483
1270.870, 4531.000
1272.082, 4491.000
1273.294, 4462.000
1274.505, 4451.000
1275.716, 4455.000
1276.928, 4457.000
1278.139, 4537.000
1279.349, 4532.000
1280.560, 4559.000
1281.770, 4546.000
1282.981, 4514.000
1284.191, 4489.000
1285.401, 4553.000
1286.610, 4532.000
1287.820, 4541.000
1289.029, 4609.000
1290.239, 4620.000
1291.448, 4591.000
1292.656, 4588.000
1293.865, 4596.000
1295.073, 4573.000
1296.282, 4557.000
1297.490, 4582.000
1298.698, 4605.000
1299.906, 4656.000
1301.113, 4647.000
1302.320, 4643.000
1303.528, 4581.000
1304.735, 4645.000
1305.942, 4689.000
1307.148, 4656.000
1308.355, 4598.000
1309.561, 4689.000
1310.767, 4662.000
1311.973, 4676.579
1313.179, 4689.000
1314.384, 4719.000
1315.590, 4714.000
1316.795, 4778.000
1318.000, 4718.000
1319.205, 4774.000
1320.410, 4759.279
1321.614, 4672.000
1322.819, 4746.000
1324.023, 4755.000
1325.227, 4753.000
1326.431, 4753.000
1327.634, 4782.000
1328.838, 4785.000
1330.041, 4788.000
1331.244, 4838.000
1332.447, 4781.000
1333.650, 4820.000
1334.852, 4835.000
1336.055, 4799.000
1337.257, 4818.000
1338.459, 4791.000
1339.661, 4826.000
1340.862, 4840.000
1342.064, 4850.000
1343.265, 4887.000
1344.466, 4882.000
1345.667, 4916.411
1346.868, 4889.595
1348.068, 4967.000
1349.269, 4868.000
1350.469, 4873.000
1351.669, 4943.000
1352.869, 4990.000
1354.069, 5003.000
1355.268, 5012.614
1356.468, 4934.000
1357.667, 4982.000
1358.866, 4979.000
1360.065, 4965.000
1361.263, 4994.000
1362.462, 4948.000
1363.660, 5021.000
1364.858, 4926.000
1366.056, 5034.000
1367.254, 5047.000
1368.451, 4994.000
1369.649, 4979.000
1370.846, 4931.829
1372.043, 4996.380
1373.240, 5033.812
1374.436, 5045.580
1375.633, 4954.825
1376.829, 4996.457
1378.025, 4985.033
1379.221, 4971.434
1380.417, 5031.699
1381.613, 4955.854
1382.808, 5014.946
1384.003, 5020.172
1385.199, 5050.053
1386.393, 5026.547
1387.588, 5019.532
1388.783, 5065.916
1389.977, 5082.730
1391.171, 5053.079
1392.365, 5084.523
1393.559, 5006.809
1394.753, 5024.883
1395.946, 5084.283
1397.140, 5057.315
1398.333, 5089.733
1399.526, 5099.533
1400.719, 5006.544
1401.911, 5092.313
1403.104, 5100.776
1404.296, 5029.859
1405.488, 5109.503
1406.680, 5049.529
1407.872, 5039.389
1409.063, 5066.752
1410.255, 5055.021
1411.446, 5104.928
1412.637, 5095.452
1413.828, 5080.670
1415.018, 5089.040
1416.209, 5031.801
1417.399, 5096.282
1418.589, 5077.617
1419.779, 5100.281
1420.969, 5132.313
1422.159, 5092.616
1423.348, 5128.855
1424.537, 5047.330
1425.726, 5064.343
1426.915, 5070.746
1428.104, 5140.131
1429.293, 5059.180
1430.481, 5073.453
1431.669, 5128.271
1432.857, 5126.357
1434.045, 5148.164
1435.233, 5122.045
1436.420, 5116.367
1437.608, 5140.000
1438.795, 5121.000
1439.982, 5158.000
1441.169, 5190.000
1442.355, 5199.000
1443.542, 5186.000
1444.728, 5145.000
1445.914, 5156.818
1447.100, 5161.498
1448.286, 5174.000
1449.472, 5170.000
1450.657, 5227.000
1451.842, 5164.000
##END=



