##NAMES=Sigloite
##RRUFFID=R050576
##IDEAL CHEMISTRY=Fe^3+^Al_2_(PO_4_)_2_(OH)_3_&#183;7H_2_O
##LOCALITY=Viloco, Bolivia
##OWNER=RRUFF
##SOURCE=University of Arizona Mineral Museum
##DESCRIPTION=Tan colored prismatic crystals
##STATUS=The identification of this mineral has been confirmed by X-ray diffraction.
##URL=rruff.info/R050576
92.35352, 328.4961
92.83563, 340.1468
93.31775, 344.3284
93.79987, 340.1915
94.28198, 327.5457
94.76410, 314.3874
95.24622, 301.8804
95.72833, 290.1521
96.21045, 279.3875
96.69257, 270.0389
97.17468, 259.7842
97.65680, 247.2617
98.13892, 234.3418
98.62103, 222.2072
99.10315, 210.9525
99.58527, 200.6351
100.0674, 192.6427
100.5495, 189.1596
101.0316, 185.3009
101.5137, 179.8472
101.9958, 173.5045
102.4780, 167.4042
102.9601, 162.3405
103.4422, 158.2990
103.9243, 154.7312
104.4064, 151.7889
104.8885, 148.9610
105.3707, 145.8334
105.8528, 142.4398
106.3349, 139.2626
106.8170, 136.7415
107.2991, 134.9389
107.7813, 133.6806
108.2634, 133.8370
108.7455, 134.2205
109.2276, 133.0868
109.7097, 129.7289
110.1918, 125.8487
110.6740, 123.3206
111.1561, 121.9744
111.6382, 121.0832
112.1203, 120.5229
112.6024, 120.2206
113.0845, 119.5721
113.5666, 118.1824
114.0488, 116.6031
114.5309, 115.1625
115.0130, 113.8964
115.4951, 112.7688
115.9772, 111.8308
116.4593, 111.3085
116.9415, 110.2932
117.4236, 108.1709
117.9057, 105.8666
118.3878, 103.9605
118.8699, 102.6903
119.3520, 101.9905
119.8342, 101.7157
120.3163, 102.3741
120.7984, 102.9065
121.2805, 103.1561
121.7626, 103.2520
122.2447, 103.3948
122.7269, 103.7161
123.2090, 104.1668
123.6911, 104.3055
124.1732, 104.0758
124.6553, 103.6849
125.1374, 103.1343
125.6196, 102.4606
126.1017, 101.7789
126.5838, 101.1357
127.0659, 100.5686
127.5480, 100.1887
128.0302, 100.3472
128.5123, 100.5033
128.9944, 100.0346
129.4765, 98.81105
129.9586, 97.50822
130.4407, 96.73485
130.9229, 96.27053
131.4050, 95.71394
131.8871, 94.85276
132.3692, 93.76840
132.8513, 92.72805
133.3334, 91.71066
133.8155, 90.78065
134.2977, 89.92673
134.7798, 89.16506
135.2619, 88.53699
135.7440, 88.14269
136.2261, 88.02134
136.7082, 87.73241
137.1904, 86.99001
137.6725, 86.30681
138.1546, 85.90699
138.6367, 85.78536
139.1188, 85.79848
139.6009, 85.78455
140.0831, 85.77026
140.5652, 85.64590
141.0473, 85.34898
141.5294, 85.00462
142.0115, 84.67892
142.4936, 84.39587
142.9758, 84.16976
143.4579, 84.04221
143.9400, 84.18980
144.4221, 84.11550
144.9042, 83.61774
145.3863, 82.93403
145.8685, 82.36465
146.3506, 82.02494
146.8327, 81.83512
147.3148, 81.62154
147.7969, 81.35181
148.2790, 81.14008
148.7612, 81.06452
149.2433, 81.09282
149.7254, 81.11147
150.2075, 81.06611
150.6896, 80.99402
151.1717, 80.94686
151.6539, 80.91360
152.1360, 80.93279
152.6181, 81.02934
153.1002, 81.20247
153.5823, 81.46519
154.0644, 82.05093
154.5466, 82.62414
155.0287, 82.86665
155.5108, 82.64613
155.9929, 82.19984
156.4750, 81.91762
156.9571, 81.82076
157.4393, 81.86184
157.9214, 82.07783
158.4035, 82.37852
158.8856, 82.70731
159.3677, 83.05104
159.8498, 83.35954
160.3320, 83.42931
160.8141, 82.83395
161.2962, 82.51091
161.7783, 82.76691
162.2604, 83.35001
162.7425, 83.91570
163.2247, 84.25455
163.7068, 84.38066
164.1889, 84.44575
164.6710, 84.19662
165.1531, 84.14922
165.6352, 84.61614
166.1174, 85.42483
166.5995, 86.14790
167.0816, 86.46864
167.5637, 86.38204
168.0458, 86.32629
168.5279, 86.22880
169.0101, 86.21641
169.4922, 86.45347
169.9743, 86.90463
170.4564, 87.27537
170.9385, 87.30024
171.4206, 86.99377
171.9028, 86.73820
172.3849, 86.42911
172.8670, 86.24668
173.3491, 86.50025
173.8312, 87.27672
174.3133, 87.97069
174.7955, 87.90419
175.2776, 87.35281
175.7597, 86.90482
176.2418, 86.77310
176.7239, 86.85538
177.2060, 86.99187
177.6882, 87.24966
178.1703, 87.40269
178.6524, 87.19187
179.1345, 86.77589
179.6166, 86.49044
180.0987, 86.62846
180.5809, 87.09402
181.0630, 87.28953
181.5451, 86.93150
182.0272, 86.63748
182.5093, 86.75669
182.9914, 87.15049
183.4736, 87.49306
183.9557, 87.49780
184.4378, 87.14970
184.9199, 86.91850
185.4020, 86.91718
185.8841, 86.94413
186.3663, 86.92776
186.8484, 86.88363
187.3305, 86.87963
187.8126, 86.99832
188.2947, 87.28603
188.7768, 87.41736
189.2590, 87.35545
189.7411, 87.19785
190.2232, 86.91734
190.7053, 86.55693
191.1874, 86.23764
191.6695, 86.09922
192.1517, 86.21183
192.6338, 86.22250
193.1159, 86.06102
193.5980, 85.86697
194.0801, 85.72855
194.5622, 85.65565
195.0444, 85.59756
195.5265, 85.49242
196.0086, 85.31497
196.4907, 85.20657
196.9728, 85.21654
197.4549, 85.26682
197.9371, 85.26147
198.4192, 85.18242
198.9013, 85.14317
199.3834, 85.32271
199.8655, 85.72580
200.3476, 86.01949
200.8298, 86.11759
201.3119, 86.08788
201.7940, 86.00544
202.2761, 85.87164
202.7582, 85.72412
203.2403, 85.55836
203.7225, 85.38823
204.2046, 85.33961
204.6867, 85.59778
205.1688, 86.00050
205.6509, 86.14162
206.1330, 85.86553
206.6152, 85.52950
207.0973, 85.46125
207.5794, 85.58456
208.0615, 85.65016
208.5436, 85.47581
209.0257, 85.11384
209.5079, 84.83244
209.9900, 84.75990
210.4721, 84.61021
210.9542, 84.12358
211.4363, 83.41600
211.9184, 82.82060
212.4006, 82.65196
212.8827, 82.88479
213.3648, 82.97312
213.8469, 82.81339
214.3290, 82.59889
214.8111, 82.38521
215.2933, 82.18051
215.7754, 81.98272
216.2575, 81.76032
216.7396, 81.50403
217.2217, 81.43389
217.7038, 81.80338
218.1859, 82.14298
218.6681, 82.35700
219.1502, 82.42441
219.6323, 82.33248
220.1144, 82.02965
220.5965, 81.47561
221.0786, 81.16641
221.5608, 81.28445
222.0429, 81.45795
222.5250, 81.61861
223.0071, 81.72798
223.4892, 81.72097
223.9713, 81.51033
224.4535, 81.04262
224.9356, 80.89159
225.4177, 81.27126
225.8998, 81.70065
226.3819, 81.95363
226.8640, 82.06148
227.3462, 82.19839
227.8283, 82.52481
228.3104, 83.06418
228.7925, 83.48264
229.2746, 83.63289
229.7567, 83.81654
230.2389, 84.22522
230.7210, 84.82529
231.2031, 85.42001
231.6852, 85.84645
232.1673, 86.10160
232.6494, 86.42770
233.1316, 86.82776
233.6137, 87.28525
234.0958, 87.87744
234.5779, 88.56301
235.0600, 89.10562
235.5421, 89.29115
236.0243, 89.15517
236.5064, 89.16644
236.9885, 89.38096
237.4706, 89.69103
237.9527, 90.02343
238.4348, 90.38148
238.9170, 90.82989
239.3991, 91.48900
239.8812, 92.25998
240.3633, 92.80061
240.8454, 92.93674
241.3275, 92.98933
241.8097, 93.21117
242.2918, 93.59820
242.7739, 94.01353
243.2560, 94.40861
243.7381, 94.77502
244.2202, 95.08294
244.7024, 95.24574
245.1845, 95.46514
245.6666, 96.01888
246.1487, 96.91637
246.6308, 97.67856
247.1129, 98.10411
247.5951, 98.24574
248.0772, 98.10835
248.5593, 97.58016
249.0414, 97.06048
249.5235, 97.02615
250.0056, 97.51884
250.4878, 97.92950
250.9699, 97.98106
251.4520, 97.88902
251.9341, 97.83482
252.4162, 97.85146
252.8983, 97.87021
253.3805, 97.84685
253.8626, 97.79121
254.3447, 97.60165
254.8268, 97.11398
255.3089, 96.56570
255.7910, 96.09538
256.2732, 95.72602
256.7553, 95.43651
257.2374, 95.25262
257.7195, 95.20629
258.2016, 95.03819
258.6837, 94.54255
259.1659, 94.02769
259.6480, 93.64552
260.1301, 93.41148
260.6122, 93.25106
261.0943, 93.12823
261.5764, 93.06922
262.0586, 92.87632
262.5407, 92.40070
263.0228, 91.88731
263.5049, 91.43403
263.9870, 91.04262
264.4691, 90.66977
264.9513, 90.26231
265.4334, 89.80515
265.9155, 89.41523
266.3976, 89.10551
266.8797, 88.85816
267.3618, 88.76437
267.8440, 88.74802
268.3261, 88.61131
268.8082, 88.13866
269.2903, 87.30925
269.7724, 86.70839
270.2545, 86.53059
270.7367, 86.41354
271.2188, 86.24086
271.7009, 86.05191
272.1830, 85.96647
272.6651, 86.09675
273.1472, 86.42013
273.6294, 86.54453
274.1115, 86.25142
274.5936, 85.96504
275.0757, 85.76495
275.5578, 85.63181
276.0399, 85.54420
276.5221, 85.50101
277.0042, 85.46888
277.4863, 85.25237
277.9684, 84.61497
278.4505, 84.03436
278.9326, 83.68385
279.4148, 83.38846
279.8969, 82.89054
280.3790, 82.05486
280.8611, 80.98936
281.3432, 80.04284
281.8253, 79.38158
282.3075, 78.63885
282.7896, 77.75472
283.2717, 76.79716
283.7538, 75.78011
284.2359, 74.71891
284.7180, 73.72720
285.2002, 73.06473
285.6823, 73.10728
286.1644, 72.97713
286.6465, 72.53008
287.1286, 71.99806
287.6107, 71.59914
288.0929, 71.38601
288.5750, 71.24482
289.0571, 71.01049
289.5392, 70.68914
290.0213, 70.23412
290.5034, 69.40009
290.9856, 68.61299
291.4677, 68.29307
291.9498, 68.44104
292.4319, 68.63380
292.9140, 68.36327
293.3961, 67.45176
293.8783, 66.85310
294.3604, 66.81474
294.8425, 66.83743
295.3246, 66.62073
295.8067, 66.17503
296.2888, 65.70110
296.7710, 65.37613
297.2531, 65.21277
297.7352, 64.96284
298.2173, 64.51474
298.6994, 64.10690
299.1815, 63.92922
299.6637, 63.88969
300.1458, 63.72817
300.6279, 63.26101
301.1100, 62.52760
301.5921, 61.83393
302.0742, 61.15201
302.5564, 60.53447
303.0385, 60.01307
303.5206, 59.56565
304.0027, 59.15858
304.4848, 58.78273
304.9669, 58.41883
305.4491, 58.00288
305.9312, 57.49289
306.4133, 56.99015
306.8954, 56.48219
307.3775, 55.99765
307.8596, 55.58831
308.3418, 55.27351
308.8239, 54.99752
309.3060, 54.66726
309.7881, 54.26818
310.2702, 53.83620
310.7523, 53.29103
311.2345, 52.75657
311.7166, 52.37734
312.1987, 52.17518
312.6808, 52.02897
313.1629, 51.81453
313.6451, 51.53764
314.1272, 51.11238
314.6093, 50.30289
315.0914, 49.53509
315.5735, 49.13012
316.0556, 49.07638
316.5378, 49.12886
317.0199, 49.10183
317.5020, 48.99145
317.9841, 48.82150
318.4662, 48.57390
318.9483, 48.29602
319.4305, 47.94572
319.9126, 47.57457
320.3947, 47.32946
320.8768, 47.32164
321.3589, 47.48580
321.8410, 47.47202
322.3232, 47.20017
322.8053, 46.88089
323.2874, 46.47383
323.7695, 46.06940
324.2516, 45.83650
324.7337, 45.85428
325.2159, 46.00085
325.6980, 46.00366
326.1801, 45.74531
326.6622, 45.54691
327.1443, 45.49425
327.6264, 45.47971
328.1086, 45.38522
328.5907, 45.18423
329.0728, 44.94573
329.5549, 44.76406
330.0370, 44.67955
330.5191, 44.50969
331.0013, 44.10296
331.4834, 43.73014
331.9655, 43.66709
332.4476, 43.87113
332.9297, 44.00334
333.4118, 43.74381
333.8940, 43.06402
334.3761, 42.58516
334.8582, 42.40651
335.3403, 42.28180
335.8224, 42.10288
336.3045, 41.89923
336.7867, 41.77238
337.2688, 41.79845
337.7509, 41.91908
338.2330, 41.84835
338.7151, 41.31619
339.1972, 40.92949
339.6793, 40.90584
340.1614, 41.03331
340.6436, 41.04276
341.1257, 40.83305
341.6078, 40.48365
342.0899, 40.13958
342.5720, 39.74638
343.0541, 39.46597
343.5363, 39.34818
344.0184, 39.30347
344.5005, 39.31133
344.9826, 39.34307
345.4647, 39.30275
345.9468, 39.06749
346.4290, 38.57269
346.9111, 38.18574
347.3932, 37.84395
347.8753, 37.64342
348.3574, 37.72770
348.8395, 38.00348
349.3217, 38.23333
349.8038, 38.23884
350.2859, 38.04216
350.7680, 37.88871
351.2501, 37.80149
351.7322, 37.73192
352.2144, 37.70562
352.6965, 37.68252
353.1786, 37.60619
353.6607, 37.45118
354.1428, 37.24788
354.6249, 37.05810
355.1071, 36.81509
355.5892, 36.70893
356.0713, 36.84635
356.5534, 37.04327
357.0355, 37.16228
357.5176, 37.17649
357.9998, 37.14392
358.4819, 37.14082
358.9640, 37.19057
359.4461, 37.17110
359.9282, 37.07438
360.4103, 36.92042
360.8925, 36.64982
361.3746, 36.32111
361.8567, 36.07330
362.3388, 36.01730
362.8209, 36.13247
363.3030, 36.23437
363.7852, 36.38267
364.2673, 36.43055
364.7494, 36.24847
365.2315, 35.98696
365.7136, 35.84377
366.1957, 35.90766
366.6779, 36.07637
367.1600, 36.14899
367.6421, 36.11373
368.1242, 36.00563
368.6063, 35.69958
369.0884, 35.41864
369.5706, 35.34466
370.0527, 35.48832
370.5348, 35.69395
371.0169, 35.79564
371.4990, 35.78252
371.9811, 35.81359
372.4633, 35.92847
372.9454, 36.05311
373.4275, 36.18160
373.9096, 36.29478
374.3917, 36.34527
374.8738, 36.25543
375.3560, 36.10503
375.8381, 36.16064
376.3202, 36.50322
376.8023, 36.86671
377.2844, 37.21993
377.7665, 37.50590
378.2487, 37.62664
378.7308, 37.52831
379.2129, 37.38028
379.6950, 37.38359
380.1771, 37.54336
380.6592, 37.73173
381.1414, 37.94071
381.6235, 38.14903
382.1056, 38.34652
382.5877, 38.53188
383.0698, 38.68921
383.5519, 38.78444
384.0341, 38.84412
384.5162, 38.95947
384.9983, 39.16040
385.4804, 39.36129
385.9625, 39.42814
386.4446, 39.44541
386.9268, 39.60933
387.4089, 40.09706
387.8910, 40.65606
388.3731, 40.98387
388.8552, 41.08868
389.3373, 41.21737
389.8195, 41.50269
390.3016, 41.86840
390.7837, 42.14996
391.2658, 42.30426
391.7479, 42.49978
392.2300, 42.86518
392.7122, 43.32523
393.1943, 43.72382
393.6764, 44.02574
394.1585, 44.24916
394.6406, 44.39378
395.1227, 44.45714
395.6049, 44.54129
396.0870, 44.63690
396.5691, 44.77324
397.0512, 45.02035
397.5333, 45.35923
398.0154, 45.63508
398.4976, 45.72780
398.9797, 45.67316
399.4618, 45.70291
399.9439, 45.86105
400.4260, 46.03666
400.9081, 46.22698
401.3903, 46.40683
401.8724, 46.50929
402.3545, 46.50812
402.8366, 46.49859
403.3187, 46.65310
403.8008, 47.11799
404.2830, 47.41841
404.7651, 47.44484
405.2472, 47.39804
405.7293, 47.35969
406.2114, 47.36901
406.6935, 47.49678
407.1757, 47.82086
407.6578, 48.33283
408.1399, 48.75413
408.6220, 49.00993
409.1041, 49.25788
409.5862, 49.47834
410.0684, 49.72683
410.5505, 50.08783
411.0326, 50.59513
411.5147, 51.18871
411.9968, 51.76963
412.4789, 52.38785
412.9611, 52.86829
413.4432, 52.95879
413.9253, 53.12316
414.4074, 53.73618
414.8895, 54.74269
415.3716, 55.74152
415.8538, 56.32595
416.3359, 56.53515
416.8180, 57.05384
417.3001, 58.12259
417.7822, 59.16984
418.2643, 60.04856
418.7465, 60.77378
419.2286, 61.31849
419.7107, 61.62723
420.1928, 61.92823
420.6749, 62.64325
421.1570, 63.84931
421.6392, 64.90237
422.1213, 65.46366
422.6034, 65.96553
423.0855, 66.80088
423.5676, 67.96022
424.0497, 69.02727
424.5319, 69.61446
425.0140, 69.91753
425.4961, 70.49719
425.9782, 71.43966
426.4603, 72.47352
426.9424, 73.44608
427.4246, 74.36423
427.9067, 75.24137
428.3888, 76.13132
428.8709, 76.90852
429.3530, 77.38771
429.8351, 77.63412
430.3173, 77.95361
430.7994, 78.46180
431.2815, 79.07765
431.7636, 79.71844
432.2457, 80.41666
432.7278, 80.94587
433.2100, 81.12537
433.6921, 81.18346
434.1742, 81.34429
434.6563, 81.63400
435.1384, 82.01135
435.6205, 82.49426
436.1027, 83.05559
436.5848, 83.26809
437.0669, 82.88777
437.5490, 82.50334
438.0311, 82.38300
438.5132, 82.35545
438.9954, 82.13376
439.4775, 81.61268
439.9596, 80.93096
440.4417, 80.34020
440.9238, 79.94524
441.4059, 79.38701
441.8881, 78.63684
442.3702, 77.77238
442.8523, 76.81348
443.3344, 75.78106
443.8165, 74.67461
444.2986, 73.47048
444.7808, 72.21777
445.2629, 71.28029
445.7450, 71.12170
446.2271, 70.55930
446.7092, 69.13893
447.1913, 67.38663
447.6735, 65.73991
448.1556, 64.33384
448.6377, 63.15022
449.1198, 62.25321
449.6019, 61.67165
450.0840, 60.88876
450.5662, 59.67953
451.0483, 58.48175
451.5304, 57.53282
452.0125, 56.78034
452.4946, 56.08317
452.9767, 55.39172
453.4589, 54.70600
453.9410, 54.04520
454.4231, 53.41938
454.9052, 52.69975
455.3873, 51.69931
455.8694, 50.69230
456.3516, 50.10275
456.8337, 50.01593
457.3158, 49.82982
457.7979, 49.10494
458.2800, 48.14200
458.7621, 47.48130
459.2443, 47.21362
459.7264, 47.06129
460.2085, 46.82257
460.6906, 46.49955
461.1727, 46.15923
461.6548, 45.74900
462.1370, 45.37903
462.6191, 45.14008
463.1012, 44.97091
463.5833, 44.74482
464.0654, 44.41050
464.5475, 44.03487
465.0297, 43.73069
465.5118, 43.53450
465.9939, 43.32279
466.4760, 43.03440
466.9581, 42.78408
467.4402, 42.66552
467.9224, 42.64961
468.4045, 42.64564
468.8866, 42.59534
469.3687, 42.50124
469.8508, 42.37385
470.3329, 42.20428
470.8151, 42.01246
471.2972, 41.70802
471.7793, 41.44486
472.2614, 41.38257
472.7435, 41.53207
473.2256, 41.73200
473.7078, 41.82966
474.1899, 41.82713
474.6720, 41.79522
475.1541, 41.72898
475.6362, 41.63889
476.1183, 41.46701
476.6005, 41.29138
477.0826, 41.25133
477.5647, 41.42974
478.0468, 41.66413
478.5289, 41.79957
479.0110, 41.83821
479.4932, 41.78316
479.9753, 41.56574
480.4574, 41.36420
480.9395, 41.45594
481.4216, 41.80595
481.9037, 42.02361
482.3859, 41.85882
482.8680, 41.62022
483.3501, 41.65855
483.8322, 41.93577
484.3143, 42.10443
484.7964, 41.93678
485.2786, 41.58112
485.7607, 41.50494
486.2428, 41.96869
486.7249, 42.23267
487.2070, 42.02009
487.6891, 41.68438
488.1713, 41.58073
488.6534, 41.73371
489.1355, 41.91674
489.6176, 41.91158
490.0997, 41.72581
490.5818, 41.68661
491.0640, 41.92189
491.5461, 42.16716
492.0282, 42.46307
492.5103, 42.70878
492.9924, 42.74007
493.4745, 42.52357
493.9567, 42.27475
494.4388, 42.32014
494.9209, 42.70259
495.4030, 42.88689
495.8851, 42.73258
496.3672, 42.51603
496.8494, 42.32214
497.3315, 42.17719
497.8136, 42.13458
498.2957, 42.24195
498.7778, 42.41471
499.2599, 42.56445
499.7421, 42.69071
500.2242, 42.78854
500.7063, 42.88807
501.1884, 42.91328
501.6705, 42.70034
502.1526, 42.26191
502.6348, 41.96527
503.1169, 42.03300
503.5990, 42.19041
504.0811, 42.13769
504.5632, 41.90585
505.0453, 41.74891
505.5274, 41.81321
506.0096, 42.03182
506.4917, 42.21147
506.9738, 42.37981
507.4559, 42.46270
507.9380, 42.40773
508.4201, 42.29947
508.9023, 42.17653
509.3844, 42.06330
509.8665, 42.01851
510.3486, 42.11325
510.8307, 42.31313
511.3128, 42.29669
511.7950, 41.80440
512.2771, 41.48192
512.7592, 41.52626
513.2413, 41.72044
513.7234, 41.89997
514.2056, 42.02032
514.6877, 42.06886
515.1698, 41.98610
515.6519, 41.79608
516.1340, 41.73627
516.6161, 41.90422
517.0983, 42.01129
517.5804, 41.78145
518.0625, 41.41901
518.5446, 41.22767
519.0267, 41.31667
519.5089, 41.46428
519.9910, 41.55141
520.4731, 41.57087
520.9552, 41.47659
521.4373, 41.24018
521.9194, 40.99283
522.4016, 40.86742
522.8837, 40.87119
523.3658, 40.85613
523.8479, 40.75563
524.3300, 40.70658
524.8121, 40.84296
525.2943, 41.05743
525.7764, 41.15214
526.2585, 41.05657
526.7406, 40.87217
527.2227, 40.75835
527.7048, 40.74693
528.1870, 40.69236
528.6691, 40.64500
529.1512, 40.50562
529.6333, 40.09305
530.1154, 39.58649
530.5975, 39.33252
531.0797, 39.51706
531.5618, 39.87651
532.0439, 39.91295
532.5260, 39.56055
533.0081, 39.42378
533.4902, 39.80206
533.9724, 40.19118
534.4545, 40.19961
534.9366, 39.90874
535.4187, 39.63212
535.9008, 39.46619
536.3829, 39.38902
536.8651, 39.40314
537.3472, 39.49675
537.8293, 39.58760
538.3114, 39.63966
538.7935, 39.68855
539.2756, 39.81247
539.7578, 40.05152
540.2399, 40.16216
540.7220, 39.96679
541.2041, 39.77041
541.6862, 39.81287
542.1683, 40.03396
542.6505, 40.23895
543.1326, 40.32491
543.6147, 40.32158
544.0968, 40.28412
544.5789, 40.10917
545.0610, 40.11890
545.5432, 40.37261
546.0253, 40.74400
546.5074, 41.30391
546.9895, 41.92687
547.4716, 42.30583
547.9537, 42.18922
548.4359, 41.81952
548.9180, 41.74590
549.4001, 42.01948
549.8822, 42.23248
550.3643, 42.26355
550.8464, 42.19816
551.3286, 42.09317
551.8107, 41.95713
552.2928, 41.88833
552.7749, 41.99743
553.2570, 42.14305
553.7391, 42.15357
554.2213, 42.04736
554.7034, 41.95716
555.1855, 41.94320
555.6676, 41.98038
556.1497, 42.02984
556.6318, 42.15089
557.1140, 42.13340
557.5961, 41.87428
558.0782, 41.56175
558.5603, 41.28512
559.0424, 41.05985
559.5245, 40.88824
560.0067, 40.77051
560.4888, 40.70768
560.9709, 40.71826
561.4530, 40.85062
561.9351, 40.91975
562.4172, 40.73881
562.8994, 40.63373
563.3815, 40.86491
563.8636, 41.33191
564.3457, 41.69602
564.8278, 41.73804
565.3099, 41.64242
565.7921, 41.70803
566.2742, 41.92439
566.7563, 42.05299
567.2384, 42.01529
567.7205, 41.86700
568.2026, 41.58268
568.6848, 41.15581
569.1669, 41.02575
569.6490, 41.57291
570.1311, 42.15160
570.6132, 42.29085
571.0953, 42.11219
571.5775, 41.95037
572.0596, 41.94769
572.5417, 42.05336
573.0238, 42.18858
573.5059, 42.37921
573.9880, 42.52010
574.4702, 42.55208
574.9523, 42.59822
575.4344, 42.68348
575.9165, 42.82292
576.3986, 43.06282
576.8807, 43.43818
577.3629, 43.80724
577.8450, 43.92961
578.3271, 43.80903
578.8092, 43.76372
579.2913, 43.84301
579.7734, 43.99559
580.2556, 44.15880
580.7377, 44.36146
581.2198, 44.71236
581.7019, 45.43888
582.1840, 46.04654
582.6661, 46.09454
583.1483, 45.83154
583.6304, 45.76459
584.1125, 46.01897
584.5946, 46.37170
585.0767, 46.58942
585.5588, 46.66396
586.0409, 46.82497
586.5230, 47.15123
587.0051, 47.46529
587.4872, 47.74773
587.9694, 47.98880
588.4515, 48.17713
588.9336, 48.31280
589.4157, 48.40836
589.8978, 48.46605
590.3799, 48.49085
