##NAMES=Sigloite
##RRUFFID=R050576
##IDEAL CHEMISTRY=Fe^3+^Al_2_(PO_4_)_2_(OH)_3_&#183;7H_2_O
##LOCALITY=Viloco, Bolivia
##OWNER=RRUFF
##SOURCE=University of Arizona Mineral Museum
##DESCRIPTION=Tan colored prismatic crystals
##STATUS=The identification of this mineral has been confirmed by X-ray diffraction.
##URL=rruff.info/R050576
92.29974, 0.0000000E+00
92.78186, 0.0000000E+00
93.26398, 0.0000000E+00
93.74609, 13.24073
94.22821, 12.94197
94.71033, 13.06375
95.19244, 13.54725
95.67456, 14.15504
96.15668, 14.79749
96.63879, 15.48274
97.12091, 16.23120
97.60303, 17.03416
98.08514, 17.94355
98.56726, 19.01462
99.04938, 20.25097
99.53149, 21.66103
100.0136, 23.29836
100.4957, 25.16144
100.9778, 26.96102
101.4600, 28.59021
101.9421, 30.19282
102.4242, 32.10824
102.9063, 34.35108
103.3884, 36.90526
103.8705, 39.82043
104.3527, 43.34084
104.8348, 46.58894
105.3169, 49.45371
105.7990, 51.94850
106.2811, 54.50684
106.7632, 57.08169
107.2454, 59.74486
107.7275, 62.52891
108.2096, 65.64506
108.6917, 68.64101
109.1738, 71.45741
109.6559, 74.11088
110.1381, 76.63158
110.6202, 78.65073
111.1023, 80.69374
111.5844, 83.31313
112.0665, 87.13710
112.5486, 90.99648
113.0308, 94.56483
113.5129, 97.69167
113.9950, 101.0908
114.4771, 104.9673
114.9592, 109.1401
115.4413, 113.3946
115.9235, 117.7134
116.4056, 122.0602
116.8877, 126.3624
117.3698, 130.6974
117.8519, 134.9742
118.3340, 139.1879
118.8162, 143.3270
119.2983, 147.3457
119.7804, 151.3081
120.2625, 155.1576
120.7446, 158.8006
121.2267, 162.1307
121.7089, 165.4230
122.1910, 169.0290
122.6731, 172.8227
123.1552, 176.2421
123.6373, 179.0091
124.1194, 181.1790
124.6016, 182.8107
125.0837, 183.3703
125.5658, 183.8094
126.0479, 185.1844
126.5300, 187.4547
127.0121, 189.9356
127.4943, 192.1693
127.9764, 194.1833
128.4585, 196.0997
128.9406, 197.8261
129.4227, 199.5056
129.9048, 201.4514
130.3869, 203.6914
130.8691, 205.9203
131.3512, 207.7945
131.8333, 209.3493
132.3154, 210.8016
132.7975, 212.1231
133.2796, 213.3890
133.7618, 214.9111
134.2439, 216.2803
134.7260, 216.7161
135.2081, 216.4997
135.6902, 216.1433
136.1723, 215.7722
136.6545, 215.4636
137.1366, 215.2200
137.6187, 214.8942
138.1008, 214.4350
138.5829, 213.9536
139.0650, 213.7863
139.5472, 214.0797
140.0293, 214.1173
140.5114, 213.4785
140.9935, 212.0594
141.4756, 210.4232
141.9577, 208.4207
142.4399, 206.2487
142.9220, 204.7290
143.4041, 204.0858
143.8862, 203.6409
144.3683, 202.9520
144.8504, 201.8746
145.3326, 200.8935
145.8147, 200.0236
146.2968, 199.2678
146.7789, 198.8248
147.2610, 198.9875
147.7431, 199.1597
148.2253, 198.8859
148.7074, 197.6493
149.1895, 196.7134
149.6716, 196.2935
150.1537, 196.3921
150.6358, 196.5575
151.1180, 196.8718
151.6001, 197.2057
152.0822, 197.4481
152.5643, 197.5175
153.0464, 197.5855
153.5285, 197.6582
154.0107, 197.7273
154.4928, 197.8770
154.9749, 198.3700
155.4570, 198.8466
155.9391, 198.9525
156.4212, 198.1688
156.9034, 197.4611
157.3855, 197.1421
157.8676, 197.3158
158.3497, 197.4272
158.8318, 197.1004
159.3139, 196.7225
159.7961, 196.7824
160.2782, 197.8261
160.7603, 198.9781
161.2424, 199.8497
161.7245, 200.3131
162.2066, 200.8282
162.6888, 201.5100
163.1709, 202.3435
163.6530, 203.3065
164.1351, 204.6752
164.6172, 205.9718
165.0993, 206.8294
165.5815, 207.0101
166.0636, 207.3185
166.5457, 208.3445
167.0278, 209.7924
167.5099, 211.0468
167.9920, 211.7046
168.4742, 212.1236
168.9563, 212.5374
169.4384, 212.9060
169.9205, 213.4833
170.4026, 214.7460
170.8847, 216.4134
171.3669, 217.7029
171.8490, 217.8474
172.3311, 217.5348
172.8132, 217.4905
173.2953, 217.9190
173.7774, 218.5483
174.2596, 219.2783
174.7417, 220.0517
175.2238, 220.6392
175.7059, 220.7215
176.1880, 220.5630
176.6701, 220.5500
177.1523, 220.8354
177.6344, 221.1965
178.1165, 221.2527
178.5986, 221.0787
179.0807, 221.1339
179.5628, 222.1177
180.0450, 223.5422
180.5271, 224.3782
181.0092, 224.2002
181.4913, 223.5368
181.9734, 223.0701
182.4555, 222.8004
182.9377, 222.7234
183.4198, 222.8612
183.9019, 223.1948
184.3840, 223.6752
184.8661, 224.3616
185.3482, 225.1346
185.8304, 225.7680
186.3125, 226.2587
186.7946, 226.7292
187.2767, 227.2624
187.7588, 227.8614
188.2409, 228.5186
188.7231, 229.2454
189.2052, 230.0263
189.6873, 230.8785
190.1694, 231.8203
190.6515, 232.6756
191.1336, 233.3342
191.6158, 233.7860
192.0979, 233.9241
192.5800, 233.5958
193.0621, 232.9574
193.5442, 232.5613
194.0263, 232.4220
194.5085, 232.4234
194.9906, 232.5878
195.4727, 232.9032
195.9548, 232.8415
196.4369, 231.9805
196.9190, 230.6056
197.4012, 230.3357
197.8833, 231.3838
198.3654, 232.6786
198.8475, 232.8527
199.3296, 231.8389
199.8117, 231.1601
200.2939, 231.3060
200.7760, 232.1739
201.2581, 233.0915
201.7402, 234.1236
202.2223, 235.0141
202.7044, 235.3350
203.1866, 234.9797
203.6687, 234.8606
204.1508, 235.3108
204.6329, 236.2840
205.1150, 237.0965
205.5971, 237.7568
206.0793, 238.2386
206.5614, 238.4062
207.0435, 238.1474
207.5256, 238.1241
208.0077, 238.5679
208.4898, 239.4671
208.9720, 240.3753
209.4541, 241.4049
209.9362, 242.2446
210.4183, 242.4414
210.9004, 241.8156
211.3825, 241.1836
211.8647, 240.7538
212.3468, 240.5298
212.8289, 240.3226
213.3110, 240.1797
213.7931, 239.9868
214.2752, 239.5352
214.7574, 238.6454
215.2395, 238.0589
215.7216, 238.2108
216.2037, 239.1634
216.6858, 238.9432
217.1679, 237.0436
217.6500, 234.6091
218.1322, 233.1001
218.6143, 232.9563
219.0964, 232.5736
219.5785, 231.4651
220.0606, 229.5718
220.5427, 228.0019
221.0249, 226.8586
221.5070, 225.9306
221.9891, 225.0205
222.4712, 224.1619
222.9533, 223.2105
223.4354, 222.0800
223.9176, 220.7276
224.3997, 219.7038
224.8818, 219.0976
225.3639, 218.7147
225.8460, 218.3454
226.3281, 217.9891
226.8103, 217.6571
227.2924, 217.3462
227.7745, 217.0495
228.2566, 216.8602
228.7387, 216.8177
229.2208, 216.8406
229.7030, 216.8016
230.1851, 216.4997
230.6672, 216.5462
231.1493, 217.1839
231.6314, 218.4429
232.1135, 219.3899
232.5957, 219.8435
233.0778, 220.1745
233.5599, 220.7570
234.0420, 221.7476
234.5241, 222.6759
235.0062, 223.4227
235.4884, 223.9808
235.9705, 224.6144
236.4526, 225.3353
236.9347, 226.1281
237.4168, 226.9504
237.8989, 227.6451
238.3811, 228.6935
238.8632, 230.3888
239.3453, 232.7216
239.8274, 234.2889
240.3095, 234.7191
240.7916, 234.8133
241.2738, 235.2393
241.7559, 236.1363
242.2380, 237.0887
242.7201, 238.0715
243.2022, 239.0820
243.6843, 239.9708
244.1665, 240.7067
244.6486, 241.3756
245.1307, 242.0101
245.6128, 242.4631
246.0949, 243.1970
246.5770, 244.3205
247.0592, 245.8035
247.5413, 247.4097
248.0234, 249.3991
248.5055, 251.1660
248.9876, 252.1888
249.4697, 252.0340
249.9519, 252.1075
250.4340, 252.6118
250.9161, 253.4708
251.3982, 254.2737
251.8803, 255.1120
252.3624, 255.7460
252.8446, 255.9419
253.3267, 255.3745
253.8088, 255.1831
254.2909, 255.7108
254.7730, 256.6819
255.2551, 256.8333
255.7373, 255.6419
256.2194, 254.4887
256.7015, 254.2505
257.1836, 255.4434
257.6657, 256.1524
258.1478, 256.1618
258.6299, 255.6620
259.1121, 255.2107
259.5942, 254.7923
260.0763, 254.4530
260.5584, 254.2309
261.0405, 254.1920
261.5226, 254.0699
262.0048, 253.8324
262.4869, 253.5232
262.9690, 253.2651
263.4511, 253.1415
263.9332, 252.8856
264.4153, 252.3126
264.8975, 251.2597
265.3796, 250.5347
265.8617, 250.2494
266.3438, 250.1878
266.8259, 249.9118
267.3080, 249.3179
267.7902, 248.7901
268.2723, 248.4796
268.7544, 248.3925
269.2365, 248.4788
269.7186, 248.8320
270.2007, 249.2406
270.6829, 249.3419
271.1650, 249.0518
271.6471, 248.7617
272.1292, 248.6091
272.6113, 248.5966
273.0934, 248.6215
273.5756, 248.7356
274.0577, 248.7936
274.5398, 248.5902
275.0219, 248.0844
275.5040, 247.5254
275.9861, 247.0486
276.4683, 246.6203
276.9504, 245.8076
277.4325, 244.6039
277.9146, 243.0328
278.3967, 241.0113
278.8788, 238.4957
279.3610, 236.0390
279.8431, 233.8542
280.3252, 231.8620
280.8073, 229.4472
281.2894, 226.5046
281.7715, 223.5767
282.2537, 221.1926
282.7358, 219.3633
283.2179, 217.5610
283.7000, 215.6818
284.1821, 213.7561
284.6642, 211.8829
285.1464, 210.0420
285.6285, 208.3391
286.1106, 206.7864
286.5927, 205.3983
287.0748, 204.4216
287.5569, 203.9663
288.0391, 203.8409
288.5212, 203.6307
289.0033, 203.3325
289.4854, 203.1279
289.9675, 203.2390
290.4496, 203.5909
290.9318, 203.6824
291.4139, 203.3861
291.8960, 203.0187
292.3781, 203.0799
292.8602, 203.5518
293.3423, 204.2281
293.8245, 205.2185
294.3066, 206.3497
294.7887, 206.9646
295.2708, 206.9336
295.7529, 206.7847
296.2350, 207.3230
296.7172, 208.3865
297.1993, 209.2176
297.6814, 209.1698
298.1635, 208.7075
298.6456, 208.9249
299.1277, 209.8774
299.6099, 210.9282
300.0920, 211.4201
300.5741, 211.4886
301.0562, 211.4596
301.5383, 211.3695
302.0204, 211.3008
302.5026, 211.5120
302.9847, 211.9836
303.4668, 212.2198
303.9489, 211.5040
304.4310, 210.3225
304.9131, 209.5488
305.3953, 209.7575
305.8774, 210.1439
306.3595, 209.8385
306.8416, 208.9322
307.3237, 207.8809
307.8058, 207.0433
308.2880, 206.2220
308.7701, 205.1773
309.2522, 203.8183
309.7343, 202.2813
310.2164, 200.6247
310.6985, 198.8605
311.1807, 197.0661
311.6628, 195.1913
312.1449, 193.3416
312.6270, 191.7088
313.1091, 190.3985
313.5912, 188.9860
314.0734, 187.0766
314.5555, 184.8907
315.0376, 182.8157
315.5197, 181.0978
316.0018, 179.4648
316.4839, 177.7414
316.9661, 175.8686
317.4482, 174.1717
317.9303, 172.8178
318.4124, 171.7121
318.8945, 170.7280
319.3766, 169.9944
319.8588, 169.2349
320.3409, 168.3617
320.8230, 167.3709
321.3051, 166.2979
321.7872, 165.0711
322.2693, 163.8144
322.7515, 162.6251
323.2336, 161.2632
323.7157, 160.2508
324.1978, 159.8727
324.6799, 160.0204
325.1620, 160.0364
325.6442, 159.8609
326.1263, 159.4982
326.6084, 158.9402
327.0905, 157.9736
327.5726, 157.0989
328.0547, 156.2477
328.5369, 155.5052
329.0190, 155.0782
329.5011, 155.3778
329.9832, 155.6058
330.4653, 155.4655
330.9474, 154.7457
331.4296, 154.2067
331.9117, 153.8831
332.3938, 153.7293
332.8759, 153.7136
333.3580, 154.1276
333.8401, 154.2373
334.3223, 153.7811
334.8044, 152.6968
335.2865, 151.7416
335.7686, 150.9348
336.2507, 150.2431
336.7328, 149.6552
337.2150, 149.1862
337.6971, 148.7729
338.1792, 148.4474
338.6613, 148.1750
339.1434, 147.7047
339.6255, 146.9821
340.1076, 146.1823
340.5898, 145.4452
341.0719, 144.8169
341.5540, 143.9558
342.0361, 142.7274
342.5182, 141.3634
343.0003, 140.5217
343.4825, 140.2947
343.9646, 139.9650
344.4467, 139.0064
344.9288, 137.4970
345.4109, 136.3492
345.8930, 135.6523
346.3752, 135.1642
346.8573, 134.5271
347.3394, 133.7587
347.8215, 133.1541
348.3036, 132.9695
348.7857, 133.0182
349.2679, 132.7242
349.7500, 132.0789
350.2321, 131.3396
350.7142, 130.7190
351.1963, 130.2068
351.6784, 129.7674
352.1606, 129.4184
352.6427, 129.1132
353.1248, 128.7572
353.6069, 128.3634
354.0890, 128.0349
354.5711, 127.9492
355.0533, 127.9404
355.5354, 127.7362
356.0175, 127.2120
356.4996, 126.6834
356.9817, 126.4398
357.4638, 126.4020
357.9460, 126.3795
358.4281, 126.3436
358.9102, 126.2421
359.3923, 125.9309
359.8744, 125.3510
360.3565, 125.0088
360.8387, 125.4770
361.3208, 126.2653
361.8029, 126.7651
362.2850, 126.5381
362.7671, 126.1806
363.2492, 125.9116
363.7314, 125.7338
364.2135, 125.6082
364.6956, 125.4661
365.1777, 125.4042
365.6598, 125.4949
366.1419, 125.9485
366.6241, 126.3156
367.1062, 126.4692
367.5883, 126.4713
368.0704, 126.4999
368.5525, 126.4403
369.0346, 126.5283
369.5168, 126.9151
369.9989, 127.8957
370.4810, 128.4961
370.9631, 128.5454
371.4452, 128.2931
371.9273, 128.0491
372.4095, 127.6371
372.8916, 127.5071
373.3737, 127.8803
373.8558, 128.7844
374.3379, 129.2969
374.8200, 129.2305
375.3022, 129.0320
375.7843, 129.0843
376.2664, 129.4691
376.7485, 129.8272
377.2306, 130.0851
377.7127, 130.2962
378.1949, 130.6654
378.6770, 131.2323
379.1591, 131.7825
379.6412, 132.1310
380.1233, 132.2774
380.6054, 132.6424
381.0876, 133.2974
381.5697, 134.0299
382.0518, 134.4522
382.5339, 134.5874
383.0160, 134.9079
383.4981, 135.7467
383.9803, 136.8887
384.4624, 137.6830
384.9445, 138.1253
385.4266, 138.3752
385.9087, 138.3415
386.3908, 138.2220
386.8730, 138.5772
387.3551, 139.7697
387.8372, 141.1721
388.3193, 141.9940
388.8014, 142.3426
389.2835, 142.6540
389.7657, 143.2021
390.2478, 143.8495
390.7299, 144.3991
391.2120, 144.7754
391.6941, 145.2763
392.1762, 146.2709
392.6584, 147.4892
393.1405, 148.5196
393.6226, 148.9793
394.1047, 149.3923
394.5868, 150.0351
395.0689, 150.9105
395.5511, 151.8097
396.0332, 152.8776
396.5153, 153.8154
396.9974, 154.3930
397.4795, 154.1717
397.9616, 154.0445
398.4438, 154.2743
398.9259, 154.7321
399.4080, 155.0130
399.8901, 154.9332
400.3722, 154.7969
400.8543, 154.7261
401.3365, 154.7810
401.8186, 154.7302
402.3007, 154.6059
402.7828, 154.3552
403.2649, 153.8761
403.7470, 152.9536
404.2292, 152.2076
404.7113, 151.7885
405.1934, 151.6736
405.6755, 151.6677
406.1576, 151.8413
406.6397, 151.9698
407.1219, 151.8842
407.6040, 151.5687
408.0861, 151.1553
408.5682, 150.5950
409.0503, 150.0312
409.5324, 149.7233
410.0146, 149.6756
410.4967, 149.7644
410.9788, 150.0079
411.4609, 150.3526
411.9430, 150.5654
412.4251, 150.6351
412.9073, 150.6546
413.3894, 150.6784
413.8715, 150.7215
414.3536, 150.8382
414.8357, 151.0744
415.3178, 151.3506
415.8000, 151.5609
416.2821, 151.7169
416.7642, 151.8699
417.2463, 152.1097
417.7284, 152.3360
418.2105, 152.3940
418.6927, 152.2015
419.1748, 152.1033
419.6569, 152.4202
420.1390, 152.9529
420.6211, 153.3839
421.1032, 153.5972
421.5854, 153.7035
422.0675, 153.7009
422.5496, 153.6001
423.0317, 153.5725
423.5138, 153.7372
423.9959, 153.9425
424.4781, 154.0910
424.9602, 154.1108
425.4423, 154.1452
425.9244, 154.0779
426.4065, 154.0379
426.8886, 154.3339
427.3708, 155.3615
427.8529, 156.2339
428.3350, 156.6044
428.8171, 156.3612
429.2992, 156.4264
429.7813, 156.9394
430.2635, 157.5755
430.7456, 158.0376
431.2277, 158.3118
431.7098, 158.4283
432.1919, 158.3080
432.6740, 158.0784
433.1562, 158.2189
433.6383, 158.7782
434.1204, 159.2764
434.6025, 159.3234
435.0846, 159.0136
435.5667, 158.9651
436.0489, 159.2448
436.5310, 159.5919
437.0131, 159.5875
437.4952, 159.3601
437.9773, 159.3660
438.4594, 160.0025
438.9415, 160.7832
439.4236, 160.9845
439.9058, 160.6804
440.3879, 160.3729
440.8700, 160.5560
441.3521, 160.8322
441.8342, 160.7403
442.3163, 160.0948
442.7985, 159.3928
443.2806, 158.8339
443.7627, 158.4237
444.2448, 158.1593
444.7269, 158.2459
445.2090, 158.2898
445.6912, 158.1196
446.1733, 157.7275
446.6554, 157.2974
447.1375, 156.7999
447.6196, 156.3203
448.1017, 155.9121
448.5839, 155.6811
449.0660, 155.3840
449.5481, 154.9254
450.0302, 154.4257
450.5123, 154.2120
450.9944, 154.6798
451.4766, 154.7183
451.9587, 153.7974
452.4408, 151.8394
452.9229, 150.5434
453.4050, 150.0241
453.8871, 149.8476
454.3693, 149.7074
454.8514, 149.6139
455.3335, 149.2746
455.8156, 148.5824
456.2977, 147.7035
456.7798, 146.9533
457.2620, 146.3196
457.7441, 145.7357
458.2262, 145.1446
458.7083, 144.5773
459.1904, 144.1176
459.6725, 143.7757
460.1547, 143.4172
460.6368, 142.9409
461.1189, 142.3656
461.6010, 141.7040
462.0831, 140.8017
462.5652, 140.0392
463.0474, 139.8741
463.5295, 140.1029
464.0116, 140.1573
464.4937, 139.3772
464.9758, 138.6615
465.4579, 138.6579
465.9401, 139.5949
466.4222, 140.2576
466.9043, 140.1642
467.3864, 139.7412
467.8685, 139.3900
468.3506, 139.1181
468.8328, 138.9643
469.3149, 138.9784
469.7970, 139.1184
470.2791, 139.2265
470.7612, 139.2809
471.2433, 139.3371
471.7255, 139.4349
472.2076, 139.5966
472.6897, 139.6224
473.1718, 139.4313
473.6539, 139.2613
474.1360, 139.4101
474.6182, 139.8883
475.1003, 140.4273
475.5824, 140.9788
476.0645, 141.5435
476.5466, 142.1562
477.0287, 142.8076
477.5109, 143.3540
477.9930, 143.7048
478.4751, 143.8877
478.9572, 143.8139
479.4393, 143.4332
479.9214, 143.3314
480.4036, 144.3217
480.8857, 145.8525
481.3678, 147.0899
481.8499, 147.5740
482.3320, 147.9043
482.8141, 148.4613
483.2963, 149.1628
483.7784, 149.7432
484.2605, 149.9569
484.7426, 150.1392
485.2247, 150.4691
485.7068, 151.0014
486.1890, 151.5152
486.6711, 151.7433
487.1532, 152.0711
487.6353, 152.8859
488.1174, 154.7052
488.5995, 156.1521
489.0817, 156.9551
489.5638, 157.3033
490.0459, 157.8646
490.5280, 158.7315
491.0101, 159.5748
491.4922, 160.1951
491.9744, 160.5886
492.4565, 161.2799
492.9386, 162.3192
493.4207, 163.4618
493.9028, 164.4216
494.3849, 165.2356
494.8671, 166.1134
495.3492, 167.1556
495.8313, 168.2023
496.3134, 168.9855
496.7955, 169.5575
497.2776, 170.1298
497.7598, 170.7968
498.2419, 171.5357
498.7240, 172.3757
499.2061, 173.3255
499.6882, 174.1439
500.1703, 174.6042
500.6525, 174.9145
501.1346, 175.2508
501.6167, 175.5219
502.0988, 176.0316
502.5809, 177.0946
503.0630, 178.4393
503.5452, 179.4862
504.0273, 179.6495
504.5094, 180.0170
504.9915, 181.0532
505.4736, 182.7986
505.9557, 183.7479
506.4379, 183.4552
506.9200, 182.9512
507.4021, 182.9904
507.8842, 183.7281
508.3663, 184.2897
508.8484, 184.5786
509.3306, 184.7578
509.8127, 185.2076
510.2948, 185.9187
510.7769, 186.2871
511.2590, 185.8450
511.7411, 185.0357
512.2233, 184.9370
512.7054, 185.5078
513.1875, 186.3019
513.6696, 187.0905
514.1517, 187.8718
514.6339, 188.6622
515.1160, 189.4842
515.5981, 190.2163
516.0802, 190.7084
516.5623, 191.0832
517.0444, 191.5058
517.5266, 192.2490
518.0087, 192.8202
518.4908, 192.8855
518.9729, 192.5762
519.4550, 192.4985
519.9371, 192.8571
520.4193, 193.3781
520.9014, 194.0036
521.3835, 194.8192
521.8656, 195.3659
522.3477, 195.5193
522.8298, 195.5423
523.3120, 195.6782
523.7941, 195.9348
524.2762, 196.2847
524.7583, 196.7873
525.2404, 197.3150
525.7225, 197.5869
526.2047, 197.6071
526.6868, 197.4164
527.1689, 196.7763
527.6510, 195.9832
528.1331, 195.8984
528.6152, 196.5056
529.0974, 197.2100
529.5795, 197.6175
530.0616, 197.8136
530.5437, 197.9129
531.0258, 197.9455
531.5079, 197.8700
531.9901, 197.4477
532.4722, 196.9452
532.9543, 196.7796
533.4364, 197.6846
533.9185, 198.3323
534.4006, 197.9948
534.8828, 196.8191
535.3649, 196.2652
535.8470, 197.0152
536.3291, 197.8752
536.8112, 198.3602
537.2933, 198.3755
537.7755, 198.3729
538.2576, 198.3520
538.7397, 198.3094
539.2218, 198.1618
539.7039, 197.8663
540.1860, 197.9516
540.6682, 198.6490
541.1503, 199.5934
541.6324, 199.9578
542.1145, 199.8027
542.5966, 199.7412
543.0787, 200.2236
543.5609, 200.9518
544.0430, 201.4529
544.5251, 201.7275
545.0072, 201.9059
545.4893, 201.9277
545.9714, 201.9745
546.4536, 202.2811
546.9357, 203.0393
547.4178, 203.6790
547.8999, 203.7594
548.3820, 203.6420
548.8641, 203.8254
549.3463, 204.9193
549.8284, 205.7443
550.3105, 205.9939
550.7926, 205.7605
551.2747, 205.4783
551.7568, 204.9194
552.2390, 204.6798
552.7211, 205.1783
553.2032, 206.5232
553.6853, 207.2103
554.1674, 207.0909
554.6495, 206.7761
555.1317, 206.9040
555.6138, 207.4152
556.0959, 207.8633
556.5780, 208.1374
557.0601, 208.4135
557.5422, 209.0510
558.0244, 209.9077
558.5065, 210.5669
558.9886, 210.5224
559.4707, 210.4224
559.9528, 210.8933
560.4349, 211.8490
560.9171, 212.7322
561.3992, 213.2191
561.8813, 213.6035
562.3634, 214.0484
562.8455, 214.5750
563.3276, 215.1537
563.8098, 215.8325
564.2919, 216.5256
564.7740, 217.1580
565.2561, 217.6723
565.7382, 218.2363
566.2203, 218.8946
566.7025, 219.6024
567.1846, 220.2613
567.6667, 220.8983
568.1488, 221.3575
568.6309, 221.5028
569.1130, 221.4394
569.5952, 221.5429
570.0773, 221.8162
570.5594, 222.1074
571.0415, 222.4290
571.5236, 222.6647
572.0057, 222.5087
572.4879, 221.8439
572.9700, 221.3334
573.4521, 221.8320
573.9342, 222.6213
574.4163, 222.8215
574.8984, 221.3933
575.3806, 220.2256
575.8627, 220.0710
576.3448, 220.5714
576.8269, 220.7277
577.3090, 220.0145
577.7911, 219.4630
578.2733, 219.3774
578.7554, 219.7486
579.2375, 220.0612
579.7196, 220.3168
580.2017, 220.5073
580.6838, 220.5950
581.1660, 220.5812
581.6481, 220.6217
582.1302, 220.7253
582.6123, 220.8764
583.0944, 221.0352
583.5765, 221.2230
584.0587, 221.4866
584.5408, 221.7788
585.0229, 222.2571
585.5050, 223.3670
585.9871, 224.8038
586.4692, 225.8069
586.9513, 225.5134
587.4334, 225.1940
587.9155, 225.5347
588.3976, 226.5298
588.8798, 227.5640
589.3619, 228.6918
589.8440, 229.6812
590.3261, 230.4088
