##NAMES=Sillimanite
##RRUFFID=R060080
##IDEAL CHEMISTRY=Al_2_OSiO_4_
##LOCALITY=Pein Pyit, Mogok, Burma
##OWNER=RRUFF
##SOURCE=Marcus Origlieri
##DESCRIPTION=Light tan colored water-worn pebble
##STATUS=The identification of this mineral has been confirmed by X-ray diffraction and chemical analysis
##URL=rruff.info/R060080
##MEASURED CHEMISTRY=(Al_1.99_Fe^3+^_0.01_)_Î£=2_Si_1.00_O_5_
93.46680, 1211.288
93.94891, 1193.240
94.43103, 1196.691
94.91315, 1213.828
95.39526, 1227.866
95.87738, 1234.626
96.35950, 1236.769
96.84161, 1236.745
97.32373, 1236.232
97.80585, 1234.490
98.28796, 1231.695
98.77008, 1228.186
99.25220, 1224.068
99.73431, 1219.123
100.2164, 1212.863
100.6985, 1204.451
101.1807, 1197.240
101.6628, 1191.338
102.1449, 1186.409
102.6270, 1182.105
103.1091, 1178.252
103.5912, 1174.787
104.0734, 1170.987
104.5555, 1168.080
105.0376, 1166.615
105.5197, 1166.134
106.0018, 1165.720
106.4839, 1164.505
106.9661, 1162.143
107.4482, 1161.190
107.9303, 1162.584
108.4124, 1163.991
108.8945, 1163.776
109.3766, 1161.815
109.8588, 1159.484
110.3409, 1158.499
110.8230, 1159.027
111.3051, 1159.463
111.7872, 1159.391
112.2693, 1159.137
112.7515, 1159.291
113.2336, 1160.171
113.7157, 1161.114
114.1978, 1161.189
114.6799, 1160.408
115.1620, 1159.757
115.6442, 1160.192
116.1263, 1161.634
116.6084, 1162.299
117.0905, 1161.139
117.5726, 1159.391
118.0547, 1157.497
118.5369, 1155.529
119.0190, 1154.168
119.5011, 1154.682
119.9832, 1158.280
120.4653, 1160.826
120.9474, 1161.510
121.4296, 1161.165
121.9117, 1160.261
122.3938, 1158.998
122.8759, 1157.571
123.3580, 1156.630
123.8401, 1156.175
124.3223, 1156.303
124.8044, 1157.455
125.2865, 1159.143
125.7686, 1160.734
126.2507, 1161.897
126.7328, 1162.596
127.2150, 1162.403
127.6971, 1160.435
128.1792, 1158.651
128.6613, 1158.014
129.1434, 1158.414
129.6255, 1159.044
130.1077, 1159.359
130.5898, 1159.350
131.0719, 1159.250
131.5540, 1159.129
132.0361, 1158.893
132.5182, 1158.296
133.0004, 1157.210
133.4825, 1156.302
133.9646, 1156.345
134.4467, 1157.001
134.9288, 1157.589
135.4109, 1157.526
135.8931, 1157.116
136.3752, 1157.474
136.8573, 1158.984
137.3394, 1160.905
137.8215, 1162.443
138.3036, 1163.889
138.7858, 1166.109
139.2679, 1169.843
139.7500, 1175.181
140.2321, 1181.344
140.7142, 1189.728
141.1963, 1197.855
141.6785, 1206.157
142.1606, 1213.833
142.6427, 1218.631
143.1248, 1217.353
143.6069, 1207.257
144.0890, 1196.665
144.5712, 1184.085
145.0533, 1172.081
145.5354, 1162.174
146.0175, 1154.892
146.4996, 1149.807
146.9817, 1146.287
147.4639, 1145.722
147.9460, 1144.595
148.4281, 1142.135
148.9102, 1139.223
149.3923, 1136.953
149.8744, 1135.749
150.3566, 1135.338
150.8387, 1135.173
151.3208, 1135.237
151.8029, 1135.458
152.2850, 1136.196
152.7671, 1137.160
153.2493, 1137.297
153.7314, 1135.771
154.2135, 1133.496
154.6956, 1132.208
155.1777, 1132.249
155.6598, 1132.476
156.1420, 1131.693
156.6241, 1129.816
157.1062, 1128.580
157.5883, 1129.470
158.0704, 1131.029
158.5525, 1132.058
159.0347, 1132.256
159.5168, 1131.858
159.9989, 1131.126
160.4810, 1129.876
160.9631, 1128.745
161.4452, 1127.842
161.9274, 1127.153
162.4095, 1126.728
162.8916, 1126.627
163.3737, 1126.711
163.8558, 1126.521
164.3379, 1125.916
164.8201, 1125.201
165.3022, 1124.212
165.7843, 1123.209
166.2664, 1122.561
166.7485, 1122.515
167.2306, 1122.981
167.7128, 1123.190
168.1949, 1123.264
168.6770, 1122.966
169.1591, 1122.010
169.6412, 1120.629
170.1233, 1119.224
170.6055, 1118.037
171.0876, 1117.078
171.5697, 1116.657
172.0518, 1117.173
172.5339, 1117.731
173.0160, 1117.939
173.4982, 1117.809
173.9803, 1117.492
174.4624, 1116.970
174.9445, 1116.328
175.4266, 1116.284
175.9087, 1117.113
176.3909, 1118.351
176.8730, 1119.887
177.3551, 1121.739
177.8372, 1123.150
178.3193, 1123.250
178.8014, 1122.380
179.2836, 1121.499
179.7657, 1120.558
180.2478, 1119.796
180.7299, 1119.764
181.2120, 1120.808
181.6941, 1121.612
182.1763, 1121.140
182.6584, 1119.818
183.1405, 1118.336
183.6226, 1116.863
184.1047, 1115.460
184.5868, 1114.324
185.0690, 1113.497
185.5511, 1112.906
186.0332, 1112.722
186.5153, 1112.705
186.9974, 1112.347
187.4795, 1110.992
187.9617, 1108.786
188.4438, 1107.930
188.9259, 1109.887
189.4080, 1111.790
189.8901, 1113.070
190.3722, 1113.600
190.8544, 1113.234
191.3365, 1111.639
191.8186, 1108.662
192.3007, 1106.729
192.7828, 1106.520
193.2649, 1106.705
193.7471, 1107.193
194.2292, 1107.760
194.7113, 1108.048
195.1934, 1107.741
195.6755, 1106.826
196.1576, 1105.306
196.6398, 1101.578
197.1219, 1098.744
197.6040, 1099.043
198.0861, 1102.053
198.5682, 1105.306
199.0503, 1106.318
199.5325, 1104.549
200.0146, 1103.366
200.4967, 1103.457
200.9788, 1103.552
201.4609, 1102.481
201.9430, 1100.228
202.4252, 1098.111
202.9073, 1097.510
203.3894, 1098.639
203.8715, 1099.421
204.3536, 1099.592
204.8357, 1099.500
205.3179, 1099.360
205.8000, 1099.190
206.2821, 1099.237
206.7642, 1099.683
207.2463, 1100.545
207.7284, 1102.033
208.2106, 1105.169
208.6927, 1108.614
209.1748, 1110.621
209.6569, 1111.034
210.1390, 1110.032
210.6211, 1106.460
211.1033, 1101.405
211.5854, 1097.695
212.0675, 1097.060
212.5496, 1098.397
213.0317, 1099.282
213.5138, 1099.540
213.9960, 1099.492
214.4781, 1099.324
214.9602, 1099.036
215.4423, 1098.606
215.9244, 1097.916
216.4065, 1097.060
216.8886, 1096.442
217.3708, 1096.244
217.8529, 1096.006
218.3350, 1095.424
218.8171, 1094.658
219.2992, 1093.995
219.7813, 1093.558
220.2635, 1093.364
220.7456, 1093.541
221.2277, 1094.167
221.7098, 1095.145
222.1919, 1096.961
222.6740, 1099.048
223.1562, 1100.395
223.6383, 1100.121
224.1204, 1098.420
224.6025, 1097.633
225.0846, 1098.067
225.5667, 1099.253
226.0489, 1101.407
226.5310, 1104.229
227.0131, 1107.296
227.4952, 1110.398
227.9773, 1113.485
228.4594, 1115.991
228.9416, 1116.821
229.4237, 1118.169
229.9058, 1119.583
230.3879, 1121.922
230.8700, 1126.371
231.3521, 1133.648
231.8343, 1143.816
232.3164, 1157.834
232.7985, 1176.729
233.2806, 1197.932
233.7627, 1226.788
234.2448, 1257.513
234.7270, 1279.883
235.2091, 1287.644
235.6912, 1281.201
236.1733, 1262.705
236.6554, 1222.276
237.1375, 1182.873
237.6197, 1149.300
238.1018, 1122.135
238.5839, 1101.870
239.0660, 1089.408
239.5481, 1083.766
240.0302, 1079.333
240.5124, 1076.628
240.9945, 1074.302
241.4766, 1071.850
241.9587, 1069.417
242.4408, 1067.401
242.9229, 1066.029
243.4051, 1065.220
243.8872, 1064.664
244.3693, 1064.659
244.8514, 1064.447
245.3335, 1063.675
245.8156, 1062.432
246.2978, 1060.939
246.7799, 1059.183
247.2620, 1057.355
247.7441, 1055.840
248.2262, 1054.670
248.7083, 1053.697
249.1905, 1052.639
249.6726, 1051.668
250.1547, 1051.552
250.6368, 1053.105
251.1189, 1055.030
251.6010, 1055.183
252.0832, 1053.231
252.5653, 1051.284
253.0474, 1050.407
253.5295, 1050.498
254.0116, 1051.183
254.4937, 1052.851
254.9759, 1054.477
255.4580, 1054.773
255.9401, 1053.702
256.4222, 1052.627
256.9043, 1052.574
257.3864, 1053.314
257.8686, 1053.609
258.3507, 1052.972
258.8328, 1052.138
259.3149, 1051.968
259.7970, 1052.347
260.2791, 1052.315
260.7613, 1050.899
261.2434, 1048.396
261.7255, 1046.522
262.2076, 1045.784
262.6897, 1045.310
263.1718, 1044.592
263.6540, 1043.635
264.1361, 1042.481
264.6182, 1040.978
265.1003, 1039.229
265.5824, 1037.849
266.0645, 1036.979
266.5467, 1036.345
267.0288, 1035.789
267.5109, 1035.331
267.9930, 1035.024
268.4751, 1034.976
268.9572, 1035.114
269.4394, 1035.108
269.9215, 1034.984
270.4036, 1034.660
270.8857, 1033.930
271.3678, 1033.046
271.8499, 1032.417
272.3321, 1032.337
272.8142, 1032.612
273.2963, 1032.585
273.7784, 1032.233
274.2605, 1031.569
274.7426, 1030.297
275.2248, 1028.864
275.7069, 1027.781
276.1890, 1027.269
276.6711, 1027.269
277.1532, 1027.839
277.6353, 1030.005
278.1175, 1030.728
278.5996, 1028.847
279.0817, 1025.817
279.5638, 1022.718
280.0459, 1019.936
280.5280, 1017.842
281.0102, 1017.398
281.4923, 1019.956
281.9744, 1021.305
282.4565, 1020.505
282.9386, 1018.836
283.4207, 1017.059
283.9029, 1015.440
284.3850, 1014.055
284.8671, 1013.008
285.3492, 1012.293
285.8313, 1011.975
286.3134, 1012.256
286.7956, 1012.715
287.2777, 1013.060
287.7598, 1013.275
288.2419, 1013.593
288.7240, 1014.331
289.2061, 1015.636
289.6883, 1016.801
290.1704, 1017.489
290.6525, 1018.326
291.1346, 1019.889
291.6167, 1021.969
292.0988, 1023.815
292.5810, 1024.786
293.0631, 1024.888
293.5452, 1024.009
294.0273, 1020.649
294.5094, 1017.793
294.9915, 1016.616
295.4737, 1016.763
295.9558, 1017.321
296.4379, 1017.679
296.9200, 1017.837
297.4021, 1017.730
297.8842, 1017.226
298.3664, 1016.584
298.8485, 1015.215
299.3306, 1013.859
299.8127, 1013.801
300.2948, 1015.844
300.7769, 1019.337
301.2591, 1021.604
301.7412, 1020.926
302.2233, 1021.027
302.7054, 1022.488
303.1875, 1024.786
303.6696, 1027.358
304.1518, 1029.967
304.6339, 1032.720
305.1160, 1035.921
305.5981, 1039.965
306.0802, 1043.854
306.5623, 1047.270
307.0445, 1050.698
307.5266, 1054.652
308.0087, 1059.202
308.4908, 1063.981
308.9729, 1068.732
309.4550, 1074.809
309.9372, 1077.035
310.4193, 1074.991
310.9014, 1070.202
311.3835, 1062.498
311.8656, 1052.570
312.3477, 1042.371
312.8299, 1033.903
313.3120, 1027.266
313.7941, 1021.387
314.2762, 1016.375
314.7583, 1011.853
315.2404, 1007.773
315.7226, 1004.049
316.2047, 1000.394
316.6868, 996.4805
317.1689, 992.4351
317.6510, 990.3972
318.1331, 992.6318
318.6153, 994.3447
319.0974, 994.4545
319.5795, 993.4014
320.0616, 991.7604
320.5437, 989.7885
321.0258, 987.7811
321.5080, 986.7349
321.9901, 987.9881
322.4722, 988.5750
322.9543, 988.0797
323.4364, 986.9861
323.9185, 985.7698
324.4007, 984.6016
324.8828, 983.3149
325.3649, 981.5778
325.8470, 978.8404
326.3291, 976.7341
326.8112, 975.3333
327.2934, 974.4019
327.7755, 974.0546
328.2576, 974.1437
328.7397, 974.0732
329.2218, 973.1220
329.7039, 971.0318
330.1861, 969.3024
330.6682, 968.1464
331.1503, 967.0923
331.6324, 965.8997
332.1145, 964.6274
332.5966, 963.4804
333.0788, 962.6032
333.5609, 961.9915
334.0430, 961.6093
334.5251, 961.5019
335.0072, 961.5866
335.4893, 961.8910
335.9715, 962.3679
336.4536, 963.0043
336.9357, 963.7977
337.4178, 964.6504
337.8999, 965.2594
338.3820, 965.6345
338.8642, 965.7031
339.3463, 965.4603
339.8284, 964.9418
340.3105, 963.9606
340.7926, 962.5408
341.2747, 961.2270
341.7568, 961.0254
342.2390, 962.8465
342.7211, 963.4769
343.2032, 962.3201
343.6853, 960.6412
344.1674, 958.7701
344.6495, 956.9517
345.1317, 955.6038
345.6138, 955.1835
346.0959, 955.7455
346.5780, 956.3243
347.0601, 957.5753
347.5422, 958.1694
348.0244, 957.1548
348.5065, 955.2737
348.9886, 953.8537
349.4707, 953.7401
349.9528, 954.6340
350.4349, 955.4401
350.9171, 956.9000
351.3992, 956.9969
351.8813, 954.5539
352.3634, 951.1342
352.8455, 948.2182
353.3276, 946.3163
353.8098, 945.1086
354.2919, 944.0314
354.7740, 942.9044
355.2561, 942.4840
355.7382, 943.8287
356.2203, 945.1361
356.7025, 945.2850
357.1846, 944.2413
357.6667, 942.7652
358.1488, 941.4124
358.6309, 940.1768
359.1130, 939.4466
359.5952, 939.6726
360.0773, 939.9374
360.5594, 939.9750
361.0415, 939.7629
361.5236, 939.2875
362.0057, 938.5175
362.4879, 937.4973
362.9700, 936.3472
363.4521, 935.0802
363.9342, 933.6557
364.4163, 931.9952
364.8984, 930.2106
365.3806, 928.3474
365.8627, 926.3770
366.3448, 924.5302
366.8269, 923.0242
367.3090, 921.8300
367.7911, 921.1923
368.2733, 921.4257
368.7554, 922.0694
369.2375, 923.0146
369.7196, 924.1895
370.2017, 925.0190
370.6838, 924.8691
371.1660, 923.9589
371.6481, 923.3281
372.1302, 923.1154
372.6123, 923.0945
373.0944, 923.4391
373.5765, 923.8592
374.0587, 923.6437
374.5408, 922.2039
375.0229, 920.2001
375.5050, 918.6301
375.9871, 917.5582
376.4692, 916.3795
376.9514, 914.3588
377.4335, 912.3036
377.9156, 911.5754
378.3977, 912.8526
378.8798, 913.9533
379.3619, 912.8373
379.8441, 910.0647
380.3262, 908.1417
380.8083, 907.9615
381.2904, 908.4945
381.7725, 908.5226
382.2546, 908.0760
382.7368, 907.4905
383.2189, 906.6115
383.7010, 905.7599
384.1831, 905.4606
384.6652, 905.7892
385.1473, 906.2827
385.6295, 906.6653
386.1116, 906.9082
386.5937, 906.9521
387.0758, 906.6627
387.5579, 906.2965
388.0400, 906.1107
388.5222, 906.0012
389.0043, 905.5830
389.4864, 904.6398
389.9685, 903.3448
390.4506, 902.0651
390.9327, 900.5665
391.4149, 899.5460
391.8970, 899.5745
392.3791, 899.9664
392.8612, 900.0176
393.3433, 899.5560
393.8254, 898.4977
394.3076, 896.5300
394.7897, 893.2426
395.2718, 891.5588
395.7539, 892.7327
396.2360, 894.2068
396.7181, 894.6547
397.2003, 894.1941
397.6824, 893.4690
398.1645, 892.8585
398.6466, 892.3553
399.1287, 891.9061
399.6108, 891.5463
400.0930, 891.2068
400.5751, 890.7421
401.0572, 890.3600
401.5393, 890.3673
402.0214, 890.8284
402.5035, 891.4183
402.9857, 891.6105
403.4678, 891.1241
403.9499, 891.0722
404.4320, 891.5102
404.9141, 892.2668
405.3962, 893.4842
405.8784, 894.9766
406.3605, 896.3766
406.8426, 897.4881
407.3247, 898.2380
407.8068, 897.9738
408.2889, 895.8104
408.7711, 893.8733
409.2532, 893.0968
409.7353, 892.5596
410.2174, 891.0756
410.6995, 888.2309
411.1816, 885.0449
411.6638, 882.9636
412.1459, 882.1254
412.6280, 881.6888
413.1101, 882.1327
413.5922, 882.4574
414.0743, 881.8107
414.5565, 880.4376
415.0386, 879.4583
415.5207, 879.9949
416.0028, 881.5472
416.4849, 882.1697
416.9670, 881.4371
417.4492, 880.8469
417.9313, 881.5797
418.4134, 882.8000
418.8955, 883.4304
419.3776, 883.1183
419.8597, 882.3956
420.3419, 881.6154
420.8240, 880.8079
421.3061, 880.3005
421.7882, 880.3889
422.2703, 880.5409
422.7524, 880.0543
423.2346, 878.9506
423.7167, 877.8898
424.1988, 877.2798
424.6809, 876.7709
425.1630, 875.6757
425.6451, 873.9262
426.1273, 872.5401
426.6094, 872.4102
427.0915, 873.3118
427.5736, 873.7677
428.0557, 873.5185
428.5378, 873.1169
429.0200, 872.7075
429.5021, 872.3270
429.9842, 872.1034
430.4663, 872.1010
430.9484, 872.1144
431.4305, 871.7296
431.9127, 870.4390
432.3948, 870.0980
432.8769, 871.2660
433.3590, 872.9700
433.8411, 874.9095
434.3232, 876.8167
434.8054, 878.0305
435.2875, 877.9065
435.7696, 876.6390
436.2517, 876.3105
436.7338, 878.0087
437.2159, 879.3915
437.6981, 880.2109
438.1802, 880.4997
438.6623, 880.2904
439.1444, 879.6026
439.6265, 878.5056
440.1086, 877.0861
440.5908, 875.3198
441.0729, 873.3155
441.5550, 870.2199
442.0371, 867.6667
442.5192, 866.6960
443.0013, 866.8925
443.4835, 867.1202
443.9656, 866.6137
444.4477, 865.6684
444.9298, 865.2462
445.4119, 865.5137
445.8940, 865.8919
446.3762, 866.0475
446.8583, 866.3132
447.3404, 866.9952
447.8225, 868.1508
448.3046, 869.6055
448.7867, 871.1716
449.2689, 872.8834
449.7510, 874.9120
450.2331, 877.1563
450.7152, 879.9611
451.1973, 883.4125
451.6794, 887.5759
452.1616, 892.9404
452.6437, 900.6373
453.1258, 908.7819
453.6079, 915.6907
454.0900, 921.4476
454.5721, 926.7279
455.0543, 932.2928
455.5364, 936.8948
456.0185, 937.8026
456.5006, 935.0406
456.9827, 930.0509
457.4648, 922.0453
457.9470, 912.5992
458.4291, 902.7480
458.9112, 892.8651
459.3933, 883.9480
459.8754, 876.8076
460.3575, 871.4129
460.8397, 866.9756
461.3218, 864.2538
461.8039, 861.4379
462.2860, 857.2305
462.7681, 852.9397
463.2502, 850.5978
463.7324, 850.8530
464.2145, 852.3449
464.6966, 852.9186
465.1787, 852.1434
465.6608, 851.7350
466.1429, 851.9920
466.6251, 852.2991
467.1072, 852.2650
467.5893, 852.0539
468.0714, 852.1200
468.5535, 852.7994
469.0356, 853.8350
469.5178, 854.5998
469.9999, 855.3086
470.4820, 855.1481
470.9641, 852.9310
471.4462, 850.3962
471.9283, 848.7918
472.4105, 848.2735
472.8926, 848.2927
473.3747, 848.6879
473.8568, 849.3168
474.3389, 849.7206
474.8210, 849.9838
475.3032, 849.6796
475.7853, 847.7091
476.2674, 845.0915
476.7495, 843.9210
477.2316, 845.0756
477.7137, 846.8948
478.1959, 848.4081
478.6780, 849.6810
479.1601, 850.8431
479.6422, 851.8472
480.1243, 853.0497
480.6064, 854.9338
481.0886, 857.5897
481.5707, 860.4457
482.0528, 864.7499
482.5349, 868.1329
483.0170, 868.9879
483.4991, 867.5483
483.9813, 864.6202
484.4634, 860.5270
484.9455, 855.6734
485.4276, 851.2423
485.9097, 847.5848
486.3918, 843.8773
486.8740, 839.7207
487.3561, 835.7864
487.8382, 832.4281
488.3203, 829.7536
488.8024, 827.9018
489.2845, 827.1378
489.7667, 827.3168
490.2488, 826.9794
490.7309, 826.2277
491.2130, 824.7335
491.6951, 821.5893
492.1772, 818.1917
492.6594, 816.0413
493.1415, 815.5184
493.6236, 815.7568
494.1057, 816.1445
494.5878, 816.6331
495.0699, 816.6945
495.5521, 815.9401
496.0342, 815.4028
496.5163, 816.1479
496.9984, 817.6702
497.4805, 818.8549
497.9626, 819.1849
498.4448, 819.3827
498.9269, 820.2996
499.4090, 821.6313
499.8911, 822.2971
500.3732, 821.9247
500.8553, 820.7372
501.3375, 818.8406
501.8196, 815.9805
502.3017, 813.7670
502.7838, 812.4794
503.2659, 811.7147
503.7480, 811.4200
504.2302, 811.4298
504.7123, 811.3613
505.1944, 810.9894
505.6765, 810.4348
506.1586, 810.0664
506.6407, 810.2419
507.1228, 810.0149
507.6049, 809.3906
508.0871, 808.3805
508.5692, 806.6653
509.0513, 804.4879
509.5334, 802.6750
510.0155, 801.9603
510.4977, 802.0987
510.9798, 801.9050
511.4619, 801.2220
511.9440, 800.5594
512.4261, 800.2203
512.9083, 799.8931
513.3904, 799.0481
513.8725, 797.5986
514.3546, 796.7327
514.8367, 797.8193
515.3188, 800.1417
515.8010, 801.6409
516.2831, 802.0406
516.7652, 802.0963
517.2473, 802.3213
517.7294, 802.5836
518.2115, 802.4988
518.6937, 802.0812
519.1758, 801.2731
519.6579, 799.8616
520.1400, 798.0970
520.6221, 796.2946
521.1042, 794.5328
521.5864, 793.0119
522.0685, 792.0297
522.5506, 791.6878
523.0327, 790.7516
523.5148, 788.6390
523.9969, 786.6759
524.4791, 785.2660
524.9612, 784.2709
525.4433, 783.3943
525.9254, 782.5532
526.4075, 782.0429
526.8896, 782.4360
527.3718, 783.9424
527.8539, 785.2498
528.3360, 786.3051
528.8181, 787.1713
529.3002, 787.7467
529.7823, 788.1793
530.2645, 788.8098
530.7466, 789.9141
531.2287, 790.9049
531.7108, 791.0128
532.1929, 790.2704
532.6750, 789.1332
533.1572, 787.5814
533.6393, 785.8795
534.1214, 784.0808
534.6035, 782.2604
535.0856, 781.0643
535.5677, 781.3983
536.0499, 781.7366
536.5320, 780.6473
537.0141, 778.5742
537.4962, 776.9953
537.9783, 776.5817
538.4604, 776.6570
538.9426, 775.9949
539.4247, 774.0186
539.9068, 772.7942
540.3889, 772.6882
540.8710, 772.9229
541.3531, 773.1892
541.8353, 773.4529
542.3174, 773.7519
542.7995, 774.1074
543.2816, 774.4953
543.7637, 774.9135
544.2458, 775.4658
544.7280, 775.6946
545.2101, 775.6131
545.6922, 775.0901
546.1743, 773.6599
546.6564, 771.6459
547.1385, 770.1552
547.6207, 769.9914
548.1028, 770.4185
548.5849, 770.3177
549.0670, 769.7150
549.5491, 769.2621
550.0313, 769.3718
550.5134, 769.4910
550.9955, 768.5373
551.4776, 766.4481
551.9597, 764.9738
552.4418, 764.7620
552.9240, 765.0347
553.4061, 765.4616
553.8882, 765.8663
554.3703, 765.9322
554.8524, 765.5125
555.3345, 764.5422
555.8167, 762.7650
556.2988, 759.0647
556.7809, 756.7803
557.2630, 756.5546
557.7451, 756.9232
558.2272, 757.1476
558.7094, 757.2803
559.1915, 757.6951
559.6736, 758.6392
560.1557, 759.8814
560.6378, 761.1086
561.1199, 762.4315
561.6021, 762.9230
562.0842, 761.6205
562.5663, 760.2235
563.0484, 760.4348
563.5305, 761.9117
564.0126, 762.7789
564.4948, 761.7624
564.9769, 760.2648
565.4590, 759.9005
565.9411, 760.3990
566.4232, 760.3819
566.9053, 759.2371
567.3875, 757.6744
567.8696, 756.8173
568.3517, 757.0032
568.8338, 756.7869
569.3159, 756.1682
569.7980, 755.1581
570.2802, 753.3977
570.7623, 751.3027
571.2444, 749.5621
571.7265, 748.4989
572.2086, 748.0405
572.6907, 748.1642
573.1729, 749.0420
573.6550, 749.7951
574.1371, 750.1982
574.6192, 750.6610
575.1013, 751.3568
575.5834, 752.2468
576.0656, 753.2219
576.5477, 754.2040
577.0298, 755.3469
577.5119, 757.2423
577.9940, 759.5916
578.4761, 760.7185
578.9583, 760.0798
579.4404, 758.6814
579.9225, 757.1827
580.4046, 755.6616
580.8867, 755.0156
581.3688, 756.0963
581.8510, 757.1572
582.3331, 757.3856
582.8152, 757.1395
583.2973, 756.8984
583.7794, 756.8235
584.2615, 756.9504
584.7437, 757.3129
585.2258, 757.9075
585.7079, 758.8002
586.1900, 760.4910
586.6721, 761.8503
587.1542, 762.4008
587.6363, 762.5977
588.1184, 762.7179
588.6005, 762.8656
589.0826, 763.6629
589.5648, 765.8524
590.0469, 769.1646
590.5290, 772.8990
