##NAMES=Sillimanite
##RRUFFID=R100126
##IDEAL CHEMISTRY=Al_2_OSiO_4_
##LOCALITY=Orissa, India
##OWNER=RRUFF
##SOURCE=William W. Pinch
##DESCRIPTION=Pale purple cut gemstone
##STATUS=The identification of this mineral has been confirmed by single-crystal X-ray diffraction.
##URL=rruff.info/R100126
90.60547, 4610.255
91.08759, 4533.445
91.56970, 4530.021
92.05182, 4560.245
92.53394, 4654.906
93.01605, 4740.510
93.49817, 4796.622
93.98029, 4831.121
94.46240, 4848.263
94.94452, 4846.370
95.42664, 4829.365
95.90874, 4799.596
96.39086, 4759.703
96.87298, 4716.477
97.35509, 4674.133
97.83721, 4627.169
98.31933, 4578.961
98.80145, 4527.050
99.28356, 4476.029
99.76568, 4428.695
100.2478, 4385.693
100.7299, 4346.785
101.2120, 4312.395
101.6941, 4280.981
102.1763, 4255.638
102.6584, 4239.889
103.1405, 4229.018
103.6226, 4216.422
104.1047, 4197.878
104.5868, 4174.567
105.0690, 4154.997
105.5511, 4139.791
106.0332, 4126.159
106.5153, 4112.803
106.9974, 4099.643
107.4795, 4086.975
107.9617, 4075.126
108.4438, 4063.769
108.9259, 4052.181
109.4080, 4039.501
109.8901, 4026.632
110.3722, 4015.038
110.8544, 4005.313
111.3365, 3995.460
111.8186, 3982.825
112.3007, 3968.974
112.7828, 3957.233
113.2649, 3951.459
113.7471, 3950.923
114.2292, 3946.334
114.7113, 3933.902
115.1934, 3920.470
115.6755, 3908.385
116.1576, 3897.688
116.6397, 3887.476
117.1219, 3876.642
117.6040, 3864.571
118.0861, 3853.695
118.5682, 3843.469
119.0503, 3834.465
119.5324, 3827.457
120.0146, 3822.431
120.4967, 3818.327
120.9788, 3813.471
121.4609, 3807.601
121.9430, 3801.094
122.4251, 3793.707
122.9073, 3785.713
123.3894, 3777.348
123.8715, 3768.581
124.3536, 3759.766
124.8357, 3751.801
125.3178, 3743.981
125.8000, 3737.816
126.2821, 3734.907
126.7642, 3734.480
127.2463, 3733.628
127.7284, 3730.726
128.2105, 3726.842
128.6927, 3724.092
129.1748, 3723.185
129.6569, 3722.380
130.1390, 3719.874
130.6211, 3715.437
131.1032, 3710.750
131.5854, 3706.205
132.0675, 3701.913
132.5496, 3697.931
133.0317, 3694.099
133.5138, 3690.835
133.9959, 3689.103
134.4781, 3689.217
134.9602, 3690.618
135.4423, 3692.470
135.9244, 3695.391
136.4065, 3700.463
136.8886, 3708.678
137.3708, 3719.732
137.8529, 3728.738
138.3350, 3728.973
138.8171, 3733.788
139.2992, 3746.202
139.7813, 3765.838
140.2635, 3791.855
140.7456, 3824.396
141.2277, 3865.080
141.7098, 3897.620
142.1919, 3934.567
142.6740, 3955.563
143.1561, 3944.357
143.6383, 3902.024
144.1204, 3846.616
144.6025, 3793.616
145.0846, 3743.027
145.5667, 3702.391
146.0488, 3676.198
146.5310, 3658.393
147.0131, 3642.961
147.4952, 3628.869
147.9773, 3617.148
148.4594, 3609.806
148.9415, 3606.098
149.4237, 3603.650
149.9058, 3602.488
150.3879, 3602.019
150.8700, 3600.560
151.3521, 3597.494
151.8342, 3593.736
152.3164, 3589.995
152.7985, 3586.288
153.2806, 3582.659
153.7627, 3578.954
154.2448, 3575.142
154.7269, 3572.113
155.2091, 3570.670
155.6912, 3569.580
156.1733, 3568.321
156.6554, 3566.807
157.1375, 3565.156
157.6196, 3563.745
158.1018, 3563.173
158.5839, 3560.933
159.0660, 3555.179
159.5481, 3549.080
160.0302, 3544.409
160.5123, 3541.674
160.9945, 3540.441
161.4766, 3540.063
161.9587, 3541.595
162.4408, 3542.399
162.9229, 3542.135
163.4050, 3541.362
163.8871, 3540.888
164.3693, 3541.001
164.8514, 3540.900
165.3335, 3538.493
165.8156, 3530.922
166.2977, 3525.088
166.7798, 3522.240
167.2620, 3521.465
167.7441, 3521.816
168.2262, 3523.200
168.7083, 3524.754
169.1904, 3523.839
169.6725, 3519.526
170.1547, 3515.095
170.6368, 3511.305
171.1189, 3508.302
171.6010, 3506.896
172.0831, 3508.493
172.5652, 3511.071
173.0474, 3510.497
173.5295, 3505.395
174.0116, 3499.797
174.4937, 3496.879
174.9758, 3496.629
175.4579, 3496.688
175.9401, 3496.330
176.4222, 3495.634
176.9043, 3494.662
177.3864, 3493.390
177.8685, 3491.927
178.3506, 3490.183
178.8328, 3487.871
179.3149, 3486.360
179.7970, 3486.545
180.2791, 3487.503
180.7612, 3488.653
181.2433, 3489.868
181.7255, 3490.857
182.2076, 3490.948
182.6897, 3489.698
183.1718, 3488.245
183.6539, 3486.749
184.1360, 3485.223
184.6181, 3483.590
185.1003, 3481.777
185.5824, 3479.982
186.0645, 3479.040
186.5466, 3481.264
187.0287, 3481.371
187.5108, 3477.205
187.9930, 3470.993
188.4751, 3465.396
188.9572, 3461.915
189.4393, 3460.327
189.9214, 3459.493
190.4035, 3460.217
190.8857, 3460.843
191.3678, 3461.101
191.8499, 3461.071
192.3320, 3461.095
192.8141, 3461.508
193.2962, 3462.051
193.7784, 3460.476
194.2605, 3454.375
194.7426, 3449.219
195.2247, 3447.329
195.7068, 3447.965
196.1889, 3448.902
196.6711, 3448.836
197.1532, 3447.947
197.6353, 3447.358
198.1174, 3448.325
198.5995, 3448.409
199.0816, 3445.151
199.5638, 3439.138
200.0459, 3434.460
200.5280, 3433.977
201.0101, 3436.572
201.4922, 3438.368
201.9743, 3439.188
202.4565, 3439.253
202.9386, 3438.204
203.4207, 3435.993
203.9028, 3434.658
204.3849, 3435.777
204.8670, 3438.395
205.3492, 3441.270
205.8313, 3444.535
206.3134, 3447.550
206.7955, 3449.484
207.2776, 3450.240
207.7597, 3450.370
208.2419, 3449.501
208.7240, 3448.354
209.2061, 3447.801
209.6882, 3448.401
210.1703, 3449.105
210.6524, 3448.071
211.1346, 3444.936
211.6167, 3440.870
212.0988, 3435.276
212.5809, 3429.442
213.0630, 3424.475
213.5451, 3420.805
214.0273, 3418.363
214.5094, 3417.186
214.9915, 3418.086
215.4736, 3418.853
215.9557, 3419.520
216.4378, 3419.688
216.9200, 3418.879
217.4021, 3416.875
217.8842, 3413.996
218.3663, 3410.988
218.8484, 3406.392
219.3305, 3404.033
219.8127, 3405.844
220.2948, 3409.304
220.7769, 3411.927
221.2590, 3412.581
221.7411, 3411.657
222.2232, 3410.247
222.7054, 3406.285
223.1875, 3404.456
223.6696, 3406.218
224.1517, 3409.811
224.6338, 3413.338
225.1159, 3415.970
225.5980, 3417.930
226.0802, 3419.859
226.5623, 3419.866
227.0444, 3422.164
227.5265, 3427.345
228.0086, 3434.921
228.4907, 3443.791
228.9729, 3453.375
229.4550, 3464.879
229.9371, 3481.496
230.4192, 3501.295
230.9013, 3528.526
231.3834, 3560.766
231.8656, 3601.525
232.3477, 3656.355
232.8298, 3727.645
233.3119, 3812.787
233.7940, 3914.812
234.2761, 4056.470
234.7583, 4158.785
235.2404, 4206.735
235.7225, 4201.678
236.2046, 4134.827
236.6867, 3990.379
237.1688, 3813.985
237.6510, 3680.981
238.1331, 3590.081
238.6152, 3522.045
239.0973, 3477.647
239.5794, 3451.240
240.0615, 3432.168
240.5437, 3418.922
241.0258, 3409.482
241.5079, 3401.284
241.9900, 3394.161
242.4721, 3388.542
242.9542, 3385.396
243.4364, 3383.944
243.9185, 3382.116
244.4006, 3379.327
244.8827, 3376.481
245.3648, 3374.449
245.8469, 3373.157
246.3290, 3372.279
246.8112, 3372.058
247.2933, 3372.175
247.7754, 3371.562
248.2575, 3369.808
248.7396, 3367.739
249.2217, 3365.587
249.7039, 3363.539
250.1860, 3362.367
250.6681, 3363.487
251.1502, 3365.984
251.6323, 3366.295
252.1144, 3363.230
252.5966, 3359.573
253.0787, 3356.316
253.5608, 3353.738
254.0429, 3352.491
254.5250, 3353.191
255.0071, 3355.535
255.4893, 3358.648
255.9714, 3363.750
256.4535, 3367.547
256.9356, 3368.439
257.4177, 3367.327
257.8998, 3365.666
258.3820, 3364.297
258.8641, 3362.930
259.3462, 3360.382
259.8283, 3355.670
260.3104, 3351.381
260.7925, 3347.979
261.2747, 3345.486
261.7568, 3344.157
262.2389, 3344.365
262.7210, 3345.334
263.2031, 3344.572
263.6852, 3340.333
264.1674, 3337.379
264.6495, 3337.632
265.1316, 3339.210
265.6137, 3340.238
266.0958, 3339.930
266.5779, 3338.562
267.0601, 3336.573
267.5422, 3332.925
268.0243, 3330.662
268.5064, 3330.906
268.9885, 3332.126
269.4706, 3333.161
269.9528, 3333.576
270.4349, 3333.382
270.9170, 3332.457
271.3991, 3330.046
271.8812, 3328.429
272.3633, 3328.406
272.8455, 3328.687
273.3276, 3328.240
273.8097, 3326.837
274.2918, 3325.036
274.7739, 3323.530
275.2560, 3321.794
275.7382, 3321.615
276.2202, 3323.983
276.7024, 3326.799
277.1845, 3329.154
277.6666, 3330.705
278.1487, 3331.157
278.6308, 3329.966
279.1129, 3326.384
279.5951, 3323.719
280.0772, 3321.702
280.5593, 3320.590
281.0414, 3321.079
281.5235, 3322.797
282.0056, 3324.472
282.4878, 3324.871
282.9699, 3323.831
283.4520, 3322.666
283.9341, 3320.856
284.4162, 3319.457
284.8983, 3319.641
285.3805, 3320.728
285.8626, 3320.738
286.3447, 3317.859
286.8268, 3312.206
287.3089, 3309.560
287.7910, 3312.850
288.2732, 3315.771
288.7553, 3315.965
289.2374, 3314.513
289.7195, 3313.901
290.2016, 3315.780
290.6837, 3319.371
291.1659, 3320.290
291.6480, 3315.136
292.1301, 3311.259
292.6122, 3310.578
293.0943, 3311.687
293.5764, 3312.523
294.0586, 3312.129
294.5407, 3311.094
295.0228, 3311.032
295.5049, 3311.862
295.9870, 3313.893
296.4691, 3318.161
296.9513, 3323.213
297.4334, 3327.939
297.9155, 3331.900
298.3976, 3334.500
298.8797, 3334.465
299.3618, 3328.411
299.8440, 3326.316
300.3261, 3329.889
300.8082, 3336.241
301.2903, 3343.685
301.7724, 3351.653
302.2545, 3359.580
302.7367, 3366.633
303.2188, 3372.005
303.7009, 3379.926
304.1830, 3390.578
304.6651, 3403.326
305.1472, 3417.837
305.6294, 3434.067
306.1115, 3452.140
306.5936, 3472.207
307.0757, 3494.429
307.5578, 3517.711
308.0399, 3544.273
308.5221, 3569.563
309.0042, 3595.430
309.4863, 3618.830
309.9684, 3632.418
310.4505, 3631.391
310.9326, 3616.661
311.4148, 3593.631
311.8969, 3556.333
312.3790, 3518.961
312.8611, 3481.928
313.3432, 3447.599
313.8253, 3419.429
314.3075, 3399.240
314.7896, 3385.429
315.2717, 3374.106
315.7538, 3368.381
316.2359, 3360.637
316.7180, 3347.612
317.2001, 3333.455
317.6823, 3322.626
318.1644, 3316.379
318.6465, 3313.267
319.1286, 3311.169
319.6107, 3310.120
320.0928, 3310.353
320.5750, 3313.843
321.0571, 3317.189
321.5392, 3317.507
322.0213, 3314.625
322.5034, 3310.579
322.9855, 3307.431
323.4677, 3305.381
323.9498, 3302.278
324.4319, 3297.229
324.9140, 3292.090
325.3961, 3287.445
325.8782, 3283.461
326.3604, 3280.313
326.8425, 3278.190
327.3246, 3277.035
327.8067, 3276.067
328.2888, 3276.110
328.7709, 3275.458
329.2531, 3273.076
329.7352, 3269.857
330.2173, 3267.470
330.6994, 3266.780
331.1815, 3266.869
331.6636, 3265.193
332.1458, 3259.471
332.6279, 3254.781
333.1100, 3251.022
333.5921, 3248.508
334.0742, 3247.961
334.5563, 3249.466
335.0385, 3251.813
335.5206, 3253.285
336.0027, 3253.705
336.4848, 3253.504
336.9669, 3252.515
337.4490, 3251.090
337.9312, 3248.812
338.4133, 3246.054
338.8954, 3244.407
339.3775, 3245.710
339.8596, 3250.457
340.3417, 3251.811
340.8239, 3246.124
341.3060, 3241.289
341.7881, 3240.845
342.2702, 3243.356
342.7523, 3245.652
343.2344, 3245.780
343.7166, 3244.100
344.1987, 3242.362
344.6808, 3239.552
345.1629, 3237.904
345.6450, 3238.234
346.1271, 3239.599
346.6093, 3241.066
347.0914, 3242.267
347.5735, 3243.309
348.0556, 3244.450
348.5377, 3246.427
349.0198, 3247.114
349.5020, 3245.771
349.9841, 3243.921
350.4662, 3243.111
350.9483, 3243.200
351.4304, 3242.399
351.9125, 3238.529
352.3947, 3230.999
352.8768, 3224.422
353.3589, 3217.958
353.8410, 3213.262
354.3231, 3212.271
354.8052, 3213.507
355.2874, 3213.875
355.7695, 3211.112
356.2516, 3205.928
356.7337, 3202.356
357.2158, 3200.944
357.6979, 3200.591
358.1800, 3202.078
358.6621, 3204.019
359.1443, 3204.718
359.6264, 3203.539
360.1085, 3201.623
360.5906, 3200.984
361.0727, 3201.892
361.5548, 3203.468
362.0370, 3208.066
362.5191, 3211.449
363.0012, 3210.431
363.4833, 3205.042
363.9654, 3198.079
364.4475, 3191.792
364.9297, 3186.115
365.4118, 3182.157
365.8939, 3181.020
366.3760, 3180.510
366.8581, 3179.488
367.3402, 3178.403
367.8224, 3178.363
368.3045, 3180.383
368.7866, 3183.578
369.2687, 3185.548
369.7508, 3186.616
370.2329, 3185.583
370.7151, 3180.793
371.1972, 3174.514
371.6793, 3168.501
372.1614, 3163.189
372.6435, 3159.132
373.1256, 3157.476
373.6078, 3158.405
374.0899, 3159.248
374.5720, 3159.758
375.0541, 3159.703
375.5362, 3158.704
376.0183, 3156.856
376.5005, 3155.035
376.9826, 3153.829
377.4647, 3153.094
377.9468, 3152.250
378.4289, 3151.088
378.9110, 3150.163
379.3932, 3150.277
379.8753, 3150.836
380.3574, 3150.663
380.8395, 3149.009
381.3216, 3146.794
381.8037, 3145.131
382.2859, 3144.027
382.7680, 3143.047
383.2501, 3142.311
383.7322, 3141.375
384.2143, 3139.490
384.6964, 3136.377
385.1786, 3133.361
385.6607, 3130.927
386.1428, 3129.206
386.6249, 3128.765
387.1070, 3130.087
387.5891, 3131.791
388.0713, 3132.430
388.5534, 3132.109
389.0355, 3130.903
389.5176, 3127.558
389.9997, 3124.127
390.4818, 3123.303
390.9640, 3125.013
391.4461, 3125.989
391.9282, 3123.490
392.4103, 3118.447
392.8924, 3116.005
393.3745, 3118.992
393.8567, 3121.213
394.3388, 3119.550
394.8209, 3115.462
395.3030, 3111.732
395.7851, 3109.342
396.2672, 3107.740
396.7494, 3105.837
397.2315, 3102.843
397.7136, 3101.521
398.1957, 3103.516
398.6778, 3106.174
399.1599, 3107.401
399.6420, 3106.974
400.1241, 3105.714
400.6063, 3104.319
401.0884, 3102.795
401.5705, 3100.909
402.0526, 3098.365
402.5347, 3095.888
403.0168, 3092.662
403.4990, 3089.892
403.9811, 3089.994
404.4632, 3094.186
404.9453, 3100.472
405.4274, 3103.818
405.9095, 3101.302
406.3917, 3100.781
406.8738, 3104.504
407.3559, 3108.656
407.8380, 3110.838
408.3201, 3110.601
408.8022, 3108.589
409.2844, 3105.268
409.7665, 3100.585
410.2486, 3095.298
410.7307, 3087.804
411.2128, 3081.455
411.6949, 3077.809
412.1771, 3075.809
412.6592, 3073.620
413.1413, 3070.238
413.6234, 3066.509
414.1055, 3064.315
414.5876, 3063.980
415.0698, 3064.179
415.5519, 3065.772
416.0340, 3067.020
416.5161, 3066.117
416.9982, 3063.043
417.4803, 3060.367
417.9625, 3060.489
418.4446, 3063.054
418.9267, 3065.662
419.4088, 3068.292
419.8909, 3070.683
420.3730, 3073.706
420.8552, 3076.350
421.3373, 3076.153
421.8194, 3070.814
422.3015, 3063.816
422.7836, 3059.617
423.2657, 3058.183
423.7479, 3055.861
424.2300, 3049.846
424.7121, 3043.487
425.1942, 3042.703
425.6763, 3048.958
426.1584, 3053.185
426.6406, 3049.637
427.1227, 3042.077
427.6048, 3037.047
428.0869, 3035.731
428.5690, 3035.140
429.0511, 3032.005
429.5333, 3026.501
430.0154, 3024.610
430.4975, 3029.756
430.9796, 3035.310
431.4617, 3037.680
431.9438, 3037.463
432.4260, 3036.229
432.9081, 3034.534
433.3902, 3032.941
433.8723, 3032.900
434.3544, 3036.245
434.8365, 3038.045
435.3187, 3037.269
435.8008, 3035.449
436.2829, 3033.654
436.7650, 3032.100
437.2471, 3030.690
437.7292, 3029.446
438.2114, 3028.393
438.6935, 3026.254
439.1756, 3022.355
439.6577, 3018.113
440.1398, 3012.716
440.6219, 3007.557
441.1040, 3005.071
441.5862, 3006.279
442.0683, 3008.720
442.5504, 3007.585
443.0325, 3001.372
443.5146, 2996.239
443.9967, 2992.295
444.4789, 2989.948
444.9610, 2990.176
445.4431, 2992.447
445.9252, 2994.973
446.4073, 2996.483
446.8894, 2997.216
447.3716, 2997.984
447.8537, 2998.571
448.3358, 2999.703
448.8179, 3001.804
449.3000, 3004.550
449.7821, 3007.009
450.2643, 3008.363
450.7464, 3012.370
451.2285, 3023.161
451.7106, 3039.732
452.1927, 3056.817
452.6748, 3073.116
453.1570, 3092.419
453.6391, 3110.074
454.1212, 3132.359
454.6033, 3153.348
455.0854, 3175.611
455.5675, 3193.622
456.0497, 3203.859
456.5318, 3205.841
457.0139, 3197.019
457.4960, 3174.222
457.9781, 3141.979
458.4602, 3111.687
458.9424, 3081.490
459.4245, 3056.428
459.9066, 3039.575
460.3887, 3027.174
460.8708, 3015.962
461.3529, 3005.212
461.8351, 2994.970
462.3172, 2984.995
462.7993, 2975.261
463.2814, 2968.465
463.7635, 2967.459
464.2456, 2965.889
464.7278, 2961.164
465.2099, 2955.213
465.6920, 2950.938
466.1741, 2949.410
466.6562, 2949.203
467.1383, 2947.816
467.6205, 2944.562
468.1026, 2942.214
468.5847, 2942.049
469.0668, 2941.750
469.5489, 2939.912
470.0310, 2937.035
470.5132, 2934.626
470.9953, 2933.647
471.4774, 2933.734
471.9595, 2934.087
472.4416, 2934.861
472.9237, 2935.385
473.4059, 2935.427
473.8880, 2935.102
474.3701, 2934.764
474.8522, 2934.500
475.3343, 2933.091
475.8164, 2928.073
476.2986, 2921.486
476.7807, 2918.304
477.2628, 2919.209
477.7449, 2922.885
478.2270, 2929.334
478.7091, 2937.939
479.1913, 2945.814
479.6734, 2952.558
480.1555, 2958.798
480.6376, 2964.246
481.1197, 2969.473
481.6018, 2976.535
482.0839, 2986.319
482.5660, 2995.470
483.0482, 2999.518
483.5303, 2997.790
484.0124, 2991.935
484.4945, 2979.605
484.9766, 2965.656
485.4587, 2951.299
485.9409, 2937.418
486.4230, 2925.386
486.9051, 2915.950
487.3872, 2908.632
487.8693, 2902.262
488.3514, 2897.541
488.8336, 2892.375
489.3157, 2885.160
489.7978, 2878.672
490.2799, 2875.200
490.7620, 2874.487
491.2441, 2874.436
491.7263, 2873.377
492.2084, 2871.612
492.6905, 2870.773
493.1726, 2871.587
493.6547, 2871.616
494.1368, 2869.216
494.6190, 2865.847
495.1011, 2862.836
495.5832, 2860.403
496.0653, 2858.405
496.5474, 2856.804
497.0295, 2855.561
497.5117, 2854.935
497.9938, 2855.308
498.4759, 2854.705
498.9580, 2850.517
499.4401, 2843.648
499.9222, 2839.114
500.4044, 2838.396
500.8865, 2838.815
501.3686, 2839.443
501.8507, 2840.139
502.3328, 2840.801
502.8149, 2841.419
503.2971, 2841.523
503.7792, 2840.404
504.2613, 2837.711
504.7434, 2834.943
505.2255, 2831.895
505.7076, 2829.012
506.1898, 2825.666
506.6719, 2822.751
507.1540, 2822.645
507.6361, 2826.779
508.1182, 2832.431
508.6003, 2832.584
509.0825, 2823.956
509.5646, 2818.652
510.0467, 2821.899
510.5288, 2825.277
511.0109, 2823.757
511.4930, 2818.082
511.9752, 2812.193
512.4573, 2808.118
512.9394, 2805.731
513.4215, 2805.125
513.9036, 2806.613
514.3857, 2807.975
514.8679, 2809.210
515.3500, 2809.167
515.8321, 2805.833
516.3142, 2798.665
516.7963, 2792.862
517.2784, 2790.892
517.7606, 2791.468
518.2427, 2793.772
518.7248, 2797.505
519.2069, 2799.758
519.6890, 2798.253
520.1711, 2793.819
520.6533, 2790.632
521.1354, 2789.496
521.6175, 2788.294
522.0996, 2787.192
522.5817, 2785.578
523.0638, 2782.082
523.5460, 2776.949
524.0281, 2772.587
524.5102, 2771.486
524.9923, 2773.543
525.4744, 2775.147
525.9565, 2776.719
526.4387, 2777.169
526.9208, 2775.420
527.4029, 2772.956
527.8850, 2771.398
528.3671, 2771.131
528.8492, 2771.183
529.3314, 2770.742
529.8135, 2769.803
530.2956, 2768.157
530.7777, 2765.594
531.2598, 2762.765
531.7419, 2759.125
532.2241, 2755.705
532.7062, 2754.487
533.1883, 2756.711
533.6704, 2759.401
534.1525, 2761.524
534.6346, 2762.502
535.1168, 2760.042
535.5989, 2753.284
536.0810, 2746.754
536.5631, 2745.503
537.0452, 2749.836
537.5273, 2751.510
538.0095, 2748.320
538.4916, 2745.183
538.9737, 2743.960
539.4558, 2743.913
539.9379, 2744.063
540.4200, 2744.031
540.9022, 2743.559
541.3843, 2742.144
541.8664, 2739.504
542.3485, 2737.575
542.8306, 2737.004
543.3127, 2736.519
543.7948, 2736.058
544.2769, 2735.345
544.7590, 2733.803
545.2411, 2731.098
545.7233, 2728.371
546.2054, 2727.116
546.6875, 2727.246
547.1696, 2727.812
547.6517, 2729.204
548.1339, 2729.961
548.6160, 2728.008
549.0981, 2724.323
549.5802, 2721.665
550.0623, 2721.096
550.5444, 2721.091
551.0266, 2720.621
551.5087, 2719.973
551.9908, 2719.950
552.4729, 2720.823
552.9550, 2721.853
553.4371, 2722.168
553.9193, 2721.740
554.4014, 2720.729
554.8835, 2717.966
555.3656, 2716.021
555.8477, 2716.921
556.3298, 2718.876
556.8120, 2718.850
557.2941, 2715.821
557.7762, 2712.096
558.2583, 2711.273
558.7404, 2713.843
559.2225, 2715.265
559.7047, 2715.508
560.1868, 2714.332
560.6689, 2710.495
561.1510, 2705.599
561.6331, 2702.401
562.1152, 2702.000
562.5974, 2702.705
563.0795, 2703.807
563.5616, 2704.824
564.0437, 2703.482
564.5258, 2698.808
565.0079, 2694.152
565.4901, 2692.740
565.9722, 2694.490
566.4543, 2695.584
566.9364, 2694.956
567.4185, 2694.918
567.9006, 2697.789
568.3828, 2701.257
568.8649, 2701.683
569.3470, 2698.309
569.8291, 2693.597
570.3112, 2690.286
570.7933, 2688.405
571.2755, 2687.257
571.7576, 2686.803
572.2397, 2687.206
572.7218, 2689.014
573.2039, 2691.390
573.6860, 2693.729
574.1682, 2695.837
574.6503, 2696.888
575.1324, 2695.369
575.6145, 2691.973
576.0966, 2690.002
576.5787, 2689.979
577.0609, 2690.033
577.5430, 2688.508
578.0251, 2686.474
578.5072, 2686.502
578.9893, 2689.488
579.4714, 2692.630
579.9536, 2695.933
580.4357, 2698.258
580.9178, 2697.813
581.3999, 2694.644
581.8820, 2690.396
582.3641, 2686.030
582.8463, 2681.914
583.3284, 2680.104
583.8105, 2681.159
584.2926, 2683.957
584.7747, 2690.504
585.2568, 2697.115
585.7390, 2700.460
586.2211, 2700.885
586.7032, 2701.417
587.1853, 2703.989
587.6674, 2708.371
588.1495, 2714.334
588.6317, 2722.245
589.1138, 2729.448
589.5959, 2734.282
