##NAMES=Sillimanite
##RRUFFID=R060787
##IDEAL CHEMISTRY=Al_2_OSiO_4_
##LOCALITY=Moragahakanda, Sri Lanka
##OWNER=RRUFF
##SOURCE=Michael Scott
##DESCRIPTION=Mass of colorless parallel prismatic crystals
##STATUS=The identification of this mineral has been confirmed by X-ray diffraction and chemical analysis
##URL=rruff.info/R060787
##MEASURED CHEMISTRY=Al_2.01_Si_0.99_O_5_
179.3817, 46474.27
179.8638, 46464.98
180.3460, 46490.93
180.8281, 46548.24
181.3102, 46608.87
181.7923, 46648.49
182.2744, 46682.04
182.7565, 46757.59
183.2387, 46919.63
183.7208, 47082.99
184.2029, 47178.61
184.6850, 47214.09
185.1671, 47255.66
185.6492, 47348.50
186.1314, 47470.98
186.6135, 47555.20
187.0956, 47563.23
187.5777, 47572.10
188.0598, 47650.19
188.5419, 47790.01
189.0241, 47913.07
189.5062, 47972.07
189.9883, 47989.02
190.4704, 48028.40
190.9525, 48121.17
191.4346, 48198.98
191.9168, 48192.11
192.3989, 48111.01
192.8810, 48052.15
193.3631, 48059.64
193.8452, 48124.36
194.3273, 48216.41
194.8095, 48357.53
195.2916, 48491.34
195.7737, 48566.81
196.2558, 48590.95
196.7379, 48624.14
197.2200, 48697.62
197.7022, 48792.53
198.1843, 48872.59
198.6664, 48934.62
199.1485, 48987.97
199.6306, 49030.48
200.1127, 49065.36
200.5949, 49118.13
201.0770, 49213.11
201.5591, 49319.36
202.0412, 49386.19
202.5233, 49402.74
203.0054, 49408.86
203.4876, 49434.12
203.9697, 49473.16
204.4518, 49495.01
204.9339, 49482.00
205.4160, 49452.15
205.8981, 49431.70
206.3803, 49420.59
206.8624, 49416.26
207.3445, 49428.08
207.8266, 49448.66
208.3087, 49441.56
208.7908, 49380.06
209.2730, 49305.78
209.7551, 49276.88
210.2372, 49298.74
210.7193, 49318.52
211.2014, 49293.88
211.6835, 49241.96
212.1657, 49224.32
212.6478, 49269.71
213.1299, 49333.51
213.6120, 49359.35
214.0941, 49346.57
214.5762, 49342.68
215.0584, 49368.19
215.5405, 49419.54
216.0226, 49493.10
216.5047, 49600.57
216.9868, 49707.05
217.4689, 49777.16
217.9511, 49814.72
218.4332, 49836.64
218.9153, 49837.82
219.3974, 49830.30
219.8795, 49839.49
220.3616, 49872.89
220.8438, 49914.04
221.3259, 49943.21
221.8080, 49963.99
222.2901, 49997.27
222.7722, 50052.29
223.2543, 50122.85
223.7365, 50200.38
224.2186, 50283.94
224.7007, 50372.32
225.1828, 50462.93
225.6649, 50556.61
226.1470, 50656.46
226.6292, 50759.54
227.1113, 50870.64
227.5934, 50990.17
228.0755, 51116.42
228.5576, 51268.28
229.0397, 51461.39
229.5219, 51692.45
230.0040, 51949.92
230.4861, 52214.84
230.9682, 52517.34
231.4503, 52891.82
231.9324, 53338.26
232.4146, 53816.38
232.8967, 54266.76
233.3788, 54742.91
233.8609, 55391.01
234.3430, 56465.26
234.8251, 57492.41
235.3073, 58276.52
235.7894, 58784.68
236.2715, 58736.96
236.7536, 57832.48
237.2357, 56315.75
237.7178, 54984.96
238.2000, 53805.40
238.6821, 52836.19
239.1642, 52145.11
239.6463, 51698.57
240.1284, 51394.79
240.6105, 51218.25
241.0927, 51129.90
241.5748, 51039.43
242.0569, 50935.16
242.5390, 50854.14
243.0211, 50822.42
243.5033, 50822.64
243.9854, 50827.25
244.4675, 50832.85
244.9496, 50823.75
245.4317, 50761.65
245.9138, 50630.43
246.3960, 50515.00
246.8781, 50425.79
247.3602, 50364.44
247.8423, 50338.68
248.3244, 50351.68
248.8065, 50382.52
249.2887, 50399.40
249.7708, 50389.66
250.2529, 50422.59
250.7350, 50558.43
251.2171, 50706.03
251.6992, 50765.71
252.1814, 50728.44
252.6635, 50677.47
253.1456, 50696.17
253.6277, 50797.56
254.1098, 50897.65
254.5919, 51018.39
255.0741, 51119.87
255.5562, 51161.46
256.0383, 51152.23
256.5204, 51145.82
257.0025, 51189.27
257.4846, 51282.46
257.9668, 51322.04
258.4489, 51275.44
258.9310, 51220.02
259.4131, 51184.54
259.8952, 51164.93
260.3773, 51147.42
260.8595, 51124.02
261.3416, 51096.10
261.8237, 51070.65
262.3058, 51033.36
262.7879, 51015.90
263.2701, 51050.34
263.7522, 51101.36
264.2343, 51114.71
264.7164, 51065.73
265.1985, 50981.14
265.6806, 50928.87
266.1628, 50915.57
266.6449, 50931.24
267.1270, 51023.03
267.6091, 51117.45
268.0912, 51141.02
268.5733, 51076.16
269.0555, 50966.60
269.5376, 50877.11
270.0197, 50807.00
270.5018, 50762.93
270.9839, 50752.96
271.4660, 50757.02
271.9482, 50769.68
272.4303, 50786.27
272.9124, 50797.03
273.3945, 50789.21
273.8766, 50758.10
274.3587, 50737.15
274.8409, 50705.39
275.3230, 50703.51
275.8051, 50771.92
276.2872, 50885.14
276.7693, 50980.60
277.2514, 51003.80
277.7336, 50965.94
278.2157, 50971.20
278.6978, 51059.08
279.1799, 51138.40
279.6620, 51168.40
280.1441, 51176.30
280.6263, 51204.55
281.1084, 51278.31
281.5905, 51374.50
282.0726, 51441.96
282.5547, 51478.64
283.0368, 51488.05
283.5190, 51436.71
284.0011, 51377.73
284.4832, 51364.33
284.9653, 51414.53
285.4474, 51486.05
285.9295, 51535.05
286.4117, 51562.04
286.8938, 51560.91
287.3759, 51517.67
287.8580, 51453.92
288.3401, 51378.04
288.8222, 51291.84
289.3044, 51218.10
289.7865, 51178.93
290.2686, 51168.70
290.7507, 51158.99
291.2328, 51147.50
291.7149, 51135.18
292.1971, 51122.65
292.6792, 51110.39
293.1613, 51099.43
293.6434, 51100.02
294.1255, 51099.21
294.6076, 51065.58
295.0898, 50990.60
295.5719, 50926.58
296.0540, 50902.25
296.5361, 50919.50
297.0182, 50983.05
297.5003, 51123.68
297.9825, 51286.42
298.4646, 51435.82
298.9467, 51570.38
299.4288, 51680.31
299.9109, 51745.05
300.3930, 51791.18
300.8752, 51895.36
301.3573, 52067.02
301.8394, 52270.05
302.3215, 52497.51
302.8036, 52746.27
303.2857, 53022.96
303.7679, 53336.68
304.2500, 53644.60
304.7321, 53863.15
305.2142, 53918.55
305.6963, 54075.88
306.1784, 54437.39
306.6606, 54856.78
307.1427, 55206.62
307.6248, 55469.79
308.1069, 55705.49
308.5890, 55985.42
309.0711, 56335.39
309.5533, 56549.34
310.0354, 56664.32
310.5175, 56636.46
310.9996, 56412.75
311.4817, 56028.30
311.9638, 55547.99
312.4460, 55006.06
312.9281, 54418.35
313.4102, 53886.76
313.8923, 53386.80
314.3744, 52980.96
314.8565, 52719.98
315.3387, 52541.90
315.8208, 52379.33
316.3029, 52206.01
316.7850, 52038.84
317.2671, 51910.76
317.7492, 51833.88
318.2314, 51768.00
318.7135, 51725.71
319.1956, 51680.62
319.6777, 51605.19
320.1598, 51501.84
320.6419, 51408.87
321.1241, 51365.87
321.6062, 51372.77
322.0883, 51383.69
322.5704, 51400.43
323.0525, 51415.48
323.5346, 51400.14
324.0168, 51377.89
324.4989, 51409.19
324.9810, 51567.20
325.4631, 51776.92
325.9452, 51867.15
326.4273, 51806.63
326.9095, 51748.88
327.3916, 51788.00
327.8737, 51869.73
328.3558, 51919.16
328.8379, 51908.47
329.3200, 51895.20
329.8022, 51943.02
330.2843, 52037.16
330.7664, 52093.93
331.2485, 52085.62
331.7306, 52029.56
332.2127, 51938.93
332.6949, 51804.71
333.1770, 51700.20
333.6591, 51673.81
334.1412, 51679.36
334.6233, 51652.27
335.1054, 51582.36
335.5876, 51504.98
336.0697, 51456.57
336.5518, 51441.68
337.0339, 51402.16
337.5160, 51318.55
337.9981, 51230.25
338.4803, 51154.78
338.9624, 51092.77
339.4445, 51038.89
339.9266, 50988.25
340.4087, 50946.43
340.8908, 50938.34
341.3730, 50991.03
341.8551, 51045.75
342.3372, 51103.88
342.8193, 51157.95
343.3014, 51205.05
343.7835, 51242.38
344.2657, 51261.30
344.7478, 51238.03
345.2299, 51133.68
345.7120, 51097.28
346.1941, 51181.30
346.6762, 51281.97
347.1584, 51358.41
347.6405, 51407.09
348.1226, 51435.11
348.6047, 51437.34
349.0868, 51422.74
349.5689, 51453.75
350.0511, 51562.34
350.5332, 51661.56
351.0153, 51730.02
351.4974, 51768.43
351.9795, 51774.31
352.4616, 51742.98
352.9438, 51690.15
353.4259, 51627.77
353.9080, 51555.41
354.3901, 51498.21
354.8722, 51471.67
355.3543, 51456.50
355.8365, 51432.89
356.3186, 51401.08
356.8007, 51358.65
357.2828, 51292.19
357.7649, 51217.48
358.2470, 51168.72
358.7292, 51153.21
359.2113, 51140.16
359.6934, 51097.22
360.1755, 51027.93
360.6576, 50987.50
361.1397, 51010.20
361.6219, 51032.86
362.1040, 51018.50
362.5861, 50972.76
363.0682, 50910.36
363.5503, 50834.32
364.0324, 50757.78
364.5146, 50717.34
364.9967, 50758.77
365.4788, 50776.79
365.9609, 50753.19
366.4430, 50711.75
366.9251, 50664.42
367.4073, 50618.23
367.8894, 50587.35
368.3715, 50587.59
368.8536, 50619.71
369.3357, 50677.73
369.8178, 50779.51
370.3000, 50890.04
370.7821, 51022.43
371.2642, 51152.77
371.7463, 51234.85
372.2284, 51236.40
372.7105, 51185.20
373.1927, 51151.29
373.6748, 51135.76
374.1569, 51134.48
374.6390, 51158.58
375.1211, 51189.39
375.6032, 51215.57
376.0854, 51235.43
376.5675, 51242.39
377.0496, 51224.00
377.5317, 51186.14
378.0138, 51156.78
378.4959, 51143.84
378.9781, 51131.71
379.4602, 51106.67
379.9423, 51071.03
380.4244, 51029.23
380.9065, 50999.45
381.3886, 50951.78
381.8708, 50837.17
382.3529, 50669.74
382.8350, 50530.48
383.3171, 50461.90
383.7992, 50451.36
384.2813, 50463.39
384.7635, 50533.08
385.2456, 50568.35
385.7277, 50536.80
386.2098, 50472.35
386.6919, 50398.80
387.1740, 50326.43
387.6562, 50277.68
388.1383, 50281.91
388.6204, 50350.43
389.1025, 50408.96
389.5846, 50441.78
390.0667, 50481.39
390.5489, 50551.46
391.0310, 50635.07
391.5131, 50699.84
391.9952, 50727.63
392.4773, 50728.71
392.9594, 50728.25
393.4416, 50726.72
393.9237, 50721.34
394.4058, 50683.72
394.8879, 50660.24
395.3700, 50699.27
395.8521, 50803.00
396.3343, 50902.13
396.8164, 50937.13
397.2985, 50923.39
397.7806, 50919.67
398.2627, 50935.12
398.7448, 50947.48
399.2270, 50946.21
399.7091, 50928.78
400.1912, 50885.37
400.6733, 50789.37
401.1554, 50689.62
401.6375, 50617.21
402.1197, 50568.43
402.6018, 50526.69
403.0839, 50480.38
403.5660, 50454.63
404.0481, 50508.89
404.5302, 50731.26
405.0124, 50830.21
405.4945, 50675.32
405.9766, 50480.02
406.4587, 50411.95
406.9408, 50471.91
407.4229, 50562.81
407.9051, 50609.85
408.3872, 50615.23
408.8693, 50600.25
409.3514, 50544.66
409.8335, 50494.45
410.3156, 50458.26
410.7978, 50431.52
411.2799, 50409.63
411.7620, 50390.82
412.2441, 50373.48
412.7262, 50348.83
413.2083, 50314.90
413.6905, 50310.10
414.1726, 50354.56
414.6547, 50408.29
415.1368, 50440.80
415.6189, 50457.71
416.1010, 50479.22
416.5832, 50517.71
417.0653, 50561.89
417.5474, 50602.53
418.0295, 50638.66
418.5116, 50655.94
418.9937, 50640.68
419.4759, 50608.90
419.9580, 50601.08
420.4401, 50634.21
420.9222, 50647.44
421.4043, 50618.31
421.8864, 50567.72
422.3686, 50509.16
422.8507, 50448.62
423.3328, 50403.41
423.8149, 50394.05
424.2970, 50422.11
424.7791, 50415.46
425.2613, 50312.43
425.7434, 50245.09
426.2255, 50278.20
426.7076, 50351.25
427.1897, 50386.10
427.6718, 50353.38
428.1540, 50283.67
428.6361, 50210.31
429.1182, 50126.13
429.6003, 50091.51
430.0824, 50166.13
430.5645, 50236.30
431.0467, 50224.23
431.5288, 50148.93
432.0109, 50079.55
432.4930, 50038.89
432.9751, 50026.82
433.4572, 50054.43
433.9394, 50120.90
434.4215, 50182.44
434.9036, 50228.07
435.3857, 50249.52
435.8678, 50218.59
436.3499, 50103.04
436.8321, 50036.34
437.3142, 50103.00
437.7963, 50205.49
438.2784, 50235.23
438.7605, 50183.63
439.2426, 50113.08
439.7248, 50075.32
440.2069, 50069.26
440.6890, 50066.96
441.1711, 50093.15
441.6532, 50093.34
442.1353, 50031.25
442.6175, 49950.71
443.0996, 49898.68
443.5817, 49889.47
444.0638, 49905.35
444.5459, 49929.33
445.0280, 49961.83
445.5102, 49985.33
445.9923, 49983.66
446.4744, 49992.88
446.9565, 50036.01
447.4386, 50103.86
447.9207, 50177.31
448.4029, 50260.80
448.8850, 50335.17
449.3671, 50361.85
449.8492, 50353.56
450.3313, 50390.33
450.8134, 50513.13
451.2956, 50665.47
451.7777, 50745.40
452.2598, 50721.19
452.7419, 50773.50
453.2240, 50988.20
453.7061, 51231.09
454.1883, 51403.79
454.6704, 51514.19
455.1525, 51625.94
455.6346, 51784.27
456.1167, 51960.22
456.5988, 52050.53
457.0810, 52068.00
457.5631, 51964.77
458.0452, 51664.13
458.5273, 51310.40
459.0095, 50985.64
459.4916, 50708.46
459.9737, 50481.53
460.4558, 50322.91
460.9379, 50217.21
461.4200, 50094.64
461.9022, 49944.51
462.3843, 49811.72
462.8664, 49716.72
463.3485, 49657.10
463.8306, 49632.86
464.3127, 49662.09
464.7949, 49684.39
465.2770, 49656.65
465.7591, 49606.33
466.2412, 49581.25
466.7233, 49590.47
467.2054, 49610.49
467.6876, 49622.66
468.1697, 49627.83
468.6518, 49606.78
469.1339, 49521.48
469.6160, 49457.39
470.0981, 49443.20
470.5803, 49461.38
471.0624, 49499.88
471.5445, 49552.05
472.0266, 49588.49
472.5087, 49559.81
472.9908, 49457.13
473.4730, 49370.67
473.9551, 49307.62
474.4372, 49256.94
474.9193, 49205.62
475.4014, 49161.71
475.8835, 49144.95
476.3657, 49175.59
476.8478, 49214.93
477.3299, 49208.32
477.8120, 49172.29
478.2941, 49190.94
478.7762, 49301.60
479.2584, 49434.27
479.7405, 49497.17
480.2226, 49470.64
480.7047, 49477.85
481.1868, 49542.56
481.6689, 49621.50
482.1511, 49706.81
482.6332, 49787.30
483.1153, 49849.36
483.5974, 49887.59
484.0795, 49891.71
484.5616, 49832.80
485.0438, 49684.26
485.5259, 49548.58
486.0080, 49404.99
486.4901, 49300.26
486.9722, 49285.11
487.4543, 49332.07
487.9365, 49358.54
488.4186, 49313.71
488.9007, 49232.93
489.3828, 49163.82
489.8649, 49106.07
490.3470, 49058.37
490.8292, 49022.52
491.3113, 48993.09
491.7934, 48963.68
492.2755, 48935.61
492.7576, 48899.27
493.2397, 48840.38
493.7219, 48783.55
494.2040, 48763.66
494.6861, 48764.19
495.1682, 48721.15
495.6503, 48591.80
496.1324, 48430.01
496.6146, 48391.62
497.0967, 48569.01
497.5788, 48672.22
498.0609, 48621.48
498.5430, 48545.36
499.0251, 48522.79
499.5073, 48545.25
499.9894, 48554.67
500.4715, 48510.45
500.9536, 48437.12
501.4357, 48372.30
501.9178, 48315.60
502.4000, 48286.30
502.8821, 48303.91
503.3642, 48338.65
503.8463, 48343.50
504.3284, 48317.81
504.8105, 48281.26
505.2927, 48221.17
505.7748, 48164.88
506.2569, 48129.99
506.7390, 48118.54
507.2211, 48135.59
507.7032, 48187.37
508.1854, 48253.62
508.6675, 48273.54
509.1496, 48210.65
509.6317, 48179.67
510.1138, 48214.69
510.5959, 48259.65
511.0781, 48282.89
511.5602, 48287.00
512.0423, 48292.18
512.5244, 48316.69
513.0065, 48342.47
513.4886, 48333.84
513.9708, 48291.21
514.4529, 48258.47
514.9350, 48262.21
515.4171, 48265.85
515.8992, 48192.48
516.3813, 48020.61
516.8635, 47930.82
517.3456, 48044.82
517.8277, 48161.42
518.3098, 48104.49
518.7919, 47934.98
519.2740, 47836.43
519.7562, 47905.74
520.2383, 48061.98
520.7204, 48128.76
521.2025, 48065.22
521.6846, 48030.04
522.1667, 48072.18
522.6489, 48108.79
523.1310, 48099.57
523.6131, 48052.83
524.0952, 47992.87
524.5773, 47914.73
525.0594, 47849.18
525.5416, 47845.71
526.0237, 47893.04
526.5058, 47930.14
526.9879, 47942.29
527.4700, 47929.88
527.9521, 47888.25
528.4343, 47810.98
528.9164, 47748.64
529.3985, 47712.50
529.8806, 47680.27
530.3627, 47635.28
530.8448, 47589.73
531.3270, 47574.86
531.8091, 47600.56
532.2912, 47621.40
532.7733, 47545.95
533.2554, 47353.98
533.7375, 47278.35
534.2197, 47413.81
534.7018, 47536.70
535.1839, 47496.72
535.6660, 47375.03
536.1481, 47315.30
536.6302, 47370.30
537.1124, 47443.48
537.5945, 47459.00
538.0766, 47445.25
538.5587, 47468.55
539.0408, 47540.21
539.5229, 47608.21
540.0051, 47625.42
540.4872, 47593.45
540.9693, 47552.19
541.4514, 47480.46
541.9335, 47425.22
542.4156, 47406.56
542.8978, 47400.09
543.3799, 47382.88
543.8620, 47351.55
544.3441, 47317.79
544.8262, 47288.62
545.3083, 47265.82
545.7905, 47261.58
546.2726, 47283.08
546.7547, 47288.72
547.2368, 47253.63
547.7189, 47196.64
548.2010, 47148.93
548.6832, 47110.04
549.1653, 47081.36
549.6474, 47064.20
550.1295, 47056.48
550.6116, 47057.98
551.0938, 47067.27
551.5759, 47084.70
552.0580, 47112.48
552.5401, 47138.11
553.0222, 47123.44
553.5043, 47039.79
553.9865, 46990.82
554.4686, 47017.11
554.9507, 47052.38
555.4328, 47073.50
555.9149, 47077.53
556.3970, 47058.98
556.8792, 46995.07
557.3613, 46936.72
557.8434, 46957.09
558.3255, 47033.50
558.8076, 47074.10
559.2897, 47051.96
559.7719, 47006.25
560.2540, 46976.89
560.7361, 46964.64
561.2182, 46958.77
561.7003, 46969.31
562.1824, 46972.79
562.6646, 46949.48
563.1467, 46921.24
563.6288, 46932.32
564.1109, 46985.46
564.5930, 47008.50
565.0751, 46888.72
565.5573, 46658.39
566.0394, 46545.70
566.5215, 46583.34
567.0036, 46617.38
567.4857, 46571.53
567.9678, 46477.45
568.4500, 46392.79
568.9321, 46311.81
569.4142, 46260.66
569.8963, 46252.36
570.3784, 46273.47
570.8605, 46334.16
571.3427, 46416.76
571.8248, 46466.36
572.3069, 46450.29
572.7890, 46392.87
573.2711, 46357.01
573.7532, 46359.11
574.2354, 46329.12
574.7175, 46203.06
575.1996, 46103.28
575.6817, 46122.16
576.1638, 46219.21
576.6459, 46284.66
577.1281, 46271.00
577.6102, 46231.55
578.0923, 46181.37
578.5744, 46142.22
579.0565, 46188.93
579.5386, 46338.71
580.0208, 46490.87
580.5029, 46544.73
580.9850, 46503.04
581.4671, 46486.48
581.9492, 46542.99
582.4313, 46564.70
582.9135, 46489.24
583.3956, 46403.55
583.8777, 46389.45
584.3598, 46453.64
584.8419, 46543.02
585.3240, 46634.35
585.8062, 46717.33
586.2883, 46756.11
586.7704, 46751.00
587.2525, 46768.79
587.7346, 46839.41
588.2167, 46938.45
588.6989, 47033.40
589.1810, 47129.18
589.6631, 47198.17
590.1452, 47197.52
590.6273, 47214.02
591.1094, 47312.83
591.5916, 47452.37
592.0737, 47561.72
592.5558, 47615.66
593.0379, 47641.46
593.5200, 47685.57
594.0021, 47743.00
594.4843, 47722.82
594.9664, 47595.09
595.4485, 47467.03
595.9306, 47418.17
596.4127, 47401.41
596.8948, 47307.77
597.3770, 47093.80
597.8591, 46912.58
598.3412, 46825.99
598.8233, 46779.35
599.3054, 46746.02
599.7875, 46708.45
600.2697, 46622.69
600.7518, 46457.07
601.2339, 46263.14
601.7160, 46168.64
602.1981, 46202.14
602.6802, 46195.55
603.1624, 46101.96
603.6445, 46002.77
604.1266, 45949.96
604.6087, 45931.10
605.0908, 45914.77
605.5729, 45892.61
606.0551, 45874.54
606.5372, 45882.83
607.0193, 45891.83
607.5014, 45853.95
607.9835, 45766.73
608.4656, 45673.09
608.9478, 45609.02
609.4299, 45567.15
609.9120, 45504.44
610.3941, 45384.98
610.8762, 45320.20
611.3583, 45391.28
611.8405, 45470.13
612.3226, 45468.79
612.8047, 45399.11
613.2868, 45333.41
613.7689, 45307.54
614.2510, 45291.18
614.7332, 45244.40
615.2153, 45186.49
615.6974, 45176.03
616.1795, 45228.48
616.6616, 45286.43
617.1437, 45290.27
617.6259, 45241.25
618.1080, 45194.65
618.5901, 45157.63
619.0722, 45112.96
619.5543, 45035.53
620.0364, 44965.32
620.5186, 44940.91
621.0007, 44962.32
621.4828, 44993.51
621.9649, 45020.86
622.4470, 45041.96
622.9291, 45052.50
623.4113, 45053.43
623.8934, 45050.73
624.3755, 45046.58
624.8576, 45035.81
625.3397, 45009.64
625.8218, 44964.49
626.3040, 44935.32
626.7861, 44939.00
627.2682, 44939.52
627.7503, 44948.08
628.2324, 44939.67
628.7145, 44872.03
629.1967, 44744.65
629.6788, 44635.03
630.1609, 44604.78
630.6430, 44622.13
631.1251, 44633.20
631.6072, 44640.07
632.0894, 44678.77
632.5715, 44773.98
633.0536, 44861.80
633.5357, 44839.10
634.0178, 44670.67
634.4999, 44560.27
634.9821, 44531.05
635.4642, 44529.53
635.9463, 44572.66
636.4284, 44618.80
636.9105, 44603.77
637.3926, 44517.10
637.8748, 44448.63
638.3569, 44499.86
638.8390, 44602.33
639.3211, 44618.71
639.8032, 44550.71
640.2853, 44475.00
640.7675, 44422.55
641.2496, 44380.72
641.7317, 44325.96
642.2138, 44243.66
642.6959, 44204.92
643.1780, 44232.03
643.6602, 44274.21
644.1423, 44351.39
644.6244, 44418.12
645.1065, 44405.12
645.5886, 44298.26
646.0707, 44184.32
646.5529, 44139.22
647.0350, 44131.06
647.5171, 44100.31
647.9992, 44047.10
648.4813, 43989.40
648.9634, 43930.16
649.4456, 43889.39
649.9277, 43906.14
650.4098, 44003.89
650.8919, 44067.20
651.3740, 44102.41
651.8561, 44096.64
652.3383, 44002.90
652.8204, 43885.61
653.3025, 43826.73
653.7846, 43844.93
654.2667, 43881.21
654.7488, 43904.98
655.2310, 43913.78
655.7131, 43886.46
656.1952, 43831.93
656.6773, 43823.54
657.1594, 43899.73
657.6415, 43994.88
658.1237, 44000.35
658.6058, 43890.95
659.0879, 43815.32
659.5700, 43784.28
660.0521, 43776.73
660.5342, 43821.83
661.0164, 43869.32
661.4985, 43852.69
661.9806, 43761.27
662.4627, 43669.36
662.9448, 43637.01
663.4269, 43618.98
663.9091, 43532.50
664.3912, 43403.09
664.8733, 43350.11
665.3554, 43421.93
665.8375, 43536.68
666.3196, 43584.03
666.8018, 43559.45
667.2839, 43512.33
667.7660, 43409.90
668.2481, 43335.63
668.7302, 43321.42
669.2123, 43339.54
669.6945, 43379.20
670.1766, 43436.98
670.6587, 43454.38
671.1408, 43359.23
671.6229, 43252.61
672.1050, 43229.44
672.5872, 43267.84
673.0693, 43315.69
673.5514, 43355.03
674.0335, 43383.54
674.5156, 43398.41
674.9977, 43399.56
675.4799, 43385.86
675.9620, 43353.18
676.4441, 43314.84
