##NAMES=Sillimanite
##RRUFFID=R100126
##IDEAL CHEMISTRY=Al_2_OSiO_4_
##LOCALITY=Orissa, India
##OWNER=RRUFF
##SOURCE=William W. Pinch
##DESCRIPTION=Pale purple cut gemstone
##STATUS=The identification of this mineral has been confirmed by single-crystal X-ray diffraction.
##URL=rruff.info/R100126
91.03516, 13.19531
91.51727, 13.17356
91.99939, 13.24790
92.48151, 13.36234
92.96362, 13.35740
93.44574, 12.95827
93.92786, 12.40128
94.40997, 12.28244
94.89210, 12.75028
95.37421, 13.33190
95.85633, 13.19658
96.33845, 12.38000
96.82056, 11.62740
97.30268, 11.55853
97.78480, 12.08925
98.26691, 12.33401
98.74903, 12.11776
99.23115, 11.59854
99.71326, 11.20836
100.1954, 10.96268
100.6775, 10.80059
101.1596, 10.68506
101.6417, 10.62211
102.1239, 10.57855
102.6060, 10.54105
103.0881, 10.51237
103.5702, 10.55224
104.0523, 10.69349
104.5344, 10.86362
105.0166, 10.97494
105.4987, 10.94649
105.9808, 11.00938
106.4629, 11.28895
106.9450, 11.91420
107.4271, 12.16706
107.9093, 11.81194
108.3914, 11.16969
108.8735, 10.71317
109.3556, 10.56559
109.8377, 10.49592
110.3198, 10.43696
110.8020, 10.35606
111.2841, 10.34941
111.7662, 10.58273
112.2483, 10.89514
112.7304, 10.93472
113.2125, 10.35482
113.6947, 9.706045
114.1768, 9.246109
114.6589, 9.020769
115.1410, 8.960308
115.6231, 9.101175
116.1052, 9.409393
116.5874, 9.761351
117.0695, 10.37780
117.5516, 10.88960
118.0337, 11.00757
118.5158, 10.10131
118.9980, 9.278482
119.4801, 9.162669
119.9622, 9.694539
120.4443, 10.16355
120.9264, 10.19890
121.4085, 9.938381
121.8907, 9.549836
122.3728, 8.856669
122.8549, 8.214844
123.3370, 7.943395
123.8191, 8.058771
124.3012, 8.338383
124.7834, 8.801098
125.2655, 9.306276
125.7476, 9.553086
126.2297, 9.054400
126.7118, 8.316022
127.1939, 8.137944
127.6761, 8.639279
128.1582, 9.349398
128.6403, 9.757304
129.1224, 9.906748
129.6045, 10.00886
130.0867, 10.19152
130.5688, 10.42385
131.0509, 10.59352
131.5330, 10.68292
132.0151, 10.72800
132.4972, 10.76340
132.9794, 10.78901
133.4615, 10.86697
133.9436, 11.09975
134.4257, 11.46963
134.9078, 11.66550
135.3899, 11.54492
135.8721, 11.30303
136.3542, 11.53305
136.8363, 12.29974
137.3184, 13.25491
137.8005, 14.18126
138.2826, 15.10985
138.7648, 15.80408
139.2469, 16.08556
139.7290, 16.06495
140.2111, 16.56560
140.6932, 17.69589
141.1753, 19.15369
141.6575, 20.68265
142.1396, 22.35776
142.6217, 23.97819
143.1038, 25.72470
143.5859, 27.67779
144.0681, 28.29206
144.5502, 27.15763
145.0323, 25.05798
145.5144, 22.78352
145.9965, 20.01559
146.4786, 17.58532
146.9608, 15.72802
147.4429, 14.45070
147.9250, 13.60118
148.4071, 13.25769
148.8892, 13.31129
149.3713, 13.61560
149.8535, 14.60339
150.3356, 15.41830
150.8177, 15.79118
151.2998, 15.44857
151.7819, 15.25292
152.2640, 15.16846
152.7462, 15.23358
153.2283, 15.52070
153.7104, 16.29733
154.1925, 17.08261
154.6746, 17.72683
155.1567, 18.28702
155.6389, 18.56813
156.1210, 18.33593
156.6031, 17.79313
157.0852, 17.43752
157.5673, 17.54098
158.0495, 17.73454
158.5316, 17.83500
159.0137, 17.73954
159.4958, 17.64985
159.9779, 17.55567
160.4600, 17.49325
160.9422, 17.58099
161.4243, 18.20620
161.9064, 18.79556
162.3885, 18.93777
162.8706, 18.04511
163.3527, 17.26450
163.8349, 17.20714
164.3170, 17.72735
164.7991, 18.12873
165.2812, 17.95687
165.7633, 17.57351
166.2454, 17.30167
166.7276, 17.18761
167.2097, 17.26059
167.6918, 17.67097
168.1739, 18.36630
168.6560, 18.94178
169.1381, 18.92683
169.6203, 18.71639
170.1024, 18.66544
170.5845, 19.51775
171.0666, 20.37690
171.5487, 20.29816
172.0309, 19.35696
172.5130, 18.46973
172.9951, 18.35161
173.4772, 18.68547
173.9593, 18.98042
174.4414, 18.90521
174.9236, 18.77082
175.4057, 19.08072
175.8878, 19.84656
176.3699, 20.36341
176.8520, 19.73199
177.3341, 18.40966
177.8163, 17.38793
178.2984, 17.28126
178.7805, 17.65704
179.2626, 17.93343
179.7447, 18.09909
180.2268, 18.14782
180.7090, 17.97153
181.1911, 17.64818
181.6732, 17.42188
182.1553, 17.45138
182.6374, 17.64760
183.1195, 17.83280
183.6017, 18.00561
184.0838, 18.16320
184.5659, 18.36550
185.0480, 18.58054
185.5301, 18.65007
186.0123, 18.33588
186.4944, 17.80037
186.9765, 17.60073
187.4586, 17.79724
187.9407, 18.16096
188.4228, 18.38105
188.9050, 18.47018
189.3871, 18.57179
189.8692, 18.76454
190.3513, 19.03198
190.8334, 19.31892
191.3155, 19.64184
191.7977, 19.93067
192.2798, 20.03770
192.7619, 19.96386
193.2440, 19.89922
193.7261, 19.97420
194.2082, 20.17120
194.6904, 20.28099
195.1725, 20.28391
195.6546, 20.21617
196.1367, 20.10373
196.6188, 19.93548
197.1009, 19.85238
197.5831, 19.97964
198.0652, 20.31694
198.5473, 20.55759
199.0294, 20.66897
199.5115, 20.69891
199.9937, 20.73662
200.4758, 20.78131
200.9579, 20.83331
201.4400, 20.85120
201.9221, 20.81930
202.4042, 20.98234
202.8864, 21.40042
203.3685, 21.97244
203.8506, 22.42589
204.3327, 22.69877
204.8148, 23.08331
205.2969, 23.76512
205.7791, 24.78088
206.2612, 25.80037
206.7433, 26.74581
207.2254, 27.72697
207.7075, 29.07074
208.1896, 30.88160
208.6718, 32.76089
209.1539, 34.65449
209.6360, 36.69035
210.1181, 38.06620
210.6002, 38.85250
211.0823, 38.90287
211.5645, 37.57534
212.0466, 34.34975
212.5287, 30.96378
213.0108, 28.20138
213.4929, 25.93105
213.9750, 24.71144
214.4572, 24.64755
214.9393, 25.61705
215.4214, 27.29446
215.9035, 29.71073
216.3856, 32.79528
216.8678, 36.54184
217.3499, 41.20491
217.8320, 45.90516
218.3141, 50.80548
218.7962, 55.62960
219.2783, 59.43008
219.7605, 62.00084
220.2426, 63.86310
220.7247, 65.02988
221.2068, 64.87097
221.6889, 65.83702
222.1710, 68.28786
222.6532, 71.86761
223.1353, 75.35046
223.6174, 78.54008
224.0995, 82.02572
224.5816, 86.10799
225.0637, 90.96374
225.5459, 96.06563
226.0280, 101.3163
226.5101, 106.8371
226.9922, 112.6816
227.4743, 118.3652
227.9564, 125.1987
228.4386, 133.9718
228.9207, 144.8488
229.4028, 156.6737
229.8849, 168.4744
230.3670, 181.4337
230.8492, 199.2442
231.3313, 221.8411
231.8134, 249.0584
232.2955, 281.3253
232.7776, 318.4479
233.2597, 360.0131
233.7419, 407.0031
234.2240, 458.2778
234.7061, 512.9274
235.1882, 587.3240
235.6703, 640.3551
236.1524, 654.8997
236.6346, 624.8964
237.1167, 566.8873
237.5988, 465.1183
238.0809, 341.0609
238.5630, 242.6758
239.0451, 175.8878
239.5273, 127.0207
240.0094, 92.04180
240.4915, 74.88182
240.9736, 61.46161
241.4557, 52.55709
241.9378, 46.93957
242.4200, 42.16713
242.9021, 38.24968
243.3842, 35.08568
243.8663, 32.70942
244.3484, 31.35000
244.8306, 30.09565
245.3127, 28.96870
245.7948, 27.94547
246.2769, 26.95781
246.7590, 25.86283
247.2411, 25.06759
247.7233, 24.81143
248.2054, 25.34112
248.6875, 25.46334
249.1696, 24.97668
249.6517, 24.21862
250.1338, 23.74225
250.6160, 23.66462
251.0981, 23.65706
251.5802, 23.60894
252.0623, 23.48960
252.5444, 23.46833
253.0265, 23.47375
253.5087, 23.63605
253.9908, 24.18696
254.4729, 25.35530
254.9550, 26.45210
255.4371, 27.25410
255.9192, 27.70385
256.4014, 28.32859
256.8835, 29.41110
257.3656, 30.38752
257.8477, 30.57822
258.3298, 29.79856
258.8120, 28.61611
259.2941, 26.97839
259.7762, 24.81568
260.2583, 23.35003
260.7404, 22.83169
261.2225, 22.68180
261.7047, 22.22485
262.1868, 21.24810
262.6689, 20.52916
263.1510, 20.31148
263.6331, 20.57829
264.1152, 20.63244
264.5974, 20.38740
265.0795, 20.06208
265.5616, 19.89443
266.0437, 19.95943
266.5258, 19.91305
267.0079, 19.62589
267.4901, 19.14630
267.9722, 18.95504
268.4543, 19.14547
268.9364, 19.43447
269.4185, 19.59595
269.9006, 19.60650
270.3828, 19.59452
270.8649, 19.58503
271.3470, 19.56712
271.8291, 19.45265
272.3112, 19.17338
272.7933, 18.97248
273.2755, 19.08652
273.7576, 19.57992
274.2397, 19.93009
274.7218, 20.04522
275.2039, 19.99300
275.6860, 19.95083
276.1682, 19.89819
276.6503, 19.93137
277.1324, 20.15702
277.6145, 20.59424
278.0966, 20.94052
278.5787, 21.15879
279.0609, 21.29117
279.5430, 21.41401
280.0251, 21.52013
280.5072, 21.66202
280.9893, 21.82908
281.4715, 22.02061
281.9536, 22.44849
282.4357, 23.18583
282.9178, 24.03745
283.3999, 24.61686
283.8820, 24.90383
284.3642, 25.27875
284.8463, 25.90132
285.3284, 26.76913
285.8105, 27.80417
286.2926, 29.00646
286.7747, 30.38565
287.2569, 31.92688
287.7390, 33.63313
288.2211, 35.59744
288.7032, 37.81262
289.1853, 40.30921
289.6674, 43.23304
290.1496, 46.59138
290.6317, 50.39534
291.1138, 54.50593
291.5959, 59.01363
292.0780, 64.40424
292.5602, 71.25173
293.0423, 78.97697
293.5244, 86.12967
294.0065, 92.66109
294.4886, 98.99045
294.9707, 105.5470
295.4529, 112.2954
295.9350, 118.8904
296.4171, 125.0222
296.8992, 131.2673
297.3813, 138.5015
297.8634, 146.6720
298.3456, 155.6602
298.8277, 165.2000
299.3098, 175.4142
299.7919, 186.4837
300.2740, 198.2080
300.7561, 211.1033
301.2383, 225.1928
301.7204, 240.7245
302.2025, 257.9346
302.6846, 277.3525
303.1667, 298.5380
303.6488, 321.0556
304.1310, 344.3507
304.6131, 369.8464
305.0952, 398.7691
305.5773, 430.7884
306.0594, 464.8629
306.5415, 500.5338
307.0237, 540.0744
307.5058, 579.5927
307.9879, 625.4475
308.4700, 670.8862
308.9521, 718.9498
309.4343, 763.5720
309.9164, 795.3662
310.3985, 816.5018
310.8806, 819.2642
311.3627, 795.0193
311.8448, 743.0862
312.3270, 678.2803
312.8091, 598.1819
313.2912, 513.7223
313.7733, 437.8136
314.2554, 374.8752
314.7375, 321.7598
315.2197, 278.4169
315.7018, 244.0143
316.1839, 215.2695
316.6660, 192.0931
317.1481, 173.0560
317.6302, 157.3067
318.1124, 145.6016
318.5945, 135.7337
319.0766, 127.2334
319.5587, 120.0091
320.0408, 113.5945
320.5229, 108.2703
321.0051, 103.4151
321.4872, 98.63638
321.9693, 93.69467
322.4514, 89.26879
322.9335, 85.73644
323.4156, 82.79618
323.8978, 79.86712
324.3799, 76.82330
324.8620, 73.79750
325.3441, 70.76353
325.8262, 67.62223
326.3083, 64.87890
326.7905, 62.90114
327.2726, 61.22721
327.7547, 59.31565
328.2368, 56.60330
328.7189, 54.20269
329.2010, 52.40175
329.6832, 51.27464
330.1653, 50.07975
330.6474, 48.59483
331.1295, 47.20377
331.6116, 46.25294
332.0938, 46.34294
332.5759, 45.89188
333.0580, 44.45997
333.5401, 42.21571
334.0222, 40.53202
334.5043, 39.59016
334.9865, 38.93687
335.4686, 38.31532
335.9507, 37.73425
336.4328, 37.15815
336.9149, 36.58728
337.3970, 36.01037
337.8792, 35.41437
338.3613, 34.77831
338.8434, 34.15826
339.3255, 33.53185
339.8076, 32.86529
340.2898, 32.49008
340.7719, 32.50352
341.2540, 32.63614
341.7361, 32.42345
342.2182, 31.82019
342.7003, 31.34484
343.1825, 31.24500
343.6646, 31.44871
344.1467, 31.41047
344.6288, 31.06596
345.1109, 30.80194
345.5930, 31.13545
346.0752, 31.99454
346.5573, 32.65660
347.0394, 32.81908
347.5215, 32.79349
348.0036, 33.44110
348.4857, 34.73990
348.9679, 35.90145
349.4500, 36.26288
349.9321, 36.02653
350.4142, 35.78160
350.8963, 35.62943
351.3784, 35.47043
351.8606, 35.32437
352.3427, 35.11049
352.8248, 34.51662
353.3069, 33.04628
353.7890, 31.22100
354.2711, 29.72583
354.7533, 28.63554
355.2354, 27.71360
355.7175, 26.78506
356.1996, 25.89592
356.6817, 25.12638
357.1638, 24.41582
357.6460, 23.90699
358.1281, 23.72537
358.6102, 23.86057
359.0923, 24.17527
359.5744, 24.67676
360.0565, 25.28189
360.5387, 25.91700
361.0208, 26.64300
361.5029, 27.29603
361.9850, 27.75994
362.4671, 28.08290
362.9492, 28.40571
363.4314, 29.14416
363.9135, 29.62963
364.3956, 29.44799
364.8777, 28.31709
365.3598, 27.05444
365.8419, 25.57889
366.3241, 24.13063
366.8062, 23.08166
367.2883, 22.59779
367.7704, 22.40714
368.2526, 22.58832
368.7347, 23.27542
369.2168, 23.52900
369.6989, 22.99383
370.1810, 22.23552
370.6631, 21.71207
371.1453, 21.56901
371.6274, 21.43749
372.1095, 21.19295
372.5916, 20.89485
373.0737, 20.97178
373.5558, 21.64225
374.0380, 22.36373
374.5201, 22.85244
375.0022, 23.06686
375.4843, 23.15264
375.9664, 23.05173
376.4485, 22.87904
376.9307, 22.86649
377.4128, 23.03810
377.8949, 23.27075
378.3770, 23.54902
378.8591, 23.86495
379.3412, 24.04662
379.8234, 24.05832
380.3055, 24.05599
380.7876, 24.25769
381.2697, 24.64953
381.7518, 24.92174
382.2339, 24.86746
382.7161, 24.73779
383.1982, 25.25282
383.6803, 26.38629
384.1624, 27.50314
384.6445, 28.01291
385.1266, 28.14122
385.6088, 28.43114
386.0909, 28.95580
386.5730, 29.67769
387.0551, 30.54300
387.5372, 31.55872
388.0193, 32.76702
388.5015, 34.47062
388.9836, 36.21674
389.4657, 37.49270
389.9478, 38.26300
390.4299, 38.84603
390.9120, 39.75787
391.3942, 40.51844
391.8763, 40.51603
392.3584, 39.05833
392.8405, 37.25004
393.3226, 35.45549
393.8047, 33.72161
394.2869, 32.26328
394.7690, 31.25644
395.2511, 30.48811
395.7332, 29.82230
396.2154, 29.19080
396.6975, 28.76119
397.1796, 28.59221
397.6617, 28.64078
398.1438, 28.82991
398.6259, 29.00468
399.1081, 29.45782
399.5902, 30.37848
400.0723, 31.86344
400.5544, 33.12311
401.0365, 33.80154
401.5186, 34.52366
402.0008, 35.78681
402.4829, 37.73135
402.9650, 39.95936
403.4471, 42.41967
403.9292, 45.14186
404.4113, 48.14683
404.8935, 51.37482
405.3756, 55.05283
405.8577, 59.46069
406.3398, 64.69164
406.8219, 69.77684
407.3040, 74.92023
407.7862, 79.52648
408.2683, 83.15248
408.7504, 85.83543
409.2325, 86.42866
409.7146, 84.17165
410.1967, 79.62700
410.6789, 74.06499
411.1610, 67.44045
411.6431, 60.94568
412.1252, 55.40556
412.6073, 50.82964
413.0894, 47.39425
413.5716, 45.36255
414.0537, 44.13296
414.5358, 43.02223
415.0179, 42.13343
415.5000, 41.76780
415.9821, 42.32970
416.4643, 43.37309
416.9464, 44.48634
417.4285, 45.63449
417.9106, 46.82796
418.3927, 48.08369
418.8748, 49.38725
419.3570, 50.69859
419.8391, 52.05967
420.3212, 53.38623
420.8033, 54.95963
421.2854, 56.58652
421.7675, 57.40799
422.2497, 57.00020
422.7318, 55.84420
423.2139, 54.14717
423.6960, 51.79475
424.1781, 49.22313
424.6602, 46.25130
425.1424, 43.15346
425.6245, 40.35622
426.1066, 37.90899
426.5887, 35.73844
427.0709, 33.77752
427.5530, 32.02594
428.0351, 30.93927
428.5172, 30.83163
428.9993, 30.94263
429.4814, 30.68773
429.9636, 29.91329
430.4457, 29.36180
430.9278, 29.09990
431.4099, 29.08663
431.8920, 29.28451
432.3741, 29.72179
432.8563, 30.16309
433.3384, 30.45077
433.8205, 30.63141
434.3026, 31.04794
434.7847, 31.72564
435.2668, 32.44936
435.7490, 33.06187
436.2311, 33.55265
436.7132, 33.87447
437.1953, 34.05405
437.6774, 34.00465
438.1595, 33.52150
438.6417, 32.67643
439.1238, 31.76623
439.6059, 31.00390
440.0880, 30.25050
440.5701, 29.28869
441.0522, 28.04249
441.5344, 26.94064
442.0165, 26.38181
442.4986, 26.07871
442.9807, 25.68293
443.4628, 24.73580
443.9449, 24.01072
444.4271, 23.98517
444.9092, 24.52420
445.3913, 24.84747
445.8734, 24.50152
446.3555, 24.08676
446.8376, 23.88361
447.3198, 23.89737
447.8019, 24.16547
448.2840, 24.85591
448.7661, 25.72291
449.2482, 26.39374
449.7303, 26.55645
450.2125, 27.05142
450.6946, 28.14106
451.1767, 29.78656
451.6588, 31.26810
452.1409, 32.44298
452.6230, 33.81041
453.1052, 35.81523
453.5873, 38.53713
454.0694, 41.06519
454.5515, 43.30668
455.0337, 45.36658
455.5158, 47.58584
455.9979, 49.92481
456.4800, 51.51997
456.9621, 52.14545
457.4442, 51.74557
457.9264, 49.95655
458.4085, 46.82368
458.8906, 43.21616
459.3727, 39.42849
459.8548, 35.75325
460.3369, 32.76063
460.8191, 30.62523
461.3012, 28.98334
461.7833, 27.64377
462.2654, 26.57084
462.7475, 25.69400
463.2296, 25.04035
463.7118, 24.51488
464.1939, 24.03956
464.6760, 23.60372
465.1581, 23.35623
465.6402, 23.36655
466.1223, 23.56863
466.6045, 23.91841
467.0866, 24.68601
467.5687, 25.25541
468.0508, 25.43002
468.5329, 25.40324
469.0150, 25.60379
469.4972, 26.06821
469.9793, 26.70703
470.4614, 27.57885
470.9435, 28.71183
471.4256, 29.47955
471.9077, 29.77836
472.3899, 29.91995
472.8720, 30.14440
473.3541, 30.45353
473.8362, 30.85281
474.3183, 31.31141
474.8004, 31.91366
475.2826, 32.84974
475.7647, 34.10811
476.2468, 35.52752
476.7289, 36.96696
477.2110, 38.52749
477.6931, 40.46090
478.1753, 42.77420
478.6574, 45.20031
479.1395, 47.32288
479.6216, 49.47152
480.1037, 52.17373
480.5858, 55.76914
481.0680, 59.58764
481.5501, 63.62733
482.0322, 67.54934
482.5143, 70.60268
482.9964, 72.96654
483.4786, 73.99160
483.9607, 73.28315
484.4428, 70.78198
484.9249, 67.14951
485.4070, 61.75037
485.8892, 55.77198
486.3713, 50.01654
486.8534, 44.12346
487.3355, 39.08217
487.8176, 34.91558
488.2997, 31.62512
488.7819, 29.21587
489.2640, 27.96338
489.7461, 26.95446
490.2282, 25.87246
490.7103, 24.73334
491.1924, 24.03826
491.6746, 23.86522
492.1567, 23.79443
492.6388, 23.40722
493.1209, 22.75162
493.6030, 22.33113
494.0851, 22.26155
494.5673, 22.29287
495.0494, 22.02982
495.5315, 21.54892
496.0136, 21.13636
496.4957, 20.98486
496.9778, 20.93376
497.4600, 20.79237
497.9421, 20.57014
498.4242, 20.36565
498.9063, 20.38432
499.3884, 20.36271
499.8705, 19.98945
500.3527, 18.94170
500.8348, 18.20579
501.3169, 18.44274
501.7990, 19.12730
502.2811, 19.52173
502.7632, 19.18566
503.2454, 18.87774
503.7275, 18.82313
504.2096, 18.98636
504.6917, 18.93822
505.1738, 18.47238
505.6559, 18.07634
506.1381, 18.07306
506.6202, 18.63837
507.1023, 18.86693
507.5844, 18.69627
508.0665, 18.30344
508.5486, 17.85079
509.0308, 17.33168
509.5129, 17.00588
509.9950, 17.00922
510.4771, 17.17348
510.9592, 17.12908
511.4413, 16.89236
511.9235, 16.62492
512.4056, 16.35177
512.8877, 16.14132
513.3698, 16.15413
513.8519, 16.41952
514.3340, 16.62932
514.8162, 16.49322
515.2983, 16.19604
515.7804, 15.95669
516.2625, 15.83151
516.7446, 15.78696
517.2267, 15.82225
517.7089, 15.92913
518.1910, 16.08782
518.6731, 16.40136
519.1552, 16.66655
519.6373, 16.83940
520.1194, 16.93523
520.6016, 16.80904
521.0837, 16.31083
521.5658, 15.75987
522.0479, 15.34307
522.5300, 15.01027
523.0121, 15.07123
523.4943, 15.71991
523.9764, 16.53805
524.4585, 16.69677
524.9406, 16.17854
525.4227, 15.70123
525.9048, 15.51522
526.3870, 15.55090
526.8691, 15.66600
527.3513, 15.85689
527.8334, 16.05823
528.3155, 16.23814
528.7976, 16.39588
529.2797, 16.53382
529.7618, 16.65498
530.2440, 16.74524
530.7261, 16.65799
531.2082, 16.57608
531.6903, 16.73460
532.1724, 17.76077
532.6545, 18.45735
533.1367, 18.17084
533.6188, 17.19798
534.1009, 16.59374
534.5830, 16.89788
535.0651, 17.22876
535.5472, 17.27393
536.0294, 16.97582
536.5115, 16.81599
536.9936, 16.84794
537.4757, 16.94347
537.9578, 17.03274
538.4399, 17.14303
538.9221, 17.05123
539.4042, 16.67665
539.8863, 16.18962
540.3684, 15.89434
540.8505, 15.77746
541.3326, 15.67502
541.8148, 15.44841
542.2969, 15.23821
542.7790, 15.37943
543.2611, 15.82605
543.7432, 16.21452
544.2253, 16.23004
544.7075, 16.09899
545.1896, 16.06096
545.6717, 16.16598
546.1538, 16.26483
546.6359, 16.22693
547.1180, 16.16889
547.6002, 16.21531
548.0823, 16.71702
548.5644, 16.95465
549.0465, 16.55289
549.5286, 15.78261
550.0107, 15.44823
550.4929, 15.86959
550.9750, 16.24626
551.4571, 16.31010
551.9392, 16.05886
552.4213, 15.83783
552.9034, 15.64903
553.3856, 15.47969
553.8677, 15.29692
554.3498, 15.10923
554.8319, 15.03901
555.3140, 15.11870
555.7961, 15.24212
556.2783, 15.25634
556.7604, 15.20007
557.2425, 15.18584
557.7246, 15.30215
558.2067, 15.42961
558.6888, 15.40240
559.1710, 15.27640
559.6531, 15.24223
560.1352, 15.54023
560.6173, 15.84170
561.0994, 15.92530
561.5815, 15.74606
562.0637, 15.59848
562.5458, 15.54688
563.0279, 15.54334
563.5100, 15.54057
563.9921, 15.40362
564.4742, 15.53325
564.9564, 16.09889
565.4385, 16.80756
565.9206, 17.13018
566.4027, 16.98950
566.8848, 16.82980
567.3669, 16.75833
567.8491, 16.76731
568.3312, 16.85309
568.8133, 17.01279
569.2954, 17.18570
569.7775, 17.30231
570.2596, 17.41330
570.7418, 17.60267
571.2239, 17.87707
571.7060, 18.22695
572.1881, 18.70385
572.6702, 19.22501
573.1523, 19.68970
573.6345, 19.97252
574.1166, 20.37081
574.5987, 21.09895
575.0808, 21.98785
575.5629, 22.77043
576.0450, 23.16269
576.5272, 23.69676
577.0093, 24.43865
577.4914, 25.38618
577.9735, 26.58628
578.4556, 28.10387
578.9377, 29.72076
579.4199, 31.36561
579.9020, 33.01846
580.3841, 34.68956
580.8662, 36.36672
581.3483, 38.09944
581.8304, 39.89238
582.3126, 41.76072
582.7947, 43.73174
583.2768, 45.77536
583.7589, 48.03230
584.2410, 50.69550
584.7231, 53.67870
585.2053, 56.81097
585.6874, 60.07429
586.1696, 63.41602
586.6517, 66.56532
587.1338, 69.68989
587.6159, 73.52876
588.0980, 78.67992
588.5801, 84.21827
589.0623, 89.75353
589.5444, 95.21736
590.0265, 101.0328
