##NAMES=Sillimanite
##RRUFFID=R050601
##IDEAL CHEMISTRY=Al_2_OSiO_4_
##LOCALITY=Mogok, Burma
##OWNER=RRUFF
##SOURCE=Bill Larson
##DESCRIPTION=Tan colored cleavage fragment from a water worn pebble
##STATUS=The identification of this mineral has been confirmed by X-ray diffraction and chemical analysis
##URL=rruff.info/R050601
##MEASURED CHEMISTRY=(Al_1.99_Fe^3+^_0.01_)_Î£=2_Si_1.00_O_5_
92.06543, 9862.892
92.54755, 9649.395
93.02966, 9644.951
93.51178, 9904.658
93.99390, 10143.06
94.47601, 10350.29
94.95813, 10526.48
95.44025, 10671.30
95.92236, 10783.64
96.40448, 10858.42
96.88660, 10916.85
97.36871, 10967.58
97.85082, 11009.35
98.33294, 11040.22
98.81506, 11054.18
99.29717, 11039.06
99.77929, 11029.65
100.2614, 11028.82
100.7435, 11032.42
101.2256, 11038.19
101.7078, 11044.88
102.1899, 11051.02
102.6720, 11052.77
103.1541, 11057.71
103.6362, 11071.65
104.1183, 11093.84
104.6005, 11118.14
105.0826, 11139.84
105.5647, 11158.54
106.0468, 11174.99
106.5289, 11179.49
107.0110, 11183.70
107.4931, 11196.23
107.9753, 11219.27
108.4574, 11246.49
108.9395, 11264.75
109.4216, 11262.84
109.9037, 11268.58
110.3858, 11290.81
110.8680, 11318.84
111.3501, 11340.19
111.8322, 11347.70
112.3143, 11344.49
112.7964, 11351.54
113.2785, 11380.18
113.7607, 11405.99
114.2428, 11419.99
114.7249, 11425.44
115.2070, 11432.55
115.6891, 11449.92
116.1712, 11476.87
116.6534, 11493.83
117.1355, 11497.69
117.6176, 11494.50
118.0997, 11485.63
118.5818, 11470.67
119.0639, 11458.36
119.5461, 11459.77
120.0282, 11471.01
120.5103, 11481.46
120.9924, 11487.71
121.4745, 11490.96
121.9566, 11493.44
122.4388, 11493.06
122.9209, 11495.65
123.4030, 11508.15
123.8851, 11527.48
124.3672, 11543.02
124.8493, 11543.38
125.3315, 11527.03
125.8136, 11517.01
126.2957, 11521.12
126.7778, 11527.41
127.2599, 11532.25
127.7420, 11534.67
128.2242, 11534.87
128.7063, 11532.59
129.1884, 11525.26
129.6705, 11520.72
130.1526, 11521.98
130.6347, 11523.75
131.1169, 11520.90
131.5990, 11512.03
132.0811, 11500.92
132.5632, 11495.99
133.0453, 11505.22
133.5274, 11511.22
134.0096, 11512.03
134.4917, 11509.43
134.9738, 11505.73
135.4559, 11501.99
135.9380, 11498.12
136.4201, 11493.38
136.9023, 11482.96
137.3844, 11477.97
137.8665, 11487.38
138.3486, 11508.17
138.8307, 11526.08
139.3128, 11530.96
139.7950, 11528.47
140.2771, 11532.17
140.7592, 11545.59
141.2413, 11562.56
141.7234, 11578.33
142.2055, 11593.42
142.6877, 11604.04
143.1698, 11608.98
143.6519, 11608.00
144.1340, 11598.71
144.6161, 11576.88
145.0982, 11547.94
145.5803, 11525.98
146.0625, 11513.21
146.5446, 11504.72
147.0267, 11497.96
147.5088, 11493.48
147.9909, 11492.49
148.4730, 11496.48
148.9552, 11505.13
149.4373, 11511.46
149.9194, 11511.96
150.4015, 11513.28
150.8836, 11519.72
151.3657, 11528.75
151.8479, 11533.76
152.3300, 11527.47
152.8121, 11505.77
153.2942, 11498.71
153.7763, 11517.62
154.2584, 11537.85
154.7406, 11548.28
155.2227, 11547.61
155.7048, 11539.80
156.1869, 11527.93
156.6690, 11509.36
157.1511, 11497.97
157.6333, 11500.98
158.1154, 11506.96
158.5975, 11503.97
159.0796, 11489.24
159.5617, 11472.77
160.0438, 11470.61
160.5260, 11483.95
161.0081, 11489.91
161.4902, 11475.54
161.9723, 11451.60
162.4544, 11439.03
162.9365, 11446.13
163.4187, 11458.90
163.9008, 11460.56
164.3829, 11451.75
164.8650, 11442.66
165.3471, 11439.73
165.8292, 11441.97
166.3113, 11442.55
166.7935, 11438.71
167.2756, 11434.03
167.7577, 11431.62
168.2398, 11431.52
168.7219, 11431.21
169.2040, 11426.53
169.6862, 11415.91
170.1683, 11411.33
170.6504, 11424.36
171.1325, 11437.47
171.6146, 11439.58
172.0967, 11428.97
172.5789, 11413.90
173.0610, 11406.58
173.5431, 11411.28
174.0252, 11414.25
174.5073, 11417.83
174.9894, 11417.86
175.4716, 11409.06
175.9537, 11390.46
176.4358, 11367.93
176.9179, 11353.78
177.4000, 11358.59
177.8821, 11357.74
178.3643, 11345.21
178.8464, 11329.43
179.3285, 11319.24
179.8106, 11318.26
180.2927, 11323.46
180.7748, 11326.58
181.2570, 11327.80
181.7391, 11326.90
182.2212, 11321.72
182.7033, 11314.75
183.1854, 11310.54
183.6675, 11311.79
184.1497, 11315.63
184.6318, 11312.22
185.1139, 11296.38
185.5960, 11282.87
186.0781, 11278.00
186.5602, 11279.63
187.0423, 11281.87
187.5245, 11282.27
188.0066, 11281.15
188.4887, 11279.66
188.9708, 11277.74
189.4529, 11275.43
189.9350, 11272.78
190.4172, 11269.75
190.8993, 11265.89
191.3814, 11259.77
191.8635, 11253.37
192.3456, 11249.48
192.8277, 11248.99
193.3099, 11249.86
193.7920, 11251.90
194.2741, 11255.96
194.7562, 11254.64
195.2383, 11236.65
195.7204, 11215.30
196.2026, 11202.62
196.6847, 11203.01
197.1668, 11209.10
197.6489, 11210.52
198.1310, 11207.15
198.6131, 11199.25
199.0953, 11181.62
199.5774, 11162.45
200.0595, 11149.93
200.5416, 11147.50
201.0237, 11150.54
201.5058, 11148.27
201.9880, 11135.58
202.4701, 11126.81
202.9522, 11126.25
203.4343, 11129.44
203.9164, 11132.80
204.3985, 11134.78
204.8807, 11134.70
205.3628, 11130.03
205.8449, 11112.44
206.3270, 11101.30
206.8091, 11102.85
207.2912, 11110.23
207.7733, 11115.60
208.2555, 11115.03
208.7376, 11110.31
209.2197, 11108.09
209.7018, 11111.57
210.1839, 11114.10
210.6660, 11116.98
211.1482, 11118.13
211.6303, 11114.56
212.1124, 11104.64
212.5945, 11089.46
213.0766, 11072.85
213.5587, 11044.49
214.0409, 11026.61
214.5230, 11030.57
215.0051, 11047.40
215.4872, 11060.99
215.9693, 11062.76
216.4514, 11056.31
216.9336, 11055.62
217.4157, 11067.31
217.8978, 11074.94
218.3799, 11070.92
218.8620, 11058.55
219.3441, 11045.31
219.8263, 11033.56
220.3084, 11024.75
220.7905, 11022.26
221.2726, 11028.15
221.7547, 11035.76
222.2368, 11042.78
222.7190, 11049.11
223.2011, 11054.09
223.6832, 11056.93
224.1653, 11058.69
224.6474, 11061.67
225.1295, 11066.47
225.6117, 11071.04
226.0938, 11070.82
226.5759, 11067.13
227.0580, 11071.99
227.5401, 11095.00
228.0222, 11125.31
228.5043, 11147.70
228.9865, 11159.09
229.4686, 11171.68
229.9507, 11192.44
230.4328, 11221.33
230.9149, 11263.38
231.3970, 11317.24
231.8792, 11389.07
232.3613, 11483.46
232.8434, 11601.14
233.3255, 11738.91
233.8076, 11918.91
234.2897, 12150.94
234.7719, 12311.74
235.2540, 12378.04
235.7361, 12351.93
236.2182, 12197.49
236.7003, 11914.98
237.1824, 11604.15
237.6646, 11365.69
238.1467, 11205.12
238.6288, 11079.89
239.1109, 11003.16
239.5930, 10947.96
240.0751, 10904.46
240.5573, 10870.22
241.0394, 10844.16
241.5215, 10827.63
242.0036, 10824.11
242.4857, 10815.35
242.9678, 10792.78
243.4500, 10770.72
243.9321, 10757.23
244.4142, 10752.50
244.8963, 10750.55
245.3784, 10744.35
245.8605, 10732.15
246.3427, 10722.35
246.8248, 10716.07
247.3069, 10711.23
247.7890, 10707.61
248.2711, 10704.80
248.7532, 10702.18
249.2354, 10699.83
249.7175, 10699.67
250.1996, 10691.20
250.6817, 10664.75
251.1638, 10639.68
251.6459, 10625.35
252.1281, 10621.40
252.6102, 10621.90
253.0923, 10621.14
253.5744, 10618.49
254.0565, 10618.28
254.5386, 10624.17
255.0208, 10628.59
255.5029, 10627.11
255.9850, 10620.63
256.4671, 10613.54
256.9492, 10609.92
257.4313, 10610.45
257.9135, 10605.89
258.3956, 10591.45
258.8777, 10577.72
259.3598, 10570.17
259.8419, 10567.47
260.3240, 10564.81
260.8062, 10558.78
261.2883, 10549.37
261.7704, 10537.57
262.2525, 10520.23
262.7346, 10504.20
263.2167, 10492.89
263.6989, 10485.29
264.1810, 10478.32
264.6631, 10469.70
265.1452, 10460.03
265.6273, 10454.61
266.1094, 10457.93
266.5916, 10459.88
267.0737, 10455.45
267.5558, 10446.83
268.0379, 10439.22
268.5200, 10435.59
269.0021, 10435.00
269.4843, 10433.49
269.9664, 10430.64
270.4485, 10427.56
270.9306, 10425.40
271.4127, 10423.21
271.8948, 10418.76
272.3770, 10410.66
272.8591, 10400.30
273.3412, 10391.06
273.8233, 10383.17
274.3054, 10375.44
274.7875, 10365.95
275.2697, 10356.52
275.7518, 10351.91
276.2339, 10355.06
276.7160, 10360.33
277.1981, 10355.54
277.6802, 10338.92
278.1623, 10324.33
278.6444, 10316.86
279.1266, 10313.67
279.6087, 10310.20
280.0908, 10305.30
280.5729, 10299.98
281.0550, 10295.83
281.5371, 10292.90
282.0193, 10289.39
282.5014, 10285.48
282.9835, 10280.53
283.4656, 10272.70
283.9477, 10261.15
284.4298, 10249.78
284.9120, 10242.52
285.3941, 10238.96
285.8762, 10238.44
286.3583, 10244.17
286.8404, 10251.28
287.3225, 10253.48
287.8047, 10249.88
288.2868, 10244.30
288.7689, 10238.73
289.2510, 10233.51
289.7331, 10229.79
290.2152, 10226.40
290.6974, 10225.45
291.1795, 10231.29
291.6616, 10244.25
292.1437, 10255.06
292.6258, 10258.30
293.1079, 10254.89
293.5901, 10247.22
294.0722, 10229.37
294.5543, 10214.15
295.0364, 10215.44
295.5185, 10232.27
296.0006, 10246.67
296.4828, 10246.13
296.9649, 10240.95
297.4470, 10250.10
297.9291, 10279.92
298.4112, 10310.46
298.8933, 10326.55
299.3755, 10330.25
299.8576, 10334.06
300.3397, 10339.47
300.8218, 10349.97
301.3039, 10369.16
301.7860, 10397.36
302.2682, 10430.36
302.7503, 10467.34
303.2324, 10507.65
303.7145, 10548.61
304.1966, 10587.77
304.6787, 10631.37
305.1609, 10684.21
305.6430, 10745.90
306.1251, 10817.73
306.6072, 10899.47
307.0893, 10991.91
307.5714, 11101.76
308.0536, 11237.03
308.5357, 11368.88
309.0178, 11490.52
309.4999, 11593.50
309.9820, 11639.88
310.4641, 11607.71
310.9463, 11515.71
311.4284, 11379.85
311.9105, 11194.36
312.3926, 11001.33
312.8747, 10813.95
313.3568, 10641.18
313.8390, 10503.82
314.3211, 10417.04
314.8032, 10355.63
315.2853, 10294.64
315.7674, 10234.10
316.2495, 10180.98
316.7317, 10138.14
317.2138, 10105.50
317.6959, 10083.52
318.1780, 10076.13
318.6601, 10069.26
319.1422, 10051.41
319.6243, 10024.00
320.1064, 9997.033
320.5886, 9972.356
321.0707, 9950.943
321.5528, 9933.518
322.0349, 9920.088
322.5170, 9908.412
322.9991, 9897.017
323.4813, 9886.457
323.9634, 9879.502
324.4455, 9879.348
324.9276, 9877.126
325.4097, 9860.239
325.8918, 9831.947
326.3740, 9809.023
326.8561, 9801.261
327.3382, 9801.170
327.8203, 9796.848
328.3024, 9787.024
328.7845, 9775.286
329.2667, 9761.705
329.7488, 9748.279
330.2309, 9740.455
330.7130, 9746.105
331.1951, 9752.920
331.6772, 9745.982
332.1594, 9725.521
332.6415, 9708.123
333.1236, 9704.393
333.6057, 9708.596
334.0878, 9707.699
334.5699, 9699.572
335.0521, 9689.485
335.5342, 9679.162
336.0163, 9669.217
336.4984, 9662.645
336.9805, 9662.026
337.4626, 9663.142
337.9448, 9659.555
338.4269, 9651.119
338.9090, 9640.963
339.3911, 9628.189
339.8732, 9614.928
340.3553, 9606.277
340.8375, 9604.188
341.3196, 9603.002
341.8017, 9595.525
342.2838, 9582.457
342.7659, 9571.014
343.2480, 9562.947
343.7302, 9556.898
344.2123, 9551.768
344.6944, 9547.458
345.1765, 9543.467
345.6586, 9539.025
346.1407, 9534.620
346.6229, 9532.396
347.1050, 9534.174
347.5871, 9536.501
348.0692, 9539.300
348.5513, 9541.446
349.0334, 9538.085
349.5156, 9525.541
349.9977, 9507.389
350.4798, 9493.552
350.9619, 9485.258
351.4440, 9477.888
351.9261, 9469.982
352.4083, 9462.180
352.8904, 9455.839
353.3725, 9451.557
353.8546, 9447.673
354.3367, 9441.221
354.8188, 9430.927
355.3010, 9423.775
355.7831, 9422.914
356.2652, 9423.896
356.7473, 9424.393
357.2294, 9423.566
357.7115, 9417.948
358.1937, 9402.882
358.6758, 9377.854
359.1579, 9361.146
359.6400, 9355.759
360.1221, 9354.719
360.6042, 9359.189
361.0863, 9365.665
361.5685, 9364.674
362.0506, 9349.694
362.5327, 9325.416
363.0148, 9311.338
363.4969, 9317.992
363.9790, 9321.006
364.4612, 9314.592
364.9433, 9303.653
365.4254, 9293.866
365.9075, 9287.140
366.3896, 9282.397
366.8717, 9278.042
367.3539, 9274.629
367.8360, 9270.334
368.3181, 9262.401
368.8002, 9255.760
369.2823, 9255.420
369.7644, 9260.482
370.2466, 9264.999
370.7287, 9263.354
371.2108, 9255.101
371.6929, 9247.748
372.1750, 9242.144
372.6571, 9236.340
373.1393, 9228.799
373.6214, 9220.729
374.1035, 9214.467
374.5856, 9211.448
375.0677, 9210.323
375.5498, 9206.419
376.0320, 9194.834
376.5141, 9187.916
376.9962, 9192.971
377.4783, 9199.106
377.9604, 9195.786
378.4425, 9180.881
378.9247, 9161.421
379.4068, 9145.513
379.8889, 9131.722
380.3710, 9126.857
380.8531, 9143.815
381.3352, 9158.150
381.8174, 9157.177
382.2995, 9143.753
382.7816, 9128.814
383.2637, 9120.742
383.7458, 9118.295
384.2279, 9112.338
384.7101, 9096.499
385.1922, 9087.315
385.6743, 9095.054
386.1564, 9109.266
386.6385, 9117.119
387.1206, 9113.186
387.6028, 9103.270
388.0849, 9096.563
388.5670, 9094.033
389.0491, 9090.157
389.5312, 9084.095
390.0133, 9075.782
390.4955, 9063.871
390.9776, 9048.667
391.4597, 9034.076
391.9418, 9023.811
392.4239, 9017.035
392.9060, 9008.631
393.3882, 8996.243
393.8703, 8985.878
394.3524, 8982.897
394.8345, 8984.600
395.3166, 8985.210
395.7987, 8981.322
396.2809, 8976.315
396.7630, 8976.700
397.2451, 8983.133
397.7272, 8984.660
398.2093, 8973.678
398.6914, 8956.281
399.1736, 8942.040
399.6557, 8931.160
400.1378, 8923.417
400.6199, 8920.105
401.1020, 8919.834
401.5841, 8918.356
402.0662, 8914.034
402.5483, 8910.334
403.0305, 8913.000
403.5126, 8921.535
403.9947, 8926.656
404.4768, 8920.535
404.9589, 8914.361
405.4410, 8921.979
405.9232, 8942.333
406.4053, 8959.476
406.8874, 8962.072
407.3695, 8953.065
407.8516, 8948.564
408.3337, 8955.419
408.8159, 8958.257
409.2980, 8952.203
409.7801, 8939.120
410.2622, 8920.865
410.7443, 8897.795
411.2264, 8872.720
411.7086, 8849.427
412.1907, 8825.895
412.6728, 8810.770
413.1549, 8809.396
413.6370, 8811.842
414.1191, 8813.051
414.6013, 8811.946
415.0834, 8807.940
415.5655, 8799.998
416.0476, 8788.537
416.5297, 8781.644
417.0118, 8786.784
417.4940, 8787.996
417.9761, 8779.149
418.4582, 8766.147
418.9403, 8756.507
419.4224, 8753.041
419.9045, 8753.004
420.3867, 8751.713
420.8688, 8748.857
421.3509, 8745.654
421.8330, 8742.250
422.3151, 8738.534
422.7972, 8735.342
423.2794, 8732.027
423.7615, 8726.393
424.2436, 8715.748
424.7257, 8701.154
425.2078, 8689.939
425.6899, 8684.194
426.1721, 8678.222
426.6542, 8667.830
427.1363, 8656.854
427.6184, 8650.664
428.1005, 8651.632
428.5826, 8654.103
429.0648, 8649.945
429.5469, 8638.990
430.0290, 8631.968
430.5111, 8633.035
430.9932, 8636.932
431.4753, 8639.908
431.9575, 8641.798
432.4396, 8641.162
432.9217, 8636.563
433.4038, 8629.308
433.8859, 8620.124
434.3680, 8608.552
434.8502, 8600.713
435.3323, 8603.639
435.8144, 8612.510
436.2965, 8613.482
436.7786, 8601.186
437.2607, 8588.406
437.7429, 8583.518
438.2250, 8583.174
438.7071, 8579.334
439.1892, 8569.257
439.6713, 8556.564
440.1534, 8546.184
440.6356, 8538.565
441.1177, 8531.397
441.5998, 8520.979
442.0819, 8513.847
442.5640, 8518.406
443.0461, 8531.820
443.5282, 8542.275
444.0103, 8541.741
444.4925, 8531.795
444.9746, 8521.002
445.4567, 8505.486
445.9388, 8494.064
446.4209, 8488.820
446.9030, 8487.577
447.3852, 8489.842
447.8673, 8494.725
448.3494, 8498.297
448.8315, 8494.737
449.3136, 8481.860
449.7957, 8472.678
450.2779, 8468.542
450.7600, 8466.763
451.2421, 8466.374
451.7242, 8467.701
452.2063, 8472.570
452.6884, 8483.064
453.1706, 8494.662
453.6527, 8494.420
454.1348, 8476.604
454.6169, 8465.174
455.0990, 8475.108
455.5811, 8487.703
456.0633, 8489.857
456.5454, 8480.548
457.0275, 8468.318
457.5096, 8459.770
457.9917, 8453.419
458.4738, 8442.840
458.9560, 8425.784
459.4381, 8409.823
459.9202, 8402.831
460.4023, 8400.086
460.8844, 8391.982
461.3665, 8371.349
461.8487, 8352.944
462.3308, 8351.010
462.8129, 8361.051
463.2950, 8367.346
463.7771, 8364.612
464.2592, 8356.900
464.7414, 8349.580
465.2235, 8342.810
465.7056, 8334.999
466.1877, 8324.573
466.6698, 8314.009
467.1519, 8304.188
467.6341, 8295.794
468.1162, 8291.692
468.5983, 8294.639
469.0804, 8302.086
469.5625, 8302.021
470.0446, 8283.109
470.5268, 8271.193
471.0089, 8273.753
471.4910, 8281.024
471.9731, 8284.484
472.4552, 8282.246
472.9373, 8276.780
473.4195, 8270.194
473.9016, 8262.227
474.3837, 8256.460
474.8658, 8252.821
475.3479, 8251.658
475.8300, 8256.420
476.3122, 8262.587
476.7943, 8262.952
477.2764, 8253.919
477.7585, 8242.026
478.2406, 8238.389
478.7227, 8244.268
479.2049, 8246.679
479.6870, 8238.891
480.1691, 8231.678
480.6512, 8234.107
481.1333, 8244.471
481.6154, 8254.046
482.0976, 8259.836
482.5797, 8261.921
483.0618, 8260.998
483.5439, 8257.166
484.0260, 8247.531
484.5081, 8228.349
484.9902, 8203.873
485.4724, 8183.418
485.9545, 8168.230
486.4366, 8153.044
486.9187, 8133.774
487.4008, 8114.340
487.8829, 8099.745
488.3651, 8090.745
488.8472, 8086.491
489.3293, 8087.466
489.8114, 8093.573
490.2935, 8093.092
490.7756, 8083.453
491.2578, 8071.540
491.7399, 8057.482
492.2220, 8042.978
492.7041, 8030.048
493.1862, 8019.423
493.6683, 8010.445
494.1505, 8001.899
494.6326, 7993.084
495.1147, 7987.653
495.5968, 7990.199
496.0789, 7991.733
496.5610, 7989.325
497.0432, 7983.423
497.5253, 7974.591
498.0074, 7962.298
498.4895, 7949.751
498.9716, 7944.087
499.4537, 7946.709
499.9359, 7947.144
500.4180, 7941.167
500.9001, 7933.655
501.3822, 7928.792
501.8643, 7926.388
502.3464, 7923.919
502.8286, 7920.008
503.3107, 7915.377
503.7928, 7911.508
504.2749, 7908.452
504.7570, 7903.854
505.2391, 7895.750
505.7213, 7885.781
506.2034, 7878.477
506.6855, 7874.560
507.1676, 7871.188
507.6497, 7867.384
508.1318, 7863.833
508.6140, 7862.172
509.0961, 7862.194
509.5782, 7860.582
510.0603, 7853.736
510.5424, 7842.163
511.0245, 7836.842
511.5067, 7847.096
511.9888, 7852.325
512.4709, 7848.493
512.9530, 7838.272
513.4351, 7821.918
513.9172, 7800.663
514.3994, 7781.446
514.8815, 7773.944
515.3636, 7779.249
515.8457, 7781.810
516.3278, 7782.706
516.8099, 7779.097
517.2921, 7767.224
517.7742, 7751.405
518.2563, 7737.738
518.7384, 7727.723
519.2205, 7721.851
519.7026, 7723.646
520.1848, 7731.582
520.6669, 7733.372
521.1490, 7725.071
521.6311, 7712.723
522.1132, 7700.344
522.5953, 7688.354
523.0775, 7680.880
523.5596, 7683.069
524.0417, 7685.999
524.5238, 7682.929
525.0059, 7675.440
525.4880, 7668.129
525.9702, 7662.829
526.4523, 7658.995
526.9344, 7655.755
527.4165, 7653.617
527.8986, 7650.929
528.3807, 7648.650
528.8629, 7645.072
529.3450, 7637.815
529.8271, 7628.615
530.3092, 7621.853
530.7913, 7620.302
531.2734, 7621.013
531.7556, 7615.890
532.2377, 7601.720
532.7198, 7590.912
533.2019, 7589.813
533.6840, 7588.764
534.1661, 7580.811
534.6483, 7567.445
535.1304, 7556.391
535.6125, 7554.134
536.0946, 7555.507
536.5767, 7549.161
537.0588, 7534.478
537.5410, 7525.274
538.0231, 7530.154
538.5052, 7540.239
538.9873, 7541.237
539.4694, 7532.286
539.9515, 7523.060
540.4337, 7515.738
540.9158, 7509.725
541.3979, 7504.972
541.8800, 7501.163
542.3621, 7497.111
542.8442, 7492.217
543.3264, 7486.392
543.8085, 7479.197
544.2906, 7466.096
544.7726, 7458.253
545.2548, 7464.659
545.7369, 7469.522
546.2190, 7456.945
546.7011, 7430.427
547.1832, 7407.360
547.6653, 7401.627
548.1475, 7409.182
548.6296, 7414.960
549.1117, 7420.078
549.5938, 7420.440
550.0759, 7409.092
550.5580, 7396.187
551.0402, 7390.286
551.5223, 7391.693
552.0044, 7392.388
552.4865, 7385.878
552.9686, 7376.291
553.4507, 7371.037
553.9329, 7370.434
554.4150, 7371.770
554.8971, 7375.420
555.3792, 7378.633
555.8613, 7373.126
556.3434, 7354.331
556.8256, 7339.998
557.3077, 7335.358
557.7898, 7335.261
558.2719, 7336.212
558.7540, 7337.374
559.2361, 7338.458
559.7183, 7339.456
560.2004, 7339.856
560.6825, 7337.630
561.1646, 7333.826
561.6467, 7325.230
562.1288, 7307.366
562.6110, 7288.568
563.0931, 7273.431
563.5752, 7262.849
564.0573, 7256.935
564.5394, 7258.730
565.0215, 7263.687
565.5037, 7258.038
565.9858, 7239.569
566.4679, 7225.008
566.9500, 7221.638
567.4321, 7224.491
567.9142, 7227.337
568.3964, 7230.310
568.8785, 7231.504
569.3606, 7228.440
569.8427, 7224.512
570.3248, 7224.101
570.8069, 7226.457
571.2891, 7226.571
571.7712, 7221.308
572.2533, 7213.374
572.7354, 7209.993
573.2175, 7219.714
573.6996, 7218.287
574.1818, 7192.513
574.6639, 7167.932
575.1460, 7162.253
575.6281, 7171.146
576.1102, 7180.131
576.5923, 7180.757
577.0745, 7176.376
577.5566, 7174.736
578.0387, 7176.819
578.5208, 7176.341
579.0029, 7171.646
579.4850, 7164.381
579.9672, 7152.983
580.4493, 7139.487
580.9314, 7132.483
581.4135, 7141.342
581.8956, 7152.845
582.3777, 7154.041
582.8599, 7146.803
583.3420, 7136.702
583.8241, 7124.478
584.3062, 7115.762
584.7883, 7119.619
585.2704, 7140.361
585.7526, 7152.290
586.2347, 7149.117
586.7168, 7144.567
587.1989, 7142.787
587.6810, 7144.093
588.1631, 7149.307
588.6453, 7158.487
589.1274, 7168.220
