##NAMES=Sillimanite
##RRUFFID=R100127
##IDEAL CHEMISTRY=Al_2_OSiO_4_
##LOCALITY=Andana Tea Plantation, near Khawatha, Rathapura District, Sri Lanka
##OWNER=RRUFF
##SOURCE=William W. Pinch
##DESCRIPTION=Transparent bluish-gray crystal fragment
##STATUS=The identification of this mineral has been confirmed by single-crystal X-ray diffraction.
##URL=rruff.info/R100127
102.1763, 26136.86
102.6584, 26165.34
103.1405, 26212.42
103.6226, 26257.22
104.1047, 26287.21
104.5868, 26304.82
105.0690, 26325.67
105.5511, 26343.88
106.0332, 26366.34
106.5153, 26397.25
106.9974, 26435.29
107.4795, 26473.89
107.9617, 26506.06
108.4438, 26533.77
108.9259, 26566.29
109.4080, 26612.21
109.8901, 26660.23
110.3722, 26692.47
110.8544, 26702.20
111.3365, 26710.74
111.8186, 26733.21
112.3007, 26764.79
112.7828, 26796.89
113.2649, 26826.49
113.7471, 26853.29
114.2292, 26872.20
114.7113, 26871.54
115.1934, 26873.65
115.6755, 26890.82
116.1576, 26920.08
116.6397, 26949.42
117.1219, 26965.29
117.6040, 26961.45
118.0861, 26962.35
118.5682, 26971.33
119.0503, 26981.26
119.5324, 26986.18
120.0146, 26985.44
120.4967, 26984.42
120.9788, 26992.38
121.4609, 27020.41
121.9430, 27040.60
122.4251, 27045.15
122.9073, 27044.19
123.3894, 27050.40
123.8715, 27069.35
124.3536, 27095.24
124.8357, 27113.13
125.3178, 27122.31
125.8000, 27128.39
126.2821, 27131.30
126.7642, 27132.16
127.2463, 27134.88
127.7284, 27140.98
128.2105, 27150.79
128.6927, 27164.13
129.1748, 27182.68
129.6569, 27202.26
130.1390, 27219.89
130.6211, 27235.93
131.1032, 27248.20
131.5854, 27249.95
132.0675, 27249.66
132.5496, 27255.43
133.0317, 27270.74
133.5138, 27293.15
133.9959, 27317.96
134.4781, 27349.52
134.9602, 27376.16
135.4423, 27391.49
135.9244, 27401.34
136.4065, 27413.46
136.8886, 27433.03
137.3708, 27459.39
137.8529, 27482.48
138.3350, 27499.43
138.8171, 27515.68
139.2992, 27531.84
139.7813, 27548.22
140.2635, 27565.49
140.7456, 27584.58
141.2277, 27606.24
141.7098, 27622.11
142.1919, 27629.97
142.6740, 27635.31
143.1561, 27644.20
143.6383, 27655.78
144.1204, 27660.53
144.6025, 27646.88
145.0846, 27611.15
145.5667, 27579.56
146.0488, 27551.03
146.5310, 27528.20
147.0131, 27515.12
147.4952, 27513.34
147.9773, 27517.19
148.4594, 27521.67
148.9415, 27526.67
149.4237, 27531.71
149.9058, 27535.52
150.3879, 27539.12
150.8700, 27545.85
151.3521, 27558.77
151.8342, 27571.43
152.3164, 27577.77
152.7985, 27578.46
153.2806, 27579.34
153.7627, 27585.72
154.2448, 27597.72
154.7269, 27607.12
155.2091, 27608.04
155.6912, 27609.54
156.1733, 27617.07
156.6554, 27630.68
157.1375, 27645.80
157.6196, 27656.95
158.1018, 27662.75
158.5839, 27668.08
159.0660, 27674.31
159.5481, 27679.40
160.0302, 27680.20
160.5123, 27676.59
160.9945, 27672.81
161.4766, 27676.92
161.9587, 27699.08
162.4408, 27713.94
162.9229, 27720.79
163.4050, 27721.26
163.8871, 27713.85
164.3693, 27698.25
164.8514, 27680.40
165.3335, 27675.29
165.8156, 27696.99
166.2977, 27711.88
166.7798, 27713.26
167.2620, 27706.40
167.7441, 27698.95
168.2262, 27694.13
168.7083, 27690.96
169.1904, 27686.38
169.6725, 27678.53
170.1547, 27672.80
170.6368, 27673.25
171.1189, 27678.07
171.6010, 27680.98
172.0831, 27678.69
172.5652, 27672.93
173.0474, 27668.08
173.5295, 27665.00
174.0116, 27661.16
174.4937, 27652.88
174.9758, 27640.16
175.4579, 27631.44
175.9401, 27636.49
176.4222, 27644.55
176.9043, 27642.71
177.3864, 27625.95
177.8685, 27605.34
178.3506, 27594.93
178.8328, 27596.84
179.3149, 27601.79
179.7970, 27608.66
180.2791, 27616.06
180.7612, 27623.33
181.2433, 27630.58
181.7255, 27636.25
182.2076, 27636.32
182.6897, 27626.51
183.1718, 27618.53
183.6539, 27613.07
184.1360, 27610.73
184.6181, 27613.51
185.1003, 27622.71
185.5824, 27635.25
186.0645, 27640.09
186.5466, 27629.42
187.0287, 27619.85
187.5108, 27614.34
187.9930, 27611.09
188.4751, 27607.26
188.9572, 27601.17
189.4393, 27593.89
189.9214, 27591.36
190.4035, 27601.52
190.8857, 27607.90
191.3678, 27603.38
191.8499, 27593.43
192.3320, 27588.89
192.8141, 27597.47
193.2962, 27616.13
193.7784, 27620.33
194.2605, 27596.66
194.7426, 27576.32
195.2247, 27572.37
195.7068, 27580.68
196.1889, 27588.68
196.6711, 27588.25
197.1532, 27581.30
197.6353, 27578.70
198.1174, 27584.88
198.5995, 27590.58
199.0816, 27589.22
199.5638, 27581.82
200.0459, 27575.43
200.5280, 27573.58
201.0101, 27576.31
201.4922, 27582.18
201.9743, 27594.96
202.4565, 27607.19
202.9386, 27612.83
203.4207, 27611.94
203.9028, 27606.89
204.3849, 27592.44
204.8670, 27577.22
205.3492, 27575.44
205.8313, 27597.27
206.3134, 27623.71
206.7955, 27627.97
207.2776, 27604.56
207.7597, 27584.63
208.2419, 27586.90
208.7240, 27598.18
209.2061, 27606.70
209.6882, 27608.58
210.1703, 27606.22
210.6524, 27603.57
211.1346, 27600.68
211.6167, 27596.94
212.0988, 27591.54
212.5809, 27585.43
213.0630, 27579.00
213.5451, 27572.16
214.0273, 27566.04
214.5094, 27563.12
214.9915, 27563.46
215.4736, 27567.57
215.9557, 27582.15
216.4378, 27597.14
216.9200, 27600.73
217.4021, 27587.31
217.8842, 27564.35
218.3663, 27553.13
218.8484, 27564.16
219.3305, 27572.78
219.8127, 27575.07
220.2948, 27574.23
220.7769, 27573.82
221.2590, 27575.50
221.7411, 27578.14
222.2232, 27578.16
222.7054, 27566.29
223.1875, 27563.48
223.6696, 27576.57
224.1517, 27597.29
224.6338, 27616.35
225.1159, 27629.72
225.5980, 27639.12
226.0802, 27649.63
226.5623, 27663.58
227.0444, 27675.82
227.5265, 27680.94
228.0086, 27685.59
228.4907, 27699.85
228.9729, 27728.36
229.4550, 27764.82
229.9371, 27792.20
230.4192, 27801.14
230.9013, 27816.12
231.3834, 27839.72
231.8656, 27871.80
232.3477, 27914.23
232.8298, 27968.88
233.3119, 28029.54
233.7940, 28086.02
234.2761, 28148.54
234.7583, 28185.65
235.2404, 28195.71
235.7225, 28174.13
236.2046, 28105.36
236.6867, 27975.18
237.1688, 27817.03
237.6510, 27683.55
238.1331, 27572.66
238.6152, 27480.76
239.0973, 27410.93
239.5794, 27358.94
240.0615, 27316.50
240.5437, 27281.26
241.0258, 27255.27
241.5079, 27245.38
241.9900, 27251.50
242.4721, 27253.19
242.9542, 27238.75
243.4364, 27213.57
243.9185, 27190.49
244.4006, 27170.85
244.8827, 27156.59
245.3648, 27152.43
245.8469, 27156.91
246.3290, 27158.57
246.8112, 27149.02
247.2933, 27132.12
247.7754, 27119.83
248.2575, 27115.58
248.7396, 27112.86
249.2217, 27105.82
249.7039, 27095.68
250.1860, 27086.81
250.6681, 27083.24
251.1502, 27083.06
251.6323, 27078.69
252.1144, 27067.44
252.5966, 27055.66
253.0787, 27046.88
253.5608, 27040.45
254.0429, 27035.03
254.5250, 27031.54
255.0071, 27028.68
255.4893, 27019.62
255.9714, 26997.14
256.4535, 26980.76
256.9356, 26983.28
257.4177, 26996.10
257.8998, 27005.04
258.3820, 27001.35
258.8641, 26988.66
259.3462, 26980.17
259.8283, 26980.03
260.3104, 26977.17
260.7925, 26966.09
261.2747, 26951.06
261.7568, 26937.29
262.2389, 26926.98
262.7210, 26920.10
263.2031, 26917.59
263.6852, 26925.57
264.1674, 26927.03
264.6495, 26912.39
265.1316, 26892.61
265.6137, 26880.02
266.0958, 26880.21
266.5779, 26887.91
267.0601, 26890.34
267.5422, 26882.94
268.0243, 26878.66
268.5064, 26885.15
268.9885, 26892.19
269.4706, 26889.68
269.9528, 26874.23
270.4349, 26851.80
270.9170, 26833.43
271.3991, 26820.27
271.8812, 26809.54
272.3633, 26799.23
272.8455, 26791.84
273.3276, 26791.22
273.8097, 26797.47
274.2918, 26805.27
274.7739, 26806.06
275.2560, 26795.23
275.7382, 26786.87
276.2202, 26781.90
276.7024, 26778.03
277.1845, 26773.37
277.6666, 26767.84
278.1487, 26763.24
278.6308, 26762.46
279.1129, 26768.50
279.5951, 26767.29
280.0772, 26750.02
280.5593, 26734.16
281.0414, 26732.26
281.5235, 26742.04
282.0056, 26750.52
282.4878, 26744.61
282.9699, 26721.59
283.4520, 26703.47
283.9341, 26694.39
284.4162, 26685.62
284.8983, 26674.38
285.3805, 26660.69
285.8626, 26644.54
286.3447, 26624.83
286.8268, 26601.98
287.3089, 26592.53
287.7910, 26609.38
288.2732, 26624.80
288.7553, 26630.07
289.2374, 26628.21
289.7195, 26625.76
290.2016, 26626.59
290.6837, 26630.00
291.1659, 26632.36
291.6480, 26628.15
292.1301, 26629.01
292.6122, 26638.98
293.0943, 26654.48
293.5764, 26671.27
294.0586, 26687.59
294.5407, 26702.65
295.0228, 26714.49
295.5049, 26714.44
295.9870, 26721.96
296.4691, 26740.66
296.9513, 26766.10
297.4334, 26794.62
297.9155, 26824.82
298.3976, 26855.90
298.8797, 26886.13
299.3618, 26912.50
299.8440, 26944.67
300.3261, 26982.87
300.8082, 27026.28
301.2903, 27075.54
301.7724, 27130.18
302.2545, 27188.10
302.7367, 27247.55
303.2188, 27308.87
303.7009, 27369.05
304.1830, 27425.71
304.6651, 27483.25
305.1472, 27543.77
305.6294, 27607.63
306.1115, 27675.34
306.5936, 27748.02
307.0757, 27826.36
307.5578, 27899.36
308.0399, 27979.31
308.5221, 28043.44
309.0042, 28090.60
309.4863, 28114.81
309.9684, 28101.92
310.4505, 28042.22
310.9326, 27938.52
311.4148, 27809.00
311.8969, 27638.46
312.3790, 27463.74
312.8611, 27283.80
313.3432, 27107.44
313.8253, 26944.89
314.3075, 26801.18
314.7896, 26676.82
315.2717, 26573.62
315.7538, 26504.87
316.2359, 26438.21
316.7180, 26364.99
317.2001, 26295.44
317.6823, 26242.26
318.1644, 26208.68
318.6465, 26186.70
319.1286, 26164.60
319.6107, 26141.72
320.0928, 26120.53
320.5750, 26102.10
321.0571, 26084.16
321.5392, 26064.34
322.0213, 26042.59
322.5034, 26020.96
322.9855, 26001.98
323.4677, 25986.12
323.9498, 25966.61
324.4319, 25940.38
324.9140, 25913.66
325.3961, 25887.65
325.8782, 25863.53
326.3604, 25843.94
326.8425, 25831.62
327.3246, 25825.63
327.8067, 25814.10
328.2888, 25792.90
328.7709, 25772.24
329.2531, 25757.49
329.7352, 25744.85
330.2173, 25726.84
330.6994, 25699.65
331.1815, 25667.93
331.6636, 25643.91
332.1458, 25636.48
332.6279, 25626.38
333.1100, 25612.86
333.5921, 25596.60
334.0742, 25574.46
334.5563, 25546.76
335.0385, 25522.87
335.5206, 25517.94
336.0027, 25544.33
336.4848, 25557.68
336.9669, 25553.87
337.4490, 25541.81
337.9312, 25523.02
338.4133, 25500.13
338.8954, 25480.24
339.3775, 25470.49
339.8596, 25471.85
340.3417, 25470.11
340.8239, 25462.72
341.3060, 25455.22
341.7881, 25452.21
342.2702, 25450.41
342.7523, 25441.92
343.2344, 25421.10
343.7166, 25391.75
344.1987, 25372.57
344.6808, 25379.49
345.1629, 25378.63
345.6450, 25359.38
346.1271, 25334.01
346.6093, 25317.51
347.0914, 25315.25
347.5735, 25319.29
348.0556, 25315.05
348.5377, 25300.46
349.0198, 25280.54
349.5020, 25251.14
349.9841, 25220.60
350.4662, 25193.88
350.9483, 25172.13
351.4304, 25154.78
351.9125, 25142.54
352.3947, 25137.28
352.8768, 25124.99
353.3589, 25096.25
353.8410, 25069.91
354.3231, 25052.51
354.8052, 25042.67
355.2874, 25037.21
355.7695, 25035.06
356.2516, 25034.43
356.7337, 25024.90
357.2158, 24997.24
357.6979, 24972.75
358.1800, 24956.68
358.6621, 24944.95
359.1443, 24933.40
359.6264, 24920.39
360.1085, 24906.70
360.5906, 24893.54
361.0727, 24880.87
361.5548, 24869.07
362.0370, 24861.04
362.5191, 24851.83
363.0012, 24837.79
363.4833, 24818.82
363.9654, 24798.17
364.4475, 24778.54
364.9297, 24759.87
365.4118, 24742.31
365.8939, 24723.60
366.3760, 24708.68
366.8581, 24700.13
367.3402, 24696.56
367.8224, 24695.73
368.3045, 24698.05
368.7866, 24700.78
369.2687, 24695.47
369.7508, 24680.12
370.2329, 24660.87
370.7151, 24636.37
371.1972, 24611.08
371.6793, 24589.10
372.1614, 24571.93
372.6435, 24557.72
373.1256, 24545.31
373.6078, 24535.03
374.0899, 24523.10
374.5720, 24506.38
375.0541, 24489.92
375.5362, 24478.43
376.0183, 24471.34
376.5005, 24463.20
376.9826, 24448.47
377.4647, 24429.39
377.9468, 24414.25
378.4289, 24404.12
378.9110, 24396.36
379.3932, 24390.76
379.8753, 24385.91
380.3574, 24379.19
380.8395, 24370.01
381.3216, 24358.26
381.8037, 24341.37
382.2859, 24319.10
382.7680, 24302.61
383.2501, 24300.78
383.7322, 24305.24
384.2143, 24303.09
384.6964, 24293.99
385.1786, 24279.29
385.6607, 24254.82
386.1428, 24225.52
386.6249, 24204.53
387.1070, 24195.89
387.5891, 24194.10
388.0713, 24197.36
388.5534, 24205.10
389.0355, 24202.68
389.5176, 24177.11
389.9997, 24146.31
390.4818, 24130.04
390.9640, 24128.48
391.4461, 24126.94
391.9282, 24116.41
392.4103, 24097.11
392.8924, 24073.16
393.3745, 24037.26
393.8567, 24004.77
394.3388, 23982.49
394.8209, 23967.63
395.3030, 23955.29
395.7851, 23943.45
396.2672, 23933.15
396.7494, 23926.84
397.2315, 23928.42
397.7136, 23923.78
398.1957, 23908.50
398.6778, 23889.06
399.1599, 23869.57
399.6420, 23850.99
400.1241, 23833.64
400.6063, 23817.81
401.0884, 23803.46
401.5705, 23791.38
402.0526, 23783.22
402.5347, 23775.53
403.0168, 23767.04
403.4990, 23758.62
403.9811, 23753.26
404.4632, 23752.63
404.9453, 23752.57
405.4274, 23741.56
405.9095, 23705.35
406.3917, 23683.25
406.8738, 23686.46
407.3559, 23695.49
407.8380, 23696.79
408.3201, 23688.69
408.8022, 23677.60
409.2844, 23669.96
409.7665, 23666.04
410.2486, 23659.40
410.7307, 23647.07
411.2128, 23634.66
411.6949, 23620.29
412.1771, 23607.47
412.6592, 23602.56
413.1413, 23609.74
413.6234, 23622.76
414.1055, 23627.32
414.5876, 23619.76
415.0698, 23614.99
415.5519, 23622.59
416.0340, 23630.28
416.5161, 23626.45
416.9982, 23610.79
417.4803, 23598.24
417.9625, 23603.87
418.4446, 23625.00
418.9267, 23644.02
419.4088, 23662.12
419.8909, 23673.34
420.3730, 23674.34
420.8552, 23666.26
421.3373, 23650.34
421.8194, 23626.59
422.3015, 23595.63
422.7836, 23555.54
423.2657, 23506.49
423.7479, 23458.88
424.2300, 23416.85
424.7121, 23378.63
425.1942, 23340.56
425.6763, 23302.41
426.1584, 23266.14
426.6406, 23231.04
427.1227, 23198.84
427.6048, 23172.88
428.0869, 23153.61
428.5690, 23139.73
429.0511, 23131.66
429.5333, 23129.41
430.0154, 23123.74
430.4975, 23113.09
430.9796, 23100.41
431.4617, 23085.68
431.9438, 23070.13
432.4260, 23057.01
432.9081, 23048.16
433.3902, 23041.37
433.8723, 23031.36
434.3544, 23014.32
434.8365, 23000.09
435.3187, 22992.27
435.8008, 22984.99
436.2829, 22972.76
436.7650, 22955.44
437.2471, 22937.37
437.7292, 22922.87
438.2114, 22912.04
438.6935, 22898.54
439.1756, 22883.71
439.6577, 22864.73
440.1398, 22832.23
440.6219, 22798.21
441.1040, 22781.93
441.5862, 22791.51
442.0683, 22811.51
442.5504, 22812.84
443.0325, 22789.07
443.5146, 22766.80
443.9967, 22746.37
444.4789, 22729.79
444.9610, 22720.32
445.4431, 22716.46
445.9252, 22712.66
446.4073, 22704.26
446.8894, 22692.91
447.3716, 22685.13
447.8537, 22681.54
448.3358, 22679.77
448.8179, 22680.03
449.3000, 22680.79
449.7821, 22680.20
450.2643, 22677.50
450.7464, 22674.61
451.2285, 22672.33
451.7106, 22670.92
452.1927, 22672.73
452.6748, 22679.54
453.1570, 22686.85
453.6391, 22690.63
454.1212, 22691.25
454.6033, 22688.84
455.0854, 22682.17
455.5675, 22673.44
456.0497, 22666.69
456.5318, 22660.74
457.0139, 22647.57
457.4960, 22622.00
457.9781, 22588.06
458.4602, 22556.35
458.9424, 22528.10
459.4245, 22499.19
459.9066, 22465.73
460.3887, 22433.21
460.8708, 22409.90
461.3529, 22395.68
461.8351, 22379.80
462.3172, 22350.54
462.7993, 22307.23
463.2814, 22276.54
463.7635, 22271.43
464.2456, 22263.07
464.7278, 22238.13
465.2099, 22207.42
465.6920, 22187.23
466.1741, 22183.57
466.6562, 22187.84
467.1383, 22186.13
467.6205, 22177.26
468.1026, 22165.74
468.5847, 22149.56
469.0668, 22132.71
469.5489, 22117.25
470.0310, 22102.73
470.5132, 22087.41
470.9953, 22069.41
471.4774, 22050.81
471.9595, 22038.15
472.4416, 22034.01
472.9237, 22026.57
473.4059, 22007.54
473.8880, 21985.88
474.3701, 21970.63
474.8522, 21963.07
475.3343, 21954.85
475.8164, 21938.18
476.2986, 21917.10
476.7807, 21902.84
477.2628, 21897.97
477.7449, 21892.34
478.2270, 21875.11
478.7091, 21850.46
479.1913, 21836.31
479.6734, 21840.83
480.1555, 21847.75
480.6376, 21850.64
481.1197, 21849.61
481.6018, 21845.52
482.0839, 21838.78
482.5660, 21827.06
483.0482, 21805.50
483.5303, 21768.67
484.0124, 21742.79
484.4945, 21738.00
484.9766, 21733.93
485.4587, 21718.78
485.9409, 21695.33
486.4230, 21671.82
486.9051, 21652.65
487.3872, 21637.34
487.8693, 21625.50
488.3514, 21623.10
488.8336, 21612.44
489.3157, 21585.19
489.7978, 21556.28
490.2799, 21537.66
490.7620, 21528.18
491.2441, 21516.88
491.7263, 21492.37
492.2084, 21459.06
492.6905, 21439.76
493.1726, 21440.83
493.6547, 21440.97
494.1368, 21430.55
494.6190, 21415.36
495.1011, 21401.08
495.5832, 21389.00
496.0653, 21375.61
496.5474, 21356.09
497.0295, 21333.09
497.5117, 21315.41
497.9938, 21305.01
498.4759, 21296.58
498.9580, 21286.11
499.4401, 21273.70
499.9222, 21260.74
500.4044, 21242.54
500.8865, 21228.51
501.3686, 21228.04
501.8507, 21234.57
502.3328, 21234.06
502.8149, 21221.60
503.2971, 21203.71
503.7792, 21189.85
504.2613, 21182.24
504.7434, 21170.36
505.2255, 21150.44
505.7076, 21130.70
506.1898, 21115.29
506.6719, 21103.13
507.1540, 21091.72
507.6361, 21079.85
508.1182, 21067.43
508.6003, 21053.35
509.0825, 21034.62
509.5646, 21022.36
510.0467, 21025.64
510.5288, 21028.77
511.0109, 21023.29
511.4930, 21009.83
511.9752, 20992.90
512.4573, 20971.65
512.9394, 20951.10
513.4215, 20946.73
513.9036, 20962.29
514.3857, 20969.56
514.8679, 20953.55
515.3500, 20926.42
515.8321, 20903.68
516.3142, 20885.77
516.7963, 20870.64
517.2784, 20858.66
517.7606, 20848.30
518.2427, 20836.69
518.7248, 20823.76
519.2069, 20813.36
519.6890, 20809.29
520.1711, 20809.33
520.6533, 20802.44
521.1354, 20782.13
521.6175, 20764.61
522.0996, 20756.16
522.5817, 20749.66
523.0638, 20737.34
523.5460, 20718.50
524.0281, 20697.80
524.5102, 20679.14
524.9923, 20662.67
525.4744, 20652.67
525.9565, 20659.01
526.4387, 20658.95
526.9208, 20642.90
527.4029, 20621.13
527.8850, 20604.30
528.3671, 20595.12
528.8492, 20589.18
529.3314, 20583.63
529.8135, 20578.13
530.2956, 20567.75
530.7777, 20549.69
531.2598, 20532.21
531.7419, 20523.43
532.2241, 20518.05
532.7062, 20506.57
533.1883, 20484.18
533.6704, 20461.79
534.1525, 20447.54
534.6346, 20438.68
535.1168, 20428.25
535.5989, 20414.49
536.0810, 20400.74
536.5631, 20390.69
537.0452, 20384.49
537.5273, 20376.62
538.0095, 20363.77
538.4916, 20352.97
538.9737, 20350.18
539.4558, 20349.91
539.9379, 20343.57
540.4200, 20328.57
540.9022, 20309.46
541.3843, 20292.27
541.8664, 20277.09
542.3485, 20263.84
542.8306, 20255.08
543.3127, 20245.79
543.7948, 20233.76
544.2769, 20220.48
544.7590, 20208.31
545.2411, 20198.19
545.7233, 20188.76
546.2054, 20178.29
546.6875, 20166.82
547.1696, 20155.72
547.6517, 20144.75
548.1339, 20134.84
548.6160, 20126.57
549.0981, 20119.86
549.5802, 20114.96
550.0623, 20114.25
550.5444, 20112.83
551.0266, 20106.27
551.5087, 20096.67
551.9908, 20089.09
552.4729, 20085.13
552.9550, 20082.57
553.4371, 20079.40
553.9193, 20076.59
554.4014, 20066.91
554.8835, 20041.37
555.3656, 20020.13
555.8477, 20014.28
556.3298, 20016.12
556.8120, 20014.48
557.2941, 20005.21
557.7762, 19991.43
558.2583, 19976.75
558.7404, 19960.99
559.2225, 19946.14
559.7047, 19931.44
560.1868, 19918.86
560.6689, 19910.05
561.1510, 19903.37
561.6331, 19896.03
562.1152, 19887.16
562.5974, 19877.45
563.0795, 19866.76
563.5616, 19855.62
564.0437, 19846.67
564.5258, 19840.97
565.0079, 19834.67
565.4901, 19823.21
565.9722, 19807.09
566.4543, 19795.71
566.9364, 19792.59
567.4185, 19790.29
567.9006, 19787.16
568.3828, 19782.85
568.8649, 19777.04
569.3470, 19769.71
569.8291, 19760.53
570.3112, 19748.92
570.7933, 19734.63
571.2755, 19722.03
571.7576, 19714.34
572.2397, 19704.06
572.7218, 19683.59
573.2039, 19662.41
573.6860, 19652.52
574.1682, 19656.54
574.6503, 19664.13
575.1324, 19666.68
575.6145, 19664.61
576.0966, 19659.12
576.5787, 19649.28
577.0609, 19639.86
577.5430, 19635.12
578.0251, 19632.35
578.5072, 19624.93
578.9893, 19610.08
579.4714, 19596.50
579.9536, 19589.99
580.4357, 19585.34
580.9178, 19575.36
581.3999, 19559.77
581.8820, 19543.24
582.3641, 19528.71
582.8463, 19516.84
583.3284, 19511.07
583.8105, 19513.90
584.2926, 19519.88
584.7747, 19536.23
585.2568, 19549.84
585.7390, 19547.48
586.2211, 19531.39
586.7032, 19516.31
587.1853, 19513.41
587.6674, 19518.60
588.1495, 19520.84
588.6317, 19519.56
589.1138, 19518.78
589.5959, 19517.61
590.0780, 19519.75
590.5601, 19533.22
591.0422, 19557.72
591.5244, 19571.29
592.0065, 19557.03
592.4886, 19536.81
592.9707, 19530.94
593.4528, 19536.54
593.9349, 19542.53
594.4171, 19544.46
594.8992, 19540.59
595.3813, 19526.88
595.8634, 19497.47
596.3455, 19475.22
596.8276, 19469.26
597.3098, 19459.78
597.7919, 19436.13
598.2740, 19403.73
598.7561, 19371.95
599.2382, 19344.51
599.7203, 19319.72
