##NAMES=Sillimanite
##RRUFFID=R050601
##IDEAL CHEMISTRY=Al_2_OSiO_4_
##LOCALITY=Mogok, Burma
##OWNER=RRUFF
##SOURCE=Bill Larson
##DESCRIPTION=Tan colored cleavage fragment from a water worn pebble
##STATUS=The identification of this mineral has been confirmed by X-ray diffraction and chemical analysis
##URL=rruff.info/R050601
##MEASURED CHEMISTRY=(Al_1.99_Fe^3+^_0.01_)_Î£=2_Si_1.00_O_5_
91.11523, 366.8546
91.59735, 368.2377
92.07947, 366.9390
92.56158, 363.8319
93.04370, 361.6690
93.52582, 362.5233
94.00793, 365.3794
94.49006, 368.2296
94.97218, 371.0357
95.45429, 373.4174
95.93641, 374.4371
96.41853, 374.1318
96.90064, 374.0128
97.38276, 376.0284
97.86488, 379.8160
98.34699, 381.0412
98.82911, 378.1504
99.31123, 372.6877
99.79334, 369.8216
100.2755, 369.9158
100.7576, 371.4362
101.2397, 373.5631
101.7218, 376.7416
102.2039, 378.3678
102.6861, 377.2747
103.1682, 373.4980
103.6503, 371.7403
104.1324, 372.6869
104.6145, 374.8741
105.0966, 376.4988
105.5788, 376.8612
106.0609, 377.9037
106.5430, 380.6891
107.0251, 386.6184
107.5072, 389.1283
107.9893, 384.3051
108.4715, 377.0435
108.9536, 376.1558
109.4357, 389.1342
109.9178, 401.8014
110.3999, 409.4677
110.8820, 406.7374
111.3642, 407.7810
111.8463, 413.8788
112.3284, 424.1987
112.8105, 436.3829
113.2926, 450.2848
113.7747, 466.0752
114.2569, 483.7579
114.7390, 505.3757
115.2211, 526.6907
115.7032, 545.2067
116.1853, 561.8613
116.6674, 581.3274
117.1496, 602.3851
117.6317, 628.5020
118.1138, 662.2572
118.5959, 709.3238
119.0780, 760.3080
119.5602, 812.1800
120.0423, 865.2025
120.5244, 916.5725
121.0065, 961.6662
121.4886, 1004.915
121.9707, 1052.374
122.4529, 1109.514
122.9350, 1169.572
123.4171, 1227.684
123.8992, 1283.742
124.3813, 1336.552
124.8634, 1379.071
125.3456, 1417.049
125.8277, 1463.763
126.3098, 1530.246
126.7919, 1607.775
127.2740, 1682.942
127.7561, 1753.979
128.2383, 1825.463
128.7204, 1901.087
129.2025, 1981.183
129.6846, 2067.492
130.1667, 2163.856
130.6488, 2266.707
131.1310, 2371.154
131.6131, 2476.684
132.0952, 2583.272
132.5773, 2690.881
133.0594, 2799.983
133.5415, 2909.625
134.0237, 3019.712
134.5058, 3130.867
134.9879, 3245.008
135.4700, 3365.582
135.9521, 3488.239
136.4343, 3603.450
136.9164, 3711.393
137.3985, 3812.535
137.8806, 3906.256
138.3627, 3991.846
138.8448, 4079.438
139.3270, 4171.229
139.8091, 4267.826
140.2912, 4370.087
140.7733, 4478.719
141.2554, 4593.420
141.7375, 4713.800
142.2197, 4844.190
142.7018, 4973.410
143.1839, 5108.752
143.6660, 5253.798
144.1481, 5342.531
144.6302, 5355.954
145.1124, 5328.243
145.5945, 5297.828
146.0766, 5248.544
146.5587, 5220.856
147.0408, 5226.616
147.5230, 5271.005
148.0051, 5327.183
148.4872, 5374.311
148.9693, 5400.553
149.4514, 5432.193
149.9335, 5475.532
150.4157, 5518.173
150.8978, 5555.900
151.3799, 5587.165
151.8620, 5619.002
152.3441, 5655.154
152.8262, 5691.989
153.3084, 5721.685
153.7905, 5741.649
154.2726, 5756.634
154.7547, 5768.472
155.2368, 5776.778
155.7189, 5782.427
156.2011, 5783.520
156.6832, 5781.787
157.1653, 5781.600
157.6474, 5784.298
158.1295, 5788.122
158.6116, 5791.853
159.0938, 5791.706
159.5759, 5796.108
160.0580, 5811.417
160.5401, 5833.896
161.0222, 5850.894
161.5044, 5851.614
161.9865, 5849.229
162.4686, 5852.890
162.9507, 5871.593
163.4328, 5888.947
163.9149, 5897.756
164.3971, 5899.449
164.8792, 5900.511
165.3613, 5902.112
165.8434, 5905.312
166.3255, 5911.134
166.8076, 5921.561
167.2898, 5933.206
167.7719, 5945.313
168.2540, 5957.685
168.7361, 5968.188
169.2182, 5971.925
169.7003, 5974.187
170.1825, 5981.288
170.6646, 6001.067
171.1467, 6022.741
171.6288, 6037.316
172.1109, 6044.845
172.5931, 6051.433
173.0752, 6061.708
173.5573, 6073.789
174.0394, 6084.711
174.5215, 6091.237
175.0036, 6096.865
175.4858, 6106.606
175.9679, 6120.700
176.4500, 6133.131
176.9321, 6136.705
177.4142, 6134.727
177.8963, 6134.685
178.3785, 6142.882
178.8606, 6154.042
179.3427, 6158.968
179.8248, 6157.169
180.3069, 6154.150
180.7890, 6155.937
181.2712, 6161.303
181.7533, 6166.328
182.2354, 6166.542
182.7175, 6165.430
183.1996, 6172.297
183.6818, 6188.780
184.1639, 6205.841
184.6460, 6212.694
185.1281, 6210.670
185.6102, 6207.116
186.0923, 6205.344
186.5745, 6204.845
187.0566, 6203.516
187.5387, 6200.809
188.0208, 6199.116
188.5029, 6202.451
188.9850, 6210.503
189.4672, 6219.012
189.9493, 6226.235
190.4314, 6232.285
190.9135, 6237.249
191.3956, 6240.458
191.8777, 6244.390
192.3599, 6254.643
192.8420, 6271.217
193.3241, 6286.228
193.8062, 6293.789
194.2883, 6294.788
194.7704, 6299.805
195.2526, 6310.458
195.7347, 6322.906
196.2168, 6328.915
196.6989, 6327.709
197.1810, 6327.905
197.6632, 6336.588
198.1453, 6353.725
198.6274, 6362.226
199.1095, 6358.508
199.5916, 6349.491
200.0737, 6350.333
200.5559, 6362.388
201.0380, 6375.878
201.5201, 6385.772
202.0022, 6392.063
202.4843, 6397.436
202.9664, 6401.407
203.4486, 6405.487
203.9307, 6413.703
204.4128, 6426.983
204.8949, 6440.700
205.3770, 6451.972
205.8591, 6460.276
206.3413, 6469.252
206.8234, 6477.579
207.3055, 6487.619
207.7876, 6507.041
208.2697, 6538.369
208.7519, 6570.589
209.2340, 6598.407
209.7161, 6621.446
210.1982, 6642.859
210.6803, 6667.012
211.1624, 6687.267
211.6446, 6682.078
212.1267, 6643.163
212.6088, 6599.499
213.0909, 6565.150
213.5730, 6541.193
214.0551, 6522.563
214.5373, 6508.124
215.0194, 6499.438
215.5015, 6501.423
215.9836, 6517.164
216.4657, 6537.595
216.9478, 6557.323
217.4300, 6573.130
217.9121, 6598.318
218.3942, 6632.593
218.8763, 6676.416
219.3584, 6733.556
219.8405, 6811.019
220.3227, 6887.773
220.8048, 6954.378
221.2869, 7012.663
221.7690, 7055.311
222.2511, 7075.139
222.7333, 7080.971
223.2154, 7098.054
223.6975, 7130.428
224.1796, 7167.781
224.6617, 7205.039
225.1438, 7240.208
225.6260, 7280.498
226.1081, 7324.913
226.5902, 7375.057
227.0723, 7433.685
227.5544, 7501.897
228.0365, 7578.212
228.5187, 7660.554
229.0008, 7742.808
229.4829, 7844.201
229.9650, 7960.037
230.4471, 8097.126
230.9292, 8273.775
231.4114, 8494.420
231.8935, 8751.809
232.3756, 9039.288
232.8577, 9361.266
233.3398, 9711.087
233.8220, 10075.47
234.3041, 10472.54
234.7862, 10962.34
235.2683, 11676.94
235.7504, 12279.99
236.2325, 12676.86
236.7147, 12964.34
237.1968, 12747.71
237.6789, 11802.89
238.1610, 10444.73
238.6431, 9355.272
239.1252, 8569.193
239.6074, 7980.435
240.0895, 7563.752
240.5716, 7369.109
241.0537, 7215.094
241.5358, 7109.634
242.0179, 7040.789
242.5001, 6986.490
242.9822, 6949.019
243.4643, 6922.083
243.9464, 6904.875
244.4285, 6900.516
244.9106, 6894.504
245.3928, 6884.822
245.8749, 6874.295
246.3570, 6868.208
246.8391, 6868.550
247.3212, 6869.575
247.8034, 6868.827
248.2855, 6864.856
248.7676, 6865.789
249.2497, 6874.705
249.7318, 6886.425
250.2139, 6892.568
250.6961, 6889.433
251.1782, 6887.977
251.6603, 6893.057
252.1424, 6907.231
252.6245, 6912.186
253.1066, 6901.197
253.5888, 6887.227
254.0709, 6888.701
254.5530, 6914.959
255.0351, 6937.452
255.5172, 6946.524
255.9993, 6940.253
256.4815, 6942.146
256.9636, 6956.412
257.4457, 6974.192
257.9278, 6986.107
258.4099, 6992.339
258.8921, 6991.979
259.3742, 6983.400
259.8563, 6966.549
260.3384, 6949.334
260.8205, 6928.399
261.3026, 6911.822
261.7848, 6909.227
262.2669, 6926.212
262.7490, 6941.956
263.2311, 6952.912
263.7132, 6959.182
264.1953, 6959.750
264.6775, 6950.749
265.1596, 6942.268
265.6417, 6944.599
266.1238, 6961.776
266.6059, 6975.458
267.0880, 6981.441
267.5702, 6981.074
268.0523, 6983.579
268.5344, 6990.493
269.0165, 6997.216
269.4986, 6999.014
269.9807, 6993.662
270.4629, 6993.949
270.9450, 7003.662
271.4271, 7019.728
271.9092, 7028.821
272.3913, 7028.968
272.8734, 7027.649
273.3556, 7029.702
273.8377, 7035.472
274.3198, 7042.153
274.8019, 7050.042
275.2840, 7058.284
275.7661, 7063.955
276.2483, 7066.128
276.7304, 7069.430
277.2125, 7077.538
277.6946, 7091.009
278.1768, 7101.739
278.6589, 7108.933
279.1410, 7113.704
279.6231, 7117.386
280.1052, 7119.636
280.5873, 7123.758
281.0695, 7133.861
281.5516, 7149.854
282.0337, 7157.010
282.5158, 7152.564
282.9979, 7144.385
283.4800, 7144.854
283.9622, 7154.171
284.4443, 7166.650
284.9264, 7181.886
285.4085, 7198.949
285.8906, 7209.866
286.3727, 7213.112
286.8549, 7215.318
287.3370, 7226.150
287.8191, 7245.140
288.3012, 7263.251
288.7833, 7275.079
289.2654, 7283.346
289.7476, 7298.950
290.2297, 7322.444
290.7118, 7349.315
291.1939, 7374.528
291.6760, 7398.627
292.1581, 7425.630
292.6403, 7455.147
293.1224, 7489.318
293.6045, 7535.910
294.0866, 7594.630
294.5687, 7657.260
295.0508, 7716.218
295.5330, 7773.294
296.0151, 7833.442
296.4972, 7898.974
296.9793, 7968.060
297.4614, 8035.814
297.9435, 8102.899
298.4257, 8170.383
298.9078, 8236.146
299.3899, 8302.848
299.8720, 8373.308
300.3541, 8446.841
300.8362, 8528.816
301.3184, 8624.684
301.8005, 8735.077
302.2826, 8858.366
302.7647, 8994.974
303.2469, 9144.152
303.7290, 9306.533
304.2111, 9479.549
304.6932, 9671.374
305.1753, 9886.763
305.6574, 10124.82
306.1396, 10375.39
306.6217, 10638.09
307.1038, 10911.36
307.5859, 11191.98
308.0680, 11481.62
308.5501, 11785.67
309.0323, 12144.77
309.5144, 12516.19
309.9965, 12830.79
310.4786, 13145.83
310.9607, 13336.06
311.4428, 13296.70
311.9250, 13030.38
312.4071, 12629.79
312.8892, 12058.95
313.3713, 11424.85
313.8534, 10834.52
314.3355, 10308.97
314.8177, 9856.184
315.2998, 9490.218
315.7819, 9206.324
316.2640, 8969.966
316.7461, 8781.215
317.2282, 8628.962
317.7104, 8504.042
318.1925, 8415.134
318.6746, 8337.481
319.1567, 8262.595
319.6388, 8192.139
320.1209, 8132.706
320.6031, 8091.490
321.0852, 8057.943
321.5673, 8026.885
322.0494, 7998.636
322.5315, 7970.699
323.0136, 7941.540
323.4958, 7912.666
323.9779, 7886.498
324.4600, 7864.675
324.9421, 7844.610
325.4242, 7825.235
325.9064, 7805.680
326.3885, 7790.322
326.8706, 7783.944
327.3527, 7780.240
327.8348, 7772.458
328.3170, 7754.845
328.7991, 7738.931
329.2812, 7725.966
329.7633, 7715.776
330.2454, 7709.423
330.7275, 7709.089
331.2097, 7710.572
331.6918, 7710.972
332.1739, 7709.881
332.6560, 7707.942
333.1381, 7705.401
333.6202, 7701.931
334.1024, 7695.613
334.5845, 7682.571
335.0666, 7672.391
335.5487, 7672.073
336.0308, 7688.620
336.5129, 7694.193
336.9951, 7684.146
337.4772, 7665.910
337.9593, 7654.504
338.4414, 7652.067
338.9235, 7651.045
339.4056, 7648.993
339.8878, 7646.111
340.3699, 7641.168
340.8520, 7633.000
341.3341, 7625.192
341.8162, 7621.919
342.2983, 7623.281
342.7805, 7628.052
343.2626, 7636.779
343.7447, 7648.521
344.2268, 7658.518
344.7089, 7666.677
345.1910, 7673.048
345.6732, 7675.299
346.1553, 7674.365
346.6374, 7679.383
347.1195, 7694.779
347.6016, 7714.063
348.0837, 7722.024
348.5659, 7719.518
349.0480, 7718.852
349.5301, 7732.931
350.0122, 7755.466
350.4944, 7769.484
350.9765, 7772.284
351.4586, 7768.991
351.9407, 7765.920
352.4228, 7762.080
352.9049, 7753.971
353.3871, 7733.884
353.8692, 7711.067
354.3513, 7698.362
354.8334, 7696.632
355.3155, 7698.387
355.7976, 7698.704
356.2798, 7698.174
356.7619, 7697.807
357.2440, 7695.893
357.7261, 7695.665
358.2082, 7700.816
358.6903, 7710.468
359.1725, 7719.102
359.6546, 7721.551
360.1367, 7722.624
360.6188, 7726.440
361.1009, 7733.934
361.5830, 7744.332
362.0652, 7759.979
362.5473, 7778.521
363.0294, 7794.126
363.5115, 7811.130
363.9936, 7820.020
364.4757, 7813.970
364.9579, 7787.511
365.4400, 7762.143
365.9221, 7740.976
366.4042, 7723.679
366.8863, 7709.814
367.3684, 7700.420
367.8506, 7693.529
368.3327, 7690.641
368.8148, 7692.492
369.2969, 7689.167
369.7790, 7673.391
370.2611, 7657.502
370.7433, 7650.120
371.2254, 7655.685
371.7075, 7662.852
372.1896, 7671.728
372.6717, 7681.587
373.1538, 7689.485
373.6360, 7695.294
374.1181, 7699.123
374.6002, 7700.615
375.0823, 7698.990
375.5645, 7697.186
376.0466, 7693.960
376.5287, 7691.922
377.0108, 7697.006
377.4929, 7711.165
377.9750, 7722.778
378.4572, 7726.852
378.9393, 7724.422
379.4214, 7724.236
379.9035, 7726.318
380.3856, 7730.789
380.8677, 7738.817
381.3499, 7750.073
381.8320, 7760.174
382.3141, 7768.134
382.7962, 7774.465
383.2783, 7780.616
383.7604, 7786.416
384.2426, 7790.787
384.7247, 7792.358
385.2068, 7791.923
385.6889, 7790.882
386.1710, 7788.879
386.6531, 7788.345
387.1353, 7793.666
387.6174, 7802.747
388.0995, 7810.173
388.5816, 7811.186
389.0637, 7810.818
389.5458, 7816.131
390.0280, 7827.114
390.5101, 7834.863
390.9922, 7828.558
391.4743, 7817.836
391.9564, 7813.560
392.4385, 7823.812
392.9207, 7835.396
393.4028, 7841.702
393.8849, 7843.844
394.3670, 7845.186
394.8491, 7845.366
395.3312, 7846.130
395.8134, 7848.069
396.2955, 7850.478
396.7776, 7856.174
397.2597, 7870.470
397.7418, 7886.917
398.2239, 7897.173
398.7061, 7891.016
399.1882, 7887.859
399.6703, 7893.612
400.1524, 7908.805
400.6346, 7921.519
401.1167, 7929.009
401.5988, 7936.311
402.0809, 7946.466
402.5630, 7958.599
403.0451, 7975.362
403.5273, 7997.482
404.0094, 8023.909
404.4915, 8051.679
404.9736, 8080.839
405.4557, 8111.054
405.9378, 8142.436
406.4200, 8174.975
406.9021, 8208.886
407.3842, 8244.700
407.8663, 8279.941
408.3484, 8315.902
408.8305, 8353.087
409.3127, 8372.487
409.7948, 8368.183
410.2769, 8343.478
410.7590, 8302.396
411.2411, 8244.798
411.7232, 8184.852
412.2054, 8127.886
412.6875, 8075.974
413.1696, 8037.922
413.6517, 8016.211
414.1338, 8002.085
414.6159, 7985.143
415.0981, 7967.492
415.5802, 7955.225
416.0623, 7953.861
416.5444, 7957.821
417.0265, 7962.470
417.5086, 7967.511
417.9908, 7971.718
418.4729, 7975.422
418.9550, 7977.278
419.4371, 7975.566
419.9192, 7965.073
420.4013, 7956.675
420.8835, 7955.832
421.3656, 7960.881
421.8477, 7966.810
422.3298, 7975.268
422.8119, 7981.837
423.2940, 7984.015
423.7762, 7979.903
424.2583, 7976.730
424.7404, 7974.369
425.2225, 7973.861
425.7047, 7976.542
426.1868, 7989.325
426.6689, 7995.907
427.1510, 7989.161
427.6331, 7971.244
428.1152, 7967.851
428.5974, 7987.204
429.0795, 8008.757
429.5616, 8019.858
430.0437, 8017.640
430.5258, 8016.919
431.0079, 8018.620
431.4901, 8021.529
431.9722, 8022.417
432.4543, 8020.631
432.9364, 8022.932
433.4185, 8034.074
433.9006, 8051.490
434.3828, 8062.143
434.8649, 8065.475
435.3470, 8069.057
435.8291, 8082.702
436.3112, 8102.745
436.7933, 8116.522
437.2755, 8120.402
437.7576, 8120.140
438.2397, 8123.957
438.7218, 8130.071
439.2039, 8132.288
439.6860, 8122.865
440.1682, 8110.266
440.6503, 8103.058
441.1324, 8101.709
441.6145, 8103.409
442.0966, 8107.694
442.5787, 8113.405
443.0609, 8119.313
443.5430, 8126.862
444.0251, 8132.238
444.5072, 8131.187
444.9893, 8126.050
445.4714, 8125.495
445.9536, 8133.889
446.4357, 8145.282
446.9178, 8157.033
447.3999, 8168.095
447.8820, 8182.651
448.3641, 8203.063
448.8463, 8226.084
449.3284, 8248.192
449.8105, 8266.006
450.2926, 8289.176
450.7747, 8320.006
451.2569, 8357.862
451.7390, 8397.087
452.2211, 8436.834
452.7032, 8480.717
453.1853, 8531.583
453.6674, 8590.100
454.1496, 8648.619
454.6317, 8707.024
455.1138, 8765.425
455.5959, 8826.833
456.0780, 8890.513
456.5602, 8944.631
457.0423, 8996.716
457.5244, 9029.451
458.0065, 9000.112
458.4886, 8912.517
458.9707, 8804.529
459.4529, 8690.542
459.9350, 8578.341
460.4171, 8483.702
460.8992, 8408.747
461.3813, 8346.814
461.8634, 8293.916
462.3456, 8249.913
462.8277, 8215.685
463.3098, 8194.924
463.7919, 8180.425
464.2740, 8168.702
464.7561, 8159.642
465.2383, 8154.466
465.7204, 8157.040
466.2025, 8160.962
466.6846, 8161.712
467.1667, 8151.362
467.6488, 8149.607
468.1310, 8164.972
468.6131, 8187.323
469.0952, 8200.417
469.5773, 8197.350
470.0594, 8196.046
470.5415, 8201.638
471.0237, 8213.835
471.5058, 8223.674
471.9879, 8230.501
472.4700, 8236.622
472.9521, 8243.529
473.4342, 8251.294
473.9164, 8259.850
474.3985, 8269.458
474.8806, 8279.612
475.3627, 8288.912
475.8448, 8297.600
476.3270, 8308.168
476.8091, 8320.912
477.2912, 8336.438
477.7733, 8357.689
478.2554, 8384.244
478.7375, 8409.765
479.2197, 8425.629
479.7018, 8438.909
480.1839, 8459.667
480.6660, 8491.419
481.1481, 8526.197
481.6302, 8560.553
482.1124, 8594.113
482.5945, 8626.244
483.0766, 8668.405
483.5587, 8698.478
484.0408, 8707.827
484.5229, 8696.214
485.0051, 8666.396
485.4872, 8605.376
485.9693, 8535.634
486.4514, 8470.374
486.9335, 8407.890
487.4156, 8352.549
487.8978, 8303.327
488.3799, 8262.094
488.8620, 8230.794
489.3441, 8211.552
489.8262, 8197.299
490.3083, 8187.387
490.7905, 8181.106
491.2726, 8172.460
491.7547, 8160.483
492.2368, 8150.711
492.7189, 8149.550
493.2010, 8155.360
493.6832, 8155.719
494.1653, 8147.989
494.6474, 8140.327
495.1295, 8146.328
495.6116, 8161.341
496.0938, 8171.000
496.5759, 8165.042
497.0580, 8154.735
497.5401, 8152.657
498.0222, 8157.409
498.5044, 8162.009
498.9865, 8161.885
499.4686, 8160.447
499.9507, 8160.276
500.4328, 8161.815
500.9149, 8164.572
501.3971, 8170.024
501.8792, 8176.060
502.3613, 8180.226
502.8434, 8182.429
503.3255, 8182.391
503.8076, 8177.760
504.2898, 8170.155
504.7719, 8167.596
505.2540, 8173.532
505.7361, 8179.220
506.2182, 8180.979
506.7003, 8178.268
507.1825, 8174.399
507.6646, 8168.810
508.1467, 8163.331
508.6288, 8160.680
509.1109, 8160.913
509.5930, 8159.650
510.0752, 8155.803
510.5573, 8150.607
511.0394, 8144.944
511.5215, 8139.396
512.0037, 8137.279
512.4858, 8144.352
512.9679, 8154.303
513.4500, 8156.500
513.9321, 8150.714
514.4142, 8146.501
514.8964, 8155.253
515.3785, 8166.882
515.8606, 8169.863
516.3427, 8156.155
516.8248, 8142.802
517.3069, 8136.434
517.7891, 8134.860
518.2712, 8134.040
518.7533, 8130.925
519.2354, 8130.692
519.7175, 8135.790
520.1996, 8146.087
520.6818, 8156.135
521.1639, 8167.998
521.6460, 8177.138
522.1281, 8179.889
522.6102, 8173.768
523.0923, 8171.391
523.5745, 8174.217
524.0566, 8178.807
524.5387, 8179.528
525.0208, 8176.375
525.5029, 8175.005
525.9850, 8177.756
526.4672, 8182.671
526.9493, 8186.332
527.4314, 8188.647
527.9135, 8188.781
528.3956, 8185.341
528.8777, 8179.813
529.3599, 8173.774
529.8420, 8167.221
530.3241, 8161.765
530.8062, 8159.198
531.2883, 8157.993
531.7704, 8156.375
532.2526, 8151.068
532.7347, 8148.979
533.2168, 8153.798
533.6989, 8163.364
534.1810, 8172.702
534.6631, 8184.236
535.1453, 8192.161
535.6274, 8194.084
536.1095, 8189.898
536.5916, 8185.678
537.0737, 8179.810
537.5558, 8176.361
538.0380, 8179.528
538.5201, 8190.978
539.0022, 8196.845
539.4843, 8194.929
539.9664, 8190.261
540.4485, 8189.446
540.9307, 8192.292
541.4128, 8198.227
541.8949, 8209.196
542.3770, 8220.729
542.8591, 8224.491
543.3412, 8221.591
543.8234, 8218.627
544.3055, 8221.042
544.7876, 8224.313
545.2697, 8223.334
545.7518, 8217.225
546.2339, 8211.877
546.7161, 8210.927
547.1982, 8211.728
547.6803, 8211.900
548.1624, 8208.983
548.6445, 8208.223
549.1266, 8214.126
549.6088, 8222.392
550.0909, 8224.167
550.5730, 8217.101
551.0551, 8207.646
551.5372, 8196.104
552.0193, 8183.199
552.5015, 8176.963
552.9836, 8179.132
553.4657, 8181.961
553.9478, 8178.841
554.4299, 8170.616
554.9120, 8167.465
555.3942, 8170.474
555.8763, 8175.060
556.3584, 8174.920
556.8405, 8172.113
557.3226, 8172.372
557.8047, 8179.103
558.2869, 8186.791
558.7690, 8190.244
559.2511, 8190.614
559.7332, 8190.808
560.2154, 8193.646
560.6975, 8195.502
561.1796, 8193.786
561.6617, 8188.397
562.1439, 8184.455
562.6260, 8183.330
563.1081, 8183.933
563.5902, 8185.900
564.0723, 8191.702
564.5544, 8193.164
565.0366, 8187.008
565.5187, 8179.661
566.0008, 8180.834
566.4829, 8192.256
566.9650, 8202.042
567.4471, 8207.048
567.9293, 8209.199
568.4114, 8213.116
568.8935, 8218.643
569.3756, 8224.540
569.8577, 8229.774
570.3398, 8234.941
570.8220, 8241.612
571.3041, 8249.761
571.7862, 8256.580
572.2683, 8258.176
572.7504, 8258.624
573.2325, 8262.823
573.7147, 8274.221
574.1968, 8282.889
574.6789, 8282.637
575.1610, 8278.552
575.6431, 8277.191
576.1252, 8279.956
576.6074, 8285.316
577.0895, 8294.059
577.5716, 8305.389
578.0537, 8315.663
578.5358, 8322.705
579.0179, 8333.973
579.5001, 8354.283
579.9822, 8382.917
580.4643, 8404.349
580.9464, 8417.409
581.4285, 8430.919
581.9106, 8453.403
582.3928, 8482.752
582.8749, 8511.272
583.3570, 8537.524
583.8391, 8565.451
584.3212, 8601.099
584.8033, 8640.968
585.2855, 8679.201
585.7676, 8708.135
586.2497, 8740.919
586.7318, 8786.328
587.2139, 8841.158
587.6960, 8896.231
588.1782, 8948.499
