##NAMES=Silver
##RRUFFID=R070463
##IDEAL CHEMISTRY=Ag
##LOCALITY=Tsumeb mine, Tsumeb, Otavi District, Oshikoto, Namibia
##OWNER=RRUFF
##SOURCE=Michael Scott
##DESCRIPTION=Silvery gold metallic blebs, associated with rhobohedral calcite and green prismatic malachite. 
##STATUS=The identification of this mineral is confirmed by single-crystal X-ray diffraction and chemical analysis.
##URL=rruff.info/R070463
##MEASURED CHEMISTRY=Ag ; (Hg trace)
139.7201, 20975.85
140.2022, 21848.66
140.6843, 22861.84
141.1664, 23907.19
141.6486, 24950.03
142.1307, 26043.38
142.6128, 27237.03
143.0949, 28534.27
143.5770, 29878.07
144.0591, 31255.74
144.5413, 32654.04
145.0234, 34017.95
145.5055, 35323.21
145.9876, 36598.77
146.4697, 37895.28
146.9518, 39233.66
147.4340, 40511.11
147.9161, 41622.47
148.3982, 42610.29
148.8803, 43544.69
149.3624, 44525.52
149.8445, 45446.14
150.3266, 46115.61
150.8088, 46488.70
151.2909, 46739.13
151.7730, 46966.54
152.2551, 47169.10
152.7372, 47334.21
153.2193, 47420.27
153.7015, 47469.61
154.1836, 47576.14
154.6657, 47752.91
155.1478, 47962.59
155.6299, 48164.20
156.1120, 48376.01
156.5942, 48642.30
157.0763, 48978.48
157.5584, 49383.53
158.0405, 49863.24
158.5226, 50435.20
159.0047, 51058.16
159.4869, 51708.30
159.9690, 52385.72
160.4511, 53098.18
160.9332, 53834.62
161.4153, 54478.31
161.8974, 54872.63
162.3796, 55273.98
162.8617, 55656.49
163.3438, 56026.80
163.8259, 56377.06
164.3080, 56699.11
164.7901, 56996.85
165.2723, 57268.48
165.7544, 57478.21
166.2365, 57635.43
166.7186, 57726.47
167.2007, 57742.05
167.6828, 57704.02
168.1650, 57645.83
168.6471, 57584.84
169.1292, 57525.31
169.6113, 57489.01
170.0934, 57538.96
170.5755, 57541.00
171.0577, 57425.89
171.5398, 57241.04
172.0219, 57070.35
172.5040, 56970.70
172.9861, 56935.26
173.4682, 56900.08
173.9504, 56852.66
174.4325, 56816.25
174.9146, 56775.04
175.3967, 56747.10
175.8788, 56766.95
176.3609, 56864.39
176.8431, 57029.57
177.3252, 57166.30
177.8073, 57245.28
178.2894, 57317.20
178.7715, 57382.84
179.2536, 57448.28
179.7358, 57522.75
180.2179, 57613.20
180.7000, 57717.53
181.1821, 57815.87
181.6642, 57891.72
182.1463, 57978.06
182.6285, 58101.42
183.1106, 58237.97
183.5927, 58349.93
184.0748, 58412.59
184.5569, 58430.15
185.0390, 58430.59
185.5212, 58398.99
186.0033, 58365.87
186.4854, 58329.62
186.9675, 58296.48
187.4496, 58280.02
187.9317, 58291.38
188.4139, 58321.38
188.8960, 58308.20
189.3781, 58182.67
189.8602, 58085.85
190.3423, 58053.90
190.8244, 58060.80
191.3066, 58069.11
191.7887, 58058.22
192.2708, 58029.14
192.7529, 57987.96
193.2350, 57930.83
193.7171, 57863.75
194.1993, 57764.27
194.6814, 57660.92
195.1635, 57593.92
195.6456, 57585.02
196.1277, 57621.51
196.6098, 57653.71
197.0920, 57725.81
197.5741, 57741.97
198.0562, 57652.55
198.5383, 57516.00
199.0204, 57407.44
199.5025, 57361.78
199.9847, 57358.30
200.4668, 57334.69
200.9489, 57285.42
201.4310, 57220.64
201.9131, 57117.40
202.3952, 57008.07
202.8774, 56928.29
203.3595, 56892.38
203.8416, 56891.27
204.3237, 56905.07
204.8058, 56986.36
205.2879, 57013.06
205.7701, 56952.01
206.2522, 56850.38
206.7343, 56744.16
207.2164, 56647.17
207.6985, 56566.91
208.1806, 56519.23
208.6628, 56536.02
209.1449, 56537.26
209.6270, 56514.40
210.1091, 56479.82
210.5912, 56438.84
211.0733, 56394.05
211.5555, 56353.86
212.0376, 56331.21
212.5197, 56331.34
213.0018, 56340.64
213.4839, 56365.53
213.9660, 56394.43
214.4482, 56425.24
214.9303, 56454.69
215.4124, 56470.42
215.8945, 56453.52
216.3766, 56385.54
216.8587, 56337.92
217.3409, 56323.42
217.8230, 56317.46
218.3051, 56314.49
218.7872, 56308.93
219.2693, 56285.93
219.7514, 56227.55
220.2336, 56124.96
220.7157, 56028.78
221.1978, 55940.46
221.6799, 55856.78
222.1620, 55771.47
222.6441, 55687.73
223.1263, 55619.76
223.6084, 55583.21
224.0905, 55582.68
224.5726, 55564.25
225.0547, 55533.97
225.5368, 55484.48
226.0190, 55402.71
226.5011, 55298.35
226.9832, 55191.69
227.4653, 55096.80
227.9474, 55013.97
228.4296, 54947.99
228.9117, 54917.96
229.3938, 54883.31
229.8759, 54838.42
230.3580, 54780.66
230.8401, 54700.00
231.3223, 54585.56
231.8044, 54450.86
232.2865, 54375.83
232.7686, 54442.69
233.2507, 54477.46
233.7328, 54436.85
234.2150, 54354.70
234.6971, 54273.58
235.1792, 54212.77
235.6613, 54171.29
236.1434, 54148.66
236.6255, 54183.11
237.1077, 54184.70
237.5898, 54149.31
238.0719, 54079.59
238.5540, 53961.59
239.0361, 53794.43
239.5182, 53617.41
240.0004, 53513.32
240.4825, 53572.09
240.9646, 53551.23
241.4467, 53401.59
241.9288, 53212.21
242.4109, 53042.12
242.8931, 52907.59
243.3752, 52799.02
243.8573, 52710.19
244.3394, 52665.74
244.8215, 52573.55
245.3036, 52406.32
245.7858, 52222.10
246.2679, 52051.57
246.7500, 51896.77
247.2321, 51743.45
247.7142, 51573.92
248.1963, 51381.81
248.6785, 51214.04
249.1606, 51086.98
249.6427, 50967.70
250.1248, 50857.66
250.6069, 50746.16
251.0890, 50607.63
251.5712, 50411.20
252.0533, 50163.34
252.5354, 49979.11
253.0175, 49928.36
253.4996, 49865.57
253.9817, 49738.04
254.4639, 49576.78
254.9460, 49440.17
255.4281, 49369.53
255.9102, 49332.62
256.3923, 49205.73
256.8744, 48912.02
257.3565, 48653.04
257.8387, 48503.34
258.3208, 48393.36
258.8029, 48242.98
259.2850, 48017.11
259.7671, 47766.64
260.2492, 47599.89
260.7314, 47562.34
261.2135, 47480.02
261.6956, 47296.33
262.1777, 47072.92
262.6598, 46840.03
263.1419, 46606.90
263.6241, 46388.94
264.1062, 46213.82
264.5883, 46090.29
265.0704, 45941.94
265.5525, 45743.94
266.0346, 45529.70
266.5168, 45312.57
266.9989, 45095.30
267.4810, 44880.18
267.9631, 44669.06
268.4452, 44461.93
268.9273, 44257.11
269.4095, 44048.77
269.8916, 43850.03
270.3737, 43671.59
270.8558, 43506.59
271.3379, 43338.26
271.8200, 43154.82
272.3022, 42959.93
272.7843, 42762.00
273.2664, 42555.71
273.7485, 42356.71
274.2306, 42169.58
274.7127, 41993.96
275.1949, 41834.56
275.6770, 41703.76
276.1591, 41577.04
276.6412, 41435.11
277.1233, 41279.25
277.6054, 41076.90
278.0876, 40770.91
278.5697, 40431.75
279.0518, 40166.56
279.5339, 40003.97
280.0160, 39861.55
280.4981, 39680.51
280.9803, 39468.36
281.4624, 39264.16
281.9445, 39088.72
282.4266, 38914.36
282.9087, 38689.84
283.3908, 38405.41
283.8730, 38154.20
284.3551, 37997.03
284.8372, 37890.78
285.3193, 37757.30
285.8014, 37581.00
286.2835, 37385.84
286.7657, 37194.59
287.2478, 37007.74
287.7299, 36825.05
288.2120, 36653.00
288.6941, 36482.25
289.1762, 36301.54
289.6584, 36111.20
290.1405, 35924.29
290.6226, 35750.21
291.1047, 35588.68
291.5868, 35425.08
292.0689, 35264.12
292.5511, 35097.16
293.0332, 34907.04
293.5153, 34706.46
293.9974, 34526.80
294.4795, 34386.36
294.9616, 34275.13
295.4438, 34161.67
295.9259, 34048.10
296.4080, 33928.98
296.8901, 33805.72
297.3722, 33675.51
297.8543, 33532.29
298.3365, 33374.33
298.8186, 33212.71
299.3007, 33066.39
299.7828, 32945.01
300.2649, 32817.86
300.7470, 32683.60
301.2292, 32545.41
301.7113, 32394.46
302.1934, 32237.62
302.6755, 32103.13
303.1576, 32024.94
303.6397, 32011.04
304.1219, 31952.23
304.6040, 31813.94
305.0861, 31666.74
305.5682, 31526.98
306.0503, 31394.66
306.5324, 31262.26
307.0146, 31124.72
307.4967, 30987.29
307.9788, 30869.59
308.4609, 30794.60
308.9430, 30702.11
309.4251, 30579.52
309.9073, 30437.72
310.3894, 30282.57
310.8715, 30116.28
311.3536, 29950.51
311.8357, 29801.13
312.3178, 29666.94
312.8000, 29552.34
313.2821, 29483.30
313.7642, 29414.51
314.2463, 29315.42
314.7284, 29187.34
315.2105, 29059.21
315.6927, 28957.61
316.1748, 28876.99
316.6569, 28783.99
317.1390, 28677.12
317.6211, 28556.80
318.1032, 28405.31
318.5854, 28241.73
319.0675, 28109.72
319.5496, 28050.23
320.0317, 28013.64
320.5138, 27918.46
320.9959, 27759.25
321.4781, 27624.06
321.9602, 27574.72
322.4423, 27569.79
322.9244, 27527.95
323.4065, 27433.80
323.8886, 27327.25
324.3708, 27240.06
324.8529, 27159.64
325.3350, 27039.57
325.8171, 26851.93
326.2992, 26655.68
326.7813, 26552.03
327.2635, 26553.87
327.7456, 26539.49
328.2277, 26493.53
328.7098, 26418.17
329.1919, 26304.68
329.6740, 26155.79
330.1562, 26003.06
330.6383, 25872.99
331.1204, 25766.62
331.6025, 25666.03
332.0846, 25574.27
332.5667, 25484.62
333.0489, 25393.80
333.5310, 25302.94
334.0131, 25213.26
334.4952, 25125.92
334.9773, 25040.53
335.4594, 24954.65
335.9416, 24857.25
336.4237, 24775.30
336.9058, 24722.50
337.3879, 24677.81
337.8700, 24626.92
338.3521, 24564.60
338.8343, 24488.16
339.3164, 24384.82
339.7985, 24236.84
340.2806, 24139.95
340.7627, 24153.55
341.2448, 24164.09
341.7270, 24118.08
342.2091, 24031.60
342.6912, 23952.88
343.1733, 23916.31
343.6554, 23910.27
344.1375, 23894.39
344.6197, 23871.27
345.1018, 23831.13
345.5839, 23747.67
346.0660, 23656.52
346.5481, 23602.33
347.0302, 23604.18
347.5124, 23610.45
347.9945, 23553.50
348.4766, 23436.99
348.9587, 23348.86
349.4408, 23323.00
349.9229, 23316.60
350.4051, 23286.11
350.8872, 23232.96
351.3693, 23177.54
351.8514, 23121.44
352.3335, 23070.89
352.8156, 23041.70
353.2978, 23037.31
353.7799, 23027.48
354.2620, 22985.08
354.7441, 22915.87
355.2262, 22864.87
355.7083, 22838.56
356.1905, 22824.15
356.6726, 22827.03
357.1547, 22836.72
357.6368, 22825.13
358.1189, 22777.62
358.6010, 22712.85
359.0832, 22670.66
359.5653, 22670.33
360.0474, 22658.97
360.5295, 22628.12
361.0116, 22589.84
361.4937, 22548.33
361.9759, 22507.29
362.4580, 22477.76
362.9401, 22473.67
363.4222, 22498.24
363.9043, 22501.35
364.3864, 22468.15
364.8686, 22428.82
365.3507, 22385.06
365.8328, 22341.43
366.3149, 22301.69
366.7970, 22267.10
367.2791, 22240.83
367.7613, 22234.40
368.2434, 22261.35
368.7255, 22269.49
369.2076, 22224.72
369.6897, 22175.58
370.1718, 22158.11
370.6540, 22173.95
371.1361, 22191.30
371.6182, 22183.43
372.1003, 22154.85
372.5824, 22127.84
373.0645, 22104.02
373.5467, 22081.22
374.0288, 22059.23
374.5109, 22037.30
374.9930, 22013.22
375.4751, 21981.52
375.9572, 21952.44
376.4394, 21936.58
376.9215, 21932.68
377.4036, 21935.33
377.8857, 21949.63
378.3678, 21959.83
378.8499, 21924.89
379.3321, 21825.85
379.8142, 21753.62
380.2963, 21743.83
380.7784, 21762.81
381.2605, 21784.12
381.7426, 21800.42
382.2248, 21796.67
382.7069, 21753.18
383.1890, 21666.34
383.6711, 21616.71
384.1532, 21637.12
384.6353, 21652.78
385.1175, 21632.46
385.5996, 21593.84
386.0817, 21568.15
386.5638, 21569.88
387.0459, 21583.33
387.5280, 21573.64
388.0102, 21526.24
388.4923, 21489.81
388.9744, 21478.59
389.4565, 21469.19
389.9386, 21440.78
390.4207, 21397.69
390.9029, 21366.29
391.3850, 21372.67
391.8671, 21409.04
392.3492, 21435.53
392.8313, 21445.09
393.3134, 21460.32
393.7956, 21515.86
394.2777, 21576.53
394.7598, 21590.70
395.2419, 21535.44
395.7240, 21459.54
396.2061, 21394.52
396.6883, 21341.70
397.1704, 21307.34
397.6525, 21297.00
398.1346, 21298.00
398.6167, 21294.34
399.0988, 21285.72
399.5810, 21283.47
400.0631, 21300.02
400.5452, 21316.05
401.0273, 21316.58
401.5094, 21301.63
401.9915, 21274.02
402.4737, 21231.07
402.9558, 21181.16
403.4379, 21164.24
403.9200, 21229.93
404.4021, 21265.74
404.8842, 21228.24
405.3664, 21174.47
405.8485, 21167.49
406.3306, 21216.76
406.8127, 21277.57
407.2948, 21296.14
407.7769, 21266.79
408.2591, 21241.92
408.7412, 21219.90
409.2233, 21204.61
409.7054, 21202.79
410.1875, 21207.44
410.6696, 21205.16
411.1518, 21186.87
411.6339, 21166.63
412.1160, 21170.60
412.5981, 21200.95
413.0802, 21224.62
413.5623, 21232.25
414.0445, 21228.93
414.5266, 21219.96
415.0087, 21205.32
415.4908, 21190.38
415.9729, 21175.45
416.4550, 21162.34
416.9372, 21155.95
417.4193, 21156.18
417.9014, 21152.25
418.3835, 21134.19
418.8656, 21106.08
419.3477, 21092.24
419.8299, 21088.61
420.3120, 21101.44
420.7941, 21155.94
421.2762, 21218.08
421.7583, 21239.87
422.2404, 21210.62
422.7226, 21163.96
423.2047, 21142.42
423.6868, 21153.35
424.1689, 21153.68
424.6510, 21125.31
425.1331, 21105.45
425.6153, 21109.42
426.0974, 21130.52
426.5795, 21158.43
427.0616, 21190.72
427.5437, 21218.12
428.0258, 21218.69
428.5080, 21186.24
428.9901, 21161.48
429.4722, 21148.17
429.9543, 21151.13
430.4364, 21183.63
430.9185, 21242.24
431.4007, 21285.26
431.8828, 21276.37
432.3649, 21246.29
432.8470, 21243.35
433.3291, 21269.67
433.8112, 21301.34
434.2934, 21326.83
434.7755, 21345.79
435.2576, 21357.95
435.7397, 21363.21
436.2218, 21363.07
436.7039, 21347.11
437.1861, 21331.41
437.6682, 21343.17
438.1503, 21383.91
438.6324, 21420.42
439.1145, 21415.06
439.5966, 21363.84
440.0788, 21331.52
440.5609, 21330.49
441.0430, 21336.21
441.5251, 21339.08
442.0072, 21346.89
442.4893, 21378.90
442.9715, 21443.83
443.4536, 21505.20
443.9357, 21497.10
444.4178, 21411.88
444.8999, 21371.23
445.3820, 21423.03
445.8642, 21483.30
446.3463, 21489.20
446.8284, 21452.97
447.3105, 21416.21
447.7926, 21394.73
448.2747, 21379.33
448.7569, 21360.71
449.2390, 21339.43
449.7211, 21319.00
450.2032, 21301.42
450.6853, 21284.56
451.1674, 21262.25
451.6496, 21226.30
452.1317, 21208.71
452.6138, 21236.27
453.0959, 21265.82
453.5780, 21258.96
454.0602, 21220.62
454.5423, 21182.46
455.0244, 21166.98
455.5065, 21169.11
455.9886, 21164.16
456.4707, 21155.39
456.9529, 21132.93
457.4349, 21080.41
457.9171, 21025.45
458.3992, 20991.25
458.8813, 20980.01
459.3634, 20975.69
459.8455, 20968.00
460.3276, 20956.24
460.8098, 20935.88
461.2919, 20903.43
461.7740, 20873.60
462.2561, 20864.68
462.7382, 20860.56
463.2203, 20827.60
463.7025, 20743.47
464.1846, 20671.26
464.6667, 20659.98
465.1488, 20677.12
465.6309, 20663.47
466.1130, 20607.35
466.5952, 20544.70
467.0773, 20513.17
467.5594, 20515.79
468.0415, 20495.25
468.5236, 20431.14
469.0057, 20371.26
469.4879, 20338.74
469.9700, 20314.59
470.4521, 20265.54
470.9342, 20182.22
471.4163, 20099.81
471.8984, 20082.17
472.3806, 20141.74
472.8627, 20141.25
473.3448, 20024.61
473.8269, 19911.62
474.3090, 19878.28
474.7911, 19891.35
475.2733, 19881.56
475.7554, 19815.88
476.2375, 19736.29
476.7196, 19685.58
477.2017, 19657.38
477.6838, 19621.03
478.1660, 19563.99
478.6481, 19508.56
479.1302, 19486.76
479.6123, 19506.69
480.0944, 19502.47
480.5765, 19458.77
481.0587, 19404.29
481.5408, 19340.11
482.0229, 19278.43
482.5050, 19247.21
482.9871, 19259.34
483.4692, 19287.03
483.9514, 19273.71
484.4335, 19200.57
484.9156, 19142.35
485.3977, 19106.55
485.8798, 19082.59
486.3619, 19077.06
486.8441, 19080.27
487.3262, 19068.68
487.8083, 19023.42
488.2904, 18968.82
488.7725, 18946.13
489.2546, 18953.50
489.7368, 18947.48
490.2189, 18909.80
490.7010, 18862.24
491.1831, 18832.25
491.6652, 18819.52
492.1473, 18811.85
492.6295, 18825.10
493.1116, 18827.66
493.5937, 18786.84
494.0758, 18716.45
494.5579, 18652.84
495.0400, 18613.65
495.5222, 18594.90
496.0043, 18591.90
496.4864, 18623.10
496.9685, 18628.49
497.4506, 18578.82
497.9327, 18531.14
498.4149, 18522.47
498.8970, 18539.65
499.3791, 18542.11
499.8612, 18499.62
500.3433, 18444.67
500.8254, 18437.77
501.3076, 18479.24
501.7897, 18511.93
502.2718, 18518.56
502.7539, 18511.57
503.2360, 18501.16
503.7181, 18487.29
504.2003, 18483.15
504.6824, 18508.56
505.1645, 18529.50
505.6466, 18510.81
506.1287, 18466.57
506.6108, 18440.59
507.0930, 18454.14
507.5751, 18481.97
508.0572, 18471.85
508.5393, 18398.55
509.0214, 18349.21
509.5035, 18327.75
509.9857, 18325.01
510.4678, 18355.77
510.9499, 18400.76
511.4320, 18419.41
511.9141, 18386.96
512.3962, 18333.07
512.8784, 18304.16
513.3605, 18299.00
513.8426, 18283.71
514.3247, 18245.31
514.8068, 18204.05
515.2889, 18185.06
515.7711, 18185.64
516.2532, 18180.41
516.7353, 18161.85
517.2174, 18140.73
517.6995, 18122.02
518.1816, 18105.69
518.6638, 18093.41
519.1459, 18085.64
519.6280, 18074.05
520.1101, 18041.88
520.5922, 17977.67
521.0743, 17944.14
521.5565, 17967.66
522.0386, 17995.60
522.5207, 18012.54
523.0028, 18022.78
523.4849, 18035.93
523.9670, 18056.62
524.4492, 18073.11
524.9313, 18066.39
525.4134, 18042.37
525.8955, 18036.67
526.3776, 18061.78
526.8597, 18077.09
527.3419, 18039.55
527.8240, 17957.56
528.3061, 17910.46
528.7882, 17922.03
529.2703, 17939.51
529.7524, 17954.77
530.2346, 17961.91
530.7167, 17947.49
531.1988, 17912.11
531.6809, 17879.17
532.1630, 17875.51
532.6451, 17899.35
533.1273, 17903.72
533.6094, 17877.90
534.0915, 17850.50
534.5736, 17828.97
535.0557, 17810.54
535.5378, 17787.30
536.0200, 17757.55
536.5021, 17746.70
536.9842, 17804.16
537.4663, 17879.57
537.9484, 17865.33
538.4305, 17757.48
538.9127, 17662.98
539.3948, 17646.49
539.8769, 17683.56
540.3590, 17703.63
540.8411, 17701.73
541.3232, 17691.11
541.8054, 17663.97
542.2875, 17635.44
542.7696, 17612.36
543.2517, 17597.58
543.7338, 17596.63
544.2159, 17616.31
544.6981, 17643.67
545.1802, 17646.65
545.6623, 17621.51
546.1444, 17594.51
546.6265, 17566.30
547.1086, 17543.40
547.5908, 17533.79
548.0729, 17535.08
548.5550, 17533.92
549.0371, 17528.70
549.5192, 17517.70
550.0013, 17488.49
550.4835, 17453.14
550.9656, 17446.18
551.4477, 17479.03
551.9298, 17520.81
552.4119, 17529.62
552.8940, 17499.05
553.3762, 17478.11
553.8583, 17472.55
554.3404, 17470.74
554.8225, 17478.52
555.3046, 17484.66
555.7867, 17469.16
556.2689, 17426.20
556.7510, 17390.46
557.2331, 17410.01
557.7152, 17461.95
558.1973, 17466.51
558.6794, 17412.10
559.1616, 17358.94
559.6437, 17346.54
560.1258, 17360.80
560.6079, 17353.83
561.0900, 17312.33
561.5721, 17278.12
562.0543, 17261.31
562.5364, 17251.86
563.0185, 17243.46
563.5006, 17234.81
563.9827, 17224.25
564.4648, 17209.20
564.9470, 17195.92
565.4291, 17207.15
565.9112, 17253.18
566.3933, 17271.74
566.8754, 17228.56
567.3575, 17179.12
567.8397, 17176.96
568.3218, 17208.74
568.8039, 17216.41
569.2860, 17160.44
569.7681, 17096.99
570.2502, 17057.66
570.7324, 17041.26
571.2145, 17055.23
571.6966, 17100.24
572.1787, 17141.13
572.6608, 17132.59
573.1429, 17070.93
573.6251, 17050.62
574.1072, 17118.40
574.5893, 17167.75
575.0714, 17166.61
575.5535, 17142.79
576.0356, 17122.13
576.5178, 17109.73
576.9999, 17099.55
577.4820, 17088.36
577.9641, 17076.04
578.4462, 17064.95
578.9283, 17054.84
579.4105, 17031.94
579.8926, 16983.59
580.3747, 16930.13
580.8568, 16912.94
581.3389, 16954.65
581.8210, 16979.58
582.3032, 16978.14
582.7853, 16969.28
583.2674, 16957.53
583.7495, 16946.96
584.2316, 16944.31
584.7137, 16952.75
585.1959, 16964.09
585.6780, 16971.55
586.1601, 16974.25
586.6422, 16952.30
587.1243, 16892.41
587.6064, 16837.90
588.0886, 16815.20
588.5707, 16820.02
589.0528, 16837.86
589.5349, 16884.40
590.0170, 16914.97
590.4991, 16905.98
590.9813, 16880.98
591.4634, 16856.89
591.9455, 16839.12
592.4276, 16835.51
592.9097, 16853.59
593.3918, 16882.93
593.8740, 16893.18
594.3561, 16880.14
594.8382, 16862.71
595.3203, 16834.01
595.8024, 16811.82
596.2845, 16808.25
596.7667, 16820.45
597.2488, 16839.91
597.7309, 16877.35
598.2130, 16904.91
598.6951, 16898.51
599.1772, 16870.43
599.6594, 16836.19
600.1415, 16801.38
600.6236, 16785.17
601.1057, 16811.21
601.5878, 16872.26
602.0699, 16890.24
602.5521, 16831.90
603.0342, 16786.90
603.5163, 16775.28
603.9984, 16778.43
604.4805, 16784.58
604.9626, 16792.44
605.4448, 16803.28
605.9269, 16828.73
606.4090, 16849.38
606.8911, 16839.68
607.3732, 16805.04
607.8553, 16762.31
608.3375, 16715.45
608.8196, 16676.29
609.3017, 16660.88
609.7838, 16672.08
610.2659, 16673.75
610.7480, 16658.27
611.2302, 16642.36
611.7123, 16633.58
612.1944, 16623.55
612.6765, 16596.83
613.1586, 16554.29
613.6407, 16524.48
614.1229, 16535.95
614.6050, 16571.05
615.0871, 16602.16
615.5692, 16628.28
616.0513, 16638.49
616.5334, 16626.84
617.0156, 16601.29
617.4977, 16569.13
617.9798, 16521.53
618.4619, 16508.41
618.9440, 16560.92
619.4261, 16609.01
619.9083, 16634.17
620.3904, 16636.96
620.8725, 16610.59
621.3546, 16556.51
621.8367, 16509.01
622.3188, 16505.59
622.8010, 16533.52
623.2831, 16556.50
623.7652, 16573.91
624.2473, 16582.94
624.7294, 16579.37
625.2115, 16571.44
625.6937, 16576.71
626.1758, 16607.96
626.6579, 16607.53
627.1400, 16540.30
627.6221, 16477.59
628.1042, 16453.94
628.5864, 16457.18
629.0685, 16470.61
629.5506, 16488.01
630.0327, 16499.89
630.5148, 16493.98
630.9969, 16473.59
631.4791, 16449.54
631.9612, 16419.80
632.4433, 16406.53
632.9254, 16427.40
633.4075, 16463.68
633.8896, 16479.71
634.3718, 16470.40
634.8539, 16460.59
635.3360, 16459.53
