##NAMES=Silver
##RRUFFID=R070463
##IDEAL CHEMISTRY=Ag
##LOCALITY=Tsumeb mine, Tsumeb, Otavi District, Oshikoto, Namibia
##OWNER=RRUFF
##SOURCE=Michael Scott
##DESCRIPTION=Silvery gold metallic blebs, associated with rhobohedral calcite and green prismatic malachite. 
##STATUS=The identification of this mineral is confirmed by single-crystal X-ray diffraction and chemical analysis.
##URL=rruff.info/R070463
##MEASURED CHEMISTRY=Ag ; (Hg trace)
137.6203, 2082.522
138.1024, 2172.917
138.5845, 2270.910
139.0667, 2362.732
139.5488, 2441.608
140.0309, 2506.151
140.5130, 2566.404
140.9951, 2624.365
141.4772, 2679.273
141.9594, 2724.395
142.4415, 2755.532
142.9236, 2784.482
143.4057, 2821.520
143.8878, 2869.574
144.3699, 2918.446
144.8521, 2967.705
145.3342, 3018.085
145.8163, 3060.041
146.2984, 3089.974
146.7805, 3114.437
147.2626, 3140.623
147.7448, 3161.700
148.2269, 3193.583
148.7090, 3243.477
149.1911, 3322.452
149.6732, 3386.004
150.1554, 3425.274
150.6375, 3451.017
151.1196, 3480.635
151.6017, 3511.161
152.0838, 3548.646
152.5659, 3595.208
153.0481, 3656.291
153.5302, 3718.567
154.0123, 3786.352
154.4944, 3855.687
154.9765, 3914.929
155.4586, 3954.894
155.9408, 3989.875
156.4229, 4026.730
156.9050, 4051.158
157.3871, 4057.782
157.8692, 4066.886
158.3513, 4078.791
158.8335, 4081.149
159.3156, 4063.598
159.7977, 4040.135
160.2798, 4021.187
160.7619, 4009.987
161.2440, 4003.045
161.7262, 4003.910
162.2083, 4012.660
162.6904, 4011.803
163.1725, 3978.142
163.6546, 3936.736
164.1367, 3915.537
164.6189, 3942.579
165.1010, 3977.525
165.5831, 3997.550
166.0652, 3998.674
166.5473, 3998.953
167.0294, 4010.688
167.5116, 4027.627
167.9937, 4039.432
168.4758, 4028.411
168.9579, 4017.734
169.4400, 4029.414
169.9221, 4074.392
170.4043, 4117.806
170.8864, 4129.914
171.3685, 4119.712
171.8506, 4112.101
172.3327, 4127.154
172.8148, 4149.789
173.2970, 4162.542
173.7791, 4158.212
174.2612, 4149.466
174.7433, 4147.121
175.2254, 4150.610
175.7076, 4157.128
176.1897, 4173.800
176.6718, 4190.909
177.1539, 4191.216
177.6360, 4157.437
178.1181, 4116.456
178.6003, 4101.438
179.0824, 4111.681
179.5645, 4133.261
180.0466, 4166.253
180.5287, 4203.083
181.0108, 4223.767
181.4930, 4208.542
181.9751, 4178.006
182.4572, 4172.973
182.9393, 4194.748
183.4214, 4221.683
183.9035, 4233.046
184.3857, 4230.902
184.8678, 4223.417
185.3499, 4206.086
185.8320, 4185.674
186.3141, 4185.688
186.7962, 4209.782
187.2784, 4238.184
187.7605, 4241.304
188.2426, 4222.267
188.7247, 4207.555
189.2068, 4218.010
189.6889, 4246.019
190.1711, 4255.552
190.6532, 4240.839
191.1353, 4216.716
191.6174, 4208.446
192.0995, 4215.949
192.5816, 4225.295
193.0638, 4226.666
193.5459, 4221.399
194.0280, 4223.203
194.5101, 4235.514
194.9922, 4252.703
195.4743, 4263.864
195.9565, 4269.052
196.4386, 4267.815
196.9207, 4235.278
197.4028, 4262.309
197.8849, 4277.229
198.3671, 4280.689
198.8492, 4238.364
199.3313, 4255.161
199.8134, 4248.264
200.2955, 4240.396
200.7776, 4265.514
201.2598, 4229.848
201.7419, 4254.443
202.2240, 4254.982
202.7061, 4266.532
203.1882, 4254.241
203.6703, 4249.314
204.1525, 4268.234
204.6346, 4273.950
205.1167, 4258.915
205.5988, 4271.164
206.0809, 4234.666
206.5630, 4240.944
207.0452, 4265.678
207.5273, 4251.842
208.0094, 4264.527
208.4915, 4247.061
208.9736, 4284.588
209.4557, 4310.396
209.9379, 4308.767
210.4200, 4279.339
210.9021, 4262.283
211.3842, 4262.493
211.8663, 4268.205
212.3484, 4262.090
212.8306, 4238.510
213.3127, 4221.208
213.7948, 4219.328
214.2769, 4235.123
214.7590, 4246.182
215.2411, 4250.261
215.7233, 4251.865
216.2054, 4259.042
216.6875, 4275.682
217.1696, 4287.980
217.6517, 4291.018
218.1338, 4283.606
218.6160, 4269.915
219.0981, 4219.915
219.5802, 4249.240
220.0623, 4266.310
220.5444, 4271.775
221.0265, 4231.311
221.5087, 4249.824
221.9908, 4244.499
222.4729, 4238.057
222.9550, 4264.457
223.4371, 4229.928
223.9192, 4255.516
224.4014, 4256.903
224.8835, 4269.155
225.3656, 4257.424
225.8477, 4252.911
226.3298, 4272.100
226.8119, 4277.940
227.2941, 4262.885
227.7762, 4274.969
228.2583, 4238.162
228.7404, 4243.985
229.2225, 4268.121
229.7046, 4253.542
230.1868, 4265.338
230.6689, 4266.889
231.1510, 4222.393
231.6331, 4257.582
232.1152, 4258.103
232.5974, 4223.030
233.0795, 4255.049
233.5616, 4224.575
234.0437, 4202.703
234.5258, 4217.183
235.0079, 4260.383
235.4901, 4277.585
235.9722, 4251.532
236.4543, 4223.185
236.9364, 4218.799
237.4185, 4257.348
237.9006, 4278.847
238.3828, 4271.703
238.8649, 4242.604
239.3470, 4227.990
239.8291, 4236.522
240.3112, 4248.730
240.7933, 4251.679
241.2755, 4239.522
241.7576, 4230.255
242.2397, 4227.535
242.7218, 4229.661
243.2039, 4224.362
243.6860, 4206.245
244.1682, 4187.210
244.6503, 4175.190
245.1324, 4171.147
245.6145, 4172.660
246.0966, 4184.710
246.5787, 4204.497
247.0609, 4205.967
247.5430, 4178.435
248.0251, 4145.864
248.5072, 4126.186
248.9893, 4126.444
249.4714, 4124.675
249.9536, 4116.641
250.4357, 4103.354
250.9178, 4096.688
251.3999, 4101.620
251.8820, 4106.936
252.3641, 4103.430
252.8463, 4086.250
253.3284, 4071.759
253.8105, 4065.372
254.2926, 4065.395
254.7747, 4051.642
255.2568, 4014.402
255.7390, 3976.107
256.2211, 3955.368
256.7032, 3960.491
257.1853, 3963.562
257.6674, 3959.852
258.1495, 3950.127
258.6317, 3942.730
259.1138, 3938.421
259.5959, 3935.379
260.0780, 3932.523
260.5601, 3930.534
261.0422, 3926.256
261.5244, 3916.918
262.0065, 3903.688
262.4886, 3901.455
262.9707, 3916.739
263.4528, 3932.548
263.9349, 3933.202
264.4171, 3911.687
264.8992, 3896.030
265.3813, 3893.208
265.8634, 3900.905
266.3455, 3898.254
266.8276, 3881.447
267.3098, 3861.295
267.7919, 3847.105
268.2740, 3841.317
268.7561, 3832.918
269.2382, 3820.014
269.7203, 3803.104
270.2025, 3783.646
270.6846, 3759.050
271.1667, 3737.839
271.6488, 3728.716
272.1309, 3734.815
272.6130, 3738.531
273.0952, 3737.162
273.5773, 3731.089
274.0594, 3721.363
274.5415, 3706.793
275.0236, 3692.159
275.5057, 3682.931
275.9879, 3680.423
276.4700, 3673.368
276.9521, 3657.407
277.4342, 3636.035
277.9163, 3627.090
278.3984, 3634.452
278.8806, 3639.946
279.3627, 3621.759
279.8448, 3577.334
280.3269, 3554.900
280.8090, 3571.212
281.2911, 3611.432
281.7733, 3624.124
282.2554, 3605.947
282.7375, 3578.177
283.2196, 3552.042
283.7017, 3527.593
284.1838, 3518.132
284.6660, 3530.098
285.1481, 3554.906
285.6302, 3572.397
286.1123, 3582.749
286.5944, 3584.181
287.0765, 3574.274
287.5587, 3553.573
288.0408, 3525.101
288.5229, 3484.269
289.0050, 3441.859
289.4871, 3424.309
289.9692, 3431.588
290.4514, 3443.198
290.9335, 3447.510
291.4156, 3444.638
291.8977, 3434.321
292.3798, 3414.902
292.8619, 3390.529
293.3441, 3364.443
293.8262, 3337.163
294.3083, 3320.028
294.7904, 3329.714
295.2726, 3356.304
295.7547, 3369.417
296.2368, 3364.070
296.7189, 3345.496
297.2010, 3313.012
297.6831, 3270.100
298.1653, 3236.440
298.6474, 3232.947
299.1295, 3246.482
299.6116, 3247.765
300.0937, 3230.209
300.5758, 3209.282
301.0580, 3209.846
301.5401, 3224.883
302.0222, 3229.116
302.5043, 3192.498
302.9864, 3140.894
303.4685, 3117.067
303.9507, 3130.094
304.4328, 3149.624
304.9149, 3146.410
305.3970, 3126.615
305.8791, 3105.196
306.3612, 3084.685
306.8434, 3069.075
307.3255, 3066.041
307.8076, 3078.143
308.2897, 3089.572
308.7718, 3086.677
309.2539, 3074.247
309.7361, 3061.195
310.2182, 3047.855
310.7003, 3037.784
311.1824, 3035.953
311.6645, 3043.323
312.1466, 3049.813
312.6288, 3050.881
313.1109, 3046.917
313.5930, 3038.624
314.0751, 3021.960
314.5572, 3004.370
315.0393, 2989.523
315.5215, 2977.624
316.0036, 2968.732
316.4857, 2964.294
316.9678, 2962.361
317.4499, 2960.721
317.9320, 2958.656
318.4142, 2956.840
318.8963, 2956.227
319.3784, 2956.684
319.8605, 2955.515
320.3426, 2955.166
320.8247, 2951.068
321.3069, 2939.550
321.7890, 2904.155
322.2711, 2877.334
322.7532, 2872.797
323.2353, 2887.120
323.7174, 2894.073
324.1996, 2876.167
324.6817, 2857.226
325.1638, 2851.759
325.6459, 2886.972
326.1280, 2906.168
326.6101, 2895.359
327.0923, 2861.271
327.5744, 2834.688
328.0565, 2820.842
328.5386, 2811.888
329.0207, 2804.549
329.5028, 2801.827
329.9850, 2796.627
330.4671, 2786.215
330.9492, 2773.573
331.4313, 2766.424
331.9134, 2768.950
332.3955, 2772.174
332.8777, 2772.561
333.3598, 2768.828
333.8419, 2765.733
334.3240, 2764.493
334.8061, 2763.152
335.2882, 2758.016
335.7704, 2747.880
336.2525, 2735.911
336.7346, 2721.685
337.2167, 2704.011
337.6988, 2693.440
338.1809, 2692.861
338.6631, 2695.392
339.1452, 2691.050
339.6273, 2677.999
340.1094, 2665.134
340.5915, 2654.725
341.0736, 2646.679
341.5558, 2640.136
342.0379, 2635.035
342.5200, 2631.445
343.0021, 2630.406
343.4842, 2632.131
343.9663, 2631.686
344.4485, 2627.278
344.9306, 2619.949
345.4127, 2612.547
345.8948, 2604.789
346.3769, 2600.251
346.8590, 2604.470
347.3412, 2615.842
347.8233, 2624.986
348.3054, 2631.248
348.7875, 2632.854
349.2696, 2622.204
349.7517, 2600.618
350.2339, 2581.844
350.7160, 2578.140
351.1981, 2584.316
351.6802, 2589.489
352.1623, 2592.519
352.6444, 2592.247
353.1266, 2583.065
353.6087, 2568.098
354.0908, 2558.663
354.5729, 2567.960
355.0550, 2583.456
355.5371, 2589.799
356.0193, 2584.752
356.5014, 2574.474
356.9835, 2557.661
357.4656, 2539.753
357.9477, 2530.772
358.4298, 2549.488
358.9120, 2568.764
359.3941, 2565.035
359.8762, 2536.223
360.3583, 2511.435
360.8404, 2510.453
361.3225, 2520.478
361.8047, 2526.994
362.2868, 2514.989
362.7689, 2508.153
363.2510, 2523.595
363.7331, 2558.660
364.2152, 2579.558
364.6974, 2559.173
365.1795, 2530.368
365.6616, 2515.825
366.1437, 2540.475
366.6258, 2556.040
367.1079, 2547.732
367.5901, 2522.200
368.0722, 2507.420
368.5543, 2519.869
369.0364, 2532.849
369.5185, 2533.558
370.0006, 2506.810
370.4828, 2494.144
370.9649, 2505.286
371.4470, 2528.399
371.9291, 2539.897
372.4112, 2533.749
372.8933, 2524.210
373.3755, 2514.554
373.8576, 2503.139
374.3397, 2499.730
374.8218, 2507.709
375.3039, 2519.873
375.7861, 2527.739
376.2682, 2531.379
376.7503, 2529.402
377.2324, 2518.283
377.7145, 2499.718
378.1967, 2493.819
378.6788, 2504.092
379.1609, 2516.174
379.6430, 2516.291
380.1251, 2504.367
380.6072, 2490.173
381.0894, 2473.214
381.5715, 2457.539
382.0536, 2456.420
382.5357, 2470.088
383.0178, 2483.125
383.4999, 2481.800
383.9821, 2470.588
384.4642, 2465.978
384.9463, 2471.195
385.4284, 2480.154
385.9105, 2485.063
386.3926, 2486.793
386.8748, 2489.111
387.3569, 2496.815
387.8390, 2505.138
388.3211, 2506.164
388.8032, 2498.677
389.2853, 2491.023
389.7675, 2490.112
390.2496, 2493.458
390.7317, 2497.094
391.2138, 2501.002
391.6959, 2503.504
392.1780, 2502.704
392.6602, 2498.884
393.1423, 2495.592
393.6244, 2495.410
394.1065, 2496.117
394.5886, 2495.896
395.0707, 2495.094
395.5529, 2492.335
396.0350, 2481.676
396.5171, 2467.501
396.9992, 2464.690
397.4813, 2482.382
397.9634, 2492.661
398.4456, 2498.903
398.9277, 2501.325
399.4098, 2488.485
399.8919, 2495.353
400.3740, 2494.322
400.8561, 2492.968
401.3383, 2502.610
401.8204, 2491.990
402.3025, 2501.457
402.7846, 2502.905
403.2667, 2508.023
403.7488, 2505.195
404.2310, 2504.822
404.7131, 2512.397
405.1952, 2515.571
405.6773, 2511.828
406.1594, 2517.179
406.6415, 2506.282
407.1237, 2509.643
407.6058, 2519.156
408.0879, 2515.813
408.5700, 2521.310
409.0521, 2523.440
409.5342, 2510.269
410.0164, 2523.708
410.4985, 2525.639
410.9806, 2515.754
411.4627, 2528.281
411.9448, 2520.025
412.4269, 2519.187
412.9091, 2523.932
413.3912, 2522.858
413.8733, 2530.958
414.3554, 2530.220
414.8375, 2528.691
415.3196, 2530.609
415.8018, 2522.761
416.2839, 2531.702
416.7660, 2536.811
417.2481, 2523.030
417.7302, 2494.503
418.2123, 2476.542
418.6945, 2494.988
419.1766, 2525.387
419.6587, 2545.638
420.1408, 2548.779
420.6229, 2545.736
421.1050, 2534.265
421.5872, 2520.157
422.0693, 2515.561
422.5514, 2538.879
423.0335, 2559.712
423.5156, 2563.802
423.9977, 2544.755
424.4799, 2529.925
424.9620, 2521.909
425.4441, 2519.905
425.9262, 2523.207
426.4083, 2537.249
426.8904, 2549.348
427.3726, 2558.671
427.8547, 2564.939
428.3368, 2565.332
428.8189, 2557.695
429.3010, 2547.317
429.7831, 2533.841
430.2653, 2511.479
430.7474, 2513.587
431.2295, 2553.216
431.7116, 2607.420
432.1937, 2624.006
432.6758, 2598.594
433.1580, 2571.832
433.6401, 2564.012
434.1222, 2571.976
434.6043, 2572.567
435.0864, 2564.893
435.5685, 2554.849
436.0507, 2544.211
436.5328, 2535.402
437.0149, 2539.234
437.4970, 2567.376
437.9791, 2601.293
438.4612, 2613.104
438.9434, 2605.233
439.4255, 2592.938
439.9076, 2585.944
440.3897, 2580.376
440.8718, 2570.596
441.3539, 2553.016
441.8361, 2539.122
442.3182, 2538.315
442.8003, 2545.922
443.2824, 2553.639
443.7645, 2558.224
444.2466, 2562.413
444.7288, 2568.724
445.2109, 2577.703
445.6930, 2582.097
446.1751, 2576.512
446.6572, 2567.789
447.1393, 2561.262
447.6215, 2562.493
448.1036, 2559.597
448.5857, 2545.978
449.0678, 2526.777
449.5499, 2521.807
450.0320, 2542.306
450.5142, 2561.205
450.9963, 2564.778
451.4784, 2546.238
451.9605, 2541.183
452.4426, 2554.322
452.9247, 2574.387
453.4069, 2586.410
453.8890, 2589.503
454.3711, 2592.070
454.8532, 2598.815
455.3353, 2606.339
455.8174, 2598.248
456.2996, 2573.484
456.7817, 2548.466
457.2638, 2538.087
457.7459, 2538.023
458.2281, 2534.265
458.7102, 2522.617
459.1923, 2511.918
459.6744, 2515.534
460.1565, 2529.339
460.6386, 2541.118
461.1208, 2546.293
461.6029, 2546.154
462.0850, 2541.185
462.5671, 2531.447
463.0492, 2519.741
463.5313, 2503.532
464.0135, 2487.882
464.4956, 2477.992
464.9777, 2481.938
465.4598, 2484.298
465.9419, 2478.469
466.4240, 2467.138
466.9062, 2459.963
467.3883, 2462.359
467.8704, 2465.670
468.3525, 2466.214
468.8346, 2462.442
469.3167, 2459.736
469.7989, 2456.519
470.2810, 2455.314
470.7631, 2461.329
471.2452, 2481.913
471.7273, 2490.157
472.2094, 2475.627
472.6916, 2444.386
473.1737, 2427.564
473.6558, 2427.027
474.1379, 2432.611
474.6200, 2442.181
475.1021, 2454.422
475.5843, 2451.327
476.0664, 2427.224
476.5485, 2400.304
477.0306, 2401.196
477.5127, 2423.191
477.9948, 2439.835
478.4770, 2434.346
478.9591, 2419.218
479.4412, 2408.111
479.9233, 2401.234
480.4054, 2402.018
480.8875, 2422.575
481.3697, 2447.293
481.8518, 2458.923
482.3339, 2446.661
482.8160, 2433.578
483.2981, 2432.563
483.7802, 2437.984
484.2624, 2438.183
484.7445, 2425.067
485.2266, 2410.911
485.7087, 2398.754
486.1908, 2388.234
486.6729, 2383.745
487.1551, 2388.138
487.6372, 2396.359
488.1193, 2405.489
488.6014, 2418.941
489.0835, 2425.513
489.5656, 2422.318
490.0478, 2412.551
490.5299, 2404.297
491.0120, 2397.527
491.4941, 2392.495
491.9762, 2389.547
492.4583, 2388.623
492.9405, 2388.947
493.4226, 2390.916
493.9047, 2392.007
494.3868, 2387.124
494.8689, 2378.592
495.3510, 2375.203
495.8332, 2380.708
496.3153, 2390.237
496.7974, 2401.199
497.2795, 2411.887
497.7616, 2415.684
498.2437, 2400.513
498.7259, 2381.963
499.2080, 2374.305
499.6901, 2380.280
500.1722, 2387.910
500.6543, 2397.509
501.1364, 2403.421
501.6186, 2399.826
502.1007, 2367.195
502.5828, 2345.057
503.0649, 2348.892
503.5470, 2372.896
504.0291, 2385.624
504.5113, 2378.447
504.9934, 2369.274
505.4755, 2365.475
505.9576, 2369.198
506.4397, 2368.650
506.9218, 2360.963
507.4040, 2352.901
507.8861, 2354.411
508.3682, 2367.219
508.8503, 2374.372
509.3324, 2369.240
509.8145, 2358.208
510.2967, 2360.155
510.7788, 2374.655
511.2609, 2388.570
511.7430, 2394.162
512.2252, 2392.980
512.7073, 2386.349
513.1894, 2373.605
513.6715, 2362.381
514.1536, 2361.109
514.6357, 2365.424
515.1179, 2368.599
515.6000, 2369.395
516.0821, 2367.273
516.5642, 2358.266
517.0463, 2345.202
517.5284, 2338.472
518.0106, 2348.841
518.4927, 2360.452
518.9748, 2365.787
519.4569, 2363.210
519.9390, 2357.388
520.4211, 2342.947
520.9033, 2328.986
521.3854, 2325.528
521.8675, 2339.374
522.3496, 2349.563
522.8317, 2354.110
523.3138, 2352.670
523.7960, 2340.636
524.2781, 2314.643
524.7602, 2294.657
525.2423, 2293.870
525.7244, 2309.747
526.2065, 2324.857
526.6887, 2339.114
527.1708, 2350.245
527.6529, 2355.894
528.1350, 2356.411
528.6171, 2352.284
529.0992, 2341.843
529.5814, 2329.368
530.0635, 2316.196
530.5456, 2303.851
531.0277, 2296.517
531.5098, 2299.718
531.9919, 2305.915
532.4741, 2311.456
532.9562, 2316.100
533.4383, 2318.119
533.9204, 2317.090
534.4025, 2313.148
534.8846, 2306.242
535.3668, 2283.201
535.8489, 2275.741
536.3310, 2294.354
536.8131, 2326.908
537.2952, 2343.750
537.7773, 2341.110
538.2595, 2331.639
538.7416, 2315.763
539.2237, 2294.746
539.7058, 2290.407
540.1879, 2304.868
540.6700, 2323.274
541.1522, 2335.003
541.6343, 2340.022
542.1164, 2335.693
542.5985, 2318.460
543.0806, 2300.503
543.5627, 2301.248
544.0449, 2312.945
544.5270, 2316.588
545.0091, 2291.247
545.4912, 2263.932
545.9733, 2256.082
546.4554, 2266.392
546.9376, 2277.740
547.4197, 2284.972
547.9018, 2289.640
548.3839, 2293.097
548.8660, 2298.559
549.3481, 2296.471
549.8303, 2277.434
550.3124, 2254.720
550.7945, 2245.442
551.2766, 2256.315
551.7587, 2267.443
552.2408, 2277.607
552.7230, 2284.967
553.2051, 2277.474
553.6872, 2251.707
554.1693, 2229.510
554.6514, 2226.242
555.1335, 2238.713
555.6157, 2249.699
556.0978, 2258.820
556.5799, 2264.904
557.0620, 2263.645
557.5441, 2258.688
558.0262, 2258.606
558.5084, 2271.233
558.9905, 2281.433
559.4726, 2270.716
559.9547, 2247.954
560.4368, 2235.616
560.9189, 2260.289
561.4011, 2282.683
561.8832, 2278.174
562.3653, 2241.702
562.8474, 2221.422
563.3295, 2245.106
563.8116, 2271.933
564.2938, 2275.519
564.7759, 2237.300
565.2580, 2217.174
565.7401, 2223.219
566.2222, 2242.341
566.7043, 2250.744
567.1865, 2246.482
567.6686, 2246.523
568.1507, 2260.205
568.6328, 2280.103
569.1149, 2281.365
569.5970, 2264.702
570.0792, 2248.412
570.5613, 2247.694
571.0434, 2254.811
571.5255, 2257.319
572.0076, 2253.209
572.4897, 2249.716
572.9719, 2255.037
573.4540, 2262.847
573.9361, 2265.447
574.4182, 2253.109
574.9003, 2243.305
575.3824, 2244.089
575.8646, 2251.492
576.3467, 2253.293
576.8288, 2241.027
577.3109, 2231.784
577.7930, 2232.405
578.2751, 2243.654
578.7573, 2246.848
579.2394, 2239.045
579.7215, 2229.741
580.2036, 2227.662
580.6857, 2232.881
581.1678, 2231.802
581.6500, 2221.143
582.1321, 2210.058
582.6142, 2217.268
583.0963, 2236.436
583.5784, 2244.567
584.0605, 2221.623
584.5427, 2194.134
585.0248, 2194.027
585.5069, 2215.182
585.9890, 2232.537
586.4711, 2227.739
586.9532, 2219.210
587.4354, 2221.010
587.9175, 2238.216
588.3996, 2243.689
588.8817, 2216.566
589.3638, 2185.616
589.8459, 2173.904
590.3281, 2193.840
590.8102, 2210.087
591.2923, 2220.925
591.7744, 2226.541
592.2565, 2225.124
592.7386, 2215.136
593.2208, 2208.780
593.7029, 2211.073
594.1850, 2219.782
594.6671, 2230.144
595.1492, 2241.876
595.6313, 2249.162
596.1135, 2247.816
596.5956, 2239.566
597.0777, 2222.708
597.5598, 2195.036
598.0419, 2176.896
598.5240, 2192.978
599.0062, 2220.262
599.4883, 2234.281
599.9704, 2211.982
600.4525, 2195.474
600.9346, 2195.909
601.4167, 2208.363
601.8989, 2221.119
602.3810, 2237.348
602.8631, 2247.861
603.3452, 2246.980
603.8273, 2236.419
604.3094, 2240.176
604.7916, 2263.450
605.2737, 2281.061
605.7558, 2268.024
606.2379, 2231.643
606.7200, 2214.785
607.2021, 2221.899
607.6843, 2236.175
608.1664, 2242.913
608.6485, 2243.949
609.1306, 2242.325
609.6127, 2236.139
610.0948, 2232.060
610.5770, 2238.722
611.0591, 2250.627
611.5412, 2255.655
612.0233, 2240.038
612.5054, 2226.751
612.9875, 2226.114
613.4697, 2238.217
613.9518, 2244.636
614.4339, 2245.715
614.9160, 2240.757
615.3981, 2225.365
615.8802, 2195.063
616.3624, 2186.240
616.8445, 2203.856
617.3266, 2229.060
617.8087, 2244.534
618.2908, 2249.886
618.7729, 2239.343
619.2551, 2203.808
619.7372, 2169.351
620.2193, 2171.989
620.7014, 2200.736
621.1835, 2227.949
621.6656, 2240.700
622.1478, 2247.774
622.6299, 2255.125
623.1120, 2262.075
623.5941, 2262.152
624.0762, 2249.889
624.5583, 2233.566
625.0405, 2215.593
625.5226, 2194.212
626.0047, 2180.020
626.4868, 2173.519
626.9689, 2173.451
627.4510, 2180.928
627.9332, 2196.916
628.4153, 2207.790
628.8974, 2211.022
629.3795, 2210.533
629.8616, 2211.508
630.3438, 2213.844
630.8259, 2217.341
631.3080, 2223.479
631.7901, 2229.250
632.2722, 2231.561
632.7543, 2230.794
633.2365, 2228.491
