##NAMES=Simmonsite
##RRUFFID=R080069
##IDEAL CHEMISTRY=Na_2_LiAlF_6_
##LOCALITY=Zapot mine, Zapot amazonite-topaz-zinnwaldite pegmatite, Gillis Range, Mineral County, Nevada, USA
##OWNER=RRUFF
##SOURCE=Michael Scott
##DESCRIPTION=Colorless plates embedded in epoxy
##STATUS=The identification of this mineral has been confirmed by single-crystal X-ray diffraction.
##URL=rruff.info/R080069
94.51007, 0.0000000E+00
94.99219, 178.7648
95.47430, 179.4806
95.95642, 180.5303
96.43854, 181.6759
96.92065, 182.3493
97.40277, 181.2781
97.88489, 178.1043
98.36700, 175.3524
98.84912, 173.2080
99.33124, 171.2593
99.81335, 169.2428
100.2955, 167.1195
100.7776, 164.9644
101.2597, 162.8850
101.7418, 160.5086
102.2239, 158.2113
102.7061, 156.0892
103.1882, 154.1185
103.6703, 152.1661
104.1524, 150.0401
104.6345, 148.0472
105.1166, 146.6723
105.5988, 146.1321
106.0809, 145.6789
106.5630, 144.5213
107.0451, 142.5061
107.5272, 140.7222
108.0093, 139.7604
108.4915, 139.1644
108.9736, 138.5633
109.4557, 137.8143
109.9378, 136.9637
110.4199, 136.1395
110.9020, 135.3346
111.3842, 134.5533
111.8663, 133.7255
112.3484, 132.9238
112.8305, 132.2842
113.3126, 131.9407
113.7947, 131.9057
114.2769, 131.5065
114.7590, 130.2026
115.2411, 129.0650
115.7232, 128.5959
116.2053, 128.7045
116.6874, 128.9158
117.1696, 128.7495
117.6517, 128.0860
118.1338, 127.4807
118.6159, 126.7906
119.0980, 126.2319
119.5801, 126.0819
120.0623, 126.4205
120.5444, 126.8708
121.0265, 126.8383
121.5086, 126.3140
121.9907, 125.9161
122.4728, 126.0463
122.9550, 126.4490
123.4371, 126.4168
123.9192, 125.5244
124.4013, 124.4356
124.8834, 123.8595
125.3655, 123.8042
125.8476, 124.0249
126.3298, 124.4305
126.8119, 125.0441
127.2940, 125.5307
127.7761, 125.9275
128.2582, 126.0778
128.7404, 125.7198
129.2225, 124.7804
129.7046, 123.6855
130.1867, 123.2218
130.6688, 123.9209
131.1509, 124.2514
131.6331, 123.6982
132.1152, 122.8775
132.5973, 122.3903
133.0794, 122.5348
133.5615, 123.1369
134.0436, 123.4667
134.5258, 123.2267
135.0079, 123.0157
135.4900, 122.8830
135.9721, 122.8338
136.4542, 122.8532
136.9363, 122.9242
137.4185, 123.0578
137.9006, 123.3784
138.3827, 124.1659
138.8648, 124.8478
139.3469, 125.1584
139.8290, 125.1065
140.3112, 124.8343
140.7933, 124.3765
141.2754, 123.7607
141.7575, 123.2594
142.2396, 123.0011
142.7217, 122.8092
143.2039, 122.4649
143.6860, 121.9150
144.1681, 121.3923
144.6502, 121.1831
145.1323, 121.1609
145.6144, 121.0432
146.0966, 120.6114
146.5787, 119.9851
147.0608, 119.5271
147.5429, 119.2453
148.0250, 119.1804
148.5071, 119.4630
148.9893, 119.9738
149.4714, 120.3866
149.9535, 120.3536
150.4356, 119.8243
150.9177, 119.5210
151.3998, 119.6502
151.8820, 119.8627
152.3641, 120.1228
152.8462, 120.3799
153.3283, 120.5288
153.8104, 120.4164
154.2925, 119.8948
154.7747, 119.5265
155.2568, 119.1976
155.7389, 119.0590
156.2210, 119.3573
156.7031, 120.0763
157.1852, 120.8517
157.6673, 121.0977
158.1495, 120.3056
158.6316, 119.8133
159.1137, 119.8338
159.5958, 120.0485
160.0779, 120.1320
160.5600, 119.9706
161.0422, 119.6857
161.5243, 119.5138
162.0064, 119.4278
162.4885, 119.4799
162.9706, 119.8642
163.4527, 120.3876
163.9349, 120.6489
164.4170, 120.4449
164.8991, 119.9688
165.3812, 119.5701
165.8633, 119.2119
166.3454, 118.9962
166.8276, 119.1197
167.3097, 119.5195
167.7918, 119.6919
168.2739, 119.2408
168.7560, 118.6058
169.2381, 118.3452
169.7203, 118.5945
170.2024, 118.9521
170.6845, 118.9772
171.1666, 118.6048
171.6487, 118.2826
172.1308, 118.1574
172.6130, 118.1525
173.0951, 118.2625
173.5772, 118.5039
174.0593, 118.7618
174.5414, 118.8115
175.0235, 118.5230
175.5057, 118.2912
175.9878, 118.1800
176.4699, 118.1601
176.9520, 118.2318
177.4341, 118.4021
177.9162, 118.6152
178.3984, 118.7007
178.8805, 118.5943
179.3626, 118.4211
179.8447, 118.0751
180.3268, 117.7081
180.8089, 117.5160
181.2911, 117.6168
181.7732, 117.9537
182.2553, 118.2072
182.7374, 118.3457
183.2195, 118.4389
183.7016, 118.4878
184.1838, 118.5012
184.6659, 118.4693
185.1480, 118.3680
185.6301, 118.2235
186.1122, 118.3105
186.5943, 118.8244
187.0765, 119.3120
187.5586, 119.6209
188.0407, 119.7610
188.5228, 119.7762
189.0049, 119.6555
189.4870, 119.4317
189.9692, 119.3208
190.4513, 119.4741
190.9334, 119.6083
191.4155, 119.4613
191.8976, 119.0547
192.3797, 118.7456
192.8619, 118.8576
193.3440, 119.2405
193.8261, 119.4411
194.3082, 119.1055
194.7903, 118.7748
195.2724, 119.2014
195.7546, 120.5278
196.2367, 121.6750
196.7188, 121.7168
197.2009, 121.1843
197.6830, 120.7292
198.1651, 120.5994
198.6473, 120.6176
199.1294, 120.4531
199.6115, 120.0157
200.0936, 119.6225
200.5757, 119.4593
201.0578, 119.4124
201.5400, 119.2959
202.0221, 118.8951
202.5042, 118.4599
202.9863, 118.8489
203.4684, 120.8495
203.9505, 122.3688
204.4327, 122.6831
204.9148, 122.2021
205.3969, 121.4334
205.8790, 120.5821
206.3611, 119.7251
206.8432, 119.2514
207.3254, 119.4908
207.8075, 119.7591
208.2896, 119.8883
208.7717, 119.9480
209.2538, 120.0777
209.7359, 120.3836
210.2181, 120.8257
210.7002, 121.0173
211.1823, 120.6850
211.6644, 120.3707
212.1465, 120.1749
212.6286, 120.0701
213.1108, 119.9887
213.5929, 119.8841
214.0750, 119.7620
214.5571, 119.7114
215.0392, 119.7881
215.5213, 119.8693
216.0035, 119.9137
216.4856, 119.9364
216.9677, 119.9761
217.4498, 120.0620
217.9319, 120.1890
218.4140, 120.2894
218.8962, 120.3992
219.3783, 120.4544
219.8604, 120.4110
220.3425, 119.9062
220.8246, 120.4176
221.3067, 120.7192
221.7889, 120.8222
222.2710, 120.1319
222.7531, 120.4660
223.2352, 120.3895
223.7173, 120.2963
224.1994, 120.7745
224.6816, 120.1996
225.1637, 120.6688
225.6458, 120.7212
226.1279, 120.9644
226.6100, 120.7945
227.0921, 120.7522
227.5743, 121.1230
228.0564, 121.2651
228.5385, 121.0477
229.0206, 121.3030
229.5027, 120.7136
229.9848, 120.8654
230.4670, 121.3371
230.9491, 121.1404
231.4312, 121.4032
231.9133, 121.4910
232.3954, 120.7835
232.8775, 121.4592
233.3597, 121.5367
233.8418, 121.0000
234.3239, 121.6282
234.8060, 121.1762
235.2881, 121.1097
235.7702, 121.3335
236.2524, 121.2548
236.7345, 121.6529
237.2166, 121.5917
237.6987, 121.4893
238.1808, 121.5661
238.6629, 121.1353
239.1451, 121.6463
239.6272, 121.5139
240.1093, 121.7013
240.5914, 121.9612
241.0735, 121.6661
241.5556, 121.9586
242.0378, 121.3398
242.5199, 121.4835
243.0020, 121.5451
243.4841, 122.0941
243.9662, 121.4798
244.4483, 121.6023
244.9305, 122.0386
245.4126, 122.0358
245.8947, 122.2166
246.3768, 121.8541
246.8589, 122.0020
247.3410, 122.0092
247.8232, 122.5026
248.3053, 122.6122
248.7874, 122.2588
249.2695, 121.9075
249.7516, 122.4359
250.2337, 122.1304
250.7159, 122.2748
251.1980, 121.9546
251.6801, 122.0356
252.1622, 122.1101
252.6443, 122.3904
253.1264, 122.0470
253.6086, 122.5125
254.0907, 122.5106
254.5728, 122.6463
255.0549, 122.7667
255.5370, 122.2598
256.0191, 122.2671
256.5013, 122.7305
256.9834, 122.8408
257.4655, 122.9805
257.9476, 123.1581
258.4297, 123.3990
258.9118, 123.7572
259.3940, 123.9453
259.8761, 123.9630
260.3582, 123.8517
260.8403, 123.4832
261.3224, 122.9541
261.8045, 122.5888
262.2867, 122.7339
262.7688, 123.5048
263.2509, 123.9966
263.7330, 124.0888
264.2151, 124.0790
264.6972, 124.0487
265.1794, 124.0299
265.6615, 124.0722
266.1436, 124.2327
266.6257, 124.5232
267.1078, 124.6603
267.5899, 124.6513
268.0721, 124.5253
268.5542, 124.1255
269.0363, 123.5913
269.5184, 123.3106
270.0005, 123.5981
270.4826, 124.4018
270.9648, 124.9191
271.4469, 125.0014
271.9290, 125.0227
272.4111, 125.1699
272.8932, 125.3681
273.3753, 125.3959
273.8575, 125.0885
274.3396, 124.5399
274.8217, 124.2479
275.3038, 124.3269
275.7859, 124.4658
276.2680, 124.5124
276.7502, 124.5508
277.2323, 124.8220
277.7144, 125.5035
278.1965, 126.3666
278.6786, 126.6786
279.1607, 126.2463
279.6429, 125.7708
280.1250, 125.3573
280.6071, 125.0387
281.0892, 124.9083
281.5713, 125.0269
282.0534, 125.2647
282.5356, 125.3480
283.0177, 125.2136
283.4998, 125.1693
283.9819, 125.3510
284.4640, 125.6536
284.9461, 125.9561
285.4283, 126.2466
285.9104, 126.4280
286.3925, 126.2619
286.8746, 125.6995
287.3567, 125.3460
287.8388, 125.4332
288.3210, 125.7522
288.8031, 126.0753
289.2852, 126.3754
289.7673, 126.5877
290.2494, 126.5768
290.7315, 126.3596
291.2137, 126.2674
291.6958, 126.4184
292.1779, 126.6820
292.6600, 126.9419
293.1421, 127.1881
293.6242, 127.3930
294.1064, 127.5206
294.5885, 127.5802
295.0706, 127.6306
295.5527, 127.6901
296.0348, 127.7327
296.5169, 127.6851
296.9991, 127.5543
297.4812, 127.5358
297.9633, 127.8354
298.4454, 127.9374
298.9275, 128.5237
299.4096, 128.9001
299.8918, 129.0779
300.3739, 128.4624
300.8560, 128.8713
301.3381, 128.8697
301.8202, 128.8512
302.3023, 129.4043
302.7845, 128.9042
303.2666, 129.4483
303.7487, 129.5755
304.2308, 129.8935
304.7129, 129.7984
305.1950, 129.8309
305.6772, 130.2766
306.1593, 130.4935
306.6414, 130.3509
307.1235, 130.6810
307.6056, 130.1664
308.0877, 130.3931
308.5699, 130.9395
309.0520, 130.8177
309.5341, 131.1553
310.0162, 131.3180
310.4983, 130.6853
310.9804, 131.4358
311.4626, 131.5881
311.9447, 131.1262
312.4268, 131.8293
312.9089, 131.4521
313.3910, 131.4604
313.8731, 131.7590
314.3553, 131.7551
314.8374, 132.2281
315.3195, 132.2417
315.8016, 132.2141
316.2837, 132.9809
316.7658, 133.4737
317.2480, 133.6351
317.7301, 133.7416
318.2122, 133.9635
318.6943, 134.2455
319.1764, 134.4577
319.6585, 134.6120
320.1407, 134.6690
320.6228, 134.4447
321.1049, 134.0094
321.5870, 133.9225
322.0691, 134.6068
322.5512, 135.6240
323.0334, 136.1490
323.5155, 136.0435
323.9976, 135.9029
324.4797, 136.0009
324.9618, 136.3078
325.4439, 136.7747
325.9261, 137.4720
326.4082, 138.1679
326.8903, 138.4792
327.3724, 138.4021
327.8545, 138.4823
328.3366, 139.1345
328.8188, 140.0024
329.3009, 140.3811
329.7830, 140.0570
330.2651, 139.7618
330.7472, 140.3250
331.2293, 141.5902
331.7115, 142.7553
332.1936, 143.8090
332.6757, 144.6187
333.1578, 144.9050
333.6399, 144.6595
334.1220, 144.4617
334.6042, 144.6622
335.0863, 145.2404
335.5684, 145.9753
336.0505, 147.0216
336.5326, 148.0615
337.0147, 148.9371
337.4969, 149.6485
337.9790, 150.1548
338.4611, 150.3445
338.9432, 150.4158
339.4253, 150.8407
339.9074, 151.7643
340.3896, 152.6121
340.8717, 153.1673
341.3538, 153.4888
341.8359, 153.6423
342.3180, 153.6027
342.8001, 153.5618
343.2823, 153.8489
343.7644, 154.4951
344.2465, 155.0507
344.7286, 155.3249
345.2107, 155.5219
345.6928, 155.8963
346.1750, 156.4829
346.6571, 157.0879
347.1392, 157.5430
347.6213, 157.8357
348.1034, 158.0917
348.5855, 158.2858
349.0677, 158.4651
349.5498, 158.7728
350.0319, 159.1370
350.5140, 159.2117
350.9961, 158.7327
351.4782, 157.8295
351.9604, 157.1337
352.4425, 156.8045
352.9246, 156.4485
353.4067, 155.9495
353.8888, 155.3400
354.3709, 154.6691
354.8531, 153.9509
355.3352, 153.2065
355.8173, 152.4802
356.2994, 151.7959
356.7815, 151.0655
357.2636, 150.2278
357.7458, 149.3710
358.2279, 148.5865
358.7100, 147.8892
359.1921, 147.2196
359.6742, 146.5246
360.1563, 145.7995
360.6385, 145.0617
361.1206, 144.2016
361.6027, 143.4272
362.0848, 142.9132
362.5669, 142.5975
363.0490, 142.2472
363.5312, 141.6866
364.0133, 140.9646
364.4954, 140.4995
364.9775, 140.4635
365.4596, 140.4619
365.9417, 140.4449
366.4239, 140.4098
366.9060, 140.3721
367.3881, 140.3375
367.8702, 140.2706
368.3523, 140.0827
368.8344, 139.5188
369.3166, 139.2683
369.7987, 139.5477
370.2808, 139.9607
370.7629, 140.1922
371.2450, 140.2161
371.7271, 140.2424
372.2093, 140.5271
372.6914, 141.1526
373.1735, 141.5099
373.6556, 141.3434
374.1377, 141.1819
374.6198, 141.2153
375.1020, 141.4006
375.5841, 141.6236
376.0662, 141.8174
376.5483, 141.9798
377.0304, 142.0909
377.5125, 142.0718
377.9947, 142.1174
378.4768, 142.2636
378.9589, 142.4795
379.4410, 142.7357
379.9231, 143.0220
380.4052, 143.3433
380.8874, 143.7215
381.3695, 144.1829
381.8516, 144.6091
382.3337, 144.8905
382.8158, 145.2169
383.2979, 145.7499
383.7801, 146.4469
384.2622, 147.0989
384.7443, 147.5072
385.2264, 147.6931
385.7085, 147.9370
386.1906, 148.2413
386.6728, 148.6101
387.1549, 149.1148
387.6370, 149.6597
388.1191, 150.0885
388.6012, 150.3194
389.0833, 150.4398
389.5655, 150.6029
390.0476, 150.8223
390.5297, 151.0234
391.0118, 151.2440
391.4939, 151.3940
391.9760, 151.3828
392.4582, 151.1962
392.9403, 150.9242
393.4224, 150.5748
393.9045, 150.1763
394.3866, 149.9473
394.8687, 150.0578
395.3509, 150.1042
395.8330, 149.6432
396.3151, 148.8318
396.7972, 148.1860
397.2793, 148.0466
397.7614, 148.1169
398.2436, 147.9825
398.7257, 147.6324
399.2078, 147.1860
399.6899, 146.6297
400.1720, 146.0588
400.6541, 145.6790
401.1363, 145.6107
401.6184, 145.5272
402.1005, 145.2372
402.5826, 144.7832
403.0647, 144.2515
403.5468, 143.6384
404.0290, 143.0417
404.5111, 142.6056
404.9932, 142.3274
405.4753, 142.1287
405.9574, 142.0807
406.4395, 142.0539
406.9217, 141.9223
407.4038, 141.6768
407.8859, 141.3605
408.3680, 140.9561
408.8501, 140.4972
409.3322, 140.3732
409.8144, 140.8167
410.2965, 141.2805
410.7786, 141.6694
411.2607, 141.9316
411.7428, 141.9568
412.2249, 141.6935
412.7071, 141.2718
413.1892, 140.9399
413.6713, 140.7106
414.1534, 140.5712
414.6355, 140.5591
415.1176, 140.6058
415.5998, 140.7200
416.0819, 140.8645
416.5640, 140.9126
417.0461, 140.7223
417.5282, 140.2878
418.0103, 140.0480
418.4925, 140.1538
418.9746, 140.2987
419.4567, 140.5704
419.9388, 140.7948
420.4209, 140.6433
420.9030, 139.9588
421.3852, 139.1299
421.8673, 139.0441
422.3494, 140.1414
422.8315, 140.8515
423.3136, 140.7066
423.7957, 140.4048
424.2779, 140.4045
424.7600, 140.6933
425.2421, 140.9182
425.7242, 140.6803
426.2063, 140.0539
426.6884, 139.8154
427.1706, 140.2545
427.6527, 140.5983
428.1348, 140.3712
428.6169, 139.8889
429.0990, 139.6109
429.5811, 139.7276
430.0633, 140.0158
430.5454, 140.1831
431.0275, 140.2253
431.5096, 140.3712
431.9917, 140.7944
432.4738, 141.2351
432.9560, 141.4053
433.4381, 141.3083
433.9202, 141.1951
434.4023, 141.2473
434.8844, 141.3425
435.3665, 141.2093
435.8487, 140.7944
436.3308, 140.4228
436.8129, 140.3380
437.2950, 140.5010
437.7771, 140.6864
438.2592, 140.9480
438.7414, 141.1656
439.2235, 141.3091
439.7056, 141.3587
440.1877, 141.2211
440.6698, 140.8324
441.1519, 140.3762
441.6341, 140.1331
442.1162, 140.1100
442.5983, 140.3191
443.0804, 141.0847
443.5625, 141.8410
444.0446, 142.0999
444.5268, 141.9046
445.0089, 141.6682
445.4910, 141.7058
445.9731, 141.9821
446.4552, 142.1494
446.9373, 142.0335
447.4195, 142.0192
447.9016, 142.2850
448.3837, 142.6244
448.8658, 142.8441
449.3479, 142.8741
449.8300, 142.7029
450.3122, 142.2269
450.7943, 141.2529
451.2764, 140.7029
451.7585, 140.8890
452.2406, 141.2197
452.7227, 141.5863
453.2049, 141.9182
453.6870, 142.1100
454.1691, 142.0797
454.6512, 141.8976
455.1333, 141.7188
455.6154, 141.5082
456.0976, 141.4079
456.5797, 141.4466
457.0618, 141.6289
457.5439, 142.0828
458.0260, 142.8172
458.5081, 143.4002
458.9903, 143.4191
459.4724, 143.0078
459.9545, 142.6083
460.4366, 142.2127
460.9187, 141.9763
461.4008, 142.1118
461.8830, 142.5008
462.3651, 142.8743
462.8472, 143.2749
463.3293, 143.5570
463.8114, 143.5625
464.2935, 143.3473
464.7756, 143.1013
465.2578, 142.8829
465.7399, 142.6931
466.2220, 142.5308
466.7041, 142.3780
467.1862, 142.3173
467.6683, 142.3747
468.1505, 142.5151
468.6326, 142.7375
469.1147, 143.0240
469.5968, 143.3273
470.0789, 143.6311
470.5610, 143.9126
471.0432, 144.0165
471.5253, 143.6133
472.0074, 143.4396
472.4895, 143.8314
472.9716, 144.3515
473.4537, 144.5020
473.9359, 144.2007
474.4180, 143.8119
474.9001, 143.8158
475.3822, 144.2894
475.8643, 144.5152
476.3464, 144.2644
476.8286, 143.9974
477.3107, 143.8184
477.7928, 143.7320
478.2749, 143.7398
478.7570, 143.8519
479.2391, 144.0241
479.7213, 144.1745
480.2034, 144.2940
480.6855, 144.4741
481.1676, 144.7585
481.6497, 145.0939
482.1318, 145.5221
482.6140, 146.0062
483.0961, 146.2722
483.5782, 146.0696
484.0603, 145.6210
484.5424, 145.2041
485.0245, 144.8240
485.5067, 144.6708
485.9888, 144.9528
486.4709, 145.4790
486.9530, 145.7348
487.4351, 145.6092
487.9172, 145.4809
488.3994, 145.5074
488.8815, 145.5949
489.3636, 145.5882
489.8457, 145.4657
490.3278, 145.3865
490.8099, 145.5320
491.2921, 145.9194
491.7742, 146.0820
492.2563, 145.7264
492.7384, 145.5186
493.2205, 145.7429
493.7026, 146.2114
494.1848, 146.7162
494.6669, 147.1658
495.1490, 147.4666
495.6311, 147.3810
496.1132, 146.6441
496.5953, 146.3835
497.0775, 147.2453
497.5596, 147.9758
498.0417, 147.8748
498.5238, 147.2617
499.0059, 146.9018
499.4880, 147.2601
499.9702, 147.9760
500.4523, 148.3283
500.9344, 148.2699
501.4165, 148.1579
501.8986, 148.1413
502.3807, 148.0549
502.8629, 147.6675
503.3450, 146.9975
503.8271, 146.4794
504.3092, 146.3291
504.7913, 146.4533
505.2734, 146.7419
505.7556, 147.1881
506.2377, 147.7570
506.7198, 148.5686
507.2019, 149.4106
507.6840, 149.5843
508.1661, 148.6393
508.6483, 147.9760
509.1304, 148.2439
509.6125, 148.8378
510.0946, 148.9819
510.5767, 148.5972
511.0588, 148.2605
511.5410, 148.5549
512.0231, 149.4733
512.5052, 149.9454
512.9873, 149.3660
513.4694, 149.0559
513.9515, 149.4720
514.4337, 150.1912
514.9158, 150.7661
515.3979, 151.0553
515.8800, 151.1451
516.3621, 151.0981
516.8442, 150.8939
517.3264, 150.7657
517.8085, 150.7053
518.2906, 150.7428
518.7727, 150.9451
519.2548, 151.2304
519.7369, 151.4482
520.2191, 151.5170
520.7012, 151.5863
521.1833, 151.8736
521.6654, 152.3417
522.1475, 152.6641
522.6296, 152.6830
523.1118, 152.6996
523.5939, 153.1632
524.0760, 153.9940
524.5581, 154.5595
525.0402, 154.4458
525.5223, 154.3062
526.0045, 154.7307
526.4866, 155.5271
526.9687, 156.0311
527.4508, 155.9132
527.9329, 155.6287
528.4150, 156.0535
528.8972, 157.6021
529.3793, 158.9245
529.8614, 160.0001
530.3435, 160.8796
530.8256, 161.4763
531.3077, 161.9043
531.7899, 162.4042
532.2720, 163.1167
532.7541, 163.9921
533.2362, 164.9225
533.7183, 165.9576
534.2004, 166.9161
534.6826, 167.5305
535.1647, 168.2520
535.6468, 169.4486
536.1289, 171.0424
536.6110, 172.5774
537.0931, 173.7429
537.5753, 174.6978
538.0574, 175.5906
538.5395, 176.3994
539.0216, 177.6963
539.5037, 179.9604
539.9858, 182.6326
540.4680, 184.7314
540.9501, 186.1752
541.4322, 187.7287
541.9143, 189.5882
542.3964, 191.6725
542.8785, 193.9233
543.3607, 196.3221
543.8428, 198.8438
544.3249, 201.4521
544.8070, 204.1820
545.2891, 207.1663
545.7712, 210.6764
546.2534, 214.0813
546.7355, 217.0136
547.2176, 220.0729
547.6997, 223.8670
548.1818, 228.2615
548.6639, 232.6327
549.1461, 236.4440
549.6282, 239.8248
550.1103, 243.2968
550.5924, 247.0597
551.0745, 250.4159
551.5566, 253.3876
552.0388, 255.7224
552.5209, 257.0521
553.0030, 257.3734
553.4851, 257.3219
553.9672, 257.5550
554.4493, 257.5527
554.9315, 256.1156
555.4136, 253.1795
555.8957, 250.2299
556.3778, 248.0381
556.8599, 246.4168
557.3420, 244.8677
557.8242, 243.1297
558.3063, 242.0308
558.7884, 242.1765
559.2705, 242.7268
559.7526, 242.7969
560.2347, 242.4517
560.7169, 242.5097
561.1990, 243.6392
561.6811, 245.4963
562.1632, 246.4902
562.6453, 246.1733
563.1274, 245.7039
563.6096, 245.3575
564.0917, 244.8122
564.5738, 243.9427
565.0559, 242.6730
565.5380, 240.8440
566.0201, 238.2840
566.5023, 235.1135
566.9844, 231.6350
567.4665, 227.8367
567.9486, 223.7023
568.4307, 219.1011
568.9128, 214.2802
569.3950, 209.5377
569.8771, 204.8336
570.3592, 200.3877
570.8413, 196.1076
571.3234, 192.2007
571.8055, 189.1167
572.2877, 186.7009
572.7698, 184.1396
573.2519, 180.9442
573.7340, 177.4881
574.2161, 174.7740
574.6982, 173.2702
575.1804, 171.7139
575.6625, 169.9420
576.1446, 168.2672
576.6267, 166.9357
577.1088, 165.8673
577.5909, 164.7902
578.0731, 163.5278
578.5552, 162.2327
579.0373, 161.2588
579.5194, 160.6498
580.0015, 160.1401
580.4836, 159.8632
580.9658, 159.4759
581.4479, 158.5872
581.9300, 157.3342
582.4121, 156.3167
582.8942, 155.7777
583.3763, 155.5459
583.8585, 155.5966
584.3406, 155.8416
584.8227, 155.9660
585.3048, 155.8723
585.7869, 155.5672
586.2690, 155.0144
586.7512, 154.1197
587.2333, 153.4608
587.7154, 153.1499
588.1975, 152.9341
588.6796, 152.6588
589.1617, 152.4194
589.6439, 152.4361
590.1260, 152.7751
590.6081, 153.1711
591.0902, 153.2170
