##NAMES=Simpsonite
##RRUFFID=R050629
##IDEAL CHEMISTRY=Al_4_Ta^5+^_3_O_13_(OH)
##LOCALITY=Equador, Rio Grande do Norte, Brazil
##OWNER=RRUFF
##SOURCE=Gemological Center
##DESCRIPTION=Yellow fragment
##STATUS=The identification of this mineral has been confirmed by X-ray diffraction and chemical analysis
##URL=rruff.info/R050629
##MEASURED CHEMISTRY=Al_4.00_(Ta_2.93_Nb_0.07_)_Î£=3_O_13_(OH)
91.11523, 43.82899
91.59735, 44.43236
92.07947, 43.90109
92.56158, 42.58567
93.04370, 41.58971
93.52582, 41.92287
94.00793, 42.99294
94.49006, 43.45186
94.97218, 43.03676
95.45429, 42.26710
95.93641, 41.88692
96.41853, 41.89203
96.90064, 42.11167
97.38276, 42.51526
97.86488, 43.07966
98.34699, 43.60841
98.82911, 44.16561
99.31123, 44.61480
99.79334, 44.24242
100.2755, 42.77454
100.7576, 41.44675
101.2397, 41.61084
101.7218, 43.66880
102.2039, 45.28435
102.6861, 45.82153
103.1682, 45.29899
103.6503, 45.23865
104.1324, 45.89120
104.6145, 46.72808
105.0966, 47.07002
105.5788, 46.52458
106.0609, 46.16213
106.5430, 46.31679
107.0251, 47.19355
107.5072, 47.83955
107.9893, 47.88823
108.4715, 47.80119
108.9536, 48.40822
109.4357, 50.37110
109.9178, 52.44419
110.3999, 54.24456
110.8820, 55.41546
111.3642, 56.87475
111.8463, 58.58528
112.3284, 60.60254
112.8105, 63.08022
113.2926, 66.37587
113.7747, 69.94839
114.2569, 73.46301
114.7390, 75.66725
115.2211, 79.21307
115.7032, 84.88001
116.1853, 92.46965
116.6674, 100.9366
117.1496, 109.4981
117.6317, 119.1161
118.1138, 130.4886
118.5959, 142.8885
119.0780, 157.9696
119.5602, 175.8584
120.0423, 196.7862
120.5244, 222.0835
121.0065, 250.6604
121.4886, 284.4720
121.9707, 326.2879
122.4529, 377.3457
122.9350, 436.3383
123.4171, 505.3217
123.8992, 585.2267
124.3813, 664.0725
124.8634, 736.2748
125.3456, 800.3673
125.8277, 853.2263
126.3098, 884.4274
126.7919, 905.5623
127.2740, 933.6287
127.7561, 970.7947
128.2383, 1011.634
128.7204, 1048.450
129.2025, 1082.523
129.6846, 1120.570
130.1667, 1167.026
130.6488, 1220.241
131.1310, 1277.820
131.6131, 1339.135
132.0952, 1405.242
132.5773, 1478.296
133.0594, 1558.681
133.5415, 1643.991
134.0237, 1732.626
134.5058, 1825.247
134.9879, 1924.213
135.4700, 2029.647
135.9521, 2142.413
136.4343, 2264.769
136.9164, 2394.419
137.3985, 2545.307
137.8806, 2727.779
138.3627, 2943.028
138.8448, 3194.093
139.3270, 3482.538
139.8091, 3810.671
140.2912, 4187.005
140.7733, 4623.104
141.2554, 5093.069
141.7375, 5609.081
142.2197, 6277.587
142.7018, 6715.141
143.1839, 6798.555
143.6660, 6506.621
144.1481, 6192.941
144.6302, 5866.463
145.1124, 5512.773
145.5945, 5118.681
146.0766, 4663.240
146.5587, 4190.658
147.0408, 3692.476
147.5230, 3135.411
148.0051, 2685.028
148.4872, 2356.434
148.9693, 2118.474
149.4514, 1941.996
149.9335, 1857.996
150.4157, 1798.447
150.8978, 1746.923
151.3799, 1703.090
151.8620, 1665.578
152.3441, 1632.882
152.8262, 1606.105
153.3084, 1588.273
153.7905, 1584.797
154.2726, 1585.448
154.7547, 1586.447
155.2368, 1585.823
155.7189, 1588.227
156.2011, 1595.072
156.6832, 1605.288
157.1653, 1616.173
157.6474, 1626.575
158.1295, 1637.873
158.6116, 1650.328
159.0938, 1659.432
159.5759, 1675.824
160.0580, 1700.456
160.5401, 1733.832
161.0222, 1778.068
161.5044, 1824.845
161.9865, 1887.475
162.4686, 1974.797
162.9507, 2089.155
163.4328, 2227.666
163.9149, 2391.664
164.3971, 2580.922
164.8792, 2787.775
165.3613, 3032.485
165.8434, 3283.087
166.3255, 3512.994
166.8076, 3810.552
167.2898, 3999.067
167.7719, 3961.098
168.2540, 3711.534
168.7361, 3370.758
169.2182, 2923.103
169.7003, 2449.218
170.1825, 2045.526
170.6646, 1757.668
171.1467, 1545.340
171.6288, 1383.981
172.1109, 1273.747
172.5931, 1190.738
173.0752, 1127.310
173.5573, 1078.749
174.0394, 1037.321
174.5215, 1003.271
175.0036, 973.3073
175.4858, 944.6269
175.9679, 916.9181
176.4500, 890.9185
176.9321, 866.8157
177.4142, 844.5090
177.8963, 824.1863
178.3785, 804.9661
178.8606, 787.7214
179.3427, 774.3641
179.8248, 764.8052
180.3069, 758.2804
180.7890, 755.5482
181.2712, 755.6051
181.7533, 755.2985
182.2354, 753.1321
182.7175, 749.5840
183.1996, 745.3849
183.6818, 740.3262
184.1639, 735.6067
184.6460, 733.0230
185.1281, 732.1771
185.6102, 730.8396
186.0923, 727.6993
186.5745, 723.1942
187.0566, 719.2479
187.5387, 716.2944
188.0208, 712.4628
188.5029, 704.2457
188.9850, 692.0117
189.4672, 679.7968
189.9493, 669.1035
190.4314, 659.9991
190.9135, 652.2931
191.3956, 645.9832
191.8777, 641.1776
192.3599, 637.8941
192.8420, 636.1490
193.3241, 635.8123
193.8062, 637.2172
194.2883, 640.2279
194.7704, 643.1660
195.2526, 645.8217
195.7347, 648.5702
196.2168, 652.2423
196.6989, 656.8950
197.1810, 661.6138
197.6632, 666.2333
198.1453, 670.7826
198.6274, 673.5922
199.1095, 673.8411
199.5916, 673.3381
200.0737, 675.8317
200.5559, 681.5554
201.0380, 688.7742
201.5201, 696.4929
202.0022, 704.7277
202.4843, 714.7419
202.9664, 727.4965
203.4486, 741.1899
203.9307, 751.1024
204.4128, 756.2170
204.8949, 761.3621
205.3770, 769.3030
205.8591, 780.4210
206.3413, 791.4833
206.8234, 802.0577
207.3055, 812.6547
207.7876, 824.7404
208.2697, 838.5084
208.7519, 852.8668
209.2340, 867.0499
209.7161, 880.6446
210.1982, 896.2598
210.6803, 914.6754
211.1624, 934.8176
211.6446, 954.7908
212.1267, 976.2153
212.6088, 993.1601
213.0909, 1001.840
213.5730, 1000.317
214.0551, 997.7004
214.5373, 993.0349
215.0194, 988.1833
215.5015, 987.8891
215.9836, 991.5019
216.4657, 1001.125
216.9478, 1018.303
217.4300, 1044.179
217.9121, 1074.189
218.3942, 1108.389
218.8763, 1146.258
219.3584, 1186.808
219.8405, 1231.921
220.3227, 1275.668
220.8048, 1317.221
221.2869, 1362.689
221.7690, 1389.273
222.2511, 1394.978
222.7333, 1381.552
223.2154, 1351.994
223.6975, 1298.292
224.1796, 1241.506
224.6617, 1190.778
225.1438, 1145.584
225.6260, 1108.186
226.1081, 1079.504
226.5902, 1058.570
227.0723, 1043.594
227.5544, 1034.845
228.0365, 1031.399
228.5187, 1033.220
229.0008, 1041.849
229.4829, 1051.872
229.9650, 1062.958
230.4471, 1075.515
230.9292, 1090.611
231.4114, 1108.252
231.8935, 1128.726
232.3756, 1151.712
232.8577, 1176.954
233.3398, 1205.831
233.8220, 1236.770
234.3041, 1271.887
234.7862, 1315.488
235.2683, 1367.797
235.7504, 1427.885
236.2325, 1496.032
236.7147, 1570.142
237.1968, 1655.248
237.6789, 1753.516
238.1610, 1861.957
238.6431, 1976.120
239.1252, 2109.961
239.6074, 2230.363
240.0895, 2328.737
240.5716, 2412.066
241.0537, 2449.519
241.5358, 2428.895
242.0179, 2368.331
242.5001, 2300.602
242.9822, 2217.986
243.4643, 2140.491
243.9464, 2074.238
244.4285, 2018.475
244.9106, 1976.001
245.3928, 1947.632
245.8749, 1931.602
246.3570, 1924.643
246.8391, 1925.172
247.3212, 1937.411
247.8034, 1962.803
248.2855, 2001.977
248.7676, 2051.808
249.2497, 2109.833
249.7318, 2180.538
250.2139, 2269.905
250.6961, 2376.080
251.1782, 2504.844
251.6603, 2659.236
252.1424, 2841.175
252.6245, 3042.752
253.1066, 3271.390
253.5888, 3514.528
254.0709, 3761.673
254.5530, 4019.511
255.0351, 4272.095
255.5172, 4539.032
255.9993, 4837.897
256.4815, 4983.481
256.9636, 4971.394
257.4457, 4809.512
257.9278, 4478.888
258.4099, 3892.246
258.8921, 3331.461
259.3742, 2843.263
259.8563, 2431.271
260.3384, 2113.126
260.8205, 1912.486
261.3026, 1778.490
261.7848, 1665.865
262.2669, 1584.327
262.7490, 1499.144
263.2311, 1399.886
263.7132, 1288.153
264.1953, 1196.392
264.6775, 1126.688
265.1596, 1074.782
265.6417, 1038.311
266.1238, 1019.302
266.6059, 1009.290
267.0880, 1008.964
267.5702, 1016.992
268.0523, 1024.547
268.5344, 1031.866
269.0165, 1038.412
269.4986, 1043.531
269.9807, 1046.767
270.4629, 1050.687
270.9450, 1055.246
271.4271, 1060.834
271.9092, 1068.874
272.3913, 1079.551
272.8734, 1092.140
273.3556, 1105.990
273.8377, 1120.913
274.3198, 1138.250
274.8019, 1158.294
275.2840, 1180.893
275.7661, 1205.537
276.2483, 1231.777
276.7304, 1261.626
277.2125, 1294.550
277.6946, 1330.303
278.1768, 1374.439
278.6589, 1427.465
279.1410, 1488.799
279.6231, 1558.051
280.1052, 1636.445
280.5873, 1719.233
281.0695, 1804.257
281.5516, 1891.848
282.0337, 1981.255
282.5158, 2075.147
282.9979, 2165.131
283.4800, 2248.328
283.9622, 2326.422
284.4443, 2361.797
284.9264, 2334.459
285.4085, 2247.750
285.8906, 2118.837
286.3727, 1939.259
286.8549, 1747.888
287.3370, 1588.068
287.8191, 1459.637
288.3012, 1359.341
288.7833, 1291.268
289.2654, 1251.116
289.7476, 1224.079
290.2297, 1210.554
290.7118, 1207.019
291.1939, 1211.940
291.6760, 1224.525
292.1581, 1240.531
292.6403, 1260.265
293.1224, 1281.696
293.6045, 1302.651
294.0866, 1323.016
294.5687, 1337.479
295.0508, 1344.992
295.5330, 1343.456
296.0151, 1324.770
296.4972, 1283.486
296.9793, 1227.971
297.4614, 1168.758
297.9435, 1106.391
298.4257, 1049.804
298.9078, 1006.219
299.3899, 973.2756
299.8720, 947.4980
300.3541, 928.7061
300.8362, 915.1652
301.3184, 905.6038
301.8005, 899.6012
302.2826, 895.8295
302.7647, 894.0533
303.2469, 893.7765
303.7290, 894.3260
304.2111, 895.6650
304.6932, 897.6214
305.1753, 899.7151
305.6574, 902.2465
306.1396, 905.8599
306.6217, 911.1512
307.1038, 917.5799
307.5859, 924.3123
308.0680, 931.2461
308.5501, 939.6580
309.0323, 950.5917
309.5144, 963.6407
309.9965, 978.0978
310.4786, 993.3787
310.9607, 1010.347
311.4428, 1029.677
311.9250, 1051.281
312.4071, 1075.109
312.8892, 1100.284
313.3713, 1127.429
313.8534, 1157.483
314.3355, 1193.280
314.8177, 1229.448
315.2998, 1264.746
315.7819, 1298.559
316.2640, 1328.585
316.7461, 1357.063
317.2282, 1379.068
317.7104, 1391.327
318.1925, 1393.545
318.6746, 1385.230
319.1567, 1361.956
319.6388, 1327.437
320.1209, 1292.165
320.6031, 1253.874
321.0852, 1219.780
321.5673, 1193.165
322.0494, 1174.947
322.5315, 1163.131
323.0136, 1157.900
323.4958, 1158.724
323.9779, 1164.741
324.4600, 1175.119
324.9421, 1191.378
325.4242, 1214.379
325.9064, 1244.959
326.3885, 1279.029
326.8706, 1317.132
327.3527, 1358.166
327.8348, 1401.442
328.3170, 1449.043
328.7991, 1496.865
329.2812, 1544.813
329.7633, 1593.193
330.2454, 1638.096
330.7275, 1681.772
331.2097, 1719.637
331.6918, 1748.319
332.1739, 1766.557
332.6560, 1777.380
333.1381, 1779.265
333.6202, 1773.551
334.1024, 1765.505
334.5845, 1751.436
335.0666, 1740.611
335.5487, 1736.605
336.0308, 1736.623
336.5129, 1751.708
336.9951, 1783.529
337.4772, 1829.566
337.9593, 1886.974
338.4414, 1957.377
338.9235, 2035.238
339.4056, 2120.479
339.8878, 2212.841
340.3699, 2307.505
340.8520, 2407.118
341.3341, 2504.836
341.8162, 2600.169
342.2983, 2694.271
342.7805, 2766.894
343.2626, 2818.092
343.7447, 2842.858
344.2268, 2808.798
344.7089, 2712.093
345.1910, 2576.108
345.6732, 2409.851
346.1553, 2216.217
346.6374, 2036.313
347.1195, 1874.740
347.6016, 1733.011
348.0837, 1614.741
348.5659, 1518.587
349.0480, 1438.590
349.5301, 1373.964
350.0122, 1322.282
350.4944, 1280.781
350.9765, 1250.065
351.4586, 1226.408
351.9407, 1207.098
352.4228, 1191.770
352.9049, 1179.197
353.3871, 1168.450
353.8692, 1160.224
354.3513, 1156.291
354.8334, 1156.886
355.3155, 1158.300
355.7976, 1156.474
356.2798, 1153.663
356.7619, 1153.479
357.2440, 1157.035
357.7261, 1163.899
358.2082, 1174.557
358.6903, 1188.669
359.1725, 1203.944
359.6546, 1218.054
360.1367, 1233.315
360.6188, 1251.633
361.1009, 1273.253
361.5830, 1297.991
362.0652, 1326.496
362.5473, 1358.085
363.0294, 1391.081
363.5115, 1424.668
363.9936, 1459.871
364.4757, 1496.679
364.9579, 1535.182
365.4400, 1576.129
365.9221, 1618.915
366.4042, 1664.730
366.8863, 1715.083
367.3684, 1770.120
367.8506, 1829.797
368.3327, 1894.921
368.8148, 1965.463
369.2969, 2038.327
369.7790, 2113.493
370.2611, 2191.388
370.7433, 2272.641
371.2254, 2356.466
371.7075, 2443.352
372.1896, 2532.415
372.6717, 2624.845
373.1538, 2723.292
373.6360, 2826.521
374.1181, 2937.374
374.6002, 3055.903
375.0823, 3182.958
375.5645, 3317.279
376.0466, 3457.784
376.5287, 3604.866
377.0108, 3762.732
377.4929, 3932.132
377.9750, 4095.575
378.4572, 4245.014
378.9393, 4381.897
379.4214, 4510.915
379.9035, 4628.780
380.3856, 4748.259
380.8677, 4875.079
381.3499, 5010.310
381.8320, 5168.401
382.3141, 5357.534
382.7962, 5567.133
383.2783, 5786.470
383.7604, 6013.723
384.2426, 6234.165
384.7247, 6460.775
385.2068, 6671.213
385.6889, 6829.696
386.1710, 6933.818
386.6531, 6971.563
387.1353, 6917.476
387.6174, 6785.558
388.0995, 6613.247
388.5816, 6383.299
389.0637, 6140.448
389.5458, 5922.122
390.0280, 5727.556
390.5101, 5558.523
390.9922, 5416.666
391.4743, 5300.659
391.9564, 5207.400
392.4385, 5135.617
392.9207, 5088.297
393.4028, 5070.023
393.8849, 5078.064
394.3670, 5105.074
394.8491, 5155.732
395.3312, 5219.068
395.8134, 5290.953
396.2955, 5374.807
396.7776, 5456.033
397.2597, 5528.693
397.7418, 5596.888
398.2239, 5666.571
398.7061, 5734.400
399.1882, 5807.318
399.6703, 5885.015
400.1524, 5967.229
400.6346, 6062.782
401.1167, 6174.275
401.5988, 6295.722
402.0809, 6426.979
402.5630, 6594.269
403.0451, 6722.046
403.5273, 6811.048
404.0094, 6854.964
404.4915, 6829.994
404.9736, 6723.300
405.4557, 6577.691
405.9378, 6406.836
406.4200, 6209.817
406.9021, 5996.295
407.3842, 5766.423
407.8663, 5525.103
408.3484, 5269.279
408.8305, 4997.281
409.3127, 4751.688
409.7948, 4539.308
410.2769, 4363.979
410.7590, 4241.457
411.2411, 4171.550
411.7232, 4142.960
412.2054, 4153.610
412.6875, 4198.827
413.1696, 4264.011
413.6517, 4347.244
414.1338, 4451.435
414.6159, 4579.546
415.0981, 4730.537
415.5802, 4901.250
416.0623, 5090.478
416.5444, 5298.117
417.0265, 5519.567
417.5086, 5756.284
417.9908, 6005.280
418.4729, 6266.239
418.9550, 6536.332
419.4371, 6808.849
419.9192, 7097.102
420.4013, 7373.364
420.8835, 7638.162
421.3656, 7883.102
421.8477, 8087.773
422.3298, 8245.396
422.8119, 8359.019
423.2940, 8424.423
423.7762, 8424.713
424.2583, 8425.983
424.7404, 8439.193
425.2225, 8455.275
425.7047, 8464.924
426.1868, 8481.668
426.6689, 8474.536
427.1510, 8442.426
427.6331, 8384.219
428.1152, 8286.692
428.5974, 8144.063
429.0795, 7968.435
429.5616, 7759.932
430.0437, 7511.115
430.5258, 7263.313
431.0079, 7018.573
431.4901, 6777.469
431.9722, 6542.903
432.4543, 6316.691
432.9364, 6086.676
433.4185, 5856.861
433.9006, 5622.570
434.3828, 5364.930
434.8649, 5083.222
435.3470, 4787.596
435.8291, 4474.823
436.3112, 4152.846
436.7933, 3851.967
437.2755, 3574.815
437.7576, 3323.802
438.2397, 3106.718
438.7218, 2922.182
439.2039, 2765.615
439.6860, 2640.232
440.1682, 2537.491
440.6503, 2452.524
441.1324, 2383.958
441.6145, 2330.078
442.0966, 2293.802
442.5787, 2270.037
443.0609, 2253.334
443.5430, 2243.329
444.0251, 2238.644
444.5072, 2238.435
444.9893, 2243.076
445.4714, 2253.780
445.9536, 2271.400
446.4357, 2294.670
446.9178, 2323.050
447.3999, 2356.539
447.8820, 2395.541
448.3641, 2439.656
448.8463, 2489.589
449.3284, 2546.847
449.8105, 2610.490
450.2926, 2682.114
450.7747, 2761.903
451.2569, 2850.268
451.7390, 2946.125
452.2211, 3049.492
452.7032, 3162.730
453.1853, 3288.344
453.6674, 3427.864
454.1496, 3570.735
454.6317, 3717.510
455.1138, 3867.558
455.5959, 4022.328
456.0780, 4181.678
456.5602, 4330.930
457.0423, 4475.148
457.5244, 4599.460
458.0065, 4677.913
458.4886, 4710.291
458.9707, 4700.677
459.4529, 4640.378
459.9350, 4542.888
460.4171, 4426.593
460.8992, 4288.213
461.3813, 4148.422
461.8634, 4023.328
462.3456, 3906.845
462.8277, 3791.493
463.3098, 3678.417
463.7919, 3560.164
464.2740, 3430.791
464.7561, 3290.815
465.2383, 3149.774
465.7204, 3002.709
466.2025, 2860.440
466.6846, 2730.606
467.1667, 2611.495
467.6488, 2509.477
468.1310, 2426.457
468.6131, 2359.698
469.0952, 2303.624
469.5773, 2262.179
470.0594, 2225.354
470.5415, 2190.782
471.0237, 2158.637
471.5058, 2129.476
471.9879, 2104.061
472.4700, 2079.877
472.9521, 2054.794
473.4342, 2028.510
473.9164, 2005.081
474.3985, 1984.259
474.8806, 1967.235
475.3627, 1956.006
475.8448, 1950.416
476.3270, 1948.880
476.8091, 1949.922
477.2912, 1954.879
477.7733, 1967.057
478.2554, 1986.256
478.7375, 2009.486
479.2197, 2034.386
479.7018, 2062.082
480.1839, 2094.374
480.6660, 2132.584
481.1481, 2172.253
481.6302, 2210.019
482.1124, 2247.257
482.5945, 2286.292
483.0766, 2328.437
483.5587, 2372.313
484.0408, 2417.168
484.5229, 2462.790
485.0051, 2509.494
485.4872, 2561.252
485.9693, 2611.457
486.4514, 2656.015
486.9335, 2697.438
487.4156, 2729.610
487.8978, 2752.319
488.3799, 2765.816
488.8620, 2770.081
489.3441, 2761.812
489.8262, 2752.077
490.3083, 2741.228
490.7905, 2730.738
491.2726, 2731.236
491.7547, 2742.830
492.2368, 2764.803
492.7189, 2794.681
493.2010, 2833.616
493.6832, 2887.750
494.1653, 2958.881
494.6474, 3042.155
495.1295, 3133.741
495.6116, 3233.452
496.0938, 3341.837
496.5759, 3459.967
497.0580, 3586.169
497.5401, 3718.934
498.0222, 3858.274
498.5044, 3997.606
498.9865, 4138.906
499.4686, 4277.023
499.9507, 4412.057
500.4328, 4549.197
500.9149, 4662.360
501.3971, 4753.482
501.8792, 4812.833
502.3613, 4829.832
502.8434, 4793.024
503.3255, 4724.641
503.8076, 4616.929
504.2898, 4477.732
504.7719, 4340.657
505.2540, 4200.651
505.7361, 4070.545
506.2182, 3954.274
506.7003, 3852.797
507.1825, 3763.649
507.6646, 3688.245
508.1467, 3622.191
508.6288, 3562.750
509.1109, 3509.929
509.5930, 3456.506
510.0752, 3400.330
510.5573, 3343.972
511.0394, 3291.740
511.5215, 3243.575
512.0037, 3198.987
512.4858, 3157.224
512.9679, 3119.088
513.4500, 3084.535
513.9321, 3053.635
514.4142, 3030.305
514.8964, 3019.562
515.3785, 3016.742
515.8606, 3016.813
516.3427, 3017.181
516.8248, 3022.583
517.3069, 3036.535
517.7891, 3056.543
518.2712, 3078.092
518.7533, 3104.586
519.2354, 3127.897
519.7175, 3146.010
520.1996, 3159.117
520.6818, 3166.985
521.1639, 3172.521
521.6460, 3169.209
522.1281, 3153.540
522.6102, 3125.188
523.0923, 3085.551
523.5745, 3033.991
524.0566, 2971.782
524.5387, 2899.666
525.0208, 2817.389
525.5029, 2728.789
525.9850, 2631.835
526.4672, 2532.058
526.9493, 2438.254
527.4314, 2349.648
527.9135, 2267.138
528.3956, 2188.294
528.8777, 2114.855
529.3599, 2050.251
529.8420, 1994.243
530.3241, 1945.899
530.8062, 1904.479
531.2883, 1869.501
531.7704, 1841.443
532.2526, 1821.897
532.7347, 1806.396
533.2168, 1793.057
533.6989, 1782.714
534.1810, 1776.943
534.6631, 1776.627
535.1453, 1780.547
535.6274, 1788.821
536.1095, 1801.635
536.5916, 1815.513
537.0737, 1829.676
537.5558, 1846.365
538.0380, 1868.251
538.5201, 1896.795
539.0022, 1921.724
539.4843, 1941.752
539.9664, 1958.973
540.4485, 1975.815
540.9307, 1992.108
541.4128, 2007.074
541.8949, 2019.634
542.3770, 2031.235
542.8591, 2043.594
543.3412, 2056.834
543.8234, 2072.486
544.3055, 2091.482
544.7876, 2113.284
545.2697, 2136.894
545.7518, 2162.105
546.2339, 2190.531
546.7161, 2223.277
547.1982, 2259.220
547.6803, 2298.148
548.1624, 2339.905
548.6445, 2384.399
549.1266, 2433.079
549.6088, 2484.398
550.0909, 2535.268
550.5730, 2586.704
551.0551, 2636.554
551.5372, 2684.444
552.0193, 2730.372
552.5015, 2772.562
552.9836, 2812.055
553.4657, 2844.307
553.9478, 2868.287
554.4299, 2883.358
554.9120, 2882.654
555.3942, 2865.509
555.8763, 2834.031
556.3584, 2787.688
556.8405, 2728.772
557.3226, 2662.461
557.8047, 2586.690
558.2869, 2509.011
558.7690, 2433.700
559.2511, 2361.620
559.7332, 2295.833
560.2154, 2234.872
560.6975, 2183.118
561.1796, 2143.252
561.6617, 2115.508
562.1439, 2094.055
562.6260, 2077.937
563.1081, 2067.954
563.5902, 2063.926
564.0723, 2065.990
564.5544, 2073.764
565.0366, 2087.071
565.5187, 2106.351
566.0008, 2132.626
566.4829, 2166.929
566.9650, 2203.598
567.4471, 2240.786
567.9293, 2280.167
568.4114, 2325.347
568.8935, 2376.246
569.3756, 2429.981
569.8577, 2484.216
570.3398, 2540.398
570.8220, 2599.170
571.3041, 2661.208
571.7862, 2724.775
572.2683, 2791.166
572.7504, 2857.809
573.2325, 2923.652
573.7147, 2989.030
574.1968, 3050.843
574.6789, 3108.738
575.1610, 3161.995
575.6431, 3210.409
576.1252, 3260.530
576.6074, 3296.989
577.0895, 3316.975
577.5716, 3322.035
578.0537, 3318.813
578.5358, 3308.950
579.0179, 3287.017
579.5001, 3250.629
579.9822, 3199.717
580.4643, 3137.996
580.9464, 3065.145
581.4285, 2983.886
581.9106, 2892.626
582.3928, 2793.603
582.8749, 2694.300
583.3570, 2594.599
583.8391, 2497.579
584.3212, 2402.726
584.8033, 2312.406
585.2855, 2229.916
585.7676, 2155.914
586.2497, 2090.627
586.7318, 2035.232
587.2139, 1988.243
587.6960, 1945.415
