##NAMES=Simpsonite
##RRUFFID=R050629
##IDEAL CHEMISTRY=Al_4_Ta^5+^_3_O_13_(OH)
##LOCALITY=Equador, Rio Grande do Norte, Brazil
##OWNER=RRUFF
##SOURCE=Gemological Center
##DESCRIPTION=Yellow fragment
##STATUS=The identification of this mineral has been confirmed by X-ray diffraction and chemical analysis
##URL=rruff.info/R050629
##MEASURED CHEMISTRY=Al_4.00_(Ta_2.93_Nb_0.07_)_Î£=3_O_13_(OH)
92.06543, 245.6885
92.54755, 247.8906
93.02966, 249.6102
93.51178, 247.1784
93.99390, 243.2668
94.47601, 239.2278
94.95813, 235.1266
95.44025, 230.3403
95.92236, 224.2977
96.40448, 216.8181
96.88660, 209.9399
97.36871, 203.5359
97.85082, 197.8177
98.33294, 193.0820
98.81506, 189.2254
99.29717, 185.3862
99.77929, 181.6019
100.2614, 177.9315
100.7435, 173.9378
101.2256, 168.8171
101.7078, 163.2445
102.1899, 158.9293
102.6720, 156.5535
103.1541, 155.0635
103.6362, 153.2223
104.1183, 151.0340
104.6005, 149.1523
105.0826, 148.1000
105.5647, 147.8894
106.0468, 148.2477
106.5289, 150.1504
107.0110, 151.9202
107.4931, 152.5480
107.9753, 151.7493
108.4574, 149.8972
108.9395, 147.5736
109.4216, 143.7872
109.9037, 141.1558
110.3858, 140.6080
110.8680, 140.9708
111.3501, 140.9099
111.8322, 139.6586
112.3143, 137.5547
112.7964, 136.8018
113.2785, 138.3758
113.7607, 140.1142
114.2428, 141.5008
114.7249, 142.6103
115.2070, 143.6718
115.6891, 144.6735
116.1712, 145.7645
116.6534, 148.1467
117.1355, 152.1320
117.6176, 157.0965
118.0997, 162.1582
118.5818, 167.1718
119.0639, 173.7353
119.5461, 184.0100
120.0282, 197.1580
120.5103, 211.2699
120.9924, 227.2449
121.4745, 243.7312
121.9566, 257.9793
122.4388, 270.4088
122.9209, 278.8891
123.4030, 282.4868
123.8851, 281.7410
124.3672, 278.4741
124.8493, 273.0890
125.3315, 265.3313
125.8136, 259.0014
126.2957, 254.4062
126.7778, 251.4239
127.2599, 250.2550
127.7420, 250.8677
128.2242, 252.9417
128.7063, 256.0468
129.1884, 260.1301
129.6705, 265.6287
130.1526, 273.2548
130.6347, 281.5886
131.1169, 289.3497
131.5990, 296.1668
132.0811, 302.8232
132.5632, 311.0447
133.0453, 321.9145
133.5274, 333.2299
134.0096, 344.3601
134.4917, 355.9801
134.9738, 368.8330
135.4559, 383.1970
135.9380, 399.2923
136.4201, 417.5859
136.9023, 436.6780
137.3844, 459.0059
137.8665, 485.0044
138.3486, 514.7770
138.8307, 549.6595
139.3128, 592.7029
139.7950, 640.4612
140.2771, 684.9376
140.7592, 730.5088
141.2413, 768.0114
141.7234, 787.3978
142.2055, 787.1409
142.6877, 775.9642
143.1698, 758.6141
143.6519, 733.3283
144.1340, 695.4572
144.6161, 640.3637
145.0982, 573.0790
145.5803, 504.8400
146.0625, 429.4673
146.5446, 364.3922
147.0267, 314.1378
147.5088, 276.3510
147.9909, 247.6640
148.4730, 226.8617
148.9552, 213.6198
149.4373, 201.9729
149.9194, 192.0179
150.4015, 183.6770
150.8836, 177.1559
151.3657, 172.3288
151.8479, 168.9006
152.3300, 166.7307
152.8121, 165.9700
153.2942, 165.5364
153.7763, 165.4212
154.2584, 165.5447
154.7406, 165.9863
155.2227, 166.6883
155.7048, 167.3931
156.1869, 167.7603
156.6690, 167.5631
157.1511, 167.9925
157.6333, 169.2678
158.1154, 171.0245
158.5975, 172.8359
159.0796, 174.5996
159.5617, 176.7408
160.0438, 179.7270
160.5260, 183.4269
161.0081, 188.4762
161.4902, 195.0032
161.9723, 202.9759
162.4544, 212.3516
162.9365, 223.0383
163.4187, 235.3006
163.9008, 250.4302
164.3829, 268.2527
164.8650, 284.2143
165.3471, 298.1044
165.8292, 309.0743
166.3113, 310.8484
166.7935, 298.9437
167.2756, 279.1851
167.7577, 254.4178
168.2398, 225.1227
168.7219, 196.3976
169.2040, 172.9211
169.6862, 155.0099
170.1683, 140.4503
170.6504, 130.4387
171.1325, 122.8642
171.6146, 117.2529
172.0967, 113.3774
172.5789, 110.4552
173.0610, 107.3285
173.5431, 103.5941
174.0252, 100.6379
174.5073, 98.99676
174.9894, 97.71640
175.4716, 96.05253
175.9537, 93.79021
176.4358, 91.27956
176.9179, 89.21898
177.4000, 87.60584
177.8821, 86.56149
178.3643, 86.41697
178.8464, 86.66798
179.3285, 86.92433
179.8106, 87.02560
180.2927, 86.88622
180.7748, 86.24637
181.2570, 84.18429
181.7391, 82.76360
182.2212, 82.70333
182.7033, 83.33921
183.1854, 83.64809
183.6675, 83.12878
184.1497, 82.06484
184.6318, 81.36388
185.1139, 81.23392
185.5960, 81.05268
186.0781, 80.65501
186.5602, 80.04806
187.0423, 79.19100
187.5245, 77.92397
188.0066, 76.53524
188.4887, 75.64194
188.9708, 75.29233
189.4529, 75.31661
189.9350, 75.62216
190.4172, 76.21004
190.8993, 77.15340
191.3814, 78.84699
191.8635, 80.71504
192.3456, 81.92141
192.8277, 82.18886
193.3099, 82.16424
193.7920, 82.45216
194.2741, 83.07925
194.7562, 83.83089
195.2383, 84.95995
195.7204, 86.02189
196.2026, 86.44113
196.6847, 85.88050
197.1668, 85.22039
197.6489, 85.94173
198.1310, 88.56469
198.6131, 91.10799
199.0953, 93.20329
199.5774, 94.89259
200.0595, 96.00398
200.5416, 96.41960
201.0237, 96.59988
201.5058, 97.58508
201.9880, 99.77363
202.4701, 102.1252
202.9522, 104.3515
203.4343, 106.6392
203.9164, 109.2606
204.3985, 112.3491
204.8807, 115.6452
205.3628, 118.3048
205.8449, 119.2283
206.3270, 120.9577
206.8091, 124.0031
207.2912, 127.8591
207.7733, 132.0118
208.2555, 136.1949
208.7376, 140.4411
209.2197, 144.8734
209.7018, 150.4158
210.1839, 155.0829
210.6660, 159.1347
211.1482, 162.0733
211.6303, 163.2215
212.1124, 162.2108
212.5945, 159.2412
213.0766, 154.8877
213.5587, 146.9855
214.0409, 140.3489
214.5230, 136.2154
215.0051, 133.9618
215.4872, 132.3615
215.9693, 130.7453
216.4514, 129.4623
216.9336, 129.9902
217.4157, 132.8310
217.8978, 136.3040
218.3799, 140.5803
218.8620, 145.1479
219.3441, 148.7881
219.8263, 150.9047
220.3084, 151.6373
220.7905, 151.6214
221.2726, 151.1863
221.7547, 149.6539
222.2368, 146.2409
222.7190, 141.2977
223.2011, 136.0986
223.6832, 130.7009
224.1653, 125.8559
224.6474, 122.7495
225.1295, 121.8159
225.6117, 121.5134
226.0938, 120.7223
226.5759, 119.5598
227.0580, 119.0375
227.5401, 119.5619
228.0222, 120.9885
228.5043, 123.0786
228.9865, 125.9126
229.4686, 129.0080
229.9507, 131.7905
230.4328, 134.2601
230.9149, 137.2881
231.3970, 140.9119
231.8792, 145.4515
232.3613, 150.9632
232.8434, 157.4174
233.3255, 165.3371
233.8076, 175.3367
234.2897, 187.4864
234.7719, 200.8871
235.2540, 216.5235
235.7361, 232.7108
236.2182, 248.9233
236.7003, 265.0305
237.1824, 280.0161
237.6646, 292.9998
238.1467, 304.0625
238.6288, 312.9991
239.1109, 319.9496
239.5930, 324.5333
240.0751, 325.4506
240.5573, 322.9505
241.0394, 319.5425
241.5215, 318.0321
242.0036, 318.7247
242.4857, 320.1008
242.9678, 321.6671
243.4500, 324.1985
243.9321, 328.4080
244.4142, 334.2008
244.8963, 340.7369
245.3784, 346.7447
245.8605, 351.3550
246.3427, 358.7187
246.8248, 369.2571
247.3069, 381.9164
247.7890, 396.4933
248.2711, 412.8728
248.7532, 430.6413
249.2354, 449.2539
249.7175, 467.8485
250.1996, 491.2720
250.6817, 520.2081
251.1638, 552.4827
251.6459, 587.8387
252.1281, 625.8976
252.6102, 666.2750
253.0923, 710.1826
253.5744, 760.1268
254.0565, 795.9066
254.5386, 828.7767
255.0208, 840.7591
255.5029, 820.3176
255.9850, 770.3866
256.4671, 701.3150
256.9492, 619.1232
257.4313, 521.7035
257.9135, 438.7748
258.3956, 368.7892
258.8777, 310.8697
259.3598, 266.8342
259.8419, 234.8922
260.3240, 210.5763
260.8062, 191.0611
261.2883, 176.3222
261.7704, 163.3702
262.2525, 151.3638
262.7346, 141.3397
263.2167, 134.0826
263.6989, 129.1999
264.1810, 125.8680
264.6631, 123.6849
265.1452, 122.5465
265.6273, 121.5028
266.1094, 120.5395
266.5916, 119.6659
267.0737, 118.9087
267.5558, 118.2495
268.0379, 117.5510
268.5200, 116.6329
269.0021, 115.7404
269.4843, 115.9536
269.9664, 118.0711
270.4485, 120.0615
270.9306, 120.8898
271.4127, 121.1317
271.8948, 122.0400
272.3770, 124.2235
272.8591, 127.2890
273.3412, 130.3346
273.8233, 133.3507
274.3054, 136.3578
274.7875, 139.1113
275.2697, 141.8759
275.7518, 145.1145
276.2339, 148.9707
276.7160, 153.4161
277.1981, 158.3931
277.6802, 163.7188
278.1623, 169.9075
278.6444, 177.1939
279.1266, 185.4489
279.6087, 194.5747
280.0908, 204.6717
280.5729, 215.1726
281.0550, 226.2871
281.5371, 238.3757
282.0193, 246.9721
282.5014, 251.7294
282.9835, 252.0869
283.4656, 246.6613
283.9477, 234.8874
284.4298, 219.2486
284.9120, 200.6332
285.3941, 179.5515
285.8762, 160.7556
286.3583, 145.1685
286.8404, 132.4008
287.3225, 122.2209
287.8047, 114.6729
288.2868, 109.0259
288.7689, 105.0739
289.2510, 102.6607
289.7331, 101.1807
290.2152, 101.0574
290.6974, 101.5459
291.1795, 101.8748
291.6616, 102.0187
292.1437, 102.4000
292.6258, 103.3848
293.1079, 104.7987
293.5901, 106.1951
294.0722, 107.4719
294.5543, 108.7877
295.0364, 110.2453
295.5185, 111.8516
296.0006, 113.6108
296.4828, 115.4586
296.9649, 117.5377
297.4470, 120.0393
297.9291, 123.0759
298.4112, 126.2856
298.8933, 129.5579
299.3755, 132.8367
299.8576, 135.8339
300.3397, 138.3286
300.8218, 140.6163
301.3039, 143.1347
301.7860, 145.9088
302.2682, 148.6602
302.7503, 151.0279
303.2324, 153.2219
303.7145, 156.0745
304.1966, 160.0107
304.6787, 164.2749
305.1609, 167.7352
305.6430, 170.5424
306.1251, 174.2634
306.6072, 180.0545
307.0893, 187.1788
307.5714, 193.9013
308.0536, 199.7282
308.5357, 205.9896
309.0178, 214.0044
309.4999, 223.3290
309.9820, 233.0310
310.4641, 242.6460
310.9463, 252.5029
311.4284, 263.0345
311.9105, 274.2495
312.3926, 285.9206
312.8747, 298.1687
313.3568, 310.6889
313.8390, 323.0337
314.3211, 336.3571
314.8032, 348.1739
315.2853, 356.6349
315.7674, 361.7328
316.2495, 362.3301
316.7317, 357.7277
317.2138, 347.8112
317.6959, 332.6323
318.1780, 310.8262
318.6601, 287.2659
319.1422, 264.5505
319.6243, 242.7637
320.1064, 223.0899
320.5886, 205.6741
321.0707, 191.0430
321.5528, 179.2703
322.0349, 170.3084
322.5170, 163.3391
322.9991, 158.3644
323.4813, 155.0763
323.9634, 152.5727
324.4455, 150.7547
324.9276, 149.6255
325.4097, 149.2944
325.8918, 149.6558
326.3740, 150.4559
326.8561, 151.8591
327.3382, 153.5637
327.8203, 155.0302
328.3024, 156.1489
328.7845, 157.4428
329.2667, 160.0667
329.7488, 163.1696
330.2309, 164.5223
330.7130, 163.1871
331.1951, 160.2829
331.6772, 156.7783
332.1594, 152.6723
332.6415, 147.8455
333.1236, 141.6685
333.6057, 134.9532
334.0878, 129.2771
334.5699, 124.6552
335.0521, 121.1891
335.5342, 119.1160
336.0163, 118.3154
336.4984, 118.2463
336.9805, 118.8211
337.4626, 119.9527
337.9448, 121.5030
338.4269, 123.4826
338.9090, 125.6890
339.3911, 128.2500
339.8732, 130.9530
340.3553, 133.4537
340.8375, 135.7374
341.3196, 137.5938
341.8017, 138.9486
342.2838, 139.8081
342.7659, 139.3533
343.2480, 137.0229
343.7302, 133.5278
344.2123, 129.3071
344.6944, 124.4333
345.1765, 119.6201
345.6586, 115.2023
346.1407, 111.3506
346.6229, 108.3990
347.1050, 106.9093
347.5871, 105.8503
348.0692, 104.6354
348.5513, 103.3371
349.0334, 102.2293
349.5156, 101.4794
349.9977, 100.9905
350.4798, 100.4816
350.9619, 99.78845
351.4440, 99.38470
351.9261, 99.61313
352.4083, 100.1890
352.8904, 100.6228
353.3725, 100.7530
353.8546, 100.8112
354.3367, 101.1520
354.8188, 101.8531
355.3010, 102.5049
355.7831, 102.6841
356.2652, 103.0381
356.7473, 104.1652
357.2294, 106.1261
357.7115, 108.6046
358.1937, 111.3759
358.6758, 114.4584
359.1579, 117.7190
359.6400, 121.0435
360.1221, 124.6349
360.6042, 128.7364
361.0863, 133.1993
361.5685, 137.5496
362.0506, 141.5041
362.5327, 145.2207
363.0148, 149.3679
363.4969, 153.8340
363.9790, 158.8178
364.4612, 164.3562
364.9433, 170.4397
365.4254, 177.0203
365.9075, 184.0844
366.3896, 191.5821
366.8717, 199.5246
367.3539, 208.5623
367.8360, 216.4437
368.3181, 222.1773
368.8002, 227.5779
369.2823, 233.9325
369.7644, 241.2297
370.2466, 248.5954
370.7287, 255.1422
371.2108, 260.7477
371.6929, 267.7544
372.1750, 276.4194
372.6571, 286.1131
373.1393, 297.1504
373.6214, 309.0666
374.1035, 321.3589
374.5856, 333.7261
375.0677, 346.0861
375.5498, 358.3056
376.0320, 370.7642
376.5141, 382.4645
376.9962, 393.6039
377.4783, 403.8729
377.9604, 412.6015
378.4425, 419.8047
378.9247, 426.4482
379.4068, 433.7074
379.8889, 441.4693
380.3710, 450.2791
380.8531, 459.7046
381.3352, 470.5812
381.8174, 484.0461
382.2995, 499.4458
382.7816, 515.2526
383.2637, 530.9812
383.7458, 546.0973
384.2279, 556.7313
384.7101, 562.9138
385.1922, 563.8856
385.6743, 559.3070
386.1564, 550.3732
386.6385, 537.9573
387.1206, 522.1877
387.6028, 504.4999
388.0849, 486.5474
388.5670, 467.9979
389.0491, 451.0084
389.5312, 436.0408
390.0133, 422.8906
390.4955, 411.5118
390.9776, 401.9003
391.4597, 394.0480
391.9418, 387.6766
392.4239, 382.9358
392.9060, 381.0658
393.3882, 382.9041
393.8703, 386.4091
394.3524, 390.3493
394.8345, 394.8160
395.3166, 400.1026
395.7987, 406.2581
396.2809, 413.3167
396.7630, 421.2438
397.2451, 430.1001
397.7272, 439.8409
398.2093, 450.3927
398.6914, 462.0498
399.1736, 475.1717
399.6557, 490.2218
400.1378, 505.6336
400.6199, 521.6234
401.1020, 537.3181
401.5841, 550.8145
402.0662, 562.1456
402.5483, 569.7466
403.0305, 571.1530
403.5126, 566.8058
403.9947, 558.4205
404.4768, 544.8390
404.9589, 528.2909
405.4410, 510.0041
405.9232, 490.4030
406.4053, 471.0096
406.8874, 452.5309
407.3695, 435.2747
407.8516, 419.9513
408.3337, 404.9853
408.8159, 393.4752
409.2980, 386.5298
409.7801, 383.5764
410.2622, 384.0946
410.7443, 387.9605
411.2264, 394.0673
411.7086, 400.5902
412.1907, 406.8179
412.6728, 415.6253
413.1549, 427.3680
413.6370, 441.2978
414.1191, 457.1825
414.6013, 474.8430
415.0834, 494.0887
415.5655, 514.9077
416.0476, 537.2512
416.5297, 558.8945
417.0118, 579.0507
417.4940, 599.2707
417.9761, 622.1045
418.4582, 644.3474
418.9403, 662.3214
419.4224, 674.6693
419.9045, 681.4799
420.3867, 683.1829
420.8688, 680.4432
421.3509, 670.4605
421.8330, 649.3928
422.3151, 624.7502
422.7972, 598.5826
423.2794, 572.1635
423.7615, 547.3712
424.2436, 525.4617
424.7257, 506.4686
425.2078, 490.3631
425.6899, 477.4787
426.1721, 467.1631
426.6542, 460.1529
427.1363, 454.7753
427.6184, 449.0933
428.1005, 442.4874
428.5826, 435.5077
429.0648, 428.7656
429.5469, 422.2204
430.0290, 416.0668
430.5111, 411.1559
430.9932, 405.7335
431.4753, 398.7522
431.9575, 390.1856
432.4396, 379.8032
432.9217, 367.7780
433.4038, 353.8337
433.8859, 336.7977
434.3680, 316.4174
434.8502, 295.4748
435.3323, 274.9372
435.8144, 255.3689
436.2965, 237.8115
436.7786, 222.4101
437.2607, 208.8655
437.7429, 197.4698
438.2250, 187.8481
438.7071, 179.0037
439.1892, 170.5536
439.6713, 163.2802
440.1534, 158.5591
440.6356, 156.9534
441.1177, 155.5542
441.5998, 154.0645
442.0819, 152.8655
442.5640, 152.1059
443.0461, 151.8711
443.5282, 152.4282
444.0103, 154.0447
444.4925, 156.5030
444.9746, 158.5699
445.4567, 159.1461
445.9388, 160.6990
446.4209, 164.0916
446.9030, 168.2575
447.3852, 172.1893
447.8673, 175.5987
448.3494, 178.8452
448.8315, 182.2966
449.3136, 185.8423
449.7957, 190.1487
450.2779, 195.1428
450.7600, 201.0392
451.2421, 207.9948
451.7242, 215.9238
452.2063, 224.7966
452.6884, 234.6611
453.1706, 245.1187
453.6527, 255.0895
454.1348, 264.3784
454.6169, 273.6563
455.0990, 283.7955
455.5811, 293.4970
456.0633, 301.8369
456.5454, 308.7174
457.0275, 314.6841
457.5096, 320.4666
457.9917, 325.7020
458.4738, 328.9716
458.9560, 329.7812
459.4381, 329.7895
459.9202, 330.1988
460.4023, 330.5522
460.8844, 330.0267
461.3665, 329.0967
461.8487, 326.3555
462.3308, 320.2891
462.8129, 311.4452
463.2950, 301.5731
463.7771, 290.9467
464.2592, 280.0772
464.7414, 269.5074
465.2235, 259.1647
465.7056, 249.3998
466.1877, 239.6969
466.6698, 230.9045
467.1519, 223.7449
467.6341, 218.1507
468.1162, 213.8602
468.5983, 210.8521
469.0804, 208.7927
469.5625, 206.2603
470.0446, 203.0271
470.5268, 199.5921
471.0089, 195.5457
471.4910, 191.5786
471.9731, 188.4729
472.4552, 186.3037
472.9373, 184.4128
473.4195, 181.9424
473.9016, 178.7606
474.3837, 176.8258
474.8658, 176.9175
475.3479, 177.5074
475.8300, 178.2676
476.3122, 179.2225
476.7943, 180.3990
477.2764, 181.7818
477.7585, 183.5646
478.2406, 186.2652
478.7227, 190.0125
479.2049, 193.3889
479.6870, 195.8340
480.1691, 198.1528
480.6512, 200.7859
481.1333, 203.7548
481.6154, 207.1187
482.0976, 210.9411
482.5797, 215.1639
483.0618, 219.9867
483.5439, 225.4405
484.0260, 230.2922
484.5081, 233.7319
484.9902, 236.3435
485.4724, 239.5332
485.9545, 243.6773
486.4366, 247.2651
486.9187, 249.6651
487.4008, 251.2796
487.8829, 252.4126
488.3651, 253.1750
488.8472, 254.0699
489.3293, 255.4911
489.8114, 257.4454
490.2935, 259.9426
490.7756, 262.5373
491.2578, 266.0650
491.7399, 270.5558
492.2220, 276.1761
492.7041, 283.3313
493.1862, 292.0871
493.6683, 301.7793
494.1505, 311.2511
494.6326, 319.8705
495.1147, 330.6639
495.5968, 345.3211
496.0789, 360.4931
496.5610, 374.8292
497.0432, 388.7866
497.5253, 403.7631
498.0074, 420.6403
498.4895, 437.9579
498.9716, 453.2968
499.4537, 466.7874
499.9359, 477.6424
500.4180, 486.5934
500.9001, 491.7699
501.3822, 491.6553
501.8643, 486.4450
502.3464, 478.2079
502.8286, 467.0086
503.3107, 453.7388
503.7928, 439.2578
504.2749, 423.6310
504.7570, 407.7251
505.2391, 391.7891
505.7213, 376.0218
506.2034, 361.2042
506.6855, 347.2135
507.1676, 334.2641
507.6497, 322.3975
508.1318, 311.5952
508.6140, 302.2483
509.0961, 294.2437
509.5782, 286.5362
510.0603, 278.2233
510.5424, 269.3631
511.0245, 261.1733
511.5067, 253.4886
511.9888, 246.7101
512.4709, 240.9116
512.9530, 236.0293
513.4351, 232.0761
513.9172, 229.0143
514.3994, 226.6378
514.8815, 224.7627
515.3636, 223.4032
515.8457, 222.2410
516.3278, 220.9516
516.8099, 220.3450
517.2921, 221.1444
517.7742, 222.6506
518.2563, 223.7868
518.7384, 224.1598
519.2205, 224.2213
519.7026, 224.5518
520.1848, 225.0713
520.6669, 225.2015
521.1490, 224.9068
521.6311, 224.0214
522.1132, 222.3472
522.5953, 219.9444
523.0775, 216.8255
523.5596, 212.3575
524.0417, 207.7566
524.5238, 203.8504
525.0059, 200.5352
525.4880, 197.4738
525.9702, 194.5691
526.4523, 191.6691
526.9344, 188.3718
527.4165, 184.0695
527.8986, 181.1411
528.3807, 180.5453
528.8629, 180.3037
529.3450, 178.9100
529.8271, 177.0053
530.3092, 176.3347
530.7913, 177.9553
531.2734, 180.9695
531.7556, 183.0760
532.2377, 183.6472
532.7198, 185.0818
533.2019, 188.4204
533.6840, 192.1534
534.1661, 195.5235
534.6483, 198.5642
535.1304, 201.6885
535.6125, 205.2741
536.0946, 209.0144
536.5767, 212.6262
537.0588, 216.1518
537.5410, 218.5828
538.0231, 219.1786
538.5052, 218.7683
538.9873, 218.6555
539.4694, 218.8919
539.9515, 218.9871
540.4337, 219.1588
540.9158, 218.8900
541.3979, 217.3855
541.8800, 214.8285
542.3621, 212.1676
542.8442, 209.8788
543.3264, 208.1378
543.8085, 207.5506
544.2906, 208.7247
544.7726, 210.3109
545.2548, 212.5571
545.7369, 214.9966
546.2190, 217.0720
546.7011, 218.9445
547.1832, 221.3581
547.6653, 224.9183
548.1475, 229.3863
548.6296, 233.7238
549.1117, 237.7468
549.5938, 242.1001
550.0759, 247.6579
550.5580, 253.1618
551.0402, 257.7652
551.5223, 261.3770
552.0044, 264.2342
552.4865, 266.4579
552.9686, 268.0331
553.4507, 269.0086
553.9329, 269.3869
554.4150, 268.8913
554.8971, 267.3456
555.3792, 264.8476
555.8613, 261.6369
556.3434, 257.8405
556.8256, 253.2151
557.3077, 246.4986
557.7898, 239.7443
558.2719, 234.9045
558.7540, 231.9678
559.2361, 229.8925
559.7183, 227.9460
560.2004, 226.2570
560.6825, 225.3278
561.1646, 225.2667
561.6467, 225.8645
562.1288, 226.9970
562.6110, 228.7558
563.0931, 231.4067
563.5752, 234.8163
564.0573, 238.3835
564.5394, 241.3675
565.0215, 244.3859
565.5037, 249.2650
565.9858, 256.2972
566.4679, 263.3841
566.9500, 269.4720
567.4321, 275.5075
567.9142, 282.7596
568.3964, 291.2859
568.8785, 300.0665
569.3606, 308.9194
569.8427, 317.7520
570.3248, 326.5079
570.8069, 335.1578
571.2891, 343.9558
571.7712, 353.0211
572.2533, 362.0822
572.7354, 370.3698
573.2175, 377.9124
573.6996, 384.5658
574.1818, 391.3182
574.6639, 396.4015
575.1460, 398.3893
575.6281, 397.7934
576.1102, 396.1381
576.5923, 394.3792
577.0745, 391.8899
577.5566, 387.3175
578.0387, 380.6062
578.5208, 372.1470
579.0029, 361.7495
579.4850, 349.8578
579.9672, 336.5173
580.4493, 322.0201
580.9314, 307.5766
581.4135, 293.6563
581.8956, 279.9591
582.3777, 265.7662
582.8599, 251.4328
583.3420, 238.0437
583.8241, 225.9303
584.3062, 215.0284
584.7883, 205.3092
585.2704, 196.9220
585.7526, 189.0361
586.2347, 181.4048
586.7168, 174.4556
587.1989, 168.5159
587.6810, 163.3300
588.1631, 158.5084
588.6453, 153.9126
