##NAMES=Simpsonite
##RRUFFID=R061059
##IDEAL CHEMISTRY=Al_4_Ta^5+^_3_O_13_(OH)
##LOCALITY=Mt. Vasin-Myl'k, Voron'ya Tundra, Russia
##OWNER=RRUFF
##SOURCE=Michael Scott
##DESCRIPTION=Subhedral off-white to pale yellowish gray crystal associated with spodumene, feldspar and quartz
##STATUS=The identification of this mineral has been confirmed by single-crystal X-ray diffraction.
##URL=rruff.info/R061059
121.0401, 3474.591
121.5222, 3708.122
122.0043, 3955.648
122.4864, 4192.346
122.9685, 4408.632
123.4506, 4602.036
123.9328, 4768.423
124.4149, 4892.544
124.8970, 4994.356
125.3791, 5093.912
125.8612, 5189.923
126.3433, 5291.957
126.8255, 5397.954
127.3076, 5513.891
127.7897, 5662.551
128.2718, 5843.666
128.7539, 6067.186
129.2361, 6356.639
129.7182, 6717.133
130.2003, 7145.380
130.6824, 7641.088
131.1645, 8205.656
131.6466, 8822.867
132.1288, 9474.490
132.6109, 10163.74
133.0930, 10923.15
133.5751, 11763.78
134.0572, 12676.84
134.5393, 13600.88
135.0215, 14543.75
135.5036, 15496.66
135.9857, 16463.05
136.4678, 17447.10
136.9499, 18439.14
137.4320, 19426.17
137.9142, 20411.84
138.3963, 21489.45
138.8784, 22657.73
139.3605, 23918.51
139.8426, 25296.88
140.3247, 26885.30
140.8069, 28358.89
141.2890, 29684.94
141.7711, 31101.93
142.2532, 31596.49
142.7353, 31030.36
143.2174, 29568.89
143.6996, 27714.57
144.1817, 25197.46
144.6638, 22632.87
145.1459, 20311.82
145.6280, 18230.34
146.1101, 16432.83
146.5923, 14980.33
147.0744, 13857.95
147.5565, 12910.91
148.0386, 12192.55
148.5207, 11618.71
149.0028, 11135.21
149.4850, 10779.28
149.9671, 10464.94
150.4492, 10184.41
150.9313, 9933.591
151.4134, 9723.305
151.8955, 9561.630
152.3777, 9437.705
152.8598, 9342.290
153.3419, 9256.705
153.8240, 9216.701
154.3061, 9233.507
154.7883, 9316.244
155.2704, 9434.180
155.7525, 9581.873
156.2346, 9763.155
156.7167, 9982.116
157.1988, 10263.21
157.6810, 10564.52
158.1631, 10868.44
158.6452, 11173.66
159.1273, 11477.67
159.6094, 11764.95
160.0915, 12046.38
160.5737, 12356.42
161.0558, 12711.83
161.5379, 13095.80
162.0200, 13498.18
162.5021, 13898.20
162.9842, 14328.40
163.4664, 14803.14
163.9485, 15318.99
164.4306, 15852.86
164.9127, 16521.46
165.3948, 17157.11
165.8769, 17590.46
166.3591, 17875.06
166.8412, 17856.10
167.3233, 17360.56
167.8054, 16386.07
168.2875, 15291.01
168.7696, 14172.14
169.2518, 13089.64
169.7339, 12132.69
170.2160, 11346.87
170.6981, 10699.99
171.1802, 10163.11
171.6623, 9743.528
172.1445, 9405.239
172.6266, 9150.308
173.1087, 8959.299
173.5908, 8787.135
174.0729, 8612.493
174.5550, 8443.334
175.0372, 8293.952
175.5193, 8166.762
176.0014, 8052.938
176.4835, 7936.118
176.9656, 7821.154
177.4477, 7726.830
177.9299, 7677.342
178.4120, 7655.529
178.8941, 7631.389
179.3762, 7598.087
179.8583, 7562.517
180.3405, 7535.517
180.8226, 7516.117
181.3047, 7497.196
181.7868, 7475.921
182.2689, 7451.130
182.7510, 7419.015
183.2332, 7372.916
183.7153, 7323.653
184.1974, 7294.878
184.6795, 7287.023
185.1616, 7278.416
185.6437, 7243.232
186.1259, 7187.433
186.6080, 7141.957
187.0901, 7123.680
187.5722, 7120.872
188.0543, 7095.109
188.5364, 7043.515
189.0186, 6989.520
189.5007, 6966.117
189.9828, 6969.978
190.4649, 6960.479
190.9470, 6906.694
191.4291, 6822.653
191.9113, 6780.467
192.3934, 6786.899
192.8755, 6814.705
193.3576, 6828.787
193.8397, 6828.882
194.3218, 6827.354
194.8040, 6829.528
195.2861, 6835.321
195.7682, 6840.454
196.2503, 6843.937
196.7324, 6848.818
197.2145, 6862.474
197.6967, 6886.370
198.1788, 6908.285
198.6609, 6916.730
199.1430, 6910.855
199.6251, 6921.956
200.1072, 6953.777
200.5894, 7000.852
201.0715, 7052.690
201.5536, 7109.239
202.0357, 7168.914
202.5178, 7231.231
202.9999, 7296.542
203.4821, 7362.225
203.9642, 7430.083
204.4463, 7497.215
204.9284, 7553.848
205.4105, 7598.422
205.8926, 7636.506
206.3748, 7667.325
206.8569, 7686.239
207.3390, 7723.113
207.8211, 7785.340
208.3032, 7869.162
208.7854, 7949.593
209.2675, 8023.380
209.7496, 8103.034
210.2317, 8203.214
210.7138, 8332.720
211.1959, 8451.875
211.6781, 8553.359
212.1602, 8637.785
212.6423, 8712.911
213.1244, 8777.593
213.6065, 8834.912
214.0886, 8884.059
214.5708, 8916.561
215.0529, 8963.632
215.5350, 9033.576
216.0171, 9125.995
216.4992, 9222.495
216.9813, 9321.824
217.4635, 9427.345
217.9456, 9543.284
218.4277, 9675.723
218.9098, 9806.286
219.3919, 9935.631
219.8740, 10066.54
220.3562, 10162.08
220.8383, 10222.12
221.3204, 10248.63
221.8025, 10241.86
222.2846, 10194.89
222.7667, 10129.60
223.2489, 10047.86
223.7310, 9948.415
224.2131, 9849.134
224.6952, 9743.644
225.1773, 9644.005
225.6594, 9570.374
226.1416, 9524.562
226.6237, 9500.273
227.1058, 9502.444
227.5879, 9545.055
228.0700, 9556.202
228.5521, 9520.104
229.0343, 9461.877
229.5164, 9426.198
229.9985, 9426.012
230.4806, 9427.233
230.9627, 9418.501
231.4448, 9398.979
231.9270, 9371.775
232.4091, 9334.669
232.8912, 9291.015
233.3733, 9243.976
233.8554, 9174.756
234.3376, 9130.829
234.8197, 9136.288
235.3018, 9217.835
235.7839, 9281.873
236.2660, 9322.702
236.7481, 9347.155
237.2303, 9367.059
237.7124, 9364.673
238.1945, 9384.355
238.6766, 9447.504
239.1587, 9572.254
239.6408, 9700.747
240.1230, 9823.843
240.6051, 9951.803
241.0872, 10110.88
241.5693, 10301.25
242.0514, 10522.45
242.5335, 10769.31
243.0157, 11025.59
243.4978, 11349.09
243.9799, 11752.70
244.4620, 12221.28
244.9441, 12725.89
245.4262, 13295.15
245.9084, 13859.58
246.3905, 14388.76
246.8726, 14871.93
247.3547, 15339.51
247.8368, 15779.37
248.3189, 16203.27
248.8011, 16668.78
249.2832, 17188.46
249.7653, 17731.99
250.2474, 18284.74
250.7295, 18833.95
251.2116, 19411.49
251.6938, 20025.26
252.1759, 20667.02
252.6580, 21344.64
253.1401, 22114.50
253.6222, 22824.42
254.1043, 23430.45
254.5865, 24067.38
255.0686, 24268.55
255.5507, 23968.39
256.0328, 23207.09
256.5149, 22126.76
256.9970, 20598.72
257.4792, 18970.47
257.9613, 17409.35
258.4434, 15875.82
258.9255, 14558.82
259.4076, 13488.42
259.8897, 12647.01
260.3719, 11948.05
260.8540, 11417.87
261.3361, 10984.40
261.8182, 10616.72
262.3003, 10322.41
262.7824, 10062.34
263.2646, 9835.177
263.7467, 9640.271
264.2288, 9486.007
264.7109, 9379.693
265.1930, 9299.852
265.6751, 9231.088
266.1573, 9169.438
266.6394, 9137.916
267.1215, 9146.124
267.6036, 9184.082
268.0857, 9210.616
268.5678, 9213.804
269.0500, 9233.368
269.5321, 9293.756
270.0142, 9396.065
270.4963, 9532.515
270.9784, 9703.656
271.4605, 9907.438
271.9427, 10140.23
272.4248, 10406.77
272.9069, 10688.63
273.3890, 10981.21
273.8711, 11292.77
274.3532, 11573.86
274.8354, 11808.99
275.3175, 12016.97
275.7996, 12255.93
276.2817, 12535.97
276.7639, 12820.51
277.2460, 13081.91
277.7281, 13316.15
278.2102, 13580.43
278.6923, 13882.38
279.1744, 14215.65
279.6566, 14549.39
280.1387, 14879.05
280.6208, 15240.07
281.1029, 15745.22
281.5850, 16394.90
282.0671, 16762.10
282.5493, 16794.30
283.0314, 16535.21
283.5135, 16023.16
283.9956, 15241.41
284.4777, 14391.28
284.9598, 13566.29
285.4420, 12768.94
285.9241, 12070.08
286.4062, 11472.81
286.8883, 10982.58
287.3704, 10628.62
287.8525, 10411.69
288.3347, 10257.25
288.8168, 10135.87
289.2989, 10043.97
289.7810, 9972.679
290.2631, 9924.128
290.7452, 9888.967
291.2274, 9843.739
291.7095, 9791.302
292.1916, 9764.664
292.6737, 9801.561
293.1558, 9882.353
293.6379, 9938.618
294.1201, 9961.920
294.6022, 9972.226
295.0843, 9993.768
295.5664, 10025.78
296.0485, 10063.87
296.5306, 10109.17
297.0128, 10158.55
297.4949, 10206.53
297.9770, 10252.70
298.4591, 10298.71
298.9412, 10352.61
299.4233, 10410.26
299.9055, 10455.73
300.3876, 10484.54
300.8697, 10494.33
301.3518, 10480.72
301.8339, 10442.56
302.3160, 10384.01
302.7982, 10302.58
303.2803, 10202.80
303.7624, 10098.66
304.2445, 9976.256
304.7266, 9862.010
305.2087, 9785.031
305.6909, 9748.721
306.1730, 9733.039
306.6551, 9726.806
307.1372, 9730.251
307.6193, 9743.720
308.1014, 9772.667
308.5836, 9808.836
309.0657, 9840.933
309.5478, 9868.467
310.0299, 9911.148
310.5120, 9993.870
310.9941, 10095.85
311.4763, 10191.02
311.9584, 10250.77
312.4405, 10314.06
312.9226, 10414.43
313.4047, 10550.87
313.8868, 10675.82
314.3690, 10762.52
314.8511, 10826.40
315.3332, 10883.69
315.8153, 10942.12
316.2974, 10992.30
316.7795, 11035.56
317.2617, 11070.30
317.7438, 11080.61
318.2259, 11038.67
318.7080, 10981.92
319.1901, 10938.83
319.6722, 10911.19
320.1544, 10903.36
320.6365, 10925.12
321.1186, 10970.96
321.6007, 11014.54
322.0828, 11031.50
322.5649, 11055.88
323.0471, 11107.56
323.5292, 11206.29
324.0113, 11310.80
324.4934, 11413.18
324.9755, 11515.93
325.4576, 11630.89
325.9398, 11764.04
326.4219, 11905.64
326.9040, 12052.37
327.3861, 12203.53
327.8682, 12358.14
328.3503, 12539.57
328.8325, 12722.67
329.3146, 12856.73
329.7967, 12948.88
330.2788, 12984.54
330.7610, 12956.58
331.2431, 12852.63
331.7252, 12715.90
332.2073, 12526.70
332.6894, 12314.92
333.1715, 12115.66
333.6537, 11900.97
334.1358, 11746.16
334.6179, 11686.95
335.1000, 11739.63
335.5821, 11777.76
336.0642, 11782.54
336.5464, 11792.67
337.0285, 11862.48
337.5106, 12008.39
337.9927, 12159.89
338.4748, 12292.98
338.9569, 12409.61
339.4391, 12557.59
339.9212, 12746.14
340.4033, 12942.58
340.8854, 13111.19
341.3675, 13253.81
341.8496, 13374.69
342.3318, 13473.83
342.8139, 13553.44
343.2960, 13626.85
343.7781, 13694.99
344.2602, 13750.21
344.7423, 13780.24
345.2245, 13787.53
345.7066, 13800.49
346.1887, 13836.15
346.6708, 13865.43
347.1529, 13821.57
347.6350, 13706.41
348.1172, 13561.97
348.5993, 13415.97
349.0814, 13263.99
349.5635, 13089.24
350.0456, 12882.08
350.5277, 12670.15
351.0099, 12478.69
351.4920, 12309.41
351.9741, 12165.28
352.4562, 12057.95
352.9383, 11974.67
353.4204, 11900.62
353.9026, 11834.65
354.3847, 11777.99
354.8668, 11722.55
355.3489, 11677.33
355.8310, 11661.91
356.3131, 11703.46
356.7953, 11767.56
357.2774, 11827.92
357.7595, 11883.12
358.2416, 11936.87
358.7237, 11967.73
359.2058, 12005.36
359.6880, 12085.94
360.1701, 12257.55
360.6522, 12444.30
361.1343, 12605.09
361.6164, 12742.66
362.0985, 12899.25
362.5807, 13099.90
363.0628, 13320.89
363.5449, 13544.05
364.0270, 13777.34
364.5091, 14000.26
364.9912, 14194.54
365.4734, 14371.14
365.9555, 14570.95
366.4376, 14828.96
366.9197, 15091.22
367.4018, 15331.22
367.8839, 15525.58
368.3661, 15731.90
368.8482, 15943.40
369.3303, 16169.04
369.8124, 16426.13
370.2945, 16715.35
370.7766, 17035.65
371.2588, 17390.52
371.7409, 17784.34
372.2230, 18200.45
372.7051, 18635.04
373.1872, 19084.92
373.6693, 19546.92
374.1515, 20027.50
374.6336, 20492.04
375.1157, 20930.02
375.5978, 21338.18
376.0799, 21737.01
376.5620, 22116.26
377.0442, 22511.62
377.5263, 22977.87
378.0084, 23518.43
378.4905, 24058.23
378.9726, 24577.58
379.4547, 25088.02
379.9369, 25644.27
380.4190, 26245.97
380.9011, 26882.02
381.3832, 27562.79
381.8653, 28283.10
382.3474, 28978.89
382.8296, 29661.63
383.3117, 30288.96
383.7938, 30822.68
384.2759, 31258.21
384.7580, 31572.38
385.2402, 31747.42
385.7223, 31797.84
386.2044, 31747.64
386.6865, 31594.32
387.1686, 31357.97
387.6508, 31042.05
388.1329, 30653.18
388.6150, 30211.40
389.0971, 29680.04
389.5792, 29125.53
390.0613, 28590.37
390.5435, 28078.10
391.0256, 27635.82
391.5077, 27269.00
391.9898, 26992.63
392.4719, 26819.69
392.9540, 26769.74
393.4362, 26811.17
393.9183, 26966.52
394.4004, 27215.27
394.8825, 27469.54
395.3646, 27666.45
395.8467, 27884.53
396.3289, 28174.21
396.8110, 28584.56
397.2931, 28985.78
397.7752, 29324.53
398.2573, 29641.51
398.7394, 30019.45
399.2216, 30542.83
399.7037, 31052.45
400.1858, 31513.96
400.6679, 31928.41
401.1500, 32279.55
401.6321, 32620.69
402.1143, 32860.13
402.5964, 32894.45
403.0785, 32697.75
403.5606, 32345.64
404.0427, 31831.39
404.5248, 31161.57
405.0070, 30423.51
405.4891, 29591.26
405.9712, 28743.11
406.4533, 27919.88
406.9354, 27112.33
407.4175, 26394.84
407.8997, 25767.41
408.3818, 25234.48
408.8639, 24808.57
409.3460, 24485.97
409.8281, 24288.13
410.3102, 24257.25
410.7924, 24364.97
411.2745, 24496.90
411.7566, 24644.41
412.2387, 24834.42
412.7208, 25099.32
413.2029, 25430.20
413.6851, 25805.87
414.1672, 26237.43
414.6493, 26696.93
415.1314, 27150.06
415.6135, 27594.93
416.0956, 28071.66
416.5778, 28631.01
417.0599, 29222.38
417.5420, 29795.32
418.0241, 30335.84
418.5062, 30845.39
418.9883, 31350.32
419.4705, 31829.04
419.9526, 32200.34
420.4347, 32424.98
420.9168, 32539.87
421.3989, 32564.10
421.8810, 32495.15
422.3632, 32350.38
422.8453, 32082.80
423.3274, 31757.27
423.8095, 31459.06
424.2916, 31154.35
424.7737, 30928.41
425.2559, 30803.85
425.7380, 30785.25
426.2201, 30799.84
426.7022, 30840.53
427.1843, 30920.28
427.6664, 31055.46
428.1486, 31281.66
428.6307, 31484.40
429.1128, 31653.94
429.5949, 31792.14
430.0770, 31930.72
430.5591, 32102.52
431.0413, 32161.12
431.5234, 32031.99
432.0055, 31716.35
432.4876, 31258.32
432.9697, 30666.77
433.4518, 29930.28
433.9340, 28987.64
434.4161, 27857.42
434.8982, 26709.91
435.3803, 25593.55
435.8624, 24513.48
436.3445, 23443.24
436.8267, 22397.61
437.3088, 21419.99
437.7909, 20543.58
438.2730, 19762.31
438.7551, 19067.97
439.2372, 18464.93
439.7194, 17934.11
440.2015, 17472.36
440.6836, 17072.44
441.1657, 16728.95
441.6479, 16441.46
442.1300, 16203.01
442.6121, 16010.20
443.0942, 15863.45
443.5763, 15758.21
444.0584, 15707.87
444.5406, 15693.21
445.0227, 15691.39
445.5048, 15664.74
445.9869, 15685.82
446.4690, 15787.50
446.9511, 15965.89
447.4333, 16136.93
447.9154, 16253.55
448.3975, 16400.13
448.8796, 16626.02
449.3617, 16967.42
449.8438, 17308.17
450.3260, 17641.63
450.8081, 17977.24
451.2902, 18326.17
451.7723, 18686.94
452.2544, 19074.14
452.7365, 19489.70
453.2187, 19937.06
453.7008, 20381.42
454.1829, 20821.65
454.6650, 21274.45
455.1471, 21760.55
455.6292, 22278.73
456.1114, 22785.66
456.5935, 23275.49
457.0756, 23743.05
457.5577, 24201.49
458.0398, 24640.60
458.5219, 25022.96
459.0041, 25360.74
459.4862, 25611.22
459.9683, 25702.69
460.4504, 25625.65
460.9325, 25420.15
461.4146, 25084.99
461.8968, 24646.54
462.3789, 24151.68
462.8610, 23570.32
463.3431, 22972.68
463.8252, 22371.39
464.3073, 21772.29
464.7895, 21224.83
465.2716, 20741.05
465.7537, 20314.21
466.2358, 19945.27
466.7179, 19638.63
467.2000, 19384.63
467.6822, 19195.99
468.1643, 19055.49
468.6464, 18928.58
469.1285, 18826.52
469.6106, 18720.29
470.0927, 18596.00
470.5749, 18452.00
471.0570, 18327.95
471.5391, 18226.94
472.0212, 18139.29
472.5033, 18060.67
472.9854, 17992.05
473.4676, 17917.46
473.9497, 17831.10
474.4318, 17743.21
474.9139, 17679.99
475.3960, 17640.77
475.8781, 17602.00
476.3603, 17545.30
476.8424, 17481.10
477.3245, 17436.55
477.8066, 17415.08
478.2887, 17394.03
478.7708, 17334.21
479.2530, 17262.96
479.7351, 17228.68
480.2172, 17265.54
480.6993, 17325.79
481.1814, 17390.77
481.6635, 17455.27
482.1457, 17499.54
482.6278, 17472.96
483.1099, 17452.14
483.5920, 17487.62
484.0741, 17606.20
484.5562, 17724.16
485.0384, 17850.64
485.5205, 17960.75
486.0026, 18019.55
486.4847, 17971.71
486.9668, 17945.03
487.4489, 17971.11
487.9311, 18043.57
488.4132, 18091.25
488.8953, 18101.29
489.3774, 18111.68
489.8595, 18144.55
490.3416, 18201.44
490.8238, 18276.44
491.3059, 18372.69
491.7880, 18482.71
492.2701, 18584.70
492.7522, 18681.35
493.2343, 18802.81
493.7165, 18977.94
494.1986, 19180.45
494.6807, 19339.64
495.1628, 19459.07
495.6450, 19581.52
496.1271, 19754.07
496.6092, 19948.30
497.0913, 20124.71
497.5734, 20267.68
498.0555, 20407.55
498.5377, 20562.72
499.0198, 20731.37
499.5019, 20910.90
499.9840, 21148.89
500.4661, 21353.79
500.9482, 21482.78
501.4304, 21531.14
501.9125, 21552.77
502.3946, 21559.48
502.8767, 21540.05
503.3588, 21486.37
503.8409, 21387.93
504.3231, 21270.60
504.8052, 21131.39
505.2873, 20973.95
505.7694, 20807.01
506.2515, 20625.06
506.7336, 20446.84
507.2158, 20270.54
507.6979, 20099.29
508.1800, 19977.86
508.6621, 19909.83
509.1442, 19875.45
509.6263, 19857.37
510.1085, 19857.65
510.5906, 19885.79
511.0727, 19945.00
511.5548, 20031.45
512.0369, 20145.20
512.5190, 20283.60
513.0012, 20437.87
513.4833, 20608.76
513.9654, 20789.75
514.4475, 20969.08
514.9296, 21147.30
515.4117, 21347.70
515.8939, 21611.60
516.3760, 21888.50
516.8581, 22135.69
517.3402, 22329.85
517.8223, 22512.97
518.3044, 22707.99
518.7866, 22896.99
519.2687, 23039.82
519.7508, 23126.80
520.2329, 23181.78
520.7150, 23219.08
521.1971, 23241.22
521.6793, 23186.56
522.1614, 23045.47
522.6435, 22847.39
523.1256, 22613.61
523.6077, 22345.62
524.0898, 22031.80
524.5720, 21660.91
525.0541, 21258.67
525.5362, 20862.79
526.0183, 20476.32
526.5004, 20096.70
526.9825, 19708.32
527.4647, 19334.27
527.9468, 18995.00
528.4289, 18689.63
528.9110, 18426.04
529.3931, 18227.01
529.8752, 18060.64
530.3574, 17892.05
530.8395, 17701.67
531.3216, 17532.34
531.8037, 17409.11
532.2858, 17316.54
532.7679, 17226.42
533.2501, 17116.23
533.7322, 17025.16
534.2143, 16962.21
534.6964, 16927.46
535.1785, 16929.41
535.6606, 16995.82
536.1428, 17066.66
536.6249, 17099.95
537.1070, 17068.29
537.5891, 17104.12
538.0712, 17235.92
538.5533, 17397.65
539.0355, 17475.09
539.5176, 17466.75
539.9997, 17489.77
540.4818, 17599.64
540.9639, 17752.13
541.4460, 17840.07
541.9282, 17868.81
542.4103, 17896.11
542.8924, 17968.32
543.3745, 18059.48
543.8566, 18137.69
544.3387, 18200.27
544.8209, 18246.33
545.3030, 18258.32
545.7851, 18259.47
546.2672, 18278.72
546.7493, 18364.33
547.2314, 18427.31
547.7136, 18427.70
548.1957, 18380.17
548.6778, 18348.90
549.1599, 18344.13
549.6420, 18351.52
550.1241, 18372.08
550.6063, 18412.44
551.0884, 18427.46
551.5705, 18417.61
552.0526, 18382.14
552.5347, 18313.63
553.0168, 18209.61
553.4990, 18108.27
553.9811, 18016.44
554.4632, 17928.38
554.9453, 17832.52
555.4274, 17730.41
555.9095, 17634.04
556.3917, 17557.51
556.8738, 17486.98
557.3559, 17397.13
557.8380, 17289.92
558.3201, 17190.49
558.8022, 17111.17
559.2844, 17050.97
559.7665, 17006.91
560.2486, 16968.13
560.7307, 16967.34
561.2128, 17025.91
561.6949, 17125.63
562.1771, 17239.77
562.6592, 17364.72
563.1413, 17500.82
563.6234, 17649.32
564.1055, 17808.32
564.5876, 17972.71
565.0698, 18137.56
565.5519, 18318.37
566.0340, 18531.84
566.5161, 18779.15
566.9982, 19013.19
567.4803, 19230.38
567.9625, 19451.54
568.4446, 19712.51
568.9267, 20001.68
569.4088, 20259.10
569.8909, 20466.06
570.3730, 20643.55
570.8552, 20821.31
571.3373, 20994.38
571.8194, 21153.64
572.3015, 21311.68
572.7836, 21438.85
573.2657, 21507.98
573.7479, 21517.45
574.2300, 21505.67
574.7121, 21494.29
575.1942, 21460.30
575.6763, 21387.55
576.1584, 21262.77
576.6406, 21118.90
577.1227, 20965.45
577.6049, 20787.75
578.0870, 20558.34
578.5691, 20267.29
579.0512, 19969.23
579.5333, 19675.25
580.0154, 19373.17
580.4976, 19081.27
580.9797, 18765.30
581.4618, 18452.10
581.9439, 18145.10
582.4260, 17849.95
582.9081, 17576.25
583.3903, 17323.04
583.8724, 17077.94
584.3545, 16820.40
584.8366, 16567.20
585.3187, 16340.06
585.8008, 16158.38
586.2830, 15989.10
586.7651, 15814.18
587.2472, 15643.53
587.7293, 15495.47
588.2114, 15382.43
588.6935, 15285.93
589.1757, 15206.95
589.6578, 15144.94
590.1399, 15068.32
590.6220, 14963.96
591.1041, 14868.15
591.5862, 14806.84
592.0684, 14782.63
592.5505, 14761.31
593.0326, 14742.44
593.5147, 14723.43
593.9968, 14701.84
594.4789, 14677.64
594.9611, 14647.32
595.4432, 14594.32
595.9253, 14556.96
596.4074, 14597.21
596.8895, 14692.32
597.3716, 14776.45
597.8538, 14805.60
598.3359, 14822.04
598.8180, 14843.67
599.3001, 14871.56
599.7822, 14920.25
600.2643, 15014.28
600.7465, 15114.10
601.2286, 15194.29
601.7107, 15233.98
602.1928, 15294.82
602.6749, 15378.13
603.1570, 15482.04
603.6392, 15607.32
604.1213, 15758.32
604.6034, 15903.69
605.0855, 16033.95
605.5676, 16158.41
606.0497, 16297.24
606.5319, 16451.15
607.0140, 16615.94
607.4961, 16789.05
607.9782, 16972.96
608.4603, 17177.26
608.9424, 17400.98
609.4246, 17630.07
609.9067, 17863.16
610.3888, 18094.29
610.8709, 18310.39
611.3530, 18487.13
611.8351, 18701.29
612.3173, 18989.93
612.7994, 19318.46
613.2815, 19631.31
613.7636, 19913.78
614.2457, 20213.46
614.7278, 20544.18
615.2100, 20892.25
615.6921, 21218.67
616.1742, 21520.22
616.6563, 21811.77
617.1384, 22095.70
617.6205, 22375.79
