##NAMES=Sincosite
##RRUFFID=R060523
##IDEAL CHEMISTRY=Ca(V^4+^O)_2_(P^5+^O_4_)_2_&#183;4H_2_O
##LOCALITY=Ross Hannibal mine, Lawrence County, South Dakota, USA
##OWNER=RRUFF
##SOURCE=Michael Scott
##DESCRIPTION=Green thin tabular square to rectangular crystals. Crystals twinned by a 2-fold around [1 -1 0].
##STATUS=The identification of this mineral has been made only by X-ray diffraction.
##URL=rruff.info/R060523
151.895, 8205.592
152.377, 8195.448
152.859, 8191.226
153.342, 8200.446
153.824, 8210.482
154.306, 8221.362
154.788, 8235.772
155.270, 8240.656
155.752, 8221.640
156.234, 8195.993
156.716, 8186.308
157.198, 8208.941
157.680, 8238.981
158.163, 8265.950
158.645, 8284.102
159.127, 8310.907
159.609, 8358.811
160.091, 8418.020
160.573, 8469.492
161.055, 8495.479
161.538, 8517.992
162.020, 8549.619
162.502, 8598.241
162.984, 8645.821
163.466, 8680.124
163.948, 8705.655
164.430, 8738.038
164.912, 8790.198
165.394, 8848.918
165.876, 8903.023
166.359, 8944.257
166.841, 8985.952
167.323, 9038.797
167.805, 9101.114
168.287, 9160.773
168.769, 9200.401
169.251, 9236.232
169.733, 9287.415
170.216, 9377.834
170.698, 9475.247
171.180, 9550.500
171.662, 9604.477
172.144, 9661.118
172.626, 9747.724
173.108, 9848.366
173.590, 9937.440
174.072, 9988.425
174.555, 10029.560
175.037, 10093.570
175.519, 10182.600
176.001, 10282.630
176.483, 10382.390
176.965, 10482.970
177.447, 10584.760
177.929, 10703.050
178.412, 10818.560
178.894, 10901.300
179.376, 10947.550
179.858, 10963.640
180.340, 10949.360
180.822, 10907.730
181.304, 10852.790
181.786, 10796.360
182.268, 10732.400
182.751, 10641.200
183.233, 10512.400
183.715, 10375.740
184.197, 10285.360
184.679, 10236.100
185.161, 10184.220
185.643, 10097.200
186.125, 9983.049
186.607, 9860.713
187.090, 9725.414
187.572, 9595.638
188.054, 9508.636
188.536, 9465.255
189.018, 9438.069
189.500, 9407.629
189.982, 9375.690
190.464, 9350.257
190.947, 9331.177
191.429, 9321.136
191.911, 9332.414
192.393, 9367.032
192.875, 9405.361
193.357, 9429.425
193.839, 9439.604
194.321, 9450.842
194.803, 9463.176
195.286, 9479.864
195.768, 9518.540
196.250, 9582.949
196.732, 9653.391
197.214, 9708.184
197.696, 9746.099
198.178, 9790.262
198.661, 9850.014
199.143, 9923.181
199.625, 9990.510
200.107, 10051.960
200.589, 10109.890
201.071, 10169.370
201.553, 10232.120
202.035, 10286.090
202.517, 10326.860
202.999, 10354.430
203.482, 10376.570
203.964, 10391.510
204.446, 10403.360
204.928, 10420.370
205.410, 10445.420
205.892, 10461.590
206.374, 10463.200
206.857, 10449.990
207.339, 10420.970
207.821, 10371.720
208.303, 10311.670
208.785, 10255.670
209.267, 10203.360
209.749, 10156.100
210.231, 10117.540
210.713, 10091.250
211.195, 10054.070
211.678, 10002.680
212.160, 9943.801
212.642, 9888.845
213.124, 9832.526
213.606, 9793.252
214.088, 9781.120
214.570, 9783.955
215.052, 9783.156
215.535, 9778.919
216.017, 9760.948
216.499, 9760.713
216.981, 9753.370
217.463, 9745.735
217.945, 9744.082
218.427, 9745.971
218.909, 9767.831
219.391, 9816.201
219.874, 9881.115
220.356, 9931.408
220.838, 9961.319
221.320, 9985.388
221.802, 10009.880
222.284, 10032.560
222.766, 10061.790
223.248, 10097.510
223.731, 10140.520
224.213, 10193.940
224.695, 10267.110
225.177, 10337.970
225.659, 10395.200
226.141, 10437.340
226.623, 10467.900
227.105, 10481.420
227.587, 10482.830
228.070, 10496.450
228.552, 10524.210
229.034, 10561.010
229.516, 10604.640
229.998, 10659.760
230.480, 10710.820
230.962, 10756.370
231.444, 10796.310
231.926, 10830.770
232.409, 10852.960
232.891, 10877.590
233.373, 10918.230
233.855, 10993.610
234.337, 11045.410
234.819, 11060.190
235.301, 11043.350
235.783, 11039.690
236.266, 11053.900
236.748, 11075.910
237.230, 11099.310
237.712, 11126.030
238.194, 11151.220
238.676, 11173.600
239.158, 11193.690
239.640, 11213.130
240.122, 11222.140
240.605, 11242.190
241.087, 11291.360
241.569, 11386.410
242.051, 11479.250
242.533, 11558.610
243.015, 11626.970
243.497, 11714.620
243.980, 11827.770
244.462, 11952.940
244.944, 12077.650
245.426, 12190.010
245.908, 12325.570
246.390, 12496.920
246.872, 12699.510
247.354, 12890.290
247.836, 13055.420
248.318, 13221.200
248.801, 13411.480
249.283, 13645.310
249.765, 13862.460
250.247, 14050.300
250.729, 14209.330
251.211, 14376.900
251.693, 14564.390
252.176, 14744.780
252.658, 14896.280
253.140, 15017.570
253.622, 15115.330
254.104, 15189.440
254.586, 15240.710
255.068, 15282.800
255.550, 15318.370
256.032, 15341.870
256.514, 15351.410
256.997, 15355.640
257.479, 15324.090
257.961, 15243.080
258.443, 15115.470
258.925, 14998.160
259.407, 14898.640
259.889, 14794.390
260.371, 14664.590
260.854, 14501.220
261.336, 14330.270
261.818, 14152.850
262.300, 13969.500
262.782, 13777.800
263.264, 13569.920
263.746, 13366.910
264.228, 13192.470
264.711, 13055.740
265.193, 12912.230
265.675, 12747.420
266.157, 12568.000
266.639, 12411.610
267.121, 12281.420
267.603, 12174.180
268.085, 12089.140
268.567, 12030.460
269.050, 11981.610
269.532, 11942.540
270.014, 11912.110
270.496, 11884.030
270.978, 11861.260
271.460, 11835.620
271.942, 11793.250
272.424, 11726.240
272.906, 11691.350
273.389, 11709.100
273.871, 11763.210
274.353, 11775.310
274.835, 11732.650
275.317, 11689.360
275.799, 11691.670
276.281, 11746.380
276.763, 11786.070
277.246, 11796.510
277.728, 11787.380
278.210, 11792.440
278.692, 11814.370
279.174, 11838.910
279.656, 11859.960
280.138, 11877.800
280.620, 11878.210
281.103, 11854.420
281.585, 11815.860
282.067, 11794.360
282.549, 11794.090
283.031, 11778.830
283.513, 11709.560
283.995, 11589.960
284.477, 11502.010
284.959, 11464.600
285.441, 11451.980
285.924, 11409.710
286.406, 11337.170
286.888, 11250.760
287.370, 11152.910
287.852, 11046.890
288.334, 10959.750
288.816, 10896.930
289.298, 10849.490
289.781, 10798.080
290.263, 10743.320
290.745, 10699.870
291.227, 10686.610
291.709, 10694.330
292.191, 10687.040
292.673, 10660.600
293.155, 10620.650
293.638, 10563.870
294.120, 10494.730
294.602, 10443.210
295.084, 10437.750
295.566, 10462.880
296.048, 10481.140
296.530, 10491.930
297.012, 10488.880
297.494, 10454.250
297.977, 10395.470
298.459, 10343.400
298.941, 10318.550
299.423, 10309.890
299.905, 10297.090
300.387, 10277.810
300.869, 10262.420
301.351, 10267.590
301.833, 10285.630
302.316, 10295.770
302.798, 10275.810
303.280, 10247.280
303.762, 10240.900
304.244, 10258.980
304.726, 10277.780
305.208, 10270.310
305.690, 10249.040
306.173, 10237.040
306.655, 10259.320
307.137, 10286.070
307.619, 10286.870
308.101, 10261.400
308.583, 10231.070
309.065, 10206.650
309.547, 10187.950
310.030, 10175.090
310.512, 10177.690
310.994, 10179.370
311.476, 10168.320
311.958, 10145.400
312.440, 10119.470
312.922, 10097.620
313.404, 10074.110
313.886, 10042.740
314.369, 9986.882
314.851, 9936.776
315.333, 9910.705
315.815, 9905.310
316.297, 9903.380
316.779, 9913.258
317.261, 9915.212
317.743, 9893.389
318.225, 9820.824
318.708, 9752.900
319.190, 9710.923
319.672, 9689.175
320.154, 9669.148
320.636, 9643.702
321.118, 9619.953
321.600, 9596.552
322.082, 9571.022
322.565, 9588.691
323.047, 9595.873
323.529, 9593.133
324.011, 9550.752
324.493, 9559.560
324.975, 9547.853
325.457, 9535.305
325.939, 9551.316
326.422, 9533.739
326.904, 9551.668
327.386, 9588.610
327.868, 9601.273
328.350, 9556.966
328.832, 9520.940
329.314, 9515.659
329.796, 9556.412
330.278, 9572.832
330.760, 9541.872
331.243, 9498.950
331.725, 9489.884
332.207, 9543.190
332.689, 9587.233
333.171, 9603.733
333.653, 9590.889
334.135, 9578.193
334.617, 9561.500
335.100, 9549.939
335.582, 9555.287
336.064, 9586.429
336.546, 9610.301
337.028, 9618.138
337.510, 9612.235
337.992, 9615.188
338.474, 9631.596
338.957, 9646.564
339.439, 9644.638
339.921, 9621.805
340.403, 9609.011
340.885, 9613.046
341.367, 9628.438
341.849, 9638.612
342.331, 9643.160
342.813, 9645.260
343.296, 9645.198
343.778, 9643.434
344.260, 9647.883
344.742, 9661.432
345.224, 9678.289
345.706, 9681.913
346.188, 9673.339
346.670, 9664.090
347.152, 9706.559
347.635, 9736.474
348.117, 9754.509
348.599, 9725.083
349.081, 9756.946
349.563, 9764.246
350.045, 9770.538
350.527, 9811.024
351.009, 9788.502
351.491, 9828.444
351.974, 9843.456
352.456, 9869.877
352.938, 9871.585
353.420, 9880.276
353.902, 9877.951
354.384, 9879.554
354.866, 9876.283
355.349, 9871.452
355.831, 9867.532
356.313, 9864.811
356.795, 9864.248
357.277, 9865.887
357.759, 9870.715
358.241, 9881.016
358.723, 9909.361
359.205, 9928.419
359.688, 9912.628
360.170, 9872.396
360.652, 9843.331
361.134, 9853.309
361.616, 9871.617
362.098, 9876.637
362.580, 9855.477
363.062, 9839.349
363.544, 9844.683
364.027, 9860.751
364.509, 9867.087
364.991, 9842.899
365.473, 9821.399
365.955, 9818.545
366.437, 9842.935
366.919, 9858.566
367.401, 9853.771
367.884, 9841.032
368.366, 9835.205
368.848, 9843.719
369.330, 9852.166
369.812, 9856.779
370.294, 9856.994
370.776, 9863.937
371.258, 9881.545
371.741, 9902.182
372.223, 9920.104
372.705, 9935.854
373.187, 9947.164
373.669, 9950.777
374.151, 9949.164
374.633, 9955.525
375.115, 9969.681
375.597, 9991.655
376.079, 10025.960
376.562, 10077.510
377.044, 10108.870
377.526, 10108.650
378.008, 10097.000
378.490, 10118.220
378.972, 10176.220
379.454, 10239.030
379.936, 10297.860
380.419, 10351.360
380.901, 10386.080
381.383, 10398.090
381.865, 10406.820
382.347, 10442.360
382.829, 10500.160
383.311, 10546.860
383.793, 10556.990
384.276, 10553.790
384.758, 10588.580
385.240, 10660.960
385.722, 10742.270
386.204, 10786.270
386.686, 10824.910
387.168, 10929.220
387.650, 11162.110
388.132, 11406.070
388.615, 11536.290
389.097, 11573.340
389.579, 11593.970
390.061, 11647.210
390.543, 11703.290
391.025, 11730.530
391.507, 11713.360
391.989, 11697.600
392.471, 11705.330
392.954, 11732.060
393.436, 11769.840
393.918, 11829.410
394.400, 11888.660
394.882, 11938.500
395.364, 11977.790
395.846, 12009.850
396.328, 12034.390
396.810, 12053.160
397.293, 12067.910
397.775, 12071.460
398.257, 12078.940
398.739, 12098.470
399.221, 12128.170
399.703, 12143.250
400.185, 12143.690
400.668, 12128.930
401.150, 12096.740
401.632, 12031.040
402.114, 11977.210
402.596, 11939.300
403.078, 11913.040
403.560, 11889.660
404.042, 11871.920
404.524, 11850.770
405.007, 11820.620
405.489, 11779.990
405.971, 11747.380
406.453, 11725.800
406.935, 11706.400
407.417, 11678.360
407.899, 11641.660
408.381, 11598.500
408.863, 11542.530
409.346, 11482.190
409.828, 11451.330
410.310, 11450.630
410.792, 11459.910
411.274, 11466.400
411.756, 11469.530
412.238, 11465.730
412.720, 11450.700
413.203, 11435.860
413.685, 11437.460
414.167, 11452.780
414.649, 11470.640
415.131, 11487.870
415.613, 11502.420
416.095, 11510.410
416.577, 11510.630
417.060, 11509.930
417.542, 11513.740
418.024, 11519.340
418.506, 11522.930
418.988, 11513.760
419.470, 11509.950
419.952, 11520.270
420.434, 11544.590
420.916, 11577.700
421.398, 11636.100
421.881, 11691.880
422.363, 11726.250
422.845, 11712.860
423.327, 11706.990
423.809, 11720.040
424.291, 11746.630
424.773, 11771.610
425.255, 11805.720
425.738, 11826.960
426.220, 11826.650
426.702, 11799.030
427.184, 11772.070
427.666, 11755.600
428.148, 11730.600
428.630, 11667.750
429.112, 11548.210
429.595, 11446.060
430.077, 11385.510
430.559, 11357.640
431.041, 11302.160
431.523, 11211.450
432.005, 11119.250
432.487, 11050.420
432.969, 11004.250
433.451, 10967.780
433.934, 10942.300
434.416, 10920.180
434.898, 10886.780
435.380, 10843.700
435.862, 10802.760
436.344, 10770.260
436.826, 10744.240
437.308, 10719.750
437.790, 10696.440
438.273, 10679.820
438.755, 10681.000
439.237, 10691.130
439.719, 10695.620
440.201, 10680.980
440.683, 10667.440
441.165, 10673.340
441.647, 10694.270
442.129, 10711.200
442.612, 10712.260
443.094, 10707.470
443.576, 10702.250
444.058, 10694.310
444.540, 10693.270
445.022, 10713.110
445.504, 10739.070
445.987, 10748.000
446.469, 10712.910
446.951, 10684.860
447.433, 10678.330
447.915, 10694.630
448.397, 10712.160
448.879, 10738.700
449.361, 10759.410
449.843, 10761.510
450.326, 10736.550
450.808, 10713.030
451.290, 10689.040
451.772, 10670.360
452.254, 10677.500
452.736, 10716.060
453.218, 10755.350
453.700, 10781.000
454.182, 10793.110
454.665, 10799.900
455.147, 10800.960
455.629, 10797.710
456.111, 10782.120
456.593, 10760.130
457.075, 10763.010
457.557, 10818.270
458.039, 10888.050
458.522, 10906.730
459.004, 10880.840
459.486, 10848.330
459.968, 10834.040
460.450, 10827.660
460.932, 10815.590
461.414, 10792.140
461.896, 10774.880
462.379, 10777.810
462.861, 10793.900
463.343, 10811.680
463.825, 10828.860
464.307, 10845.450
464.789, 10863.530
465.271, 10883.260
465.753, 10895.390
466.235, 10887.600
466.717, 10878.190
467.200, 10879.390
467.682, 10913.480
468.164, 10928.070
468.646, 10907.240
469.128, 10869.150
469.610, 10860.510
470.092, 10898.870
470.574, 10933.560
471.057, 10944.530
471.539, 10930.620
472.021, 10921.790
472.503, 10919.750
472.985, 10917.840
473.467, 10908.820
473.949, 10892.670
474.431, 10872.750
474.914, 10844.880
475.396, 10820.230
475.878, 10829.100
476.360, 10867.810
476.842, 10902.710
477.324, 10907.840
477.806, 10897.670
478.288, 10898.900
478.770, 10915.280
479.253, 10929.310
479.735, 10925.910
480.217, 10911.440
480.699, 10895.160
481.181, 10868.720
481.663, 10852.180
482.145, 10862.380
482.627, 10893.620
483.109, 10919.710
483.592, 10924.890
484.074, 10926.980
484.556, 10936.150
485.038, 10958.540
485.520, 10974.780
486.002, 10979.020
486.484, 10977.060
486.966, 10975.880
487.448, 10974.740
487.931, 10975.300
488.413, 10978.720
488.895, 10984.680
489.377, 10988.220
489.859, 10988.150
490.341, 10989.890
490.823, 11000.100
491.306, 11019.420
491.788, 11029.540
492.270, 11027.940
492.752, 11020.860
493.234, 11017.980
493.716, 11018.420
494.198, 11015.090
494.680, 10995.960
495.162, 10975.980
495.645, 10987.750
496.127, 11028.050
496.609, 11062.710
497.091, 11051.380
497.573, 11027.910
498.055, 11036.510
498.537, 11100.730
499.019, 11159.020
499.501, 11167.770
499.984, 11151.090
500.466, 11149.630
500.948, 11196.710
501.430, 11241.430
501.912, 11261.920
502.394, 11256.050
502.876, 11263.000
503.358, 11297.640
503.841, 11336.210
504.323, 11364.950
504.805, 11378.710
505.287, 11392.620
505.769, 11403.810
506.251, 11417.230
506.733, 11446.230
507.215, 11496.500
507.698, 11536.300
508.180, 11551.430
508.662, 11546.570
509.144, 11547.990
509.626, 11556.400
510.108, 11563.030
510.590, 11558.380
511.072, 11545.970
511.554, 11535.790
512.036, 11530.150
512.519, 11525.710
513.001, 11523.050
513.483, 11519.040
513.965, 11506.340
514.447, 11456.540
514.929, 11416.680
515.411, 11432.010
515.893, 11498.670
516.375, 11548.980
516.858, 11539.670
517.340, 11514.790
517.822, 11504.500
518.304, 11521.890
518.786, 11538.620
519.268, 11548.580
519.750, 11557.120
520.232, 11574.310
520.715, 11614.950
521.197, 11638.810
521.679, 11629.070
522.161, 11589.740
522.643, 11570.860
523.125, 11573.870
523.607, 11592.600
524.089, 11632.260
524.571, 11690.720
525.054, 11702.810
525.536, 11696.212
526.018, 11734.460
526.500, 11761.822
526.982, 11778.883
527.464, 11754.783
527.946, 11783.836
528.429, 11791.587
528.911, 11798.463
529.393, 11834.995
529.875, 11816.883
530.357, 11852.942
530.839, 11867.378
531.321, 11891.710
531.803, 11894.610
532.286, 11903.570
532.768, 11926.350
533.250, 11971.880
533.732, 12010.480
534.214, 12034.310
534.696, 12056.500
535.178, 12075.100
535.660, 12092.770
536.142, 12125.650
536.625, 12182.120
537.107, 12239.960
537.589, 12286.340
538.071, 12319.000
538.553, 12364.000
539.035, 12423.580
539.517, 12490.540
539.999, 12562.390
540.481, 12637.370
540.964, 12695.950
541.446, 12726.870
541.928, 12748.030
542.410, 12790.790
542.892, 12848.850
543.374, 12897.540
543.856, 12910.100
544.338, 12914.890
544.820, 12939.870
545.303, 12987.510
545.785, 13038.300
546.267, 13091.120
546.749, 13139.050
547.231, 13176.220
547.713, 13196.340
548.195, 13212.230
548.677, 13227.650
549.159, 13239.960
549.642, 13242.340
550.124, 13226.510
550.606, 13214.530
551.088, 13212.400
551.570, 13220.000
552.052, 13230.730
552.534, 13243.880
553.016, 13262.600
553.499, 13298.190
553.981, 13346.960
554.463, 13365.750
554.945, 13345.370
555.427, 13311.260
555.909, 13294.060
556.391, 13290.210
556.873, 13289.140
557.356, 13284.730
557.838, 13283.010
558.320, 13296.620
558.802, 13320.600
559.284, 13332.850
559.766, 13302.720
560.248, 13271.820
560.730, 13273.070
561.213, 13324.470
561.695, 13353.510
562.177, 13330.710
562.659, 13287.530
563.141, 13254.480
563.623, 13231.940
564.105, 13218.790
564.587, 13217.860
565.069, 13224.870
565.552, 13228.750
566.034, 13228.910
566.516, 13227.530
566.998, 13227.830
567.480, 13227.780
567.962, 13209.870
568.444, 13172.730
568.926, 13141.950
569.408, 13151.800
569.891, 13183.280
570.373, 13196.530
570.855, 13182.440
571.337, 13157.140
571.819, 13115.490
572.301, 13074.920
572.783, 13021.974
573.265, 13022.459
573.747, 13009.973
574.230, 12985.217
574.712, 12911.444
575.194, 12900.110
575.676, 12865.640
576.158, 12845.790
576.640, 12813.010
577.122, 12762.720
577.604, 12723.790
578.086, 12702.260
578.569, 12684.490
579.051, 12655.070
579.533, 12612.780
580.015, 12574.570
580.497, 12543.490
580.979, 12517.530
581.461, 12489.280
581.943, 12460.900
582.426, 12445.610
582.908, 12462.880
583.390, 12489.970
583.872, 12493.760
584.354, 12476.090
584.836, 12458.630
585.318, 12453.050
585.800, 12453.470
586.282, 12455.820
586.765, 12460.180
587.247, 12463.620
587.729, 12465.640
588.211, 12466.100
588.693, 12465.080
589.175, 12465.780
589.657, 12460.190
590.140, 12446.130
590.622, 12425.520
591.104, 12401.040
591.586, 12367.890
592.068, 12349.620
592.550, 12366.150
593.032, 12409.340
593.514, 12424.170
593.996, 12409.820
594.479, 12390.000
594.961, 12383.160
595.443, 12385.710
595.925, 12394.170
596.407, 12412.240
596.889, 12420.080
597.371, 12374.670
597.853, 12364.753
598.335, 12383.381
598.818, 12395.080
599.300, 12400.223
599.782, 12379.170
600.264, 12391.943
600.746, 12391.160
601.228, 12389.821
601.710, 12407.355
602.192, 12390.112
602.674, 12407.347
603.157, 12410.818
603.639, 12411.100
604.121, 12481.020
604.603, 12493.110
605.085, 12451.790
605.567, 12426.860
606.049, 12429.270
606.531, 12440.220
607.013, 12432.580
607.496, 12413.530
607.978, 12402.570
608.460, 12411.650
608.942, 12427.200
609.424, 12439.360
609.906, 12449.070
610.388, 12460.130
610.870, 12477.960
611.353, 12493.980
611.835, 12502.460
612.317, 12501.720
612.799, 12504.460
613.281, 12523.290
613.763, 12534.110
614.245, 12514.870
614.727, 12449.190
615.209, 12416.210
615.692, 12427.890
616.174, 12459.860
616.656, 12478.030
617.138, 12483.380
617.620, 12489.820
618.102, 12501.470
618.584, 12516.530
619.067, 12537.180
619.549, 12559.930
620.031, 12571.960
620.513, 12554.850
620.995, 12532.220
621.477, 12522.660
621.959, 12526.950
622.441, 12532.460
622.923, 12538.910
623.406, 12541.860
623.888, 12536.200
624.370, 12506.190
624.852, 12501.920
625.334, 12537.570
625.816, 12585.800
626.298, 12615.000
626.780, 12623.490
627.263, 12619.760
627.745, 12599.950
628.227, 12576.050
628.709, 12575.030
629.191, 12594.850
629.673, 12619.230
630.155, 12650.320
630.637, 12676.150
631.119, 12675.720
631.602, 12652.110
632.084, 12627.310
632.566, 12603.280
633.048, 12590.370
633.530, 12600.180
634.012, 12642.280
634.494, 12675.030
634.976, 12684.120
635.458, 12684.510
635.941, 12689.290
636.423, 12702.890
636.905, 12709.890
637.387, 12705.020
637.869, 12697.070
638.351, 12706.620
638.833, 12734.630
639.315, 12750.700
639.797, 12739.130
640.280, 12714.550
640.762, 12706.030
641.244, 12711.560
641.726, 12719.720
642.208, 12725.160
642.690, 12729.330
643.172, 12730.950
643.654, 12730.160
644.137, 12738.690
644.619, 12771.200
645.101, 12808.460
645.583, 12839.410
646.065, 12872.650
646.547, 12876.890
647.029, 12828.000
647.511, 12770.910
647.994, 12762.020
648.476, 12809.910
648.958, 12859.420
649.440, 12900.360
649.922, 12937.410
650.404, 12982.030
650.886, 13031.540
651.368, 13074.630
651.851, 13112.480
652.333, 13135.690
652.815, 13120.510
653.297, 13075.100
653.779, 13043.220
