##NAMES=Sinhalite
##RRUFFID=R100132
##IDEAL CHEMISTRY=MgAlBO_4_
##LOCALITY=Ratnapura district, Sri Lanka
##OWNER=RRUFF
##SOURCE=William W. Pinch
##DESCRIPTION=Tan colored water-worn single crystal
##STATUS=The identification of this mineral has been confirmed by single-crystal X-ray diffraction.
##URL=rruff.info/R100132
90.60547, 445.8943
91.08759, 451.1438
91.56970, 457.5979
92.05182, 457.4701
92.53394, 456.0682
93.01605, 453.3296
93.49817, 450.3382
93.98029, 447.4577
94.46240, 443.1514
94.94452, 436.6243
95.42664, 429.2552
95.90874, 421.6113
96.39086, 413.9361
96.87298, 406.9593
97.35509, 401.3179
97.83721, 396.7715
98.31933, 392.5013
98.80145, 388.5359
99.28356, 384.6854
99.76568, 380.9660
100.2478, 377.3311
100.7299, 373.5887
101.2120, 369.3160
101.6941, 362.0744
102.1763, 357.0245
102.6584, 355.7184
103.1405, 356.4147
103.6226, 356.6937
104.1047, 355.1382
104.5868, 352.0558
105.0690, 349.6510
105.5511, 348.4206
106.0332, 347.1878
106.5153, 345.2083
106.9974, 342.5675
107.4795, 340.0926
107.9617, 338.4383
108.4438, 337.4441
108.9259, 336.4959
109.4080, 335.3749
109.8901, 334.2958
110.3722, 333.6616
110.8544, 333.6953
111.3365, 333.6231
111.8186, 332.9194
112.3007, 331.7562
112.7828, 330.4272
113.2649, 328.9778
113.7471, 327.4292
114.2292, 326.1483
114.7113, 324.8766
115.1934, 324.1822
115.6755, 324.7398
116.1576, 326.2281
116.6397, 327.5978
117.1219, 327.6148
117.6040, 325.6055
118.0861, 324.2841
118.5682, 324.1201
119.0503, 324.1568
119.5324, 323.7900
120.0146, 322.9105
120.4967, 321.8644
120.9788, 321.2497
121.4609, 321.7215
121.9430, 321.6248
122.4251, 320.4455
122.9073, 318.8611
123.3894, 317.7123
123.8715, 317.3538
124.3536, 317.4583
124.8357, 317.1968
125.3178, 316.4949
125.8000, 315.7186
126.2821, 314.8534
126.7642, 313.9781
127.2463, 313.4565
127.7284, 313.7049
128.2105, 314.2371
128.6927, 314.1598
129.1748, 313.2135
129.6569, 312.0388
130.1390, 311.2123
130.6211, 310.7633
131.1032, 310.4983
131.5854, 310.5099
132.0675, 310.5965
132.5496, 310.5551
133.0317, 310.2762
133.5138, 309.8752
133.9959, 309.6386
134.4781, 309.7035
134.9602, 309.7159
135.4423, 309.4897
135.9244, 309.1748
136.4065, 309.0376
136.8886, 309.3159
137.3708, 309.9301
137.8529, 309.7606
138.3350, 308.2179
138.8171, 306.4191
139.2992, 304.1382
139.7813, 301.7504
140.2635, 299.9881
140.7456, 299.5564
141.2277, 300.6606
141.7098, 301.3139
142.1919, 301.2687
142.6740, 301.0822
143.1561, 301.1749
143.6383, 301.5238
144.1204, 301.6603
144.6025, 301.0617
145.0846, 299.5869
145.5667, 298.0948
146.0488, 296.0018
146.5310, 294.1870
147.0131, 293.8430
147.4952, 295.3624
147.9773, 297.4023
148.4594, 298.6447
148.9415, 299.2105
149.4237, 299.0850
149.9058, 297.6641
150.3879, 295.4932
150.8700, 294.2068
151.3521, 294.5400
151.8342, 295.1767
152.3164, 294.8707
152.7985, 293.7420
153.2806, 292.6984
153.7627, 292.5329
154.2448, 293.2643
154.7269, 293.8304
155.2091, 294.1083
155.6912, 294.1465
156.1733, 293.7915
156.6554, 293.0968
157.1375, 292.4498
157.6196, 292.3881
158.1018, 293.1908
158.5839, 293.7664
159.0660, 293.8589
159.5481, 293.8698
160.0302, 294.1827
160.5123, 294.8394
160.9945, 295.4470
161.4766, 295.2628
161.9587, 293.3232
162.4408, 292.0114
162.9229, 291.7536
163.4050, 291.8844
163.8871, 291.8405
164.3693, 291.4078
164.8514, 290.6885
165.3335, 289.9022
165.8156, 288.6076
166.2977, 287.8694
166.7798, 288.2636
167.2620, 289.2025
167.7441, 289.7555
168.2262, 289.4713
168.7083, 288.6766
169.1904, 288.2816
169.6725, 288.3164
170.1547, 288.5608
170.6368, 289.2276
171.1189, 290.1156
171.6010, 290.4646
172.0831, 289.6807
172.5652, 288.3320
173.0474, 287.6027
173.5295, 287.6556
174.0116, 288.0096
174.4937, 288.4708
174.9758, 289.0404
175.4579, 289.3020
175.9401, 288.8402
176.4222, 288.0724
176.9043, 287.4420
177.3864, 287.0444
177.8685, 286.7558
178.3506, 286.3312
178.8328, 285.6283
179.3149, 285.3208
179.7970, 285.8811
180.2791, 286.8083
180.7612, 287.8724
181.2433, 289.0976
181.7255, 290.0284
182.2076, 289.4601
182.6897, 286.0417
183.1718, 283.6201
183.6539, 283.3118
184.1360, 284.0763
184.6181, 285.0225
185.1003, 285.7548
185.5824, 286.1709
186.0645, 285.8632
186.5466, 283.6590
187.0287, 282.1587
187.5108, 282.2095
187.9930, 283.0126
188.4751, 283.5138
188.9572, 283.1019
189.4393, 281.9983
189.9214, 281.4459
190.4035, 281.7901
190.8857, 282.3026
191.3678, 283.0527
191.8499, 283.8692
192.3320, 284.5253
192.8141, 284.9073
193.2962, 284.9942
193.7784, 284.5645
194.2605, 283.2425
194.7426, 281.9391
195.2247, 280.7021
195.7068, 279.6827
196.1889, 279.3848
196.6711, 280.3740
197.1532, 282.2332
197.6353, 282.8716
198.1174, 281.1896
198.5995, 279.4267
199.0816, 278.7997
199.5638, 279.2044
200.0459, 279.9584
200.5280, 280.8526
201.0101, 281.7552
201.4922, 282.3352
201.9743, 282.5278
202.4565, 282.4532
202.9386, 282.0513
203.4207, 281.3064
203.9028, 280.7905
204.3849, 280.9799
204.8670, 281.5508
205.3492, 282.0788
205.8313, 282.5809
206.3134, 282.8953
206.7955, 282.7143
207.2776, 281.9167
207.7597, 281.1885
208.2419, 280.9545
208.7240, 280.9072
209.2061, 280.7034
209.6882, 280.1301
210.1703, 279.5630
210.6524, 279.7941
211.1346, 281.2609
211.6167, 282.3809
212.0988, 282.4535
212.5809, 282.0620
213.0630, 281.7500
213.5451, 281.7440
214.0273, 281.8818
214.5094, 281.7568
214.9915, 281.0761
215.4736, 280.6772
215.9557, 280.8075
216.4378, 281.2079
216.9200, 281.6256
217.4021, 281.9462
217.8842, 282.2363
218.3663, 282.6813
218.8484, 283.3926
219.3305, 284.1142
219.8127, 285.0948
220.2948, 285.9655
220.7769, 286.2183
221.2590, 285.6209
221.7411, 284.5476
222.2232, 284.1049
222.7054, 284.7645
223.1875, 285.5726
223.6696, 286.6043
224.1517, 287.7088
224.6338, 288.7852
225.1159, 289.7963
225.5980, 290.6375
226.0802, 290.9930
226.5623, 290.3767
227.0444, 289.8346
227.5265, 289.7591
228.0086, 289.7077
228.4907, 288.9371
228.9729, 287.0919
229.4550, 284.7606
229.9371, 283.5486
230.4192, 284.3779
230.9013, 284.8107
231.3834, 284.3289
231.8656, 283.2619
232.3477, 281.9650
232.8298, 280.5078
233.3119, 279.1440
233.7940, 278.5272
234.2761, 278.8745
234.7583, 279.2253
235.2404, 279.4943
235.7225, 279.5889
236.2046, 279.1605
236.6867, 277.8892
237.1688, 276.5720
237.6510, 276.8926
238.1331, 279.1013
238.6152, 280.9218
239.0973, 281.6201
239.5794, 281.3927
240.0615, 280.4538
240.5437, 278.5399
241.0258, 276.5928
241.5079, 276.0907
241.9900, 277.0094
242.4721, 277.6848
242.9542, 277.0154
243.4364, 275.5725
243.9185, 274.8743
244.4006, 275.3979
244.8827, 276.4086
245.3648, 277.4389
245.8469, 278.4446
246.3290, 278.8091
246.8112, 277.6997
247.2933, 275.6685
247.7754, 274.4752
248.2575, 274.7291
248.7396, 275.2058
249.2217, 274.8651
249.7039, 273.9173
250.1860, 273.0687
250.6681, 272.9893
251.1502, 273.3634
251.6323, 272.8211
252.1144, 270.4713
252.5966, 268.6078
253.0787, 268.8590
253.5608, 270.5482
254.0429, 272.1949
254.5250, 273.1664
255.0071, 273.4532
255.4893, 272.8603
255.9714, 270.6654
256.4535, 268.7576
256.9356, 267.9153
257.4177, 267.8752
257.8998, 268.2673
258.3820, 269.0595
258.8641, 270.0621
259.3462, 270.6189
259.8283, 270.7007
260.3104, 270.3133
260.7925, 268.7634
261.2747, 267.0143
261.7568, 266.5153
262.2389, 268.2229
262.7210, 271.1759
263.2031, 272.5281
263.6852, 271.4020
264.1674, 270.0615
264.6495, 268.8688
265.1316, 267.8534
265.6137, 267.0341
266.0958, 266.4154
266.5779, 266.0259
267.0601, 265.9527
267.5422, 266.3013
268.0243, 266.8162
268.5064, 267.6041
268.9885, 268.4349
269.4706, 269.1854
269.9528, 269.8000
270.4349, 270.1452
270.9170, 269.8676
271.3991, 268.3786
271.8812, 267.4431
272.3633, 267.3855
272.8455, 267.6947
273.3276, 268.1861
273.8097, 268.7342
274.2918, 269.0341
274.7739, 268.5191
275.2560, 266.5204
275.7382, 265.1320
276.2202, 264.7056
276.7024, 264.4871
277.1845, 263.8149
277.6666, 262.7043
278.1487, 261.8366
278.6308, 262.1367
279.1129, 264.1225
279.5951, 265.4781
280.0772, 266.0085
280.5593, 266.2096
281.0414, 266.2120
281.5235, 266.0994
282.0056, 266.0396
282.4878, 266.2850
282.9699, 267.0161
283.4520, 266.6655
283.9341, 263.6983
284.4162, 261.2856
284.8983, 261.1893
285.3805, 262.8221
285.8626, 264.3371
286.3447, 264.2168
286.8268, 262.5081
287.3089, 262.0690
287.7910, 264.7989
288.2732, 266.6680
288.7553, 265.7959
289.2374, 263.2521
289.7195, 261.1919
290.2016, 260.9594
290.6837, 262.1626
291.1659, 262.6143
291.6480, 261.4825
292.1301, 260.5716
292.6122, 260.1977
293.0943, 260.2118
293.5764, 260.4480
294.0586, 260.8401
294.5407, 261.2924
295.0228, 261.5464
295.5049, 261.3986
295.9870, 261.2913
296.4691, 261.1788
296.9513, 261.1413
297.4334, 261.3912
297.9155, 261.9759
298.3976, 262.5345
298.8797, 262.4359
299.3618, 261.1467
299.8440, 260.1600
300.3261, 259.4339
300.8082, 259.0318
301.2903, 259.2206
301.7724, 259.9628
302.2545, 260.6590
302.7367, 260.5648
303.2188, 259.3875
303.7009, 258.4956
304.1830, 257.8882
304.6651, 257.5259
305.1472, 257.4537
305.6294, 257.6300
306.1115, 257.9183
306.5936, 258.2298
307.0757, 258.5732
307.5578, 258.6984
308.0399, 258.6363
308.5221, 258.3744
309.0042, 257.8104
309.4863, 257.0314
309.9684, 256.1888
310.4505, 255.3254
310.9326, 254.5236
311.4148, 254.4297
311.8969, 255.7827
312.3790, 256.8763
312.8611, 257.2245
313.3432, 257.0632
313.8253, 256.7014
314.3075, 256.2524
314.7896, 255.8652
315.2717, 255.9491
315.7538, 257.2194
316.2359, 257.9263
316.7180, 257.5857
317.2001, 256.7674
317.6823, 256.0414
318.1644, 255.5771
318.6465, 255.2839
319.1286, 255.0205
319.6107, 254.7386
320.0928, 254.6380
320.5750, 254.7711
321.0571, 255.0390
321.5392, 255.5189
322.0213, 256.1417
322.5034, 256.5197
322.9855, 256.1753
323.4677, 254.9179
323.9498, 254.3851
324.4319, 255.1140
324.9140, 255.9457
325.3961, 256.3166
325.8782, 256.2845
326.3604, 256.2137
326.8425, 256.3925
327.3246, 256.7612
327.8067, 256.6086
328.2888, 255.0015
328.7709, 254.0050
329.2531, 254.9436
329.7352, 256.7050
330.2173, 257.3116
330.6994, 255.7734
331.1815, 252.9795
331.6636, 251.3213
332.1458, 251.8249
332.6279, 252.2725
333.1100, 252.7511
333.5921, 253.0698
334.0742, 252.9119
334.5563, 252.2271
335.0385, 251.4266
335.5206, 251.1423
336.0027, 251.7212
336.4848, 251.9197
336.9669, 251.4388
337.4490, 250.8559
337.9312, 250.3925
338.4133, 250.1490
338.8954, 250.3425
339.3775, 251.2890
339.8596, 253.1286
340.3417, 253.9455
340.8239, 252.7968
341.3060, 251.7488
341.7881, 251.7572
342.2702, 252.4166
342.7523, 252.7037
343.2344, 251.9204
343.7166, 250.4369
344.1987, 250.0701
344.6808, 252.5965
345.1629, 254.2480
345.6450, 254.2587
346.1271, 253.3915
346.6093, 252.3923
347.0914, 251.5638
347.5735, 250.8982
348.0556, 250.3656
348.5377, 249.7200
349.0198, 249.7183
349.5020, 250.9337
349.9841, 252.2749
350.4662, 252.9783
350.9483, 252.9804
351.4304, 252.7099
351.9125, 252.5953
352.3947, 252.6393
352.8768, 252.8287
353.3589, 253.2337
353.8410, 253.7111
354.3231, 254.0912
354.8052, 254.5059
355.2874, 255.3096
355.7695, 256.8347
356.2516, 258.8461
356.7337, 260.0139
357.2158, 259.7397
357.6979, 259.3658
358.1800, 258.7068
358.6621, 258.2611
359.1443, 258.7528
359.6264, 260.4550
360.1085, 262.6005
360.5906, 263.7552
361.0727, 263.4749
361.5548, 263.3515
362.0370, 263.4080
362.5191, 263.7597
363.0012, 264.5379
363.4833, 265.7301
363.9654, 267.1555
364.4475, 268.6012
364.9297, 270.0475
365.4118, 271.8323
365.8939, 273.8375
366.3760, 276.3730
366.8581, 279.3985
367.3402, 283.0161
367.8224, 287.4315
368.3045, 292.7814
368.7866, 298.9533
369.2687, 305.5429
369.7508, 312.1739
370.2329, 320.1233
370.7151, 331.2357
371.1972, 343.1082
371.6793, 353.9027
372.1614, 363.1294
372.6435, 370.2556
373.1256, 375.0809
373.6078, 377.7534
374.0899, 375.9749
374.5720, 367.4310
375.0541, 355.4767
375.5362, 341.3553
376.0183, 325.5441
376.5005, 311.2358
376.9826, 300.6033
377.4647, 293.1278
377.9468, 286.8978
378.4289, 281.9311
378.9110, 277.9689
379.3932, 275.2705
379.8753, 273.3731
380.3574, 271.4361
380.8395, 268.9847
381.3216, 266.5723
381.8037, 264.8866
382.2859, 263.9302
382.7680, 263.4020
383.2501, 263.4838
383.7322, 263.7235
384.2143, 263.3200
384.6964, 262.0288
385.1786, 260.9233
385.6607, 260.8445
386.1428, 261.4335
386.6249, 261.7037
387.1070, 261.3669
387.5891, 260.8382
388.0713, 260.4482
388.5534, 260.1913
389.0355, 260.4577
389.5176, 261.5501
389.9997, 263.0640
390.4818, 264.5181
390.9640, 265.9192
391.4461, 267.6991
391.9282, 270.1314
392.4103, 273.2250
392.8924, 276.7994
393.3745, 281.3199
393.8567, 285.7695
394.3388, 289.5288
394.8209, 292.9548
395.3030, 296.9637
395.7851, 302.0595
396.2672, 307.1200
396.7494, 310.2673
397.2315, 311.3530
397.7136, 310.5458
398.1957, 307.4938
398.6778, 302.7752
399.1599, 295.8271
399.6420, 287.1767
400.1241, 279.3394
400.6063, 274.6442
401.0884, 273.1665
401.5705, 271.8011
402.0526, 270.2552
402.5347, 269.1221
403.0168, 268.3598
403.4990, 268.1790
403.9811, 269.1238
404.4632, 271.4722
404.9453, 274.5228
405.4274, 276.5714
405.9095, 277.2005
406.3917, 277.4232
406.8738, 277.2194
407.3559, 276.7157
407.8380, 276.1565
408.3201, 275.4702
408.8022, 274.2065
409.2844, 271.7692
409.7665, 268.0772
410.2486, 264.5921
410.7307, 260.6094
411.2128, 257.6919
411.6949, 257.1306
412.1771, 257.7590
412.6592, 257.6410
413.1413, 255.7213
413.6234, 252.8877
414.1055, 251.1031
414.5876, 250.7168
415.0698, 250.2964
415.5519, 249.2648
416.0340, 248.2495
416.5161, 247.7910
416.9982, 247.9163
417.4803, 248.0546
417.9625, 247.5078
418.4446, 246.4474
418.9267, 246.1795
419.4088, 247.3212
419.8909, 248.2988
420.3730, 247.9945
420.8552, 246.8169
421.3373, 245.4908
421.8194, 243.8891
422.3015, 242.6236
422.7836, 242.7272
423.2657, 244.1796
423.7479, 245.3810
424.2300, 245.6266
424.7121, 245.3327
425.1942, 245.1766
425.6763, 245.1746
426.1584, 245.2207
426.6406, 245.4321
427.1227, 245.6176
427.6048, 245.4057
428.0869, 244.7169
428.5690, 243.8340
429.0511, 242.8321
429.5333, 241.7708
430.0154, 241.5517
430.4975, 243.0867
430.9796, 244.6092
431.4617, 245.0253
431.9438, 244.6259
432.4260, 244.3182
432.9081, 244.5826
433.3902, 244.9624
433.8723, 244.3051
434.3544, 241.0661
434.8365, 239.3889
435.3187, 240.7751
435.8008, 242.8626
436.2829, 243.5919
436.7650, 242.8318
437.2471, 241.8565
437.7292, 241.8808
438.2114, 242.9380
438.6935, 243.6772
439.1756, 244.0773
439.6577, 244.1753
440.1398, 243.6489
440.6219, 242.9286
441.1040, 242.6594
441.5862, 243.1114
442.0683, 243.8393
442.5504, 244.0272
443.0325, 243.5467
443.5146, 242.9220
443.9967, 241.6516
444.4789, 240.7100
444.9610, 240.9385
445.4431, 242.0618
445.9252, 242.9661
446.4073, 242.6196
446.8894, 241.4518
447.3716, 241.2127
447.8537, 242.2729
448.3358, 243.3359
448.8179, 243.8719
449.3000, 244.0938
449.7821, 244.1766
450.2643, 244.1355
450.7464, 244.0493
451.2285, 243.8890
451.7106, 243.7088
452.1927, 243.8415
452.6748, 244.4675
453.1570, 245.1807
453.6391, 245.6647
454.1212, 245.9271
454.6033, 245.8434
455.0854, 244.8848
455.5675, 243.9369
456.0497, 243.9955
456.5318, 244.9040
457.0139, 245.5275
457.4960, 245.1073
457.9781, 244.2609
458.4602, 244.8671
458.9424, 248.0790
459.4245, 250.1092
459.9066, 249.3880
460.3887, 247.6738
460.8708, 246.7309
461.3529, 246.8188
461.8351, 247.1821
462.3172, 247.0589
462.7993, 246.4113
463.2814, 246.5178
463.7635, 248.1616
464.2456, 249.6046
464.7278, 250.6169
465.2099, 251.1053
465.6920, 250.7129
466.1741, 249.3441
466.6562, 247.8576
467.1383, 247.8400
467.6205, 249.9211
468.1026, 251.5135
468.5847, 252.2674
469.0668, 252.7512
469.5489, 253.1956
470.0310, 253.5748
470.5132, 253.7425
470.9953, 253.5696
471.4774, 253.1655
471.9595, 252.7889
472.4416, 252.4319
472.9237, 252.1306
473.4059, 251.6774
473.8880, 251.4395
474.3701, 251.9190
474.8522, 253.1969
475.3343, 254.3937
475.8164, 254.6876
476.2986, 254.4972
476.7807, 254.8420
477.2628, 255.8444
477.7449, 257.3338
478.2270, 259.4742
478.7091, 262.0324
479.1913, 264.0169
479.6734, 265.0911
480.1555, 265.8975
480.6376, 267.0673
481.1197, 268.1732
481.6018, 268.0719
482.0839, 266.3224
482.5660, 264.1371
483.0482, 263.2907
483.5303, 264.4102
484.0124, 264.5827
484.4945, 263.3518
484.9766, 261.6692
485.4587, 259.5946
485.9409, 257.4858
486.4230, 256.0745
486.9051, 255.7974
487.3872, 256.2763
487.8693, 256.4413
488.3514, 256.2433
488.8336, 255.7978
489.3157, 254.8762
489.7978, 253.9398
490.2799, 253.2186
490.7620, 252.7691
491.2441, 252.6559
491.7263, 253.1759
492.2084, 254.0633
492.6905, 253.8796
493.1726, 252.1117
493.6547, 250.5130
494.1368, 249.9633
494.6190, 249.8782
495.1011, 249.7632
495.5832, 249.5548
496.0653, 249.1487
496.5474, 248.3450
497.0295, 247.2778
497.5117, 246.4022
497.9938, 245.8367
498.4759, 245.2262
498.9580, 244.1551
499.4401, 242.7480
499.9222, 241.6884
500.4044, 240.7554
500.8865, 240.4401
501.3686, 241.5678
501.8507, 243.4209
502.3328, 244.5213
502.8149, 244.3555
503.2971, 243.4449
503.7792, 242.4270
504.2613, 241.0632
504.7434, 240.5243
505.2255, 241.6128
505.7076, 242.6432
506.1898, 242.6955
506.6719, 242.0853
507.1540, 241.5998
507.6361, 241.6640
508.1182, 241.9523
508.6003, 241.6361
509.0825, 240.3513
509.5646, 239.4396
510.0467, 239.2922
510.5288, 239.3261
511.0109, 239.2134
511.4930, 238.9928
511.9752, 238.9077
512.4573, 239.1731
512.9394, 239.6352
513.4215, 240.0356
513.9036, 240.4337
514.3857, 240.3222
514.8679, 238.7096
515.3500, 237.1026
515.8321, 237.8718
516.3142, 241.4398
516.7963, 243.8823
517.2784, 242.4629
517.7606, 239.4199
518.2427, 237.9820
518.7248, 238.3788
519.2069, 238.8358
519.6890, 238.0289
520.1711, 236.3781
520.6533, 236.0437
521.1354, 238.4822
521.6175, 240.0831
522.0996, 239.4733
522.5817, 238.1983
523.0638, 237.8255
523.5460, 238.5796
524.0281, 239.7486
524.5102, 240.7568
524.9923, 241.5872
525.4744, 241.5588
525.9565, 239.5639
526.4387, 238.1582
526.9208, 238.1069
527.4029, 238.7318
527.8850, 239.4291
528.3671, 240.0204
528.8492, 240.4448
529.3314, 240.6281
529.8135, 240.5802
530.2956, 240.3261
530.7777, 239.6749
531.2598, 239.2213
531.7419, 239.6576
532.2241, 240.4688
532.7062, 240.8008
533.1883, 240.3490
533.6704, 239.7006
534.1525, 238.9369
534.6346, 238.3034
535.1168, 238.5636
535.5989, 239.9601
536.0810, 241.5028
536.5631, 242.1740
537.0452, 241.9243
537.5273, 241.8152
538.0095, 241.6892
538.4916, 241.8622
538.9737, 242.7336
539.4558, 243.8847
539.9379, 244.5921
540.4200, 244.6551
540.9022, 244.6605
541.3843, 245.5003
541.8664, 247.3974
542.3485, 248.8759
542.8306, 249.6741
543.3127, 250.3028
543.7948, 250.5635
544.2769, 250.8600
544.7590, 251.8615
545.2411, 253.8739
545.7233, 256.2106
546.2054, 257.6330
546.6875, 258.2903
547.1696, 260.4963
547.6517, 265.1696
548.1339, 270.3485
548.6160, 274.0632
549.0981, 276.9111
549.5802, 280.7291
550.0623, 286.7787
550.5444, 292.8762
551.0266, 297.9996
551.5087, 302.0953
551.9908, 305.2455
552.4729, 307.5042
552.9550, 308.2383
553.4371, 306.6207
553.9193, 302.4377
554.4014, 296.8928
554.8835, 288.7050
555.3656, 280.7857
555.8477, 273.9743
556.3298, 268.1257
556.8120, 263.0709
557.2941, 258.7019
557.7762, 254.9171
558.2583, 251.4736
558.7404, 248.3293
559.2225, 246.0239
559.7047, 244.8008
560.1868, 244.2057
560.6689, 244.5286
561.1510, 245.1347
561.6331, 244.8442
562.1152, 243.0427
562.5974, 241.0048
563.0795, 239.9660
563.5616, 239.6797
564.0437, 239.2425
564.5258, 238.4508
565.0079, 237.5874
565.4901, 236.8432
565.9722, 236.2456
566.4543, 235.9415
566.9364, 236.0421
567.4185, 236.3062
567.9006, 236.8174
568.3828, 237.3713
568.8649, 237.7620
569.3470, 237.9073
569.8291, 237.6657
570.3112, 236.7489
570.7933, 235.0733
571.2755, 234.1966
571.7576, 234.8678
572.2397, 235.4191
572.7218, 235.1631
573.2039, 234.7229
573.6860, 234.9823
574.1682, 236.1343
574.6503, 237.1684
575.1324, 236.8643
575.6145, 235.5769
576.0966, 234.8835
576.5787, 234.9244
577.0609, 235.4112
577.5430, 236.5163
578.0251, 237.8383
578.5072, 238.4128
578.9893, 237.9256
579.4714, 237.3569
579.9536, 237.0587
580.4357, 236.8956
580.9178, 236.6568
581.3999, 236.3447
581.8820, 236.1953
582.3641, 236.4333
582.8463, 236.9502
583.3284, 237.0952
583.8105, 236.3074
584.2926, 235.9717
584.7747, 236.4975
585.2568, 237.2575
585.7390, 237.6661
586.2211, 237.7919
586.7032, 238.2464
587.1853, 239.6863
587.6674, 241.6071
588.1495, 242.5569
588.6317, 242.4068
589.1138, 242.0256
