##NAMES=Sinhalite
##RRUFFID=R100163
##IDEAL CHEMISTRY=MgAlBO_4_
##LOCALITY=Ratnapura, Sri Lanka
##OWNER=RRUFF
##SOURCE=William W. Pinch
##DESCRIPTION=Pale brown cut gemstone
##STATUS=The identification of this mineral has been confirmed by single-crystal X-ray diffraction.
##URL=rruff.info/R100163
93.49817, 226.2563
93.98029, 222.3555
94.46240, 218.3137
94.94452, 214.1292
95.42664, 210.1628
95.90874, 206.8200
96.39086, 204.0811
96.87298, 201.5032
97.35509, 198.3922
97.83721, 194.1885
98.31933, 190.4337
98.80145, 187.1394
99.28356, 184.2582
99.76568, 181.8061
100.2478, 179.7583
100.7299, 178.0633
101.2120, 176.6452
101.6941, 175.7032
102.1763, 174.8031
102.6584, 173.9178
103.1405, 173.0392
103.6226, 172.1642
104.1047, 171.2776
104.5868, 170.3844
105.0690, 169.5281
105.5511, 169.0032
106.0332, 168.2238
106.5153, 166.6004
106.9974, 164.2547
107.4795, 162.2178
107.9617, 161.4950
108.4438, 161.7063
108.9259, 161.4643
109.4080, 160.1396
109.8901, 158.4250
110.3722, 157.4023
110.8544, 157.4027
111.3365, 157.3225
111.8186, 156.1465
112.3007, 154.3464
112.7828, 152.8599
113.2649, 152.2991
113.7471, 152.6064
114.2292, 153.1039
114.7113, 154.5651
115.1934, 155.4475
115.6755, 154.8432
116.1576, 152.9975
116.6397, 150.8660
117.1219, 149.3767
117.6040, 148.5841
118.0861, 148.3532
118.5682, 149.3711
119.0503, 150.3485
119.5324, 150.4530
120.0146, 149.5403
120.4967, 148.0963
120.9788, 146.9208
121.4609, 146.0779
121.9430, 145.4822
122.4251, 145.2650
122.9073, 145.2491
123.3894, 145.3077
123.8715, 145.4256
124.3536, 145.4597
124.8357, 144.9527
125.3178, 143.6913
125.8000, 142.4973
126.2821, 141.6330
126.7642, 141.0760
127.2463, 140.7801
127.7284, 140.8189
128.2105, 141.0671
128.6927, 141.2973
129.1748, 141.5829
129.6569, 141.7156
130.1390, 141.4351
130.6211, 140.6812
131.1032, 139.8774
131.5854, 139.1247
132.0675, 138.4471
132.5496, 137.8845
133.0317, 137.4536
133.5138, 137.1424
133.9959, 136.9437
134.4781, 136.9956
134.9602, 136.9302
135.4423, 136.4964
135.9244, 135.9303
136.4065, 135.5654
136.8886, 135.6361
137.3708, 136.0991
137.8529, 136.3487
138.3350, 136.1273
138.8171, 135.9349
139.2992, 136.0408
139.7813, 136.2881
140.2635, 136.3066
140.7456, 135.7565
141.2277, 134.5500
141.7098, 133.5003
142.1919, 132.3946
142.6740, 131.5751
143.1561, 131.4259
143.6383, 131.8918
144.1204, 132.3860
144.6025, 132.2808
145.0846, 131.4528
145.5667, 130.7512
146.0488, 130.0563
146.5310, 129.5718
147.0131, 129.6912
147.4952, 130.5952
147.9773, 131.5285
148.4594, 131.4364
148.9415, 130.5085
149.4237, 129.6515
149.9058, 129.1448
150.3879, 128.9531
150.8700, 129.0339
151.3521, 129.5590
151.8342, 130.1146
152.3164, 130.4528
152.7985, 130.5656
153.2806, 130.3950
153.7627, 129.7238
154.2448, 128.5348
154.7269, 127.6497
155.2091, 127.5669
155.6912, 127.5359
156.1733, 127.0858
156.6554, 126.2162
157.1375, 125.3484
157.6196, 125.0182
158.1018, 125.4109
158.5839, 125.8221
159.0660, 126.3166
159.5481, 126.7465
160.0302, 126.9952
160.5123, 127.0416
160.9945, 126.9688
161.4766, 126.9226
161.9587, 126.9488
162.4408, 126.9295
162.9229, 127.0287
163.4050, 127.0118
163.8871, 126.4963
164.3693, 125.3517
164.8514, 124.0105
165.3335, 123.5605
165.8156, 125.0169
166.2977, 125.9457
166.7798, 125.9105
167.2620, 125.2294
167.7441, 124.2689
168.2262, 123.1038
168.7083, 121.9458
169.1904, 121.4414
169.6725, 121.7539
170.1547, 122.2306
170.6368, 122.8213
171.1189, 123.4249
171.6010, 123.6361
172.0831, 123.0688
172.5652, 122.1512
173.0474, 121.7776
173.5295, 122.1584
174.0116, 122.6782
174.4937, 122.9339
174.9758, 122.9272
175.4579, 122.7197
175.9401, 122.2537
176.4222, 121.6220
176.9043, 120.8351
177.3864, 119.7633
177.8685, 118.8456
178.3506, 118.7817
178.8328, 119.8597
179.3149, 120.7627
179.7970, 120.9659
180.2791, 120.8359
180.7612, 120.6580
181.2433, 120.5392
181.7255, 120.4026
182.2076, 120.0531
182.6897, 119.3061
183.1718, 118.6845
183.6539, 118.2225
184.1360, 117.9405
184.6181, 117.9437
185.1003, 118.3053
185.5824, 118.8468
186.0645, 118.9034
186.5466, 117.5689
187.0287, 116.8719
187.5108, 117.8980
187.9930, 119.4878
188.4751, 120.0223
188.9572, 118.5335
189.4393, 115.5087
189.9214, 113.6933
190.4035, 113.9751
190.8857, 114.4792
191.3678, 115.0274
191.8499, 115.5587
192.3320, 116.0197
192.8141, 116.3749
193.2962, 116.6344
193.7784, 116.8723
194.2605, 117.3688
194.7426, 117.5675
195.2247, 116.9546
195.7068, 115.8280
196.1889, 115.0397
196.6711, 115.1499
197.1532, 116.0255
197.6353, 116.8015
198.1174, 117.5933
198.5995, 118.2000
199.0816, 118.5000
199.5638, 118.5093
200.0459, 118.3130
200.5280, 117.8495
201.0101, 117.2430
201.4922, 116.8681
201.9743, 116.9212
202.4565, 117.0227
202.9386, 116.7765
203.4207, 116.1697
203.9028, 115.6782
204.3849, 115.6295
204.8670, 115.8430
205.3492, 116.0876
205.8313, 116.3867
206.3134, 116.6201
206.7955, 116.5888
207.2776, 116.2309
207.7597, 115.8971
208.2419, 115.8156
208.7240, 115.8145
209.2061, 115.6881
209.6882, 115.2999
210.1703, 114.9033
210.6524, 115.0833
211.1346, 116.2579
211.6167, 116.9012
212.0988, 116.1011
212.5809, 114.7824
213.0630, 113.7557
213.5451, 113.3316
214.0273, 113.4254
214.5094, 113.9457
214.9915, 115.3317
215.4736, 116.3350
215.9557, 116.5725
216.4378, 116.4442
216.9200, 116.3287
217.4021, 116.3925
217.8842, 116.5715
218.3663, 116.6507
218.8484, 116.2110
219.3305, 116.3289
219.8127, 117.4661
220.2948, 119.0352
220.7769, 120.4365
221.2590, 121.3972
221.7411, 122.0499
222.2232, 122.7750
222.7054, 123.1594
223.1875, 124.1780
223.6696, 126.2526
224.1517, 128.8568
224.6338, 131.5055
225.1159, 133.9976
225.5980, 136.2130
226.0802, 137.7860
226.5623, 138.8174
227.0444, 139.0264
227.5265, 138.1132
228.0086, 136.4367
228.4907, 134.2744
228.9729, 131.7053
229.4550, 129.0529
229.9371, 127.2342
230.4192, 126.6928
230.9013, 126.2202
231.3834, 125.8095
231.8656, 125.3246
232.3477, 124.5364
232.8298, 123.3389
233.3119, 121.8755
233.7940, 120.3700
234.2761, 118.6346
234.7583, 117.2878
235.2404, 116.7600
235.7225, 116.6825
236.2046, 116.3267
236.6867, 115.3517
237.1688, 114.2685
237.6510, 114.2195
238.1331, 115.4673
238.6152, 116.0716
239.0973, 114.7042
239.5794, 112.2708
240.0615, 110.7928
240.5437, 110.9944
241.0258, 111.9129
241.5079, 112.3042
241.9900, 112.1898
242.4721, 112.0170
242.9542, 111.9093
243.4364, 111.8815
243.9185, 112.0292
244.4006, 112.5016
244.8827, 112.9042
245.3648, 112.8634
245.8469, 112.4226
246.3290, 111.7532
246.8112, 110.6066
247.2933, 109.2661
247.7754, 108.7184
248.2575, 109.5733
248.7396, 110.4149
249.2217, 109.8023
249.7039, 108.1740
250.1860, 107.0460
250.6681, 107.7113
251.1502, 109.6109
251.6323, 110.6468
252.1144, 110.4484
252.5966, 109.7820
253.0787, 108.9581
253.5608, 108.0704
254.0429, 107.3325
254.5250, 107.0008
255.0071, 106.9243
255.4893, 106.4166
255.9714, 104.9801
256.4535, 103.9456
256.9356, 104.1687
257.4177, 105.0823
257.8998, 105.7376
258.3820, 105.4988
258.8641, 104.6821
259.3462, 104.4776
259.8283, 105.4497
260.3104, 106.0992
260.7925, 105.6853
261.2747, 104.7842
261.7568, 104.1753
262.2389, 104.2844
262.7210, 104.8464
263.2031, 105.0526
263.6852, 104.5509
264.1674, 104.3015
264.6495, 104.7489
265.1316, 105.4339
265.6137, 105.8370
266.0958, 105.7235
266.5779, 105.3250
267.0601, 105.2097
267.5422, 105.6147
268.0243, 105.8812
268.5064, 105.8440
268.9885, 105.6872
269.4706, 105.5741
269.9528, 105.5618
270.4349, 105.5900
270.9170, 105.5182
271.3991, 105.1826
271.8812, 105.0857
272.3633, 105.9267
272.8455, 106.5681
273.3276, 105.8159
273.8097, 103.5189
274.2918, 100.8268
274.7739, 99.56088
275.2560, 100.6022
275.7382, 101.2443
276.2202, 101.3285
276.7024, 101.2220
277.1845, 101.1505
277.6666, 101.1461
278.1487, 101.1014
278.6308, 100.8743
279.1129, 100.3961
279.5951, 99.96928
280.0772, 99.55332
280.5593, 99.20881
281.0414, 98.94585
281.5235, 98.77840
282.0056, 98.74380
282.4878, 98.89729
282.9699, 99.27947
283.4520, 99.56238
283.9341, 99.60144
284.4162, 99.69689
284.8983, 100.1027
285.3805, 100.6884
285.8626, 101.0622
286.3447, 100.8654
286.8268, 100.1171
287.3089, 99.96419
287.7910, 100.9718
288.2732, 101.9162
288.7553, 102.4205
289.2374, 102.6074
289.7195, 102.7607
290.2016, 103.0594
290.6837, 103.4473
291.1659, 103.6065
291.6480, 103.3236
292.1301, 103.0610
292.6122, 102.8772
293.0943, 102.7615
293.5764, 102.7121
294.0586, 102.7308
294.5407, 102.7768
295.0228, 102.7394
295.5049, 102.6851
295.9870, 102.4517
296.4691, 101.8688
296.9513, 101.1749
297.4334, 100.6672
297.9155, 100.4366
298.3976, 100.2751
298.8797, 99.82357
299.3618, 98.81029
299.8440, 98.00942
300.3261, 97.34938
300.8082, 96.94357
301.2903, 96.98137
301.7724, 97.45895
302.2545, 98.08820
302.7367, 98.56972
303.2188, 98.93473
303.7009, 98.91045
304.1830, 98.11587
304.6651, 97.27832
305.1472, 96.87492
305.6294, 96.89409
306.1115, 97.01745
306.5936, 96.96806
307.0757, 96.72998
307.5578, 96.64573
308.0399, 96.83560
308.5221, 97.03029
309.0042, 97.01565
309.4863, 96.89820
309.9684, 96.98935
310.4505, 97.51768
310.9326, 98.40063
311.4148, 99.04088
311.8969, 99.04754
312.3790, 99.30225
312.8611, 100.4484
313.3432, 101.9027
313.8253, 102.6970
314.3075, 102.3690
314.7896, 101.2611
315.2717, 100.2185
315.7538, 99.09776
316.2359, 98.25207
316.7180, 97.74635
317.2001, 97.51407
317.6823, 97.59874
318.1644, 97.99554
318.6465, 98.40623
319.1286, 98.35162
319.6107, 97.47133
320.0928, 96.99744
320.5750, 96.98080
321.0571, 97.31556
321.5392, 98.09409
322.0213, 99.23858
322.5034, 100.3255
322.9855, 100.8537
323.4677, 100.6688
323.9498, 101.1835
324.4319, 102.9438
324.9140, 104.7821
325.3961, 106.2730
325.8782, 107.3590
326.3604, 108.0824
326.8425, 108.4752
327.3246, 108.3930
327.8067, 108.1174
328.2888, 107.1224
328.7709, 105.8765
329.2531, 104.2816
329.7352, 102.5250
330.2173, 100.8739
330.6994, 99.45190
331.1815, 98.23729
331.6636, 97.16441
332.1458, 96.22414
332.6279, 95.45820
333.1100, 94.78037
333.5921, 94.32415
334.0742, 94.41460
334.5563, 95.08540
335.0385, 95.76302
335.5206, 95.53455
336.0027, 93.69788
336.4848, 92.79141
336.9669, 93.45448
337.4490, 94.42874
337.9312, 95.00317
338.4133, 95.09007
338.8954, 94.86904
339.3775, 94.46285
339.8596, 93.83340
340.3417, 93.49430
340.8239, 93.64100
341.3060, 93.83129
341.7881, 93.86068
342.2702, 93.81599
342.7523, 93.92190
343.2344, 94.33287
343.7166, 94.95964
344.1987, 95.36356
344.6808, 95.60644
345.1629, 95.51255
345.6450, 94.69921
346.1271, 93.68728
346.6093, 93.04408
347.0914, 92.98066
347.5735, 93.30883
348.0556, 93.67471
348.5377, 93.98561
349.0198, 94.52999
349.5020, 95.83559
349.9841, 96.95920
350.4662, 96.87733
350.9483, 95.71717
351.4304, 94.71302
351.9125, 95.28090
352.3947, 97.69344
352.8768, 99.85490
353.3589, 101.7579
353.8410, 103.4174
354.3231, 104.7589
354.8052, 105.8544
355.2874, 106.8187
355.7695, 107.6949
356.2516, 108.5276
356.7337, 109.6409
357.2158, 111.7332
357.6979, 113.1093
358.1800, 112.6779
358.6621, 111.7593
359.1443, 111.8696
359.6264, 113.5887
360.1085, 116.1720
360.5906, 118.2653
361.0727, 119.5523
361.5548, 121.1858
362.0370, 122.8742
362.5191, 125.2107
363.0012, 128.6023
363.4833, 133.0911
363.9654, 138.3688
364.4475, 143.9552
364.9297, 149.7749
365.4118, 157.1124
365.8939, 165.2405
366.3760, 175.9939
366.8581, 188.9087
367.3402, 204.8697
367.8224, 225.4754
368.3045, 251.4034
368.7866, 282.6046
369.2687, 319.6090
369.7508, 363.8552
370.2329, 410.8627
370.7151, 464.0743
371.1972, 516.8193
371.6793, 566.0392
372.1614, 611.6484
372.6435, 644.2943
373.1256, 651.7473
373.6078, 633.3940
374.0899, 598.6726
374.5720, 537.3383
375.0541, 470.0197
375.5362, 408.7506
376.0183, 354.3625
376.5005, 309.1203
376.9826, 275.8055
377.4647, 252.8746
377.9468, 234.7854
378.4289, 222.0029
378.9110, 212.4761
379.3932, 205.9040
379.8753, 201.3747
380.3574, 197.4281
380.8395, 194.1471
381.3216, 190.7478
381.8037, 186.1560
382.2859, 180.3428
382.7680, 174.3286
383.2501, 168.1280
383.7322, 162.3109
384.2143, 157.5640
384.6964, 154.0099
385.1786, 151.2331
385.6607, 149.0833
386.1428, 147.5633
386.6249, 146.5759
387.1070, 145.9861
387.5891, 146.2621
388.0713, 148.2143
388.5534, 151.6796
389.0355, 155.7622
389.5176, 159.9023
389.9997, 164.8184
390.4818, 170.9018
390.9640, 178.2747
391.4461, 187.5796
391.9282, 199.2149
392.4103, 213.3142
392.8924, 229.6641
393.3745, 248.7659
393.8567, 269.3528
394.3388, 292.8282
394.8209, 317.2184
395.3030, 339.6093
395.7851, 359.6046
396.2672, 374.2258
396.7494, 378.1678
397.2315, 369.2396
397.7136, 353.5035
398.1957, 326.2889
398.6778, 295.4908
399.1599, 265.4645
399.6420, 237.7152
400.1241, 214.5032
400.6063, 197.9239
401.0884, 187.9990
401.5705, 182.5441
402.0526, 182.1774
402.5347, 184.8362
403.0168, 191.0147
403.4990, 199.5972
403.9811, 209.1623
404.4632, 219.0100
404.9453, 228.9842
405.4274, 238.9418
405.9095, 251.3902
406.3917, 259.1147
406.8738, 262.2152
407.3559, 260.9004
407.8380, 254.2178
408.3201, 242.7572
408.8022, 229.1150
409.2844, 215.2646
409.7665, 201.1365
410.2486, 188.8635
410.7307, 178.1448
411.2128, 169.9194
411.6949, 165.0847
412.1771, 162.7777
412.6592, 161.7307
413.1413, 161.3953
413.6234, 161.7215
414.1055, 162.8250
414.5876, 165.1873
415.0698, 166.8657
415.5519, 167.7747
416.0340, 167.5693
416.5161, 165.9649
416.9982, 162.9082
417.4803, 158.4798
417.9625, 152.1978
418.4446, 144.3691
418.9267, 136.8180
419.4088, 129.4586
419.8909, 122.8615
420.3730, 117.5609
420.8552, 113.2425
421.3373, 109.4110
421.8194, 105.9230
422.3015, 102.8258
422.7836, 100.1511
423.2657, 97.90609
423.7479, 96.20164
424.2300, 95.19639
424.7121, 94.69386
425.1942, 94.38435
425.6763, 94.32644
426.1584, 94.16455
426.6406, 93.71680
427.1227, 93.07434
427.6048, 92.34824
428.0869, 91.54147
428.5690, 90.78352
429.0511, 90.15153
429.5333, 89.67251
430.0154, 89.48689
430.4975, 89.95439
430.9796, 90.37704
431.4617, 90.26892
431.9438, 89.79684
432.4260, 89.42262
432.9081, 89.37315
433.3902, 89.51084
433.8723, 89.50085
434.3544, 89.02525
434.8365, 88.94451
435.3187, 89.69670
435.8008, 90.58133
436.2829, 90.89767
436.7650, 90.65149
437.2471, 90.50475
437.7292, 91.18838
438.2114, 92.75325
438.6935, 93.19466
439.1756, 91.05449
439.6577, 89.40115
440.1398, 89.24201
440.6219, 89.88467
441.1040, 90.34946
441.5862, 90.22318
442.0683, 89.86777
442.5504, 89.98793
443.0325, 90.80503
443.5146, 91.42028
443.9967, 91.60122
444.4789, 91.69191
444.9610, 91.84610
445.4431, 92.06619
445.9252, 92.29141
446.4073, 92.46851
446.8894, 92.61592
447.3716, 92.77885
447.8537, 92.89768
448.3358, 93.18200
448.8179, 93.98595
449.3000, 94.89178
449.7821, 95.28723
450.2643, 94.87948
450.7464, 94.75832
451.2285, 96.39405
451.7106, 99.31657
452.1927, 100.9387
452.6748, 100.2964
453.1570, 99.17089
453.6391, 99.41076
454.1212, 100.7446
454.6033, 102.1145
455.0854, 103.0999
455.5675, 104.1450
456.0497, 105.5697
456.5318, 107.3918
457.0139, 109.7339
457.4960, 112.7827
457.9781, 116.2451
458.4602, 119.2850
458.9424, 121.4786
459.4245, 124.1918
459.9066, 128.0353
460.3887, 132.2948
460.8708, 136.2408
461.3529, 139.7721
461.8351, 143.2622
462.3172, 147.1833
462.7993, 151.5581
463.2814, 154.8902
463.7635, 157.5412
464.2456, 158.8273
464.7278, 158.5482
465.2099, 156.8075
465.6920, 153.4277
466.1741, 148.3788
466.6562, 142.6413
467.1383, 137.7557
467.6205, 133.6635
468.1026, 130.5053
468.5847, 128.7128
469.0668, 127.4898
469.5489, 126.5018
470.0310, 125.8046
470.5132, 125.6421
470.9953, 126.1874
471.4774, 127.3421
471.9595, 128.8279
472.4416, 130.5802
472.9237, 132.8940
473.4059, 136.0158
473.8880, 139.6922
474.3701, 143.7424
474.8522, 148.1261
475.3343, 152.8537
475.8164, 157.9301
476.2986, 163.3266
476.7807, 169.1930
477.2628, 175.6414
477.7449, 181.8812
478.2270, 187.0378
478.7091, 191.4686
479.1913, 196.6369
479.6734, 203.5897
480.1555, 210.1980
480.6376, 215.7288
481.1197, 220.0756
481.6018, 223.0041
482.0839, 224.4262
482.5660, 224.5043
483.0482, 223.2368
483.5303, 219.9365
484.0124, 217.8683
484.4945, 217.3080
484.9766, 217.6342
485.4587, 218.7406
485.9409, 220.4608
486.4230, 222.4614
486.9051, 224.5434
487.3872, 226.9007
487.8693, 230.1873
488.3514, 235.4805
488.8336, 239.7015
489.3157, 242.4458
489.7978, 244.3718
490.2799, 246.2838
490.7620, 247.9350
491.2441, 248.1080
491.7263, 245.8370
492.2084, 241.2804
492.6905, 235.1142
493.1726, 227.1938
493.6547, 218.0429
494.1368, 206.7639
494.6190, 194.9651
495.1011, 184.2449
495.5832, 174.9361
496.0653, 166.3521
496.5474, 157.8597
497.0295, 149.7383
497.5117, 143.0067
497.9938, 137.9434
498.4759, 133.7149
498.9580, 129.7641
499.4401, 126.0795
499.9222, 122.5692
500.4044, 119.3339
500.8865, 116.1533
501.3686, 112.7131
501.8507, 109.2527
502.3328, 106.1837
502.8149, 103.6537
503.2971, 101.6176
503.7792, 100.0324
504.2613, 98.95044
504.7434, 98.16431
505.2255, 98.17117
505.7076, 97.95431
506.1898, 96.87657
506.6719, 95.21780
507.1540, 93.55051
507.6361, 92.16230
508.1182, 91.05151
508.6003, 90.21883
509.0825, 89.65194
509.5646, 89.39769
510.0467, 89.88779
510.5288, 90.32693
511.0109, 90.16615
511.4930, 89.53377
511.9752, 89.01933
512.4573, 89.17885
512.9394, 89.58103
513.4215, 89.05717
513.9036, 87.40927
514.3857, 86.07954
514.8679, 85.71408
515.3500, 85.89043
515.8321, 86.07298
516.3142, 86.25636
516.7963, 86.39854
517.2784, 86.45443
517.7606, 86.47159
518.2427, 86.55830
518.7248, 86.71323
519.2069, 86.70765
519.6890, 86.26848
520.1711, 85.58823
520.6533, 85.67049
521.1354, 87.76826
521.6175, 88.84908
522.0996, 87.41592
522.5817, 85.30756
523.0638, 84.55883
523.5460, 85.36791
524.0281, 86.35469
524.5102, 86.15503
524.9923, 84.81308
525.4744, 83.82267
525.9565, 83.26218
526.4387, 83.00106
526.9208, 83.23884
527.4029, 83.62527
527.8850, 83.83497
528.3671, 83.77869
528.8492, 83.50407
529.3314, 82.82399
529.8135, 81.83786
530.2956, 81.57854
530.7777, 82.30272
531.2598, 83.34587
531.7419, 84.60463
532.2241, 85.84126
532.7062, 86.62222
533.1883, 86.70620
533.6704, 86.64891
534.1525, 86.74992
534.6346, 87.00082
535.1168, 87.42339
535.5989, 88.03596
536.0810, 88.66325
536.5631, 89.06921
537.0452, 89.24065
537.5273, 89.81654
538.0095, 91.35087
538.4916, 92.63594
538.9737, 92.82780
539.4558, 92.62582
539.9379, 93.11112
540.4200, 94.61892
540.9022, 96.64090
541.3843, 98.46875
541.8664, 100.0340
542.3485, 101.7968
542.8306, 103.7334
543.3127, 105.9054
543.7948, 108.1579
544.2769, 110.7055
544.7590, 113.7334
545.2411, 117.2541
545.7233, 121.6764
546.2054, 127.3104
546.6875, 134.2004
547.1696, 142.7095
547.6517, 153.0108
548.1339, 164.6733
548.6160, 177.6380
549.0981, 191.6653
549.5802, 206.5672
550.0623, 224.0482
550.5444, 240.4504
551.0266, 254.7850
551.5087, 266.1996
551.9908, 273.2635
552.4729, 275.6135
552.9550, 272.0464
553.4371, 260.4771
553.9193, 239.4791
554.4014, 218.4082
554.8835, 195.0699
555.3656, 174.0789
555.8477, 157.1886
556.3298, 143.5426
556.8120, 132.0730
557.2941, 122.2925
557.7762, 114.3599
558.2583, 108.8138
558.7404, 105.9870
559.2225, 102.9557
559.7047, 99.19842
560.1868, 95.88549
560.6689, 93.50210
561.1510, 91.87854
561.6331, 90.78763
562.1152, 90.32075
562.5974, 89.93581
563.0795, 89.05689
563.5616, 87.83172
564.0437, 86.77710
564.5258, 85.98006
565.0079, 85.42171
565.4901, 85.13773
565.9722, 85.12180
566.4543, 85.06126
566.9364, 84.85264
567.4185, 84.71831
567.9006, 84.82304
568.3828, 85.02367
568.8649, 85.09628
569.3470, 84.99235
569.8291, 84.86073
570.3112, 84.87985
570.7933, 85.06063
571.2755, 85.19748
571.7576, 85.24531
572.2397, 85.30494
572.7218, 85.38016
573.2039, 85.48918
573.6860, 85.56515
574.1682, 85.60374
574.6503, 85.92164
575.1324, 87.12601
575.6145, 88.92476
576.0966, 89.91285
576.5787, 89.82389
577.0609, 89.62454
577.5430, 89.80594
578.0251, 90.31979
578.5072, 91.04257
578.9893, 92.15621
579.4714, 93.06276
579.9536, 93.35253
580.4357, 93.40491
580.9178, 93.59629
581.3999, 94.01260
581.8820, 94.77566
582.3641, 96.04807
582.8463, 97.68834
583.3284, 98.86748
583.8105, 99.02947
584.2926, 99.54018
584.7747, 100.4417
585.2568, 101.7558
585.7390, 103.7928
586.2211, 106.3433
586.7032, 108.5777
587.1853, 109.7267
587.6674, 110.2670
588.1495, 111.4925
588.6317, 113.4853
589.1138, 115.6980
589.5959, 118.1269
590.0780, 120.5529
590.5601, 122.6786
591.0422, 124.5129
591.5244, 126.3338
592.0065, 127.7759
592.4886, 129.5849
