##NAMES=Sinhalite
##RRUFFID=R100132
##IDEAL CHEMISTRY=MgAlBO_4_
##LOCALITY=Ratnapura district, Sri Lanka
##OWNER=RRUFF
##SOURCE=William W. Pinch
##DESCRIPTION=Tan colored water-worn single crystal
##STATUS=The identification of this mineral has been confirmed by single-crystal X-ray diffraction.
##URL=rruff.info/R100132
140.2111, 56.90654
140.6932, 59.37893
141.1753, 62.71580
141.6575, 64.45325
142.1396, 64.02307
142.6217, 63.59884
143.1038, 63.75958
143.5859, 64.56973
144.0681, 64.56773
144.5502, 63.29659
145.0323, 61.62098
145.5144, 60.42991
145.9965, 59.40150
146.4786, 59.40408
146.9608, 60.96769
147.4429, 64.71078
147.9250, 67.45848
148.4071, 69.01607
148.8892, 69.65647
149.3713, 69.73503
149.8535, 68.34362
150.3356, 67.28839
150.8177, 67.16988
151.2998, 68.70316
151.7819, 69.62697
152.2640, 69.17879
152.7462, 68.19707
153.2283, 68.19117
153.7104, 70.36353
154.1925, 72.61819
154.6746, 74.21301
155.1567, 74.80634
155.6389, 75.19539
156.1210, 75.17667
156.6031, 74.99937
157.0852, 75.27376
157.5673, 76.76392
158.0495, 78.28074
158.5316, 79.19129
159.0137, 78.66056
159.4958, 78.54918
159.9779, 79.91843
160.4600, 82.22585
160.9422, 83.69980
161.4243, 82.75107
161.9064, 81.33968
162.3885, 80.82632
162.8706, 82.51392
163.3527, 83.99990
163.8349, 84.17539
164.3170, 83.24683
164.7991, 82.20139
165.2812, 81.02522
165.7633, 80.14678
166.2454, 79.96726
166.7276, 81.14933
167.2097, 82.57278
167.6918, 83.59386
168.1739, 84.24856
168.6560, 84.91487
169.1381, 85.84927
169.6203, 86.87703
170.1024, 87.24494
170.5845, 87.48475
171.0666, 87.49487
171.5487, 86.65812
172.0309, 85.05875
172.5130, 83.78184
172.9951, 83.88950
173.4772, 84.75564
173.9593, 85.40841
174.4414, 85.34840
174.9236, 84.95970
175.4057, 84.66734
175.8878, 84.47316
176.3699, 84.18863
176.8520, 83.50234
177.3341, 82.59864
177.8163, 81.87926
178.2984, 81.46668
178.7805, 81.35092
179.2626, 81.72205
179.7447, 82.63048
180.2268, 83.38377
180.7090, 83.19102
181.1911, 82.25024
181.6732, 81.15418
182.1553, 79.87488
182.6374, 78.66636
183.1195, 78.17811
183.6017, 78.47647
184.0838, 79.13663
184.5659, 80.04037
185.0480, 81.03625
185.5301, 81.37343
186.0123, 80.07586
186.4944, 77.77641
186.9765, 76.68346
187.4586, 77.06236
187.9407, 77.87985
188.4228, 77.42697
188.9050, 75.85521
189.3871, 74.77159
189.8692, 75.50729
190.3513, 77.60282
190.8334, 78.62343
191.3155, 78.24776
191.7977, 77.31248
192.2798, 77.24474
192.7619, 78.04221
193.2440, 78.66458
193.7261, 78.51151
194.2082, 77.64396
194.6904, 76.64657
195.1725, 75.41664
195.6546, 74.31740
196.1367, 74.32368
196.6188, 75.53528
197.1009, 76.51604
197.5831, 76.23374
198.0652, 74.69405
198.5473, 73.80605
199.0294, 73.77048
199.5115, 74.28977
199.9937, 74.88847
200.4758, 75.60820
200.9579, 76.10537
201.4400, 76.07279
201.9221, 75.45864
202.4042, 75.04086
202.8864, 74.88011
203.3685, 74.91830
203.8506, 75.03535
204.3327, 75.23473
204.8148, 75.49004
205.2969, 75.84530
205.7791, 76.34480
206.2612, 76.58736
206.7433, 76.44530
207.2254, 76.11297
207.7075, 76.12887
208.1896, 76.60521
208.6718, 77.10329
209.1539, 77.38109
209.6360, 77.39553
210.1181, 77.40072
210.6002, 77.40949
211.0823, 77.41926
211.5645, 77.36936
212.0466, 77.14832
212.5287, 77.13628
213.0108, 77.65811
213.4929, 78.96657
213.9750, 79.79942
214.4572, 79.92274
214.9393, 79.59542
215.4214, 79.58120
215.9035, 79.94650
216.3856, 80.49067
216.8678, 81.12686
217.3499, 81.91357
217.8320, 82.61295
218.3141, 83.16328
218.7962, 83.62634
219.2783, 84.24184
219.7605, 85.17890
220.2426, 85.94607
220.7247, 86.19266
221.2068, 85.61611
221.6889, 85.38946
222.1710, 85.64777
222.6532, 86.26839
223.1353, 86.85881
223.6174, 87.38634
224.0995, 87.95200
224.5816, 88.64734
225.0637, 89.64326
225.5459, 90.35001
226.0280, 90.70047
226.5101, 90.76526
226.9922, 90.72768
227.4743, 90.52238
227.9564, 90.31758
228.4386, 90.30582
228.9207, 90.96196
229.4028, 90.59486
229.8849, 88.69015
230.3670, 85.86810
230.8492, 83.82627
231.3313, 82.87946
231.8134, 82.26221
232.2955, 81.66993
232.7776, 81.23421
233.2597, 80.51257
233.7419, 79.30338
234.2240, 77.86144
234.7061, 76.90834
235.1882, 76.68193
235.6703, 76.58398
236.1524, 76.34044
236.6346, 75.78722
237.1167, 75.49110
237.5988, 75.60702
238.0809, 75.92284
238.5630, 75.95060
239.0451, 75.65043
239.5273, 75.11560
240.0094, 74.29709
240.4915, 72.87953
240.9736, 72.03016
241.4557, 72.03090
241.9378, 72.46569
242.4200, 72.40075
242.9021, 71.30691
243.3842, 70.53836
243.8663, 70.72752
244.3484, 72.39072
244.8306, 73.46359
245.3127, 73.81248
245.7948, 73.63646
246.2769, 73.25426
246.7590, 72.54819
247.2411, 71.84264
247.7233, 71.22139
248.2054, 70.64713
248.6875, 70.29134
249.1696, 70.14079
249.6517, 70.21932
250.1338, 70.67482
250.6160, 71.99270
251.0981, 72.80210
251.5802, 72.45924
252.0623, 70.57852
252.5444, 69.57207
253.0265, 69.78600
253.5087, 70.59751
253.9908, 71.15313
254.4729, 71.43204
254.9550, 71.50321
255.4371, 71.31614
255.9192, 70.81657
256.4014, 70.51207
256.8835, 70.42081
257.3656, 70.50703
257.8477, 70.80570
258.3298, 71.57401
258.8120, 71.96258
259.2941, 71.63967
259.7762, 70.54207
260.2583, 69.72422
260.7404, 69.05547
261.2225, 68.81615
261.7047, 69.50192
262.1868, 71.71999
262.6689, 73.25548
263.1510, 73.50211
263.6331, 72.49551
264.1152, 71.56133
264.5974, 70.66018
265.0795, 69.90259
265.5616, 69.41312
266.0437, 69.20080
266.5258, 69.22166
267.0079, 69.56328
267.4901, 70.16972
267.9722, 70.45939
268.4543, 70.29208
268.9364, 70.09859
269.4185, 70.32795
269.9006, 71.16290
270.3828, 71.58523
270.8649, 71.25974
271.3470, 70.42163
271.8291, 70.29378
272.3112, 71.14485
272.7933, 71.99409
273.2755, 71.97733
273.7576, 70.90728
274.2397, 70.30006
274.7218, 70.47116
275.2039, 71.13991
275.6860, 71.45745
276.1682, 71.37662
276.6503, 71.13374
277.1324, 70.80202
277.6145, 70.36362
278.0966, 70.15762
278.5787, 70.28596
279.0609, 70.57527
279.5430, 70.54333
280.0251, 70.10347
280.5072, 69.89480
280.9893, 70.40128
281.4715, 71.61449
281.9536, 72.66534
282.4357, 73.58643
282.9178, 74.20189
283.3999, 73.97826
283.8820, 72.85556
284.3642, 71.95069
284.8463, 71.89528
285.3284, 72.61282
285.8105, 72.99773
286.2926, 72.80917
286.7747, 73.03505
287.2569, 76.04604
287.7390, 81.67168
288.2211, 85.38216
288.7032, 84.30619
289.1853, 79.64701
289.6674, 76.77073
290.1496, 75.79432
290.6317, 75.70450
291.1138, 75.47815
291.5959, 75.16019
292.0780, 75.08122
292.5602, 75.53087
293.0423, 76.22637
293.5244, 76.46702
294.0065, 76.24537
294.4886, 75.70227
294.9707, 74.75279
295.4529, 73.53349
295.9350, 72.56264
296.4171, 72.01032
296.8992, 71.73169
297.3813, 71.48461
297.8634, 71.27597
298.3456, 71.17964
298.8277, 71.43956
299.3098, 71.84641
299.7919, 71.89336
300.2740, 71.35793
300.7561, 70.63187
301.2383, 70.24075
301.7204, 70.12257
302.2025, 70.02280
302.6846, 69.77272
303.1667, 69.44028
303.6488, 69.07089
304.1310, 68.61082
304.6131, 68.31638
305.0952, 68.70315
305.5773, 69.50410
306.0594, 69.99586
306.5415, 69.41177
307.0237, 68.51844
307.5058, 68.17949
307.9879, 68.54016
308.4700, 69.02066
308.9521, 69.40591
309.4343, 69.58549
309.9164, 69.38184
310.3985, 67.81731
310.8806, 66.45094
311.3627, 66.88503
311.8448, 69.21349
312.3270, 71.19218
312.8091, 71.03470
313.2912, 69.91520
313.7733, 69.22062
314.2554, 69.92585
314.7375, 70.76188
315.2197, 71.03020
315.7018, 70.79182
316.1839, 70.58302
316.6660, 70.82646
317.1481, 71.10878
317.6302, 71.08452
318.1124, 70.48016
318.5945, 69.79943
319.0766, 69.04453
319.5587, 68.30746
320.0408, 67.89138
320.5229, 67.98315
321.0051, 68.35692
321.4872, 68.96046
321.9693, 70.13431
322.4514, 70.86512
322.9335, 70.75047
323.4156, 70.07142
323.8978, 69.36945
324.3799, 68.43925
324.8620, 67.76048
325.3441, 67.52722
325.8262, 67.84777
326.3083, 68.32320
326.7905, 69.24912
327.2726, 70.21162
327.7547, 70.69077
328.2368, 69.97147
328.7189, 69.50452
329.2010, 69.84669
329.6832, 71.15772
330.1653, 71.44341
330.6474, 69.65965
331.1295, 67.60311
331.6116, 66.75058
332.0938, 67.91918
332.5759, 69.01102
333.0580, 69.85476
333.5401, 70.44126
334.0222, 70.59812
334.5043, 70.02760
334.9865, 69.43967
335.4686, 69.28154
335.9507, 69.73872
336.4328, 70.13963
336.9149, 70.50379
337.3970, 70.76698
337.8792, 70.66518
338.3613, 70.00345
338.8434, 69.52234
339.3255, 69.62435
339.8076, 70.40566
340.2898, 71.07534
340.7719, 71.68076
341.2540, 72.10715
341.7361, 72.07239
342.2182, 71.51225
342.7003, 71.09642
343.1825, 70.94629
343.6646, 71.11065
344.1467, 72.23438
344.6288, 74.56016
345.1109, 76.66784
345.5930, 76.85804
346.0752, 75.31167
346.5573, 73.85958
347.0394, 72.76765
347.5215, 72.17836
348.0036, 72.61929
348.4857, 74.06822
348.9679, 75.63461
349.4500, 76.58019
349.9321, 77.12978
350.4142, 77.91245
350.8963, 79.01902
351.3784, 80.40647
351.8606, 81.91165
352.3427, 83.59801
352.8248, 85.74861
353.3069, 88.48447
353.7890, 91.77096
354.2711, 95.42684
354.7533, 99.34322
355.2354, 104.3178
355.7175, 111.6772
356.1996, 120.4534
356.6817, 128.9576
357.1638, 136.9258
357.6460, 144.0204
358.1281, 149.7150
358.6102, 154.0927
359.0923, 158.4859
359.5744, 163.9436
360.0565, 169.6006
360.5387, 174.5623
361.0208, 177.6924
361.5029, 181.2146
361.9850, 185.9704
362.4671, 191.8541
362.9492, 198.5013
363.4314, 206.2712
363.9135, 214.4174
364.3956, 222.4648
364.8777, 230.0941
365.3598, 238.3272
365.8419, 246.8897
366.3241, 256.2820
366.8062, 267.2140
367.2883, 279.8261
367.7704, 293.9446
368.2526, 309.7808
368.7347, 327.6413
369.2168, 345.7317
369.6989, 363.7639
370.1810, 382.2379
370.6631, 401.8209
371.1453, 423.5421
371.6274, 445.0639
372.1095, 467.9854
372.5916, 491.2873
373.0737, 508.3875
373.5558, 522.5745
374.0380, 525.9463
374.5201, 513.1769
375.0022, 481.1916
375.4843, 442.7715
375.9664, 395.0621
376.4485, 343.9859
376.9307, 299.3212
377.4128, 261.2827
377.8949, 230.3718
378.3770, 208.0453
378.8591, 194.0859
379.3412, 183.2470
379.8234, 175.8772
380.3055, 170.7174
380.7876, 166.9079
381.2697, 164.3654
381.7518, 162.1859
382.2339, 160.1344
382.7161, 158.2953
383.1982, 156.8443
383.6803, 155.7901
384.1624, 155.0266
384.6445, 154.4156
385.1266, 154.0470
385.6088, 154.1234
386.0909, 154.6521
386.5730, 155.6944
387.0551, 157.4009
387.5372, 159.6787
388.0193, 162.3053
388.5015, 164.8405
388.9836, 167.8154
389.4657, 171.8351
389.9478, 176.9410
390.4299, 182.7424
390.9120, 189.0164
391.3942, 195.8321
391.8763, 203.1931
392.3584, 211.7035
392.8405, 220.1921
393.3226, 228.1098
393.8047, 235.5093
394.2869, 242.6304
394.7690, 249.1297
395.2511, 255.6785
395.7332, 262.9996
396.2154, 272.6461
396.6975, 280.0176
397.1796, 285.5688
397.6617, 288.0699
398.1438, 285.4709
398.6259, 275.7064
399.1081, 262.6073
399.5902, 245.6645
400.0723, 223.7728
400.5544, 205.8025
401.0365, 192.1032
401.5186, 182.0297
402.0008, 175.4029
402.4829, 173.7179
402.9650, 172.5238
403.4471, 171.1151
403.9292, 169.8326
404.4113, 170.2177
404.8935, 172.6664
405.3756, 175.8584
405.8577, 179.6204
406.3398, 184.2703
406.8219, 186.9583
407.3040, 187.6902
407.7862, 186.4013
408.2683, 182.8518
408.7504, 177.0266
409.2325, 169.5996
409.7146, 160.2547
410.1967, 149.6614
410.6789, 138.8935
411.1610, 127.8888
411.6431, 118.2290
412.1252, 111.9826
412.6073, 108.2661
413.0894, 104.5890
413.5716, 100.3894
414.0537, 96.42679
414.5358, 93.82495
415.0179, 92.32972
415.5000, 91.02369
415.9821, 89.31487
416.4643, 87.61106
416.9464, 86.46087
417.4285, 85.94858
417.9106, 85.34875
418.3927, 84.05877
418.8748, 82.45520
419.3570, 81.00915
419.8391, 79.85318
420.3212, 78.89423
420.8033, 78.23161
421.2854, 77.78018
421.7675, 77.12802
422.2497, 75.56493
422.7318, 74.20464
423.2139, 73.79600
423.6960, 75.20676
424.1781, 75.84653
424.6602, 74.76442
425.1424, 72.93230
425.6245, 71.77574
426.1066, 71.64625
426.5887, 71.78249
427.0709, 72.14385
427.5530, 72.72970
428.0351, 73.04411
428.5172, 72.95207
428.9993, 72.77599
429.4814, 72.78105
429.9636, 73.06547
430.4457, 73.12619
430.9278, 72.84824
431.4099, 72.39734
431.8920, 72.12565
432.3741, 72.04152
432.8563, 72.05837
433.3384, 72.29354
433.8205, 72.65311
434.3026, 72.30714
434.7847, 71.15405
435.2668, 70.09277
435.7490, 70.32224
436.2311, 71.46975
436.7132, 72.16316
437.1953, 71.86182
437.6774, 71.19906
438.1595, 70.89246
438.6417, 70.93234
439.1238, 71.27885
439.6059, 72.46268
440.0880, 73.65807
440.5701, 73.79712
441.0522, 72.61040
441.5344, 71.47021
442.0165, 71.34163
442.4986, 71.72330
442.9807, 72.00343
443.4628, 71.72356
443.9449, 71.55533
444.4271, 71.82648
444.9092, 72.46832
445.3913, 73.07800
445.8734, 73.72310
446.3555, 74.17056
446.8376, 74.25642
447.3198, 73.65617
447.8019, 73.31131
448.2840, 73.14926
448.7661, 73.28929
449.2482, 73.99916
449.7303, 76.01010
450.2125, 77.30508
450.6946, 77.18279
451.1767, 75.78103
451.6588, 75.13844
452.1409, 75.33522
452.6230, 76.08936
453.1052, 77.44102
453.5873, 79.49452
454.0694, 80.86225
454.5515, 81.34444
455.0337, 81.29380
455.5158, 81.16080
455.9979, 80.95626
456.4800, 80.85820
456.9621, 80.89639
457.4442, 81.10635
457.9264, 81.55975
458.4085, 82.25347
458.8906, 83.20169
459.3727, 84.66940
459.8548, 86.33369
460.3369, 87.60855
460.8191, 88.26112
461.3012, 88.79482
461.7833, 89.53997
462.2654, 90.47093
462.7475, 91.52931
463.2296, 92.50746
463.7118, 93.76987
464.1939, 95.74055
464.6760, 98.47099
465.1581, 100.8105
465.6402, 102.1447
466.1223, 103.0934
466.6045, 104.0705
467.0866, 104.7780
467.5687, 105.9492
468.0508, 108.1380
468.5329, 110.7701
469.0150, 112.5371
469.4972, 112.6959
469.9793, 113.0856
470.4614, 114.3276
470.9435, 116.4695
471.4256, 118.5089
471.9077, 120.4033
472.3899, 122.2832
472.8720, 124.2040
473.3541, 126.1743
473.8362, 128.4136
474.3183, 130.9993
474.8004, 133.8230
475.2826, 136.8357
475.7647, 140.0032
476.2468, 142.8435
476.7289, 144.6758
477.2110, 146.0990
477.6931, 148.6018
478.1753, 152.1989
478.6574, 155.7977
479.1395, 158.7843
479.6216, 161.1179
480.1037, 162.6806
480.5858, 163.2207
481.0680, 163.4072
481.5501, 164.1869
482.0322, 164.9471
482.5143, 164.3899
482.9964, 161.2933
483.4786, 157.3865
483.9607, 153.3643
484.4428, 149.3151
484.9249, 145.1183
485.4070, 140.6017
485.8892, 136.0681
486.3713, 131.7280
486.8534, 127.5965
487.3355, 123.6789
487.8176, 119.7954
488.2997, 116.1948
488.7819, 113.3795
489.2640, 111.5758
489.7461, 110.0391
490.2282, 108.6119
490.7103, 107.2667
491.1924, 105.6824
491.6746, 103.7638
492.1567, 101.9521
492.6388, 100.9059
493.1209, 100.4659
493.6030, 99.27286
494.0851, 96.96118
494.5673, 94.30823
495.0494, 92.39953
495.5315, 91.10666
496.0136, 90.03699
496.4957, 89.19363
496.9778, 88.35596
497.4600, 87.16345
497.9421, 85.66079
498.4242, 84.24922
498.9063, 83.40135
499.3884, 82.60935
499.8705, 81.30228
500.3527, 78.99334
500.8348, 77.13609
501.3169, 76.39403
501.7990, 76.40019
502.2811, 76.64172
502.7632, 77.71495
503.2454, 78.28117
503.7275, 77.87502
504.2096, 76.59165
504.6917, 75.35641
505.1738, 73.85511
505.6559, 72.84348
506.1381, 72.92444
506.6202, 74.55842
507.1023, 75.37151
507.5844, 75.18990
508.0665, 74.50510
508.5486, 73.86133
509.0308, 73.25249
509.5129, 72.88976
509.9950, 72.87341
510.4771, 73.08206
510.9592, 73.39050
511.4413, 73.76055
511.9235, 73.86131
512.4056, 73.18749
512.8877, 72.22193
513.3698, 71.76051
513.8519, 71.89506
514.3340, 72.00945
514.8162, 71.52684
515.2983, 70.81201
515.7804, 70.28598
516.2625, 69.87477
516.7446, 69.93142
517.2267, 71.21726
517.7089, 73.09923
518.1910, 74.00206
518.6731, 72.26658
519.1552, 70.74340
519.6373, 70.77204
520.1194, 72.60947
520.6016, 73.21667
521.0837, 71.60209
521.5658, 69.85598
522.0479, 69.67817
522.5300, 71.74352
523.0121, 72.82119
523.4943, 72.38308
523.9764, 71.28529
524.4585, 71.06298
524.9406, 71.73450
525.4227, 72.59010
525.9048, 73.62720
526.3870, 74.54863
526.8691, 74.32759
527.3513, 73.04794
527.8334, 71.98724
528.3155, 72.22392
528.7976, 73.18858
529.2797, 74.09044
529.7618, 74.83743
530.2440, 75.50941
530.7261, 76.26067
531.2082, 76.93492
531.6903, 77.31897
532.1724, 76.80734
532.6545, 76.56737
533.1367, 77.12395
533.6188, 78.28008
534.1009, 79.34605
534.5830, 79.82471
535.0651, 80.57621
535.5472, 81.81539
536.0294, 83.54311
536.5115, 85.94958
536.9936, 89.52208
537.4757, 93.09377
537.9578, 95.60344
538.4399, 96.89890
538.9221, 98.19357
539.4042, 99.56911
539.8863, 101.0939
540.3684, 103.1049
540.8505, 105.5336
541.3326, 107.5240
541.8148, 108.2561
542.2969, 108.6132
542.7790, 110.2997
543.2611, 113.1908
543.7432, 116.3232
544.2253, 119.2303
544.7075, 121.9496
545.1896, 124.3778
545.6717, 126.3798
546.1538, 128.7927
546.6359, 132.1883
547.1180, 136.1478
547.6002, 140.1841
548.0823, 144.1682
548.5644, 148.2464
549.0465, 152.4474
549.5286, 156.7840
550.0107, 161.3367
550.4929, 166.6411
550.9750, 171.3675
551.4571, 175.1847
551.9392, 178.1010
552.4213, 180.2041
552.9034, 181.9251
553.3856, 181.5632
553.8677, 177.4268
554.3498, 169.7066
554.8319, 160.3350
555.3140, 149.1679
555.7961, 137.5922
556.2783, 126.9919
556.7604, 117.4811
557.2425, 109.5462
557.7246, 103.5851
558.2067, 99.02819
558.6888, 95.83179
559.1710, 93.71127
559.6531, 91.74670
560.1352, 89.19981
560.6173, 86.92589
561.0994, 85.59930
561.5815, 85.38078
562.0637, 85.05167
562.5458, 84.34706
563.0279, 83.46445
563.5100, 82.51411
563.9921, 81.13726
564.4742, 80.37376
564.9564, 80.56699
565.4385, 81.13001
565.9206, 80.97626
566.4027, 79.92149
566.8848, 79.07964
567.3669, 78.80696
567.8491, 78.95603
568.3312, 79.08288
568.8133, 79.18991
569.2954, 79.36845
569.7775, 79.70383
570.2596, 80.14286
570.7418, 80.62717
571.2239, 81.16240
571.7060, 81.58839
572.1881, 81.70130
572.6702, 81.67686
573.1523, 81.70189
573.6345, 81.79417
574.1166, 81.99357
574.5987, 82.26408
575.0808, 82.65893
575.5629, 83.27556
576.0450, 84.42690
576.5272, 85.45478
577.0093, 86.23186
577.4914, 86.77476
577.9735, 87.17085
578.4556, 87.29550
578.9377, 87.52507
579.4199, 88.05544
579.9020, 88.88438
580.3841, 89.87556
580.8662, 91.05338
581.3483, 92.25108
581.8304, 93.16626
582.3126, 93.93376
582.7947, 95.06197
583.2768, 96.71651
583.7589, 98.53537
584.2410, 100.2007
584.7231, 101.7410
585.2053, 103.2125
585.6874, 104.5006
586.1696, 105.8516
586.6517, 107.2718
587.1338, 108.8260
587.6159, 110.7965
588.0980, 113.3182
588.5801, 116.2117
589.0623, 119.5680
589.5444, 123.5202
590.0265, 126.9385
590.5086, 129.5441
590.9907, 131.9715
591.4728, 134.7241
591.9550, 137.8277
592.4371, 140.8963
592.9192, 143.7773
593.4013, 146.8420
593.8834, 150.8964
594.3655, 155.7481
594.8477, 160.1572
595.3298, 163.5175
595.8119, 166.4411
596.2940, 169.5179
596.7761, 172.7820
597.2582, 176.4412
597.7404, 180.8989
598.2225, 185.5547
598.7046, 190.1255
599.1867, 194.5621
599.6688, 198.6091
600.1509, 201.8507
600.6331, 204.9688
601.1152, 208.3705
601.5973, 212.3074
602.0794, 216.0572
602.5615, 219.7258
603.0436, 223.0741
603.5258, 225.8119
604.0079, 227.9368
604.4900, 229.4517
604.9721, 230.3475
605.4542, 230.6323
605.9363, 230.5000
606.4185, 229.8800
606.9006, 228.0675
607.3827, 224.6218
607.8648, 219.9112
608.3469, 214.3901
608.8290, 208.0583
609.3112, 201.2144
609.7933, 193.7474
610.2754, 185.9677
610.7575, 177.8469
611.2396, 169.4590
611.7217, 161.2965
612.2039, 153.0486
612.6860, 145.4753
613.1681, 139.1216
613.6502, 134.8956
614.1323, 130.3525
614.6144, 125.1678
615.0966, 119.9818
615.5787, 115.7033
616.0608, 112.5218
616.5429, 109.0968
617.0250, 104.8813
617.5071, 100.5141
617.9893, 97.67747
618.4714, 96.22243
618.9535, 95.07119
619.4356, 93.78064
619.9177, 92.37313
620.3998, 90.74007
620.8820, 88.93192
621.3641, 87.38311
621.8462, 86.55802
622.3283, 85.90958
622.8104, 84.97729
623.2925, 83.54332
623.7747, 82.45247
624.2568, 82.30791
624.7389, 82.28034
625.2210, 81.65922
625.7031, 79.97689
626.1852, 78.74370
626.6674, 78.16624
627.1495, 77.93863
627.6316, 77.56233
628.1137, 77.02776
628.5958, 76.58318
629.0779, 76.31198
629.5601, 76.15922
630.0422, 76.02930
630.5243, 75.92583
631.0064, 75.85760
631.4885, 75.89310
631.9706, 75.92454
632.4528, 75.85029
632.9349, 75.67233
633.4170, 75.44362
633.8991, 75.29311
634.3812, 75.01983
634.8633, 74.37991
635.3455, 73.03178
635.8276, 72.42178
636.3097, 73.21211
636.7918, 74.16576
637.2739, 74.09766
637.7560, 72.57837
638.2382, 71.83382
638.7203, 72.22185
