##NAMES=Sinhalite
##RRUFFID=R070621
##IDEAL CHEMISTRY=MgAlBO_4_
##LOCALITY=Sri Lanka
##OWNER=RRUFF
##SOURCE=Shinichi Kihara
##DESCRIPTION=Pale yellow transparent faceted gemstone
##STATUS=The identification of this mineral is confirmed by single-crystal X-ray diffraction and chemical analysis.
##URL=rruff.info/R070621
##MEASURED CHEMISTRY=(Mg_0.98_Fe_0.02_)_Î£=1_Al_1.00_B_1.00_O_4_ ; B_2_O_3_ estimated by difference
115.3256, 778.7279
115.8077, 746.1345
116.2898, 724.7996
116.7719, 735.7114
117.2541, 772.8851
117.7362, 809.0240
118.2183, 826.9028
118.7004, 835.7705
119.1825, 845.8553
119.6646, 863.1185
120.1467, 881.6812
120.6289, 895.0353
121.1110, 902.6141
121.5931, 912.6589
122.0752, 936.6049
122.5573, 968.6047
123.0394, 995.0372
123.5216, 999.8854
124.0037, 997.0036
124.4858, 1009.313
124.9679, 1042.243
125.4500, 1083.653
125.9321, 1118.169
126.4143, 1146.673
126.8964, 1175.650
127.3785, 1209.275
127.8606, 1247.124
128.3427, 1288.438
128.8248, 1337.617
129.3070, 1387.588
129.7891, 1419.197
130.2712, 1431.214
130.7533, 1434.047
131.2354, 1431.461
131.7175, 1423.821
132.1996, 1431.973
132.6818, 1474.781
133.1639, 1548.047
133.6460, 1586.753
134.1281, 1581.881
134.6102, 1557.779
135.0923, 1554.824
135.5745, 1576.003
136.0566, 1605.139
136.5387, 1638.813
137.0208, 1680.719
137.5029, 1707.141
137.9850, 1712.981
138.4672, 1703.334
138.9493, 1696.871
139.4314, 1692.412
139.9135, 1693.036
140.3956, 1704.044
140.8777, 1736.162
141.3599, 1753.301
141.8420, 1745.559
142.3241, 1711.814
142.8062, 1685.351
143.2883, 1657.150
143.7704, 1632.669
144.2526, 1617.838
144.7347, 1614.690
145.2168, 1618.006
145.6989, 1629.034
146.1810, 1655.246
146.6631, 1668.287
147.1453, 1660.980
147.6274, 1641.952
148.1095, 1628.105
148.5916, 1617.452
149.0737, 1613.329
149.5558, 1617.125
150.0379, 1637.259
150.5201, 1654.184
151.0022, 1672.105
151.4843, 1687.958
151.9664, 1687.730
152.4485, 1645.755
152.9306, 1602.224
153.4128, 1581.112
153.8949, 1620.527
154.3770, 1646.922
154.8591, 1633.567
155.3412, 1579.940
155.8233, 1543.981
156.3055, 1549.170
156.7876, 1574.456
157.2697, 1598.915
157.7518, 1630.282
158.2339, 1648.766
158.7160, 1639.700
159.1982, 1593.968
159.6803, 1557.683
160.1624, 1556.606
160.6445, 1575.422
161.1266, 1588.069
161.6087, 1581.482
162.0909, 1567.253
162.5730, 1551.800
163.0551, 1534.212
163.5372, 1519.990
164.0193, 1514.319
164.5014, 1514.983
164.9836, 1514.884
165.4657, 1503.499
165.9478, 1492.298
166.4299, 1493.620
166.9120, 1526.749
167.3941, 1558.014
167.8763, 1556.282
168.3584, 1524.679
168.8405, 1496.578
169.3226, 1503.219
169.8047, 1526.055
170.2868, 1537.405
170.7690, 1508.375
171.2511, 1472.242
171.7332, 1466.992
172.2153, 1495.339
172.6974, 1527.287
173.1795, 1537.842
173.6617, 1531.668
174.1438, 1519.747
174.6259, 1500.295
175.1080, 1480.372
175.5901, 1472.245
176.0722, 1478.959
176.5544, 1490.110
177.0365, 1495.326
177.5186, 1495.167
178.0007, 1492.214
178.4828, 1487.790
178.9649, 1481.822
179.4471, 1472.639
179.9292, 1457.064
180.4113, 1442.857
180.8934, 1446.459
181.3755, 1466.719
181.8576, 1484.639
182.3397, 1477.187
182.8219, 1452.398
183.3040, 1443.130
183.7861, 1465.954
184.2682, 1504.659
184.7503, 1521.423
185.2324, 1514.943
185.7146, 1499.634
186.1967, 1485.004
186.6788, 1471.865
187.1609, 1466.656
187.6430, 1476.347
188.1251, 1496.377
188.6073, 1507.122
189.0894, 1506.912
189.5715, 1503.135
190.0536, 1507.407
190.5357, 1519.738
191.0178, 1527.414
191.5000, 1522.355
191.9821, 1505.795
192.4642, 1492.510
192.9463, 1483.173
193.4284, 1476.717
193.9105, 1471.970
194.3927, 1469.127
194.8748, 1466.591
195.3569, 1463.414
195.8390, 1459.552
196.3211, 1455.721
196.8032, 1450.909
197.2854, 1447.013
197.7675, 1450.093
198.2496, 1461.339
198.7317, 1474.256
199.2138, 1484.952
199.6959, 1493.594
200.1780, 1499.703
200.6602, 1504.384
201.1423, 1506.447
201.6244, 1496.682
202.1065, 1469.690
202.5886, 1444.819
203.0707, 1443.552
203.5529, 1472.544
204.0350, 1492.656
204.5171, 1492.954
204.9992, 1474.794
205.4813, 1461.249
205.9634, 1452.194
206.4456, 1447.747
206.9277, 1447.416
207.4098, 1450.182
207.8919, 1461.101
208.3740, 1487.229
208.8561, 1531.871
209.3383, 1549.435
209.8204, 1528.133
210.3025, 1493.494
210.7846, 1487.476
211.2667, 1522.573
211.7488, 1555.303
212.2310, 1567.646
212.7131, 1553.233
213.1952, 1547.745
213.6773, 1553.165
214.1594, 1566.261
214.6415, 1581.780
215.1236, 1603.278
215.6058, 1619.788
216.0879, 1624.348
216.5700, 1610.663
217.0521, 1604.086
217.5342, 1607.491
218.0163, 1617.934
218.4985, 1624.972
218.9806, 1623.609
219.4627, 1626.842
219.9448, 1644.043
220.4269, 1682.562
220.9090, 1715.284
221.3912, 1737.450
221.8733, 1751.567
222.3554, 1770.314
222.8375, 1793.507
223.3196, 1821.700
223.8017, 1858.195
224.2839, 1913.261
224.7660, 1954.147
225.2481, 1977.365
225.7302, 1983.073
226.2123, 1971.171
226.6944, 1932.884
227.1766, 1886.887
227.6587, 1849.449
228.1408, 1823.244
228.6229, 1800.395
229.1050, 1779.464
229.5871, 1760.466
230.0693, 1745.451
230.5514, 1735.241
231.0335, 1728.455
231.5156, 1725.109
231.9977, 1732.501
232.4798, 1730.147
232.9619, 1711.023
233.4441, 1672.378
233.9262, 1637.453
234.4083, 1604.561
234.8904, 1576.880
235.3725, 1559.671
235.8546, 1559.320
236.3368, 1558.706
236.8189, 1552.896
237.3010, 1540.567
237.7831, 1528.173
238.2652, 1514.197
238.7473, 1501.009
239.2295, 1493.320
239.7116, 1495.993
240.1937, 1496.363
240.6758, 1488.391
241.1579, 1466.003
241.6400, 1454.584
242.1222, 1458.420
242.6043, 1471.473
243.0864, 1481.597
243.5685, 1489.967
244.0506, 1493.624
244.5327, 1490.453
245.0149, 1476.300
245.4970, 1464.763
245.9791, 1453.459
246.4612, 1445.320
246.9433, 1450.574
247.4254, 1481.521
247.9075, 1507.660
248.3897, 1512.977
248.8718, 1485.598
249.3539, 1465.294
249.8360, 1453.526
250.3181, 1449.720
250.8002, 1453.069
251.2824, 1468.585
251.7645, 1483.679
252.2466, 1490.731
252.7287, 1485.462
253.2108, 1482.649
253.6929, 1484.584
254.1751, 1489.739
254.6572, 1490.531
255.1393, 1482.925
255.6214, 1477.177
256.1035, 1481.520
256.5856, 1503.293
257.0677, 1515.841
257.5499, 1513.485
258.0320, 1499.326
258.5141, 1492.157
258.9962, 1493.780
259.4783, 1499.324
259.9604, 1506.614
260.4426, 1518.066
260.9247, 1523.480
261.4068, 1518.845
261.8889, 1506.174
262.3710, 1501.476
262.8531, 1507.250
263.3353, 1516.502
263.8174, 1524.527
264.2995, 1532.052
264.7816, 1535.258
265.2637, 1531.361
265.7458, 1521.860
266.2280, 1519.521
266.7101, 1526.663
267.1922, 1536.565
267.6743, 1541.607
268.1564, 1538.989
268.6385, 1544.005
269.1207, 1563.367
269.6028, 1594.395
270.0849, 1612.104
270.5670, 1612.341
271.0491, 1608.037
271.5313, 1614.693
272.0134, 1636.440
272.4955, 1646.666
272.9776, 1635.816
273.4597, 1606.794
273.9418, 1583.487
274.4240, 1565.621
274.9061, 1553.524
275.3882, 1546.689
275.8703, 1544.717
276.3524, 1552.199
276.8345, 1575.664
277.3167, 1610.917
277.7988, 1629.073
278.2809, 1627.189
278.7630, 1616.909
279.2451, 1608.547
279.7272, 1601.973
280.2094, 1600.212
280.6915, 1604.571
281.1736, 1614.648
281.6557, 1628.257
282.1378, 1645.929
282.6199, 1665.224
283.1021, 1685.185
283.5842, 1705.701
284.0663, 1721.562
284.5484, 1731.317
285.0305, 1735.099
285.5126, 1728.803
285.9948, 1709.826
286.4769, 1695.940
286.9590, 1711.934
287.4411, 1754.739
287.9232, 1795.342
288.4053, 1822.824
288.8874, 1840.609
289.3695, 1861.649
289.8517, 1886.894
290.3338, 1908.155
290.8159, 1917.985
291.2980, 1916.578
291.7801, 1905.003
292.2622, 1877.891
292.7444, 1842.264
293.2265, 1815.216
293.7086, 1797.620
294.1907, 1780.352
294.6728, 1750.341
295.1549, 1712.230
295.6371, 1682.264
296.1192, 1670.221
296.6013, 1668.601
297.0834, 1663.970
297.5655, 1656.098
298.0476, 1650.017
298.5298, 1652.481
299.0119, 1660.355
299.4940, 1666.105
299.9761, 1665.770
300.4582, 1662.155
300.9403, 1657.569
301.4225, 1652.043
301.9046, 1648.740
302.3867, 1650.068
302.8688, 1655.492
303.3509, 1664.056
303.8330, 1680.393
304.3152, 1696.737
304.7973, 1704.669
305.2794, 1704.258
305.7615, 1701.445
306.2436, 1695.239
306.7257, 1690.370
307.2079, 1693.562
307.6900, 1712.198
308.1721, 1736.305
308.6542, 1758.799
309.1363, 1779.467
309.6184, 1801.969
310.1006, 1828.571
310.5827, 1857.866
311.0648, 1888.120
311.5469, 1912.975
312.0290, 1943.821
312.5111, 1995.976
312.9933, 2067.553
313.4754, 2121.743
313.9575, 2147.884
314.4396, 2147.648
314.9217, 2122.893
315.4038, 2047.822
315.8860, 1973.046
316.3681, 1918.261
316.8502, 1882.478
317.3323, 1848.229
317.8144, 1800.821
318.2965, 1757.526
318.7787, 1731.847
319.2608, 1747.581
319.7429, 1759.684
320.2250, 1752.607
320.7071, 1728.851
321.1892, 1714.197
321.6713, 1714.387
322.1534, 1724.694
322.6356, 1742.152
323.1177, 1762.133
323.5998, 1794.154
324.0819, 1845.962
324.5640, 1914.671
325.0461, 1975.458
325.5283, 2039.560
326.0104, 2086.316
326.4925, 2104.386
326.9746, 2083.035
327.4567, 2046.530
327.9388, 1985.303
328.4210, 1906.355
328.9031, 1846.098
329.3852, 1818.521
329.8673, 1794.984
330.3494, 1758.477
330.8315, 1694.098
331.3137, 1645.951
331.7958, 1618.593
332.2779, 1608.620
332.7600, 1606.272
333.2421, 1614.848
333.7242, 1625.373
334.2064, 1634.984
334.6885, 1646.055
335.1706, 1645.783
335.6527, 1627.225
336.1348, 1601.300
336.6169, 1596.341
337.0991, 1618.190
337.5812, 1642.085
338.0633, 1656.966
338.5454, 1662.826
339.0275, 1659.628
339.5096, 1644.031
339.9918, 1624.495
340.4739, 1617.243
340.9560, 1622.957
341.4381, 1632.521
341.9202, 1642.326
342.4023, 1652.425
342.8845, 1661.545
343.3666, 1668.905
343.8487, 1677.687
344.3308, 1696.559
344.8129, 1723.938
345.2950, 1744.316
345.7772, 1745.892
346.2593, 1735.108
346.7414, 1729.477
347.2235, 1729.445
347.7056, 1733.269
348.1877, 1735.909
348.6699, 1740.163
349.1520, 1754.918
349.6341, 1793.620
350.1162, 1840.872
350.5983, 1871.547
351.0804, 1884.737
351.5626, 1901.424
352.0447, 1937.448
352.5268, 1989.191
353.0089, 2050.433
353.4910, 2118.193
353.9731, 2194.844
354.4552, 2283.471
354.9373, 2383.700
355.4195, 2490.925
355.9016, 2605.765
356.3837, 2724.753
356.8658, 2844.917
357.3479, 2980.059
357.8300, 3100.240
358.3122, 3173.821
358.7943, 3211.872
359.2764, 3272.592
359.7585, 3402.313
360.2406, 3550.905
360.7227, 3682.568
361.2049, 3764.124
361.6870, 3859.262
362.1691, 3990.866
362.6512, 4150.842
363.1333, 4309.906
363.6154, 4441.899
364.0976, 4586.626
364.5797, 4763.390
365.0618, 4981.165
365.5439, 5221.160
366.0260, 5463.601
366.5081, 5729.269
366.9903, 6066.209
367.4724, 6470.791
367.9545, 6950.087
368.4366, 7502.159
368.9187, 8100.178
369.4008, 8852.859
369.8830, 9794.811
370.3651, 10857.66
370.8472, 11976.85
371.3293, 13373.54
371.8114, 14404.63
372.2935, 14894.54
372.7757, 14834.39
373.2578, 14233.71
373.7399, 12939.33
374.2220, 11348.52
374.7041, 9924.828
375.1862, 8645.337
375.6684, 7597.496
376.1505, 6814.051
376.6326, 6283.516
377.1147, 5896.794
377.5968, 5663.973
378.0789, 5541.321
378.5611, 5504.672
379.0432, 5549.935
379.5253, 5637.803
380.0074, 5786.165
380.4895, 5948.941
380.9716, 6040.987
381.4538, 6061.186
381.9359, 5996.322
382.4180, 5811.809
382.9001, 5534.063
383.3822, 5222.437
383.8643, 4870.819
384.3465, 4522.754
384.8286, 4223.042
385.3107, 3975.667
385.7928, 3779.204
386.2749, 3650.098
386.7570, 3567.823
387.2391, 3510.198
387.7213, 3475.513
388.2034, 3461.744
388.6855, 3467.893
389.1676, 3494.006
389.6497, 3539.741
390.1318, 3598.149
390.6140, 3681.269
391.0961, 3798.753
391.5782, 3955.685
392.0603, 4128.890
392.5424, 4296.710
393.0245, 4481.072
393.5067, 4706.311
393.9888, 5019.127
394.4709, 5335.363
394.9530, 5672.537
395.4351, 6041.704
395.9172, 6253.315
396.3994, 6268.280
396.8815, 6132.116
397.3636, 5876.981
397.8457, 5379.144
398.3278, 4931.457
398.8099, 4553.019
399.2921, 4243.968
399.7742, 4018.854
400.2563, 3895.478
400.7384, 3829.095
401.2205, 3794.781
401.7026, 3791.046
402.1848, 3824.737
402.6669, 3897.441
403.1490, 4007.013
403.6311, 4157.201
404.1132, 4359.332
404.5953, 4559.157
405.0775, 4746.539
405.5596, 4919.511
406.0417, 5029.281
406.5238, 5075.391
407.0059, 5056.167
407.4880, 4948.736
407.9702, 4759.473
408.4523, 4561.364
408.9344, 4367.005
409.4165, 4188.937
409.8986, 4061.450
410.3807, 3984.634
410.8629, 3959.542
411.3450, 4004.241
411.8271, 4101.349
412.3092, 4216.641
412.7913, 4365.539
413.2734, 4503.244
413.7556, 4591.598
414.2377, 4631.837
414.7198, 4636.787
415.2019, 4627.972
415.6840, 4580.947
416.1661, 4468.770
416.6483, 4268.193
417.1304, 4030.580
417.6125, 3762.573
418.0946, 3475.779
418.5767, 3208.520
419.0588, 2968.162
419.5410, 2753.876
420.0230, 2568.383
420.5052, 2410.915
420.9873, 2279.266
421.4694, 2182.426
421.9515, 2108.708
422.4336, 2041.802
422.9157, 1973.096
423.3979, 1919.028
423.8800, 1886.751
424.3621, 1878.394
424.8442, 1865.915
425.3263, 1848.441
425.8084, 1828.118
426.2906, 1805.706
426.7727, 1778.053
427.2548, 1757.812
427.7369, 1747.297
428.2190, 1745.434
428.7011, 1749.086
429.1833, 1759.979
429.6654, 1769.252
430.1475, 1769.822
430.6296, 1762.094
431.1117, 1754.646
431.5938, 1746.539
432.0760, 1742.563
432.5581, 1757.597
433.0402, 1788.495
433.5223, 1809.014
434.0044, 1795.213
434.4865, 1764.606
434.9687, 1754.662
435.4508, 1768.759
435.9329, 1780.659
436.4150, 1757.057
436.8971, 1715.994
437.3792, 1689.842
437.8614, 1703.774
438.3435, 1726.761
438.8256, 1735.089
439.3077, 1730.925
439.7898, 1731.353
440.2719, 1750.113
440.7541, 1774.057
441.2362, 1792.260
441.7183, 1797.580
442.2004, 1804.151
442.6825, 1818.401
443.1646, 1836.805
443.6468, 1849.941
444.1289, 1847.691
444.6110, 1847.453
445.0931, 1855.044
445.5752, 1869.905
446.0573, 1894.467
446.5395, 1939.151
447.0216, 1987.053
447.5037, 2014.306
447.9858, 2003.659
448.4679, 2009.781
448.9500, 2052.998
449.4322, 2128.744
449.9143, 2177.904
450.3964, 2194.686
450.8785, 2202.679
451.3606, 2221.336
451.8427, 2250.839
452.3249, 2278.163
452.8070, 2299.130
453.2891, 2320.628
453.7712, 2355.668
454.2533, 2404.222
454.7354, 2462.058
455.2175, 2536.012
455.6996, 2616.041
456.1818, 2680.580
456.6639, 2725.160
457.1460, 2769.359
457.6281, 2824.425
458.1102, 2892.361
458.5923, 2977.968
459.0745, 3083.104
459.5566, 3206.116
460.0387, 3351.612
460.5208, 3517.924
461.0029, 3682.359
461.4850, 3853.746
461.9672, 4008.865
462.4493, 4128.286
462.9314, 4212.655
463.4135, 4254.791
463.8956, 4253.817
464.3777, 4209.618
464.8599, 4121.698
465.3420, 3949.598
465.8241, 3774.547
466.3062, 3620.719
466.7883, 3485.616
467.2704, 3381.565
467.7526, 3311.757
468.2347, 3269.008
468.7168, 3245.453
469.1989, 3243.263
469.6810, 3253.169
470.1631, 3272.785
470.6453, 3302.822
471.1274, 3347.406
471.6095, 3406.815
472.0916, 3477.662
472.5737, 3555.691
473.0558, 3641.500
473.5380, 3743.467
474.0201, 3865.476
474.5022, 3997.558
474.9843, 4118.593
475.4664, 4235.411
475.9485, 4374.084
476.4307, 4569.852
476.9128, 4784.163
477.3949, 4968.953
477.8770, 5120.708
478.3591, 5278.628
478.8412, 5495.895
479.3234, 5722.723
479.8055, 5902.027
480.2876, 6000.168
480.7697, 6063.645
481.2518, 6099.176
481.7339, 6110.678
482.2161, 6115.911
482.6982, 6115.478
483.1803, 6111.820
483.6624, 6105.247
484.1445, 6090.252
484.6266, 6082.118
485.1088, 6068.299
485.5909, 6067.947
486.0730, 6113.515
486.5551, 6219.512
487.0372, 6338.493
487.5193, 6460.622
488.0014, 6586.084
488.4836, 6719.716
488.9657, 6870.242
489.4478, 6993.997
489.9299, 7062.388
490.4120, 7074.520
490.8941, 7020.473
491.3763, 6893.189
491.8584, 6709.000
492.3405, 6481.190
492.8226, 6216.331
493.3047, 5924.235
493.7868, 5597.959
494.2690, 5256.349
494.7511, 4920.214
495.2332, 4586.234
495.7153, 4282.534
496.1974, 4028.691
496.6795, 3813.448
497.1617, 3614.929
497.6438, 3430.694
498.1259, 3260.932
498.6080, 3101.635
499.0901, 2954.888
499.5722, 2828.613
500.0544, 2731.134
500.5365, 2647.740
501.0186, 2571.264
501.5007, 2503.135
501.9828, 2436.243
502.4649, 2367.678
502.9471, 2302.485
503.4292, 2247.469
503.9113, 2204.596
504.3934, 2167.899
504.8755, 2138.941
505.3576, 2115.688
505.8398, 2080.326
506.3219, 2029.499
506.8040, 1986.577
507.2861, 1978.716
507.7682, 1998.041
508.2503, 2002.785
508.7325, 1983.253
509.2146, 1957.528
509.6967, 1952.284
510.1788, 1961.367
510.6609, 1965.311
511.1430, 1949.476
511.6252, 1926.849
512.1072, 1907.516
512.5894, 1892.100
513.0715, 1882.367
513.5536, 1884.386
514.0357, 1889.994
514.5178, 1891.803
514.9999, 1879.064
515.4821, 1872.996
515.9642, 1881.186
516.4463, 1899.698
516.9284, 1916.336
517.4105, 1929.338
517.8926, 1941.967
518.3748, 1955.868
518.8569, 1972.007
519.3390, 1982.924
519.8211, 1984.206
520.3032, 1986.961
520.7853, 2008.202
521.2675, 2052.089
521.7496, 2079.794
522.2317, 2083.923
522.7138, 2067.488
523.1959, 2031.149
523.6780, 1975.924
524.1602, 1923.748
524.6423, 1889.554
525.1244, 1868.114
525.6065, 1851.014
526.0886, 1838.136
526.5707, 1824.774
527.0529, 1803.813
527.5350, 1780.401
528.0171, 1762.162
528.4992, 1752.420
528.9813, 1747.733
529.4634, 1748.010
529.9456, 1752.488
530.4277, 1757.436
530.9098, 1761.008
531.3919, 1765.438
531.8740, 1771.214
532.3561, 1775.992
532.8383, 1788.019
533.3204, 1811.722
533.8025, 1839.806
534.2846, 1861.435
534.7667, 1870.963
535.2488, 1891.010
535.7310, 1930.827
536.2131, 1984.271
536.6952, 2024.405
537.1773, 2049.980
537.6594, 2075.515
538.1415, 2114.397
538.6237, 2162.373
539.1058, 2201.212
539.5879, 2228.603
540.0700, 2250.507
540.5521, 2259.088
541.0342, 2267.965
541.5164, 2305.913
541.9985, 2413.739
542.4806, 2531.199
542.9627, 2611.844
543.4448, 2661.444
543.9269, 2714.268
544.4091, 2780.948
544.8912, 2857.542
545.3733, 2942.426
545.8554, 3034.137
546.3375, 3135.740
546.8196, 3237.160
547.3018, 3353.681
547.7839, 3503.573
548.2660, 3693.429
548.7481, 3906.022
549.2302, 4143.682
549.7123, 4401.889
550.1945, 4674.292
550.6766, 4979.974
551.1587, 5212.939
551.6408, 5310.923
552.1229, 5275.876
552.6050, 5105.096
553.0872, 4783.240
553.5693, 4396.541
554.0514, 4013.076
554.5335, 3640.866
555.0156, 3305.020
555.4977, 3013.414
555.9799, 2763.469
556.4620, 2558.934
556.9441, 2397.052
557.4262, 2264.080
557.9083, 2162.204
558.3904, 2082.692
558.8726, 2022.093
559.3547, 1982.978
559.8368, 1953.968
560.3189, 1944.992
560.8010, 1939.525
561.2831, 1917.451
561.7653, 1860.610
562.2474, 1822.449
562.7295, 1818.345
563.2116, 1839.341
563.6937, 1845.083
564.1758, 1833.788
564.6580, 1815.973
565.1401, 1793.309
565.6222, 1767.932
566.1043, 1751.792
566.5864, 1745.795
567.0685, 1747.006
567.5507, 1757.007
568.0327, 1771.609
568.5148, 1781.748
568.9969, 1780.692
569.4791, 1778.698
569.9612, 1786.703
570.4433, 1800.924
570.9254, 1809.398
571.4075, 1800.517
571.8896, 1789.961
572.3718, 1785.014
572.8539, 1786.521
573.3360, 1792.367
573.8181, 1803.745
574.3002, 1818.383
574.7823, 1835.347
575.2645, 1858.052
575.7466, 1873.851
576.2287, 1878.695
576.7108, 1877.777
577.1929, 1884.487
577.6750, 1899.708
578.1572, 1914.033
578.6393, 1917.785
579.1214, 1917.317
579.6035, 1939.632
580.0856, 1984.949
580.5677, 2029.467
581.0499, 2044.518
581.5320, 2048.750
582.0141, 2073.023
582.4962, 2135.370
582.9783, 2192.446
583.4604, 2206.849
583.9426, 2200.237
584.4247, 2210.341
584.9068, 2256.495
585.3889, 2312.848
585.8710, 2377.744
586.3531, 2450.620
586.8353, 2507.755
587.3174, 2535.763
587.7995, 2563.536
588.2816, 2605.727
588.7637, 2663.127
589.2458, 2733.208
589.7280, 2819.595
590.2101, 2911.116
590.6922, 2990.558
591.1743, 3058.597
591.6564, 3132.447
592.1385, 3222.788
592.6207, 3315.764
593.1028, 3380.669
593.5849, 3424.130
594.0670, 3481.228
594.5491, 3582.118
595.0313, 3699.253
595.5134, 3808.599
595.9955, 3905.334
596.4776, 4007.256
596.9597, 4129.134
597.4418, 4255.637
597.9240, 4371.426
598.4061, 4458.677
598.8882, 4556.863
599.3703, 4667.132
599.8524, 4789.566
600.3345, 4925.925
600.8167, 5079.478
601.2988, 5234.738
601.7809, 5393.914
602.2630, 5551.702
602.7451, 5673.757
603.2272, 5758.917
603.7094, 5818.710
604.1915, 5867.815
604.6736, 5897.734
605.1557, 5888.438
605.6378, 5835.421
606.1199, 5748.804
606.6021, 5641.813
607.0842, 5507.396
607.5663, 5337.160
608.0484, 5091.692
608.5305, 4843.739
609.0126, 4625.399
609.4948, 4429.701
609.9769, 4225.591
610.4590, 3992.184
610.9411, 3765.828
611.4232, 3558.517
