##NAMES=Sinkankasite
##RRUFFID=R050466
##IDEAL CHEMISTRY=Mn^2+^Al(PO_3_OH)_2_(OH)&#183;6H_2_O
##LOCALITY=Barker mine, Keystone, South Dakota, USA
##OWNER=RRUFF
##SOURCE=University of Arizona Mineral Museum
##DESCRIPTION=Cluster of acicular radiating colorless crystals
##STATUS=The identification of this mineral is confirmed by single-crystal X-ray diffraction and chemical analysis.
##URL=rruff.info/R050466
##MEASURED CHEMISTRY=(Mn^2+^_0.55_Fe^2+^_0.42_Mg_0.03_)_Σ=1_Al_1.00_(P_1.00_O_3_OH)_2_(F_0.65_(OH)_0.35_)_Σ=1_·6H_2_O
148.9893, 45.57290
149.4714, 46.08208
149.9535, 46.42442
150.4356, 46.58607
150.9177, 46.76464
151.3998, 46.90675
151.8820, 47.11210
152.3641, 47.49739
152.8462, 48.02169
153.3283, 48.50840
153.8104, 48.73528
154.2925, 48.56938
154.7747, 48.50613
155.2568, 48.53904
155.7389, 48.65269
156.2210, 48.84584
156.7031, 49.11420
157.1852, 49.44809
157.6673, 49.83966
158.1495, 50.38371
158.6316, 50.81190
159.1137, 51.01691
159.5958, 51.15792
160.0779, 51.43122
160.5600, 51.91133
161.0422, 52.44842
161.5243, 52.70628
162.0064, 52.56636
162.4885, 52.47141
162.9706, 52.54728
163.4527, 52.73246
163.9349, 52.90288
164.4170, 53.00238
164.8991, 53.07957
165.3812, 53.25135
165.8633, 53.57946
166.3454, 53.82394
166.8276, 53.80725
167.3097, 53.55979
167.7918, 53.31489
168.2739, 53.20050
168.7560, 53.10065
169.2381, 52.88175
169.7203, 52.51892
170.2024, 52.07893
170.6845, 51.60033
171.1666, 51.07087
171.6487, 50.58722
172.1308, 50.13316
172.6130, 49.76641
173.0951, 49.57550
173.5772, 49.60427
174.0593, 49.72600
174.5414, 49.72271
175.0235, 49.56413
175.5057, 49.32814
175.9878, 48.98166
176.4699, 48.60432
176.9520, 48.24781
177.4341, 47.93293
177.9162, 47.68304
178.3984, 47.57839
178.8805, 47.84105
179.3626, 47.96569
179.8447, 47.84187
180.3268, 47.56516
180.8089, 47.22768
181.2911, 46.87431
181.7732, 46.53020
182.2553, 46.34224
182.7374, 46.53356
183.2195, 46.63534
183.7016, 46.51085
184.1838, 46.23664
184.6659, 45.93022
185.1480, 45.64136
185.6301, 45.39212
186.1122, 45.41797
186.5943, 46.02910
187.0765, 46.53441
187.5586, 46.55860
188.0407, 46.22120
188.5228, 45.94007
189.0049, 46.00020
189.4870, 46.36329
189.9692, 46.66779
190.4513, 46.92077
190.9334, 47.11413
191.4155, 47.21222
191.8976, 47.22120
192.3797, 47.23742
192.8619, 47.32105
193.3440, 47.46281
193.8261, 47.62855
194.3082, 47.89486
194.7903, 48.13044
195.2724, 48.13866
195.7546, 47.87745
196.2367, 47.66653
196.7188, 47.80207
197.2009, 48.10151
197.6830, 48.33313
198.1651, 48.41429
198.6473, 48.39937
199.1294, 48.36270
199.6115, 48.27561
200.0936, 48.24302
200.5757, 48.36056
201.0578, 48.54400
201.5400, 48.68547
202.0221, 48.71897
202.5042, 48.68790
202.9863, 48.71113
203.4684, 48.76150
203.9505, 48.92530
204.4327, 49.31231
204.9148, 49.79157
205.3969, 50.17446
205.8790, 50.33707
206.3611, 50.33478
206.8432, 50.45574
207.3254, 50.79684
207.8075, 51.16012
208.2896, 51.55735
208.7717, 51.93731
209.2538, 52.22952
209.7359, 52.38204
210.2181, 52.40994
210.7002, 52.44532
211.1823, 52.37693
211.6644, 52.43715
212.1465, 52.83492
212.6286, 53.38325
213.1108, 53.75943
213.5929, 53.73775
214.0750, 53.34777
214.5571, 53.01965
215.0392, 52.70593
215.5213, 52.49239
216.0035, 52.52525
216.4856, 52.68580
216.9677, 52.72414
217.4498, 52.46708
217.9319, 51.93634
218.4140, 51.40155
218.8962, 50.78558
219.3783, 50.24671
219.8604, 49.84734
220.3425, 49.57547
220.8246, 49.41064
221.3067, 49.38552
221.7889, 49.44492
222.2710, 49.24037
222.7531, 48.51534
223.2352, 47.80422
223.7173, 47.43298
224.1994, 47.33845
224.6816, 47.18219
225.1637, 46.71516
225.6458, 46.04149
226.1279, 45.58435
226.6100, 45.52630
227.0921, 45.49968
227.5743, 45.21552
228.0564, 44.70233
228.5385, 44.24851
229.0206, 44.04794
229.5027, 44.00092
229.9848, 43.87850
230.4670, 43.63622
230.9491, 43.35748
231.4312, 43.09251
231.9133, 42.84038
232.3954, 42.64037
232.8775, 42.53679
233.3597, 42.48872
233.8418, 42.45496
234.3239, 42.45325
234.8060, 42.41500
235.2881, 42.22794
235.7702, 41.86937
236.2524, 41.57590
236.7345, 41.47638
237.2166, 41.47084
237.6987, 41.48293
238.1808, 41.49773
238.6629, 41.52752
239.1451, 41.59660
239.6272, 41.71561
240.1093, 41.81789
240.5914, 41.96720
241.0735, 42.04230
241.5556, 41.88800
242.0378, 41.46082
242.5199, 40.99951
243.0020, 40.84948
243.4841, 41.11794
243.9662, 41.30405
244.4483, 41.22172
244.9305, 41.08969
245.4126, 41.06520
245.8947, 41.17786
246.3768, 41.31304
246.8589, 41.28712
247.3410, 41.00929
247.8232, 40.85728
248.3053, 40.97013
248.7874, 41.13483
249.2695, 41.22201
249.7516, 41.21058
250.2337, 41.16809
250.7159, 41.17701
251.1980, 41.23629
251.6801, 41.35699
252.1622, 41.64856
252.6443, 41.91176
253.1264, 41.95582
253.6086, 41.80083
254.0907, 41.68241
254.5728, 41.94630
255.0549, 42.85084
255.5370, 43.33838
256.0191, 43.10689
256.5013, 42.78178
256.9834, 42.68067
257.4655, 42.83496
257.9476, 43.10320
258.4297, 43.33669
258.9118, 43.52755
259.3940, 43.71540
259.8761, 43.93693
260.3582, 44.12487
260.8403, 44.25983
261.3224, 44.33168
261.8045, 44.32168
262.2867, 44.19854
262.7688, 43.93448
263.2509, 43.75069
263.7330, 43.74529
264.2151, 43.71373
264.6972, 43.52808
265.1794, 43.21920
265.6615, 42.91470
266.1436, 42.72335
266.6257, 42.65076
267.1078, 42.55732
267.5899, 42.45440
268.0721, 42.32505
268.5542, 42.09729
269.0363, 41.82592
269.5184, 41.67728
270.0005, 41.79841
270.4826, 42.15694
270.9648, 42.26245
271.4469, 41.93068
271.9290, 41.59889
272.4111, 41.46449
272.8932, 41.45984
273.3753, 41.39222
273.8575, 41.13201
274.3396, 40.73705
274.8217, 40.51490
275.3038, 40.58140
275.7859, 40.64659
276.2680, 40.65813
276.7502, 40.60402
277.2323, 40.45185
277.7144, 40.17687
278.1965, 39.81275
278.6786, 39.44966
279.1607, 39.07918
279.6429, 38.72585
280.1250, 38.39161
280.6071, 38.07820
281.0892, 37.80363
281.5713, 37.58323
282.0534, 37.37236
282.5356, 37.05489
283.0177, 36.57323
283.4998, 36.19310
283.9819, 36.02532
284.4640, 35.98852
284.9461, 35.99166
285.4283, 36.02770
285.9104, 36.01335
286.3925, 35.78615
286.8746, 35.32813
287.3567, 34.91453
287.8388, 34.61229
288.3210, 34.37835
288.8031, 34.15734
289.2852, 33.93622
289.7673, 33.74530
290.2494, 33.65219
290.7315, 33.64821
291.2137, 33.55720
291.6958, 33.24816
292.1779, 32.89453
292.6600, 32.68985
293.1421, 32.65459
293.6242, 32.68870
294.1064, 32.75436
294.5885, 32.82999
295.0706, 32.81118
295.5527, 32.63033
296.0348, 32.39040
296.5169, 32.16810
296.9991, 31.96569
297.4812, 31.76882
297.9633, 31.51827
298.4454, 31.28896
298.9275, 31.27650
299.4096, 31.66090
299.8918, 32.06850
300.3739, 32.25733
300.8560, 32.24067
301.3381, 32.09190
301.8202, 31.76444
302.3023, 31.38568
302.7845, 31.20595
303.2666, 31.29212
303.7487, 31.41442
304.2308, 31.48042
304.7129, 31.48503
305.1950, 31.37949
305.6772, 31.07325
306.1593, 30.76026
306.6414, 30.77091
307.1235, 31.14368
307.6056, 31.42415
308.0877, 31.33345
308.5699, 31.01303
309.0520, 30.78649
309.5341, 30.72742
310.0162, 30.75606
310.4983, 30.81178
310.9804, 30.88963
311.4626, 30.94593
311.9447, 30.94595
312.4268, 30.92288
312.9089, 30.92920
313.3910, 30.97360
313.8731, 31.02993
314.3553, 31.09900
314.8374, 31.16594
315.3195, 31.17652
315.8016, 31.05204
316.2837, 30.90560
316.7658, 30.87663
317.2480, 30.97079
317.7301, 31.05974
318.2122, 31.03316
318.6943, 30.95720
319.1764, 30.99805
319.6585, 31.27696
320.1407, 31.53805
320.6228, 31.53045
321.1049, 31.29526
321.5870, 31.14516
322.0691, 31.26543
322.5512, 31.50134
323.0334, 31.55427
323.5155, 31.36212
323.9976, 31.19057
324.4797, 31.18850
324.9618, 31.31983
325.4439, 31.48650
325.9261, 31.68379
326.4082, 31.86669
326.8903, 31.96161
327.3724, 31.96888
327.8545, 31.99374
328.3366, 32.14524
328.8188, 32.31778
329.3009, 32.27002
329.7830, 31.90978
330.2651, 31.59987
330.7472, 31.80493
331.2293, 32.41756
331.7115, 32.85102
332.1936, 32.88206
332.6757, 32.75431
333.1578, 32.70457
333.6399, 32.74493
334.1220, 32.81573
334.6042, 32.85716
335.0863, 32.90696
335.5684, 33.08050
336.0505, 33.55072
336.5326, 33.97293
337.0147, 34.07489
337.4969, 33.91776
337.9790, 33.77497
338.4611, 33.76237
338.9432, 33.84612
339.4253, 33.96401
339.9074, 34.16471
340.3896, 34.27693
340.8717, 34.14311
341.3538, 33.88387
341.8359, 33.74307
342.3180, 33.79538
342.8001, 33.96029
343.2823, 34.17794
343.7644, 34.47337
344.2465, 34.60851
344.7286, 34.35553
345.2107, 34.01305
345.6928, 33.95750
346.1750, 34.23808
346.6571, 34.55545
347.1392, 34.62577
347.6213, 34.43840
348.1034, 34.36361
348.5855, 34.47025
349.0677, 34.63132
349.5498, 34.82624
350.0319, 35.02314
350.5140, 35.09278
350.9961, 34.93586
351.4782, 34.60169
351.9604, 34.33000
352.4425, 34.04568
352.9246, 33.89584
353.4067, 34.03477
353.8888, 34.32220
354.3709, 34.50055
354.8531, 34.46692
355.3352, 34.31219
355.8173, 34.19868
356.2994, 34.11190
356.7815, 34.10118
357.2636, 34.28676
357.7458, 34.48647
358.2279, 34.47935
358.7100, 34.24306
359.1921, 33.98731
359.6742, 33.95907
360.1563, 34.22194
360.6385, 34.31849
361.1206, 34.10513
361.6027, 33.87381
362.0848, 33.76907
362.5669, 33.78437
363.0490, 33.86177
363.5312, 33.97095
364.0133, 34.10258
364.4954, 34.17664
364.9775, 34.16956
365.4596, 34.13689
365.9417, 34.02260
366.4239, 33.90872
366.9060, 33.92443
367.3881, 34.12160
367.8702, 34.41188
368.3523, 34.61823
368.8344, 34.73566
369.3166, 34.76081
369.7987, 34.57769
370.2808, 34.39044
370.7629, 34.41069
371.2450, 34.62921
371.7271, 34.81505
372.2093, 34.69075
372.6914, 34.17603
373.1735, 33.86832
373.6556, 33.94446
374.1377, 34.03800
374.6198, 34.03175
375.1020, 33.94149
375.5841, 33.81654
376.0662, 33.68160
376.5483, 33.55007
377.0304, 33.49280
377.5125, 33.58015
377.9947, 33.64315
378.4768, 33.68970
378.9589, 33.68479
379.4410, 33.56842
379.9231, 33.32596
380.4052, 33.04650
380.8874, 32.88652
381.3695, 32.91314
381.8516, 32.83802
382.3337, 32.45605
382.8158, 32.11810
383.2979, 32.07075
383.7801, 32.26856
384.2622, 32.44926
384.7443, 32.38612
385.2264, 32.09763
385.7085, 31.79998
386.1906, 31.42867
386.6728, 31.14938
387.1549, 31.04946
387.6370, 31.06509
388.1191, 31.11213
388.6012, 31.17026
389.0833, 31.20986
389.5655, 31.16551
390.0476, 31.01758
390.5297, 30.87542
391.0118, 30.75785
391.4939, 30.67066
391.9760, 30.63493
392.4582, 30.65440
392.9403, 30.66987
393.4224, 30.61486
393.9045, 30.50536
394.3866, 30.44982
394.8687, 30.49735
395.3509, 30.54365
395.8330, 30.47809
396.3151, 30.33680
396.7972, 30.24002
397.2793, 30.26744
397.7614, 30.34941
398.2436, 30.37014
398.7257, 30.32104
399.2078, 30.32077
399.6899, 30.47772
400.1720, 30.71297
400.6541, 30.85485
401.1363, 30.87133
401.6184, 30.84097
402.1005, 30.77934
402.5826, 30.70477
403.0647, 30.67334
403.5468, 30.70915
404.0290, 30.77482
404.5111, 30.83726
404.9932, 30.90736
405.4753, 30.89125
405.9574, 30.67499
406.4395, 30.42458
406.9217, 30.33188
407.4038, 30.39838
407.8859, 30.45143
408.3680, 30.35760
408.8501, 30.12486
409.3322, 29.89073
409.8144, 29.53861
410.2965, 29.30979
410.7786, 29.39202
411.2607, 29.63611
411.7428, 29.77206
412.2249, 29.68578
412.7071, 29.48536
413.1892, 29.38174
413.6713, 29.44019
414.1534, 29.48779
414.6355, 29.58286
415.1176, 29.62543
415.5998, 29.49494
416.0819, 29.21659
416.5640, 28.94761
417.0461, 28.83546
417.5282, 28.88260
418.0103, 28.89724
418.4925, 28.88555
418.9746, 28.83173
419.4567, 28.69856
419.9388, 28.53070
420.4209, 28.39140
420.9030, 28.31077
421.3852, 28.25481
421.8673, 28.12731
422.3494, 27.82176
422.8315, 27.72319
423.3136, 28.12957
423.7957, 28.53753
424.2779, 28.59137
424.7600, 28.31332
425.2421, 28.01352
425.7242, 27.97866
426.2063, 28.17480
426.6884, 28.26359
427.1706, 28.16852
427.6527, 28.09348
428.1348, 28.17761
428.6169, 28.32129
429.0990, 28.37207
429.5811, 28.25546
430.0633, 28.08528
430.5454, 28.00156
431.0275, 28.00567
431.5096, 28.03322
431.9917, 28.08209
432.4738, 28.13251
432.9560, 28.17031
433.4381, 28.19537
433.9202, 28.19571
434.4023, 28.14076
434.8844, 28.06457
435.3665, 28.03176
435.8487, 28.05122
436.3308, 28.08526
436.8129, 28.12341
437.2950, 28.15263
437.7771, 28.12893
438.2592, 27.96668
438.7414, 27.84212
439.2235, 27.90529
439.7056, 28.07894
440.1877, 28.15331
440.6698, 28.03587
441.1519, 27.86568
441.6341, 27.88021
442.1162, 28.16508
442.5983, 28.38749
443.0804, 28.57083
443.5625, 28.65757
444.0446, 28.51531
444.5268, 28.20328
445.0089, 27.99324
445.4910, 28.11701
445.9731, 28.52183
446.4552, 28.69332
446.9373, 28.36232
447.4195, 28.11878
447.9016, 28.07323
448.3837, 28.14595
448.8658, 28.26111
449.3479, 28.38994
449.8300, 28.52452
450.3122, 28.66394
450.7943, 28.83123
451.2764, 28.91578
451.7585, 28.84244
452.2406, 28.75452
452.7227, 28.68470
453.2049, 28.64435
453.6870, 28.64411
454.1691, 28.68963
454.6512, 28.78002
455.1333, 28.93330
455.6154, 29.18914
456.0976, 29.38775
456.5797, 29.45376
457.0618, 29.45564
457.5439, 29.40295
458.0260, 29.29935
458.5081, 29.27037
458.9903, 29.49394
459.4724, 29.88012
459.9545, 30.08747
460.4366, 30.03750
460.9187, 29.92733
461.4008, 29.85236
461.8830, 29.83107
462.3651, 29.93076
462.8472, 30.29128
463.3293, 30.64204
463.8114, 30.75210
464.2935, 30.67526
464.7756, 30.60891
465.2578, 30.63061
465.7399, 30.68049
466.2220, 30.64741
466.7041, 30.50071
467.1862, 30.40312
467.6683, 30.38576
468.1505, 30.41454
468.6326, 30.48583
469.1147, 30.58421
469.5968, 30.66057
470.0789, 30.68073
470.5610, 30.64916
471.0432, 30.59676
471.5253, 30.48533
472.0074, 30.39960
472.4895, 30.40484
472.9716, 30.40985
473.4537, 30.31799
473.9359, 30.11098
474.4180, 29.84234
474.9001, 29.55071
475.3822, 29.21686
475.8643, 29.03457
476.3464, 29.18968
476.8286, 29.30274
477.3107, 29.21159
477.7928, 29.00675
478.2749, 28.84715
478.7570, 28.81101
479.2391, 28.81973
479.7213, 28.72980
480.2034, 28.52385
480.6855, 28.37163
481.1676, 28.38783
481.6497, 28.39166
482.1318, 28.19458
482.6140, 27.82483
483.0961, 27.52122
483.5782, 27.41662
484.0603, 27.43845
484.5424, 27.51798
485.0245, 27.65712
485.5067, 27.68838
485.9888, 27.45506
486.4709, 27.08753
486.9530, 26.94024
487.4351, 27.13030
487.9172, 27.26759
488.3994, 27.20159
488.8815, 27.01359
489.3636, 26.78716
489.8457, 26.54373
490.3278, 26.32179
490.8099, 26.15365
491.2921, 26.03994
491.7742, 25.98594
492.2563, 26.04500
492.7384, 26.09243
493.2205, 26.08378
493.7026, 26.04254
494.1848, 25.98220
494.6669, 25.91235
495.1490, 25.88443
495.6311, 26.02359
496.1132, 26.45818
496.5953, 26.64007
497.0775, 26.26894
497.5596, 25.92595
498.0417, 25.89501
498.5238, 26.07027
499.0059, 26.18551
499.4880, 26.08086
499.9702, 25.87618
500.4523, 25.84082
500.9344, 26.01633
501.4165, 26.09101
501.8986, 25.90371
502.3807, 25.64426
502.8629, 25.47016
503.3450, 25.38635
503.8271, 25.36849
504.3092, 25.41369
504.7913, 25.51456
505.2734, 25.71792
505.7556, 26.02404
506.2377, 26.18227
506.7198, 25.97538
507.2019, 25.55725
507.6840, 25.42052
508.1661, 25.71141
508.6483, 25.96399
509.1304, 26.08283
509.6125, 26.08707
510.0946, 25.93627
510.5767, 25.65253
511.0588, 25.41025
511.5410, 25.37851
512.0231, 25.55574
512.5052, 25.70531
512.9873, 25.92009
513.4694, 25.99547
513.9515, 25.74931
514.4337, 25.40876
514.9158, 25.24509
515.3979, 25.32989
515.8800, 25.50355
516.3621, 25.55126
516.8442, 25.45219
517.3264, 25.46254
517.8085, 25.76062
518.2906, 25.93317
518.7727, 25.71556
519.2548, 25.28226
519.7369, 24.90952
520.2191, 24.66707
520.7012, 24.57140
521.1833, 24.71684
521.6654, 25.06516
522.1475, 25.33202
522.6296, 25.47815
523.1118, 25.47142
523.5939, 25.15257
524.0760, 24.57850
524.5581, 24.20704
525.0402, 24.29191
525.5223, 24.44642
526.0045, 24.37499
526.4866, 24.14154
526.9687, 23.94446
527.4508, 23.86698
527.9329, 23.88774
528.4150, 23.97897
528.8972, 24.21525
529.3793, 24.34245
529.8614, 24.34103
530.3435, 24.25694
530.8256, 24.05111
531.3077, 23.78479
531.7899, 23.58718
532.2720, 23.53733
532.7541, 23.59073
533.2362, 23.64130
533.7183, 23.70062
534.2004, 23.72431
534.6826, 23.65998
535.1647, 23.59254
535.6468, 23.56503
536.1289, 23.57923
536.6110, 23.62560
537.0931, 23.73820
537.5753, 23.86000
538.0574, 23.86842
538.5395, 23.75858
539.0216, 23.64774
539.5037, 23.58771
539.9858, 23.54985
540.4680, 23.47015
540.9501, 23.32825
541.4322, 23.25894
541.9143, 23.34995
542.3964, 23.49805
542.8785, 23.61899
543.3607, 23.70094
543.8428, 23.73703
544.3249, 23.71628
544.8070, 23.29572
545.2891, 23.81577
545.7712, 24.12347
546.2534, 24.23027
546.7355, 23.53432
547.2176, 23.87493
547.6997, 23.80013
548.1818, 23.70831
548.6639, 24.19480
549.1461, 23.61562
549.6282, 24.09295
550.1103, 24.14854
550.5924, 24.39715
551.0745, 24.22778
551.5566, 24.18752
552.0388, 24.56537
552.5209, 24.71170
553.0030, 24.49422
553.4851, 24.75510
553.9672, 24.16131
554.4493, 23.95581
554.9315, 23.79457
555.4136, 23.85715
555.8957, 24.04576
556.3778, 24.36847
556.8599, 24.73505
557.3420, 24.87560
557.8242, 24.70069
558.3063, 24.55910
558.7884, 24.52228
559.2705, 24.54370
559.7526, 24.60163
560.2347, 24.68144
560.7169, 24.75458
561.1990, 24.80127
561.6811, 24.82208
562.1632, 24.81477
562.6453, 24.73367
563.1274, 24.70399
563.6096, 24.77504
564.0917, 24.86704
564.5738, 24.88950
565.0559, 24.86348
565.5380, 24.92382
566.0201, 25.24443
566.5023, 25.68252
566.9844, 25.81148
567.4665, 25.57172
567.9486, 25.41830
568.4307, 25.57086
568.9128, 25.85873
569.3950, 26.03867
569.8771, 26.10193
570.3592, 26.18165
570.8413, 26.34530
571.3234, 26.53184
571.8055, 26.65989
572.2877, 26.74330
572.7698, 26.87318
573.2519, 27.10448
573.7340, 27.39639
574.2161, 27.64062
574.6982, 27.78613
575.1804, 27.97390
575.6625, 28.30759
576.1446, 28.58879
576.6267, 28.57642
577.1088, 28.40589
577.5909, 28.46454
578.0731, 29.02293
578.5552, 29.81129
579.0373, 30.18771
579.5194, 30.05651
580.0015, 30.04760
580.4836, 30.37033
580.9658, 30.76202
581.4479, 31.02059
581.9300, 31.17090
582.4121, 31.32853
582.8942, 31.58967
583.3763, 31.83204
583.8585, 31.88308
584.3406, 31.80167
584.8227, 31.80777
585.3048, 31.97746
585.7869, 32.25832
586.2690, 32.59312
586.7512, 33.00363
587.2333, 33.35658
587.7154, 33.75547
588.1975, 33.99392
588.6796, 33.88960
589.1617, 33.59603
589.6439, 33.33733
590.1260, 33.20073
590.6081, 33.15201
591.0902, 33.18830
591.5723, 33.33464
592.0544, 33.31300
592.5366, 33.04805
593.0187, 32.71495
593.5008, 32.39105
593.9829, 32.06042
594.4650, 31.68577
594.9471, 31.24563
595.4293, 30.81774
595.9114, 30.51224
596.3935, 30.25858
596.8756, 29.84799
597.3577, 29.24188
597.8398, 28.71305
598.3220, 28.52746
598.8041, 28.60331
599.2862, 28.36695
599.7683, 27.43128
600.2504, 26.74717
600.7325, 26.61837
601.2147, 26.70013
601.6968, 26.73575
602.1789, 26.65948
602.6610, 26.44748
603.1431, 26.05198
603.6252, 25.53558
604.1074, 25.20542
604.5895, 25.16038
605.0716, 25.04065
605.5537, 24.64428
606.0358, 24.22421
606.5179, 23.96606
607.0001, 23.86689
607.4822, 23.80451
607.9643, 23.75304
608.4464, 23.68750
608.9285, 23.57864
609.4106, 23.42782
609.8928, 23.23925
610.3749, 23.00617
610.8570, 22.76538
611.3391, 22.57503
611.8212, 22.45774
612.3033, 22.30344
612.7855, 22.02565
613.2676, 21.80410
613.7497, 21.76360
614.2318, 21.81969
614.7139, 21.82483
615.1960, 21.72720
615.6782, 21.60504
616.1603, 21.59303
616.6424, 21.70138
617.1245, 21.67401
617.6066, 21.46143
618.0887, 21.19141
618.5709, 20.80641
619.0530, 20.44561
619.5351, 20.35084
620.0172, 20.63190
620.4993, 20.86949
620.9814, 20.73477
621.4636, 20.44340
621.9457, 20.35672
622.4278, 20.49653
622.9099, 20.63650
623.3920, 20.62870
623.8741, 20.51254
624.3563, 20.42658
624.8384, 20.41252
625.3205, 20.36783
625.8026, 20.26460
626.2847, 20.15550
626.7668, 20.07944
627.2490, 20.02726
627.7311, 19.96579
628.2132, 19.87511
628.6953, 19.76901
629.1774, 19.65836
629.6595, 19.54188
630.1417, 19.48337
630.6238, 19.53690
631.1059, 19.58184
631.5880, 19.45996
632.0701, 19.23525
632.5522, 19.11924
633.0344, 19.22421
633.5165, 19.34764
633.9986, 19.39711
634.4807, 19.39736
634.9628, 19.40245
635.4449, 19.41605
635.9271, 19.35934
636.4092, 19.13900
636.8913, 18.78238
637.3734, 18.59933
637.8555, 18.71676
638.3376, 18.80751
638.8198, 18.85801
639.3019, 18.83906
639.7840, 18.67569
640.2661, 18.40092
640.7482, 18.18477
641.2303, 18.15096
641.7125, 18.22012
642.1946, 18.30806
