##NAMES=Sklodowskite
##RRUFFID=R050445
##IDEAL CHEMISTRY=Mg(U^6+^O_2_)_2_(SiO_3_OH)_2_&#183;6H_2_O
##LOCALITY=Mina las Animas, Santa Eulalia, Chihuahua, Mexico
##OWNER=RRUFF
##SOURCE=Peter Megaw
##DESCRIPTION=Mass of transparent yellow flat fibers
##STATUS=The identification of this mineral has been confirmed by single-crystal X-ray diffraction.
##URL=rruff.info/R050445
140.3111, 73.06571
140.7933, 72.78263
141.2754, 72.48771
141.7575, 72.27292
142.2396, 72.23042
142.7217, 72.22811
143.2038, 72.10664
143.6860, 71.83099
144.1681, 71.55071
144.6502, 71.31754
145.1323, 71.15956
145.6144, 71.19517
146.0965, 71.64721
146.5787, 72.35011
147.0608, 72.76060
147.5429, 72.67981
148.0250, 72.52840
148.5071, 72.49335
148.9892, 72.57932
149.4714, 72.78979
149.9535, 73.18879
150.4356, 73.79905
150.9177, 74.29204
151.3998, 74.49758
151.8819, 74.71077
152.3641, 75.11803
152.8462, 75.67854
153.3283, 76.17297
153.8104, 76.32725
154.2925, 75.98670
154.7746, 75.72278
155.2568, 75.59961
155.7389, 75.48962
156.2210, 75.26490
156.7031, 74.92119
157.1852, 74.60278
157.6673, 74.55114
158.1495, 75.09745
158.6316, 75.34097
159.1137, 75.10840
159.5958, 74.66048
160.0779, 74.23325
160.5600, 73.90292
161.0422, 73.64849
161.5243, 73.43381
162.0064, 73.25356
162.4885, 73.11256
162.9706, 73.11130
163.4527, 73.14617
163.9349, 72.99438
164.4170, 72.53075
164.8991, 71.89209
165.3812, 71.30896
165.8633, 70.72978
166.3454, 70.31168
166.8276, 70.19091
167.3097, 70.33928
167.7918, 70.53969
168.2739, 70.71867
168.7560, 70.91045
169.2381, 71.15632
169.7203, 71.46938
170.2024, 71.80592
170.6845, 72.10684
171.1666, 72.35403
171.6487, 72.66695
172.1308, 73.12301
172.6130, 73.64477
173.0951, 74.17072
173.5772, 74.67635
174.0593, 75.20915
174.5414, 75.84953
175.0235, 76.58648
175.5057, 77.47025
175.9878, 78.65388
176.4699, 79.89385
176.9520, 80.93934
177.4341, 81.66211
177.9162, 82.19920
178.3984, 82.99737
178.8805, 84.36257
179.3626, 85.61179
179.8447, 86.57056
180.3268, 87.39831
180.8089, 88.30259
181.2911, 89.39626
181.7732, 90.65031
182.2553, 91.91917
182.7374, 93.20913
183.2195, 94.51254
183.7016, 95.89794
184.1838, 97.29400
184.6659, 98.55576
185.1480, 99.58000
185.6301, 100.4025
186.1122, 101.3754
186.5943, 102.5265
187.0765, 103.7517
187.5586, 105.0915
188.0407, 106.4906
188.5228, 107.7739
189.0049, 108.7697
189.4870, 109.5430
189.9692, 110.5561
190.4513, 112.1498
190.9334, 113.6885
191.4155, 114.6555
191.8976, 115.0794
192.3797, 115.5493
192.8619, 116.5716
193.3440, 117.9115
193.8261, 118.8970
194.3082, 119.3954
194.7903, 119.5500
195.2724, 119.4665
195.7546, 119.1323
196.2367, 118.6548
196.7188, 118.0514
197.2009, 117.3522
197.6830, 116.5936
198.1651, 115.8970
198.6473, 115.0746
199.1294, 113.7309
199.6115, 111.6866
200.0936, 109.5570
200.5757, 107.7740
201.0578, 106.0512
201.5400, 103.9864
202.0221, 101.3413
202.5042, 98.27979
202.9863, 95.19946
203.4684, 91.96729
203.9505, 88.99311
204.4327, 86.57665
204.9148, 84.41006
205.3969, 82.02516
205.8790, 79.08430
206.3611, 75.76230
206.8432, 72.89214
207.3254, 70.76978
207.8075, 68.80050
208.2896, 66.93349
208.7717, 65.11551
209.2538, 63.26475
209.7359, 61.33311
210.2181, 59.33242
210.7002, 57.44712
211.1823, 55.54757
211.6644, 53.91375
212.1465, 52.76477
212.6286, 51.91249
213.1108, 51.02784
213.5929, 49.87942
214.0750, 48.49703
214.5571, 47.36051
215.0392, 46.65712
215.5213, 45.96568
216.0035, 45.13912
216.4856, 44.23552
216.9677, 43.42415
217.4498, 42.83320
217.9319, 42.43793
218.4140, 41.82660
218.8961, 40.76747
219.3783, 39.78399
219.8604, 39.08582
220.3425, 38.63207
220.8246, 38.26887
221.3067, 37.89673
221.7888, 37.53556
222.2710, 37.28839
222.7531, 37.20466
223.2352, 37.17115
223.7173, 37.15760
224.1994, 37.15503
224.6815, 37.13176
225.1637, 37.07963
225.6458, 36.98211
226.1279, 36.80908
226.6100, 36.48333
227.0921, 36.15981
227.5742, 35.93610
228.0564, 35.80863
228.5385, 35.73218
229.0206, 35.69075
229.5027, 35.68741
229.9848, 35.70975
230.4669, 35.71680
230.9491, 35.80392
231.4312, 36.09942
231.9133, 36.60527
232.3954, 37.08910
232.8775, 37.41975
233.3596, 37.67387
233.8418, 37.95329
234.3239, 38.28541
234.8060, 38.62160
235.2881, 38.85921
235.7702, 38.97117
236.2523, 39.24261
236.7345, 39.91197
237.2166, 40.73390
237.6987, 41.48314
238.1808, 42.09697
238.6629, 42.71529
239.1451, 43.52697
239.6272, 44.57152
240.1093, 45.60212
240.5914, 46.50637
241.0735, 47.38596
241.5556, 48.32368
242.0378, 49.34586
242.5199, 50.35424
243.0020, 51.18848
243.4841, 51.75401
243.9662, 52.48318
244.4483, 53.61786
244.9305, 54.83504
245.4126, 55.94423
245.8947, 56.89887
246.3768, 57.77532
246.8589, 58.64070
247.3410, 59.43419
247.8232, 60.41427
248.3053, 61.75661
248.7874, 63.17517
249.2695, 64.51498
249.7516, 65.74348
250.2337, 66.91112
250.7159, 68.07069
251.1980, 69.19514
251.6801, 70.39079
252.1622, 71.68050
252.6443, 73.01662
253.1264, 74.35761
253.6086, 75.71011
254.0907, 77.13769
254.5728, 78.72622
255.0549, 80.55789
255.5370, 82.32490
256.0191, 83.98000
256.5013, 85.62383
256.9834, 87.35849
257.4655, 89.15324
257.9476, 90.83823
258.4297, 92.19223
258.9118, 93.07851
259.3940, 94.21113
259.8761, 95.95789
260.3582, 97.58109
260.8403, 98.72205
261.3224, 99.36618
261.8045, 99.68804
262.2867, 99.83607
262.7688, 99.79603
263.2509, 99.65031
263.7330, 99.75373
264.2151, 99.46776
264.6972, 98.26537
265.1794, 96.33629
265.6615, 94.34010
266.1436, 92.83292
266.6257, 91.83627
267.1078, 90.74789
267.5899, 89.56714
268.0721, 88.31006
268.5542, 86.91556
269.0363, 85.44064
269.5184, 83.99429
270.0005, 82.63273
270.4826, 81.37047
270.9648, 80.48441
271.4469, 80.14163
271.9290, 79.90662
272.4111, 79.69118
272.8932, 79.46340
273.3753, 79.14143
273.8575, 78.64774
274.3396, 78.05006
274.8217, 77.71377
275.3038, 77.79074
275.7859, 77.89083
276.2680, 77.89364
276.7502, 77.83362
277.2323, 77.78207
277.7144, 77.77092
278.1965, 77.79131
278.6786, 77.82417
279.1607, 77.89937
279.6429, 77.93559
280.1250, 77.91866
280.6071, 77.84744
281.0892, 77.71495
281.5713, 77.51360
282.0534, 77.26428
282.5356, 77.05315
283.0177, 77.00953
283.4998, 76.62708
283.9819, 75.58017
284.4640, 74.16946
284.9461, 72.83687
285.4283, 71.69748
285.9104, 70.67155
286.3925, 69.66350
286.8746, 68.67547
287.3567, 67.67447
287.8388, 66.61538
288.3210, 65.54897
288.8031, 64.55611
289.2852, 63.64783
289.7673, 62.76987
290.2494, 61.82932
290.7315, 60.83150
291.2137, 60.01506
291.6958, 59.53234
292.1779, 59.18248
292.6600, 58.72323
293.1421, 58.12799
293.6242, 57.59583
294.1064, 57.33294
294.5885, 57.29097
295.0706, 57.19349
295.5527, 56.85432
296.0348, 56.56030
296.5169, 56.64503
296.9991, 57.09615
297.4812, 57.48841
297.9633, 57.49916
298.4454, 57.25969
298.9275, 57.20945
299.4096, 57.50824
299.8918, 57.83429
300.3739, 57.94082
300.8560, 57.85642
301.3381, 57.79064
301.8202, 57.87380
302.3023, 58.00087
302.7845, 57.97451
303.2666, 57.77561
303.7487, 57.47808
304.2308, 57.09884
304.7129, 56.65102
305.1950, 56.19006
305.6772, 55.76620
306.1593, 55.28298
306.6414, 54.58486
307.1235, 53.65702
307.6056, 52.70989
308.0877, 51.82921
308.5699, 50.99249
309.0520, 50.12951
309.5341, 49.20338
310.0162, 48.30437
310.4983, 47.54437
310.9804, 46.90038
311.4626, 46.32310
311.9447, 45.87263
312.4268, 45.45419
312.9089, 44.89450
313.3910, 44.14750
313.8731, 43.38883
314.3553, 42.73682
314.8374, 42.18584
315.3195, 41.73090
315.8016, 41.47389
316.2837, 41.25238
316.7658, 40.90312
317.2480, 40.42221
317.7301, 39.84517
318.2122, 39.12601
318.6943, 38.33694
319.1764, 37.64761
319.6585, 37.03518
320.1407, 36.57053
320.6228, 36.43300
321.1049, 36.56399
321.5870, 36.51338
322.0691, 36.02931
322.5512, 35.29971
323.0334, 34.68504
323.5155, 34.21576
323.9976, 33.77048
324.4797, 33.24891
324.9618, 32.69707
325.4439, 32.27753
325.9261, 32.07046
326.4082, 31.94009
326.8903, 31.70292
327.3724, 31.36374
327.8545, 31.01443
328.3366, 30.67859
328.8188, 30.35665
329.3009, 30.05127
329.7830, 29.76486
330.2651, 29.48091
330.7472, 29.15133
331.2293, 28.79600
331.7115, 28.54224
332.1936, 28.55226
332.6757, 28.59279
333.1578, 28.37348
333.6399, 27.88120
334.1220, 27.40372
334.6042, 27.13474
335.0863, 27.03469
335.5684, 26.91719
336.0505, 26.79338
336.5326, 26.63490
337.0147, 26.39762
337.4969, 26.09989
337.9790, 25.81260
338.4611, 25.53848
338.9432, 25.32909
339.4253, 25.31995
339.9074, 25.62525
340.3896, 25.81664
340.8717, 25.64106
341.3538, 25.24420
341.8359, 24.91108
342.3180, 24.71991
342.8001, 24.61439
343.2822, 24.52365
343.7643, 24.44489
344.2465, 24.39301
344.7286, 24.47468
345.2107, 24.53201
345.6928, 24.32080
346.1749, 23.81054
346.6570, 23.31035
347.1392, 23.09583
347.6213, 23.19044
348.1034, 23.32122
348.5855, 23.58603
349.0676, 23.80579
349.5497, 23.81827
350.0319, 23.66206
350.5140, 23.53690
350.9961, 23.57566
351.4782, 23.73117
351.9603, 23.77723
352.4424, 23.63522
352.9246, 23.50031
353.4067, 23.40405
353.8888, 23.35889
354.3709, 23.40180
354.8530, 23.55319
355.3351, 23.76147
355.8173, 23.93566
356.2994, 24.09650
356.7815, 24.17540
357.2636, 24.07786
357.7457, 23.94468
358.2278, 23.94020
358.7100, 24.08279
359.1921, 24.22955
359.6742, 24.21474
360.1563, 23.99770
360.6384, 23.85972
361.1205, 23.81790
361.6027, 23.82966
362.0848, 23.85909
362.5669, 23.91916
363.0490, 24.07239
363.5311, 24.37875
364.0132, 24.80510
364.4954, 25.07108
364.9775, 25.00862
365.4596, 24.99451
365.9417, 25.15046
366.4238, 25.38353
366.9059, 25.55486
367.3881, 25.60899
367.8702, 25.60955
368.3523, 25.69286
368.8344, 25.97799
369.3165, 26.14836
369.7986, 26.11095
370.2808, 26.03417
370.7629, 26.03042
371.2450, 26.12063
371.7271, 26.27604
372.2092, 26.47612
372.6913, 26.73966
373.1735, 26.93278
373.6556, 26.97509
374.1377, 27.03150
374.6198, 27.20278
375.1019, 27.43287
375.5840, 27.58447
376.0662, 27.55684
376.5483, 27.40600
377.0304, 27.39743
377.5125, 27.56900
377.9946, 27.84661
378.4767, 28.38242
378.9589, 28.92819
379.4410, 29.19708
379.9231, 29.10325
380.4052, 28.86321
380.8873, 28.81299
381.3694, 29.01219
381.8516, 29.20829
382.3337, 29.36972
382.8158, 29.53436
383.2979, 29.73997
383.7800, 29.97426
384.2621, 30.17939
384.7443, 30.27658
385.2264, 30.28177
385.7085, 30.41086
386.1906, 30.75970
386.6727, 31.09885
387.1548, 31.35818
387.6370, 31.54556
388.1191, 31.65876
388.6012, 31.67673
389.0833, 31.66398
389.5654, 31.73575
390.0475, 31.90369
390.5297, 32.10313
391.0118, 32.34777
391.4939, 32.59681
391.9760, 32.79583
392.4581, 32.93592
392.9402, 33.11530
393.4224, 33.45771
393.9045, 33.92849
394.3866, 34.31266
394.8687, 34.56514
395.3508, 34.74776
395.8329, 34.87889
396.3151, 34.97877
396.7972, 35.11766
397.2793, 35.32468
397.7614, 35.58446
398.2435, 35.90490
398.7256, 36.29172
399.2078, 36.63249
399.6899, 36.83813
400.1720, 36.95882
400.6541, 37.09357
401.1362, 37.18131
401.6183, 37.40511
402.1005, 38.00207
402.5826, 38.82769
403.0647, 39.47449
403.5468, 39.80084
404.0289, 39.95190
404.5110, 40.09994
404.9932, 40.23830
405.4753, 40.42346
405.9574, 40.65484
406.4395, 40.94285
406.9216, 41.37283
407.4037, 41.92469
407.8859, 42.33844
408.3680, 42.35759
408.8501, 42.03210
409.3322, 41.58101
409.8143, 42.41589
410.2964, 42.96353
410.7786, 43.23430
411.2607, 42.68433
411.7428, 42.97558
412.2249, 42.79611
412.7070, 42.50589
413.1891, 42.64286
413.6713, 41.72144
414.1534, 41.43939
414.6355, 40.92830
415.1176, 40.53630
415.5997, 40.30702
416.0818, 40.17895
416.5640, 39.93179
417.0461, 39.33813
417.5282, 38.39240
418.0103, 37.61729
418.4924, 37.22031
418.9745, 36.77478
419.4567, 36.11610
419.9388, 35.37319
420.4209, 34.73382
420.9030, 34.28914
421.3851, 33.94581
421.8672, 33.51505
422.3494, 32.94989
422.8315, 32.41394
423.3136, 31.93319
423.7957, 31.47101
424.2778, 31.00659
424.7599, 30.53694
425.2421, 30.07148
425.7242, 29.58514
426.2063, 29.09202
426.6884, 28.76331
427.1705, 28.68801
427.6526, 28.63334
428.1348, 28.50030
428.6169, 28.32033
429.0990, 28.13748
429.5811, 27.96913
430.0632, 27.79716
430.5453, 27.60656
431.0275, 27.39785
431.5096, 27.13958
431.9917, 26.76495
432.4738, 26.39689
432.9559, 26.16140
433.4380, 26.05726
433.9202, 25.99090
434.4023, 25.95412
434.8844, 25.91588
435.3665, 25.80096
435.8486, 25.59220
436.3307, 25.40358
436.8129, 25.33024
437.2950, 25.34854
437.7771, 25.34150
438.2592, 25.26948
438.7413, 25.21048
439.2234, 25.22089
439.7056, 25.27646
440.1877, 25.32529
440.6698, 25.35233
441.1519, 25.34786
441.6340, 25.29207
442.1161, 25.16952
442.5983, 25.03736
443.0804, 24.83453
443.5625, 24.67093
444.0446, 24.67142
444.5267, 24.80778
445.0089, 24.92096
445.4910, 24.88604
445.9731, 24.72073
446.4552, 24.59726
446.9373, 24.49145
447.4194, 24.45731
447.9016, 24.56709
448.3837, 24.72353
448.8658, 24.80554
449.3479, 24.78201
449.8300, 24.73586
450.3121, 24.80364
450.7943, 25.04369
451.2764, 25.17784
451.7585, 25.04876
452.2406, 24.96007
452.7227, 25.05340
453.2048, 25.28145
453.6870, 25.52992
454.1691, 25.74878
454.6512, 25.91957
455.1333, 25.96588
455.6154, 25.81483
456.0975, 25.75838
456.5797, 25.97945
457.0618, 26.27959
457.5439, 26.49922
458.0260, 26.61557
458.5081, 26.75918
458.9902, 27.09588
459.4724, 27.54784
459.9545, 27.80901
460.4366, 27.79091
460.9187, 27.74015
461.4008, 27.87128
461.8829, 28.11383
462.3651, 28.29324
462.8472, 28.29978
463.3293, 28.32006
463.8114, 28.51256
464.2935, 28.84106
464.7756, 29.17341
465.2578, 29.45822
465.7399, 29.72921
466.2220, 29.97202
466.7041, 30.05621
467.1862, 30.19732
467.6683, 30.88151
468.1505, 31.37389
468.6326, 31.68465
469.1147, 31.27009
469.5968, 31.79215
470.0789, 31.93884
470.5610, 32.07016
471.0432, 32.72408
471.5253, 32.41502
472.0074, 33.03081
472.4895, 32.90386
472.9716, 32.69780
473.4537, 32.66070
473.9359, 32.83715
474.4180, 33.06438
474.9001, 33.14260
475.3822, 33.05208
475.8643, 32.97390
476.3464, 32.87485
476.8286, 32.82887
477.3107, 32.95039
477.7928, 33.12023
478.2749, 33.13385
478.7570, 32.88193
479.2391, 32.50590
479.7213, 32.24993
480.2034, 32.13343
480.6855, 31.95928
481.1676, 31.64467
481.6497, 31.29035
482.1318, 30.98413
482.6140, 30.71898
483.0961, 30.43875
483.5782, 30.08488
484.0603, 29.71191
484.5424, 29.40559
485.0245, 29.17068
485.5067, 28.96677
485.9888, 28.79745
486.4709, 28.62954
486.9530, 28.37840
487.4351, 28.00280
487.9172, 27.64078
488.3994, 27.30844
488.8815, 27.02807
489.3636, 26.88226
489.8457, 26.87378
490.3278, 26.81872
490.8099, 26.51733
491.2921, 25.95555
491.7742, 25.54219
492.2563, 25.39800
492.7384, 25.23988
493.2205, 24.93524
493.7026, 24.58062
494.1848, 24.33368
494.6669, 24.24996
495.1490, 24.22584
495.6311, 24.10006
496.1132, 23.85461
496.5953, 23.56577
497.0775, 23.05645
497.5596, 22.67206
498.0417, 22.64183
498.5238, 22.84163
499.0059, 23.00492
499.4880, 23.00371
499.9702, 22.86388
500.4523, 22.59319
500.9344, 22.15551
501.4165, 21.81353
501.8986, 21.67450
502.3807, 21.63715
502.8629, 21.64641
503.3450, 21.69353
503.8271, 21.66184
504.3092, 21.38915
504.7913, 21.04882
505.2734, 20.94951
505.7556, 21.10570
506.2377, 21.24768
506.7198, 21.22156
507.2019, 21.06892
507.6840, 20.92125
508.1661, 20.77098
508.6482, 20.63897
509.1303, 20.50591
509.6125, 20.40651
510.0946, 20.39967
510.5767, 20.48581
511.0588, 20.60051
511.5409, 20.69739
512.0231, 20.77582
512.5052, 20.73168
512.9873, 20.33570
513.4694, 20.08901
513.9515, 20.20835
514.4337, 20.47102
514.9158, 20.61015
515.3979, 20.55420
515.8800, 20.45137
516.3621, 20.50335
516.8442, 20.73038
517.3264, 20.89681
517.8085, 20.98770
518.2906, 21.03158
518.7727, 20.96888
519.2548, 20.88931
519.7369, 20.95824
520.2191, 21.26948
520.7012, 21.64845
521.1833, 21.91590
521.6654, 22.07988
522.1475, 22.18124
522.6296, 22.18232
523.1118, 22.21730
523.5939, 22.50891
524.0760, 23.01143
524.5581, 23.36481
525.0402, 23.28573
525.5223, 23.23558
526.0045, 23.62593
526.4866, 24.32567
526.9687, 24.93252
527.4508, 25.26499
527.9329, 25.45462
528.4150, 25.74504
528.8972, 26.19245
529.3793, 26.61217
529.8614, 26.95931
530.3435, 27.31927
530.8256, 27.73565
531.3077, 28.20625
531.7899, 28.72145
532.2720, 29.28007
532.7541, 29.86022
533.2362, 30.40777
533.7183, 30.92768
534.2004, 31.40698
534.6826, 31.74114
535.1647, 32.11667
535.6468, 32.67397
536.1289, 33.38872
536.6110, 34.10340
537.0931, 34.70085
537.5753, 35.25033
538.0574, 35.89723
538.5395, 36.64969
539.0216, 37.34666
539.5037, 37.91213
539.9858, 38.39292
540.4680, 38.86102
540.9501, 39.31440
541.4322, 39.78814
541.9143, 40.37056
542.3964, 40.92690
542.8785, 41.30021
543.3607, 41.50315
543.8428, 41.67278
544.3249, 41.89902
544.8070, 42.14970
545.2891, 41.90514
545.7712, 42.20942
546.2534, 42.32178
546.7355, 42.25265
547.2176, 41.45818
547.6997, 41.60030
548.1818, 41.36708
548.6639, 41.11848
549.1461, 41.39240
549.6282, 40.70344
550.1103, 40.96910
550.5924, 40.85369
551.0745, 40.91269
551.5566, 40.09748
552.0388, 39.50139
552.5209, 38.97984
553.0030, 38.53379
553.4851, 38.02237
553.9672, 37.22152
554.4493, 36.34856
554.9315, 35.76789
555.4136, 35.49851
555.8957, 35.56287
556.3778, 36.23842
556.8599, 37.05582
557.3420, 36.60211
557.8242, 34.32373
558.3063, 32.34259
558.7884, 31.16675
559.2705, 30.39395
559.7526, 29.75167
560.2347, 29.17765
560.7169, 28.65057
561.1990, 28.16866
561.6811, 27.70539
562.1632, 27.12792
562.6453, 26.27371
563.1274, 25.59326
563.6096, 25.22702
564.0917, 24.95929
564.5738, 24.67245
565.0559, 24.33878
565.5380, 23.94101
566.0201, 23.41320
566.5023, 22.83792
566.9844, 22.45034
567.4665, 22.27442
567.9486, 22.12861
568.4307, 21.99035
568.9128, 21.80937
569.3950, 21.50483
569.8771, 21.06301
570.3592, 20.65083
570.8413, 20.29408
571.3234, 20.01079
571.8055, 19.87873
572.2877, 19.85913
572.7698, 19.75472
573.2519, 19.44266
573.7340, 19.02322
574.2161, 18.75516
574.6982, 18.70513
575.1804, 18.70100
575.6625, 18.86075
576.1446, 18.95973
576.6267, 18.80635
577.1088, 18.47378
577.5909, 18.16406
578.0731, 17.99284
578.5552, 17.92999
579.0373, 17.93908
579.5194, 18.04828
580.0015, 18.06889
580.4836, 17.90817
580.9658, 17.70336
581.4479, 17.56415
581.9300, 17.47546
582.4121, 17.36764
582.8942, 17.18943
583.3763, 17.00251
583.8585, 16.85852
584.3406, 16.75639
584.8227, 16.69954
585.3048, 16.69523
585.7869, 16.70890
586.2690, 16.69999
586.7512, 16.67361
587.2333, 16.58743
587.7154, 16.34621
588.1975, 16.15103
588.6796, 16.08018
589.1617, 16.11352
589.6438, 16.24369
590.1259, 16.45985
590.6080, 16.66803
591.0901, 16.73230
591.5723, 16.64314
592.0544, 16.48903
592.5365, 16.18283
593.0186, 15.94437
593.5007, 15.91956
593.9828, 16.00632
594.4650, 16.05282
594.9471, 16.01687
595.4292, 15.96231
595.9113, 15.92196
596.3934, 15.90100
596.8755, 15.93540
597.3577, 16.03412
597.8398, 16.08409
598.3219, 15.96899
598.8040, 15.72892
599.2861, 15.64162
599.7682, 15.84036
600.2504, 15.99035
600.7325, 16.02320
601.2146, 15.99637
601.6967, 15.95962
602.1788, 15.91982
602.6609, 15.85628
603.1431, 15.74560
603.6252, 15.60528
604.1073, 15.51322
604.5894, 15.47224
605.0715, 15.47230
605.5536, 15.55717
606.0358, 15.64855
606.5179, 15.69034
607.0000, 15.68282
607.4821, 15.65869
607.9642, 15.63827
608.4464, 15.60623
608.9285, 15.52584
609.4106, 15.40888
609.8927, 15.32887
610.3748, 15.31730
610.8569, 15.34410
611.3391, 15.37250
611.8212, 15.41501
612.3033, 15.40062
612.7854, 15.22361
613.2675, 15.10384
613.7496, 15.19503
614.2318, 15.39331
614.7139, 15.52608
615.1960, 15.53140
615.6781, 15.47483
616.1602, 15.44182
616.6423, 15.43403
617.1245, 15.40446
617.6066, 15.32477
618.0887, 15.27199
618.5708, 15.30338
619.0529, 15.37703
619.5350, 15.44400
620.0172, 15.50333
620.4993, 15.52913
620.9814, 15.48850
621.4635, 15.41279
621.9456, 15.33844
622.4277, 15.27324
622.9099, 15.24587
623.3920, 15.28224
623.8741, 15.36029
624.3562, 15.40187
624.8383, 15.37699
625.3204, 15.35776
625.8026, 15.31380
626.2847, 15.30183
626.7668, 15.39844
627.2489, 15.55982
627.7310, 15.66748
628.2131, 15.65375
628.6953, 15.55998
629.1774, 15.41857
629.6595, 15.22391
630.1416, 15.17659
630.6237, 15.38959
631.1058, 15.63285
631.5880, 15.67610
632.0701, 15.58285
632.5522, 15.55047
633.0343, 15.66948
633.5164, 15.78214
633.9985, 15.77549
634.4807, 15.72501
634.9628, 15.78262
635.4449, 15.96214
635.9270, 16.09097
636.4091, 15.99296
636.8912, 15.69839
637.3734, 15.53442
637.8555, 15.56392
