##NAMES=Sklodowskite
##RRUFFID=R050445
##IDEAL CHEMISTRY=Mg(U^6+^O_2_)_2_(SiO_3_OH)_2_&#183;6H_2_O
##LOCALITY=Mina las Animas, Santa Eulalia, Chihuahua, Mexico
##OWNER=RRUFF
##SOURCE=Peter Megaw
##DESCRIPTION=Mass of transparent yellow flat fibers
##STATUS=The identification of this mineral has been confirmed by single-crystal X-ray diffraction.
##URL=rruff.info/R050445
140.6537, 1066.379
141.1358, 1068.914
141.6179, 1069.119
142.1000, 1068.318
142.5821, 1069.097
143.0643, 1072.106
143.5464, 1075.314
144.0285, 1077.921
144.5106, 1079.642
144.9927, 1081.429
145.4748, 1083.020
145.9570, 1084.710
146.4391, 1087.406
146.9212, 1092.286
147.4033, 1096.777
147.8854, 1099.682
148.3675, 1099.883
148.8497, 1100.206
149.3318, 1100.703
149.8139, 1101.354
150.2960, 1102.117
150.7781, 1103.604
151.2602, 1104.734
151.7424, 1104.908
152.2245, 1102.454
152.7066, 1100.933
153.1887, 1101.238
153.6708, 1103.144
154.1529, 1103.950
154.6351, 1102.841
155.1172, 1100.958
155.5993, 1099.074
156.0814, 1097.338
156.5635, 1095.522
157.0456, 1093.154
157.5278, 1090.266
158.0099, 1088.595
158.4920, 1090.097
158.9741, 1092.250
159.4562, 1092.821
159.9383, 1089.661
160.4205, 1086.354
160.9026, 1083.868
161.3847, 1082.252
161.8668, 1081.694
162.3489, 1083.637
162.8310, 1086.276
163.3132, 1087.501
163.7953, 1084.607
164.2774, 1081.656
164.7595, 1081.157
165.2416, 1083.695
165.7237, 1085.705
166.2059, 1084.916
166.6880, 1082.552
167.1701, 1080.483
167.6522, 1079.261
168.1343, 1078.754
168.6164, 1078.951
169.0986, 1079.917
169.5807, 1081.255
170.0628, 1083.519
170.5449, 1085.980
171.0270, 1087.172
171.5091, 1085.325
171.9913, 1082.401
172.4734, 1080.135
172.9555, 1078.683
173.4376, 1078.179
173.9197, 1079.306
174.4018, 1081.573
174.8840, 1083.628
175.3661, 1084.558
175.8482, 1084.849
176.3303, 1084.969
176.8124, 1084.768
177.2945, 1084.941
177.7767, 1086.521
178.2588, 1089.242
178.7409, 1091.951
179.2230, 1094.006
179.7051, 1095.558
180.1872, 1096.776
180.6694, 1097.524
181.1515, 1098.270
181.6336, 1099.727
182.1157, 1101.821
182.5978, 1104.030
183.0799, 1105.791
183.5621, 1107.390
184.0442, 1109.752
184.5263, 1113.588
185.0084, 1117.574
185.4905, 1118.960
185.9726, 1117.846
186.4547, 1116.934
186.9369, 1118.525
187.4190, 1122.165
187.9011, 1126.063
188.3832, 1130.365
188.8653, 1134.308
189.3474, 1135.469
189.8296, 1133.755
190.3117, 1132.405
190.7938, 1135.025
191.2759, 1141.007
191.7580, 1145.461
192.2401, 1147.005
192.7223, 1146.516
193.2044, 1146.408
193.6865, 1146.681
194.1686, 1147.295
194.6507, 1148.272
195.1328, 1149.586
195.6150, 1151.098
196.0971, 1153.184
196.5792, 1155.319
197.0613, 1155.150
197.5434, 1152.353
198.0255, 1148.752
198.5077, 1146.039
198.9898, 1144.215
199.4719, 1142.820
199.9540, 1142.131
200.4361, 1141.822
200.9182, 1139.895
201.4004, 1136.135
201.8825, 1131.477
202.3646, 1126.557
202.8467, 1121.323
203.3288, 1116.746
203.8109, 1113.291
204.2931, 1110.794
204.7752, 1107.712
205.2573, 1103.852
205.7394, 1099.884
206.2215, 1096.766
206.7036, 1094.862
207.1858, 1091.952
207.6679, 1086.975
208.1500, 1080.164
208.6321, 1075.344
209.1142, 1073.059
209.5963, 1071.736
210.0785, 1069.586
210.5606, 1066.263
211.0427, 1063.492
211.5248, 1061.866
212.0069, 1061.350
212.4890, 1060.181
212.9712, 1057.945
213.4533, 1055.704
213.9354, 1054.998
214.4175, 1056.710
214.8996, 1057.192
215.3817, 1054.998
215.8639, 1050.136
216.3460, 1047.433
216.8281, 1047.865
217.3102, 1049.146
217.7923, 1048.492
218.2744, 1044.821
218.7566, 1042.016
219.2387, 1041.392
219.7208, 1043.014
220.2029, 1043.294
220.6850, 1041.667
221.1671, 1039.358
221.6493, 1037.710
222.1314, 1036.848
222.6135, 1036.333
223.0956, 1036.130
223.5777, 1036.248
224.0598, 1036.438
224.5420, 1036.706
225.0241, 1037.048
225.5062, 1037.542
225.9883, 1038.462
226.4704, 1038.894
226.9525, 1038.276
227.4347, 1036.497
227.9168, 1036.341
228.3989, 1038.768
228.8810, 1041.791
229.3631, 1043.252
229.8452, 1042.425
230.3274, 1041.489
230.8095, 1040.751
231.2916, 1040.199
231.7737, 1040.292
232.2558, 1041.497
232.7379, 1042.867
233.2201, 1043.412
233.7022, 1042.784
234.1843, 1041.973
234.6664, 1040.779
235.1485, 1039.181
235.6306, 1039.522
236.1128, 1043.147
236.5949, 1047.337
237.0770, 1049.359
237.5591, 1047.678
238.0412, 1046.844
238.5233, 1048.152
239.0055, 1051.605
239.4876, 1053.354
239.9697, 1052.377
240.4518, 1050.833
240.9339, 1050.723
241.4160, 1053.035
241.8982, 1054.807
242.3803, 1055.211
242.8624, 1054.317
243.3445, 1054.596
243.8266, 1056.579
244.3087, 1059.125
244.7909, 1061.296
245.2730, 1062.866
245.7551, 1064.473
246.2372, 1066.105
246.7193, 1067.781
247.2014, 1069.926
247.6836, 1072.824
248.1657, 1075.796
248.6478, 1078.300
249.1299, 1080.269
249.6120, 1081.939
250.0941, 1083.358
250.5762, 1084.514
251.0584, 1085.211
251.5405, 1085.026
252.0226, 1084.960
252.5047, 1085.760
252.9868, 1087.804
253.4689, 1089.912
253.9511, 1092.174
254.4332, 1094.481
254.9153, 1096.011
255.3974, 1096.402
255.8795, 1096.625
256.3617, 1097.250
256.8438, 1098.324
257.3259, 1099.770
257.8080, 1101.901
258.2901, 1104.374
258.7722, 1105.686
259.2544, 1104.825
259.7365, 1104.488
260.2186, 1106.517
260.7007, 1112.106
261.1828, 1116.301
261.6649, 1118.492
262.1471, 1119.190
262.6292, 1119.942
263.1113, 1120.641
263.5934, 1121.547
264.0755, 1122.862
264.5576, 1124.786
265.0398, 1126.422
265.5219, 1127.790
266.0040, 1128.847
266.4861, 1129.579
266.9682, 1130.101
267.4503, 1130.034
267.9325, 1128.959
268.4146, 1126.464
268.8967, 1124.872
269.3788, 1124.208
269.8609, 1124.452
270.3430, 1125.891
270.8252, 1129.024
271.3073, 1131.693
271.7894, 1132.835
272.2715, 1132.300
272.7536, 1131.755
273.2357, 1130.992
273.7179, 1130.496
274.2000, 1131.066
274.6821, 1132.823
275.1642, 1135.061
275.6463, 1137.792
276.1284, 1141.009
276.6106, 1143.421
277.0927, 1145.040
277.5748, 1145.816
278.0569, 1145.279
278.5390, 1143.204
279.0211, 1141.775
279.5032, 1141.896
279.9854, 1143.381
280.4675, 1144.419
280.9496, 1144.917
281.4317, 1145.327
281.9138, 1146.321
282.3959, 1147.946
282.8781, 1149.024
283.3602, 1149.127
283.8423, 1148.473
284.3244, 1148.059
284.8065, 1147.952
285.2886, 1147.656
285.7708, 1146.394
286.2529, 1144.242
286.7350, 1142.838
287.2171, 1142.665
287.6992, 1143.340
288.1813, 1144.016
288.6635, 1144.712
289.1456, 1144.996
289.6277, 1144.170
290.1098, 1142.443
290.5919, 1141.356
291.0740, 1141.290
291.5562, 1141.736
292.0383, 1141.696
292.5204, 1141.194
293.0025, 1140.711
293.4846, 1140.528
293.9667, 1140.625
294.4489, 1140.944
294.9310, 1141.526
295.4131, 1142.240
295.8952, 1143.182
296.3773, 1144.244
296.8594, 1144.689
297.3416, 1143.291
297.8237, 1141.070
298.3058, 1140.515
298.7879, 1141.972
299.2700, 1144.229
299.7521, 1146.020
300.2343, 1147.453
300.7164, 1148.782
301.1985, 1150.251
301.6806, 1151.659
302.1627, 1152.631
302.6448, 1153.140
303.1270, 1153.422
303.6091, 1153.591
304.0912, 1153.688
304.5733, 1153.816
305.0554, 1153.976
305.5375, 1154.200
306.0197, 1154.566
306.5018, 1155.061
306.9839, 1155.530
307.4660, 1156.280
307.9481, 1156.828
308.4302, 1156.453
308.9124, 1154.263
309.3945, 1151.737
309.8766, 1150.009
310.3587, 1148.990
310.8408, 1148.264
311.3229, 1147.933
311.8051, 1147.619
312.2872, 1146.903
312.7693, 1145.423
313.2514, 1143.975
313.7335, 1142.769
314.2156, 1141.918
314.6978, 1141.727
315.1799, 1143.271
315.6620, 1144.944
316.1441, 1145.472
316.6262, 1144.277
317.1083, 1142.945
317.5905, 1141.866
318.0726, 1141.121
318.5547, 1140.849
319.0368, 1141.575
319.5189, 1142.404
320.0010, 1142.886
320.4832, 1142.930
320.9653, 1142.902
321.4474, 1143.083
321.9295, 1143.198
322.4116, 1142.928
322.8937, 1141.407
323.3759, 1140.285
323.8580, 1140.619
324.3401, 1142.572
324.8222, 1143.035
325.3043, 1139.917
325.7864, 1136.040
326.2686, 1133.574
326.7507, 1133.854
327.2328, 1134.304
327.7149, 1134.638
328.1970, 1134.857
328.6791, 1135.100
329.1613, 1135.342
329.6434, 1135.610
330.1255, 1135.931
330.6076, 1136.697
331.0897, 1136.915
331.5718, 1136.137
332.0540, 1134.808
332.5361, 1134.213
333.0182, 1134.714
333.5003, 1135.476
333.9824, 1136.272
334.4645, 1137.342
334.9467, 1137.699
335.4288, 1137.074
335.9109, 1135.934
336.3930, 1134.950
336.8751, 1133.936
337.3572, 1133.527
337.8394, 1134.124
338.3215, 1135.793
338.8036, 1136.843
339.2857, 1137.134
339.7678, 1137.053
340.2499, 1136.926
340.7321, 1136.705
341.2142, 1136.741
341.6963, 1137.115
342.1784, 1137.802
342.6605, 1138.820
343.1426, 1140.256
343.6248, 1141.547
344.1069, 1142.127
344.5890, 1142.017
345.0711, 1141.873
345.5532, 1141.649
346.0353, 1141.624
346.5175, 1142.535
346.9996, 1144.377
347.4817, 1146.321
347.9638, 1147.953
348.4459, 1149.294
348.9280, 1150.511
349.4102, 1151.695
349.8923, 1152.431
350.3744, 1151.823
350.8565, 1150.193
351.3386, 1148.761
351.8207, 1147.666
352.3029, 1147.304
352.7850, 1148.784
353.2671, 1152.160
353.7492, 1155.480
354.2313, 1156.952
354.7134, 1157.224
355.1956, 1157.443
355.6777, 1157.995
356.1598, 1158.657
356.6419, 1159.479
357.1240, 1160.356
357.6061, 1160.686
358.0883, 1159.177
358.5704, 1157.386
359.0525, 1156.924
359.5346, 1158.506
360.0167, 1160.718
360.4988, 1163.029
360.9810, 1165.347
361.4631, 1167.458
361.9452, 1169.542
362.4273, 1171.160
362.9094, 1171.628
363.3915, 1170.358
363.8737, 1170.330
364.3558, 1173.844
364.8379, 1178.663
365.3200, 1182.155
365.8021, 1183.176
366.2842, 1183.347
366.7664, 1182.619
367.2485, 1181.001
367.7306, 1180.357
368.2127, 1181.808
368.6948, 1183.772
369.1769, 1185.214
369.6591, 1185.845
370.1412, 1186.300
370.6233, 1186.351
371.1054, 1186.219
371.5875, 1186.754
372.0696, 1188.398
372.5518, 1190.167
373.0339, 1191.774
373.5160, 1193.505
373.9981, 1194.083
374.4802, 1192.651
374.9623, 1190.751
375.4445, 1191.134
375.9266, 1194.780
376.4087, 1197.945
376.8908, 1199.191
377.3729, 1198.619
377.8550, 1199.466
378.3372, 1201.989
378.8193, 1205.228
379.3014, 1208.667
379.7835, 1212.407
380.2656, 1214.466
380.7477, 1213.790
381.2299, 1211.816
381.7120, 1212.522
382.1941, 1215.949
382.6762, 1219.498
383.1583, 1221.195
383.6404, 1221.507
384.1226, 1222.355
384.6047, 1224.098
385.0868, 1225.741
385.5689, 1225.413
386.0510, 1223.733
386.5331, 1223.013
387.0153, 1224.887
387.4974, 1228.155
387.9795, 1231.365
388.4616, 1234.498
388.9437, 1237.217
389.4258, 1239.197
389.9080, 1240.644
390.3901, 1241.798
390.8722, 1242.586
391.3543, 1243.309
391.8364, 1243.651
392.3185, 1243.953
392.8007, 1245.478
393.2828, 1250.291
393.7649, 1255.597
394.2470, 1259.258
394.7291, 1260.347
395.2112, 1261.372
395.6934, 1262.958
396.1755, 1265.051
396.6576, 1267.580
397.1397, 1271.710
397.6218, 1275.129
398.1039, 1276.412
398.5861, 1275.191
399.0682, 1275.747
399.5503, 1280.495
400.0324, 1285.992
400.5145, 1289.664
400.9966, 1290.254
401.4788, 1290.828
401.9609, 1291.533
402.4430, 1292.379
402.9251, 1293.275
403.4072, 1293.629
403.8893, 1294.966
404.3714, 1298.319
404.8535, 1304.545
405.3357, 1309.214
405.8178, 1311.937
406.2999, 1313.539
406.7820, 1315.109
407.2641, 1316.661
407.7462, 1318.035
408.2284, 1319.063
408.7105, 1319.864
409.1926, 1321.304
409.6747, 1323.494
410.1568, 1325.547
410.6389, 1326.647
411.1211, 1326.918
411.6032, 1326.962
412.0853, 1326.683
412.5674, 1326.649
413.0495, 1327.935
413.5316, 1330.350
414.0138, 1332.837
414.4959, 1335.117
414.9780, 1337.031
415.4601, 1338.097
415.9422, 1338.240
416.4243, 1338.422
416.9065, 1339.898
417.3886, 1341.806
417.8707, 1342.811
418.3528, 1341.202
418.8349, 1339.734
419.3170, 1340.680
419.7992, 1343.487
420.2813, 1345.531
420.7634, 1344.781
421.2455, 1343.489
421.7276, 1343.166
422.2097, 1344.343
422.6919, 1345.767
423.1740, 1347.565
423.6561, 1349.323
424.1382, 1350.450
424.6203, 1350.186
425.1024, 1349.926
425.5846, 1350.007
426.0667, 1350.448
426.5488, 1350.902
427.0309, 1350.857
427.5130, 1351.286
427.9951, 1353.025
428.4773, 1357.104
428.9594, 1360.250
429.4415, 1362.109
429.9236, 1362.969
430.4057, 1363.422
430.8878, 1363.266
431.3700, 1363.360
431.8521, 1364.188
432.3342, 1365.760
432.8163, 1367.256
433.2984, 1368.780
433.7805, 1369.915
434.2627, 1369.654
434.7448, 1368.225
435.2269, 1367.903
435.7090, 1369.409
436.1911, 1372.214
436.6732, 1375.590
437.1554, 1379.455
437.6375, 1383.102
438.1196, 1386.400
438.6017, 1389.051
439.0838, 1390.099
439.5659, 1389.055
440.0481, 1388.481
440.5302, 1391.322
441.0123, 1395.993
441.4944, 1399.840
441.9765, 1400.757
442.4586, 1401.374
442.9408, 1403.661
443.4229, 1407.369
443.9050, 1410.382
444.3871, 1411.523
444.8692, 1411.869
445.3513, 1411.972
445.8335, 1411.151
446.3156, 1411.511
446.7977, 1414.484
447.2798, 1418.702
447.7619, 1421.748
448.2440, 1422.018
448.7262, 1422.631
449.2083, 1424.288
449.6904, 1427.036
450.1725, 1429.947
450.6546, 1433.047
451.1367, 1436.237
451.6189, 1439.661
452.1010, 1443.837
452.5831, 1446.409
453.0652, 1446.760
453.5473, 1445.859
454.0294, 1445.599
454.5116, 1445.924
454.9937, 1447.444
455.4758, 1451.072
455.9579, 1456.307
456.4400, 1460.305
456.9221, 1463.012
457.4043, 1465.221
457.8864, 1467.645
458.3685, 1470.197
458.8506, 1472.758
459.3327, 1475.358
459.8148, 1477.785
460.2970, 1479.875
460.7791, 1481.612
461.2612, 1482.884
461.7433, 1482.875
462.2254, 1482.863
462.7076, 1483.936
463.1897, 1486.238
463.6718, 1489.303
464.1539, 1493.582
464.6360, 1498.205
465.1181, 1502.236
465.6003, 1504.885
466.0824, 1507.534
466.5645, 1510.840
467.0466, 1514.491
467.5287, 1517.273
468.0108, 1518.467
468.4930, 1519.263
468.9751, 1519.869
469.4572, 1519.897
469.9393, 1521.144
470.4214, 1524.169
470.9035, 1527.863
471.3857, 1531.020
471.8678, 1533.452
472.3499, 1535.923
472.8320, 1538.655
473.3141, 1541.525
473.7962, 1544.397
474.2784, 1547.418
474.7605, 1549.481
475.2426, 1549.029
475.7247, 1546.729
476.2068, 1546.889
476.6889, 1549.949
477.1711, 1553.738
477.6532, 1555.388
478.1353, 1555.795
478.6174, 1557.535
479.0995, 1562.399
479.5816, 1567.866
480.0638, 1570.933
480.5459, 1572.076
481.0280, 1573.047
481.5101, 1574.707
481.9922, 1576.635
482.4743, 1578.436
482.9565, 1580.008
483.4386, 1581.730
483.9207, 1583.897
484.4028, 1586.211
484.8849, 1588.367
485.3670, 1591.265
485.8492, 1592.925
486.3313, 1591.625
486.8134, 1588.348
487.2955, 1588.057
487.7776, 1593.244
488.2597, 1598.495
488.7419, 1601.665
489.2240, 1602.335
489.7061, 1602.796
490.1882, 1602.718
490.6703, 1602.937
491.1524, 1604.558
491.6346, 1607.776
492.1167, 1610.913
492.5988, 1613.658
493.0809, 1616.122
493.5630, 1618.835
494.0451, 1621.763
494.5273, 1623.795
495.0094, 1623.404
495.4915, 1621.769
495.9736, 1621.643
496.4557, 1623.182
496.9378, 1625.458
497.4200, 1628.476
497.9021, 1631.506
498.3842, 1633.229
498.8663, 1632.187
499.3484, 1631.344
499.8305, 1633.401
500.3127, 1637.198
500.7948, 1639.755
501.2769, 1638.645
501.7590, 1637.252
502.2411, 1637.365
502.7232, 1639.416
503.2054, 1640.769
503.6875, 1639.542
504.1696, 1638.460
504.6517, 1639.690
505.1338, 1646.005
505.6159, 1649.582
506.0981, 1648.731
506.5802, 1645.394
507.0623, 1644.186
507.5444, 1645.698
508.0265, 1647.355
508.5086, 1648.095
508.9908, 1648.097
509.4729, 1649.212
509.9550, 1651.641
510.4371, 1653.615
510.9192, 1653.006
511.4013, 1650.526
511.8835, 1648.860
512.3655, 1648.467
512.8477, 1648.843
513.3298, 1649.700
513.8119, 1650.899
514.2940, 1652.074
514.7761, 1653.089
515.2582, 1654.025
515.7404, 1654.752
516.2225, 1655.360
516.7046, 1656.467
517.1867, 1659.468
517.6688, 1662.277
518.1509, 1663.324
518.6331, 1661.384
519.1152, 1660.114
519.5973, 1660.448
520.0794, 1661.591
520.5615, 1662.510
521.0436, 1662.736
521.5258, 1663.410
522.0079, 1664.866
522.4900, 1666.889
522.9721, 1668.458
523.4542, 1669.370
523.9363, 1670.305
524.4185, 1671.966
524.9006, 1674.352
525.3827, 1675.010
525.8648, 1673.721
526.3469, 1671.980
526.8290, 1671.199
527.3112, 1671.340
527.7933, 1672.343
528.2754, 1674.716
528.7575, 1677.060
529.2396, 1676.932
529.7217, 1675.294
530.2039, 1674.936
530.6860, 1679.461
531.1681, 1684.142
531.6502, 1685.168
532.1323, 1682.418
532.6144, 1679.708
533.0966, 1678.592
533.5787, 1677.964
534.0608, 1676.959
534.5429, 1674.500
535.0250, 1673.177
535.5071, 1673.243
535.9893, 1674.532
536.4714, 1677.077
536.9535, 1682.181
537.4356, 1686.015
537.9177, 1687.537
538.3998, 1687.077
538.8820, 1686.422
539.3641, 1685.557
539.8462, 1684.672
540.3283, 1683.895
540.8104, 1683.219
541.2925, 1682.421
541.7747, 1681.425
542.2568, 1680.806
542.7389, 1681.284
543.2210, 1682.615
543.7031, 1684.371
544.1852, 1687.007
544.6674, 1689.094
545.1495, 1688.933
545.6316, 1687.158
546.1137, 1685.337
546.5958, 1684.179
547.0779, 1683.177
547.5601, 1681.974
548.0422, 1680.544
548.5243, 1679.502
549.0064, 1678.951
549.4885, 1678.838
549.9706, 1679.095
550.4528, 1679.476
550.9349, 1680.760
551.4170, 1683.962
551.8991, 1687.254
552.3812, 1687.786
552.8633, 1684.986
553.3455, 1681.604
553.8276, 1677.922
554.3097, 1674.318
554.7918, 1672.236
555.2739, 1671.717
555.7560, 1671.380
556.2382, 1670.375
556.7203, 1668.982
557.2024, 1667.908
557.6845, 1667.211
558.1666, 1666.298
558.6487, 1664.160
559.1309, 1661.723
559.6130, 1660.360
560.0951, 1661.214
560.5772, 1661.584
561.0593, 1659.028
561.5414, 1655.273
562.0236, 1653.401
562.5057, 1656.150
562.9878, 1658.739
563.4699, 1659.888
563.9520, 1659.672
564.4341, 1658.995
564.9163, 1657.427
565.3984, 1655.976
565.8805, 1655.242
566.3626, 1655.422
566.8447, 1654.937
567.3268, 1653.598
567.8090, 1652.087
568.2911, 1651.236
568.7732, 1650.969
569.2553, 1650.622
569.7374, 1649.977
570.2195, 1649.369
570.7017, 1649.606
571.1838, 1650.326
571.6659, 1650.383
572.1480, 1648.307
572.6301, 1645.999
573.1122, 1645.655
573.5944, 1646.954
574.0765, 1646.979
574.5586, 1642.961
575.0407, 1638.377
575.5228, 1635.310
576.0049, 1634.456
576.4871, 1633.951
576.9692, 1634.239
577.4513, 1634.425
577.9334, 1633.470
578.4155, 1630.357
578.8976, 1628.771
579.3798, 1629.968
579.8619, 1632.305
580.3440, 1631.205
580.8261, 1626.351
581.3082, 1622.316
581.7903, 1621.446
582.2725, 1622.712
582.7546, 1623.362
583.2367, 1623.408
583.7188, 1622.924
584.2009, 1620.736
584.6830, 1618.559
585.1652, 1619.354
585.6473, 1624.072
586.1294, 1627.759
586.6115, 1626.780
587.0936, 1623.585
587.5757, 1620.755
588.0579, 1618.016
588.5400, 1616.752
589.0221, 1618.971
589.5042, 1622.676
589.9863, 1623.133
590.4684, 1617.798
590.9506, 1613.356
591.4327, 1611.894
591.9148, 1612.980
592.3969, 1612.784
592.8790, 1611.214
593.3611, 1608.820
593.8433, 1605.312
594.3254, 1601.141
594.8075, 1598.583
595.2896, 1597.839
595.7717, 1597.740
596.2538, 1597.284
596.7360, 1596.658
597.2181, 1596.314
597.7002, 1596.815
598.1823, 1596.702
598.6644, 1593.928
599.1465, 1590.056
599.6287, 1587.754
600.1108, 1589.790
600.5929, 1591.567
601.0750, 1591.440
601.5571, 1589.602
602.0392, 1588.148
602.5214, 1586.927
603.0035, 1586.293
603.4856, 1586.635
603.9677, 1588.079
604.4498, 1588.616
604.9319, 1588.261
605.4141, 1586.904
605.8962, 1583.884
606.3783, 1579.509
606.8604, 1576.268
607.3425, 1574.574
607.8246, 1573.508
608.3068, 1571.918
608.7889, 1570.134
609.2710, 1568.935
609.7531, 1569.124
610.2352, 1569.376
610.7173, 1568.539
611.1995, 1567.065
611.6816, 1566.168
612.1637, 1566.898
612.6458, 1567.660
613.1279, 1568.055
613.6100, 1568.067
614.0922, 1567.251
614.5743, 1565.426
615.0564, 1563.029
615.5385, 1560.105
616.0206, 1556.400
616.5027, 1553.587
616.9849, 1551.779
617.4670, 1550.542
617.9491, 1549.462
618.4312, 1548.557
618.9133, 1548.041
619.3954, 1548.113
619.8776, 1548.143
620.3597, 1547.227
620.8418, 1545.682
621.3239, 1544.247
621.8060, 1543.266
622.2881, 1542.404
622.7703, 1541.441
623.2524, 1540.415
623.7345, 1539.505
624.2166, 1539.059
624.6987, 1538.410
625.1808, 1536.857
625.6630, 1534.182
626.1451, 1533.649
626.6272, 1536.443
627.1093, 1539.408
627.5914, 1540.405
628.0735, 1539.347
628.5557, 1537.307
629.0378, 1534.135
629.5199, 1530.791
630.0020, 1528.460
630.4841, 1526.895
630.9662, 1525.268
631.4484, 1523.283
631.9305, 1521.426
632.4126, 1520.510
632.8947, 1520.084
633.3768, 1519.180
633.8589, 1516.976
634.3411, 1514.722
634.8232, 1512.673
635.3053, 1510.943
635.7874, 1510.092
636.2695, 1510.965
636.7516, 1511.834
637.2338, 1512.141
637.7159, 1511.852
638.1980, 1511.174
