##NAMES=Skorpionite
##RRUFFID=R060938
##IDEAL CHEMISTRY=Ca_3_Zn^2+^_2_(P^5+^O_4_)_2_CO_3_(OH)_2_&#183;H_2_O
##LOCALITY=Skorpion Zinc deposit, west of Rosh Pinah, southern Namibia
##OWNER=RRUFF
##SOURCE=William W. Pinch
##DESCRIPTION=Pale green to colorless acicular crystals
##STATUS=The identification of this mineral has been confirmed only by single crystal X-ray diffraction.
##URL=rruff.info/R060938
126.8254, 1010.349
127.3075, 1039.077
127.7896, 1069.316
128.2718, 1108.763
128.7539, 1155.426
129.2360, 1197.432
129.7181, 1226.194
130.2002, 1244.790
130.6823, 1263.997
131.1645, 1285.524
131.6466, 1307.542
132.1287, 1325.332
132.6108, 1338.473
133.0929, 1352.787
133.5750, 1373.107
134.0572, 1399.482
134.5393, 1427.904
135.0214, 1461.042
135.5035, 1495.911
135.9856, 1515.636
136.4677, 1516.871
136.9499, 1512.115
137.4320, 1518.561
137.9141, 1539.848
138.3962, 1552.301
138.8783, 1546.424
139.3604, 1520.742
139.8426, 1495.366
140.3247, 1470.008
140.8068, 1445.281
141.2889, 1421.421
141.7710, 1397.883
142.2531, 1376.753
142.7353, 1358.632
143.2174, 1343.520
143.6995, 1331.745
144.1816, 1323.714
144.6637, 1319.036
145.1458, 1317.034
145.6280, 1322.525
146.1101, 1325.520
146.5922, 1319.285
147.0743, 1298.057
147.5564, 1276.095
148.0385, 1254.054
148.5207, 1231.884
149.0028, 1212.940
149.4849, 1198.874
149.9670, 1187.356
150.4491, 1176.486
150.9312, 1166.527
151.4134, 1157.026
151.8955, 1148.290
152.3776, 1140.897
152.8597, 1132.621
153.3418, 1119.677
153.8239, 1106.563
154.3060, 1099.999
154.7882, 1108.736
155.2703, 1117.796
155.7524, 1121.193
156.2345, 1113.557
156.7166, 1108.562
157.1987, 1110.556
157.6809, 1117.284
158.1630, 1122.494
158.6451, 1119.327
159.1272, 1117.181
159.6093, 1121.709
160.0914, 1144.031
160.5736, 1162.784
161.0557, 1169.299
161.5378, 1164.945
162.0199, 1160.503
162.5020, 1159.224
162.9841, 1160.222
163.4663, 1162.648
163.9484, 1169.513
164.4305, 1175.148
164.9126, 1174.773
165.3947, 1167.963
165.8768, 1164.239
166.3590, 1173.325
166.8411, 1187.917
167.3232, 1197.685
167.8053, 1191.348
168.2874, 1182.834
168.7695, 1183.864
169.2517, 1197.464
169.7338, 1212.106
170.2159, 1220.172
170.6980, 1222.981
171.1801, 1224.039
171.6622, 1220.801
172.1444, 1218.469
172.6265, 1223.595
173.1086, 1239.697
173.5907, 1258.549
174.0728, 1271.402
174.5549, 1279.873
175.0371, 1290.942
175.5192, 1309.638
176.0013, 1333.841
176.4834, 1360.910
176.9655, 1393.082
177.4476, 1424.405
177.9298, 1445.344
178.4119, 1456.540
178.8940, 1466.743
179.3761, 1483.240
179.8582, 1504.394
180.3403, 1526.570
180.8224, 1548.258
181.3046, 1570.226
181.7867, 1595.771
182.2688, 1625.048
182.7509, 1653.022
183.2330, 1671.766
183.7151, 1683.268
184.1973, 1697.917
184.6794, 1725.630
185.1615, 1760.127
185.6436, 1779.405
186.1257, 1780.285
186.6078, 1777.245
187.0900, 1789.194
187.5721, 1815.375
188.0542, 1847.608
188.5363, 1882.787
189.0184, 1920.688
189.5005, 1962.625
189.9827, 2009.348
190.4648, 2058.135
190.9469, 2104.813
191.4290, 2148.716
191.9111, 2193.014
192.3932, 2240.776
192.8754, 2291.505
193.3575, 2342.282
193.8396, 2394.819
194.3217, 2445.446
194.8038, 2480.732
195.2859, 2499.064
195.7681, 2513.779
196.2502, 2537.400
196.7323, 2570.121
197.2144, 2596.619
197.6965, 2613.495
198.1786, 2622.140
198.6608, 2628.184
199.1429, 2631.576
199.6250, 2632.378
200.1071, 2629.906
200.5892, 2623.759
201.0714, 2617.582
201.5535, 2611.337
202.0356, 2605.326
202.5177, 2603.044
202.9998, 2603.965
203.4819, 2609.496
203.9641, 2621.773
204.4462, 2641.458
204.9283, 2664.476
205.4104, 2690.366
205.8925, 2719.384
206.3746, 2747.039
206.8568, 2772.814
207.3389, 2798.382
207.8210, 2825.851
208.3031, 2855.544
208.7852, 2886.814
209.2673, 2919.016
209.7494, 2951.686
210.2316, 2988.775
210.7137, 3031.212
211.1958, 3077.699
211.6779, 3126.406
212.1600, 3178.821
212.6421, 3230.667
213.1243, 3278.299
213.6064, 3317.389
214.0885, 3366.943
214.5706, 3429.036
215.0527, 3501.416
215.5348, 3577.919
216.0170, 3660.775
216.4991, 3742.238
216.9812, 3815.870
217.4633, 3874.284
217.9454, 3946.193
218.4275, 4043.972
218.9097, 4156.049
219.3918, 4235.178
219.8739, 4268.561
220.3560, 4288.149
220.8381, 4316.018
221.3202, 4360.126
221.8024, 4391.490
222.2845, 4402.903
222.7666, 4397.569
223.2487, 4400.653
223.7308, 4422.958
224.2129, 4439.782
224.6951, 4428.190
225.1772, 4367.565
225.6593, 4324.005
226.1414, 4312.573
226.6235, 4331.727
227.1056, 4337.301
227.5878, 4321.941
228.0699, 4300.904
228.5520, 4286.581
229.0341, 4278.755
229.5162, 4278.330
229.9983, 4286.881
230.4805, 4304.726
230.9626, 4323.887
231.4447, 4349.224
231.9268, 4371.357
232.4089, 4378.375
232.8910, 4359.893
233.3732, 4346.483
233.8553, 4352.594
234.3374, 4385.639
234.8195, 4378.083
235.3016, 4312.623
235.7837, 4220.114
236.2658, 4139.453
236.7480, 4078.696
237.2301, 4016.296
237.7122, 3948.873
238.1943, 3878.497
238.6764, 3791.981
239.1585, 3683.633
239.6407, 3561.334
240.1228, 3436.074
240.6049, 3299.595
241.0870, 3172.387
241.5691, 3062.832
242.0512, 2977.056
242.5334, 2884.261
243.0155, 2775.172
243.4976, 2663.962
243.9797, 2576.675
244.4618, 2528.400
244.9439, 2480.895
245.4261, 2419.822
245.9082, 2337.703
246.3903, 2265.150
246.8724, 2205.054
247.3545, 2153.242
247.8366, 2100.787
248.3188, 2045.169
248.8009, 1994.039
249.2830, 1950.550
249.7651, 1916.780
250.2472, 1886.331
250.7293, 1859.315
251.2115, 1835.715
251.6936, 1816.013
252.1757, 1802.831
252.6578, 1789.453
253.1399, 1772.507
253.6220, 1749.770
254.1042, 1728.652
254.5863, 1707.329
255.0684, 1688.383
255.5505, 1679.586
256.0326, 1685.534
256.5147, 1693.969
256.9969, 1699.539
257.4790, 1701.287
257.9611, 1702.131
258.4432, 1700.237
258.9253, 1697.953
259.4074, 1704.061
259.8896, 1725.754
260.3717, 1742.901
260.8538, 1743.590
261.3359, 1720.007
261.8180, 1703.090
262.3001, 1695.165
262.7823, 1694.316
263.2644, 1694.309
263.7465, 1694.055
264.2286, 1696.848
264.7107, 1706.933
265.1928, 1729.749
265.6750, 1739.556
266.1571, 1729.307
266.6392, 1707.267
267.1213, 1700.120
267.6034, 1713.451
268.0855, 1729.171
268.5677, 1736.879
269.0498, 1735.063
269.5319, 1731.821
270.0140, 1726.538
270.4961, 1720.766
270.9782, 1719.739
271.4604, 1724.644
271.9425, 1731.070
272.4246, 1738.093
272.9067, 1747.094
273.3888, 1747.822
273.8709, 1737.430
274.3531, 1719.361
274.8352, 1702.632
275.3173, 1686.839
275.7994, 1674.038
276.2815, 1667.078
276.7636, 1666.856
277.2457, 1663.801
277.7278, 1657.698
278.2100, 1647.555
278.6921, 1629.360
279.1742, 1601.851
279.6563, 1572.322
280.1384, 1545.016
280.6205, 1520.298
281.1027, 1496.166
281.5848, 1472.499
282.0669, 1449.475
282.5490, 1426.926
283.0311, 1404.586
283.5132, 1384.925
283.9954, 1370.476
284.4775, 1361.018
284.9596, 1352.005
285.4417, 1343.531
285.9238, 1334.375
286.4059, 1319.409
286.8881, 1298.313
287.3702, 1281.064
287.8523, 1278.788
288.3344, 1288.734
288.8165, 1288.820
289.2986, 1273.956
289.7808, 1252.248
290.2629, 1239.203
290.7450, 1234.710
291.2271, 1231.094
291.7092, 1221.952
292.1913, 1209.139
292.6735, 1201.568
293.1556, 1202.527
293.6377, 1204.985
294.1198, 1193.945
294.6019, 1171.114
295.0840, 1153.966
295.5662, 1158.482
296.0483, 1177.245
296.5304, 1188.816
297.0125, 1188.774
297.4946, 1185.855
297.9767, 1192.853
298.4589, 1208.036
298.9410, 1222.630
299.4231, 1229.909
299.9052, 1233.033
300.3873, 1237.365
300.8694, 1243.133
301.3516, 1251.366
301.8337, 1263.688
302.3158, 1279.654
302.7979, 1297.422
303.2800, 1316.297
303.7621, 1336.268
304.2443, 1357.460
304.7264, 1379.221
305.2085, 1403.282
305.6906, 1434.573
306.1727, 1469.732
306.6548, 1501.357
307.1370, 1521.090
307.6191, 1537.352
308.1012, 1558.473
308.5833, 1585.374
309.0654, 1615.513
309.5475, 1648.827
310.0297, 1683.584
310.5118, 1717.079
310.9939, 1751.008
311.4760, 1780.803
311.9581, 1801.125
312.4402, 1809.744
312.9224, 1819.708
313.4045, 1840.436
313.8866, 1867.026
314.3687, 1891.854
314.8508, 1918.375
315.3329, 1937.345
315.8151, 1940.404
316.2972, 1925.351
316.7793, 1911.263
317.2614, 1907.571
317.7435, 1908.818
318.2256, 1908.514
318.7078, 1909.127
319.1899, 1903.889
319.6720, 1888.384
320.1541, 1861.970
320.6362, 1834.519
321.1183, 1805.711
321.6005, 1778.820
322.0826, 1757.104
322.5647, 1749.849
323.0468, 1739.295
323.5289, 1719.192
324.0110, 1689.121
324.4932, 1660.297
324.9753, 1637.888
325.4574, 1615.975
325.9395, 1590.199
326.4216, 1553.445
326.9037, 1520.160
327.3859, 1495.457
327.8680, 1478.878
328.3501, 1454.651
328.8322, 1412.410
329.3143, 1370.221
329.7964, 1339.277
330.2786, 1330.232
330.7607, 1317.187
331.2428, 1294.138
331.7249, 1264.157
332.2070, 1245.579
332.6891, 1246.456
333.1712, 1249.588
333.6534, 1245.546
334.1355, 1232.595
334.6176, 1216.003
335.0997, 1193.949
335.5818, 1168.872
336.0639, 1147.828
336.5461, 1130.688
337.0282, 1117.686
337.5103, 1109.567
337.9924, 1107.833
338.4745, 1104.533
338.9566, 1098.993
339.4388, 1092.064
339.9209, 1085.730
340.4030, 1080.492
340.8851, 1073.930
341.3672, 1064.047
341.8493, 1050.560
342.3315, 1039.805
342.8136, 1031.619
343.2957, 1026.562
343.7778, 1026.675
344.2599, 1032.114
344.7420, 1037.232
345.2242, 1039.649
345.7063, 1039.649
346.1884, 1039.268
346.6705, 1039.024
347.1526, 1035.760
347.6347, 1022.195
348.1169, 1000.640
348.5990, 983.4378
349.0811, 976.4230
349.5632, 976.9093
350.0453, 981.1152
350.5274, 989.1271
351.0096, 996.7021
351.4917, 1000.547
351.9738, 1001.077
352.4559, 999.0776
352.9380, 992.0781
353.4201, 985.0414
353.9023, 984.3512
354.3844, 989.5980
354.8665, 997.0584
355.3486, 1007.613
355.8307, 1017.756
356.3128, 1022.594
356.7950, 1017.429
357.2771, 1011.148
357.7592, 1011.600
358.2413, 1016.844
358.7234, 1019.737
359.2055, 1010.410
359.6877, 1000.663
360.1698, 1000.712
360.6519, 1016.996
361.1340, 1034.127
361.6161, 1045.284
362.0982, 1052.533
362.5804, 1060.342
363.0625, 1072.200
363.5446, 1083.419
364.0267, 1090.950
364.5088, 1092.436
364.9909, 1096.424
365.4731, 1105.933
365.9552, 1118.739
366.4373, 1131.675
366.9194, 1144.261
367.4015, 1156.984
367.8836, 1168.504
368.3658, 1176.889
368.8479, 1193.572
369.3300, 1226.316
369.8121, 1263.319
370.2942, 1292.560
370.7763, 1307.193
371.2585, 1324.020
371.7406, 1346.071
372.2227, 1373.014
372.7048, 1401.021
373.1869, 1431.104
373.6690, 1460.503
374.1512, 1487.285
374.6333, 1510.908
375.1154, 1533.556
375.5975, 1555.662
376.0796, 1577.151
376.5617, 1596.881
377.0439, 1614.127
377.5260, 1631.878
378.0081, 1652.847
378.4902, 1677.609
378.9723, 1698.815
379.4544, 1716.350
379.9366, 1729.910
380.4187, 1740.244
380.9008, 1747.384
381.3829, 1747.644
381.8650, 1736.263
382.3471, 1715.745
382.8293, 1697.308
383.3114, 1681.443
383.7935, 1666.174
384.2756, 1650.469
384.7577, 1633.477
385.2398, 1612.325
385.7219, 1581.611
386.2040, 1547.226
386.6862, 1518.645
387.1683, 1495.545
387.6504, 1473.521
388.1325, 1448.566
388.6146, 1422.152
389.0967, 1397.341
389.5789, 1374.200
390.0610, 1353.638
390.5431, 1336.156
391.0252, 1321.967
391.5073, 1311.994
391.9894, 1312.085
392.4716, 1313.637
392.9537, 1308.777
393.4358, 1291.570
393.9179, 1275.940
394.4000, 1268.432
394.8821, 1266.320
395.3643, 1263.303
395.8464, 1250.014
396.3285, 1241.510
396.8106, 1246.668
397.2927, 1272.375
397.7748, 1292.668
398.2570, 1300.142
398.7391, 1301.803
399.2212, 1306.759
399.7033, 1313.323
400.1854, 1325.443
400.6675, 1345.574
401.1497, 1374.106
401.6318, 1401.029
402.1139, 1426.415
402.5960, 1450.158
403.0781, 1471.206
403.5602, 1486.198
404.0424, 1507.061
404.5245, 1536.563
405.0066, 1572.923
405.4887, 1610.125
405.9708, 1648.652
406.4529, 1686.888
406.9351, 1721.910
407.4172, 1753.162
407.8993, 1794.659
408.3814, 1849.906
408.8635, 1911.850
409.3456, 1966.041
409.8278, 2013.172
410.3099, 2066.521
410.7920, 2134.858
411.2741, 2214.287
411.7562, 2292.789
412.2383, 2370.894
412.7205, 2446.513
413.2026, 2515.166
413.6847, 2581.276
414.1668, 2655.169
414.6489, 2748.109
415.1310, 2845.607
415.6132, 2932.800
416.0953, 3011.054
416.5774, 3085.441
417.0595, 3161.791
417.5416, 3236.396
418.0237, 3306.950
418.5059, 3373.260
418.9880, 3433.448
419.4701, 3490.975
419.9522, 3541.885
420.4343, 3574.625
420.9164, 3581.597
421.3986, 3572.337
421.8807, 3553.510
422.3628, 3530.388
422.8449, 3482.782
423.3270, 3395.922
423.8091, 3286.688
424.2913, 3174.551
424.7734, 3061.889
425.2555, 2948.085
425.7376, 2834.265
426.2197, 2720.440
426.7018, 2603.568
427.1840, 2475.518
427.6661, 2351.297
428.1482, 2242.664
428.6303, 2153.375
429.1124, 2066.182
429.5945, 1977.180
430.0767, 1889.843
430.5588, 1813.175
431.0409, 1748.508
431.5230, 1691.184
432.0051, 1640.249
432.4872, 1595.421
432.9694, 1550.533
433.4515, 1503.299
433.9336, 1460.349
434.4157, 1435.325
434.8978, 1425.491
435.3799, 1410.229
435.8621, 1376.110
436.3442, 1333.112
436.8263, 1302.839
437.3084, 1284.762
437.7905, 1269.303
438.2726, 1245.474
438.7548, 1219.925
439.2369, 1204.027
439.7190, 1205.360
440.2011, 1209.751
440.6832, 1206.886
441.1653, 1198.090
441.6474, 1187.107
442.1295, 1171.419
442.6117, 1157.135
443.0938, 1148.588
443.5759, 1147.288
444.0580, 1148.101
444.5401, 1151.874
445.0222, 1156.037
445.5044, 1157.399
445.9865, 1152.285
446.4686, 1147.522
446.9507, 1144.254
447.4328, 1142.500
447.9149, 1143.075
448.3971, 1147.321
448.8792, 1152.711
449.3613, 1157.499
449.8434, 1159.897
450.3255, 1165.687
450.8076, 1175.770
451.2898, 1189.076
451.7719, 1202.717
452.2540, 1216.153
452.7361, 1231.467
453.2182, 1252.577
453.7003, 1279.048
454.1825, 1292.964
454.6646, 1291.718
455.1467, 1287.164
455.6288, 1292.951
456.1109, 1308.044
456.5930, 1325.896
457.0752, 1344.786
457.5573, 1364.715
458.0394, 1385.465
458.5215, 1407.109
459.0036, 1428.645
459.4857, 1451.274
459.9679, 1472.922
460.4500, 1489.628
460.9321, 1500.105
461.4142, 1508.537
461.8963, 1515.824
462.3784, 1523.435
462.8606, 1534.116
463.3427, 1554.131
463.8248, 1573.367
464.3069, 1586.849
464.7890, 1594.418
465.2711, 1597.988
465.7533, 1599.319
466.2354, 1596.141
466.7175, 1586.664
467.1996, 1561.791
467.6817, 1541.420
468.1638, 1530.233
468.6460, 1524.767
469.1281, 1512.421
469.6102, 1489.800
470.0923, 1465.479
470.5744, 1443.047
471.0565, 1423.623
471.5387, 1400.046
472.0208, 1370.460
472.5029, 1339.799
472.9850, 1313.084
473.4671, 1290.295
473.9492, 1272.574
474.4314, 1262.286
474.9135, 1256.177
475.3956, 1244.467
475.8777, 1227.159
476.3598, 1209.559
476.8419, 1195.661
477.3241, 1184.493
477.8062, 1174.882
478.2883, 1167.726
478.7704, 1158.659
479.2525, 1140.790
479.7346, 1117.797
480.2168, 1097.840
480.6989, 1084.724
481.1810, 1075.478
481.6631, 1068.766
482.1452, 1064.451
482.6273, 1061.170
483.1095, 1057.871
483.5916, 1055.620
484.0737, 1055.370
484.5558, 1062.767
485.0379, 1065.251
485.5201, 1058.161
486.0022, 1044.836
486.4843, 1034.255
486.9664, 1027.112
487.4485, 1022.077
487.9306, 1020.208
488.4128, 1022.936
488.8949, 1017.233
489.3770, 998.6168
489.8591, 978.7766
490.3412, 969.8016
490.8233, 972.4446
491.3055, 979.8356
491.7876, 992.9409
492.2697, 1007.842
492.7518, 1013.503
493.2339, 1010.076
493.7160, 1007.036
494.1982, 1011.817
494.6803, 1021.104
495.1624, 1026.524
495.6445, 1027.178
496.1266, 1027.218
496.6087, 1031.176
497.0908, 1037.095
497.5729, 1041.631
498.0551, 1038.967
498.5372, 1038.645
499.0193, 1051.044
499.5014, 1072.767
499.9835, 1087.905
500.4656, 1083.176
500.9478, 1075.118
501.4299, 1072.888
501.9120, 1078.903
502.3941, 1087.847
502.8762, 1103.639
503.3583, 1120.322
503.8405, 1129.746
504.3226, 1124.399
504.8047, 1123.361
505.2868, 1132.358
505.7689, 1149.562
506.2510, 1159.474
506.7332, 1159.870
507.2153, 1158.051
507.6974, 1158.709
508.1795, 1161.900
508.6616, 1164.865
509.1437, 1167.578
509.6259, 1169.616
510.1080, 1170.041
510.5901, 1169.092
511.0722, 1168.177
511.5543, 1169.151
512.0364, 1169.733
512.5186, 1165.588
513.0007, 1157.154
513.4828, 1148.653
513.9649, 1140.537
514.4470, 1134.975
514.9291, 1135.560
515.4113, 1146.443
515.8934, 1154.378
516.3755, 1151.248
516.8576, 1141.514
517.3397, 1132.248
517.8218, 1125.995
518.3040, 1119.664
518.7861, 1111.577
519.2682, 1101.601
519.7503, 1094.890
520.2324, 1097.058
520.7145, 1096.716
521.1967, 1085.509
521.6788, 1055.805
522.1609, 1038.019
522.6430, 1036.755
523.1251, 1043.665
523.6072, 1044.530
524.0894, 1039.056
524.5715, 1031.204
525.0536, 1020.742
525.5357, 1009.379
526.0178, 1003.672
526.4999, 1003.555
526.9821, 1002.372
527.4642, 992.2136
527.9463, 977.9694
528.4284, 969.7930
528.9105, 971.2753
529.3926, 971.9164
529.8748, 960.3192
530.3569, 942.3329
530.8390, 928.2076
531.3211, 925.6290
531.8032, 924.4352
532.2853, 920.0483
532.7675, 912.5630
533.2496, 905.4777
533.7317, 897.0598
534.2138, 891.0732
534.6959, 890.3291
535.1780, 901.9803
535.6602, 904.1702
536.1423, 891.3471
536.6244, 873.2065
537.1065, 864.6193
537.5886, 868.6682
538.0707, 871.7583
538.5529, 869.8867
539.0350, 864.4543
539.5171, 862.0532
539.9992, 862.9036
540.4813, 863.4340
540.9634, 859.4237
541.4456, 853.0536
541.9277, 851.2103
542.4098, 854.9683
542.8919, 860.7715
543.3740, 867.6344
543.8561, 873.5931
544.3383, 875.0553
544.8204, 862.8049
545.3025, 852.8564
545.7846, 860.8349
546.2667, 881.1939
546.7488, 890.6232
547.2310, 867.0676
547.7131, 842.0484
548.1952, 831.7781
548.6773, 844.3945
549.1594, 852.0727
549.6415, 851.0993
550.1237, 846.9984
550.6058, 845.1352
551.0879, 846.3325
551.5700, 847.6443
552.0521, 848.5396
552.5342, 849.3378
553.0164, 851.3632
553.4985, 854.8229
553.9806, 857.5016
554.4627, 857.3474
554.9448, 855.3608
555.4269, 855.5813
555.9091, 858.1143
556.3912, 861.5119
556.8733, 865.0075
557.3554, 868.3304
557.8375, 871.0182
558.3196, 872.9973
558.8018, 874.2511
559.2839, 871.0770
559.7660, 867.3581
560.2481, 871.1251
560.7302, 895.6953
561.2123, 918.5469
561.6945, 929.5255
562.1766, 927.4277
562.6587, 926.5698
563.1408, 925.5271
563.6229, 928.0239
564.1050, 936.6439
564.5872, 953.9219
565.0693, 971.0838
565.5514, 988.5472
566.0335, 1005.290
566.5156, 1017.328
566.9977, 1023.989
567.4799, 1036.890
567.9620, 1059.139
568.4441, 1090.305
568.9262, 1136.109
569.4083, 1194.693
569.8904, 1241.468
570.3726, 1248.549
570.8547, 1239.241
571.3368, 1245.349
571.8189, 1271.575
572.3010, 1301.439
572.7831, 1329.613
573.2653, 1353.677
573.7474, 1370.477
574.2295, 1380.281
574.7116, 1381.771
575.1937, 1374.348
575.6758, 1358.355
576.1580, 1334.786
576.6401, 1293.722
577.1222, 1257.943
577.6042, 1235.797
578.0864, 1227.791
578.5685, 1216.956
579.0506, 1201.556
579.5327, 1187.796
580.0148, 1180.914
580.4969, 1180.722
580.9791, 1183.656
581.4612, 1190.126
581.9433, 1196.985
582.4254, 1196.661
582.9075, 1192.505
583.3896, 1194.669
583.8718, 1213.468
584.3539, 1235.721
584.8360, 1247.260
585.3181, 1250.791
585.8002, 1260.312
586.2823, 1294.640
586.7645, 1327.628
587.2466, 1343.295
587.7287, 1336.659
588.2108, 1324.228
588.6929, 1306.677
589.1750, 1284.831
589.6572, 1259.010
590.1393, 1227.844
590.6214, 1194.838
591.1035, 1157.381
591.5856, 1120.174
592.0677, 1095.009
592.5499, 1082.457
593.0320, 1076.207
593.5141, 1077.274
593.9962, 1081.987
594.4783, 1076.363
594.9604, 1060.788
595.4426, 1047.735
595.9247, 1046.605
596.4068, 1053.620
596.8889, 1065.221
597.3710, 1082.533
597.8531, 1097.708
598.3353, 1108.023
598.8174, 1113.380
599.2995, 1113.657
599.7816, 1111.300
600.2637, 1101.042
600.7458, 1078.770
601.2280, 1047.012
601.7101, 1014.650
602.1922, 977.2163
602.6743, 946.9089
603.1564, 930.8453
603.6385, 928.8724
604.1207, 920.4947
604.6028, 903.9985
605.0849, 888.2037
605.5670, 883.1915
606.0491, 886.2985
606.5313, 884.5495
607.0134, 874.6905
607.4955, 865.3010
607.9776, 868.0110
608.4597, 877.7959
608.9418, 884.8879
609.4240, 883.6180
609.9061, 880.0039
610.3882, 875.7374
610.8703, 871.4908
611.3524, 869.9553
611.8345, 874.8893
612.3167, 879.9477
612.7988, 881.2804
613.2809, 877.4453
613.7630, 880.1669
614.2451, 892.8118
614.7272, 907.2777
615.2094, 916.1080
615.6915, 918.1713
616.1736, 924.6913
616.6557, 937.5560
617.1378, 953.0390
617.6199, 966.0648
618.1021, 976.8250
618.5842, 986.0779
619.0663, 992.2164
619.5484, 998.8008
620.0305, 1008.934
620.5126, 1022.890
620.9948, 1041.913
621.4769, 1069.710
621.9590, 1100.103
622.4411, 1129.714
622.9232, 1158.542
623.4053, 1186.091
