##NAMES=Skorpionite
##RRUFFID=R060938
##IDEAL CHEMISTRY=Ca_3_Zn^2+^_2_(P^5+^O_4_)_2_CO_3_(OH)_2_&#183;H_2_O
##LOCALITY=Skorpion Zinc deposit, west of Rosh Pinah, southern Namibia
##OWNER=RRUFF
##SOURCE=William W. Pinch
##DESCRIPTION=Pale green to colorless acicular crystals
##STATUS=The identification of this mineral has been confirmed only by single crystal X-ray diffraction.
##URL=rruff.info/R060938
123.9386, 677.1785
124.4208, 711.2975
124.9029, 769.6953
125.3850, 847.1552
125.8671, 915.3997
126.3492, 961.7484
126.8313, 997.7775
127.3135, 1039.872
127.7956, 1090.188
128.2777, 1140.964
128.7598, 1184.631
129.2419, 1221.485
129.7240, 1261.102
130.2061, 1313.768
130.6883, 1366.444
131.1704, 1407.015
131.6525, 1433.495
132.1346, 1448.589
132.6167, 1453.236
133.0988, 1445.721
133.5810, 1436.542
134.0631, 1436.418
134.5452, 1432.713
135.0273, 1412.336
135.5094, 1369.281
135.9915, 1315.768
136.4737, 1270.899
136.9558, 1236.905
137.4379, 1206.777
137.9200, 1169.332
138.4021, 1138.130
138.8842, 1129.423
139.3664, 1152.297
139.8485, 1192.699
140.3306, 1218.016
140.8127, 1219.427
141.2948, 1220.377
141.7769, 1225.434
142.2591, 1233.335
142.7412, 1241.029
143.2233, 1245.990
143.7054, 1252.596
144.1875, 1277.106
144.6696, 1338.297
145.1518, 1392.406
145.6339, 1424.464
146.1160, 1446.635
146.5981, 1478.422
147.0802, 1533.358
147.5623, 1601.499
148.0445, 1630.864
148.5266, 1576.557
149.0087, 1529.602
149.4908, 1507.795
149.9729, 1502.197
150.4550, 1499.332
150.9371, 1491.493
151.4193, 1478.554
151.9014, 1458.609
152.3835, 1421.883
152.8656, 1388.296
153.3477, 1363.985
153.8298, 1345.484
154.3120, 1326.129
154.7941, 1301.264
155.2762, 1271.293
155.7583, 1245.188
156.2404, 1222.669
156.7225, 1203.690
157.2047, 1189.127
157.6868, 1178.161
158.1689, 1168.928
158.6510, 1159.884
159.1331, 1151.104
159.6152, 1148.369
160.0974, 1154.588
160.5795, 1162.627
161.0616, 1171.079
161.5437, 1179.413
162.0258, 1186.833
162.5079, 1192.582
162.9901, 1196.663
163.4722, 1202.067
163.9543, 1205.078
164.4364, 1212.458
164.9185, 1231.218
165.4007, 1258.015
165.8828, 1281.726
166.3649, 1294.158
166.8470, 1295.270
167.3291, 1296.574
167.8112, 1299.206
168.2934, 1301.019
168.7755, 1299.993
169.2576, 1296.837
169.7397, 1294.402
170.2218, 1294.586
170.7039, 1297.558
171.1861, 1302.293
171.6682, 1313.596
172.1503, 1322.391
172.6324, 1318.621
173.1145, 1305.223
173.5966, 1298.964
174.0788, 1314.318
174.5609, 1349.485
175.0430, 1373.624
175.5251, 1379.244
176.0072, 1380.844
176.4893, 1386.733
176.9714, 1396.781
177.4536, 1407.322
177.9357, 1414.876
178.4178, 1420.625
178.8999, 1432.528
179.3820, 1453.648
179.8641, 1478.176
180.3463, 1504.086
180.8284, 1530.832
181.3105, 1555.737
181.7926, 1578.007
182.2747, 1596.339
182.7568, 1608.229
183.2390, 1609.195
183.7211, 1607.306
184.2032, 1607.408
184.6853, 1609.522
185.1674, 1612.941
185.6495, 1617.591
186.1317, 1623.268
186.6138, 1628.728
187.0959, 1627.495
187.5780, 1631.104
188.0601, 1649.255
188.5422, 1680.968
189.0244, 1718.669
189.5065, 1763.896
189.9886, 1809.695
190.4707, 1835.913
190.9528, 1817.648
191.4349, 1802.551
191.9171, 1829.234
192.3992, 1894.567
192.8813, 1967.983
193.3634, 2039.575
193.8455, 2104.401
194.3276, 2154.090
194.8098, 2182.336
195.2919, 2202.100
195.7740, 2218.619
196.2561, 2232.680
196.7382, 2252.592
197.2203, 2286.340
197.7025, 2326.942
198.1846, 2359.089
198.6667, 2384.841
199.1488, 2398.902
199.6309, 2390.832
200.1130, 2363.562
200.5951, 2341.340
201.0773, 2334.928
201.5594, 2340.702
202.0415, 2348.432
202.5236, 2358.517
203.0057, 2369.774
203.4878, 2382.139
203.9700, 2395.327
204.4521, 2407.362
204.9342, 2415.665
205.4163, 2424.090
205.8984, 2438.301
206.3805, 2458.785
206.8627, 2483.466
207.3448, 2514.109
207.8269, 2548.908
208.3090, 2579.844
208.7911, 2603.464
209.2732, 2622.128
209.7554, 2637.653
210.2375, 2646.949
210.7196, 2665.187
211.2017, 2702.510
211.6838, 2755.868
212.1659, 2816.577
212.6481, 2886.577
213.1302, 2956.208
213.6123, 3007.660
214.0944, 3037.976
214.5765, 3076.814
215.0586, 3141.885
215.5408, 3226.278
216.0229, 3314.342
216.5050, 3405.390
216.9871, 3492.688
217.4692, 3563.167
217.9513, 3616.481
218.4335, 3677.427
218.9156, 3763.180
219.3977, 3862.475
219.8798, 3953.963
220.3619, 4035.699
220.8440, 4103.543
221.3262, 4149.317
221.8083, 4175.659
222.2904, 4194.602
222.7725, 4211.758
223.2546, 4223.454
223.7367, 4222.515
224.2189, 4206.708
224.7010, 4183.377
225.1831, 4156.968
225.6652, 4127.992
226.1473, 4100.885
226.6294, 4075.972
227.1115, 4053.552
227.5937, 4033.283
228.0758, 4014.875
228.5579, 4001.264
229.0400, 3995.249
229.5221, 3996.576
230.0042, 4003.778
230.4864, 4018.470
230.9685, 4037.880
231.4506, 4062.529
231.9327, 4092.184
232.4148, 4117.103
232.8969, 4128.199
233.3791, 4127.948
233.8612, 4131.498
234.3433, 4154.331
234.8254, 4169.372
235.3075, 4157.416
235.7896, 4119.425
236.2718, 4064.804
236.7539, 3995.627
237.2360, 3913.884
237.7181, 3828.721
238.2002, 3741.351
238.6823, 3650.278
239.1645, 3558.333
239.6466, 3462.973
240.1287, 3354.044
240.6108, 3220.359
241.0929, 3075.999
241.5750, 2959.260
242.0572, 2883.545
242.5393, 2809.349
243.0214, 2722.505
243.5035, 2627.350
243.9856, 2530.827
244.4677, 2433.883
244.9499, 2341.167
245.4320, 2265.132
245.9141, 2212.463
246.3962, 2156.448
246.8783, 2083.262
247.3604, 2005.908
247.8426, 1944.122
248.3247, 1903.360
248.8068, 1873.688
249.2889, 1840.542
249.7710, 1802.606
250.2531, 1765.280
250.7352, 1723.684
251.2174, 1685.608
251.6995, 1660.589
252.1816, 1649.768
252.6637, 1644.423
253.1458, 1635.216
253.6279, 1620.774
254.1101, 1607.823
254.5922, 1591.804
255.0743, 1580.656
255.5564, 1585.406
256.0385, 1602.950
256.5207, 1615.262
257.0028, 1604.604
257.4849, 1568.545
257.9670, 1550.790
258.4491, 1565.607
258.9312, 1580.980
259.4134, 1581.437
259.8955, 1571.007
260.3776, 1563.456
260.8597, 1569.003
261.3418, 1584.675
261.8239, 1584.518
262.3060, 1544.365
262.7881, 1516.406
263.2703, 1519.431
263.7524, 1539.661
264.2345, 1557.322
264.7166, 1562.787
265.1987, 1558.757
265.6808, 1553.314
266.1630, 1544.152
266.6451, 1536.555
267.1272, 1529.716
267.6093, 1525.023
268.0914, 1524.105
268.5735, 1527.415
269.0557, 1533.612
269.5378, 1541.302
270.0199, 1554.959
270.5020, 1560.583
270.9841, 1551.321
271.4662, 1540.367
271.9484, 1538.118
272.4305, 1544.843
272.9126, 1551.699
273.3947, 1547.369
273.8768, 1528.440
274.3589, 1515.397
274.8411, 1516.646
275.3232, 1516.426
275.8053, 1507.523
276.2874, 1491.400
276.7695, 1474.070
277.2516, 1460.237
277.7338, 1449.523
278.2159, 1437.094
278.6980, 1422.933
279.1801, 1406.772
279.6622, 1384.693
280.1443, 1361.317
280.6265, 1345.702
281.1086, 1345.979
281.5907, 1352.703
282.0728, 1338.300
282.5549, 1291.167
283.0370, 1250.813
283.5192, 1233.644
284.0013, 1228.004
284.4834, 1225.459
284.9655, 1225.497
285.4476, 1219.662
285.9297, 1190.460
286.4119, 1133.813
286.8940, 1092.895
287.3761, 1091.205
287.8582, 1101.826
288.3403, 1102.637
288.8224, 1091.530
289.3046, 1075.848
289.7867, 1056.009
290.2688, 1034.489
290.7509, 1026.263
291.2330, 1040.620
291.7151, 1058.381
292.1973, 1060.192
292.6794, 1048.374
293.1615, 1037.868
293.6436, 1035.687
294.1257, 1038.225
294.6078, 1039.231
295.0900, 1037.884
295.5721, 1036.938
296.0542, 1039.742
296.5363, 1044.972
297.0184, 1047.008
297.5005, 1041.126
297.9827, 1034.827
298.4648, 1034.937
298.9469, 1040.736
299.4290, 1046.158
299.9111, 1046.934
300.3932, 1045.380
300.8754, 1049.707
301.3575, 1062.025
301.8396, 1076.557
302.3217, 1092.901
302.8038, 1109.759
303.2859, 1123.529
303.7681, 1132.311
304.2502, 1140.550
304.7323, 1157.387
305.2144, 1189.472
305.6965, 1216.469
306.1786, 1232.931
306.6608, 1246.188
307.1429, 1262.195
307.6250, 1282.205
308.1071, 1305.462
308.5892, 1330.737
309.0714, 1357.412
309.5535, 1390.111
310.0356, 1441.843
310.5177, 1486.450
310.9998, 1504.378
311.4819, 1503.753
311.9640, 1509.280
312.4461, 1540.474
312.9283, 1592.899
313.4104, 1625.745
313.8925, 1616.072
314.3746, 1612.278
314.8567, 1627.953
315.3388, 1651.640
315.8210, 1669.009
316.3031, 1673.948
316.7852, 1670.877
317.2673, 1670.078
317.7494, 1677.925
318.2315, 1671.755
318.7137, 1639.343
319.1958, 1599.599
319.6779, 1562.757
320.1600, 1531.082
320.6421, 1503.980
321.1242, 1483.906
321.6064, 1470.907
322.0885, 1450.276
322.5706, 1414.173
323.0527, 1378.264
323.5348, 1350.379
324.0169, 1329.708
324.4991, 1313.993
324.9812, 1307.286
325.4633, 1303.236
325.9454, 1285.440
326.4275, 1250.056
326.9096, 1215.871
327.3918, 1195.512
327.8739, 1182.501
328.3560, 1166.703
328.8381, 1144.200
329.3202, 1122.249
329.8023, 1108.064
330.2845, 1100.375
330.7666, 1091.790
331.2487, 1079.893
331.7308, 1065.466
332.2129, 1048.452
332.6950, 1027.169
333.1772, 1010.546
333.6593, 1006.433
334.1414, 1006.501
334.6235, 997.8667
335.1056, 978.0052
335.5877, 956.0989
336.0699, 942.0672
336.5520, 937.6124
337.0341, 928.3293
337.5162, 908.6273
337.9983, 889.2955
338.4804, 877.2410
338.9626, 871.0350
339.4447, 864.7654
339.9268, 854.1449
340.4089, 841.0104
340.8910, 835.6927
341.3731, 846.9357
341.8553, 855.8771
342.3374, 862.7805
342.8195, 865.2996
343.3016, 858.3724
343.7837, 841.0292
344.2658, 821.3318
344.7480, 812.6467
345.2301, 819.1605
345.7122, 825.8380
346.1943, 836.7010
346.6764, 844.0188
347.1585, 841.7537
347.6407, 831.3942
348.1228, 819.8544
348.6049, 812.7378
349.0870, 809.3481
349.5691, 802.7951
350.0512, 785.9894
350.5334, 778.4586
351.0155, 796.6339
351.4976, 825.5267
351.9797, 843.6364
352.4618, 841.1573
352.9439, 829.6052
353.4261, 822.8580
353.9082, 820.9818
354.3903, 820.8392
354.8724, 822.7734
355.3545, 824.8512
355.8366, 824.0978
356.3188, 819.9467
356.8009, 817.3765
357.2830, 818.8066
357.7651, 823.4214
358.2472, 831.1484
358.7293, 842.6011
359.2115, 852.0762
359.6936, 853.0476
360.1757, 845.4518
360.6578, 841.6908
361.1399, 843.2856
361.6220, 847.8447
362.1041, 854.0751
362.5862, 862.0264
363.0684, 872.9249
363.5505, 888.0308
364.0326, 905.1700
364.5147, 916.9611
364.9968, 917.7700
365.4789, 920.2934
365.9611, 924.7267
366.4432, 931.5124
366.9253, 940.8837
367.4074, 952.9349
367.8895, 968.1594
368.3716, 988.1479
368.8538, 1015.001
369.3359, 1036.451
369.8180, 1045.566
370.3001, 1055.914
370.7822, 1073.867
371.2643, 1096.762
371.7465, 1118.350
372.2286, 1134.328
372.7107, 1147.039
373.1928, 1162.614
373.6749, 1180.724
374.1570, 1202.859
374.6392, 1236.385
375.1213, 1270.383
375.6034, 1293.407
376.0855, 1302.333
376.5676, 1311.042
377.0497, 1333.658
377.5319, 1366.853
378.0140, 1394.386
378.4961, 1412.940
378.9782, 1426.631
379.4603, 1439.106
379.9424, 1450.202
380.4246, 1457.907
380.9067, 1463.127
381.3888, 1463.797
381.8709, 1458.843
382.3530, 1447.945
382.8351, 1427.845
383.3173, 1393.366
383.7994, 1350.957
384.2815, 1326.210
384.7636, 1336.362
385.2457, 1337.470
385.7278, 1318.040
386.2100, 1287.604
386.6921, 1254.134
387.1742, 1220.511
387.6563, 1190.664
388.1384, 1171.301
388.6205, 1167.791
389.1027, 1148.928
389.5848, 1091.319
390.0669, 1042.807
390.5490, 1026.967
391.0311, 1033.542
391.5132, 1040.457
391.9954, 1035.239
392.4775, 1021.786
392.9596, 1009.574
393.4417, 997.1053
393.9238, 989.8724
394.4059, 997.7190
394.8881, 1005.952
395.3702, 1001.475
395.8523, 982.6000
396.3344, 962.3239
396.8165, 948.6536
397.2986, 941.4612
397.7808, 940.8333
398.2629, 947.3451
398.7450, 958.9803
399.2271, 980.1901
399.7092, 1006.217
400.1913, 1020.412
400.6735, 1006.994
401.1556, 992.3111
401.6377, 996.0763
402.1198, 1014.296
402.6019, 1034.391
403.0840, 1051.325
403.5662, 1066.038
404.0483, 1080.025
404.5304, 1092.000
405.0125, 1106.093
405.4946, 1124.531
405.9767, 1143.724
406.4589, 1158.622
406.9410, 1170.412
407.4231, 1186.112
407.9052, 1212.111
408.3873, 1247.931
408.8694, 1284.657
409.3516, 1320.421
409.8336, 1359.741
410.3158, 1403.569
410.7979, 1451.125
411.2800, 1503.627
411.7621, 1561.710
412.2442, 1617.612
412.7263, 1658.264
413.2085, 1682.275
413.6906, 1715.926
414.1727, 1762.889
414.6548, 1821.092
415.1369, 1894.384
415.6190, 1978.239
416.1012, 2053.258
416.5833, 2105.044
417.0654, 2147.636
417.5475, 2199.557
418.0296, 2260.501
418.5117, 2317.702
418.9939, 2364.770
419.4760, 2404.201
419.9581, 2444.095
420.4402, 2497.851
420.9223, 2525.579
421.4044, 2505.840
421.8866, 2461.611
422.3687, 2417.160
422.8508, 2376.730
423.3329, 2333.060
423.8150, 2279.854
424.2971, 2217.431
424.7793, 2143.123
425.2614, 2043.890
425.7435, 1947.284
426.2256, 1859.635
426.7077, 1778.720
427.1898, 1699.614
427.6720, 1620.764
428.1541, 1545.395
428.6362, 1479.302
429.1183, 1423.659
429.6004, 1370.668
430.0826, 1317.880
430.5647, 1269.282
431.0468, 1226.882
431.5289, 1190.381
432.0110, 1157.965
432.4931, 1130.069
432.9753, 1105.128
433.4574, 1081.189
433.9395, 1058.121
434.4216, 1035.658
434.9037, 1012.744
435.3858, 991.0231
435.8680, 974.5170
436.3501, 964.7784
436.8322, 955.3919
437.3143, 946.7256
437.7964, 936.5389
438.2785, 919.0955
438.7607, 895.3352
439.2428, 876.5555
439.7249, 874.7010
440.2070, 889.3771
440.6891, 890.4075
441.1712, 860.2848
441.6534, 836.2604
442.1355, 825.3957
442.6176, 824.2293
443.0997, 830.4139
443.5818, 842.8477
444.0639, 856.2114
444.5461, 863.2316
445.0282, 863.5087
445.5103, 863.7313
445.9924, 864.0616
446.4745, 864.8527
446.9566, 867.9955
447.4388, 871.8021
447.9209, 871.6266
448.4030, 862.5925
448.8851, 852.1595
449.3672, 846.0471
449.8493, 844.7781
450.3315, 853.8574
450.8136, 878.7211
451.2957, 907.7930
451.7778, 920.4256
452.2599, 911.6081
452.7420, 906.2035
453.2242, 905.9444
453.7063, 910.4025
454.1884, 920.6564
454.6705, 935.6219
455.1526, 951.4840
455.6347, 965.2043
456.1169, 979.0098
456.5990, 1003.287
457.0811, 1051.243
457.5632, 1087.535
458.0453, 1105.363
458.5274, 1113.239
459.0095, 1113.210
459.4916, 1107.763
459.9738, 1106.360
460.4559, 1120.464
460.9380, 1145.863
461.4201, 1163.315
461.9022, 1170.477
462.3843, 1177.123
462.8665, 1189.331
463.3486, 1204.256
463.8307, 1217.532
464.3128, 1230.972
464.7949, 1238.055
465.2770, 1228.455
465.7592, 1212.170
466.2413, 1210.035
466.7234, 1225.968
467.2055, 1240.062
467.6876, 1231.923
468.1697, 1199.964
468.6519, 1170.607
469.1340, 1140.505
469.6161, 1116.295
470.0982, 1104.899
470.5803, 1098.593
471.0624, 1086.133
471.5446, 1063.735
472.0267, 1038.441
472.5088, 1019.847
472.9909, 1008.530
473.4730, 999.1649
473.9551, 996.5159
474.4373, 989.0388
474.9194, 965.4310
475.4015, 933.1224
475.8836, 909.6761
476.3657, 906.2526
476.8478, 906.7065
477.3300, 891.9647
477.8121, 866.1587
478.2942, 850.0790
478.7763, 852.3223
479.2584, 859.2050
479.7405, 851.7054
480.2227, 825.1506
480.7048, 805.6697
481.1869, 798.5522
481.6690, 794.2654
482.1511, 788.0153
482.6332, 780.3304
483.1154, 772.8530
483.5975, 766.3478
484.0796, 761.6511
484.5617, 761.3788
485.0438, 768.0441
485.5259, 771.9232
486.0081, 768.9510
486.4902, 765.7159
486.9723, 767.5276
487.4544, 772.2513
487.9365, 772.2736
488.4186, 759.6763
488.9008, 743.5725
489.3829, 738.5804
489.8650, 744.3500
490.3471, 751.9479
490.8292, 759.5136
491.3113, 765.5638
491.7935, 766.5706
492.2756, 761.4250
492.7577, 758.7202
493.2398, 763.2874
493.7219, 767.8552
494.2040, 764.5536
494.6862, 755.9411
495.1683, 752.2246
495.6504, 759.9973
496.1325, 773.3362
496.6146, 773.5942
497.0967, 748.6365
497.5789, 736.3892
498.0610, 752.3093
498.5431, 770.7164
499.0252, 773.3463
499.5073, 763.2540
499.9894, 758.2247
500.4716, 773.8831
500.9537, 797.9326
501.4358, 803.8204
501.9179, 790.7429
502.4000, 787.4608
502.8821, 809.9843
503.3643, 842.3455
503.8464, 858.5867
504.3285, 857.4197
504.8106, 852.8148
505.2927, 842.8819
505.7748, 834.0468
506.2570, 832.2339
506.7391, 836.5144
507.2212, 842.0178
507.7033, 845.7177
508.1854, 849.6146
508.6675, 861.1181
509.1496, 890.1584
509.6317, 905.3072
510.1139, 894.7814
510.5960, 878.3568
511.0781, 863.4284
511.5602, 852.3309
512.0424, 848.8773
512.5245, 860.2427
513.0066, 876.5764
513.4887, 879.4347
513.9708, 869.0024
514.4529, 860.5751
514.9351, 860.4379
515.4172, 863.7709
515.8993, 863.6896
516.3814, 860.3492
516.8635, 853.9917
517.3456, 843.7215
517.8278, 831.2183
518.3099, 815.0159
518.7920, 797.4729
519.2741, 785.0950
519.7562, 781.4901
520.2383, 781.8363
520.7205, 773.8595
521.2026, 751.2731
521.6847, 738.9164
522.1668, 749.8840
522.6489, 761.7521
523.1310, 762.4057
523.6132, 755.0397
524.0953, 750.2180
524.5774, 754.7527
525.0595, 761.1752
525.5416, 760.8109
526.0237, 754.2919
526.5059, 744.5944
526.9880, 731.8013
527.4701, 718.3373
527.9522, 706.8415
528.4343, 697.5837
528.9164, 689.7759
529.3986, 685.4038
529.8807, 680.4044
530.3628, 672.4758
530.8449, 662.7733
531.3270, 651.9503
531.8091, 640.4820
532.2913, 632.3432
532.7734, 636.4698
533.2554, 655.3086
533.7375, 663.0198
534.2197, 653.5518
534.7018, 640.2492
535.1839, 627.5106
535.6660, 616.5748
536.1481, 610.0126
536.6302, 609.3812
537.1124, 611.2058
537.5945, 613.5475
538.0766, 616.5402
538.5587, 620.9711
539.0408, 626.9556
539.5229, 632.4884
540.0051, 635.8021
540.4872, 636.9227
540.9693, 636.3647
541.4514, 635.1465
541.9335, 630.9549
542.4156, 619.8610
542.8978, 607.7767
543.3799, 599.9610
543.8620, 597.4799
544.3441, 598.5519
544.8262, 602.5653
545.3083, 608.9019
545.7905, 616.1246
546.2726, 625.3863
546.7547, 629.9231
547.2368, 626.2894
547.7189, 616.1893
548.2010, 600.9332
548.6832, 576.8676
549.1653, 562.6410
549.6474, 568.1360
550.1295, 581.9562
550.6116, 597.5782
551.0938, 612.3541
551.5759, 620.9458
552.0580, 619.6508
552.5401, 612.9666
553.0222, 613.5646
553.5043, 626.4677
553.9865, 633.6161
554.4686, 628.7966
554.9507, 621.8237
555.4328, 615.4958
555.9149, 610.8766
556.3970, 610.5413
556.8792, 618.9042
557.3613, 627.4756
557.8434, 624.4910
558.3255, 613.2886
558.8076, 606.7933
559.2897, 608.5079
559.7719, 615.8266
560.2540, 628.2589
560.7361, 647.3530
561.2182, 652.0181
561.7003, 624.2328
562.1824, 605.2703
562.6646, 616.9335
563.1467, 639.1344
563.6288, 644.2366
564.1109, 626.6642
564.5930, 608.1845
565.0751, 613.3156
565.5573, 638.3582
566.0394, 658.2764
566.5215, 672.2390
567.0036, 683.7592
567.4857, 694.9753
567.9678, 704.3472
568.4500, 706.4893
568.9321, 694.6894
569.4142, 698.5394
569.8963, 741.9648
570.3784, 793.2576
570.8605, 822.9196
571.3427, 832.6275
571.8248, 838.1743
572.3069, 848.1780
572.7890, 862.5227
573.2711, 884.0068
573.7532, 920.5963
574.2354, 938.0673
574.7175, 916.9809
575.1996, 892.1218
575.6817, 883.2587
576.1638, 885.6782
576.6459, 885.6270
577.1281, 878.0605
577.6102, 867.2888
578.0923, 853.8442
578.5744, 840.2985
579.0565, 831.9532
579.5386, 829.9960
580.0208, 837.4154
580.5029, 859.8809
580.9850, 896.7371
581.4671, 918.4636
581.9492, 908.9579
582.4313, 903.4465
582.9135, 903.6188
583.3956, 911.5082
583.8777, 932.8608
584.3598, 966.0129
584.8419, 996.7895
585.3240, 1013.450
585.8062, 1021.241
586.2883, 1034.110
586.7704, 1052.007
587.2525, 1061.113
587.7346, 1056.800
588.2167, 1039.987
588.6989, 1009.721
589.1810, 960.8913
589.6631, 919.2582
590.1452, 882.9603
590.6273, 856.4548
591.1094, 846.9189
591.5916, 847.4460
592.0737, 846.9724
592.5558, 841.4589
593.0379, 835.1489
593.5200, 835.8060
594.0021, 842.5095
594.4843, 837.1351
594.9664, 813.1025
595.4485, 793.8319
595.9306, 795.0853
596.4127, 808.9329
596.8948, 817.9357
597.3770, 821.2218
597.8591, 821.3697
598.3412, 813.5359
598.8233, 806.9350
599.3054, 817.1597
599.7875, 837.7227
600.2697, 844.1182
600.7518, 821.5263
601.2339, 780.6297
601.7160, 743.3781
602.1981, 708.5400
602.6802, 683.7245
603.1624, 674.4152
603.6445, 669.5801
604.1266, 663.3262
604.6087, 655.9548
605.0908, 647.7489
605.5729, 635.7231
606.0551, 627.9838
606.5372, 632.5718
607.0193, 643.1279
607.5014, 650.9775
607.9835, 654.3639
608.4656, 653.6079
608.9478, 648.2730
609.4299, 639.7068
609.9120, 634.9553
610.3941, 635.8831
610.8762, 636.6681
611.3583, 637.0834
611.8405, 636.5094
612.3226, 633.7197
612.8047, 629.3614
613.2868, 626.0316
613.7689, 624.1617
614.2510, 624.4391
614.7332, 628.1036
615.2153, 634.3790
615.6974, 641.1661
616.1795, 647.9736
616.6616, 656.2864
617.1437, 668.8440
617.6259, 685.2787
618.1080, 691.6780
618.5901, 673.3655
619.0722, 666.3917
619.5543, 681.2737
620.0364, 706.0531
620.5186, 734.6711
