##NAMES=Skutterudite
##RRUFFID=R050593
##IDEAL CHEMISTRY=Co^3+^As_3_
##LOCALITY=Bou Azzer, Morocco
##OWNER=RRUFF
##SOURCE=Marcus Origlieri
##DESCRIPTION=Gray metallic, massive to coarsely crystalline
##STATUS=The identification of this mineral has been confirmed by X-ray diffraction and chemical analysis
##URL=rruff.info/R050593
##MEASURED CHEMISTRY=(Co_0.86_Fe_0.11_Ni_0.07_)_Σ=1.04_(As_2.93_S_0.07_)_Σ=3.00_
92.06543, 302.3210
92.54755, 300.9214
93.02966, 302.0373
93.51178, 307.1507
93.99390, 307.6240
94.47601, 301.1246
94.95813, 289.9183
95.44025, 277.9874
95.92236, 268.4331
96.40448, 261.3511
96.88660, 254.3173
97.36871, 248.0729
97.85082, 241.5873
98.33294, 233.8741
98.81506, 224.6801
99.29717, 214.9333
99.77929, 207.2431
100.2614, 201.4758
100.7435, 194.0368
101.2256, 182.0394
101.7078, 167.7150
102.1899, 156.3914
102.6720, 149.7570
103.1541, 145.6211
103.6362, 141.5003
104.1183, 137.3914
104.6005, 133.8069
105.0826, 131.4760
105.5647, 130.5888
106.0468, 129.2897
106.5289, 127.5898
107.0110, 125.0816
107.4931, 121.1416
107.9753, 115.6050
108.4574, 109.3242
108.9395, 103.9449
109.4216, 99.84848
109.9037, 96.17248
110.3858, 92.94910
110.8680, 89.97924
111.3501, 87.04966
111.8322, 84.02444
112.3143, 80.98634
112.7964, 78.42997
113.2785, 76.56184
113.7607, 74.89151
114.2428, 73.31602
114.7249, 71.84617
115.2070, 70.49845
115.6891, 69.26640
116.1712, 68.18511
116.6534, 67.47617
117.1355, 67.40743
117.6176, 67.49837
118.0997, 67.24010
118.5818, 66.55741
119.0639, 66.10915
119.5461, 66.48257
120.0282, 67.56491
120.5103, 69.28677
120.9924, 72.11247
121.4745, 75.54692
121.9566, 78.52010
122.4388, 81.03277
122.9209, 82.81071
123.4030, 83.87486
123.8851, 84.24084
124.3672, 83.95092
124.8493, 82.89767
125.3315, 81.03733
125.8136, 79.03264
126.2957, 76.27122
126.7778, 73.87925
127.2599, 72.69788
127.7420, 72.64597
128.2242, 72.72627
128.7063, 71.44760
129.1884, 67.58775
129.6705, 64.89339
130.1526, 64.11774
130.6347, 63.85104
131.1169, 63.12542
131.5990, 61.60250
132.0811, 59.50354
132.5632, 57.30626
133.0453, 54.74609
133.5274, 52.39788
134.0096, 50.04094
134.4917, 47.96331
134.9738, 46.69202
135.4559, 46.55306
135.9380, 47.19624
136.4201, 47.42455
136.9023, 47.08245
137.3844, 46.64121
137.8665, 46.32759
138.3486, 46.09978
138.8307, 45.75800
139.3128, 45.17119
139.7950, 44.39122
140.2771, 43.58647
140.7592, 42.74004
141.2413, 41.89386
141.7234, 41.10967
142.2055, 40.41069
142.6877, 39.66805
143.1698, 38.63378
143.6519, 37.56171
144.1340, 36.77217
144.6161, 36.45744
145.0982, 36.46438
145.5803, 36.41917
146.0625, 36.39779
146.5446, 36.17354
147.0267, 35.54332
147.5088, 34.70731
147.9909, 33.96331
148.4730, 33.50882
148.9552, 33.33250
149.4373, 33.21320
149.9194, 33.22480
150.4015, 33.22864
150.8836, 33.22266
151.3657, 33.18386
151.8479, 33.05989
152.3300, 32.78067
152.8121, 32.28051
153.2942, 32.03825
153.7763, 32.31207
154.2584, 32.56295
154.7406, 32.54063
155.2227, 32.22057
155.7048, 31.69923
156.1869, 31.04914
156.6690, 30.19727
157.1511, 29.52057
157.6333, 28.96280
158.1154, 28.60244
158.5975, 28.60022
159.0796, 28.99954
159.5617, 29.50443
160.0438, 29.68278
160.5260, 29.51284
161.0081, 29.46824
161.4902, 29.81183
161.9723, 30.32833
162.4544, 30.59982
162.9365, 30.46633
163.4187, 30.19183
163.9008, 30.07624
164.3829, 30.11061
164.8650, 30.17784
165.3471, 30.19049
165.8292, 30.16672
166.3113, 30.23815
166.7935, 30.52555
167.2756, 30.83003
167.7577, 31.04153
168.2398, 31.15013
168.7219, 31.11862
169.2040, 30.86761
169.6862, 30.36242
170.1683, 29.87725
170.6504, 29.43006
171.1325, 29.03510
171.6146, 28.69259
172.0967, 28.40681
172.5789, 28.19570
173.0610, 28.11708
173.5431, 28.29564
174.0252, 28.31413
174.5073, 28.10233
174.9894, 27.77987
175.4716, 27.37404
175.9537, 26.91155
176.4358, 26.48228
176.9179, 26.26391
177.4000, 26.23697
177.8821, 26.50588
178.3643, 27.41749
178.8464, 28.46324
179.3285, 29.04749
179.8106, 28.92884
180.2927, 28.43062
180.7748, 28.44106
181.2570, 29.74949
181.7391, 30.58778
182.2212, 30.50179
182.7033, 29.87364
183.1854, 29.19346
183.6675, 28.63114
184.1497, 28.27944
184.6318, 28.53082
185.1139, 29.86207
185.5960, 30.92776
186.0781, 31.09246
186.5602, 30.59584
187.0423, 30.08444
187.5245, 29.78296
188.0066, 29.74557
188.4887, 30.03643
188.9708, 30.80031
189.4529, 31.61968
189.9350, 32.26794
190.4172, 32.74729
190.8993, 33.08424
191.3814, 33.07264
191.8635, 33.05598
192.3456, 33.56299
192.8277, 34.84282
193.3099, 36.25338
193.7920, 37.10081
194.2741, 37.30488
194.7562, 37.55481
195.2383, 38.12754
195.7204, 38.89022
196.2026, 39.88368
196.6847, 41.24846
197.1668, 42.45984
197.6489, 42.66189
198.1310, 41.59256
198.6131, 40.22140
199.0953, 38.64827
199.5774, 37.01070
200.0595, 35.40210
200.5416, 33.83649
201.0237, 32.39394
201.5058, 31.28152
201.9880, 30.64882
202.4701, 30.10149
202.9522, 29.57909
203.4343, 29.08662
203.9164, 28.59866
204.3985, 28.09931
204.8807, 27.66122
205.3628, 27.52518
205.8449, 28.06807
206.3270, 28.43279
206.8091, 28.41932
207.2912, 28.22289
207.7733, 28.01826
208.2555, 27.88789
208.7376, 27.87651
209.2197, 28.15581
209.7018, 29.32057
210.1839, 30.11059
210.6660, 30.10335
211.1482, 29.70485
211.6303, 29.48712
212.1124, 29.75146
212.5945, 30.37271
213.0766, 30.85282
213.5587, 30.99161
214.0409, 31.23406
214.5230, 31.95080
215.0051, 32.80870
215.4872, 33.18919
215.9693, 32.74129
216.4514, 31.65877
216.9336, 30.66776
217.4157, 29.82762
217.8978, 28.97528
218.3799, 28.02844
218.8620, 27.02565
219.3441, 26.02833
219.8263, 25.03083
220.3084, 24.11156
220.7905, 23.45266
221.2726, 23.07280
221.7547, 22.86263
222.2368, 22.85955
222.7190, 23.01133
223.2011, 23.08878
223.6832, 22.93541
224.1653, 22.70515
224.6474, 22.70626
225.1295, 23.03735
225.6117, 23.36018
226.0938, 23.43022
226.5759, 23.27306
227.0580, 23.09094
227.5401, 22.89490
228.0222, 22.76588
228.5043, 22.80227
228.9865, 23.03627
229.4686, 23.32571
229.9507, 23.62233
230.4328, 23.92455
230.9149, 24.00231
231.3970, 23.44540
231.8792, 22.88576
232.3613, 22.96821
232.8434, 23.80971
233.3255, 24.71854
233.8076, 24.96465
234.2897, 24.48743
234.7719, 24.06006
235.2540, 23.94150
235.7361, 23.86890
236.2182, 23.62758
236.7003, 23.19714
237.1824, 22.81396
237.6646, 22.73115
238.1467, 22.97857
238.6288, 23.36325
239.1109, 24.15116
239.5930, 24.86472
240.0751, 25.16765
240.5573, 25.05613
241.0394, 24.86530
241.5215, 25.03571
242.0036, 25.71348
242.4857, 26.15576
242.9678, 26.12584
243.4500, 26.01132
243.9321, 25.95472
244.4142, 25.99300
244.8963, 26.12673
245.3784, 26.40065
245.8605, 26.90817
246.3427, 27.20447
246.8248, 27.15410
247.3069, 27.02324
247.7890, 26.89016
248.2711, 26.78727
248.7532, 26.74841
249.2354, 26.82564
249.7175, 27.06686
250.1996, 27.21625
250.6817, 27.21057
251.1638, 27.18189
251.6459, 27.12601
252.1281, 27.08576
252.6102, 27.16326
253.0923, 27.46652
253.5744, 28.02375
254.0565, 28.63689
254.5386, 29.64517
255.0208, 30.39782
255.5029, 30.56475
255.9850, 30.19108
256.4671, 29.53370
256.9492, 28.80544
257.4313, 28.01843
257.9135, 27.00696
258.3956, 25.40052
258.8777, 23.97465
259.3598, 23.07922
259.8419, 22.65665
260.3240, 22.45049
260.8062, 22.27598
261.2883, 22.13432
261.7704, 22.13568
262.2525, 22.47995
262.7346, 22.73388
263.2167, 22.65952
263.6989, 22.34259
264.1810, 22.02355
264.6631, 21.84900
265.1452, 21.80903
265.6273, 21.81364
266.1094, 22.00291
266.5916, 22.08163
267.0737, 21.93912
267.5558, 21.60548
268.0379, 21.10283
268.5200, 20.37979
269.0021, 19.56458
269.4843, 19.21255
269.9664, 19.72147
270.4485, 20.10486
270.9306, 19.91816
271.4127, 19.38413
271.8948, 19.01242
272.3770, 19.07514
272.8591, 19.34206
273.3412, 19.13936
273.8233, 18.13977
274.3054, 17.44021
274.7875, 17.58744
275.2697, 18.24087
275.7518, 18.77606
276.2339, 18.97816
276.7160, 18.96926
277.1981, 18.95600
277.6802, 18.95290
278.1623, 18.89995
278.6444, 18.69369
279.1266, 18.44436
279.6087, 18.36731
280.0908, 18.54459
280.5729, 18.80069
281.0550, 18.88484
281.5371, 18.80160
282.0193, 18.72457
282.5014, 18.67604
282.9835, 18.66631
283.4656, 18.73417
283.9477, 18.90051
284.4298, 19.06171
284.9120, 19.05945
285.3941, 18.92292
285.8762, 18.89165
286.3583, 19.13007
286.8404, 19.44619
287.3225, 19.59828
287.8047, 19.55491
288.2868, 19.44311
288.7689, 19.33993
289.2510, 19.24752
289.7331, 19.17187
290.2152, 19.13412
290.6974, 19.10214
291.1795, 19.01840
291.6616, 18.87881
292.1437, 18.80044
292.6258, 18.91820
293.1079, 19.13683
293.5901, 19.22528
294.0722, 19.07249
294.5543, 18.88231
295.0364, 18.81930
295.5185, 18.87900
296.0006, 18.99230
296.4828, 19.16975
296.9649, 19.35610
297.4470, 19.46413
297.9291, 19.48434
298.4112, 19.44187
298.8933, 19.34961
299.3755, 19.20827
299.8576, 18.99947
300.3397, 18.63578
300.8218, 18.29513
301.3039, 18.23573
301.7860, 18.49616
302.2682, 18.74194
302.7503, 18.72871
303.2324, 18.54156
303.7145, 18.50594
304.1966, 18.77525
304.6787, 19.06989
305.1609, 19.03616
305.6430, 18.71672
306.1251, 18.48712
306.6072, 18.64230
307.0893, 18.98520
307.5714, 19.07582
308.0536, 18.82414
308.5357, 18.43640
309.0178, 17.96768
309.4999, 17.48115
309.9820, 17.18936
310.4641, 17.22431
310.9463, 17.46875
311.4284, 17.82256
311.9105, 18.32426
312.3926, 18.69940
312.8747, 18.68188
313.3568, 18.42373
313.8390, 18.17063
314.3211, 17.88797
314.8032, 17.71206
315.2853, 17.86357
315.7674, 18.34977
316.2495, 18.76951
316.7317, 18.95576
317.2138, 18.94990
317.6959, 18.79460
318.1780, 18.40763
318.6601, 18.09268
319.1422, 18.13010
319.6243, 18.47263
320.1064, 18.81165
320.5886, 19.12772
321.0707, 19.30462
321.5528, 19.16685
322.0349, 18.68921
322.5170, 18.26597
322.9991, 18.17179
323.4813, 18.29695
323.9634, 18.31460
324.4455, 18.13057
324.9276, 17.90763
325.4097, 17.82533
325.8918, 17.85523
326.3740, 17.86591
326.8561, 17.73625
327.3382, 17.58413
327.8203, 17.62418
328.3024, 17.90222
328.7845, 18.21944
329.2667, 18.45800
329.7488, 18.62133
330.2309, 18.70825
330.7130, 18.70584
331.1951, 18.63458
331.6772, 18.50810
332.1594, 18.32661
332.6415, 18.09458
333.1236, 17.74893
333.6057, 17.38704
334.0878, 17.20776
334.5699, 17.29779
335.0521, 17.42403
335.5342, 17.51408
336.0163, 17.53751
336.4984, 17.30793
336.9805, 16.61546
337.4626, 15.84900
337.9448, 15.65937
338.4269, 16.10244
338.9090, 16.55198
339.3911, 16.79211
339.8732, 16.86538
340.3553, 16.80433
340.8375, 16.58058
341.3196, 16.37110
341.8017, 16.46051
342.2838, 16.81181
342.7659, 16.96083
343.2480, 16.58700
343.7302, 16.09987
344.2123, 16.03580
344.6944, 16.42673
345.1765, 16.70378
345.6586, 16.34731
346.1407, 15.48803
346.6229, 15.03220
347.1050, 15.26173
347.5871, 15.65241
348.0692, 15.96178
348.5513, 16.18304
349.0334, 16.31232
349.5156, 16.35167
349.9977, 16.28682
350.4798, 16.05701
350.9619, 15.55148
351.4440, 15.13363
351.9261, 14.91969
352.4083, 14.86977
352.8904, 14.95957
353.3725, 15.19808
353.8546, 15.45820
354.3367, 15.53838
354.8188, 15.38073
355.3010, 15.29136
355.7831, 15.34466
356.2652, 15.44794
356.7473, 15.53121
357.2294, 15.58259
357.7115, 15.60977
358.1937, 15.63146
358.6758, 15.64621
359.1579, 15.53610
359.6400, 15.03678
360.1221, 14.67907
360.6042, 14.86449
361.0863, 15.41805
361.5685, 15.86730
362.0506, 15.94919
362.5327, 15.72648
363.0148, 15.44466
363.4969, 14.90234
363.9790, 14.55560
364.4612, 14.59755
364.9433, 14.82055
365.4254, 14.95954
365.9075, 14.93004
366.3896, 14.86548
366.8717, 15.00935
367.3539, 15.64666
367.8360, 15.80519
368.3181, 14.94624
368.8002, 14.05675
369.2823, 13.88306
369.7644, 14.40095
370.2466, 15.05199
370.7287, 15.33605
371.2108, 15.23174
371.6929, 15.10545
372.1750, 14.93283
372.6571, 14.76533
373.1393, 14.60260
373.6214, 14.45708
374.1035, 14.34270
374.5856, 14.26733
375.0677, 14.23098
375.5498, 14.23871
376.0320, 14.36043
376.5141, 14.41997
376.9962, 14.32355
377.4783, 14.20953
377.9604, 14.23580
378.4425, 14.42549
378.9247, 14.62774
379.4068, 14.61212
379.8889, 14.28614
380.3710, 14.06630
380.8531, 14.02664
381.3352, 14.02675
381.8174, 14.05799
382.2995, 14.08369
382.7816, 14.01869
383.2637, 13.75943
383.7458, 13.35350
384.2279, 13.13919
384.7101, 13.20303
385.1922, 13.34225
385.6743, 13.57756
386.1564, 13.81051
386.6385, 13.91489
387.1206, 13.83152
387.6028, 13.64905
388.0849, 13.48699
388.5670, 13.33624
389.0491, 13.25201
389.5312, 13.26832
390.0133, 13.34561
390.4955, 13.44968
390.9776, 13.58204
391.4597, 13.78998
391.9418, 14.27209
392.4239, 14.92551
392.9060, 15.04757
393.3882, 14.26454
393.8703, 13.52460
394.3524, 13.64635
394.8345, 14.25926
395.3166, 14.54705
395.7987, 13.95627
396.2809, 13.09089
396.7630, 12.84448
397.2451, 13.25679
397.7272, 13.63919
398.2093, 13.61580
398.6914, 13.42865
399.1736, 13.47392
399.6557, 13.82365
400.1378, 14.21334
400.6199, 14.59386
401.1020, 14.89743
401.5841, 14.87550
402.0662, 14.39061
402.5483, 13.81575
403.0305, 13.64627
403.5126, 13.85152
403.9947, 13.93997
404.4768, 13.66683
404.9589, 13.34450
405.4410, 13.29245
405.9232, 13.50656
406.4053, 13.77605
406.8874, 14.00722
407.3695, 14.16710
407.8516, 14.10918
408.3337, 13.61587
408.8159, 13.18950
409.2980, 12.99053
409.7801, 12.95625
410.2622, 12.98876
410.7443, 13.05504
411.2264, 13.17568
411.7086, 13.39414
412.1907, 13.78633
412.6728, 14.08385
413.1549, 14.37279
413.6370, 14.50458
414.1191, 14.25977
414.6013, 13.72352
415.0834, 13.23693
415.5655, 13.07336
416.0476, 13.21621
416.5297, 13.38882
417.0118, 13.65679
417.4940, 13.87824
417.9761, 14.02057
418.4582, 14.10663
418.9403, 14.15849
419.4224, 14.18603
419.9045, 14.19631
420.3867, 14.19794
420.8688, 14.17991
421.3509, 14.18335
421.8330, 14.34941
422.3151, 14.41891
422.7972, 14.14399
423.2794, 13.61305
423.7615, 13.16142
424.2436, 13.05800
424.7257, 13.26346
425.2078, 13.54235
425.6899, 14.04083
426.1721, 14.34504
426.6542, 14.15893
427.1363, 13.78183
427.6184, 13.58556
428.1005, 13.70826
428.5826, 13.92348
429.0648, 13.94064
429.5469, 13.75663
430.0290, 13.62396
430.5111, 13.62414
430.9932, 13.66466
431.4753, 13.66690
431.9575, 13.63354
432.4396, 13.58710
432.9217, 13.52609
433.4038, 13.46314
433.8859, 13.44376
434.3680, 13.48116
434.8502, 13.44948
435.3323, 13.21140
435.8144, 12.85741
436.2965, 12.63951
436.7786, 12.59472
437.2607, 12.64263
437.7429, 12.87203
438.2250, 13.15638
438.7071, 13.13383
439.1892, 12.64890
439.6713, 12.06916
440.1534, 11.94102
440.6356, 12.39829
441.1177, 12.71020
441.5998, 12.81052
442.0819, 12.77639
442.5640, 12.58856
443.0461, 12.29734
443.5282, 12.05033
444.0103, 11.94533
444.4925, 11.96950
444.9746, 12.05641
445.4567, 12.34371
445.9388, 12.52199
446.4209, 12.52306
446.9030, 12.41750
447.3852, 12.24374
447.8673, 12.02611
448.3494, 11.82196
448.8315, 11.69836
449.3136, 11.65343
449.7957, 11.70012
450.2779, 12.01155
450.7600, 12.24408
451.2421, 12.17530
451.7242, 11.95180
452.2063, 11.89254
452.6884, 12.21389
453.1706, 12.68403
453.6527, 12.67523
454.1348, 11.96103
454.6169, 11.48544
455.0990, 11.81626
455.5811, 12.25072
456.0633, 12.21667
456.5454, 11.69259
457.0275, 11.26427
457.5096, 11.51469
457.9917, 12.22261
458.4738, 12.56780
458.9560, 12.41058
459.4381, 12.14738
459.9202, 12.04419
460.4023, 12.01901
460.8844, 11.90331
461.3665, 11.55650
461.8487, 11.27481
462.3308, 11.37964
462.8129, 11.75290
463.2950, 11.94240
463.7771, 11.75255
464.2592, 11.46934
464.7414, 11.55508
465.2235, 12.08634
465.7056, 12.41544
466.1877, 12.45643
466.6698, 12.28219
467.1519, 11.78324
467.6341, 11.07166
468.1162, 10.62700
468.5983, 10.82210
469.0804, 11.43231
469.5625, 10.53997
470.0446, 11.65855
470.5268, 12.29074
471.0089, 12.46267
471.4910, 10.79583
471.9731, 11.50338
472.4552, 11.25939
472.9373, 10.97637
473.4195, 12.01811
473.9016, 10.61872
474.3837, 11.63945
474.8658, 11.69411
475.3479, 12.19091
475.8300, 11.73029
476.3122, 11.56539
476.7943, 12.35822
477.2764, 11.92617
477.7585, 12.28795
478.2406, 12.13634
478.7227, 11.39058
479.2049, 10.87376
479.6870, 10.85494
480.1691, 10.99084
480.6512, 11.06458
481.1333, 11.07410
481.6154, 11.03942
482.0976, 10.92114
482.5797, 10.78572
483.0618, 10.72085
483.5439, 10.72659
484.0260, 10.83358
484.5081, 11.07456
484.9902, 11.42037
485.4724, 11.84276
485.9545, 12.45198
486.4366, 12.82094
486.9187, 12.63339
487.4008, 12.19724
487.8829, 11.91354
488.3651, 11.84450
488.8472, 11.85285
489.3293, 11.82335
489.8114, 11.75625
490.2935, 11.71578
490.7756, 11.71981
491.2578, 11.72441
491.7399, 11.63557
492.2220, 11.57020
492.7041, 11.75581
493.1862, 12.24745
493.6683, 12.77027
494.1505, 12.90165
494.6326, 12.53137
495.1147, 12.20664
495.5968, 11.96196
496.0789, 11.73260
496.5610, 11.34587
497.0432, 10.97716
497.5253, 11.02003
498.0074, 11.77003
498.4895, 12.75824
498.9716, 13.02717
499.4537, 12.44028
499.9359, 12.00925
500.4180, 12.14387
500.9001, 12.35509
501.3822, 12.15617
501.8643, 11.59319
502.3464, 11.18680
502.8286, 11.35159
503.3107, 11.74148
503.7928, 11.78232
504.2749, 11.45625
504.7570, 11.17983
505.2391, 11.17018
505.7213, 11.36109
506.2034, 11.59271
506.6855, 11.94004
507.1676, 12.15481
507.6497, 12.14889
508.1318, 11.98879
508.6140, 11.60033
509.0961, 11.04394
509.5782, 10.77051
510.0603, 11.25102
510.5424, 12.42553
511.0245, 13.04252
511.5067, 12.58529
511.9888, 12.19066
512.4709, 12.08875
512.9530, 12.12034
513.4351, 12.10493
513.9172, 11.99522
514.3994, 11.86547
514.8815, 11.79512
515.3636, 11.78398
515.8457, 11.85073
516.3278, 12.18539
516.8099, 12.33351
517.2921, 11.89926
517.7742, 11.23870
518.2563, 10.93450
518.7384, 11.24533
519.2205, 11.72872
519.7026, 11.91951
520.1848, 11.84586
520.6669, 11.71006
521.1490, 11.51932
521.6311, 11.34661
522.1132, 11.30076
522.5953, 11.35413
523.0775, 11.35605
523.5596, 11.21371
524.0417, 11.07230
524.5238, 11.04416
525.0059, 11.10153
525.4880, 11.15091
525.9702, 11.14965
526.4523, 11.15404
526.9344, 11.26249
527.4165, 11.50630
527.8986, 11.78340
528.3807, 12.40039
528.8629, 12.76682
529.3450, 12.33725
529.8271, 11.40072
530.3092, 10.62016
530.7913, 10.36425
531.2734, 10.51506
531.7556, 10.87138
532.2377, 11.64058
532.7198, 12.02114
533.2019, 11.50727
533.6840, 10.88801
534.1661, 10.58192
534.6483, 10.56656
535.1304, 10.59828
535.6125, 10.49729
536.0946, 10.38268
536.5767, 10.53735
537.0588, 10.97992
537.5410, 11.28400
538.0231, 11.20636
538.5052, 10.97636
538.9873, 11.01932
539.4694, 11.40323
539.9515, 11.52948
540.4337, 10.88363
540.9158, 10.13648
541.3979, 10.10041
541.8800, 10.67959
542.3621, 11.06652
542.8442, 10.71583
543.3264, 9.909543
543.8085, 9.612779
544.2906, 10.34963
544.7726, 10.88930
545.2548, 11.14351
545.7369, 11.25420
546.2190, 11.26439
546.7011, 11.22052
547.1832, 11.21195
547.6653, 10.43510
548.1475, 11.53894
548.6296, 12.15639
549.1117, 12.31358
549.5938, 10.63200
550.0759, 11.32481
550.5580, 11.06608
551.0402, 10.76832
551.5223, 11.79532
552.0044, 10.38118
552.4865, 11.38717
552.9686, 11.42709
553.4507, 11.90916
553.9329, 11.43380
554.4150, 11.25416
554.8971, 12.03225
555.3792, 12.28004
555.8613, 11.69446
556.3434, 12.20463
556.8256, 10.75705
557.3077, 11.02743
557.7898, 12.03902
558.2719, 11.50159
558.7540, 12.02927
559.2361, 12.15129
559.7183, 10.42979
560.2004, 11.50692
560.6825, 11.53273
561.1646, 10.80339
561.6467, 10.42373
562.1288, 10.75072
562.6110, 11.21843
563.0931, 11.46255
563.5752, 11.45715
564.0573, 11.34455
564.5394, 11.18166
565.0215, 11.00476
565.5037, 10.91763
565.9858, 10.93269
566.4679, 10.96162
566.9500, 11.02587
567.4321, 11.03870
567.9142, 10.81810
568.3964, 10.33143
568.8785, 10.07282
569.3606, 10.40663
569.8427, 10.91137
570.3248, 11.22534
570.8069, 11.31773
571.2891, 11.14748
571.7712, 10.64021
572.2533, 10.01483
572.7354, 9.838133
573.2175, 10.57173
573.6996, 10.94020
574.1818, 10.66391
574.6639, 10.29532
575.1460, 10.14592
575.6281, 10.19389
576.1102, 10.30089
576.5923, 10.39813
577.0745, 10.46451
577.5566, 10.40694
578.0387, 10.16903
578.5208, 10.13097
579.0029, 10.57759
579.4850, 11.02252
579.9672, 11.06864
580.4493, 10.78968
580.9314, 10.51427
581.4135, 10.36756
581.8956, 10.27094
582.3777, 10.11598
582.8599, 9.938070
583.3420, 9.862584
583.8241, 9.927890
584.3062, 10.14822
584.7883, 10.62579
585.2704, 11.52665
585.7526, 11.78377
586.2347, 10.78632
586.7168, 9.843892
587.1989, 9.533484
587.6810, 9.648393
588.1631, 9.862279
