##NAMES=Skutterudite
##RRUFFID=R100195
##IDEAL CHEMISTRY=Co^3+^As_3_
##LOCALITY=Skutterud, Norway
##OWNER=RRUFF
##SOURCE=Royal Ontario Museum
##DESCRIPTION=Massive silver metallic associated with quartz
##STATUS=The identification of this mineral is confirmed by single-crystal X-ray diffraction and chemical analysis.
##URL=rruff.info/R100195
##MEASURED CHEMISTRY=(Co_0.90_Fe_0.08_Ni_0.05_)_Σ=1.03_(As_2.97_S_0.03_)_Σ=3.00_
160.9945, 50.37764
161.4766, 50.34779
161.9587, 50.98201
162.4408, 51.12805
162.9229, 50.39569
163.4050, 49.39669
163.8871, 48.66914
164.3693, 48.41334
164.8514, 48.50536
165.3335, 48.66740
165.8156, 49.09632
166.2977, 49.31926
166.7798, 49.11860
167.2620, 48.71117
167.7441, 48.44478
168.2262, 48.49182
168.7083, 48.71885
169.1904, 48.71914
169.6725, 48.27686
170.1547, 48.02803
170.6368, 48.43053
171.1189, 49.28562
171.6010, 49.92129
172.0831, 50.04983
172.5652, 49.72639
173.0474, 49.13215
173.5295, 48.04296
174.0116, 47.11009
174.4937, 46.96981
174.9758, 47.61924
175.4579, 48.19495
175.9401, 48.08579
176.4222, 47.83718
176.9043, 48.07871
177.3864, 49.03000
177.8685, 50.24327
178.3506, 51.24422
178.8328, 52.08364
179.3149, 52.50561
179.7970, 52.05542
180.2791, 51.33759
180.7612, 50.81195
181.2433, 50.62179
181.7255, 50.77679
182.2076, 51.43499
182.6897, 53.27002
183.1718, 54.31313
183.6539, 53.67213
184.1360, 52.38000
184.6181, 51.50976
185.1003, 51.59479
185.5824, 52.34684
186.0645, 52.76135
186.5466, 52.91778
187.0287, 52.55345
187.5108, 51.04626
187.9930, 49.16975
188.4751, 47.90652
188.9572, 47.82815
189.4393, 48.73646
189.9214, 49.55455
190.4035, 50.37695
190.8857, 51.00384
191.3678, 51.37245
191.8499, 51.51755
192.3320, 51.47161
192.8141, 51.22950
193.2962, 50.83008
193.7784, 50.57710
194.2605, 50.02178
194.7426, 50.02024
195.2247, 51.26491
195.7068, 53.37693
196.1889, 55.30272
196.6711, 56.41365
197.1532, 56.78917
197.6353, 57.06065
198.1174, 57.40234
198.5995, 57.50183
199.0816, 56.93850
199.5638, 55.83473
200.0459, 55.04774
200.5280, 55.26439
201.0101, 56.12389
201.4922, 56.50132
201.9743, 56.19993
202.4565, 55.56916
202.9386, 54.67989
203.4207, 53.51081
203.9028, 52.77580
204.3849, 53.31889
204.8670, 54.39495
205.3492, 54.89906
205.8313, 54.40179
206.3134, 53.56596
206.7955, 53.25215
207.2776, 53.58359
207.7597, 53.86402
208.2419, 53.73828
208.7240, 53.41193
209.2061, 53.03914
209.6882, 52.64144
210.1703, 52.27384
210.6524, 52.14309
211.1346, 52.53023
211.6167, 52.39908
212.0988, 51.10639
212.5809, 49.33870
213.0630, 47.59337
213.5451, 46.01106
214.0273, 44.81725
214.5094, 44.73632
214.9915, 46.92921
215.4736, 48.09023
215.9557, 46.86880
216.4378, 44.79734
216.9200, 43.50208
217.4021, 43.73702
217.8842, 44.79924
218.3663, 44.65445
218.8484, 41.93104
219.3305, 39.95491
219.8127, 39.44130
220.2948, 39.66500
220.7769, 39.92493
221.2590, 39.90247
221.7411, 39.64465
222.2232, 39.28086
222.7054, 38.40142
223.1875, 37.93383
223.6696, 38.26585
224.1517, 38.91645
224.6338, 39.30801
225.1159, 39.18290
225.5980, 38.73768
226.0802, 38.54179
226.5623, 38.91989
227.0444, 39.16760
227.5265, 39.08495
228.0086, 38.88650
228.4907, 38.87679
228.9729, 39.19208
229.4550, 39.68513
229.9371, 39.96061
230.4192, 39.77283
230.9013, 39.76223
231.3834, 40.14960
231.8656, 40.74586
232.3477, 41.34475
232.8298, 41.90430
233.3119, 42.28472
233.7940, 42.03680
234.2761, 40.79718
234.7583, 39.95082
235.2404, 40.01707
235.7225, 40.67535
236.2046, 41.37381
236.6867, 41.93229
237.1688, 42.47762
237.6510, 43.32090
238.1331, 44.53684
238.6152, 45.55562
239.0973, 46.08276
239.5794, 46.28448
240.0615, 46.54105
240.5437, 47.01250
241.0258, 47.44011
241.5079, 47.34994
241.9900, 46.73759
242.4721, 46.36686
242.9542, 46.84556
243.4364, 47.81308
243.9185, 48.26385
244.4006, 47.78338
244.8827, 47.15605
245.3648, 47.18361
245.8469, 47.78826
246.3290, 48.51693
246.8112, 49.45275
247.2933, 50.37086
247.7754, 50.45568
248.2575, 49.12693
248.7396, 47.75239
249.2217, 47.67646
249.7039, 48.51512
250.1860, 48.95050
250.6681, 47.80577
251.1502, 45.61113
251.6323, 44.44363
252.1144, 45.02644
252.5966, 45.62011
253.0787, 44.94382
253.5608, 43.49022
254.0429, 42.37458
254.5250, 42.48288
255.0071, 43.43711
255.4893, 43.70537
255.9714, 42.83155
256.4535, 41.98162
256.9356, 41.73646
257.4177, 41.85391
257.8998, 41.96203
258.3820, 41.91831
258.8641, 41.69198
259.3462, 41.12156
259.8283, 39.90805
260.3104, 38.84267
260.7925, 38.09962
261.2747, 37.64471
261.7568, 37.51581
262.2389, 37.82270
262.7210, 38.29579
263.2031, 38.08364
263.6852, 36.65224
264.1674, 35.43081
264.6495, 34.74757
265.1316, 34.41387
265.6137, 34.23115
266.0958, 34.11101
266.5779, 34.11613
267.0601, 34.47028
267.5422, 35.62696
268.0243, 36.28523
268.5064, 36.05733
268.9885, 35.44574
269.4706, 34.84630
269.9528, 34.40518
270.4349, 34.08343
270.9170, 33.80853
271.3991, 33.57541
271.8812, 33.41126
272.3633, 33.38333
272.8455, 33.37094
273.3276, 33.26050
273.8097, 33.03372
274.2918, 32.78315
274.7739, 32.61850
275.2560, 32.42159
275.7382, 32.60163
276.2202, 33.64626
276.7024, 34.62680
277.1845, 34.88804
277.6666, 34.38641
278.1487, 33.57777
278.6308, 32.96939
279.1129, 32.51958
279.5951, 32.45543
280.0772, 33.21896
280.5593, 33.91935
281.0414, 33.88748
281.5235, 33.25761
282.0056, 32.77040
282.4878, 33.20987
282.9699, 34.79375
283.4520, 35.72943
283.9341, 35.72361
284.4162, 35.46885
284.8983, 35.09809
285.3805, 34.69740
285.8626, 34.36542
286.3447, 34.16578
286.8268, 34.10057
287.3089, 34.28867
287.7910, 35.18491
288.2732, 35.82918
288.7553, 35.89843
289.2374, 35.51319
289.7195, 34.85576
290.2016, 33.99586
290.6837, 33.03810
291.1659, 32.57331
291.6480, 33.14191
292.1301, 33.57063
292.6122, 33.56385
293.0943, 33.32993
293.5764, 33.15707
294.0586, 33.17577
294.5407, 33.34306
295.0228, 33.54383
295.5049, 34.16831
295.9870, 34.32831
296.4691, 33.45067
296.9513, 32.32640
297.4334, 31.84612
297.9155, 32.28994
298.3976, 33.23762
298.8797, 34.01757
299.3618, 34.72939
299.8440, 35.00120
300.3261, 34.54047
300.8082, 33.83307
301.2903, 33.18267
301.7724, 32.68017
302.2545, 32.37358
302.7367, 32.35662
303.2188, 32.76757
303.7009, 32.91522
304.1830, 32.53605
304.6651, 32.13333
305.1472, 31.85334
305.6294, 31.79461
306.1115, 32.27864
306.5936, 33.75618
307.0757, 36.34111
307.5578, 37.43476
308.0399, 35.85814
308.5221, 34.24767
309.0042, 33.93237
309.4863, 34.55095
309.9684, 34.96129
310.4505, 34.38674
310.9326, 33.01988
311.4148, 32.23269
311.8969, 32.62573
312.3790, 32.80700
312.8611, 31.92956
313.3432, 30.71668
313.8253, 30.51641
314.3075, 32.01044
314.7896, 34.41114
315.2717, 35.69507
315.7538, 35.06660
316.2359, 34.46148
316.7180, 33.95036
317.2001, 33.56828
317.6823, 33.36893
318.1644, 33.36469
318.6465, 33.50988
319.1286, 33.77186
319.6107, 34.35230
320.0928, 34.50194
320.5750, 33.65364
321.0571, 32.77653
321.5392, 32.78327
322.0213, 33.68247
322.5034, 34.64348
322.9855, 34.80364
323.4677, 34.00912
323.9498, 33.49553
324.4319, 33.55405
324.9140, 33.57755
325.3961, 33.10579
325.8782, 32.30400
326.3604, 31.71675
326.8425, 31.74398
327.3246, 32.33160
327.8067, 32.87484
328.2888, 33.81160
328.7709, 34.22698
329.2531, 33.34856
329.7352, 31.88634
330.2173, 31.11808
330.6994, 31.68958
331.1815, 32.97489
331.6636, 33.27704
332.1458, 31.04163
332.6279, 29.73078
333.1100, 30.12516
333.5921, 31.15866
334.0742, 31.87633
334.5563, 31.98359
335.0385, 31.64411
335.5206, 31.03243
336.0027, 29.81854
336.4848, 29.23358
336.9669, 29.73007
337.4490, 30.42200
337.9312, 30.78021
338.4133, 30.75987
338.8954, 30.57265
339.3775, 30.41448
339.8596, 30.29708
340.3417, 30.05057
340.8239, 29.56160
341.3060, 29.08054
341.7881, 28.57613
342.2702, 28.15103
342.7523, 28.00599
343.2344, 28.27702
343.7166, 28.89180
344.1987, 29.49807
344.6808, 30.67953
345.1629, 31.13492
345.6450, 30.04894
346.1271, 28.45489
346.6093, 27.56260
347.0914, 27.80453
347.5735, 28.61468
348.0556, 28.89740
348.5377, 28.13360
349.0198, 27.78369
349.5020, 28.22964
349.9841, 28.74864
350.4662, 28.63098
350.9483, 27.93926
351.4304, 27.49946
351.9125, 28.41674
352.3947, 31.11749
352.8768, 32.29633
353.3589, 30.38651
353.8410, 28.52659
354.3231, 27.79093
354.8052, 27.96692
355.2874, 28.44111
355.7695, 28.85370
356.2516, 29.17061
356.7337, 29.18093
357.2158, 28.49036
357.6979, 28.02893
358.1800, 28.10945
358.6621, 28.42666
359.1443, 28.62873
359.6264, 28.58200
360.1085, 28.44607
360.5906, 28.55966
361.0727, 29.13273
361.5548, 29.39695
362.0370, 29.16029
362.5191, 28.70348
363.0012, 28.08494
363.4833, 27.36413
363.9654, 26.72259
364.4475, 26.26328
364.9297, 25.96837
365.4118, 26.20439
365.8939, 27.87876
366.3760, 29.07279
366.8581, 28.64487
367.3402, 27.19602
367.8224, 25.97715
368.3045, 25.74067
368.7866, 26.22166
369.2687, 26.67064
369.7508, 27.08141
370.2329, 27.46997
370.7151, 28.09304
371.1972, 28.58444
371.6793, 28.45153
372.1614, 27.48949
372.6435, 26.36643
373.1256, 25.87628
373.6078, 26.04491
374.0899, 26.50390
374.5720, 27.65067
375.0541, 28.63141
375.5362, 28.72000
376.0183, 27.97564
376.5005, 27.12592
376.9826, 26.56401
377.4647, 26.26690
377.9468, 26.17952
378.4289, 26.37941
378.9110, 26.61227
379.3932, 26.76312
379.8753, 26.82250
380.3574, 26.73965
380.8395, 26.38281
381.3216, 25.98336
381.8037, 25.82614
382.2859, 25.91345
382.7680, 26.09964
383.2501, 26.33982
383.7322, 26.64057
384.2143, 27.07922
384.6964, 27.77530
385.1786, 28.18150
385.6607, 27.69868
386.1428, 26.67709
386.6249, 26.05822
387.1070, 26.09942
387.5891, 26.48100
388.0713, 27.03171
388.5534, 27.72793
389.0355, 28.00381
389.5176, 27.21362
389.9997, 26.28151
390.4818, 26.37355
390.9640, 27.47057
391.4461, 28.28097
391.9282, 27.80627
392.4103, 26.31414
392.8924, 25.37354
393.3745, 25.09955
393.8567, 25.19201
394.3388, 25.85971
394.8209, 26.77750
395.3030, 27.25444
395.7851, 27.00761
396.2672, 26.39720
396.7494, 26.04049
397.2315, 25.99218
397.7136, 26.10009
398.1957, 26.56359
398.6778, 27.04449
399.1599, 27.33730
399.6420, 27.38578
400.1241, 27.06942
400.6063, 26.16165
401.0884, 24.61324
401.5705, 24.11775
402.0526, 25.43747
402.5347, 26.80267
403.0168, 27.83679
403.4990, 28.52796
403.9811, 28.86141
404.4632, 28.82447
404.9453, 28.56183
405.4274, 28.41109
405.9095, 28.34414
406.3917, 28.46021
406.8738, 29.05205
407.3559, 29.59832
407.8380, 29.71591
408.3201, 29.37308
408.8022, 28.78387
409.2844, 28.06753
409.7665, 27.19186
410.2486, 26.78387
410.7307, 27.41550
411.2128, 27.91002
411.6949, 27.73731
412.1771, 27.23652
412.6592, 27.04865
413.1413, 27.56457
413.6234, 28.30671
414.1055, 28.07594
414.5876, 26.36143
415.0698, 25.23387
415.5519, 25.72972
416.0340, 26.62221
416.5161, 27.20103
416.9982, 27.35605
417.4803, 27.18718
417.9625, 26.51451
418.4446, 25.47781
418.9267, 25.12609
419.4088, 25.92480
419.8909, 26.70144
420.3730, 26.51551
420.8552, 25.77312
421.3373, 25.30162
421.8194, 25.52026
422.3015, 25.98005
422.7836, 26.17443
423.2657, 26.10466
423.7479, 25.87932
424.2300, 25.30520
424.7121, 24.82376
425.1942, 25.23052
425.6763, 26.75766
426.1584, 27.95534
426.6406, 28.13100
427.1227, 27.59539
427.6048, 26.63873
428.0869, 25.24583
428.5690, 24.21849
429.0511, 24.50518
429.5333, 26.10018
430.0154, 26.91147
430.4975, 26.41777
430.9796, 25.62331
431.4617, 24.91072
431.9438, 24.34151
432.4260, 24.02811
432.9081, 24.04155
433.3902, 24.27722
433.8723, 24.48686
434.3544, 24.50931
434.8365, 24.78649
435.3187, 25.82767
435.8008, 26.80085
436.2829, 26.88543
436.7650, 26.08183
437.2471, 25.03720
437.7292, 24.30359
438.2114, 23.87471
438.6935, 23.91974
439.1756, 25.24889
439.6577, 26.15282
440.1398, 25.97356
440.6219, 25.22294
441.1040, 24.53728
441.5862, 24.18843
442.0683, 24.13998
442.5504, 24.42648
443.0325, 25.28831
443.5146, 25.74548
443.9967, 25.16879
444.4789, 24.62418
444.9610, 24.77655
445.4431, 25.50476
445.9252, 26.20297
446.4073, 26.43226
446.8894, 26.28589
447.3716, 26.15372
447.8537, 26.14162
448.3358, 25.87516
448.8179, 24.83958
449.3000, 23.61164
449.7821, 22.83051
450.2643, 22.67058
450.7464, 22.75290
451.2285, 22.74709
451.7106, 22.69752
452.1927, 22.84638
452.6748, 23.28325
453.1570, 23.84021
453.6391, 24.41899
454.1212, 25.00044
454.6033, 25.45081
455.0854, 25.83899
455.5675, 26.00740
456.0497, 25.56726
456.5318, 24.66290
457.0139, 24.23192
457.4960, 24.95041
457.9781, 26.20268
458.4602, 26.16627
458.9424, 23.93925
459.4245, 22.52445
459.9066, 23.12325
460.3887, 24.40783
460.8708, 25.02571
461.3529, 24.78760
461.8351, 24.30563
462.3172, 24.16346
462.7993, 24.38112
463.2814, 24.32890
463.7635, 23.89739
464.2456, 23.34347
464.7278, 22.48675
465.2099, 21.62231
465.6920, 21.13587
466.1741, 21.17365
466.6562, 21.59927
467.1383, 22.27124
467.6205, 23.39994
468.1026, 24.13148
468.5847, 24.18351
469.0668, 24.05621
469.5489, 23.79397
470.0310, 23.52334
470.5132, 23.52482
470.9953, 24.07059
471.4774, 24.90711
471.9595, 25.37082
472.4416, 25.38722
472.9237, 25.30785
473.4059, 25.24972
473.8880, 25.14796
474.3701, 24.90326
474.8522, 24.49953
475.3343, 24.13632
475.8164, 24.07543
476.2986, 24.14030
476.7807, 23.76537
477.2628, 22.77816
477.7449, 21.96058
478.2270, 21.99943
478.7091, 22.72360
479.1913, 23.32728
479.6734, 23.94079
480.1555, 24.23712
480.6376, 23.76767
481.1197, 22.88652
481.6018, 22.29380
482.0839, 22.20967
482.5660, 22.57391
483.0482, 23.41269
483.5303, 25.04172
484.0124, 25.90108
484.4945, 25.47294
484.9766, 24.81225
485.4587, 24.33415
485.9409, 24.08895
486.4230, 24.13144
486.9051, 24.52285
487.3872, 25.02641
487.8693, 24.88913
488.3514, 23.45663
488.8336, 22.62220
489.3157, 22.76310
489.7978, 23.25563
490.2799, 23.87508
490.7620, 24.49041
491.2441, 24.84342
491.7263, 24.57517
492.2084, 23.88054
492.6905, 23.78793
493.1726, 24.61117
493.6547, 25.28083
494.1368, 25.17370
494.6190, 24.77781
495.1011, 24.59816
495.5832, 24.75082
496.0653, 24.89004
496.5474, 24.81070
497.0295, 24.51334
497.5117, 23.82036
497.9938, 22.52436
498.4759, 21.61862
498.9580, 22.29175
499.4401, 24.16450
499.9222, 25.14115
500.4044, 24.56321
500.8865, 23.61778
501.3686, 22.56576
501.8507, 21.63174
502.3328, 21.38677
502.8149, 22.04932
503.2971, 22.99011
503.7792, 23.25961
504.2613, 22.48273
504.7434, 22.43017
505.2255, 24.12290
505.7076, 25.45490
506.1898, 25.00720
506.6719, 23.47138
507.1540, 22.39689
507.6361, 22.61503
508.1182, 23.53608
508.6003, 23.72512
509.0825, 22.74582
509.5646, 22.20750
510.0467, 22.61295
510.5288, 23.20001
511.0109, 23.66061
511.4930, 23.95028
511.9752, 24.05865
512.4573, 23.85854
512.9394, 23.54910
513.4215, 23.73387
513.9036, 24.55568
514.3857, 24.93184
514.8679, 24.01661
515.3500, 22.76361
515.8321, 22.48250
516.3142, 23.30921
516.7963, 24.08365
517.2784, 24.31842
517.7606, 24.20482
518.2427, 23.98165
518.7248, 23.67488
519.2069, 23.24296
519.6890, 22.58226
520.1711, 21.79949
520.6533, 21.46498
521.1354, 21.73542
521.6175, 22.16120
522.0996, 22.94262
522.5817, 23.68855
523.0638, 23.88604
523.5460, 23.52480
524.0281, 23.12701
524.5102, 23.24816
524.9923, 23.86118
525.4744, 23.94061
525.9565, 22.68324
526.4387, 21.95258
526.9208, 22.49786
527.4029, 23.52976
527.8850, 24.33790
528.3671, 24.71672
528.8492, 24.64071
529.3314, 23.82585
529.8135, 22.38697
530.2956, 21.43019
530.7777, 21.02235
531.2598, 21.09583
531.7419, 22.18314
532.2241, 23.60153
532.7062, 24.16568
533.1883, 23.33343
533.6704, 22.28089
534.1525, 21.63040
534.6346, 21.37435
535.1168, 21.63242
535.5989, 22.48078
536.0810, 23.30616
536.5631, 23.41509
537.0452, 22.76451
537.5273, 22.55078
538.0095, 23.25513
538.4916, 23.81744
538.9737, 23.79864
539.4558, 23.40833
539.9379, 22.92168
540.4200, 22.44575
540.9022, 22.02150
541.3843, 21.66034
541.8664, 21.28815
542.3485, 21.40078
542.8306, 22.19264
543.3127, 23.29675
543.7948, 25.06647
544.2769, 26.93619
544.7590, 28.05605
545.2411, 28.09370
545.7233, 27.50593
546.2054, 26.51698
546.6875, 25.20002
547.1696, 24.81772
547.6517, 25.94468
548.1339, 27.30451
548.6160, 27.82331
549.0981, 27.71904
549.5802, 27.53661
550.0623, 27.30963
550.5444, 27.10038
551.0266, 26.96959
551.5087, 26.88453
551.9908, 26.78435
552.4729, 26.65302
552.9550, 26.45767
553.4371, 26.15298
553.9193, 25.72240
554.4014, 25.26792
554.8835, 24.54083
555.3656, 24.06561
555.8477, 24.26952
556.3298, 24.76599
556.8120, 24.98500
557.2941, 24.72070
557.7762, 24.19708
558.2583, 23.61869
558.7404, 22.92665
559.2225, 22.72053
559.7047, 23.36945
560.1868, 24.05752
560.6689, 24.53391
561.1510, 24.75964
561.6331, 24.61146
562.1152, 23.92507
562.5974, 23.21710
563.0795, 23.09358
563.5616, 23.36453
564.0437, 23.31682
564.5258, 22.77707
565.0079, 22.02939
565.4901, 21.16538
565.9722, 20.25064
566.4543, 20.01728
566.9364, 21.22101
567.4185, 22.23689
567.9006, 22.19311
568.3828, 21.68214
568.8649, 21.68262
569.3470, 22.39217
569.8291, 23.05634
570.3112, 22.71409
570.7933, 21.27745
571.2755, 20.39832
571.7576, 20.28077
572.2397, 20.50617
572.7218, 21.31441
573.2039, 22.22863
573.6860, 22.65336
574.1682, 22.45392
574.6503, 22.15219
575.1324, 22.34306
575.6145, 22.87162
576.0966, 22.97914
576.5787, 22.50702
577.0609, 22.05530
577.5430, 21.98354
578.0251, 22.19620
578.5072, 22.47522
578.9893, 22.97478
579.4714, 23.18296
579.9536, 22.63108
580.4357, 21.82361
580.9178, 21.37481
581.3999, 21.34916
581.8820, 21.48458
582.3641, 21.59884
582.8463, 21.69123
583.3284, 21.77414
583.8105, 22.22491
584.2926, 22.08440
584.7747, 20.36440
585.2568, 18.74863
585.7390, 18.82117
586.2211, 20.38395
586.7032, 21.85208
587.1853, 21.97650
587.6674, 21.28600
588.1495, 21.33361
588.6317, 22.29934
589.1138, 22.84383
589.5959, 22.18390
590.0780, 21.25052
590.5601, 21.24761
591.0422, 22.15562
591.5244, 22.83908
592.0065, 22.79029
592.4886, 22.49675
592.9707, 22.43005
593.4528, 22.50960
593.9349, 22.30323
594.4171, 21.58008
594.8992, 20.80563
595.3813, 20.86207
595.8634, 22.24737
596.3455, 22.98328
596.8276, 22.72356
597.3098, 22.27631
597.7919, 21.93729
598.2740, 21.65404
598.7561, 21.17300
599.2382, 20.36749
599.7203, 19.77182
600.2025, 20.36075
600.6846, 22.08970
601.1667, 23.17414
601.6488, 23.27484
602.1309, 23.03881
602.6130, 22.89869
603.0952, 22.73343
603.5773, 22.23152
604.0594, 21.06199
604.5415, 20.10247
605.0236, 19.88199
605.5057, 20.12092
605.9879, 20.49749
606.4700, 20.92063
606.9521, 21.17758
607.4342, 21.03361
607.9163, 20.58576
608.3984, 20.58283
608.8806, 21.49916
609.3627, 22.21972
609.8448, 22.59636
610.3269, 22.79040
610.8090, 23.05532
611.2911, 23.30324
611.7733, 23.06369
612.2554, 21.74347
612.7375, 19.95676
613.2196, 19.16045
613.7017, 19.41880
614.1838, 19.98886
614.6660, 20.76940
615.1481, 21.63257
615.6302, 22.72003
616.1123, 23.99451
616.5944, 24.25434
617.0765, 22.20944
617.5587, 20.06567
618.0408, 19.43261
618.5229, 19.82719
619.0050, 20.03298
619.4871, 19.63103
619.9692, 19.22181
620.4514, 19.69840
620.9335, 21.25450
621.4156, 22.23213
621.8977, 22.32304
622.3798, 22.16320
622.8619, 21.79637
623.3441, 21.32644
623.8262, 20.75048
624.3083, 20.08659
624.7904, 19.73019
625.2725, 20.32977
625.7546, 21.46360
626.2367, 21.82560
626.7188, 21.27511
627.2009, 20.88602
627.6830, 21.30312
628.1652, 22.16339
628.6473, 22.63893
629.1294, 22.65815
629.6115, 22.61352
630.0936, 22.55668
630.5757, 22.45991
631.0579, 22.20777
631.5400, 21.90010
632.0221, 21.81970
632.5042, 22.11746
632.9863, 22.56001
633.4684, 22.68499
633.9506, 22.41117
634.4327, 22.23904
634.9148, 22.40679
635.3969, 22.39957
635.8790, 21.57807
636.3611, 20.52459
636.8433, 20.39544
637.3254, 21.80544
637.8075, 23.11108
638.2896, 22.81495
638.7717, 21.66763
639.2538, 21.18875
639.7360, 21.57097
640.2181, 21.96900
640.7002, 21.75033
641.1823, 21.11149
641.6644, 20.85295
642.1465, 21.31477
642.6287, 21.70728
643.1108, 22.25669
643.5929, 22.53426
644.0750, 21.87338
644.5571, 20.68121
645.0392, 20.15508
645.5214, 21.09544
646.0035, 22.57644
646.4856, 22.98127
646.9677, 22.31433
647.4498, 21.60275
647.9319, 20.88192
648.4141, 20.44924
648.8962, 20.78513
649.3783, 21.64747
649.8604, 22.11043
650.3425, 22.01304
650.8246, 21.62864
651.3068, 20.63206
651.7889, 19.63206
652.2710, 19.52806
652.7531, 20.32821
653.2352, 21.25211
653.7173, 21.69132
654.1995, 21.76458
654.6816, 21.99952
655.1637, 22.55733
655.6458, 22.88822
656.1279, 22.98810
656.6100, 22.75124
657.0922, 21.71892
