##NAMES=Skutterudite
##RRUFFID=R050593
##IDEAL CHEMISTRY=Co^3+^As_3_
##LOCALITY=Bou Azzer, Morocco
##OWNER=RRUFF
##SOURCE=Marcus Origlieri
##DESCRIPTION=Gray metallic, massive to coarsely crystalline
##STATUS=The identification of this mineral has been confirmed by X-ray diffraction and chemical analysis
##URL=rruff.info/R050593
##MEASURED CHEMISTRY=(Co_0.86_Fe_0.11_Ni_0.07_)_Σ=1.04_(As_2.93_S_0.07_)_Σ=3.00_
91.11523, 9.472763
91.59735, 9.374993
92.07947, 9.528599
92.56158, 9.828286
93.04370, 9.940541
93.52582, 9.435798
94.00793, 8.626401
94.49006, 8.279460
94.97218, 8.600482
95.45429, 9.108378
95.93641, 9.024324
96.41853, 8.359093
96.90064, 7.552905
97.38276, 6.757326
97.86488, 6.006320
98.34699, 5.699452
98.82911, 6.011451
99.31123, 6.754352
99.79334, 7.337176
100.2755, 7.748129
100.7576, 8.021998
101.2397, 8.135603
101.7218, 8.040358
102.2039, 8.024591
102.6861, 8.163034
103.1682, 8.455425
103.6503, 8.783013
104.1324, 9.302533
104.6145, 9.688318
105.0966, 9.485528
105.5788, 8.289839
106.0609, 7.203035
106.5430, 6.500101
107.0251, 6.227489
107.5072, 6.170197
107.9893, 6.572321
108.4715, 7.129232
108.9536, 7.291228
109.4357, 6.508990
109.9178, 5.823438
110.3999, 5.570043
110.8820, 6.039155
111.3642, 6.464382
111.8463, 6.927629
112.3284, 7.343826
112.8105, 7.486330
113.2926, 6.999602
113.7747, 6.453784
114.2569, 6.139359
114.7390, 6.216141
115.2211, 6.391197
115.7032, 6.671746
116.1853, 7.027380
116.6674, 7.302632
117.1496, 7.396130
117.6317, 7.413145
118.1138, 7.440497
118.5959, 7.493464
119.0780, 7.571918
119.5602, 7.511572
120.0423, 7.340616
120.5244, 7.600936
121.0065, 8.888055
121.4886, 10.72619
121.9707, 12.49518
122.4529, 14.20166
122.9350, 15.56050
123.4171, 16.25630
123.8992, 16.25028
124.3813, 15.91170
124.8634, 15.40840
125.3456, 14.78939
125.8277, 14.16332
126.3098, 13.36339
126.7919, 12.65780
127.2740, 12.46190
127.7561, 12.83556
128.2383, 13.61139
128.7204, 14.85550
129.2025, 16.45418
129.6846, 17.81063
130.1667, 18.53950
130.6488, 18.73330
131.1310, 18.68408
131.6131, 18.37536
132.0952, 17.92678
132.5773, 17.42626
133.0594, 16.86717
133.5415, 16.59095
134.0237, 17.11942
134.5058, 18.37251
134.9879, 18.99331
135.4700, 18.53963
135.9521, 17.45756
136.4343, 17.07634
136.9164, 17.42901
137.3985, 18.35845
137.8806, 19.98075
138.3627, 22.47194
138.8448, 24.55493
139.3270, 26.16499
139.8091, 27.24251
140.2912, 27.05017
140.7733, 25.19631
141.2554, 22.76044
141.7375, 20.77402
142.2197, 19.17449
142.7018, 18.15803
143.1839, 17.86962
143.6660, 18.35472
144.1481, 18.86373
144.6302, 19.37392
145.1124, 19.92380
145.5945, 20.56324
146.0766, 21.39198
146.5587, 22.17370
147.0408, 22.90072
147.5230, 23.65915
148.0051, 24.00264
148.4872, 23.48343
148.9693, 22.53345
149.4514, 22.02930
149.9335, 22.15584
150.4157, 22.50510
150.8978, 22.99518
151.3799, 23.79626
151.8620, 24.39677
152.3441, 24.57783
152.8262, 24.58633
153.3084, 24.88416
153.7905, 26.03264
154.2726, 27.02055
154.7547, 27.51801
155.2368, 27.49447
155.7189, 26.99302
156.2011, 25.58677
156.6832, 23.67462
157.1653, 22.28006
157.6474, 21.86719
158.1295, 21.81371
158.6116, 21.80422
159.0938, 21.69513
159.5759, 21.74726
160.0580, 22.11868
160.5401, 22.72423
161.0222, 23.27525
161.5044, 23.57085
161.9865, 23.84065
162.4686, 24.25418
162.9507, 25.18299
163.4328, 25.89120
163.9149, 25.93093
164.3971, 25.43520
164.8792, 25.05479
165.3613, 25.05202
165.8434, 25.31711
166.3255, 25.75363
166.8076, 26.41818
167.2898, 27.16160
167.7719, 27.87908
168.2540, 28.58419
168.7361, 29.39953
169.2182, 30.82851
169.7003, 32.28684
170.1825, 33.07548
170.6646, 33.05402
171.1467, 32.20157
171.6288, 30.06481
172.1109, 26.71609
172.5931, 23.56882
173.0752, 21.68941
173.5573, 20.68088
174.0394, 19.90015
174.5215, 19.07234
175.0036, 18.35489
175.4858, 17.92363
175.9679, 17.77560
176.4500, 17.87867
176.9321, 18.41150
177.4142, 19.18776
177.8963, 19.77301
178.3785, 19.77583
178.8606, 19.54841
179.3427, 19.67296
179.8248, 20.18247
180.3069, 20.77525
180.7890, 21.18372
181.2712, 21.42747
181.7533, 21.55907
182.2354, 21.32248
182.7175, 21.02322
183.1996, 21.50011
183.6818, 22.90677
184.1639, 24.39213
184.6460, 24.90265
185.1281, 24.58331
185.6102, 24.21900
186.0923, 24.25530
186.5745, 24.55425
187.0566, 24.64758
187.5387, 24.48039
188.0208, 24.24398
188.5029, 24.18630
188.9850, 24.29911
189.4672, 24.47544
189.9493, 24.54226
190.4314, 24.58307
190.9135, 25.12758
191.3956, 26.30923
191.8777, 27.71912
192.3599, 28.63057
192.8420, 29.03605
193.3241, 29.70590
193.8062, 31.09953
194.2883, 33.17842
194.7704, 35.43361
195.2526, 37.92185
195.7347, 40.42091
196.2168, 42.34968
196.6989, 43.63694
197.1810, 45.20433
197.6632, 48.02937
198.1453, 52.12834
198.6274, 54.85679
199.1095, 56.19288
199.5916, 55.94659
200.0737, 53.28049
200.5559, 47.87627
201.0380, 42.07476
201.5201, 36.88070
202.0022, 32.21407
202.4843, 28.68581
202.9664, 26.47607
203.4486, 25.26233
203.9307, 24.39876
204.4128, 23.93997
204.8949, 23.63827
205.3770, 23.35778
205.8591, 23.08270
206.3413, 22.93411
206.8234, 22.90530
207.3055, 23.01478
207.7876, 23.38751
208.2697, 24.14198
208.7519, 24.79420
209.2340, 25.02412
209.7161, 24.71547
210.1982, 24.55165
210.6803, 24.52676
211.1624, 24.69127
211.6446, 25.21597
212.1267, 26.16989
212.6088, 27.30417
213.0909, 28.60690
213.5730, 30.25288
214.0551, 31.33050
214.5373, 31.53064
215.0194, 31.24653
215.5015, 31.74459
215.9836, 33.50748
216.4657, 35.07240
216.9478, 35.80305
217.4300, 35.75399
217.9121, 34.60197
218.3942, 31.96873
218.8763, 28.36010
219.3584, 25.16877
219.8405, 22.25929
220.3227, 20.06072
220.8048, 18.93178
221.2869, 19.31993
221.7690, 19.44960
222.2511, 19.12879
222.7333, 18.55221
223.2154, 18.34794
223.6975, 18.78247
224.1796, 19.13554
224.6617, 18.99557
225.1438, 18.06211
225.6260, 17.43371
226.1081, 17.17480
226.5902, 17.22849
227.0723, 17.48904
227.5544, 18.16500
228.0365, 18.72318
228.5187, 18.87108
229.0008, 18.35811
229.4829, 18.05119
229.9650, 18.01158
230.4471, 18.16811
230.9292, 18.36060
231.4114, 18.71041
231.8935, 18.91154
232.3756, 18.79304
232.8577, 18.14814
233.3398, 17.67792
233.8220, 17.46954
234.3041, 17.40637
234.7862, 17.18147
235.2683, 16.61789
235.7504, 16.16677
236.2325, 16.01864
236.7147, 16.25864
237.1968, 16.61033
237.6789, 17.19025
238.1610, 17.83678
238.6431, 18.15709
239.1252, 17.90244
239.6074, 17.71343
240.0895, 17.88685
240.5716, 18.64857
241.0537, 19.10028
241.5358, 19.09468
242.0179, 18.85037
242.5001, 18.79577
242.9822, 19.00507
243.4643, 19.28373
243.9464, 19.57685
244.4285, 19.90358
244.9106, 20.18163
245.3928, 20.40632
245.8749, 20.58623
246.3570, 20.74516
246.8391, 20.92609
247.3212, 21.01029
247.8034, 20.94461
248.2855, 20.69323
248.7676, 20.41502
249.2497, 19.98479
249.7318, 19.61629
250.2139, 19.62898
250.6961, 20.06698
251.1782, 20.82104
251.6603, 21.99010
252.1424, 23.72875
252.6245, 24.97333
253.1066, 25.61861
253.5888, 25.87813
254.0709, 25.95494
254.5530, 25.57762
255.0351, 25.58482
255.5172, 26.31156
255.9993, 27.85428
256.4815, 29.15142
256.9636, 30.30334
257.4457, 31.08673
257.9278, 31.18671
258.4099, 30.33949
258.8921, 29.38964
259.3742, 28.40661
259.8563, 27.38972
260.3384, 26.89510
260.8205, 27.02884
261.3026, 27.54954
261.7848, 28.21183
262.2669, 28.93833
262.7490, 30.02447
263.2311, 31.62650
263.7132, 33.70741
264.1953, 35.56439
264.6775, 37.10105
265.1596, 38.54831
265.6417, 40.09408
266.1238, 41.73579
266.6059, 43.57703
267.0880, 46.09509
267.5702, 48.93546
268.0523, 49.45391
268.5344, 47.28623
269.0165, 43.52982
269.4986, 38.51941
269.9807, 31.63276
270.4629, 26.09251
270.9450, 22.52295
271.4271, 20.53526
271.9092, 18.71720
272.3913, 16.98682
272.8734, 15.65785
273.3556, 15.02465
273.8377, 15.17688
274.3198, 15.43373
274.8019, 15.79685
275.2840, 16.18126
275.7661, 16.32730
276.2483, 16.18834
276.7304, 16.00526
277.2125, 15.92328
277.6946, 15.95003
278.1768, 15.95253
278.6589, 15.91122
279.1410, 15.85761
279.6231, 15.87141
280.1052, 15.96614
280.5873, 16.03848
281.0695, 15.99918
281.5516, 15.85082
282.0337, 15.84225
282.5158, 16.02633
282.9979, 16.25141
283.4800, 16.19807
283.9622, 15.84610
284.4443, 15.64566
284.9264, 15.96846
285.4085, 16.71264
285.8906, 16.92397
286.3727, 16.14139
286.8549, 16.63385
287.3370, 16.93564
287.8191, 17.05701
288.3012, 16.45760
288.7833, 16.78892
289.2654, 16.74725
289.7476, 16.69030
290.2297, 16.89880
290.7118, 16.74261
291.1939, 16.74578
291.6760, 16.88042
292.1581, 16.97611
292.6403, 16.97413
293.1224, 16.90436
293.6045, 16.80983
294.0866, 16.69089
294.5687, 16.61171
295.0508, 16.65152
295.5330, 16.78210
296.0151, 16.91494
296.4972, 17.06051
296.9793, 17.16282
297.4614, 17.07976
297.9435, 16.83227
298.4257, 16.59520
298.9078, 16.49120
299.3899, 16.49089
299.8720, 16.56524
300.3541, 16.76539
300.8362, 16.91470
301.3184, 16.66839
301.8005, 16.13216
302.2826, 15.75118
302.7647, 15.93904
303.2469, 16.39815
303.7290, 16.69229
304.2111, 16.74499
304.6932, 16.71322
305.1753, 16.74865
305.6574, 16.81631
306.1396, 16.83214
306.6217, 16.81300
307.1038, 16.69034
307.5859, 16.29197
308.0680, 15.56616
308.5501, 14.98123
309.0323, 14.95295
309.5144, 15.28839
309.9965, 15.67914
310.4786, 16.21468
310.9607, 16.60821
311.4428, 16.55139
311.9250, 16.05766
312.4071, 15.57901
312.8892, 15.32959
313.3713, 15.26261
313.8534, 15.33101
314.3355, 15.64227
314.8177, 15.97353
315.2998, 16.26465
315.7819, 16.49973
316.2640, 16.59858
316.7461, 16.35086
317.2282, 16.04857
317.7104, 15.91942
318.1925, 16.12588
318.6746, 16.34370
319.1567, 16.48043
319.6388, 16.54774
320.1209, 16.57263
320.6031, 16.60513
321.0852, 16.56642
321.5673, 16.39181
322.0494, 15.97957
322.5315, 15.65110
323.0136, 15.52616
323.4958, 15.51718
323.9779, 15.48181
324.4600, 15.25027
324.9421, 15.12097
325.4242, 15.26222
325.9064, 15.78965
326.3885, 16.10014
326.8706, 15.89535
327.3527, 15.55314
327.8348, 15.46918
328.3170, 16.04816
328.7991, 16.46567
329.2812, 16.54116
329.7633, 16.26533
330.2454, 16.04966
330.7275, 15.95773
331.2097, 15.87634
331.6918, 15.70707
332.1739, 15.22829
332.6560, 15.03868
333.1381, 15.35374
333.6202, 16.02925
334.1024, 16.37373
334.5845, 16.34381
335.0666, 16.04385
335.5487, 15.43002
336.0308, 14.23568
336.5129, 13.54382
336.9951, 13.51895
337.4772, 13.91402
337.9593, 14.25330
338.4414, 14.55200
338.9235, 14.75215
339.4056, 14.78959
339.8878, 14.64350
340.3699, 14.66021
340.8520, 14.92071
341.3341, 15.19004
341.8162, 15.08882
342.2983, 14.56969
342.7805, 14.20934
343.2626, 14.29233
343.7447, 14.68834
344.2268, 14.64519
344.7089, 14.10076
345.1910, 13.48091
345.6732, 13.10830
346.1553, 12.98228
346.6374, 13.21723
347.1195, 14.01638
347.6016, 14.97561
348.0837, 15.21565
348.5659, 14.77061
349.0480, 14.17380
349.5301, 13.71095
350.0122, 13.37658
350.4944, 13.18897
350.9765, 13.16459
351.4586, 13.23772
351.9407, 13.40676
352.4228, 13.62578
352.9049, 13.74202
353.3871, 13.62876
353.8692, 13.38895
354.3513, 13.08912
354.8334, 12.72281
355.3155, 12.50641
355.7976, 12.73126
356.2798, 13.19990
356.7619, 13.59805
357.2440, 13.85003
357.7261, 13.94678
358.2082, 13.75066
358.6903, 13.31903
359.1725, 13.04951
359.6546, 13.33203
360.1367, 13.78672
360.6188, 14.08356
361.1009, 14.12577
361.5830, 14.02047
362.0652, 13.65104
362.5473, 13.15669
363.0294, 12.88058
363.5115, 13.21334
363.9936, 13.58153
364.4757, 13.64376
364.9579, 13.21454
365.4400, 12.96892
365.9221, 13.35878
366.4042, 13.90851
366.8863, 14.01518
367.3684, 12.89291
367.8506, 12.03229
368.3327, 11.91687
368.8148, 12.63595
369.2969, 13.08985
369.7790, 13.15766
370.2611, 13.03899
370.7433, 12.85442
371.2254, 12.44897
371.7075, 12.22903
372.1896, 12.29322
372.6717, 12.57352
373.1538, 12.78464
373.6360, 12.89263
374.1181, 12.98615
374.6002, 13.13870
375.0823, 13.43429
375.5645, 13.46058
376.0466, 13.10987
376.5287, 12.60966
377.0108, 12.34268
377.4929, 12.35122
377.9750, 12.41316
378.4572, 12.46787
378.9393, 12.51507
379.4214, 12.55990
379.9035, 12.61196
380.3856, 12.62026
380.8677, 12.52367
381.3499, 12.32752
381.8320, 12.08720
382.3141, 11.77025
382.7962, 11.46277
383.2783, 11.32630
383.7604, 11.36043
384.2426, 11.53517
384.7247, 12.01133
385.2068, 12.59655
385.6889, 12.81566
386.1710, 12.55676
386.6531, 12.17130
387.1353, 12.02760
387.6174, 12.05510
388.0995, 12.06791
388.5816, 11.89060
389.0637, 11.70842
389.5458, 11.71134
390.0280, 11.90103
390.5101, 12.18333
390.9922, 12.78950
391.4743, 13.34051
391.9564, 13.37964
392.4385, 12.20666
392.9207, 11.18286
393.4028, 11.30223
393.8849, 12.18774
394.3670, 12.70957
394.8491, 11.97876
395.3312, 11.09690
395.8134, 10.70925
396.2955, 11.07650
396.7776, 11.43972
397.2597, 11.64588
397.7418, 11.75120
398.2239, 11.82961
398.7061, 11.75420
399.1882, 11.79022
399.6703, 12.16874
400.1524, 12.92730
400.6346, 13.10501
401.1167, 12.13898
401.5988, 11.07886
402.0809, 10.66730
402.5630, 11.39387
403.0451, 11.78679
403.5273, 11.55375
404.0094, 10.97977
404.4915, 10.95357
404.9736, 11.74801
405.4557, 12.42815
405.9378, 12.54702
406.4200, 12.05137
406.9021, 11.58644
407.3842, 11.12872
407.8663, 10.76654
408.3484, 10.67020
408.8305, 10.84531
409.3127, 10.96381
409.7948, 10.88330
410.2769, 10.71372
410.7590, 10.79952
411.2411, 11.14278
411.7232, 11.49716
412.2054, 11.73785
412.6875, 11.84916
413.1696, 11.75023
413.6517, 11.38662
414.1338, 10.95325
414.6159, 10.57654
415.0981, 10.30070
415.5802, 10.25429
416.0623, 10.72598
416.5444, 11.33152
417.0265, 11.66800
417.5086, 11.72763
417.9908, 11.70747
418.4729, 11.66118
418.9550, 11.62861
419.4371, 11.65956
419.9192, 11.89001
420.4013, 12.03744
420.8835, 11.92025
421.3656, 11.61735
421.8477, 11.36260
422.3298, 11.22842
422.8119, 11.15898
423.2940, 11.10840
423.7762, 11.02394
424.2583, 11.11173
424.7404, 11.68095
425.2225, 12.31606
425.7047, 12.54708
426.1868, 11.93695
426.6689, 11.50017
427.1510, 11.46877
427.6331, 11.79762
428.1152, 11.95373
428.5974, 11.85957
429.0795, 11.71057
429.5616, 11.63400
430.0437, 11.66733
430.5258, 11.60276
431.0079, 11.39626
431.4901, 11.13274
431.9722, 10.95063
432.4543, 10.85028
432.9364, 10.83159
433.4185, 10.92896
433.9006, 11.11062
434.3828, 11.23531
434.8649, 11.30202
435.3470, 11.32489
435.8291, 11.29089
436.3112, 11.22018
436.7933, 11.20201
437.2755, 11.30429
437.7576, 11.35856
438.2397, 10.97629
438.7218, 10.32151
439.2039, 9.942557
439.6860, 10.44325
440.1682, 11.20262
440.6503, 11.57314
441.1324, 11.50937
441.6145, 11.29663
442.0966, 10.96409
442.5787, 10.62838
443.0609, 10.41557
443.5430, 10.44461
444.0251, 10.51667
444.5072, 10.58886
444.9893, 10.65395
445.4714, 10.68758
445.9536, 10.73625
446.4357, 10.71012
446.9178, 10.52393
447.3999, 10.01906
447.8820, 9.781381
448.3641, 9.942047
448.8463, 10.30289
449.3284, 10.69724
449.8105, 11.35690
450.2926, 11.58880
450.7747, 11.04190
451.2569, 9.919651
451.7390, 9.595638
452.2211, 10.37928
452.7032, 11.17121
453.1853, 11.22211
453.6674, 10.47304
454.1496, 10.06944
454.6317, 10.12242
455.1138, 10.34910
455.5959, 10.26715
456.0780, 9.918897
456.5602, 9.810284
457.0423, 10.31287
457.5244, 11.04178
458.0065, 11.13663
458.4886, 10.64845
458.9707, 10.15314
459.4529, 10.16656
459.9350, 10.41664
460.4171, 10.45875
460.8992, 10.15860
461.3813, 9.886908
461.8634, 10.00837
462.3456, 10.34148
462.8277, 10.57729
463.3098, 10.41336
463.7919, 10.27931
464.2740, 10.50566
464.7561, 11.05863
465.2383, 11.38180
465.7204, 11.21289
466.2025, 10.82800
466.6846, 10.36939
467.1667, 9.580535
467.6488, 9.167630
468.1310, 9.632651
468.6131, 10.36300
469.0952, 9.396523
469.5773, 10.53983
470.0594, 11.19417
470.5415, 11.38580
471.0237, 9.728896
471.5058, 10.45900
471.9879, 10.23249
472.4700, 9.966759
472.9521, 11.03282
473.4342, 9.644775
473.9164, 10.68972
474.3985, 10.76346
474.8806, 11.28169
475.3627, 10.83741
475.8448, 10.55327
476.3270, 10.48035
476.8091, 10.81870
477.2912, 11.28502
477.7733, 11.24198
478.2554, 10.71902
478.7375, 10.16158
479.2197, 9.877233
479.7018, 9.773751
480.1839, 9.744384
480.6660, 9.794585
481.1481, 9.838216
481.6302, 9.768582
482.1124, 9.661545
482.5945, 9.645530
483.0766, 9.889668
483.5587, 10.12334
484.0408, 10.15648
484.5229, 9.997477
485.0051, 10.03209
485.4872, 10.66075
485.9693, 11.26964
486.4514, 11.47559
486.9335, 10.94226
487.4156, 10.59445
487.8978, 10.52715
488.3799, 10.59572
488.8620, 10.55188
489.3441, 10.31038
489.8262, 10.17728
490.3083, 10.28057
490.7905, 10.57195
491.2726, 10.63450
491.7547, 10.40696
492.2368, 10.25323
492.7189, 10.59525
493.2010, 11.32641
493.6832, 11.63466
494.1653, 11.39380
494.6474, 10.93781
495.1295, 10.61358
495.6116, 10.41100
496.0938, 10.28965
496.5759, 10.16769
497.0580, 10.17290
497.5401, 10.63020
498.0222, 11.42385
498.5044, 11.94102
498.9865, 11.54163
499.4686, 10.91253
499.9507, 10.64950
500.4328, 10.96486
500.9149, 11.15683
501.3971, 10.83008
501.8792, 10.31486
502.3613, 9.993472
502.8434, 10.16508
503.3255, 10.26102
503.8076, 10.08194
504.2898, 9.722454
504.7719, 9.641377
505.2540, 10.00703
505.7361, 10.40311
506.2182, 10.66188
506.7003, 10.76420
507.1825, 10.85939
507.6646, 10.98370
508.1467, 11.02370
508.6288, 10.68956
509.1109, 9.984311
509.5930, 9.826516
510.0752, 10.59528
510.5573, 11.71545
511.0394, 12.05236
511.5215, 11.70479
512.0037, 11.29400
512.4858, 11.15742
512.9679, 11.16773
513.4500, 11.15802
513.9321, 11.12204
514.4142, 11.07799
514.8964, 11.02673
515.3785, 10.97898
515.8606, 10.96316
516.3427, 11.08230
516.8248, 11.06254
517.3069, 10.57107
517.7891, 9.895860
518.2712, 9.569716
518.7533, 10.06766
519.2354, 10.56845
519.7175, 10.85665
520.1996, 10.93659
520.6818, 10.91581
521.1639, 10.71503
521.6460, 10.51088
522.1281, 10.41203
522.6102, 10.44627
523.0923, 10.47187
523.5745, 10.47560
524.0566, 10.48766
524.5387, 10.57493
525.0208, 10.73768
525.5029, 10.83856
525.9850, 10.79874
526.4672, 10.70655
526.9493, 9.886564
527.4314, 10.91878
527.9135, 11.46201
528.3956, 11.54254
528.8777, 9.774541
529.3599, 10.39352
529.8420, 10.05593
530.3241, 9.679094
530.8062, 10.63406
531.2883, 9.945588
531.7704, 10.00462
532.2526, 10.44999
532.7347, 10.74577
533.2168, 10.65224
533.6989, 10.29418
534.1810, 9.961664
534.6631, 9.641515
535.1453, 9.411870
535.6274, 9.306437
536.1095, 9.325956
536.5916, 9.392915
537.0737, 9.535682
537.5558, 9.683289
538.0380, 9.768921
538.5201, 9.771259
539.0022, 9.921849
539.4843, 10.32387
539.9664, 10.66398
540.4485, 10.23702
540.9307, 9.173517
541.4128, 8.606160
541.8949, 9.217647
542.3770, 10.23203
542.8591, 10.28397
543.3412, 9.535339
543.8234, 8.849869
544.3055, 8.851116
544.7876, 9.110916
545.2697, 9.212918
545.7518, 9.103556
546.2339, 9.024999
546.7161, 9.170848
547.1982, 9.361429
547.6803, 9.439367
548.1624, 9.252874
548.6445, 9.101980
549.1266, 9.035707
549.6088, 9.030321
550.0909, 9.027097
550.5730, 8.923165
551.0551, 9.007598
551.5372, 9.499555
552.0193, 10.31272
552.5015, 10.45285
552.9836, 9.747690
553.4657, 8.977668
553.9478, 8.677056
554.4299, 8.805465
554.9120, 8.963544
555.3942, 9.134020
555.8763, 9.299108
556.3584, 9.424758
556.8405, 9.528041
557.3226, 9.667785
557.8047, 9.938063
558.2869, 10.13616
558.7690, 9.974640
559.2511, 9.586287
559.7332, 9.308223
560.2154, 9.450881
560.6975, 9.607394
561.1796, 9.455331
561.6617, 8.970888
562.1439, 8.828467
562.6260, 9.580435
563.1081, 10.39871
563.5902, 10.80498
564.0723, 10.58063
564.5544, 10.40765
565.0366, 10.31788
565.5187, 10.24611
566.0008, 10.08194
566.4829, 9.791381
566.9650, 9.598612
567.4471, 9.582506
567.9293, 9.663671
568.4114, 9.606393
568.8935, 9.425097
569.3756, 9.328023
569.8577, 9.492932
570.3398, 9.800601
570.8220, 10.10611
571.3041, 10.40078
571.7862, 10.50080
572.2683, 9.995860
572.7504, 9.380790
573.2325, 9.201243
573.7147, 9.769024
574.1968, 10.23269
574.6789, 10.22643
575.1610, 9.954551
575.6431, 9.679684
576.1252, 9.303720
576.6074, 9.099466
577.0895, 9.197571
577.5716, 9.498167
578.0537, 9.597010
578.5358, 9.384676
579.0179, 9.229634
579.5001, 9.329099
579.9822, 9.657621
580.4643, 9.761257
580.9464, 9.615394
581.4285, 9.414495
581.9106, 9.324631
582.3928, 9.314007
582.8749, 9.256900
583.3570, 9.116520
583.8391, 9.025076
584.3212, 9.120380
584.8033, 9.352705
585.2855, 9.644121
585.7676, 10.22737
586.2497, 10.57893
586.7318, 10.24583
587.2139, 9.459741
