##NAMES=Smithsonite
##RRUFFID=R040035
##IDEAL CHEMISTRY=Zn^2+^CO_3_
##LOCALITY=Mazapil, Zacatecas, Mexico
##OWNER=RRUFF
##SOURCE=University of Arizona Mineral Museum
##DESCRIPTION=Pale green-blue fine-grained massive
##STATUS=The identification of this mineral has been confirmed by X-ray diffraction and chemical analysis
##URL=rruff.info/R040035
##MEASURED CHEMISTRY=(Zn_0.97_Ca_0.02_Pb_0.01_)_Î£=1_C_1.00_O_3_; CO_2_ estimated by difference
159.5958, 66.80178
160.0779, 66.89511
160.5600, 67.17940
161.0422, 67.59286
161.5243, 68.02337
162.0064, 68.47311
162.4885, 68.93097
162.9706, 69.36771
163.4527, 69.81200
163.9349, 70.28885
164.4170, 70.75659
164.8991, 71.35527
165.3812, 72.37197
165.8633, 73.93591
166.3454, 75.48927
166.8276, 76.61546
167.3097, 77.38379
167.7918, 78.38100
168.2739, 80.00134
168.7560, 81.84459
169.2381, 83.37238
169.7203, 84.43430
170.2024, 85.49251
170.6845, 87.04507
171.1666, 89.14694
171.6487, 91.38744
172.1308, 93.76150
172.6130, 96.14450
173.0951, 98.40524
173.5772, 100.4843
174.0593, 102.5276
174.5414, 104.8256
175.0235, 107.4949
175.5057, 110.1739
175.9878, 112.8749
176.4699, 115.5027
176.9520, 117.9156
177.4341, 120.0216
177.9162, 122.0158
178.3984, 124.5619
178.8805, 128.2907
179.3626, 131.7958
179.8447, 134.8381
180.3268, 137.5967
180.8089, 140.2791
181.2911, 142.9729
181.7732, 145.7256
182.2553, 148.8633
182.7374, 152.0899
183.2195, 156.0347
183.7016, 161.4147
184.1838, 167.5821
184.6659, 173.3202
185.1480, 177.8238
185.6301, 181.2839
186.1122, 185.6061
186.5943, 190.8429
187.0765, 196.6142
187.5586, 202.5984
188.0407, 208.9283
188.5228, 216.2092
189.0049, 225.0548
189.4870, 235.1938
189.9692, 244.7626
190.4513, 253.1022
190.9334, 261.4384
191.4155, 271.0521
191.8976, 281.7852
192.3797, 291.8311
192.8619, 300.3082
193.3440, 306.9418
193.8261, 311.4362
194.3082, 314.4240
194.7903, 314.7699
195.2724, 310.8586
195.7546, 302.4005
196.2367, 291.7374
196.7188, 279.7220
197.2009, 266.4651
197.6830, 251.6527
198.1651, 234.2242
198.6473, 215.8748
199.1294, 199.4272
199.6115, 185.3116
200.0936, 172.2127
200.5757, 158.9022
201.0578, 146.2052
201.5400, 135.2308
202.0221, 126.6642
202.5042, 120.1176
202.9863, 114.4507
203.4684, 110.1163
203.9505, 106.0565
204.4327, 101.7373
204.9148, 97.45442
205.3969, 93.63560
205.8790, 90.56131
206.3611, 88.09201
206.8432, 85.40842
207.3254, 81.70026
207.8075, 78.80690
208.2896, 77.50609
208.7717, 77.17825
209.2538, 76.94408
209.7359, 76.26582
210.2181, 75.18306
210.7002, 74.08439
211.1823, 72.97817
211.6644, 71.84459
212.1465, 70.63414
212.6286, 69.39659
213.1108, 68.18081
213.5929, 66.99861
214.0750, 65.87057
214.5571, 65.15157
215.0392, 65.13245
215.5213, 65.16249
216.0035, 65.03671
216.4856, 64.82130
216.9677, 64.73430
217.4498, 64.96903
217.9319, 65.46651
218.4140, 65.39354
218.8961, 64.24165
219.3783, 63.17469
219.8604, 62.68000
220.3425, 62.65184
220.8246, 62.71332
221.3067, 62.62844
221.7888, 62.42869
222.2710, 62.34033
222.7531, 62.67689
223.2352, 62.82126
223.7173, 62.17872
224.1994, 60.94590
224.6815, 60.09385
225.1637, 60.31950
225.6458, 61.38248
226.1279, 62.13230
226.6100, 62.34708
227.0921, 62.47570
227.5742, 62.97215
228.0564, 63.77060
228.5385, 64.16175
229.0206, 63.47874
229.5027, 62.23228
229.9848, 61.55762
230.4669, 61.63007
230.9491, 62.13359
231.4312, 62.99876
231.9133, 64.23158
232.3954, 65.20696
232.8775, 65.43185
233.3596, 65.30918
233.8418, 65.38719
234.3239, 65.81828
234.8060, 66.29482
235.2881, 66.37840
235.7702, 65.99671
236.2523, 65.91249
236.7345, 66.86842
237.2166, 68.03290
237.6987, 68.58723
238.1808, 68.27281
238.6629, 67.75084
239.1451, 67.87634
239.6272, 68.78235
240.1093, 69.62225
240.5914, 70.10890
241.0735, 70.45073
241.5556, 70.75613
242.0378, 71.05144
242.5199, 71.34351
243.0020, 71.61916
243.4841, 71.83733
243.9662, 72.19108
244.4483, 72.87076
244.9305, 73.59441
245.4126, 74.14819
245.8947, 74.49310
246.3768, 74.81224
246.8589, 75.41828
247.3410, 76.49815
247.8232, 77.26802
248.3053, 77.02390
248.7874, 76.91737
249.2695, 77.86427
249.7516, 79.92894
250.2337, 82.27836
250.7159, 83.72618
251.1980, 83.78008
251.6801, 84.26876
252.1622, 85.74077
252.6443, 87.20903
253.1264, 87.90193
253.6086, 87.84560
254.0907, 87.80620
254.5728, 88.80116
255.0549, 91.30689
255.5370, 93.42873
256.0191, 95.12384
256.5013, 96.55268
256.9834, 97.72859
257.4655, 98.68582
257.9476, 99.46965
258.4297, 100.0469
258.9118, 100.1688
259.3940, 101.1730
259.8761, 103.6924
260.3582, 106.3452
260.8403, 108.2707
261.3224, 109.5647
261.8045, 110.9877
262.2867, 113.3002
262.7688, 116.6499
263.2509, 119.8935
263.7330, 123.0326
264.2151, 126.0680
264.6972, 128.7921
265.1794, 131.3520
265.6615, 134.3036
266.1436, 138.1726
266.6257, 143.0415
267.1078, 147.1402
267.5899, 150.1988
268.0721, 152.9855
268.5542, 155.3638
269.0363, 157.6703
269.5184, 160.7677
270.0005, 165.3014
270.4826, 171.1983
270.9648, 177.0797
271.4469, 182.8435
271.9290, 188.6947
272.4111, 194.5104
272.8932, 200.4436
273.3753, 206.8742
273.8575, 213.9821
274.3396, 221.7500
274.8217, 230.1739
275.3038, 239.3333
275.7859, 248.8690
276.2680, 258.5155
276.7502, 268.4419
277.2323, 279.1147
277.7144, 290.7667
278.1965, 303.2426
278.6786, 316.1639
279.1607, 328.8670
279.6429, 342.8212
280.1250, 359.3150
280.6071, 377.2846
281.0892, 394.3699
281.5713, 409.5197
282.0534, 424.3447
282.5356, 442.6413
283.0177, 465.4420
283.4998, 487.2859
283.9819, 505.4057
284.4640, 522.0534
284.9461, 540.8776
285.4283, 563.0277
285.9104, 586.5902
286.3925, 608.7657
286.8746, 629.2701
287.3567, 651.3113
287.8388, 676.1878
288.3210, 702.8290
288.8031, 729.7394
289.2852, 756.8492
289.7673, 784.2738
290.2494, 811.3562
290.7315, 838.3460
291.2137, 868.4183
291.6958, 903.2823
292.1779, 940.9904
292.6600, 979.1855
293.1421, 1017.544
293.6242, 1057.689
294.1064, 1101.353
294.5885, 1148.156
295.0706, 1194.475
295.5527, 1237.856
296.0348, 1282.100
296.5169, 1331.661
296.9991, 1386.278
297.4812, 1440.609
297.9633, 1491.627
298.4454, 1539.314
298.9275, 1584.883
299.4096, 1629.222
299.8918, 1670.461
300.3739, 1708.346
300.8560, 1742.570
301.3381, 1771.209
301.8202, 1796.227
302.3023, 1811.835
302.7845, 1810.223
303.2666, 1788.940
303.7487, 1757.219
304.2308, 1719.563
304.7129, 1675.722
305.1950, 1624.062
305.6772, 1563.165
306.1593, 1494.881
306.6414, 1420.918
307.1235, 1340.519
307.6056, 1260.754
308.0877, 1183.112
308.5699, 1108.127
309.0520, 1036.647
309.5341, 968.8531
310.0162, 904.5415
310.4983, 843.9297
310.9804, 786.3049
311.4626, 732.8543
311.9447, 684.5512
312.4268, 640.4742
312.9089, 598.8975
313.3910, 559.3394
313.8731, 522.7256
314.3553, 490.4066
314.8374, 461.6849
315.3195, 434.4077
315.8016, 407.9839
316.2837, 382.8957
316.7658, 359.6686
317.2480, 338.3087
317.7301, 319.0277
318.2122, 302.5888
318.6943, 288.2207
319.1764, 273.8910
319.6585, 258.9089
320.1407, 244.6280
320.6228, 232.0843
321.1049, 221.2097
321.5870, 211.4350
322.0691, 203.0435
322.5512, 195.2890
323.0334, 186.5318
323.5155, 176.2478
323.9976, 166.7853
324.4797, 159.8385
324.9618, 154.7789
325.4439, 149.7377
325.9261, 144.1059
326.4082, 138.4837
326.8903, 133.6559
327.3724, 129.6256
327.8545, 125.6391
328.3366, 121.3120
328.8188, 116.9162
329.3009, 112.8273
329.7830, 109.0717
330.2651, 105.7442
330.7472, 103.0466
331.2293, 100.9028
331.7115, 98.98250
332.1936, 97.48795
332.6757, 96.03696
333.1578, 94.22032
333.6399, 92.01456
334.1220, 89.62473
334.6042, 87.05386
335.0863, 84.40651
335.5684, 82.06981
336.0505, 80.11292
336.5326, 78.41038
337.0147, 76.86128
337.4969, 75.48336
337.9790, 74.41621
338.4611, 73.86491
338.9432, 73.51353
339.4253, 72.60540
339.9074, 70.90975
340.3896, 69.34035
340.8717, 68.34708
341.3538, 67.71869
341.8359, 67.09642
342.3180, 66.42463
342.8001, 65.55074
343.2822, 63.99933
343.7643, 61.63017
344.2465, 60.00309
344.7286, 59.94392
345.2107, 60.49938
345.6928, 60.70707
346.1749, 60.42867
346.6570, 59.78415
347.1392, 58.77408
347.6213, 57.38881
348.1034, 56.30453
348.5855, 55.70804
349.0676, 55.25074
349.5497, 54.62785
350.0319, 53.90260
350.5140, 53.44653
350.9961, 53.55569
351.4782, 54.06663
351.9603, 54.19841
352.4424, 53.86080
352.9246, 53.33631
353.4067, 52.58567
353.8888, 51.72281
354.3709, 50.96250
354.8530, 50.39101
355.3351, 49.92701
355.8173, 49.42460
356.2994, 48.88369
356.7815, 48.29726
357.2636, 47.44130
357.7457, 46.66304
358.2278, 46.38599
358.7100, 46.65246
359.1921, 47.06770
359.6742, 47.20116
360.1563, 46.98948
360.6384, 46.85450
361.1205, 47.02125
361.6027, 47.05590
362.0848, 46.65460
362.5669, 45.90045
363.0490, 45.06294
363.5311, 44.30597
364.0132, 43.64159
364.4954, 43.19694
364.9775, 42.87902
365.4596, 42.87106
365.9417, 43.62600
366.4238, 44.59086
366.9059, 44.96229
367.3881, 44.41715
367.8702, 43.35139
368.3523, 42.56330
368.8344, 42.10405
369.3165, 41.88761
369.7986, 42.32649
370.2808, 42.70245
370.7629, 42.34357
371.2450, 41.24909
371.7271, 40.02523
372.2092, 39.34422
372.6913, 39.29859
373.1735, 39.17653
373.6556, 38.77321
374.1377, 38.50250
374.6198, 38.69229
375.1019, 39.12635
375.5840, 39.33685
376.0662, 39.00144
376.5483, 38.24968
377.0304, 37.70749
377.5125, 37.52708
377.9946, 37.35184
378.4767, 37.20555
378.9589, 37.00034
379.4410, 36.55161
379.9231, 35.81794
380.4052, 35.11853
380.8873, 35.04541
381.3694, 35.90175
381.8516, 36.38494
382.3337, 36.31935
382.8158, 35.92287
383.2979, 35.05525
383.7800, 33.87054
384.2621, 32.88181
384.7443, 32.60917
385.2264, 32.98545
385.7085, 33.15209
386.1906, 33.02145
386.6727, 32.78978
387.1548, 32.50447
387.6370, 32.19197
388.1191, 31.87979
388.6012, 31.55778
389.0833, 31.28360
389.5654, 31.21529
390.0475, 31.42586
390.5297, 31.50720
391.0118, 31.22118
391.4939, 30.81158
391.9760, 30.39536
392.4581, 29.98489
392.9402, 29.76923
393.4224, 30.10790
393.9045, 30.86451
394.3866, 31.16027
394.8687, 30.71417
395.3508, 30.04183
395.8329, 29.47931
396.3151, 29.02562
396.7972, 28.70117
397.2793, 28.52131
397.7614, 28.47205
398.2435, 28.61153
398.7256, 28.96169
399.2078, 29.17178
399.6899, 28.91652
400.1720, 28.43553
400.6541, 28.27658
401.1362, 28.65500
401.6183, 28.99247
402.1005, 28.86881
402.5826, 28.43127
403.0647, 28.09449
403.5468, 27.99680
404.0289, 28.00652
404.5110, 27.95315
404.9932, 27.83982
405.4753, 27.67710
405.9574, 27.31900
406.4395, 27.00360
406.9216, 27.05473
407.4037, 27.46112
407.8859, 27.81282
408.3680, 27.75776
408.8501, 27.34099
409.3322, 27.16903
409.8143, 27.53479
410.2964, 27.78134
410.7786, 27.49268
411.2607, 26.96090
411.7428, 26.74022
412.2249, 27.06818
412.7070, 27.66732
413.1891, 27.99691
413.6713, 27.90723
414.1534, 27.78473
414.6355, 27.64318
415.1176, 27.46072
415.5997, 27.15711
416.0818, 26.77065
416.5640, 26.48136
417.0461, 26.47998
417.5282, 26.77280
418.0103, 26.87003
418.4924, 26.66265
418.9745, 26.36740
419.4567, 25.87198
419.9388, 25.36336
420.4209, 25.12839
420.9030, 25.30318
421.3851, 25.66649
421.8672, 25.73026
422.3494, 25.29586
422.8315, 25.07433
423.3136, 25.36867
423.7957, 25.69958
424.2778, 25.72122
424.7599, 25.45929
425.2421, 25.22976
425.7242, 25.33192
426.2063, 25.72787
426.6884, 26.06306
427.1705, 26.39464
427.6526, 26.55665
428.1348, 26.34970
428.6169, 25.98640
429.0990, 25.80369
429.5811, 25.98625
430.0632, 26.21277
430.5453, 25.95456
431.0275, 25.19542
431.5096, 24.78242
431.9917, 25.25303
432.4738, 25.86433
432.9559, 25.72033
433.4380, 24.83243
433.9202, 24.12590
434.4023, 24.11873
434.8844, 24.55675
435.3665, 25.07642
435.8486, 25.67065
436.3307, 26.12208
436.8129, 26.27730
437.2950, 26.13852
437.7771, 25.81502
438.2592, 24.95774
438.7413, 24.29488
439.2234, 24.44020
439.7056, 25.08122
440.1877, 25.42902
440.6698, 25.16890
441.1519, 24.63512
441.6340, 24.37776
442.1161, 24.54059
442.5983, 24.56005
443.0804, 24.30981
443.5625, 23.98310
444.0446, 23.57801
444.5267, 23.19068
445.0089, 23.17990
445.4910, 23.91092
445.9731, 25.24133
446.4552, 25.78889
446.9373, 24.70539
447.4194, 23.84765
447.9016, 23.50801
448.3837, 23.51595
448.8658, 23.76756
449.3479, 24.19651
449.8300, 24.61322
450.3121, 24.72194
450.7943, 24.43151
451.2764, 24.17410
451.7585, 23.96250
452.2406, 23.77294
452.7227, 23.62412
453.2048, 23.49090
453.6870, 23.31981
454.1691, 23.07142
454.6512, 22.77629
455.1333, 22.47350
455.6154, 22.09806
456.0975, 21.91431
456.5797, 22.26496
457.0618, 22.68742
457.5439, 22.79180
458.0260, 22.52482
458.5081, 22.21468
458.9902, 22.14902
459.4724, 22.24770
459.9545, 22.19801
460.4366, 21.91803
460.9187, 21.62650
461.4008, 21.50332
461.8829, 21.49618
462.3651, 21.48249
462.8472, 21.36950
463.3293, 21.31965
463.8114, 21.58166
464.2935, 22.03724
464.7756, 22.21502
465.2578, 21.88777
465.7399, 21.34780
466.2220, 21.09359
466.7041, 21.18503
467.1862, 21.28401
467.6683, 21.37513
468.1505, 21.44481
468.6326, 21.46007
469.1147, 21.43462
469.5968, 21.43753
470.0789, 21.52556
470.5610, 21.67817
471.0432, 21.75623
471.5253, 21.53085
472.0074, 21.51727
472.4895, 22.18317
472.9716, 22.86597
473.4537, 22.76159
473.9359, 21.76041
474.4180, 20.54476
474.9001, 19.93426
475.3822, 19.99447
475.8643, 20.13772
476.3464, 20.46521
476.8286, 20.76937
477.3107, 20.97535
477.7928, 21.11566
478.2749, 21.25406
478.7570, 21.42569
479.2391, 21.58154
479.7213, 21.66607
480.2034, 21.69029
480.6855, 21.52927
481.1676, 20.91394
481.6497, 20.33704
482.1318, 20.25055
482.6140, 20.60242
483.0961, 20.94622
483.5782, 21.02206
484.0603, 20.98015
484.5424, 21.12853
485.0245, 21.48759
485.5067, 21.64289
485.9888, 21.27253
486.4709, 20.59410
486.9530, 20.20678
487.4351, 20.27132
487.9172, 20.25332
488.3994, 19.78318
488.8815, 19.20183
489.3636, 19.00761
489.8457, 19.28419
490.3278, 19.74314
490.8099, 20.16018
491.2921, 20.54557
491.7742, 20.58136
492.2563, 19.85127
492.7384, 19.30763
493.2205, 19.41779
493.7026, 19.83320
494.1848, 20.04676
494.6669, 19.87132
495.1490, 19.50952
495.6311, 19.25292
496.1132, 19.08221
496.5953, 19.08518
497.0775, 19.72242
497.5596, 20.09339
498.0417, 19.53940
498.5238, 18.44999
499.0059, 17.69823
499.4880, 17.79522
499.9702, 18.38234
500.4523, 18.78147
500.9344, 18.97978
501.4165, 19.07289
501.8986, 19.00784
502.3807, 18.91223
502.8629, 18.94558
503.3450, 19.09993
503.8271, 19.14661
504.3092, 18.79305
504.7913, 18.34326
505.2734, 18.41344
505.7556, 19.03001
506.2377, 19.36349
506.7198, 18.75023
507.2019, 17.61638
507.6840, 17.33397
508.1661, 18.39637
508.6482, 19.24907
509.1303, 19.39146
509.6125, 19.16274
510.0946, 18.90478
510.5767, 18.68968
511.0588, 18.46218
511.5409, 18.14678
512.0231, 17.74548
512.5052, 17.59568
512.9873, 18.07629
513.4694, 18.35898
513.9515, 18.15355
514.4337, 17.72915
514.9158, 17.34687
515.3979, 17.09788
515.8800, 16.99645
516.3621, 17.16667
516.8442, 17.66977
517.3264, 17.74789
517.8085, 16.92165
518.2906, 16.28729
518.7727, 16.45565
519.2548, 17.09304
519.7369, 17.66362
520.2191, 18.02159
520.7012, 18.17122
521.1833, 18.06548
521.6654, 17.72944
522.1475, 17.30651
522.6296, 16.71796
523.1118, 16.27530
523.5939, 16.49906
524.0760, 17.28052
524.5581, 17.80582
525.0402, 17.85008
525.5223, 17.67629
526.0045, 17.36604
526.4866, 16.98646
526.9687, 16.70481
527.4508, 16.59876
527.9329, 16.60094
528.4150, 16.59805
528.8972, 16.64400
529.3793, 16.54500
529.8614, 16.07781
530.3435, 15.68070
530.8256, 15.59176
531.3077, 15.77904
531.7899, 16.14369
532.2720, 16.65257
532.7541, 17.19390
533.2362, 17.47217
533.7183, 17.43657
534.2004, 17.28368
534.6826, 16.92828
535.1647, 16.55249
535.6468, 16.22536
536.1289, 15.96542
536.6110, 15.81917
537.0931, 15.87617
537.5753, 16.03400
538.0574, 16.08773
538.5395, 16.03131
539.0216, 16.00250
539.5037, 16.03488
539.9858, 16.15097
540.4680, 16.46438
540.9501, 17.06621
541.4322, 17.35048
541.9143, 16.80725
542.3964, 16.09291
542.8785, 15.89762
543.3607, 16.20260
543.8428, 16.62119
544.3249, 16.95258
544.8070, 17.13024
545.2891, 16.89671
545.7712, 15.52550
546.2534, 14.75242
546.7355, 15.02633
547.2176, 15.59968
547.6997, 16.02663
548.1818, 16.21921
548.6639, 16.20399
549.1461, 15.94358
549.6282, 15.52959
550.1103, 15.39965
550.5924, 15.73286
551.0745, 15.88349
551.5566, 15.20536
552.0388, 14.55321
552.5209, 14.83896
553.0030, 16.08986
553.4851, 17.03948
553.9672, 16.62253
554.4493, 15.55063
554.9315, 15.17929
555.4136, 15.58027
555.8957, 15.91940
556.3778, 15.69949
556.8599, 15.14770
557.3420, 14.88224
557.8242, 14.96706
558.3063, 15.12045
558.7884, 15.46646
559.2705, 15.73715
559.7526, 15.51321
560.2347, 14.90650
560.7169, 14.56926
561.1990, 15.03395
561.6811, 16.03560
562.1632, 16.30014
562.6453, 15.04454
563.1274, 14.40104
563.6096, 15.19030
564.0917, 16.13631
564.5738, 16.29991
565.0559, 15.68484
565.5380, 14.89771
566.0201, 14.25450
566.5023, 13.80150
566.9844, 13.73070
567.4665, 14.10482
567.9486, 14.44968
568.4307, 14.54089
568.9128, 14.55211
569.3950, 14.73651
569.8771, 15.11169
570.3592, 15.45464
570.8413, 15.77825
571.3234, 15.97818
571.8055, 15.92807
572.2877, 15.64375
572.7698, 15.19286
573.2519, 14.58188
573.7340, 13.92490
574.2161, 13.51140
574.6982, 13.29629
575.1804, 13.44082
575.6625, 14.29109
576.1446, 15.17357
576.6267, 15.70190
577.1088, 15.90716
577.5909, 15.99469
578.0731, 16.08833
578.5552, 16.12115
579.0373, 15.93591
579.5194, 15.51196
580.0015, 14.95834
580.4836, 13.95870
580.9658, 13.20626
581.4479, 13.44043
581.9300, 14.41549
582.4121, 15.05023
582.8942, 14.62111
583.3763, 13.95674
583.8585, 13.96927
584.3406, 14.46193
584.8227, 14.67098
585.3048, 14.31136
585.7869, 13.68994
586.2690, 13.17395
586.7512, 12.72337
587.2333, 12.65249
587.7154, 13.42933
588.1975, 14.05684
588.6796, 14.01534
589.1617, 13.57350
589.6438, 13.14981
590.1259, 12.90830
590.6080, 12.80403
591.0901, 12.77323
591.5723, 12.80977
592.0544, 12.99282
592.5365, 13.42679
593.0186, 13.85536
593.5007, 14.35630
593.9828, 14.71424
594.4650, 14.47532
594.9471, 13.33961
595.4292, 12.34955
595.9113, 12.53375
596.3934, 13.42171
596.8755, 13.85841
597.3577, 13.65546
597.8398, 13.42538
598.3219, 13.67771
598.8040, 14.31036
599.2861, 14.61852
599.7682, 14.42831
600.2504, 14.19947
600.7325, 13.81884
601.2146, 13.55071
601.6967, 13.83707
602.1788, 14.56646
602.6609, 15.04483
603.1431, 14.64952
603.6252, 13.62373
604.1073, 13.06597
604.5894, 13.16573
605.0715, 13.23510
605.5536, 12.95183
606.0358, 12.69501
606.5179, 12.86134
607.0000, 13.38975
607.4821, 13.70719
607.9642, 13.34905
608.4464, 12.75905
608.9285, 12.43823
609.4106, 12.37164
609.8927, 12.44859
610.3748, 12.63095
610.8569, 12.93236
611.3391, 13.43967
611.8212, 14.32015
612.3033, 14.68010
612.7854, 14.14049
613.2675, 13.50738
613.7496, 13.15201
614.2318, 12.94085
614.7139, 12.52881
615.1960, 11.80941
615.6781, 11.19398
616.1602, 11.45188
616.6423, 12.65338
617.1245, 13.01032
617.6066, 11.91635
618.0887, 10.99650
618.5708, 11.39370
619.0529, 12.32452
619.5350, 12.67106
620.0172, 12.12984
620.4993, 11.56508
620.9814, 11.53002
621.4635, 11.75664
621.9456, 11.75828
622.4277, 11.51828
622.9099, 11.49323
623.3920, 12.04565
623.8741, 12.94309
624.3562, 13.35833
624.8383, 12.87288
625.3204, 12.49487
625.8026, 12.22488
626.2847, 12.06316
626.7668, 12.04007
627.2489, 12.12581
627.7310, 12.28271
628.2131, 12.52993
628.6953, 12.71134
629.1774, 12.42939
629.6595, 11.65721
630.1416, 11.22070
630.6237, 11.39420
631.1058, 11.73419
631.5880, 11.95601
632.0701, 12.04926
632.5522, 11.92695
633.0343, 11.29701
633.5164, 10.78138
633.9985, 10.76052
634.4807, 11.02565
634.9628, 11.28913
635.4449, 11.48042
635.9270, 11.60850
636.4091, 11.65841
636.8912, 11.65321
637.3734, 11.86117
637.8555, 12.63329
638.3376, 13.04149
638.8197, 12.69395
639.3018, 12.16525
639.7839, 11.88743
640.2661, 11.87386
640.7482, 11.88534
641.2303, 11.72458
641.7124, 11.54628
642.1945, 11.66294
642.6766, 12.04166
643.1588, 12.29772
643.6409, 12.29137
644.1230, 12.16389
644.6051, 12.07617
645.0872, 12.03419
645.5693, 11.99223
646.0515, 12.16714
646.5336, 12.09849
647.0157, 11.17966
647.4978, 10.09473
647.9799, 9.848319
648.4620, 10.63308
648.9442, 11.73608
649.4263, 12.51834
649.9084, 12.97461
650.3905, 12.92147
650.8726, 12.06444
651.3547, 11.48968
651.8369, 11.87940
652.3190, 12.53481
652.8011, 12.70029
653.2832, 12.34190
653.7653, 12.03721
654.2474, 12.18757
654.7296, 12.34129
655.2117, 11.94881
