##NAMES=Smithite
##RRUFFID=R070642
##IDEAL CHEMISTRY=Ag^1+^As^3+^S^2-^_2_
##LOCALITY=Jas Roux, Pelvoux Mt., Valgaudemar, Hautes-Alpes, Provence-Alpes-Côte d'Azur, France
##OWNER=RRUFF
##SOURCE=Michael Scott
##DESCRIPTION=Deep-red with good cleavage, associated with realgar and chabournéite, R070371.
##STATUS=The identification of this mineral is confirmed by single-crystal X-ray diffraction and chemical analysis.
##URL=rruff.info/R070642
##MEASURED CHEMISTRY=Ag_1.00_(As_0.80_Sb_0.20_)_Σ=1_S_2.00_
152.4291, 3623.317
152.9112, 3629.504
153.3933, 3635.086
153.8755, 3648.153
154.3576, 3684.466
154.8397, 3713.489
155.3218, 3726.379
155.8039, 3720.472
156.2860, 3715.275
156.7682, 3707.719
157.2503, 3704.312
157.7324, 3713.317
158.2145, 3753.699
158.6966, 3793.523
159.1787, 3819.012
159.6609, 3823.969
160.1430, 3824.946
160.6251, 3822.564
161.1072, 3819.575
161.5893, 3822.411
162.0714, 3839.375
162.5536, 3859.743
163.0357, 3876.136
163.5178, 3882.807
163.9999, 3889.858
164.4820, 3902.236
164.9641, 3919.352
165.4463, 3937.115
165.9284, 3951.945
166.4105, 3966.821
166.8926, 3984.939
167.3747, 4016.576
167.8568, 4045.360
168.3390, 4056.569
168.8211, 4048.372
169.3032, 4041.785
169.7853, 4056.181
170.2674, 4081.126
170.7495, 4098.437
171.2317, 4092.043
171.7138, 4077.521
172.1959, 4069.820
172.6780, 4070.822
173.1601, 4077.800
173.6422, 4097.007
174.1244, 4122.845
174.6065, 4136.650
175.0886, 4115.828
175.5707, 4079.148
176.0528, 4054.751
176.5349, 4052.628
177.0171, 4058.851
177.4992, 4059.430
177.9813, 4054.464
178.4634, 4045.216
178.9455, 4030.945
179.4276, 4012.972
179.9098, 3993.875
180.3919, 3971.889
180.8740, 3950.498
181.3561, 3937.048
181.8382, 3932.061
182.3203, 3926.211
182.8025, 3908.991
183.2846, 3882.690
183.7667, 3855.666
184.2488, 3830.476
184.7309, 3807.306
185.2130, 3789.496
185.6951, 3778.368
186.1773, 3767.115
186.6594, 3740.608
187.1415, 3701.108
187.6236, 3671.337
188.1057, 3669.384
188.5878, 3689.423
189.0700, 3704.793
189.5521, 3714.469
190.0342, 3715.586
190.5163, 3695.608
190.9984, 3653.698
191.4805, 3616.623
191.9627, 3608.537
192.4448, 3626.811
192.9269, 3640.182
193.4090, 3642.803
193.8911, 3637.413
194.3732, 3630.402
194.8554, 3620.941
195.3375, 3614.347
195.8196, 3618.079
196.3017, 3632.511
196.7838, 3643.406
197.2659, 3646.659
197.7481, 3643.360
198.2302, 3635.471
198.7123, 3617.959
199.1944, 3578.674
199.6765, 3616.337
200.1586, 3636.854
200.6408, 3641.146
201.1229, 3580.618
201.6050, 3603.792
202.0871, 3593.422
202.5692, 3581.676
203.0513, 3616.630
203.5335, 3565.530
204.0156, 3599.744
204.4977, 3617.805
204.9798, 3622.570
205.4619, 3606.572
205.9440, 3594.819
206.4262, 3587.121
206.9083, 3584.613
207.3904, 3594.896
207.8725, 3625.891
208.3546, 3647.732
208.8367, 3637.897
209.3189, 3586.046
209.8010, 3545.560
210.2831, 3522.135
210.7652, 3513.002
211.2473, 3505.949
211.7294, 3500.124
212.2116, 3498.219
212.6937, 3503.361
213.1758, 3518.159
213.6579, 3531.884
214.1400, 3542.174
214.6221, 3549.638
215.1043, 3563.189
215.5864, 3589.650
216.0685, 3612.913
216.5506, 3612.151
217.0327, 3572.029
217.5148, 3547.942
217.9970, 3558.922
218.4791, 3608.139
218.9612, 3634.722
219.4433, 3630.323
219.9254, 3611.274
220.4075, 3597.604
220.8897, 3589.314
221.3718, 3586.363
221.8539, 3589.765
222.3360, 3601.064
222.8181, 3611.146
223.3002, 3620.571
223.7824, 3628.271
224.2645, 3632.164
224.7466, 3631.871
225.2287, 3628.521
225.7108, 3621.033
226.1929, 3604.658
226.6750, 3597.754
227.1572, 3602.407
227.6393, 3616.015
228.1214, 3633.870
228.6035, 3663.273
229.0856, 3685.870
229.5677, 3690.105
230.0499, 3662.829
230.5320, 3648.242
231.0141, 3656.134
231.4962, 3678.477
231.9783, 3680.155
232.4604, 3645.854
232.9426, 3610.556
233.4247, 3595.292
233.9068, 3608.396
234.3889, 3625.868
234.8710, 3651.264
235.3531, 3682.055
235.8353, 3691.811
236.3174, 3670.932
236.7995, 3640.063
237.2816, 3613.449
237.7637, 3588.983
238.2458, 3573.327
238.7280, 3570.927
239.2101, 3581.486
239.6922, 3583.789
240.1743, 3572.853
240.6564, 3558.583
241.1385, 3550.982
241.6207, 3556.757
242.1028, 3556.749
242.5849, 3544.937
243.0670, 3519.818
243.5491, 3501.830
244.0313, 3493.164
244.5134, 3489.782
244.9955, 3486.947
245.4776, 3483.272
245.9597, 3482.739
246.4418, 3487.929
246.9240, 3500.988
247.4061, 3506.725
247.8882, 3500.167
248.3703, 3489.875
248.8524, 3489.096
249.3345, 3504.470
249.8167, 3517.893
250.2988, 3523.322
250.7809, 3518.142
251.2630, 3514.917
251.7451, 3512.624
252.2272, 3512.824
252.7094, 3518.662
253.1915, 3531.898
253.6736, 3547.817
254.1557, 3565.878
254.6378, 3589.068
255.1199, 3604.497
255.6021, 3607.112
256.0842, 3604.283
256.5663, 3612.600
257.0484, 3636.572
257.5305, 3664.047
258.0126, 3690.614
258.4948, 3717.958
258.9769, 3739.979
259.4590, 3754.360
259.9411, 3764.380
260.4232, 3779.663
260.9053, 3802.485
261.3875, 3826.599
261.8696, 3849.031
262.3517, 3868.364
262.8338, 3890.307
263.3159, 3919.047
263.7980, 3949.575
264.2802, 3960.498
264.7623, 3940.874
265.2444, 3923.539
265.7265, 3930.126
266.2086, 3967.663
266.6907, 4002.777
267.1729, 4032.560
267.6550, 4057.444
268.1371, 4078.994
268.6192, 4095.287
269.1013, 4111.902
269.5834, 4132.931
270.0656, 4159.046
270.5477, 4185.075
271.0298, 4210.406
271.5119, 4234.948
271.9940, 4261.123
272.4761, 4292.509
272.9583, 4316.072
273.4404, 4317.833
273.9225, 4292.383
274.4046, 4275.429
274.8867, 4272.561
275.3688, 4282.112
275.8510, 4297.412
276.3331, 4318.901
276.8152, 4344.711
277.2973, 4378.602
277.7794, 4423.252
278.2615, 4449.264
278.7437, 4445.111
279.2258, 4418.822
279.7079, 4407.284
280.1900, 4412.726
280.6721, 4424.321
281.1542, 4430.776
281.6364, 4431.610
282.1185, 4441.428
282.6006, 4467.517
283.0827, 4504.320
283.5648, 4527.174
284.0469, 4533.816
284.5291, 4538.488
285.0112, 4554.222
285.4933, 4580.803
285.9754, 4612.198
286.4575, 4648.434
286.9396, 4687.657
287.4217, 4723.920
287.9038, 4757.317
288.3860, 4786.324
288.8681, 4802.830
289.3502, 4809.216
289.8323, 4829.949
290.3144, 4876.296
290.7965, 4940.058
291.2787, 5003.388
291.7608, 5067.504
292.2429, 5119.401
292.7250, 5138.314
293.2071, 5131.113
293.6892, 5132.460
294.1714, 5160.675
294.6535, 5201.605
295.1356, 5226.033
295.6177, 5233.952
296.0998, 5229.542
296.5819, 5209.432
297.0641, 5178.721
297.5462, 5155.115
298.0283, 5153.516
298.5104, 5157.909
298.9925, 5137.253
299.4746, 5091.212
299.9568, 5043.071
300.4389, 5018.144
300.9210, 5006.583
301.4031, 4984.671
301.8852, 4936.093
302.3673, 4877.401
302.8495, 4830.024
303.3316, 4794.061
303.8137, 4758.772
304.2958, 4717.274
304.7779, 4670.366
305.2600, 4620.238
305.7422, 4561.767
306.2243, 4504.148
306.7064, 4454.704
307.1885, 4413.135
307.6706, 4382.078
308.1527, 4366.509
308.6349, 4361.745
309.1170, 4361.572
309.5991, 4368.753
310.0812, 4376.146
310.5633, 4377.765
311.0454, 4373.980
311.5276, 4370.187
312.0097, 4365.008
312.4918, 4363.155
312.9739, 4369.902
313.4560, 4389.968
313.9381, 4416.915
314.4203, 4448.083
314.9024, 4483.624
315.3845, 4521.281
315.8666, 4555.985
316.3487, 4594.009
316.8308, 4641.273
317.3130, 4723.189
317.7951, 4792.890
318.2772, 4818.939
318.7593, 4806.239
319.2414, 4809.083
319.7235, 4855.306
320.2057, 4919.263
320.6878, 4980.648
321.1699, 5052.138
321.6520, 5103.241
322.1341, 5111.523
322.6162, 5082.683
323.0984, 5073.162
323.5805, 5118.412
324.0626, 5172.200
324.5447, 5203.355
325.0268, 5191.144
325.5089, 5174.556
325.9911, 5155.313
326.4732, 5134.352
326.9553, 5119.099
327.4374, 5119.598
327.9195, 5119.338
328.4016, 5108.785
328.8838, 5083.470
329.3659, 5052.819
329.8480, 5009.833
330.3301, 4958.724
330.8122, 4926.286
331.2943, 4930.403
331.7765, 4935.071
332.2586, 4920.015
332.7407, 4876.257
333.2228, 4828.196
333.7049, 4772.323
334.1870, 4712.835
334.6692, 4667.917
335.1513, 4647.088
335.6334, 4625.107
336.1155, 4586.560
336.5976, 4523.879
337.0797, 4467.760
337.5619, 4420.243
338.0440, 4380.407
338.5261, 4348.586
339.0082, 4327.375
339.4903, 4306.431
339.9724, 4281.646
340.4546, 4253.136
340.9367, 4215.787
341.4188, 4164.765
341.9009, 4109.766
342.3830, 4070.184
342.8651, 4046.714
343.3473, 4033.250
343.8294, 4027.993
344.3115, 4030.790
344.7936, 4040.152
345.2757, 4057.374
345.7578, 4078.357
346.2400, 4099.929
346.7221, 4121.445
347.2042, 4136.271
347.6863, 4131.170
348.1684, 4115.800
348.6505, 4123.819
349.1327, 4159.105
349.6148, 4206.325
350.0969, 4249.808
350.5790, 4290.065
351.0611, 4329.427
351.5432, 4362.099
352.0254, 4396.375
352.5075, 4450.229
352.9896, 4525.776
353.4717, 4602.547
353.9538, 4648.300
354.4359, 4681.775
354.9181, 4738.644
355.4002, 4842.213
355.8823, 4971.268
356.3644, 5116.937
356.8465, 5279.045
357.3286, 5426.377
357.8108, 5526.762
358.2929, 5604.564
358.7750, 5693.778
359.2571, 5835.094
359.7392, 5967.509
360.2213, 6062.605
360.7035, 6120.167
361.1856, 6143.405
361.6677, 6125.525
362.1498, 6077.728
362.6319, 6009.652
363.1140, 5926.009
363.5962, 5820.051
364.0783, 5679.625
364.5604, 5509.641
365.0425, 5344.554
365.5246, 5198.058
366.0067, 5054.844
366.4889, 4905.743
366.9710, 4723.283
367.4531, 4564.201
367.9352, 4441.805
368.4173, 4349.319
368.8994, 4256.458
369.3815, 4156.749
369.8636, 4062.173
370.3458, 3979.179
370.8279, 3912.351
371.3100, 3848.105
371.7921, 3786.181
372.2742, 3726.518
372.7563, 3668.571
373.2385, 3611.893
373.7206, 3558.405
374.2027, 3509.962
374.6848, 3468.180
375.1669, 3425.228
375.6490, 3380.013
376.1312, 3334.741
376.6133, 3292.698
377.0954, 3254.549
377.5775, 3216.437
378.0596, 3175.444
378.5417, 3132.448
379.0239, 3093.651
379.5060, 3060.287
379.9881, 3028.476
380.4702, 2993.940
380.9523, 2956.490
381.4344, 2919.002
381.9166, 2878.719
382.3987, 2839.739
382.8808, 2814.664
383.3629, 2804.371
383.8450, 2796.915
384.3271, 2781.605
384.8093, 2760.010
385.2914, 2737.197
385.7735, 2714.023
386.2556, 2691.202
386.7377, 2670.819
387.2198, 2652.653
387.7020, 2634.223
388.1841, 2611.576
388.6662, 2588.613
389.1483, 2570.718
389.6304, 2561.580
390.1125, 2554.358
390.5947, 2544.506
391.0768, 2532.415
391.5589, 2519.463
392.0410, 2500.809
392.5231, 2485.086
393.0052, 2480.507
393.4874, 2494.816
393.9695, 2504.564
394.4516, 2496.437
394.9337, 2477.986
395.4158, 2463.049
395.8979, 2459.930
396.3801, 2457.131
396.8622, 2449.036
397.3443, 2432.523
397.8264, 2420.129
398.3085, 2412.313
398.7906, 2409.867
399.2728, 2414.135
399.7549, 2441.715
400.2370, 2457.244
400.7191, 2449.938
401.2012, 2417.772
401.6833, 2393.424
402.1655, 2378.094
402.6476, 2369.726
403.1297, 2367.148
403.6118, 2371.780
404.0939, 2379.797
404.5760, 2394.914
405.0582, 2413.354
405.5403, 2410.116
406.0224, 2377.744
406.5045, 2345.444
406.9866, 2335.960
407.4688, 2350.739
407.9509, 2362.304
408.4330, 2368.076
408.9151, 2368.899
409.3972, 2364.010
409.8793, 2353.412
410.3615, 2345.849
410.8436, 2351.624
411.3257, 2365.004
411.8078, 2363.490
412.2899, 2342.843
412.7720, 2320.149
413.2542, 2320.805
413.7363, 2337.158
414.2184, 2346.434
414.7005, 2328.802
415.1826, 2303.073
415.6647, 2291.822
416.1469, 2295.892
416.6290, 2304.082
417.1111, 2312.691
417.5932, 2319.382
418.0753, 2320.896
418.5574, 2307.910
419.0396, 2296.838
419.5217, 2300.647
420.0038, 2316.327
420.4859, 2324.092
420.9680, 2309.432
421.4501, 2288.221
421.9323, 2271.439
422.4144, 2259.210
422.8965, 2253.646
423.3786, 2261.507
423.8607, 2277.049
424.3428, 2283.754
424.8250, 2269.039
425.3071, 2255.544
425.7892, 2252.284
426.2713, 2265.848
426.7534, 2271.351
427.2355, 2262.149
427.7177, 2248.968
428.1998, 2249.789
428.6819, 2274.741
429.1640, 2290.217
429.6461, 2282.074
430.1282, 2251.124
430.6104, 2238.978
431.0925, 2250.669
431.5746, 2268.010
432.0567, 2271.339
432.5388, 2260.138
433.0209, 2253.179
433.5031, 2256.600
433.9852, 2264.910
434.4673, 2262.652
434.9494, 2250.148
435.4315, 2238.881
435.9136, 2239.091
436.3958, 2246.996
436.8779, 2252.818
437.3600, 2254.780
437.8421, 2255.547
438.3242, 2259.047
438.8063, 2263.913
439.2885, 2266.256
439.7706, 2261.465
440.2527, 2254.774
440.7348, 2250.167
441.2169, 2247.794
441.6990, 2248.958
442.1812, 2259.633
442.6633, 2272.418
443.1454, 2278.658
443.6275, 2269.649
444.1096, 2259.363
444.5917, 2251.440
445.0739, 2246.023
445.5560, 2243.902
446.0381, 2252.902
446.5202, 2260.063
447.0023, 2257.660
447.4844, 2219.793
447.9666, 2205.860
448.4487, 2233.845
448.9308, 2284.748
449.4129, 2305.056
449.8950, 2276.036
450.3771, 2246.838
450.8593, 2238.832
451.3413, 2257.649
451.8235, 2263.957
452.3056, 2253.447
452.7877, 2237.282
453.2698, 2230.768
453.7519, 2234.748
454.2340, 2239.359
454.7162, 2243.126
455.1983, 2245.002
455.6804, 2239.798
456.1625, 2227.096
456.6446, 2213.929
457.1267, 2204.416
457.6089, 2199.012
458.0910, 2199.063
458.5731, 2206.363
459.0552, 2216.483
459.5373, 2224.542
460.0194, 2231.008
460.5016, 2237.583
460.9837, 2250.378
461.4658, 2260.650
461.9479, 2257.579
462.4300, 2236.929
462.9121, 2220.150
463.3943, 2225.640
463.8764, 2239.418
464.3585, 2243.334
464.8406, 2219.247
465.3227, 2196.957
465.8048, 2185.892
466.2870, 2186.316
466.7691, 2190.799
467.2512, 2205.520
467.7333, 2219.225
468.2154, 2224.766
468.6975, 2214.444
469.1797, 2208.461
469.6618, 2208.750
470.1439, 2213.599
470.6260, 2218.638
471.1081, 2223.558
471.5902, 2229.459
472.0724, 2240.014
472.5545, 2256.474
473.0366, 2252.986
473.5187, 2223.424
474.0008, 2191.205
474.4829, 2191.215
474.9651, 2220.229
475.4472, 2238.305
475.9293, 2226.308
476.4114, 2200.744
476.8935, 2198.859
477.3756, 2218.794
477.8578, 2236.666
478.3399, 2232.621
478.8220, 2216.161
479.3041, 2199.915
479.7862, 2184.059
480.2683, 2174.549
480.7505, 2178.442
481.2326, 2191.989
481.7147, 2207.181
482.1968, 2231.598
482.6789, 2247.935
483.1610, 2242.757
483.6432, 2212.117
484.1253, 2187.067
484.6074, 2173.471
485.0895, 2169.780
485.5716, 2174.538
486.0537, 2201.107
486.5359, 2219.912
487.0180, 2225.997
487.5001, 2221.952
487.9822, 2220.298
488.4643, 2224.509
488.9464, 2225.491
489.4286, 2217.801
489.9107, 2199.631
490.3928, 2181.856
490.8749, 2162.341
491.3570, 2147.239
491.8391, 2149.181
492.3213, 2168.084
492.8034, 2183.062
493.2855, 2183.714
493.7676, 2176.502
494.2497, 2178.273
494.7318, 2188.885
495.2140, 2201.367
495.6961, 2215.198
496.1782, 2225.991
496.6603, 2223.796
497.1424, 2200.830
497.6245, 2177.196
498.1067, 2168.435
498.5888, 2170.935
499.0709, 2176.133
499.5530, 2181.252
500.0351, 2187.176
500.5172, 2197.123
500.9994, 2212.795
501.4815, 2218.657
501.9636, 2200.446
502.4457, 2176.220
502.9278, 2162.331
503.4099, 2152.517
503.8921, 2178.546
504.3742, 2193.145
504.8563, 2196.927
505.3384, 2157.496
505.8205, 2173.865
506.3026, 2167.872
506.7848, 2160.962
507.2669, 2185.186
507.7490, 2152.040
508.2311, 2175.770
508.7132, 2176.795
509.1953, 2188.212
509.6775, 2177.128
510.1596, 2172.994
510.6417, 2191.368
511.1238, 2197.279
511.6059, 2183.605
512.0880, 2195.683
512.5701, 2161.751
513.0522, 2168.192
513.5344, 2192.054
514.0165, 2179.511
514.4986, 2192.000
514.9807, 2194.955
515.4628, 2154.586
515.9449, 2189.563
516.4271, 2191.955
516.9092, 2160.889
517.3913, 2193.284
517.8734, 2166.831
518.3555, 2161.384
518.8376, 2171.743
519.3198, 2165.624
519.8019, 2185.486
520.2840, 2180.319
520.7661, 2172.915
521.2482, 2175.271
521.7303, 2149.972
522.2125, 2175.977
522.6946, 2166.938
523.1767, 2175.318
523.6588, 2187.647
524.1409, 2170.741
524.6230, 2169.378
525.1052, 2170.326
525.5873, 2174.130
526.0694, 2175.918
526.5515, 2166.881
527.0336, 2151.689
527.5157, 2144.402
527.9979, 2150.677
528.4800, 2162.239
528.9621, 2174.202
529.4442, 2184.840
529.9263, 2189.408
530.4084, 2175.699
530.8906, 2161.910
531.3727, 2163.438
531.8548, 2183.805
532.3369, 2199.809
532.8190, 2200.891
533.3011, 2195.472
533.7833, 2191.203
534.2654, 2185.869
534.7475, 2185.740
535.2296, 2195.613
535.7117, 2211.304
536.1938, 2217.716
536.6760, 2211.085
537.1581, 2202.550
537.6402, 2197.156
538.1223, 2195.450
538.6044, 2188.997
539.0865, 2175.768
539.5687, 2163.650
540.0508, 2162.473
540.5329, 2171.184
541.0150, 2183.313
541.4971, 2200.818
541.9792, 2216.327
542.4614, 2213.959
542.9435, 2197.306
543.4256, 2183.056
543.9077, 2186.359
544.3898, 2193.915
544.8719, 2190.250
545.3541, 2171.605
545.8362, 2158.555
546.3183, 2167.750
546.8004, 2184.887
547.2825, 2194.441
547.7646, 2181.909
548.2468, 2173.500
548.7289, 2178.437
549.2110, 2192.583
549.6931, 2175.209
550.1752, 2201.987
550.6573, 2217.333
551.1395, 2221.864
551.6216, 2183.181
552.1037, 2200.300
552.5858, 2195.055
553.0679, 2188.894
553.5500, 2213.866
554.0322, 2181.469
554.5143, 2205.947
554.9964, 2207.722
555.4785, 2219.887
555.9606, 2209.552
556.4427, 2206.167
556.9249, 2225.289
557.4070, 2212.554
557.8891, 2211.842
558.3712, 2210.020
558.8533, 2207.750
559.3354, 2201.120
559.8176, 2179.954
560.2997, 2156.700
560.7818, 2144.096
561.2639, 2151.915
561.7460, 2163.438
562.2281, 2181.040
562.7103, 2200.815
563.1924, 2208.090
563.6745, 2193.655
564.1566, 2178.769
564.6387, 2169.960
565.1208, 2167.110
565.6030, 2172.714
566.0851, 2190.131
566.5672, 2208.216
567.0493, 2215.029
567.5314, 2210.962
568.0135, 2205.892
568.4957, 2201.162
568.9778, 2197.220
569.4599, 2193.675
569.9420, 2191.208
570.4241, 2192.825
570.9063, 2209.046
571.3884, 2224.680
571.8705, 2220.474
572.3526, 2195.830
572.8347, 2174.842
573.3168, 2173.440
573.7990, 2179.531
574.2811, 2182.744
574.7632, 2174.209
575.2453, 2172.370
575.7274, 2190.490
576.2095, 2215.509
576.6917, 2219.900
577.1738, 2186.695
577.6559, 2161.010
578.1380, 2158.172
578.6201, 2176.307
579.1022, 2183.429
579.5844, 2176.679
580.0665, 2169.463
580.5486, 2173.041
581.0307, 2185.943
581.5128, 2198.284
581.9949, 2209.542
582.4771, 2217.941
582.9592, 2223.984
583.4413, 2225.592
583.9234, 2217.608
584.4055, 2183.741
584.8876, 2150.744
585.3698, 2140.099
585.8519, 2149.001
586.3340, 2161.739
586.8161, 2182.751
587.2982, 2197.423
587.7803, 2194.275
588.2625, 2159.025
588.7446, 2140.816
589.2267, 2151.543
589.7088, 2173.355
590.1909, 2188.009
590.6730, 2194.773
591.1552, 2194.916
591.6373, 2184.609
592.1194, 2170.195
592.6015, 2173.378
593.0836, 2195.309
593.5657, 2216.149
594.0479, 2228.284
594.5300, 2231.054
595.0121, 2216.708
595.4942, 2184.391
595.9763, 2158.136
596.4584, 2166.267
596.9406, 2189.654
597.4227, 2202.764
597.9048, 2193.338
598.3869, 2182.776
598.8690, 2179.742
599.3511, 2182.634
599.8333, 2188.245
600.3154, 2205.513
600.7975, 2215.260
601.2796, 2208.804
601.7617, 2186.754
602.2438, 2174.896
602.7260, 2178.992
603.2081, 2183.469
603.6902, 2175.451
604.1723, 2152.985
604.6544, 2144.576
605.1365, 2153.645
605.6187, 2170.719
606.1008, 2187.740
606.5829, 2203.037
607.0650, 2208.896
607.5471, 2198.219
608.0292, 2182.245
608.5114, 2173.901
608.9935, 2171.495
609.4756, 2168.918
609.9577, 2158.189
610.4398, 2150.042
610.9219, 2153.514
611.4041, 2171.543
611.8862, 2184.643
612.3683, 2184.307
612.8504, 2180.641
613.3325, 2181.791
613.8146, 2193.258
614.2968, 2197.908
614.7789, 2191.158
615.2610, 2180.432
615.7431, 2184.037
616.2252, 2204.366
616.7073, 2214.258
617.1895, 2197.867
617.6716, 2166.597
618.1537, 2153.995
618.6358, 2158.531
619.1179, 2163.566
619.6000, 2154.508
620.0822, 2140.470
620.5643, 2132.555
621.0464, 2132.563
621.5285, 2135.999
622.0106, 2144.559
622.4927, 2153.481
622.9749, 2157.621
623.4570, 2151.617
623.9391, 2145.854
624.4212, 2142.575
624.9033, 2140.458
625.3854, 2134.862
625.8676, 2120.872
626.3497, 2114.803
626.8318, 2126.824
627.3139, 2153.762
627.7960, 2161.781
628.2781, 2148.744
628.7603, 2134.308
629.2424, 2138.703
629.7245, 2153.929
630.2066, 2157.704
630.6887, 2145.239
631.1708, 2130.390
631.6530, 2124.986
632.1351, 2125.362
632.6172, 2125.978
633.0993, 2123.188
633.5814, 2122.055
634.0635, 2126.370
634.5457, 2134.271
635.0278, 2138.554
635.5099, 2135.758
635.9920, 2132.288
636.4741, 2129.758
636.9562, 2128.145
637.4384, 2127.231
637.9205, 2125.991
638.4026, 2128.108
638.8847, 2141.565
639.3668, 2164.002
639.8489, 2170.214
640.3311, 2154.378
640.8132, 2133.313
641.2953, 2127.516
641.7774, 2131.483
642.2595, 2132.908
642.7416, 2122.136
643.2238, 2112.390
643.7059, 2113.419
644.1880, 2122.678
644.6701, 2131.566
645.1522, 2133.745
645.6343, 2138.280
646.1165, 2151.982
646.5986, 2177.094
