##NAMES=Smithsonite
##RRUFFID=R040035
##IDEAL CHEMISTRY=Zn^2+^CO_3_
##LOCALITY=Mazapil, Zacatecas, Mexico
##OWNER=RRUFF
##SOURCE=University of Arizona Mineral Museum
##DESCRIPTION=Pale green-blue fine-grained massive
##STATUS=The identification of this mineral has been confirmed by X-ray diffraction and chemical analysis
##URL=rruff.info/R040035
##MEASURED CHEMISTRY=(Zn_0.97_Ca_0.02_Pb_0.01_)_Î£=1_C_1.00_O_3_; CO_2_ estimated by difference
137.2789, 108.6405
137.7610, 109.9235
138.2431, 111.6932
138.7252, 112.8073
139.2073, 113.2148
139.6894, 113.2510
140.1716, 112.8569
140.6537, 111.8894
141.1358, 111.6195
141.6179, 112.2445
142.1000, 113.3557
142.5821, 114.1745
143.0643, 114.6082
143.5464, 114.9708
144.0285, 115.3731
144.5106, 115.7688
144.9927, 116.3534
145.4748, 117.3443
145.9570, 118.4830
146.4391, 118.9183
146.9212, 118.0787
147.4033, 117.2357
147.8854, 116.9766
148.3675, 117.6305
148.8497, 118.3576
149.3318, 119.2301
149.8139, 120.1826
150.2960, 120.8796
150.7781, 120.9453
151.2602, 121.0242
151.7424, 121.4617
152.2245, 122.2141
152.7066, 123.3564
153.1887, 125.1820
153.6708, 127.5895
154.1529, 129.5262
154.6351, 131.1409
155.1172, 132.1658
155.5993, 132.4303
156.0814, 130.6268
156.5635, 129.3852
157.0456, 129.4469
157.5278, 130.8196
158.0099, 132.1108
158.4920, 132.8735
158.9741, 133.5250
159.4562, 134.4394
159.9383, 136.0190
160.4205, 137.5907
160.9026, 138.8146
161.3847, 139.6431
161.8668, 140.7526
162.3489, 142.7331
162.8310, 145.0171
163.3132, 146.9432
163.7953, 147.7688
164.2774, 148.5824
164.7595, 149.9214
165.2416, 151.8627
165.7237, 154.1106
166.2059, 156.6169
166.6880, 159.3325
167.1701, 162.1840
167.6522, 164.6552
168.1343, 167.5521
168.6164, 171.6522
169.0985, 177.2857
169.5807, 183.0456
170.0628, 187.8735
170.5449, 192.1643
171.0270, 196.6489
171.5091, 200.9803
171.9912, 206.0227
172.4734, 212.9058
172.9555, 222.2356
173.4376, 231.9983
173.9197, 239.9663
174.4018, 246.9132
174.8839, 254.9012
175.3661, 266.0946
175.8482, 278.6169
176.3303, 289.8494
176.8124, 299.0844
177.2945, 307.8036
177.7766, 317.7123
178.2588, 328.6253
178.7409, 339.3445
179.2230, 348.4269
179.7051, 357.0217
180.1872, 367.3247
180.6693, 380.3068
181.1515, 394.2116
181.6336, 406.2582
182.1157, 416.7049
182.5978, 427.3422
183.0799, 438.9765
183.5620, 451.8421
184.0442, 466.4368
184.5263, 483.3327
185.0084, 501.5381
185.4905, 519.6483
185.9726, 537.6242
186.4547, 556.4138
186.9369, 576.3419
187.4190, 597.6890
187.9011, 620.8067
188.3832, 646.2365
188.8653, 673.3893
189.3474, 701.0289
189.8296, 729.3804
190.3117, 758.8334
190.7938, 791.0897
191.2759, 825.5716
191.7580, 857.9008
192.2401, 888.6112
192.7223, 916.0589
193.2044, 936.3651
193.6865, 949.8187
194.1686, 955.3754
194.6507, 952.7687
195.1328, 942.0385
195.6150, 920.8453
196.0971, 887.3802
196.5792, 843.3908
197.0613, 794.4124
197.5434, 739.9985
198.0255, 683.3427
198.5077, 627.4889
198.9898, 572.0261
199.4719, 521.0132
199.9540, 475.4566
200.4361, 435.2911
200.9182, 398.9939
201.4004, 366.7456
201.8825, 338.5184
202.3646, 314.8280
202.8467, 296.2281
203.3288, 279.2712
203.8109, 263.2541
204.2931, 248.2055
204.7752, 234.2728
205.2573, 221.2976
205.7394, 209.8017
206.2215, 200.5771
206.7036, 194.0290
207.1858, 188.0344
207.6679, 182.0644
208.1500, 176.1609
208.6321, 171.1027
209.1142, 167.1356
209.5963, 163.5494
210.0785, 159.4820
210.5606, 154.7285
211.0427, 150.3635
211.5248, 146.6528
212.0069, 143.5852
212.4890, 140.6589
212.9712, 137.7926
213.4533, 135.1829
213.9354, 133.1700
214.4175, 131.9597
214.8996, 130.6402
215.3817, 128.7881
215.8639, 126.4138
216.3460, 125.1025
216.8281, 125.3610
217.3102, 126.0060
217.7923, 125.6635
218.2744, 123.9506
218.7565, 122.2089
219.2387, 120.7006
219.7208, 119.4054
220.2029, 118.5273
220.6850, 118.2194
221.1671, 118.1555
221.6492, 118.0420
222.1314, 118.0071
222.6135, 117.5869
223.0956, 116.4171
223.5777, 114.4095
224.0598, 113.6128
224.5419, 114.6300
225.0241, 116.1824
225.5062, 116.9312
225.9883, 116.6302
226.4704, 116.0036
226.9525, 115.0525
227.4346, 113.7281
227.9168, 112.9877
228.3989, 113.0302
228.8810, 113.4427
229.3631, 113.8345
229.8452, 114.2844
230.3273, 114.5540
230.8095, 114.5021
231.2916, 114.1061
231.7737, 114.0687
232.2558, 114.6750
232.7379, 115.3451
233.2200, 115.4000
233.7022, 114.2878
234.1843, 113.6702
234.6664, 114.1294
235.1485, 115.6852
235.6306, 116.3908
236.1127, 115.7008
236.5949, 114.7259
237.0770, 114.5246
237.5591, 115.4199
238.0412, 116.4773
238.5233, 117.6737
239.0054, 119.0122
239.4876, 119.7229
239.9697, 119.2525
240.4518, 118.7602
240.9339, 119.4075
241.4160, 122.1343
241.8981, 124.1139
242.3803, 124.5498
242.8624, 123.5078
243.3445, 123.3092
243.8266, 124.1936
244.3087, 125.6418
244.7908, 127.3857
245.2730, 130.0811
245.7551, 131.6985
246.2372, 131.5031
246.7193, 129.6836
247.2014, 128.8290
247.6835, 129.0504
248.1657, 130.1100
248.6478, 132.0102
249.1299, 135.5495
249.6120, 138.1766
250.0941, 139.2575
250.5762, 139.0293
251.0584, 139.4177
251.5405, 140.6543
252.0226, 142.1955
252.5047, 143.7266
252.9868, 145.4666
253.4689, 146.6416
253.9511, 146.7187
254.4332, 146.0819
254.9153, 147.0598
255.3974, 150.5146
255.8795, 154.2495
256.3616, 156.7055
256.8438, 157.0847
257.3259, 158.3829
257.8080, 161.2397
258.2901, 165.1456
258.7722, 168.1425
259.2543, 169.8077
259.7365, 171.2861
260.2186, 173.2070
260.7007, 175.5705
261.1828, 178.2756
261.6649, 181.1948
262.1470, 184.4777
262.6292, 188.9414
263.1113, 195.3283
263.5934, 201.3188
264.0755, 205.4501
264.5576, 206.9593
265.0397, 209.4945
265.5219, 213.3921
266.0040, 218.2100
266.4861, 223.0975
266.9682, 228.0309
267.4503, 233.0162
267.9324, 237.8226
268.4146, 242.3283
268.8967, 247.5669
269.3788, 253.5688
269.8609, 260.2784
270.3430, 267.5361
270.8251, 275.3978
271.3073, 283.5783
271.7894, 291.6861
272.2715, 299.6262
272.7536, 308.5555
273.2357, 318.5704
273.7178, 329.2957
274.2000, 340.1461
274.6821, 350.8350
275.1642, 362.6802
275.6463, 376.2015
276.1284, 391.3963
276.6105, 407.4279
277.0927, 424.2254
277.5748, 441.9994
278.0569, 461.0978
278.5390, 481.4937
279.0211, 502.7514
279.5032, 524.4002
279.9854, 546.4467
280.4675, 570.6415
280.9496, 596.9900
281.4317, 625.4762
281.9138, 656.2101
282.3959, 689.2150
282.8781, 723.9980
283.3602, 760.7522
283.8423, 799.3135
284.3244, 837.5638
284.8065, 875.3937
285.2886, 914.7427
285.7708, 957.8303
286.2529, 1004.495
286.7350, 1051.757
287.2171, 1099.040
287.6992, 1146.682
288.1813, 1193.931
288.6635, 1240.833
289.1456, 1289.973
289.6277, 1344.768
290.1098, 1404.517
290.5919, 1462.151
291.0740, 1516.005
291.5562, 1568.992
292.0383, 1625.173
292.5204, 1685.009
293.0025, 1747.969
293.4846, 1816.135
293.9667, 1887.972
294.4489, 1958.258
294.9310, 2025.449
295.4131, 2091.503
295.8952, 2159.999
296.3773, 2230.084
296.8594, 2297.760
297.3416, 2362.656
297.8237, 2424.109
298.3058, 2478.947
298.7879, 2526.842
299.2700, 2570.983
299.7521, 2617.520
300.2343, 2663.747
300.7164, 2698.584
301.1985, 2716.903
301.6806, 2720.916
302.1627, 2714.380
302.6448, 2697.491
303.1270, 2667.961
303.6091, 2623.729
304.0912, 2565.439
304.5733, 2492.303
305.0554, 2399.667
305.5375, 2294.863
306.0197, 2184.621
306.5018, 2069.698
306.9839, 1953.931
307.4660, 1839.927
307.9481, 1728.147
308.4302, 1619.521
308.9124, 1511.193
309.3945, 1407.730
309.8766, 1312.474
310.3587, 1224.483
310.8408, 1143.512
311.3229, 1070.919
311.8051, 1003.901
312.2872, 941.5397
312.7693, 883.3395
313.2514, 829.2417
313.7335, 779.1000
314.2156, 732.7814
314.6978, 689.2179
315.1799, 647.8394
315.6620, 608.8319
316.1441, 573.2510
316.6262, 541.1630
317.1083, 511.8998
317.5905, 485.9781
318.0726, 462.7032
318.5547, 440.4818
319.0368, 419.4630
319.5189, 398.9792
320.0010, 378.5559
320.4832, 357.6531
320.9653, 338.7971
321.4474, 323.4034
321.9295, 310.2013
322.4116, 297.7038
322.8937, 285.5650
323.3759, 274.1133
323.8580, 263.3538
324.3401, 253.3782
324.8222, 244.2727
325.3043, 236.5290
325.7864, 229.4075
326.2686, 222.3376
326.7507, 214.9310
327.2328, 207.9399
327.7149, 201.5157
328.1970, 195.6759
328.6791, 189.9615
329.1613, 183.9407
329.6434, 178.4218
330.1255, 173.8302
330.6076, 170.6031
331.0897, 167.6969
331.5718, 165.4998
332.0540, 163.5993
332.5361, 160.7361
333.0182, 156.0996
333.5003, 151.5238
333.9824, 147.8019
334.4645, 145.1847
334.9467, 142.5729
335.4288, 139.9394
335.9109, 137.3476
336.3930, 134.9527
336.8751, 132.7420
337.3572, 130.7171
337.8394, 128.9122
338.3215, 127.3577
338.8036, 125.6369
339.2857, 123.6457
339.7678, 121.6631
340.2499, 119.9777
340.7320, 118.6628
341.2141, 117.3688
341.6963, 115.9880
342.1784, 114.5796
342.6605, 113.4656
343.1426, 112.6814
343.6247, 112.0655
344.1068, 111.7394
344.5890, 111.6687
345.0711, 110.7720
345.5532, 108.6460
346.0353, 105.9696
346.5174, 104.1764
346.9995, 103.2436
347.4817, 102.6758
347.9638, 102.2396
348.4459, 101.9303
348.9280, 101.8111
349.4101, 101.9523
349.8922, 102.0084
350.3744, 101.4648
350.8565, 100.4350
351.3386, 99.34038
351.8207, 98.30419
352.3028, 97.36516
352.7849, 96.58303
353.2671, 95.95284
353.7492, 95.42003
354.2313, 94.99843
354.7134, 94.63338
355.1955, 94.22968
355.6776, 93.83789
356.1598, 93.31990
356.6419, 92.44516
357.1240, 91.27778
357.6061, 90.15919
358.0882, 89.26208
358.5703, 88.52946
359.0525, 87.89839
359.5346, 87.28707
360.0167, 86.91068
360.4988, 87.30904
360.9809, 88.04655
361.4630, 88.15987
361.9452, 86.57195
362.4273, 84.75459
362.9094, 83.50838
363.3915, 82.98058
363.8736, 82.75063
364.3557, 83.07763
364.8379, 83.49903
365.3200, 83.47171
365.8021, 82.32404
366.2842, 81.25141
366.7663, 80.73213
367.2484, 80.78072
367.7306, 80.51904
368.2127, 79.43248
368.6948, 78.26361
369.1769, 77.49659
369.6590, 77.60942
370.1411, 77.55885
370.6233, 77.27249
371.1054, 76.78496
371.5875, 76.20332
372.0696, 75.34283
372.5517, 74.62218
373.0338, 74.27817
373.5160, 74.58711
373.9981, 74.45366
374.4802, 73.70624
374.9623, 72.65102
375.4444, 71.78444
375.9265, 71.14922
376.4087, 70.55199
376.8908, 69.88164
377.3729, 69.14703
377.8550, 68.76734
378.3371, 68.79453
378.8192, 69.04652
379.3014, 69.46487
379.7835, 70.07426
380.2656, 70.36963
380.7477, 70.23832
381.2298, 69.75273
381.7119, 68.92682
382.1941, 67.75610
382.6762, 66.76598
383.1583, 66.54550
383.6404, 66.85001
384.1225, 66.62138
384.6046, 65.62727
385.0868, 64.56831
385.5689, 64.47724
386.0510, 65.12452
386.5331, 65.64302
387.0152, 65.58415
387.4973, 65.17420
387.9795, 64.71535
388.4616, 64.21329
388.9437, 63.64167
389.4258, 62.79768
389.9079, 61.91609
390.3900, 61.34703
390.8722, 61.24526
391.3543, 61.43174
391.8364, 62.05016
392.3185, 62.92545
392.8006, 63.43169
393.2827, 62.95294
393.7649, 62.19686
394.2470, 61.64441
394.7291, 61.40228
395.2112, 61.28234
395.6933, 61.32452
396.1754, 61.42408
396.6576, 61.42474
397.1397, 61.28228
397.6218, 61.04038
398.1039, 60.71459
398.5860, 60.30711
399.0681, 59.79656
399.5503, 58.85256
400.0324, 58.00166
400.5145, 57.63467
400.9966, 57.97501
401.4787, 58.50262
401.9608, 59.46128
402.4430, 60.61193
402.9251, 60.97743
403.4072, 60.18013
403.8893, 59.16616
404.3714, 58.28642
404.8535, 57.46149
405.3357, 57.17534
405.8178, 57.73096
406.2999, 58.42637
406.7820, 58.04516
407.2641, 56.32402
407.7462, 55.06688
408.2284, 54.95380
408.7105, 55.74430
409.1926, 56.21315
409.6747, 56.32606
410.1568, 56.37254
410.6389, 56.70063
411.1211, 57.22152
411.6032, 57.37605
412.0853, 56.94389
412.5674, 56.36831
413.0495, 56.31478
413.5316, 56.71914
414.0138, 57.24766
414.4959, 58.13358
414.9780, 58.88433
415.4601, 58.42826
415.9422, 56.61990
416.4243, 55.02601
416.9065, 55.31249
417.3886, 56.54403
417.8707, 57.31738
418.3528, 56.60058
418.8349, 55.79749
419.3170, 56.02200
419.7992, 57.02176
420.2813, 57.60500
420.7634, 56.72939
421.2455, 55.61638
421.7276, 55.11717
422.2097, 55.62392
422.6919, 56.10789
423.1740, 56.13346
423.6561, 56.02076
424.1382, 56.26292
424.6203, 57.66619
425.1024, 58.68981
425.5846, 58.83018
426.0667, 58.03252
426.5488, 57.33389
427.0309, 56.54298
427.5130, 56.01258
427.9951, 56.06011
428.4773, 57.15324
428.9594, 57.79670
429.4415, 57.80196
429.9236, 57.33936
430.4057, 56.77246
430.8878, 56.02659
431.3700, 55.41875
431.8521, 55.08218
432.3342, 55.01696
432.8163, 55.18488
433.2984, 55.64446
433.7805, 56.13578
434.2627, 56.35912
434.7448, 56.33375
435.2269, 56.24290
435.7090, 56.10488
436.1911, 55.95597
436.6732, 55.85571
437.1554, 55.80444
437.6375, 55.81476
438.1196, 56.03750
438.6017, 56.28582
439.0838, 56.22735
439.5659, 55.79090
440.0480, 55.22240
440.5302, 54.49149
441.0123, 53.80097
441.4944, 53.49146
441.9765, 54.13071
442.4586, 54.83765
442.9407, 55.08559
443.4229, 54.89994
443.9050, 54.58093
444.3871, 54.12139
444.8692, 53.65821
445.3513, 53.27956
445.8334, 53.00340
446.3156, 52.80527
446.7977, 52.60676
447.2798, 52.49591
447.7619, 52.63602
448.2440, 53.41981
448.7261, 54.03920
449.2083, 54.31453
449.6904, 54.23945
450.1725, 53.92424
450.6546, 52.96595
451.1367, 52.27224
451.6188, 52.76942
452.1010, 55.11275
452.5831, 56.33570
453.0652, 55.87658
453.5473, 54.47183
454.0294, 53.84454
454.5115, 54.10379
454.9937, 54.23710
455.4758, 53.62676
455.9579, 52.45280
456.4400, 51.72952
456.9221, 51.47103
457.4042, 51.46867
457.8864, 51.57542
458.3685, 51.77461
458.8506, 52.06975
459.3327, 52.60076
459.8148, 52.98668
460.2969, 52.49823
460.7791, 51.41487
461.2612, 50.67658
461.7433, 51.11243
462.2254, 51.92934
462.7075, 52.52995
463.1896, 52.87673
463.6718, 52.86974
464.1539, 52.05964
464.6360, 51.04421
465.1181, 50.43218
465.6002, 50.65182
466.0823, 51.00047
466.5645, 51.45354
467.0466, 51.93362
467.5287, 52.14923
468.0108, 51.73287
468.4929, 51.35033
468.9750, 51.27825
469.4572, 51.65754
469.9393, 51.80217
470.4214, 51.52045
470.9035, 51.17701
471.3856, 51.23223
471.8677, 51.89627
472.3499, 52.27872
472.8320, 52.16540
473.3141, 51.69425
473.7962, 51.32134
474.2783, 51.05141
474.7604, 50.84841
475.2426, 50.63833
475.7247, 50.45744
476.2068, 50.57515
476.6889, 51.03461
477.1710, 51.57838
477.6531, 51.97068
478.1353, 52.22213
478.6174, 52.35778
479.0995, 52.36325
479.5816, 52.28121
480.0637, 52.15351
480.5458, 51.97762
481.0280, 51.74602
481.5101, 51.44247
481.9922, 51.08632
482.4743, 50.69678
482.9564, 50.27516
483.4385, 49.80965
483.9207, 49.08468
484.4028, 48.40477
484.8849, 48.09254
485.3670, 48.55297
485.8491, 49.01476
486.3312, 49.40576
486.8134, 49.70274
487.2955, 49.80326
487.7776, 49.51777
488.2597, 49.26498
488.7418, 49.24245
489.2239, 49.53186
489.7061, 49.66040
490.1882, 49.60953
490.6703, 49.42515
491.1524, 49.06081
491.6345, 48.45040
492.1166, 48.20990
492.5988, 48.59488
493.0809, 49.28218
493.5630, 49.42098
494.0451, 49.02470
494.5272, 48.50874
495.0093, 47.99667
495.4915, 47.55871
495.9736, 47.36016
496.4557, 47.41231
496.9378, 47.62687
497.4199, 48.15790
497.9020, 48.74604
498.3842, 48.95895
498.8663, 48.44625
499.3484, 47.84924
499.8305, 47.58787
500.3126, 47.55984
500.7947, 47.50494
501.2769, 47.21062
501.7590, 46.96793
502.2411, 46.95513
502.7232, 47.22800
503.2053, 47.40733
503.6874, 47.49640
504.1696, 47.43600
504.6517, 47.16354
505.1338, 46.45596
505.6159, 45.91633
506.0980, 45.53413
506.5801, 45.36121
507.0623, 45.60600
507.5444, 46.45396
508.0265, 47.13650
508.5086, 47.37876
508.9907, 47.21152
509.4728, 46.82217
509.9550, 46.18648
510.4371, 45.53292
510.9192, 44.97572
511.4013, 44.55676
511.8834, 44.50286
512.3655, 44.92825
512.8477, 45.45841
513.3298, 45.74280
513.8119, 45.79596
514.2940, 45.65110
514.7761, 45.13855
515.2582, 44.57719
515.7404, 44.23090
516.2225, 44.07333
516.7046, 43.88665
517.1867, 43.20440
517.6688, 42.71624
518.1509, 43.00887
518.6331, 44.73395
519.1152, 45.83186
519.5973, 45.43756
520.0794, 44.43503
520.5615, 43.96315
521.0436, 44.52077
521.5258, 44.79926
522.0079, 44.35931
522.4900, 43.45797
522.9721, 43.48892
523.4542, 44.77089
523.9363, 46.04070
524.4185, 46.61643
524.9006, 46.50307
525.3827, 46.39012
525.8648, 46.29182
526.3469, 46.12560
526.8290, 45.72736
527.3112, 45.16928
527.7933, 44.73758
528.2754, 44.54930
528.7575, 44.41895
529.2396, 44.05861
529.7217, 43.55854
530.2039, 43.18958
530.6860, 43.22504
531.1681, 43.33762
531.6502, 43.13986
532.1323, 42.63250
532.6144, 42.55940
533.0966, 43.98073
533.5787, 45.44692
534.0608, 45.89152
534.5429, 44.13211
535.0250, 43.00211
535.5071, 43.20549
535.9893, 43.98732
536.4714, 44.23904
536.9535, 43.59391
537.4356, 43.13417
537.9177, 43.14888
538.3998, 43.55414
538.8820, 43.83869
539.3641, 43.98720
539.8462, 44.07441
540.3283, 44.25269
540.8104, 44.45766
541.2925, 44.05296
541.7747, 42.91162
542.2568, 41.84203
542.7389, 41.73505
543.2210, 42.36605
543.7031, 43.29569
544.1852, 44.74927
544.6674, 45.88892
545.1495, 45.67826
545.6316, 44.52397
546.1137, 43.44131
546.5958, 42.69739
547.0779, 42.30919
547.5601, 42.46967
548.0422, 43.20030
548.5243, 43.63641
549.0064, 43.44165
549.4885, 43.00256
549.9706, 42.54293
550.4528, 41.97009
550.9349, 41.55334
551.4170, 41.26012
551.8991, 41.13964
552.3812, 41.35239
552.8633, 42.04722
553.3455, 42.42452
553.8276, 42.12582
554.3097, 41.46927
554.7918, 41.64371
555.2739, 42.64530
555.7560, 43.52076
556.2382, 43.57048
556.7203, 43.10082
557.2024, 42.76173
557.6845, 42.58443
558.1666, 42.46658
558.6487, 42.35027
559.1309, 42.23483
559.6130, 42.08720
560.0951, 41.74981
560.5772, 41.67009
561.0593, 42.40203
561.5414, 43.48679
562.0236, 44.10439
562.5057, 43.72578
562.9878, 43.21104
563.4699, 42.67188
563.9520, 42.13926
564.4341, 41.92857
564.9163, 42.29240
565.3984, 42.62089
565.8805, 42.54949
566.3626, 41.95710
566.8447, 41.79763
567.3268, 42.22847
567.8090, 42.64895
568.2911, 42.18258
568.7732, 40.95542
569.2553, 40.16349
569.7374, 40.12759
570.2195, 40.45670
570.7017, 40.69065
571.1838, 40.84047
571.6659, 40.93743
572.1480, 40.98906
572.6301, 41.00222
573.1122, 41.00452
573.5944, 40.98705
574.0765, 40.87411
574.5586, 40.31625
575.0407, 39.88639
575.5228, 40.03141
576.0049, 41.17164
576.4871, 41.83990
576.9692, 41.61530
577.4513, 41.06921
577.9334, 40.70238
578.4155, 40.52619
578.8976, 40.55071
579.3798, 40.89851
579.8619, 41.35361
580.3440, 41.31028
580.8261, 40.72559
581.3082, 40.20684
581.7903, 40.07811
582.2725, 40.18478
582.7546, 40.06203
583.2367, 39.72543
583.7188, 39.36824
584.2009, 38.90186
584.6830, 38.60079
585.1652, 39.00652
585.6473, 40.32790
586.1294, 41.39989
586.6115, 41.34610
587.0936, 40.78155
587.5757, 40.35239
588.0578, 40.47720
588.5399, 40.44953
589.0220, 39.97266
589.5042, 39.26955
589.9863, 38.85304
590.4684, 38.81527
590.9505, 38.93328
591.4326, 39.23683
591.9147, 39.67893
592.3969, 39.76520
592.8790, 39.39579
593.3611, 39.09971
593.8432, 39.40639
594.3253, 40.14022
594.8074, 40.27109
595.2896, 39.71141
595.7717, 39.02839
596.2538, 38.71843
596.7359, 38.68951
597.2180, 38.80579
597.7001, 39.11294
598.1823, 39.37962
598.6644, 39.46360
599.1465, 39.39900
599.6286, 39.24343
600.1107, 38.88646
600.5928, 38.57649
601.0750, 38.41703
601.5571, 38.39108
602.0392, 38.31945
602.5213, 38.12054
603.0034, 37.98568
603.4855, 38.05305
603.9677, 38.35775
604.4498, 38.30010
604.9319, 37.77259
605.4140, 37.21474
605.8961, 37.05956
606.3782, 37.25371
606.8604, 37.48681
607.3425, 37.74182
607.8246, 37.94297
608.3067, 37.99030
608.7888, 37.91470
609.2709, 37.77872
609.7531, 37.57576
610.2352, 37.35562
610.7173, 37.02435
611.1994, 36.69133
611.6815, 36.64736
612.1636, 37.44536
612.6458, 38.10805
613.1279, 38.15688
613.6100, 37.55123
614.0921, 37.24573
614.5742, 37.53981
615.0563, 37.73492
615.5385, 37.30368
616.0206, 36.00716
616.5027, 35.58158
616.9848, 36.22803
617.4669, 37.13818
617.9490, 37.32455
618.4312, 36.92661
618.9133, 36.66427
619.3954, 36.71299
619.8775, 36.85700
620.3596, 36.99253
620.8417, 37.02072
621.3239, 36.72535
621.8060, 35.39788
622.2881, 34.28536
622.7702, 34.32671
623.2523, 35.25100
623.7344, 35.92638
624.2166, 35.82388
624.6987, 35.64276
625.1808, 35.71288
625.6629, 36.07480
626.1450, 36.06416
626.6271, 35.38076
627.1093, 34.81118
627.5914, 35.11061
628.0735, 36.38995
628.5556, 36.76711
629.0377, 35.97879
629.5198, 34.95020
630.0020, 34.86469
630.4841, 35.44691
630.9662, 35.81337
631.4483, 35.66141
631.9304, 35.39355
632.4125, 35.40532
632.8947, 35.58987
