##NAMES=Smithsonite
##RRUFFID=R040051
##IDEAL CHEMISTRY=Zn^2+^CO_3_
##LOCALITY=Berg Aukas mine, Grootfontein, Namibia
##OWNER=RRUFF
##SOURCE=University of Arizona Mineral Museum
##DESCRIPTION=Yellowish brown botryoidal groups
##STATUS=The identification of this mineral has been confirmed by X-ray diffraction and chemical analysis
##URL=rruff.info/R040051
##MEASURED CHEMISTRY=(Zn_0.94_Ca_0.02_Mg_0.02_)C_1.01_O_3_
113.3322, 76.27535
113.8143, 84.57298
114.2964, 95.12563
114.7785, 103.0767
115.2606, 108.0592
115.7427, 111.7111
116.2249, 114.9610
116.7070, 117.2309
117.1891, 117.7023
117.6712, 115.8999
118.1533, 112.3112
118.6354, 107.7238
119.1175, 100.8577
119.5997, 95.44054
120.0818, 92.73751
120.5639, 91.94420
121.0460, 91.73588
121.5281, 90.81231
122.0102, 90.01068
122.4924, 94.14442
122.9745, 107.5560
123.4566, 121.0875
123.9387, 132.3812
124.4208, 141.9149
124.9029, 150.6048
125.3851, 158.6918
125.8672, 166.2159
126.3493, 176.3271
126.8314, 191.2172
127.3135, 206.8870
127.7956, 220.4574
128.2778, 233.6160
128.7599, 250.9895
129.2420, 277.3293
129.7241, 314.1482
130.2062, 348.5604
130.6884, 386.6129
131.1705, 417.5858
131.6526, 437.4091
132.1347, 445.6656
132.6168, 443.5194
133.0989, 431.5484
133.5811, 407.4326
134.0632, 380.2047
134.5453, 344.1679
135.0274, 309.8812
135.5095, 283.1399
135.9916, 264.8273
136.4738, 252.5842
136.9559, 243.9581
137.4380, 240.5799
137.9201, 237.3356
138.4022, 233.5700
138.8843, 230.3064
139.3665, 228.0826
139.8486, 227.0893
140.3307, 227.5301
140.8128, 229.4501
141.2949, 231.3075
141.7770, 239.0392
142.2592, 256.7103
142.7413, 278.5084
143.2234, 298.5783
143.7055, 315.1418
144.1876, 330.4604
144.6697, 348.5741
145.1519, 370.6884
145.6340, 392.4500
146.1161, 413.8484
146.5982, 434.4287
147.0803, 454.8637
147.5624, 476.2028
148.0446, 494.4903
148.5267, 500.7018
149.0088, 493.3834
149.4909, 482.3006
149.9730, 468.2003
150.4551, 452.0583
150.9372, 434.7982
151.4194, 415.4900
151.9015, 397.5928
152.3836, 388.8816
152.8657, 392.0715
153.3478, 394.4524
153.8299, 389.7065
154.3121, 380.2887
154.7942, 372.4909
155.2763, 368.5913
155.7584, 367.6854
156.2405, 368.3966
156.7226, 372.1121
157.2048, 373.8560
157.6869, 368.0227
158.1690, 357.0867
158.6511, 351.6180
159.1332, 357.7017
159.6153, 369.8860
160.0975, 377.8027
160.5796, 380.0246
161.0617, 381.6598
161.5438, 386.7413
162.0259, 394.6270
162.5080, 400.6748
162.9902, 402.0987
163.4723, 401.3170
163.9544, 402.3702
164.4365, 406.0224
164.9186, 409.9893
165.4007, 411.1448
165.8829, 409.8081
166.3650, 412.4036
166.8471, 424.9161
167.3292, 440.5726
167.8113, 450.2965
168.2934, 451.5911
168.7756, 451.0716
169.2577, 455.0650
169.7398, 463.6696
170.2219, 471.0839
170.7040, 473.6519
171.1861, 474.7183
171.6683, 478.1556
172.1504, 485.0242
172.6325, 492.9177
173.1146, 499.8584
173.5967, 505.8921
174.0788, 510.4989
174.5610, 511.8069
175.0431, 512.4471
175.5252, 514.5989
176.0073, 518.2991
176.4894, 524.6143
176.9715, 536.1134
177.4537, 553.6667
177.9358, 569.6469
178.4179, 577.6156
178.9000, 584.4553
179.3821, 596.3458
179.8642, 615.0431
180.3464, 637.6262
180.8285, 661.2359
181.3106, 686.0205
181.7927, 710.8345
182.2748, 732.1891
182.7569, 755.1268
183.2391, 782.9515
183.7212, 815.6972
184.2033, 856.0562
184.6854, 909.3861
185.1675, 977.7895
185.6496, 1047.546
186.1318, 1111.815
186.6139, 1176.621
187.0960, 1246.188
187.5781, 1321.223
188.0602, 1403.090
188.5423, 1496.824
189.0245, 1604.287
189.5066, 1711.882
189.9887, 1804.588
190.4708, 1901.192
190.9529, 2020.674
191.4350, 2168.883
191.9172, 2326.596
192.3993, 2474.780
192.8814, 2614.861
193.3635, 2736.364
193.8456, 2843.417
194.3277, 2926.505
194.8099, 2977.244
195.2920, 2993.765
195.7741, 2977.378
196.2562, 2930.908
196.7383, 2855.421
197.2204, 2742.965
197.7026, 2562.583
198.1847, 2359.574
198.6668, 2155.149
199.1489, 1952.259
199.6310, 1760.990
200.1131, 1591.337
200.5953, 1445.184
201.0774, 1313.231
201.5595, 1196.962
202.0416, 1093.837
202.5237, 1006.965
203.0058, 936.3015
203.4880, 875.4447
203.9701, 817.8947
204.4522, 763.3278
204.9343, 713.3292
205.4164, 668.1443
205.8985, 628.4379
206.3807, 596.0572
206.8628, 570.9279
207.3449, 549.6280
207.8270, 528.6643
208.3091, 507.8441
208.7912, 489.5806
209.2734, 475.8783
209.7555, 463.7770
210.2376, 451.8726
210.7197, 439.9852
211.2018, 428.4617
211.6839, 417.1492
212.1661, 405.9707
212.6482, 397.2936
213.1303, 393.3155
213.6124, 390.4894
214.0945, 387.3554
214.5766, 383.6766
215.0588, 378.8688
215.5409, 371.7467
216.0230, 362.4406
216.5051, 354.4977
216.9872, 348.5417
217.4693, 343.8932
217.9515, 340.6617
218.4336, 338.5144
218.9157, 335.9978
219.3978, 331.2946
219.8799, 324.8249
220.3620, 320.5054
220.8442, 319.7086
221.3263, 319.7306
221.8084, 318.8336
222.2905, 317.2913
222.7726, 316.1065
223.2547, 315.9258
223.7369, 316.6285
224.2190, 317.8764
224.7011, 320.7671
225.1832, 322.3489
225.6653, 320.5739
226.1474, 316.3640
226.6296, 311.8445
227.1117, 307.7199
227.5938, 304.1421
228.0759, 301.6858
228.5580, 300.8315
229.0401, 300.1365
229.5223, 298.3672
230.0044, 296.1979
230.4865, 294.9771
230.9686, 296.2552
231.4507, 298.3528
231.9328, 297.3478
232.4150, 291.8349
232.8971, 287.5524
233.3792, 289.3062
233.8613, 293.8916
234.3434, 297.0475
234.8255, 297.0103
235.3077, 295.3903
235.7898, 294.8171
236.2719, 295.7346
236.7540, 294.8625
237.2361, 287.9563
237.7182, 279.1626
238.2004, 273.9626
238.6825, 274.2034
239.1646, 277.0285
239.6467, 279.9794
240.1288, 283.0685
240.6109, 286.3742
241.0931, 290.7130
241.5752, 294.7916
242.0573, 296.8425
242.5394, 296.3830
243.0215, 294.8161
243.5036, 292.5444
243.9858, 289.7744
244.4679, 288.0029
244.9500, 287.9312
245.4321, 288.9909
245.9142, 290.3396
246.3963, 292.1300
246.8785, 293.5719
247.3606, 294.5863
247.8427, 294.9590
248.3248, 293.6964
248.8069, 289.7859
249.2890, 285.4410
249.7712, 284.0012
250.2533, 285.6150
250.7354, 286.9627
251.2175, 285.9743
251.6996, 284.1339
252.1817, 284.6213
252.6639, 288.6017
253.1460, 292.7090
253.6281, 292.3192
254.1102, 287.4255
254.5923, 283.6441
255.0744, 281.3191
255.5566, 280.9298
256.0387, 283.8398
256.5208, 290.2308
257.0029, 297.2348
257.4850, 302.7664
257.9671, 306.6243
258.4492, 307.8776
258.9314, 304.2818
259.4135, 299.6912
259.8956, 296.1658
260.3777, 294.0337
260.8598, 294.1597
261.3419, 297.8066
261.8241, 304.6556
262.3062, 309.1311
262.7883, 310.4730
263.2704, 310.4814
263.7525, 308.6666
264.2346, 306.0183
264.7168, 305.2021
265.1989, 307.9636
265.6810, 313.5235
266.1631, 317.8490
266.6452, 321.7056
267.1273, 323.7124
267.6095, 321.3478
268.0916, 317.4158
268.5737, 316.2697
269.0558, 319.8272
269.5379, 326.6213
270.0201, 332.9980
270.5022, 341.6457
270.9843, 346.3061
271.4664, 342.2931
271.9485, 336.5963
272.4306, 336.8308
272.9128, 344.8242
273.3949, 355.6279
273.8770, 361.3190
274.3591, 357.8387
274.8412, 358.2269
275.3233, 365.1107
275.8055, 373.2589
276.2876, 379.5381
276.7697, 383.6005
277.2518, 386.6410
277.7339, 389.6294
278.2160, 392.1996
278.6982, 396.9691
279.1803, 406.4392
279.6624, 415.6873
280.1445, 422.3764
280.6266, 427.2646
281.1087, 432.6989
281.5909, 440.6204
282.0730, 450.7258
282.5551, 459.4512
283.0372, 463.9798
283.5193, 470.9041
284.0014, 482.4476
284.4836, 497.1909
284.9657, 512.9136
285.4478, 528.2125
285.9299, 544.3107
286.4120, 564.6199
286.8941, 591.7540
287.3763, 616.8906
287.8584, 633.4669
288.3405, 649.1274
288.8226, 671.0610
289.3047, 701.5084
289.7868, 736.5554
290.2690, 771.3411
290.7511, 805.5189
291.2332, 842.3547
291.7153, 883.1166
292.1974, 926.5433
292.6795, 969.9727
293.1617, 1013.262
293.6438, 1062.719
294.1259, 1125.774
294.6080, 1199.669
295.0901, 1271.339
295.5722, 1337.101
296.0544, 1403.432
296.5365, 1476.849
297.0186, 1556.311
297.5007, 1637.402
297.9828, 1722.817
298.4649, 1807.625
298.9471, 1881.940
299.4292, 1944.275
299.9113, 2006.461
300.3934, 2079.320
300.8755, 2159.533
301.3576, 2233.629
301.8398, 2307.812
302.3219, 2368.989
302.8040, 2405.059
303.2861, 2418.097
303.7682, 2419.835
304.2503, 2415.714
304.7325, 2404.651
305.2146, 2384.013
305.6967, 2358.785
306.1788, 2319.286
306.6609, 2261.587
307.1430, 2187.587
307.6252, 2097.308
308.1073, 1990.308
308.5894, 1874.255
309.0715, 1762.944
309.5536, 1652.123
310.0357, 1553.994
310.5179, 1478.280
311.0000, 1409.068
311.4821, 1330.799
311.9642, 1242.290
312.4463, 1155.410
312.9284, 1083.543
313.4106, 1029.176
313.8927, 976.2761
314.3748, 923.1117
314.8569, 872.4372
315.3390, 825.6943
315.8211, 782.4743
316.3033, 741.7513
316.7854, 702.4501
317.2675, 665.0692
317.7496, 632.4998
318.2317, 608.2414
318.7138, 584.7783
319.1960, 559.5037
319.6781, 534.7781
320.1602, 513.4845
320.6423, 496.8003
321.1244, 483.3914
321.6065, 471.3775
322.0887, 461.3152
322.5708, 450.8757
323.0529, 437.3126
323.5350, 424.8515
324.0171, 417.9429
324.4992, 416.5467
324.9814, 414.0948
325.4635, 401.8133
325.9456, 381.0811
326.4277, 369.8161
326.9098, 375.2857
327.3919, 382.2744
327.8741, 380.2379
328.3562, 371.2041
328.8383, 361.2967
329.3204, 351.7313
329.8025, 343.4033
330.2846, 338.2614
330.7668, 336.6507
331.2489, 335.7713
331.7310, 335.1783
332.2131, 333.8348
332.6952, 329.2231
333.1773, 317.8023
333.6595, 307.4880
334.1416, 304.7011
334.6237, 307.3716
335.1058, 308.7687
335.5879, 306.1236
336.0700, 301.5159
336.5522, 299.2968
337.0343, 300.9166
337.5164, 300.6245
337.9985, 295.2810
338.4806, 288.6666
338.9627, 284.8783
339.4449, 284.6025
339.9270, 285.7274
340.4091, 286.0097
340.8912, 285.1366
341.3733, 285.3842
341.8554, 288.0237
342.3376, 290.3649
342.8197, 290.9846
343.3018, 290.2957
343.7839, 289.3647
344.2660, 288.7951
344.7481, 288.6464
345.2303, 289.3719
345.7124, 293.5832
346.1945, 294.8667
346.6766, 289.5333
347.1587, 282.5009
347.6408, 278.8959
348.1230, 280.2325
348.6051, 283.7078
349.0872, 285.7247
349.5693, 286.2897
350.0514, 285.3427
350.5335, 280.4422
351.0157, 276.0919
351.4978, 275.5735
351.9799, 278.1834
352.4620, 280.1444
352.9441, 277.7568
353.4262, 272.6135
353.9084, 270.9500
354.3905, 274.5015
354.8726, 276.9958
355.3547, 272.2464
355.8368, 264.1836
356.3189, 259.2119
356.8011, 259.9564
357.2832, 262.5966
357.7653, 264.7012
358.2474, 266.0932
358.7295, 265.3353
359.2116, 260.9831
359.6938, 255.3577
360.1759, 253.1967
360.6580, 255.5491
361.1401, 256.9805
361.6222, 255.2064
362.1043, 252.1712
362.5865, 249.7398
363.0686, 248.3280
363.5507, 248.6428
364.0328, 252.0466
364.5149, 259.3896
364.9970, 261.9765
365.4792, 256.2127
365.9613, 250.0370
366.4434, 246.2062
366.9255, 244.6777
367.4076, 244.9675
367.8897, 246.8870
368.3719, 250.0184
368.8540, 253.1070
369.3361, 257.0932
369.8182, 259.3578
370.3003, 259.1443
370.7824, 257.6256
371.2646, 255.2182
371.7467, 252.2251
372.2288, 249.6889
372.7109, 249.2726
373.1930, 251.1493
373.6751, 251.4995
374.1573, 248.8779
374.6394, 246.2355
375.1215, 245.0733
375.6036, 245.0965
376.0857, 245.5402
376.5678, 246.2853
377.0500, 247.0917
377.5321, 247.4153
378.0142, 247.1900
378.4963, 247.2338
378.9784, 247.5729
379.4605, 248.6797
379.9427, 251.6198
380.4248, 257.8293
380.9069, 262.2602
381.3890, 262.2014
381.8711, 258.8051
382.3532, 252.9322
382.8354, 244.3731
383.3175, 237.7887
383.7996, 239.5460
384.2817, 252.3876
384.7638, 258.9778
385.2459, 254.9288
385.7281, 248.7277
386.2102, 244.1746
386.6923, 241.5489
387.1744, 240.6101
387.6565, 241.3779
388.1386, 243.2913
388.6208, 243.9890
389.1029, 242.4423
389.5850, 241.0543
390.0671, 238.5370
390.5492, 237.1464
391.0313, 240.4831
391.5135, 248.6159
391.9956, 255.9909
392.4777, 254.7172
392.9598, 243.8111
393.4419, 237.4804
393.9240, 239.1740
394.4062, 241.8497
394.8883, 241.9056
395.3704, 240.1856
395.8525, 238.6712
396.3346, 237.8802
396.8167, 238.0694
397.2989, 240.3397
397.7810, 244.7947
398.2631, 248.0277
398.7452, 248.4870
399.2273, 247.0296
399.7094, 245.1936
400.1916, 242.8782
400.6737, 240.5740
401.1558, 237.9227
401.6379, 235.5901
402.1200, 234.7830
402.6021, 235.6749
403.0843, 237.0476
403.5664, 237.6326
404.0485, 237.3185
404.5306, 238.2952
405.0127, 242.3524
405.4948, 245.6301
405.9770, 247.4340
406.4591, 247.2617
406.9412, 243.4244
407.4233, 235.0648
407.9054, 225.3567
408.3875, 221.7753
408.8697, 227.3225
409.3518, 232.4722
409.8339, 237.3588
410.3160, 241.1448
410.7981, 242.9483
411.2802, 242.9696
411.7624, 242.2961
412.2445, 241.3154
412.7266, 240.2920
413.2087, 240.6607
413.6908, 243.2195
414.1729, 245.1133
414.6551, 243.8978
415.1372, 241.4387
415.6193, 240.2180
416.1014, 241.1130
416.5835, 242.2804
417.0656, 242.4414
417.5478, 241.8263
418.0299, 241.0469
418.5120, 240.2109
418.9941, 239.4115
419.4762, 238.7029
419.9583, 238.0534
420.4405, 237.8426
420.9226, 238.1592
421.4047, 238.8537
421.8868, 240.2283
422.3689, 241.9348
422.8510, 243.0020
423.3332, 242.8019
423.8153, 241.8056
424.2974, 241.7169
424.7795, 244.4928
425.2616, 244.9447
425.7437, 240.0334
426.2259, 234.7738
426.7080, 233.7192
427.1901, 236.9489
427.6722, 240.2941
428.1543, 239.4145
428.6364, 234.8568
429.1186, 232.1631
429.6007, 232.1312
430.0828, 232.4670
430.5649, 231.7081
431.0470, 230.6600
431.5291, 230.5275
432.0113, 231.7246
432.4934, 233.6329
432.9755, 236.3546
433.4576, 239.4740
433.9397, 241.3277
434.4218, 241.2832
434.9040, 240.4595
435.3861, 240.1638
435.8682, 240.4575
436.3503, 240.9199
436.8324, 242.6620
437.3145, 243.5879
437.7967, 240.9172
438.2788, 236.1472
438.7609, 233.7831
439.2430, 236.5660
439.7251, 242.6215
440.2072, 246.1398
440.6894, 245.8310
441.1715, 245.0362
441.6536, 243.5402
442.1357, 242.0269
442.6178, 241.1041
443.0999, 240.7302
443.5821, 240.2957
444.0642, 239.2720
444.5463, 237.7504
445.0284, 235.5934
445.5105, 231.3517
445.9926, 230.2401
446.4748, 239.5349
446.9569, 251.9598
447.4390, 257.1413
447.9211, 251.2657
448.4032, 244.1426
448.8853, 241.5092
449.3675, 242.2469
449.8496, 244.8506
450.3317, 249.2944
450.8138, 252.1674
451.2959, 249.0508
451.7780, 239.0438
452.2602, 233.6145
452.7423, 236.3662
453.2244, 239.6354
453.7065, 240.6940
454.1886, 239.8971
454.6707, 237.9486
455.1529, 235.1512
455.6350, 232.0365
456.1171, 229.4946
456.5992, 227.4143
457.0813, 226.2450
457.5634, 226.4334
458.0455, 227.2059
458.5276, 228.7305
459.0098, 230.6036
459.4919, 231.7719
459.9740, 231.4048
460.4561, 230.2004
460.9382, 228.9402
461.4203, 227.5446
461.9025, 228.0333
462.3846, 232.7034
462.8667, 238.2422
463.3488, 238.7921
463.8309, 233.2898
464.3130, 228.8812
464.7952, 228.4475
465.2773, 229.5185
465.7594, 229.5444
466.2415, 228.4376
466.7236, 227.4084
467.2057, 227.2009
467.6879, 227.8908
468.1700, 230.0178
468.6521, 237.0435
469.1342, 240.9533
469.6163, 238.3194
470.0984, 234.0797
470.5806, 232.9927
471.0627, 235.5906
471.5448, 238.3697
472.0269, 237.5678
472.5090, 233.6365
472.9911, 230.7662
473.4733, 228.8864
473.9554, 228.1747
474.4375, 229.6441
474.9196, 232.0778
475.4017, 233.9142
475.8839, 234.9809
476.3660, 235.2744
476.8481, 234.2526
477.3302, 232.5520
477.8123, 231.8336
478.2944, 232.4933
478.7766, 232.7053
479.2587, 230.4120
479.7408, 225.4050
480.2229, 221.9119
480.7050, 217.8095
481.1871, 217.3353
481.6693, 225.7753
482.1514, 237.2749
482.6335, 243.5321
483.1156, 241.7545
483.5977, 236.3195
484.0798, 232.9426
484.5620, 231.7858
485.0441, 231.4978
485.5262, 232.6686
486.0083, 233.9206
486.4904, 235.3218
486.9725, 236.2009
487.4547, 234.9068
487.9368, 229.5452
488.4189, 224.0145
488.9010, 222.5188
489.3831, 224.2222
489.8652, 225.7830
490.3474, 226.2900
490.8295, 226.3536
491.3116, 226.9457
491.7937, 228.4399
492.2758, 227.8826
492.7579, 222.6443
493.2401, 218.0218
493.7222, 216.6205
494.2043, 217.7215
494.6864, 220.1645
495.1685, 223.4667
495.6506, 226.4270
496.1328, 226.2130
496.6149, 221.2665
497.0970, 219.5023
497.5791, 225.7013
498.0612, 230.8205
498.5433, 228.8768
499.0255, 222.1723
499.5076, 217.0463
499.9897, 216.7645
500.4718, 218.3941
500.9539, 218.4533
501.4360, 217.3097
501.9182, 217.3844
502.4003, 219.8123
502.8824, 222.7243
503.3645, 223.3884
503.8466, 221.0625
504.3287, 220.0849
504.8109, 221.8859
505.2930, 223.7876
505.7751, 224.3738
506.2572, 223.9209
506.7393, 223.0815
507.2214, 222.1529
507.7036, 221.3355
508.1857, 221.2496
508.6678, 222.3698
509.1499, 222.2774
509.6320, 219.0217
510.1141, 216.2922
510.5963, 216.6840
511.0784, 219.1799
511.5605, 220.8856
512.0426, 220.5506
512.5247, 219.0756
513.0068, 217.0240
513.4890, 214.5714
513.9711, 212.4741
514.4532, 210.8699
514.9353, 210.0334
515.4174, 210.3250
515.8995, 211.8600
516.3817, 214.3589
516.8638, 220.5697
517.3459, 224.9410
517.8280, 223.2962
518.3101, 218.1852
518.7922, 214.0428
519.2744, 212.7410
519.7565, 213.5175
520.2386, 215.9227
520.7207, 220.5654
521.2028, 222.2940
521.6849, 218.4712
522.1671, 214.5198
522.6492, 213.7057
523.1313, 215.0709
523.6134, 216.5089
524.0955, 218.3049
524.5776, 218.6907
525.0598, 214.2522
525.5419, 207.2686
526.0240, 204.6078
526.5061, 208.2458
526.9882, 213.7368
527.4703, 216.2430
527.9525, 215.4840
528.4346, 214.5565
528.9167, 212.1907
529.3988, 211.1405
529.8809, 214.1846
530.3630, 218.1992
530.8452, 218.4223
531.3273, 213.5993
531.8094, 208.2701
532.2915, 209.2837
532.7736, 215.9634
533.2557, 215.7984
533.7379, 204.5042
534.2200, 195.0652
534.7021, 197.2127
535.1842, 206.1109
535.6663, 212.3992
536.1484, 213.8720
536.6306, 215.3450
537.1127, 220.1727
537.5948, 225.8200
538.0769, 228.8540
538.5590, 228.7398
539.0411, 226.5675
539.5233, 223.0885
540.0054, 218.4216
540.4875, 213.2261
540.9696, 204.6384
541.4517, 200.0400
541.9338, 203.4884
542.4160, 208.9687
542.8981, 211.4358
543.3802, 210.4312
543.8623, 209.1266
544.3444, 210.2151
544.8265, 212.4921
545.3087, 213.2217
545.7908, 212.3445
546.2729, 211.0638
546.7550, 209.4856
547.2371, 208.2856
547.7192, 209.0514
548.2014, 212.4621
548.6835, 215.4548
549.1656, 219.1918
549.6477, 221.1076
550.1298, 217.4168
550.6119, 210.3624
551.0941, 206.2604
551.5762, 208.8533
552.0583, 214.3139
552.5404, 213.6582
553.0225, 205.0238
553.5046, 200.1056
553.9868, 202.5282
554.4689, 206.5904
554.9510, 209.1153
555.4331, 210.1814
555.9152, 210.0014
556.3973, 207.3947
556.8795, 205.0032
557.3616, 205.0260
557.8437, 206.7571
558.3258, 208.7489
558.8079, 210.6234
559.2900, 212.3087
559.7722, 213.8513
560.2543, 215.3201
560.7364, 215.4901
561.2185, 213.0942
561.7006, 210.8172
562.1827, 209.4884
562.6649, 208.3732
563.1470, 206.2265
563.6291, 202.8999
564.1112, 200.4442
564.5933, 202.0592
565.0754, 205.8116
565.5576, 205.0662
566.0397, 199.0820
566.5218, 194.4373
567.0039, 195.1978
567.4860, 199.0415
567.9681, 200.0105
568.4503, 196.2893
568.9324, 194.5990
569.4145, 198.7344
569.8966, 202.8046
570.3787, 201.0984
570.8608, 195.4336
571.3430, 191.8909
571.8251, 194.1601
572.3072, 199.6070
572.7893, 202.8372
573.2714, 203.5856
573.7535, 203.7256
574.2357, 202.6271
574.7178, 202.1365
575.1999, 204.6644
575.6820, 209.0055
576.1641, 211.2893
576.6462, 209.5349
577.1284, 206.7570
577.6105, 204.0171
578.0926, 201.6910
578.5747, 200.5693
579.0568, 200.7788
579.5389, 201.6745
580.0211, 202.7654
580.5032, 204.0086
580.9853, 204.2140
581.4674, 202.6492
581.9495, 201.1540
582.4316, 200.6806
582.9138, 200.0805
583.3959, 197.4185
583.8780, 192.7984
584.3601, 190.1796
584.8422, 193.6691
585.3243, 199.6835
585.8065, 203.3979
586.2886, 204.7406
586.7707, 203.7725
587.2528, 200.0187
587.7349, 195.6070
588.2170, 194.4240
588.6992, 197.9625
589.1813, 200.2881
589.6634, 200.2213
590.1455, 200.3112
590.6276, 202.6880
591.1097, 205.6187
591.5919, 205.8543
592.0740, 202.0821
592.5561, 197.7581
593.0382, 196.9437
593.5203, 198.9509
594.0024, 200.7489
594.4846, 202.1559
594.9667, 202.8664
595.4488, 202.6534
595.9309, 201.6102
596.4130, 199.9789
596.8951, 197.0027
597.3773, 194.8084
597.8594, 193.6806
598.3415, 193.4779
598.8236, 194.8148
599.3057, 197.0432
599.7878, 198.3381
600.2700, 197.5137
600.7521, 195.4281
601.2342, 193.2590
601.7163, 190.8531
602.1984, 191.1119
602.6805, 196.2827
603.1627, 201.3591
603.6448, 200.9404
604.1269, 196.5247
604.6090, 194.3678
605.0911, 197.5303
605.5732, 200.2258
606.0554, 199.7920
606.5375, 197.7048
607.0196, 195.0268
607.5017, 192.3963
607.9838, 191.4961
608.4659, 194.1373
608.9481, 199.4713
609.4302, 203.6730
