##NAMES=Sodalite
##RRUFFID=R060405
##IDEAL CHEMISTRY=Na_4_Si_3_Al_3_O_12_Cl
##LOCALITY=Cerro Sapo, Cochabamba Department, Bolivia
##OWNER=RRUFF
##SOURCE=Marcus Origlieri
##DESCRIPTION=Blue massive associated with brown burbankite R050646
##STATUS=The identification of this mineral has been confirmed by X-ray diffraction and chemical analysis
##URL=rruff.info/R060405
##MEASURED CHEMISTRY=Na_8.00_Al_6.00_Si_6.00_O_24_Cl_2_
183.1195, 3225.163
183.6017, 3223.962
184.0838, 3223.782
184.5659, 3226.331
185.0480, 3231.202
185.5301, 3236.564
186.0123, 3241.636
186.4944, 3246.475
186.9765, 3250.687
187.4586, 3253.904
187.9407, 3257.785
188.4228, 3265.686
188.9050, 3277.120
189.3871, 3287.664
189.8692, 3295.094
190.3513, 3299.656
190.8334, 3302.552
191.3155, 3303.708
191.7977, 3303.573
192.2798, 3302.503
192.7619, 3300.529
193.2440, 3298.615
193.7261, 3297.610
194.2082, 3297.402
194.6904, 3296.159
195.1725, 3293.669
195.6546, 3290.458
196.1367, 3286.949
196.6188, 3282.972
197.1009, 3280.607
197.5831, 3282.319
198.0652, 3288.082
198.5473, 3290.089
199.0294, 3286.984
199.5115, 3281.176
199.9937, 3277.337
200.4758, 3275.575
200.9579, 3274.995
201.4400, 3275.240
201.9221, 3276.300
202.4042, 3278.043
202.8864, 3280.852
203.3685, 3283.890
203.8506, 3284.973
204.3327, 3283.679
204.8148, 3282.051
205.2969, 3281.147
205.7791, 3281.027
206.2612, 3281.133
206.7433, 3281.476
207.2254, 3281.983
207.7075, 3282.463
208.1896, 3282.893
208.6718, 3283.389
209.1539, 3284.006
209.6360, 3284.739
210.1181, 3285.765
210.6002, 3287.302
211.0823, 3289.095
211.5645, 3290.496
212.0466, 3291.743
212.5287, 3292.244
213.0108, 3291.094
213.4929, 3287.198
213.9750, 3286.409
214.4572, 3290.417
214.9393, 3297.201
215.4214, 3300.690
215.9035, 3299.786
216.3856, 3297.781
216.8678, 3296.031
217.3499, 3293.853
217.8320, 3294.075
218.3141, 3297.946
218.7962, 3303.842
219.2783, 3306.465
219.7605, 3304.252
220.2426, 3301.362
220.7247, 3299.812
221.2068, 3299.585
221.6889, 3300.751
222.1710, 3303.999
222.6532, 3308.500
223.1353, 3311.679
223.6174, 3313.786
224.0995, 3314.332
224.5816, 3312.622
225.0637, 3306.856
225.5459, 3303.546
226.0280, 3303.400
226.5101, 3305.747
226.9922, 3308.673
227.4743, 3312.733
227.9564, 3316.542
228.4386, 3319.418
228.9207, 3320.907
229.4028, 3322.339
229.8849, 3323.635
230.3670, 3324.861
230.8492, 3326.366
231.3313, 3328.559
231.8134, 3330.372
232.2955, 3331.365
232.7776, 3331.464
233.2597, 3330.881
233.7419, 3329.017
234.2240, 3326.726
234.7061, 3326.511
235.1882, 3330.203
235.6703, 3333.314
236.1524, 3333.681
236.6346, 3329.372
237.1167, 3326.782
237.5988, 3325.933
238.0809, 3326.759
238.5630, 3329.430
239.0451, 3335.452
239.5273, 3340.943
240.0094, 3344.142
240.4915, 3343.925
240.9736, 3344.074
241.4557, 3344.348
241.9378, 3344.981
242.4200, 3346.414
242.9021, 3348.237
243.3842, 3351.452
243.8663, 3357.016
244.3484, 3366.786
244.8306, 3372.975
245.3127, 3373.185
245.7948, 3371.034
246.2769, 3373.519
246.7590, 3383.270
247.2411, 3393.192
247.7233, 3401.111
248.2054, 3407.060
248.6875, 3410.762
249.1696, 3410.746
249.6517, 3409.494
250.1338, 3411.207
250.6160, 3417.494
251.0981, 3423.909
251.5802, 3428.783
252.0623, 3431.561
252.5444, 3435.967
253.0265, 3442.591
253.5087, 3450.367
253.9908, 3457.596
254.4729, 3463.873
254.9550, 3470.584
255.4371, 3478.275
255.9192, 3487.029
256.4014, 3495.608
256.8835, 3504.226
257.3656, 3512.457
257.8477, 3519.699
258.3298, 3524.861
258.8120, 3531.583
259.2941, 3541.495
259.7762, 3554.948
260.2583, 3566.125
260.7404, 3575.399
261.2225, 3581.964
261.7047, 3584.335
262.1868, 3580.137
262.6689, 3577.941
263.1510, 3580.645
263.6331, 3587.965
264.1152, 3591.157
264.5974, 3589.286
265.0795, 3584.656
265.5616, 3579.625
266.0437, 3574.576
266.5258, 3567.673
267.0079, 3558.163
267.4901, 3546.364
267.9722, 3535.750
268.4543, 3526.894
268.9364, 3518.051
269.4185, 3507.452
269.9006, 3494.489
270.3828, 3482.823
270.8649, 3473.582
271.3470, 3465.929
271.8291, 3454.676
272.3112, 3437.479
272.7933, 3422.265
273.2755, 3416.320
273.7576, 3421.288
274.2397, 3423.311
274.7218, 3420.340
275.2039, 3413.541
275.6860, 3405.983
276.1682, 3397.160
276.6503, 3389.233
277.1324, 3383.852
277.6145, 3381.301
278.0966, 3378.905
278.5787, 3376.624
279.0609, 3374.436
279.5430, 3371.876
280.0251, 3368.836
280.5072, 3366.824
280.9893, 3367.728
281.4715, 3371.552
281.9536, 3372.196
282.4357, 3368.618
282.9178, 3363.284
283.3999, 3359.990
283.8820, 3358.697
284.3642, 3359.050
284.8463, 3360.866
285.3284, 3364.089
285.8105, 3368.857
286.2926, 3375.360
286.7747, 3382.499
287.2569, 3388.653
287.7390, 3393.828
288.2211, 3399.317
288.7032, 3405.965
289.1853, 3413.388
289.6674, 3420.287
290.1496, 3426.822
290.6317, 3432.265
291.1138, 3434.693
291.5959, 3434.750
292.0780, 3436.727
292.5602, 3443.618
293.0423, 3452.890
293.5244, 3458.369
294.0065, 3460.014
294.4886, 3458.630
294.9707, 3454.113
295.4529, 3446.968
295.9350, 3439.077
296.4171, 3430.724
296.8992, 3421.978
297.3813, 3413.683
297.8634, 3405.710
298.3456, 3396.015
298.8277, 3381.233
299.3098, 3363.745
299.7919, 3348.961
300.2740, 3338.554
300.7561, 3330.497
301.2383, 3322.879
301.7204, 3315.639
302.2025, 3308.992
302.6846, 3302.741
303.1667, 3297.211
303.6488, 3292.672
304.1310, 3289.105
304.6131, 3286.868
305.0952, 3287.346
305.5773, 3289.624
306.0594, 3291.230
306.5415, 3290.457
307.0237, 3288.542
307.5058, 3286.732
307.9879, 3285.161
308.4700, 3283.569
308.9521, 3281.343
309.4343, 3278.978
309.9164, 3277.285
310.3985, 3277.284
310.8806, 3277.598
311.3627, 3277.069
311.8448, 3275.629
312.3270, 3274.238
312.8091, 3273.668
313.2912, 3273.410
313.7733, 3272.868
314.2554, 3270.265
314.7375, 3268.685
315.2197, 3270.929
315.7018, 3276.445
316.1839, 3280.362
316.6660, 3279.488
317.1481, 3276.617
317.6302, 3274.012
318.1124, 3272.016
318.5945, 3270.590
319.0766, 3270.418
319.5587, 3270.964
320.0408, 3270.376
320.5229, 3265.273
321.0051, 3260.827
321.4872, 3260.456
321.9693, 3268.287
322.4514, 3273.403
322.9335, 3271.407
323.4156, 3265.396
323.8978, 3261.338
324.3799, 3262.524
324.8620, 3263.871
325.3441, 3263.294
325.8262, 3259.659
326.3083, 3257.281
326.7905, 3257.337
327.2726, 3258.551
327.7547, 3259.342
328.2368, 3259.093
328.7189, 3259.010
329.2010, 3259.291
329.6832, 3259.943
330.1653, 3260.958
330.6474, 3263.931
331.1295, 3266.126
331.6116, 3265.096
332.0938, 3257.606
332.5759, 3252.010
333.0580, 3249.610
333.5401, 3250.074
334.0222, 3251.272
334.5043, 3253.946
334.9865, 3256.323
335.4686, 3257.398
335.9507, 3257.051
336.4328, 3255.490
336.9149, 3251.904
337.3970, 3247.474
337.8792, 3245.805
338.3613, 3247.905
338.8434, 3249.875
339.3255, 3249.670
339.8076, 3246.868
340.2898, 3245.475
340.7719, 3245.889
341.2540, 3247.103
341.7361, 3247.616
342.2182, 3247.366
342.7003, 3247.153
343.1825, 3247.322
343.6646, 3247.791
344.1467, 3248.057
344.6288, 3248.156
345.1109, 3247.827
345.5930, 3245.784
346.0752, 3242.411
346.5573, 3241.896
347.0394, 3246.825
347.5215, 3253.786
348.0036, 3254.188
348.4857, 3248.155
348.9679, 3242.103
349.4500, 3240.945
349.9321, 3243.492
350.4142, 3246.605
350.8963, 3250.208
351.3784, 3253.214
351.8606, 3254.155
352.3427, 3253.247
352.8248, 3251.255
353.3069, 3246.854
353.7890, 3242.336
354.2711, 3241.448
354.7533, 3244.854
355.2354, 3248.530
355.7175, 3249.282
356.1996, 3247.909
356.6817, 3245.793
357.1638, 3241.720
357.6460, 3238.418
358.1281, 3239.011
358.6102, 3243.129
359.0923, 3246.078
359.5744, 3243.949
360.0565, 3239.885
360.5387, 3236.935
361.0208, 3236.425
361.5029, 3236.582
361.9850, 3237.043
362.4671, 3237.641
362.9492, 3237.829
363.4314, 3236.639
363.9135, 3235.573
364.3956, 3235.601
364.8777, 3237.478
365.3598, 3238.996
365.8419, 3239.763
366.3241, 3239.903
366.8062, 3239.578
367.2883, 3238.296
367.7704, 3237.040
368.2526, 3235.803
368.7347, 3234.364
369.2168, 3234.244
369.6989, 3237.227
370.1810, 3240.417
370.6631, 3241.352
371.1453, 3237.621
371.6274, 3235.234
372.1095, 3235.352
372.5916, 3237.546
373.0737, 3239.004
373.5558, 3239.668
374.0380, 3239.683
374.5201, 3238.950
375.0022, 3237.070
375.4843, 3235.785
375.9664, 3235.258
376.4485, 3235.255
376.9307, 3235.456
377.4128, 3236.010
377.8949, 3236.076
378.3770, 3234.836
378.8591, 3232.422
379.3412, 3232.066
379.8234, 3234.230
380.3055, 3236.816
380.7876, 3237.810
381.2697, 3237.228
381.7518, 3234.775
382.2339, 3229.282
382.7161, 3222.766
383.1982, 3220.115
383.6803, 3221.272
384.1624, 3223.679
384.6445, 3226.511
385.1266, 3229.127
385.6088, 3229.577
386.0909, 3227.106
386.5730, 3223.925
387.0551, 3222.762
387.5372, 3223.041
388.0193, 3223.083
388.5015, 3220.802
388.9836, 3218.473
389.4657, 3219.419
389.9478, 3223.931
390.4299, 3227.397
390.9120, 3224.972
391.3942, 3220.192
391.8763, 3217.467
392.3584, 3220.654
392.8405, 3224.026
393.3226, 3224.503
393.8047, 3222.595
394.2869, 3220.616
394.7690, 3218.926
395.2511, 3217.827
395.7332, 3217.459
396.2154, 3217.656
396.6975, 3219.011
397.1796, 3223.184
397.6617, 3228.388
398.1438, 3231.530
398.6259, 3230.195
399.1081, 3228.732
399.5902, 3228.285
400.0723, 3228.967
400.5544, 3229.777
401.0365, 3230.572
401.5186, 3231.523
402.0008, 3232.804
402.4829, 3234.775
402.9650, 3236.282
403.4471, 3237.042
403.9292, 3237.214
404.4113, 3237.611
404.8935, 3238.540
405.3756, 3239.000
405.8577, 3238.121
406.3398, 3235.581
406.8219, 3234.487
407.3040, 3235.226
407.7862, 3236.847
408.2683, 3238.042
408.7504, 3238.841
409.2325, 3239.735
409.7146, 3241.451
410.1967, 3243.342
410.6789, 3242.984
411.1610, 3240.361
411.6431, 3236.979
412.1252, 3234.310
412.6073, 3231.958
413.0894, 3228.483
413.5716, 3223.084
414.0537, 3217.777
414.5358, 3214.784
415.0179, 3213.916
415.5000, 3214.513
415.9821, 3217.667
416.4643, 3221.226
416.9464, 3222.708
417.4285, 3221.761
417.9106, 3220.375
418.3927, 3219.214
418.8748, 3218.482
419.3570, 3218.456
419.8391, 3219.885
420.3212, 3221.382
420.8033, 3222.751
421.2854, 3223.857
421.7675, 3224.066
422.2497, 3222.478
422.7318, 3220.553
423.2139, 3218.997
423.6960, 3217.677
424.1781, 3217.347
424.6602, 3219.322
425.1424, 3222.078
425.6245, 3223.293
426.1066, 3220.869
426.5887, 3219.526
427.0709, 3220.094
427.5530, 3222.558
428.0351, 3227.053
428.5172, 3235.786
428.9993, 3243.517
429.4814, 3245.509
429.9636, 3239.317
430.4457, 3237.142
430.9278, 3241.421
431.4099, 3248.785
431.8920, 3251.523
432.3741, 3249.102
432.8563, 3246.312
433.3384, 3244.773
433.8205, 3244.571
434.3026, 3246.616
434.7847, 3251.077
435.2668, 3256.453
435.7490, 3261.803
436.2311, 3266.935
436.7132, 3270.904
437.1953, 3273.194
437.6774, 3274.606
438.1595, 3275.794
438.6417, 3276.939
439.1238, 3278.781
439.6059, 3281.360
440.0880, 3285.092
440.5701, 3290.772
441.0522, 3298.764
441.5344, 3307.032
442.0165, 3313.605
442.4986, 3319.955
442.9807, 3327.851
443.4628, 3338.842
443.9449, 3350.535
444.4271, 3361.601
444.9092, 3372.356
445.3913, 3384.824
445.8734, 3398.085
446.3555, 3413.937
446.8376, 3433.637
447.3198, 3460.073
447.8019, 3484.798
448.2840, 3505.723
448.7661, 3525.429
449.2482, 3547.566
449.7303, 3573.532
450.2125, 3599.183
450.6946, 3623.314
451.1767, 3646.282
451.6588, 3671.277
452.1409, 3698.323
452.6230, 3727.817
453.1052, 3759.617
453.5873, 3793.966
454.0694, 3831.174
454.5515, 3871.236
455.0337, 3914.018
455.5158, 3957.626
455.9979, 4002.623
456.4800, 4051.764
456.9621, 4107.388
457.4442, 4168.113
457.9264, 4231.292
458.4085, 4296.677
458.8906, 4365.354
459.3727, 4441.023
459.8548, 4519.412
460.3369, 4591.927
460.8191, 4656.764
461.3012, 4717.505
461.7833, 4782.260
462.2654, 4845.172
462.7475, 4893.825
463.2296, 4925.438
463.7118, 4939.805
464.1939, 4937.760
464.6760, 4919.379
465.1581, 4880.817
465.6402, 4814.654
466.1223, 4731.844
466.6045, 4640.736
467.0866, 4533.845
467.5687, 4429.552
468.0508, 4325.064
468.5329, 4223.552
469.0150, 4130.904
469.4972, 4050.438
469.9793, 3975.486
470.4614, 3904.805
470.9435, 3838.379
471.4256, 3776.839
471.9077, 3719.575
472.3899, 3668.542
472.8720, 3626.954
473.3541, 3595.030
473.8362, 3564.402
474.3183, 3533.467
474.8004, 3503.495
475.2826, 3477.199
475.7647, 3454.431
476.2468, 3433.262
476.7289, 3411.839
477.2110, 3391.372
477.6931, 3375.293
478.1753, 3363.514
478.6574, 3353.745
479.1395, 3345.828
479.6216, 3338.223
480.1037, 3328.302
480.5858, 3313.819
481.0680, 3299.793
481.5501, 3289.935
482.0322, 3283.055
482.5143, 3276.752
482.9964, 3270.963
483.4786, 3264.855
483.9607, 3257.449
484.4428, 3248.593
484.9249, 3241.439
485.4070, 3237.797
485.8892, 3235.418
486.3713, 3232.772
486.8534, 3230.520
487.3355, 3226.894
487.8176, 3220.476
488.2997, 3213.114
488.7819, 3208.720
489.2640, 3208.109
489.7461, 3208.655
490.2282, 3210.259
490.7103, 3212.683
491.1924, 3211.087
491.6746, 3204.374
492.1567, 3197.995
492.6388, 3198.052
493.1209, 3203.580
493.6030, 3205.894
494.0851, 3203.276
494.5673, 3198.661
495.0494, 3195.999
495.5315, 3194.901
496.0136, 3194.084
496.4957, 3193.247
496.9778, 3192.211
497.4600, 3191.484
497.9421, 3190.829
498.4242, 3187.956
498.9063, 3178.553
499.3884, 3168.014
499.8705, 3161.187
500.3527, 3160.489
500.8348, 3160.021
501.3169, 3158.575
501.7990, 3155.937
502.2811, 3151.764
502.7632, 3143.558
503.2454, 3136.519
503.7275, 3132.124
504.2096, 3130.165
504.6917, 3128.064
505.1738, 3125.928
505.6559, 3123.617
506.1381, 3121.210
506.6202, 3118.953
507.1023, 3115.334
507.5844, 3109.427
508.0665, 3103.899
508.5486, 3103.242
509.0308, 3107.589
509.5129, 3110.925
509.9950, 3111.628
510.4771, 3110.369
510.9592, 3107.850
511.4413, 3104.226
511.9235, 3101.346
512.4056, 3100.848
512.8877, 3101.588
513.3698, 3101.493
513.8519, 3100.263
514.3340, 3100.121
514.8162, 3105.820
515.2983, 3112.405
515.7804, 3113.718
516.2625, 3103.274
516.7446, 3093.253
517.2267, 3088.818
517.7089, 3088.532
518.1910, 3088.885
518.6731, 3091.576
519.1552, 3092.589
519.6373, 3089.582
520.1194, 3081.983
520.6016, 3076.656
521.0837, 3074.027
521.5658, 3073.199
522.0479, 3073.844
522.5300, 3076.487
523.0121, 3078.640
523.4943, 3080.313
523.9764, 3081.143
524.4585, 3079.871
524.9406, 3076.451
525.4227, 3073.990
525.9048, 3074.169
526.3870, 3075.820
526.8691, 3076.563
527.3513, 3076.347
527.8334, 3074.338
528.3155, 3067.742
528.7976, 3059.774
529.2797, 3055.514
529.7618, 3056.030
530.2440, 3057.261
530.7261, 3055.869
531.2082, 3053.617
531.6903, 3052.786
532.1724, 3056.339
532.6545, 3059.031
533.1367, 3058.948
533.6188, 3056.616
534.1009, 3053.942
534.5830, 3051.291
535.0651, 3048.250
535.5472, 3044.230
536.0294, 3038.726
536.5115, 3035.966
536.9936, 3037.180
537.4757, 3039.454
537.9578, 3040.441
538.4399, 3040.007
538.9221, 3039.176
539.4042, 3037.945
539.8863, 3036.528
540.3684, 3035.438
540.8505, 3034.611
541.3326, 3033.324
541.8148, 3030.922
542.2969, 3028.099
542.7790, 3026.185
543.2611, 3025.087
543.7432, 3023.968
544.2253, 3021.300
544.7075, 3018.839
545.1896, 3019.086
545.6717, 3023.082
546.1538, 3025.770
546.6359, 3022.768
547.1180, 3017.972
547.6002, 3015.560
548.0823, 3019.263
548.5644, 3022.237
549.0465, 3023.038
549.5286, 3022.210
550.0107, 3021.358
550.4929, 3020.695
550.9750, 3019.625
551.4571, 3017.809
551.9392, 3015.219
552.4213, 3012.950
552.9034, 3010.984
553.3856, 3009.306
553.8677, 3007.821
554.3498, 3006.555
554.8319, 3006.157
555.3140, 3006.976
555.7961, 3007.609
556.2783, 3005.655
556.7604, 3001.993
557.2425, 2999.153
557.7246, 2998.767
558.2067, 2998.920
558.6888, 2997.753
559.1710, 2995.585
559.6531, 2993.443
560.1352, 2991.449
560.6173, 2989.990
561.0994, 2989.494
561.5815, 2990.110
562.0637, 2990.638
562.5458, 2991.827
563.0279, 2992.172
563.5100, 2990.470
563.9921, 2984.244
564.4742, 2980.345
564.9564, 2979.692
565.4385, 2980.751
565.9206, 2980.934
566.4027, 2979.981
566.8848, 2979.229
567.3669, 2978.950
567.8491, 2979.168
568.3312, 2980.518
568.8133, 2982.923
569.2954, 2984.453
569.7775, 2983.502
570.2596, 2980.940
570.7418, 2978.246
571.2239, 2975.494
571.7060, 2972.716
572.1881, 2969.230
572.6702, 2966.063
573.1523, 2964.548
573.6345, 2966.472
574.1166, 2967.484
574.5987, 2964.825
575.0808, 2960.441
575.5629, 2957.515
576.0450, 2958.851
576.5272, 2959.152
577.0093, 2957.094
577.4914, 2953.066
577.9735, 2949.387
578.4556, 2945.861
578.9377, 2943.219
579.4199, 2942.219
579.9020, 2942.949
580.3841, 2942.198
580.8662, 2939.636
581.3483, 2937.566
581.8304, 2939.028
582.3126, 2943.035
582.7947, 2946.319
583.2768, 2948.492
583.7589, 2949.116
584.2410, 2945.931
584.7231, 2940.963
585.2053, 2938.234
585.6874, 2941.638
586.1696, 2945.598
586.6517, 2947.360
587.1338, 2947.106
587.6159, 2945.966
588.0980, 2942.669
588.5801, 2939.819
589.0623, 2938.823
589.5444, 2940.064
590.0265, 2940.379
590.5086, 2939.416
590.9907, 2938.014
591.4728, 2937.015
591.9550, 2936.718
592.4371, 2935.163
592.9192, 2931.984
593.4013, 2928.297
593.8834, 2925.721
594.3655, 2924.171
594.8477, 2922.941
595.3298, 2922.180
595.8119, 2921.255
596.2940, 2918.701
596.7761, 2915.121
597.2582, 2912.457
597.7404, 2911.894
598.2225, 2912.423
598.7046, 2913.520
599.1867, 2915.094
599.6688, 2916.728
600.1509, 2918.703
600.6331, 2920.332
601.1152, 2921.281
601.5973, 2922.131
602.0794, 2920.682
602.5615, 2915.257
603.0436, 2909.148
603.5258, 2906.647
604.0079, 2908.734
604.4900, 2909.166
604.9721, 2906.545
605.4542, 2902.486
605.9363, 2900.065
606.4185, 2899.226
606.9006, 2899.009
607.3827, 2899.151
607.8648, 2899.621
608.3469, 2900.916
608.8290, 2902.753
609.3112, 2903.450
609.7933, 2901.629
610.2754, 2898.534
610.7575, 2894.588
611.2396, 2889.656
611.7217, 2885.763
612.2039, 2883.161
612.6860, 2881.985
613.1681, 2882.460
613.6502, 2886.568
614.1323, 2888.679
614.6144, 2888.158
615.0966, 2886.069
615.5787, 2883.688
616.0608, 2880.919
616.5429, 2878.747
617.0250, 2877.717
617.5071, 2877.125
617.9893, 2875.191
618.4714, 2872.099
618.9535, 2869.171
619.4356, 2866.667
619.9177, 2864.949
620.3998, 2864.798
620.8820, 2866.080
621.3641, 2867.453
621.8462, 2869.165
622.3283, 2869.993
622.8104, 2868.529
623.2925, 2863.663
623.7747, 2860.220
624.2568, 2859.041
624.7389, 2859.618
625.2210, 2861.959
625.7031, 2868.693
626.1852, 2870.985
626.6674, 2866.938
627.1495, 2859.859
627.6316, 2854.787
628.1137, 2851.743
628.5958, 2850.455
629.0779, 2851.634
629.5601, 2853.664
630.0422, 2853.147
630.5243, 2850.534
631.0064, 2847.822
631.4885, 2845.798
631.9706, 2844.462
632.4528, 2844.445
632.9349, 2845.559
633.4170, 2845.551
633.8991, 2841.447
634.3812, 2837.453
634.8633, 2836.534
635.3455, 2840.656
635.8276, 2842.417
636.3097, 2839.727
636.7918, 2836.363
637.2739, 2835.514
637.7560, 2837.665
638.2382, 2840.643
638.7203, 2844.973
639.2024, 2848.553
639.6845, 2847.001
640.1666, 2841.020
640.6487, 2836.750
641.1309, 2836.366
641.6130, 2837.973
642.0951, 2839.313
642.5772, 2840.502
643.0594, 2841.875
643.5415, 2845.638
644.0236, 2847.862
644.5057, 2844.993
644.9879, 2837.639
645.4700, 2831.994
645.9521, 2830.883
646.4342, 2830.629
646.9163, 2829.858
647.3984, 2828.694
647.8806, 2826.564
648.3627, 2823.401
648.8448, 2819.566
649.3269, 2814.874
649.8090, 2809.371
650.2911, 2805.096
650.7733, 2802.062
651.2554, 2800.722
651.7375, 2802.845
652.2196, 2807.008
652.7017, 2809.587
653.1838, 2808.864
653.6660, 2807.581
654.1481, 2808.091
654.6302, 2809.413
655.1123, 2809.845
655.5944, 2807.148
656.0765, 2805.132
656.5587, 2804.976
657.0408, 2806.437
657.5229, 2808.433
658.0050, 2811.260
658.4871, 2814.005
658.9692, 2816.758
659.4514, 2819.309
659.9335, 2819.229
660.4156, 2816.350
660.8977, 2812.286
661.3798, 2806.965
661.8619, 2801.516
662.3441, 2799.409
662.8262, 2800.941
663.3083, 2802.826
663.7904, 2802.903
664.2725, 2801.747
664.7546, 2799.845
665.2368, 2796.972
665.7189, 2794.382
666.2010, 2792.399
666.6831, 2790.999
667.1652, 2790.260
667.6473, 2791.790
668.1295, 2791.171
668.6116, 2786.715
669.0937, 2780.997
669.5758, 2779.434
670.0579, 2782.422
670.5400, 2785.594
671.0222, 2787.766
671.5043, 2789.176
671.9864, 2790.185
672.4685, 2790.832
672.9506, 2791.456
673.4327, 2792.735
673.9149, 2793.629
674.3970, 2793.032
674.8791, 2791.045
675.3612, 2788.752
675.8433, 2786.396
676.3254, 2783.977
676.8076, 2781.375
677.2897, 2778.483
677.7718, 2776.430
678.2539, 2775.583
678.7360, 2775.227
679.2181, 2775.110
