##NAMES=Sodalite
##RRUFFID=R060416
##IDEAL CHEMISTRY=Na_4_Si_3_Al_3_O_12_Cl
##LOCALITY=Koksha Valley, Badakshan Province, Afghanistan
##OWNER=RRUFF
##SOURCE=Herb Obodda
##DESCRIPTION=Colorless fragment
##STATUS=The identification of this mineral has been confirmed by X-ray diffraction and chemical analysis
##URL=rruff.info/R060416
##MEASURED CHEMISTRY=Na_8.00_Al_6.00_Si_6.00_O_24_Cl_2.00_
90.60547, 212.8755
91.08759, 208.1848
91.56970, 207.4144
92.05182, 208.6900
92.53394, 213.4021
93.01605, 218.6568
93.49817, 223.8841
93.98029, 229.2487
94.46240, 234.2311
94.94452, 240.1433
95.42664, 244.1228
95.90874, 244.8421
96.39086, 242.4793
96.87298, 237.9950
97.35509, 231.6723
97.83721, 222.0683
98.31933, 214.3473
98.80145, 209.1324
99.28356, 205.2278
99.76568, 201.9884
100.2478, 199.1359
100.7299, 196.7231
101.2120, 194.9477
101.6941, 194.2461
102.1763, 193.7126
102.6584, 193.0100
103.1405, 192.4685
103.6226, 192.5556
104.1047, 193.5307
104.5868, 195.3573
105.0690, 197.6740
105.5511, 199.6926
106.0332, 202.7289
106.5153, 207.4265
106.9974, 213.7329
107.4795, 221.3381
107.9617, 231.0558
108.4438, 241.9411
108.9259, 250.7100
109.4080, 257.9724
109.8901, 262.5772
110.3722, 262.6550
110.8544, 257.5138
111.3365, 249.2009
111.8186, 237.4577
112.3007, 223.7953
112.7828, 211.2117
113.2649, 201.4455
113.7471, 194.3565
114.2292, 188.7485
114.7113, 185.4852
115.1934, 183.0360
115.6755, 180.9047
116.1576, 179.0412
116.6397, 177.5072
117.1219, 176.4271
117.6040, 176.0068
118.0861, 175.4106
118.5682, 174.1858
119.0503, 173.1318
119.5324, 172.8626
120.0146, 173.4483
120.4967, 174.3850
120.9788, 174.8267
121.4609, 174.2005
121.9430, 173.9022
122.4251, 174.4197
122.9073, 175.1062
123.3894, 175.0307
123.8715, 173.7312
124.3536, 171.8784
124.8357, 171.2659
125.3178, 172.0566
125.8000, 173.2474
126.2821, 174.4639
126.7642, 175.7742
127.2463, 177.3624
127.7284, 179.1341
128.2105, 181.4644
128.6927, 184.9499
129.1748, 190.2592
129.6569, 195.6609
130.1390, 200.1617
130.6211, 204.0789
131.1032, 205.1421
131.5854, 199.8043
132.0675, 191.9898
132.5496, 185.0371
133.0317, 180.0774
133.5138, 176.7919
133.9959, 174.4634
134.4781, 173.4806
134.9602, 172.9388
135.4423, 172.7244
135.9244, 172.6841
136.4065, 172.6197
136.8886, 172.3936
137.3708, 172.0274
137.8529, 171.8443
138.3350, 172.0083
138.8171, 172.2033
139.2992, 172.1910
139.7813, 172.1318
140.2635, 172.4416
140.7456, 173.5608
141.2277, 175.6763
141.7098, 176.8222
142.1919, 175.9552
142.6740, 175.1856
143.1561, 175.6575
143.6383, 177.4399
144.1204, 179.9194
144.6025, 182.7057
145.0846, 185.9119
145.5667, 188.0851
146.0488, 188.5092
146.5310, 188.1644
147.0131, 188.2095
147.4952, 188.9500
147.9773, 189.5334
148.4594, 188.4771
148.9415, 186.1005
149.4237, 184.2979
149.9058, 183.9876
150.3879, 184.7920
150.8700, 185.7115
151.3521, 186.6944
151.8342, 187.6212
152.3164, 188.2939
152.7985, 188.7604
153.2806, 189.4200
153.7627, 190.5403
154.2448, 192.1246
154.7269, 194.0537
155.2091, 196.8114
155.6912, 199.5408
156.1733, 201.6402
156.6554, 203.1362
157.1375, 204.6310
157.6196, 206.6288
158.1018, 208.7458
158.5839, 212.6534
159.0660, 219.1651
159.5481, 226.7255
160.0302, 234.0660
160.5123, 240.9957
160.9945, 248.5941
161.4766, 258.7352
161.9587, 273.2408
162.4408, 288.0473
162.9229, 303.4540
163.4050, 318.9243
163.8871, 334.7292
164.3693, 350.9599
164.8514, 365.9278
165.3335, 375.3262
165.8156, 377.9935
166.2977, 376.6823
166.7798, 370.3996
167.2620, 360.4898
167.7441, 348.5969
168.2262, 335.1456
168.7083, 320.7846
169.1904, 307.3784
169.6725, 294.4457
170.1547, 282.9064
170.6368, 273.6386
171.1189, 266.2260
171.6010, 259.1781
172.0831, 251.5567
172.5652, 244.2657
173.0474, 238.6227
173.5295, 234.8429
174.0116, 232.2877
174.4937, 230.9312
174.9758, 230.7669
175.4579, 230.4365
175.9401, 229.1847
176.4222, 227.5338
176.9043, 226.0450
177.3864, 224.8377
177.8685, 223.7514
178.3506, 222.7440
178.8328, 222.0262
179.3149, 220.5802
179.7970, 217.2235
180.2791, 213.3896
180.7612, 210.4111
181.2433, 208.8359
181.7255, 208.0120
182.2076, 206.4660
182.6897, 203.5661
183.1718, 201.1070
183.6539, 199.4929
184.1360, 198.4017
184.6181, 197.5952
185.1003, 196.9754
185.5824, 196.4471
186.0645, 195.6614
186.5466, 194.0592
187.0287, 192.8963
187.5108, 192.7116
187.9930, 192.9561
188.4751, 192.8015
188.9572, 191.7394
189.4393, 190.0912
189.9214, 189.7077
190.4035, 192.5186
190.8857, 194.4525
191.3678, 194.1553
191.8499, 192.5074
192.3320, 191.0849
192.8141, 190.8623
193.2962, 191.6454
193.7784, 191.9217
194.2605, 191.2985
194.7426, 190.7179
195.2247, 190.6739
195.7068, 190.9643
196.1889, 190.9146
196.6711, 189.9519
197.1532, 188.3880
197.6353, 187.7700
198.1174, 188.8713
198.5995, 190.1000
199.0816, 190.5194
199.5638, 190.2341
200.0459, 189.9605
200.5280, 190.1386
201.0101, 190.6354
201.4922, 190.9944
201.9743, 191.0850
202.4565, 191.1533
202.9386, 191.4202
203.4207, 191.8914
203.9028, 192.4073
204.3849, 193.0269
204.8670, 193.5814
205.3492, 193.7613
205.8313, 193.2734
206.3134, 192.7016
206.7955, 192.8108
207.2776, 193.7153
207.7597, 194.7732
208.2419, 195.7894
208.7240, 196.7753
209.2061, 197.7691
209.6882, 198.8383
210.1703, 199.8070
210.6524, 200.3703
211.1346, 200.4719
211.6167, 200.2730
212.0988, 199.4650
212.5809, 198.5671
213.0630, 198.1179
213.5451, 198.3673
214.0273, 199.0370
214.5094, 199.5069
214.9915, 199.6716
215.4736, 199.8130
215.9557, 199.9056
216.4378, 200.0423
216.9200, 200.3272
217.4021, 200.8074
217.8842, 201.4321
218.3663, 202.0457
218.8484, 202.5401
219.3305, 203.1967
219.8127, 203.9297
220.2948, 204.8709
220.7769, 206.3301
221.2590, 208.4500
221.7411, 210.8284
222.2232, 212.2568
222.7054, 211.2385
223.1875, 211.0353
223.6696, 212.3278
224.1517, 214.3534
224.6338, 216.3717
225.1159, 218.0662
225.5980, 219.3406
226.0802, 219.8930
226.5623, 218.1505
227.0444, 217.5651
227.5265, 219.1409
228.0086, 221.8019
228.4907, 224.1921
228.9729, 225.7390
229.4550, 226.7412
229.9371, 227.9237
230.4192, 229.2310
230.9013, 230.7822
231.3834, 233.1111
231.8656, 235.5795
232.3477, 237.0507
232.8298, 236.9701
233.3119, 236.1905
233.7940, 236.7134
234.2761, 239.1194
234.7583, 241.0860
235.2404, 241.9372
235.7225, 241.9861
236.2046, 241.7101
236.6867, 241.1942
237.1688, 240.5793
237.6510, 240.0108
238.1331, 239.3794
238.6152, 239.1934
239.0973, 239.9248
239.5794, 241.2064
240.0615, 242.1328
240.5437, 242.2561
241.0258, 242.4158
241.5079, 243.8709
241.9900, 246.5815
242.4721, 249.3342
242.9542, 251.7372
243.4364, 253.8021
243.9185, 255.4043
244.4006, 256.1732
244.8827, 257.1341
245.3648, 259.6034
245.8469, 263.3616
246.3290, 266.7979
246.8112, 268.4933
247.2933, 269.1908
247.7754, 271.3990
248.2575, 276.1399
248.7396, 281.2482
249.2217, 284.8359
249.7039, 287.3081
250.1860, 290.0059
250.6681, 293.8021
251.1502, 298.4162
251.6323, 302.7736
252.1144, 306.3352
252.5966, 310.4654
253.0787, 316.2406
253.5608, 323.0996
254.0429, 329.8505
254.5250, 335.4811
255.0071, 340.4275
255.4893, 346.4876
255.9714, 353.9918
256.4535, 362.1626
256.9356, 370.8468
257.4177, 379.7951
257.8998, 388.6720
258.3820, 397.2587
258.8641, 405.6121
259.3462, 413.9626
259.8283, 422.5153
260.3104, 430.6806
260.7925, 439.0781
261.2747, 446.9092
261.7568, 453.0356
262.2389, 456.8206
262.7210, 458.7701
263.2031, 460.5013
263.6852, 462.7916
264.1674, 463.3393
264.6495, 461.7897
265.1316, 458.4979
265.6137, 453.6898
266.0958, 447.4391
266.5779, 440.0585
267.0601, 432.1546
267.5422, 423.1090
268.0243, 414.7400
268.5064, 408.1109
268.9885, 401.7423
269.4706, 394.0647
269.9528, 384.5702
270.4349, 374.4766
270.9170, 366.1765
271.3991, 360.7581
271.8812, 355.1785
272.3633, 348.6495
272.8455, 342.2605
273.3276, 336.8467
273.8097, 332.5983
274.2918, 329.2019
274.7739, 326.2454
275.2560, 323.9193
275.7382, 321.6537
276.2202, 319.7889
276.7024, 317.7201
277.1845, 314.6769
277.6666, 310.7646
278.1487, 307.0558
278.6308, 304.9026
279.1129, 304.7817
279.5951, 304.6400
280.0772, 304.4098
280.5593, 304.2168
281.0414, 304.0376
281.5235, 303.9305
282.0056, 304.0461
282.4878, 304.5268
282.9699, 305.3928
283.4520, 306.5478
283.9341, 307.9889
284.4162, 309.6759
284.8983, 311.4273
285.3805, 313.3929
285.8626, 315.9008
286.3447, 319.1913
286.8268, 323.2519
287.3089, 328.2117
287.7910, 333.9470
288.2732, 340.5973
288.7553, 348.7103
289.2374, 357.7345
289.7195, 366.6796
290.2016, 374.9825
290.6837, 382.6515
291.1659, 389.9161
291.6480, 397.6610
292.1301, 403.9213
292.6122, 409.1631
293.0943, 412.5149
293.5764, 412.5620
294.0586, 408.6077
294.5407, 401.5607
295.0228, 393.8414
295.5049, 386.2151
295.9870, 376.8382
296.4691, 364.1625
296.9513, 350.3409
297.4334, 337.3821
297.9155, 326.0298
298.3976, 316.1079
298.8797, 307.3896
299.3618, 300.2266
299.8440, 293.8745
300.3261, 288.6704
300.8082, 284.0876
301.2903, 279.6219
301.7724, 275.2184
302.2545, 271.1461
302.7367, 267.6891
303.2188, 264.9311
303.7009, 262.7233
304.1830, 261.4748
304.6651, 260.3762
305.1472, 258.7149
305.6294, 256.6061
306.1115, 254.8876
306.5936, 254.3858
307.0757, 255.2003
307.5578, 255.2023
308.0399, 253.5321
308.5221, 252.0509
309.0042, 251.8820
309.4863, 252.6067
309.9684, 253.0291
310.4505, 252.3505
310.9326, 250.7485
311.4148, 249.4737
311.8969, 248.1396
312.3790, 247.5009
312.8611, 248.4799
313.3432, 250.1449
313.8253, 250.9099
314.3075, 250.0078
314.7896, 248.0949
315.2717, 246.8246
315.7538, 246.1360
316.2359, 246.1980
316.7180, 247.9815
317.2001, 250.1082
317.6823, 250.8694
318.1644, 249.8052
318.6465, 248.0359
319.1286, 247.2311
319.6107, 247.8956
320.0928, 248.4303
320.5750, 248.8687
321.0571, 249.1594
321.5392, 249.1504
322.0213, 248.8799
322.5034, 248.6689
322.9855, 248.8779
323.4677, 249.6086
323.9498, 249.9834
324.4319, 249.8570
324.9140, 249.5700
325.3961, 249.1491
325.8782, 248.6916
326.3604, 248.4165
326.8425, 248.4930
327.3246, 248.8921
327.8067, 249.2836
328.2888, 249.6317
328.7709, 250.0186
329.2531, 250.7154
329.7352, 251.4225
330.2173, 251.5886
330.6994, 250.9315
331.1815, 249.7643
331.6636, 248.9243
332.1458, 247.9790
332.6279, 247.9731
333.1100, 249.8521
333.5921, 252.2325
334.0742, 253.7226
334.5563, 253.9377
335.0385, 253.5246
335.5206, 253.4507
336.0027, 254.1321
336.4848, 254.0023
336.9669, 251.8436
337.4490, 249.9057
337.9312, 249.8483
338.4133, 251.5960
338.8954, 253.9304
339.3775, 255.8339
339.8596, 257.3560
340.3417, 257.8089
340.8239, 256.0933
341.3060, 254.5989
341.7881, 254.1356
342.2702, 254.5416
342.7523, 255.4514
343.2344, 256.6854
343.7166, 258.1102
344.1987, 259.0623
344.6808, 259.0517
345.1629, 259.0907
345.6450, 259.2113
346.1271, 259.4476
346.6093, 259.9012
347.0914, 260.5921
347.5735, 261.3338
348.0556, 261.7371
348.5377, 261.4883
349.0198, 261.4716
349.5020, 261.9821
349.9841, 262.4785
350.4662, 262.5255
350.9483, 262.1215
351.4304, 261.6205
351.9125, 261.4187
352.3947, 261.5801
352.8768, 261.6166
353.3589, 261.0988
353.8410, 260.8801
354.3231, 261.3031
354.8052, 262.2627
355.2874, 263.5915
355.7695, 265.2762
356.2516, 267.1285
356.7337, 268.0490
357.2158, 266.9306
357.6979, 266.3708
358.1800, 267.2559
358.6621, 268.7241
359.1443, 269.8760
359.6264, 270.3704
360.1085, 270.3780
360.5906, 270.1114
361.0727, 269.3171
361.5548, 268.9278
362.0370, 269.2859
362.5191, 269.8594
363.0012, 270.3361
363.4833, 270.6888
363.9654, 271.0680
364.4475, 271.6064
364.9297, 272.3038
365.4118, 273.1757
365.8939, 274.5987
366.3760, 275.7660
366.8581, 275.9633
367.3402, 275.6841
367.8224, 275.9940
368.3045, 277.7242
368.7866, 280.2923
369.2687, 281.9487
369.7508, 282.3784
370.2329, 282.5525
370.7151, 282.8096
371.1972, 282.9966
371.6793, 282.9078
372.1614, 282.4590
372.6435, 281.9249
373.1256, 281.6973
373.6078, 281.8101
374.0899, 281.7428
374.5720, 281.1479
375.0541, 280.5555
375.5362, 280.5153
376.0183, 280.9551
376.5005, 281.1438
376.9826, 280.2636
377.4647, 278.6964
377.9468, 277.8818
378.4289, 278.0634
378.9110, 278.6560
379.3932, 279.3972
379.8753, 280.2416
380.3574, 281.1466
380.8395, 282.3763
381.3216, 283.4046
381.8037, 283.2766
382.2859, 281.9594
382.7680, 281.1024
383.2501, 281.5811
383.7322, 282.8745
384.2143, 284.1603
384.6964, 285.5177
385.1786, 286.5160
385.6607, 286.6557
386.1428, 286.2348
386.6249, 285.9980
387.1070, 286.0776
387.5891, 286.4948
388.0713, 287.5504
388.5534, 289.1729
389.0355, 290.3251
389.5176, 290.4862
389.9997, 290.2765
390.4818, 290.1512
390.9640, 290.1704
391.4461, 290.6000
391.9282, 291.7367
392.4103, 293.4360
392.8924, 294.8507
393.3745, 296.2723
393.8567, 297.1248
394.3388, 296.6212
394.8209, 295.4452
395.3030, 295.0318
395.7851, 295.9698
396.2672, 297.5150
396.7494, 298.3109
397.2315, 297.7707
397.7136, 297.8871
398.1957, 299.5041
398.6778, 301.3004
399.1599, 301.8807
399.6420, 301.3022
400.1241, 300.9815
400.6063, 302.2957
401.0884, 305.3276
401.5705, 307.3258
402.0526, 307.5017
402.5347, 307.6834
403.0168, 308.5675
403.4990, 309.8029
403.9811, 310.5913
404.4632, 310.5303
404.9453, 310.2692
405.4274, 311.4143
405.9095, 314.6929
406.3917, 318.2542
406.8738, 322.7060
407.3559, 326.8959
407.8380, 329.9948
408.3201, 331.9293
408.8022, 333.2285
409.2844, 334.5355
409.7665, 335.9159
410.2486, 336.0371
410.7307, 333.5986
411.2128, 331.2427
411.6949, 329.8770
412.1771, 329.0795
412.6592, 328.0346
413.1413, 326.2675
413.6234, 324.2843
414.1055, 323.2050
414.5876, 323.2313
415.0698, 323.5448
415.5519, 324.1146
416.0340, 324.8020
416.5161, 325.6207
416.9982, 326.5461
417.4803, 327.2933
417.9625, 327.3510
418.4446, 326.8970
418.9267, 327.2695
419.4088, 328.9887
419.8909, 330.7624
420.3730, 331.6346
420.8552, 331.9587
421.3373, 332.4252
421.8194, 333.3034
422.3015, 334.3813
422.7836, 335.3966
423.2657, 336.3496
423.7479, 337.4117
424.2300, 338.6503
424.7121, 340.0427
425.1942, 341.6133
425.6763, 343.4394
426.1584, 345.0380
426.6406, 345.9814
427.1227, 346.6290
427.6048, 347.5147
428.0869, 348.7238
428.5690, 350.3223
429.0511, 352.5092
429.5333, 355.2834
430.0154, 357.6417
430.4975, 359.1474
430.9796, 360.6485
431.4617, 362.8346
431.9438, 365.3983
432.4260, 367.4583
432.9081, 368.5302
433.3902, 369.0896
433.8723, 370.2917
434.3544, 373.1210
434.8365, 374.9229
435.3187, 374.6366
435.8008, 373.9362
436.2829, 374.1003
436.7650, 375.3116
437.2471, 377.1680
437.7292, 379.3630
438.2114, 381.9195
438.6935, 384.2292
439.1756, 385.4029
439.6577, 387.3385
440.1398, 390.9751
440.6219, 395.4707
441.1040, 399.5453
441.5862, 402.6498
442.0683, 405.5554
442.5504, 409.5886
443.0325, 414.8747
443.5146, 420.9689
443.9967, 428.1103
444.4789, 435.8204
444.9610, 443.8884
445.4431, 452.2722
445.9252, 461.1044
446.4073, 470.4635
446.8894, 480.2713
447.3716, 490.2229
447.8537, 500.2847
448.3358, 510.5524
448.8179, 520.7292
449.3000, 531.3306
449.7821, 542.9310
450.2643, 555.6078
450.7464, 569.4984
451.2285, 584.3445
451.7106, 600.3929
452.1927, 618.5109
452.6748, 638.8448
453.1570, 661.1486
453.6391, 684.5563
454.1212, 709.2996
454.6033, 738.2898
455.0854, 772.3567
455.5675, 810.6664
456.0497, 852.2959
456.5318, 897.3352
457.0139, 947.3312
457.4960, 1003.065
457.9781, 1064.361
458.4602, 1131.690
458.9424, 1205.593
459.4245, 1282.956
459.9066, 1366.084
460.3887, 1450.586
460.8708, 1534.802
461.3529, 1617.159
461.8351, 1692.177
462.3172, 1756.145
462.7993, 1808.917
463.2814, 1842.084
463.7635, 1859.128
464.2456, 1854.287
464.7278, 1821.536
465.2099, 1767.297
465.6920, 1698.115
466.1741, 1616.568
466.6562, 1526.910
467.1383, 1434.899
467.6205, 1336.960
468.1026, 1245.446
468.5847, 1160.475
469.0668, 1082.340
469.5489, 1012.230
470.0310, 949.4851
470.5132, 893.2259
470.9953, 843.0303
471.4774, 798.7116
471.9595, 760.3047
472.4416, 728.6271
472.9237, 699.9911
473.4059, 674.0839
473.8880, 650.3887
474.3701, 628.5077
474.8522, 608.5245
475.3343, 590.4481
475.8164, 574.6309
476.2986, 560.8299
476.7807, 548.4328
477.2628, 537.5477
477.7449, 527.3907
478.2270, 517.1459
478.7091, 507.1854
479.1913, 498.9338
479.6734, 493.4879
480.1555, 488.6344
480.6376, 483.2349
481.1197, 477.6087
481.6018, 472.4946
482.0839, 468.1583
482.5660, 464.0721
483.0482, 459.4240
483.5303, 453.9325
484.0124, 448.9836
484.4945, 444.3401
484.9766, 440.4300
485.4587, 437.6231
485.9409, 435.7229
486.4230, 434.4310
486.9051, 433.6359
487.3872, 432.9295
487.8693, 430.9965
488.3514, 426.4482
488.8336, 423.2918
489.3157, 422.4862
489.7978, 422.4084
490.2799, 422.0278
490.7620, 421.3059
491.2441, 420.7973
491.7263, 421.1015
492.2084, 421.9812
492.6905, 422.1454
493.1726, 421.1158
493.6547, 420.5288
494.1368, 421.6272
494.6190, 423.2343
495.1011, 424.2359
495.5832, 424.4366
496.0653, 424.0565
496.5474, 422.6983
497.0295, 420.8664
497.5117, 420.5768
497.9938, 422.6442
498.4759, 424.0060
498.9580, 421.3644
499.4401, 415.6014
499.9222, 411.6913
500.4044, 411.2000
500.8865, 411.2980
501.3686, 410.5944
501.8507, 409.4078
502.3328, 408.3825
502.8149, 407.7396
503.2971, 407.3446
503.7792, 407.0616
504.2613, 407.0415
504.7434, 406.5323
505.2255, 404.9101
505.7076, 403.4726
506.1898, 402.8651
506.6719, 402.9166
507.1540, 403.3091
507.6361, 403.9040
508.1182, 404.4452
508.6003, 404.2299
509.0825, 402.8105
509.5646, 401.8370
510.0467, 401.5574
510.5288, 401.6865
511.0109, 402.3204
511.4930, 403.2814
511.9752, 404.0540
512.4573, 404.2729
512.9394, 404.1164
513.4215, 403.8985
513.9036, 403.5590
514.3857, 403.5624
514.8679, 404.4180
515.3500, 405.4635
515.8321, 405.7399
516.3142, 405.1222
516.7963, 404.7177
517.2784, 405.4276
517.7606, 406.4325
518.2427, 406.3577
518.7248, 405.1503
519.2069, 404.1314
519.6890, 404.1901
520.1711, 405.1449
520.6533, 406.1089
521.1354, 407.3570
521.6175, 408.2605
522.0996, 408.7326
522.5817, 408.8004
523.0638, 408.2168
523.5460, 407.1025
524.0281, 406.2147
524.5102, 406.3700
524.9923, 407.5249
525.4744, 408.1360
525.9565, 407.6364
526.4387, 407.3129
526.9208, 407.4411
527.4029, 407.8556
527.8850, 408.4154
528.3671, 409.0758
528.8492, 409.7827
529.3314, 410.6772
529.8135, 411.6782
530.2956, 411.8398
530.7777, 410.6511
531.2598, 409.5767
531.7419, 409.9319
532.2241, 410.9203
532.7062, 411.1526
533.1883, 409.8852
533.6704, 408.8349
534.1525, 409.4785
534.6346, 411.1827
535.1168, 412.5495
535.5989, 413.2798
536.0810, 413.4231
536.5631, 412.7866
537.0452, 411.3172
537.5273, 411.0136
538.0095, 412.9487
538.4916, 414.7384
538.9737, 415.2653
539.4558, 415.1756
539.9379, 415.6868
540.4200, 417.1284
540.9022, 418.4572
541.3843, 418.0400
541.8664, 415.4230
542.3485, 413.6396
542.8306, 413.3540
543.3127, 413.2423
543.7948, 412.6099
544.2769, 411.9742
544.7590, 412.3181
545.2411, 414.1146
545.7233, 416.1538
546.2054, 416.7347
546.6875, 415.9770
547.1696, 415.6542
547.6517, 416.1293
548.1339, 416.8964
548.6160, 417.6061
549.0981, 418.2730
549.5802, 418.9516
550.0623, 419.7656
550.5444, 420.4652
551.0266, 420.6923
551.5087, 420.7005
551.9908, 421.2707
552.4729, 422.6744
552.9550, 423.9272
553.4371, 423.5896
553.9193, 421.1079
554.4014, 420.4978
554.8835, 423.8733
555.3656, 426.5078
555.8477, 426.0722
556.3298, 424.0192
556.8120, 422.4503
557.2941, 422.1538
557.7762, 422.7466
558.2583, 423.9493
558.7404, 425.9170
559.2225, 427.1379
559.7047, 427.3185
560.1868, 427.0176
560.6689, 426.0230
561.1510, 424.8929
561.6331, 424.6828
562.1152, 425.9849
562.5974, 427.4937
563.0795, 427.8467
563.5616, 427.3780
564.0437, 427.4225
564.5258, 428.3696
565.0079, 429.2506
565.4901, 429.0171
565.9722, 427.7489
566.4543, 427.2155
566.9364, 427.6887
567.4185, 428.5783
567.9006, 430.2712
568.3828, 432.0141
568.8649, 432.5343
569.3470, 431.6035
569.8291, 430.3647
570.3112, 430.1242
570.7933, 430.9259
571.2755, 431.9637
571.7576, 433.8914
572.2397, 435.2091
572.7218, 435.0555
573.2039, 434.3814
573.6860, 434.1286
574.1682, 434.5451
574.6503, 435.6123
575.1324, 437.8975
575.6145, 440.9318
576.0966, 442.5052
576.5787, 442.2460
577.0609, 441.4156
577.5430, 440.3721
578.0251, 439.4162
578.5072, 439.2873
578.9893, 440.4839
579.4714, 441.4157
579.9536, 440.8942
580.4357, 440.0807
580.9178, 440.7056
581.3999, 442.7802
581.8820, 444.7346
582.3641, 445.3664
582.8463, 444.8675
583.3284, 444.3306
583.8105, 443.0751
584.2926, 442.8282
584.7747, 444.8417
585.2568, 447.0107
585.7390, 447.5648
586.2211, 446.6025
586.7032, 445.5070
587.1853, 445.2337
587.6674, 445.5544
