##NAMES=Sodalite
##RRUFFID=R040141
##IDEAL CHEMISTRY=Na_4_Si_3_Al_3_O_12_Cl
##LOCALITY=Princess Sodalite mine, Bancroft, Ontario, Canada
##OWNER=RRUFF
##SOURCE=University of Arizona Mineral Museum
##DESCRIPTION=Blue grains in a coarsely crystalline rock
##STATUS=The identification of this mineral has been confirmed by X-ray diffraction and chemical analysis
##URL=rruff.info/R040141
##MEASURED CHEMISTRY=Na_7.86_Al_6.00_Si_6.03_O_24_Cl_2.02_
143.3943, 347.0349
143.8764, 357.8518
144.3585, 367.2214
144.8407, 380.5244
145.3228, 401.2906
145.8049, 423.2195
146.2870, 440.3492
146.7691, 451.2787
147.2512, 458.9762
147.7334, 463.0606
148.2155, 462.5205
148.6976, 463.0680
149.1797, 464.3048
149.6618, 466.7592
150.1439, 471.0915
150.6261, 479.7120
151.1082, 487.9971
151.5903, 493.9891
152.0724, 494.5025
152.5545, 499.7852
153.0366, 511.7599
153.5188, 528.9438
154.0009, 548.3369
154.4830, 573.3502
154.9651, 597.8396
155.4472, 619.0834
155.9293, 633.4469
156.4115, 649.3188
156.8936, 667.1511
157.3757, 687.5184
157.8578, 712.5693
158.3399, 743.5400
158.8221, 779.0012
159.3042, 818.3199
159.7863, 863.7126
160.2684, 910.5956
160.7505, 956.3845
161.2326, 1001.953
161.7148, 1050.859
162.1969, 1105.250
162.6790, 1163.765
163.1611, 1224.365
163.6432, 1294.253
164.1253, 1360.434
164.6075, 1419.110
165.0896, 1470.254
165.5717, 1506.583
166.0538, 1525.753
166.5359, 1527.114
167.0180, 1510.141
167.5002, 1466.018
167.9823, 1408.856
168.4644, 1347.135
168.9465, 1280.775
169.4286, 1214.725
169.9107, 1150.666
170.3929, 1089.784
170.8750, 1032.893
171.3571, 978.6693
171.8392, 930.0976
172.3213, 891.3653
172.8034, 864.5646
173.2856, 843.7581
173.7677, 824.4590
174.2498, 806.8483
174.7319, 791.8676
175.2140, 781.2093
175.6961, 773.2358
176.1783, 765.6198
176.6604, 758.1625
177.1425, 750.7059
177.6246, 743.1304
178.1067, 735.4842
178.5888, 727.5611
179.0710, 722.2602
179.5531, 716.7117
180.0352, 703.5566
180.5173, 677.4481
180.9994, 646.7435
181.4815, 625.9915
181.9637, 614.7972
182.4458, 606.5033
182.9279, 595.4246
183.4100, 582.4132
183.8921, 570.4469
184.3742, 560.1826
184.8564, 551.5656
185.3385, 545.3222
185.8206, 541.5532
186.3027, 538.2842
186.7848, 533.6902
187.2669, 527.8409
187.7491, 521.0414
188.2312, 511.7044
188.7133, 501.4513
189.1954, 497.0969
189.6775, 499.5353
190.1596, 504.0239
190.6418, 505.0053
191.1239, 502.5307
191.6060, 499.2125
192.0881, 494.7525
192.5702, 489.6612
193.0524, 489.3466
193.5345, 494.9705
194.0166, 502.3419
194.4987, 504.5620
194.9808, 501.3138
195.4629, 497.6836
195.9451, 497.0064
196.4272, 499.1589
196.9093, 496.8447
197.3914, 488.0622
197.8735, 477.5992
198.3556, 475.7233
198.8378, 483.7663
199.3199, 491.9153
199.8020, 493.5764
200.2841, 488.0239
200.7662, 487.2851
201.2483, 493.8033
201.7305, 503.9029
202.2126, 508.1951
202.6947, 505.5979
203.1768, 501.2304
203.6589, 498.1859
204.1410, 496.8082
204.6232, 494.0823
205.1053, 488.4467
205.5874, 481.8562
206.0695, 481.7786
206.5516, 490.3235
207.0337, 499.8417
207.5159, 505.0543
207.9980, 505.0743
208.4801, 504.4323
208.9622, 503.1721
209.4443, 501.6755
209.9264, 501.9647
210.4086, 504.5060
210.8907, 507.9108
211.3728, 511.3370
211.8549, 515.1279
212.3370, 517.8050
212.8191, 518.8754
213.3013, 518.5474
213.7834, 518.5212
214.2655, 518.5396
214.7476, 519.2811
215.2297, 521.0647
215.7118, 523.4035
216.1940, 528.5512
216.6761, 538.7520
217.1582, 553.5489
217.6403, 560.5475
218.1224, 555.7347
218.6045, 548.3868
219.0867, 548.0321
219.5688, 558.3415
220.0509, 566.8679
220.5330, 569.9512
221.0151, 567.4438
221.4972, 568.6965
221.9794, 575.0508
222.4615, 583.6708
222.9436, 591.6840
223.4257, 598.8132
223.9078, 605.9093
224.3899, 612.3895
224.8721, 618.0078
225.3542, 627.8257
225.8363, 644.7450
226.3184, 663.1929
226.8005, 676.3715
227.2827, 680.9512
227.7648, 686.5034
228.2469, 696.1566
228.7290, 710.8301
229.2111, 722.0720
229.6932, 728.5593
230.1754, 732.5578
230.6575, 736.9722
231.1396, 741.7858
231.6217, 746.9628
232.1038, 752.1180
232.5859, 756.7475
233.0681, 764.7610
233.5502, 780.1354
234.0323, 796.0159
234.5144, 801.6878
234.9965, 790.6224
235.4786, 780.3181
235.9608, 776.7598
236.4429, 782.2307
236.9250, 783.9304
237.4071, 780.6364
237.8892, 774.3010
238.3713, 767.2379
238.8535, 756.1649
239.3356, 749.8984
239.8177, 751.9520
240.2998, 764.4891
240.7819, 777.2554
241.2640, 790.7738
241.7462, 804.4218
242.2283, 817.0350
242.7104, 827.4639
243.1925, 838.7104
243.6746, 851.2165
244.1567, 863.9745
244.6389, 882.4951
245.1210, 910.9802
245.6031, 942.6763
246.0852, 964.3430
246.5673, 968.8159
247.0494, 975.4429
247.5316, 990.9915
248.0137, 1017.081
248.4958, 1047.433
248.9779, 1084.950
249.4600, 1124.950
249.9421, 1156.887
250.4243, 1175.258
250.9064, 1195.802
251.3885, 1224.799
251.8706, 1265.132
252.3527, 1304.512
252.8348, 1340.823
253.3170, 1377.365
253.7991, 1420.979
254.2812, 1474.558
254.7633, 1528.761
255.2454, 1580.122
255.7275, 1627.170
256.2097, 1675.206
256.6918, 1724.206
257.1739, 1773.662
257.6560, 1823.771
258.1381, 1876.337
258.6202, 1925.984
259.1024, 1969.819
259.5845, 2004.544
260.0666, 2046.868
260.5487, 2103.487
261.0308, 2162.510
261.5129, 2203.665
261.9951, 2222.364
262.4772, 2233.293
262.9593, 2242.223
263.4414, 2250.530
263.9235, 2250.692
264.4056, 2242.625
264.8878, 2226.412
265.3699, 2201.560
265.8520, 2166.686
266.3341, 2126.472
266.8162, 2080.979
267.2983, 2029.505
267.7805, 1980.061
268.2626, 1934.070
268.7447, 1888.963
269.2268, 1839.490
269.7089, 1784.029
270.1910, 1730.208
270.6732, 1680.000
271.1553, 1633.615
271.6374, 1592.065
272.1195, 1557.064
272.6016, 1524.298
273.0837, 1485.399
273.5659, 1437.276
274.0480, 1397.882
274.5301, 1377.215
275.0122, 1376.249
275.4943, 1368.120
275.9764, 1350.710
276.4586, 1330.118
276.9407, 1315.559
277.4228, 1307.773
277.9049, 1301.002
278.3870, 1291.932
278.8691, 1280.909
279.3513, 1276.341
279.8334, 1279.021
280.3155, 1286.120
280.7976, 1293.399
281.2798, 1300.625
281.7619, 1312.044
282.2440, 1331.751
282.7261, 1358.115
283.2082, 1377.152
283.6903, 1387.114
284.1725, 1396.181
284.6546, 1413.251
285.1367, 1438.138
285.6188, 1470.270
286.1009, 1512.913
286.5830, 1562.958
287.0652, 1604.598
287.5473, 1635.661
288.0294, 1668.994
288.5115, 1722.391
288.9936, 1793.573
289.4757, 1861.144
289.9579, 1916.318
290.4400, 1963.466
290.9221, 2018.008
291.4042, 2080.679
291.8863, 2141.583
292.3684, 2194.423
292.8506, 2238.002
293.3327, 2268.454
293.8148, 2285.551
294.2969, 2288.493
294.7790, 2277.439
295.2611, 2252.238
295.7433, 2209.077
296.2254, 2136.452
296.7075, 2041.354
297.1896, 1946.481
297.6717, 1856.712
298.1538, 1769.561
298.6360, 1679.293
299.1181, 1586.105
299.6002, 1502.079
300.0823, 1436.974
300.5644, 1386.677
301.0465, 1343.241
301.5287, 1306.453
302.0108, 1273.356
302.4929, 1238.525
302.9750, 1203.253
303.4571, 1176.909
303.9392, 1172.324
304.4214, 1178.256
304.9035, 1179.053
305.3856, 1168.531
305.8677, 1155.911
306.3498, 1149.353
306.8319, 1147.617
307.3141, 1146.206
307.7962, 1142.002
308.2783, 1137.099
308.7604, 1133.229
309.2425, 1130.280
309.7246, 1129.618
310.2068, 1133.208
310.6889, 1139.914
311.1710, 1146.807
311.6531, 1155.107
312.1352, 1161.457
312.6173, 1161.587
313.0995, 1151.246
313.5816, 1145.195
314.0637, 1155.731
314.5458, 1175.047
315.0279, 1188.521
315.5100, 1184.900
315.9922, 1178.220
316.4743, 1175.682
316.9564, 1178.621
317.4385, 1183.625
317.9206, 1191.069
318.4027, 1199.566
318.8849, 1207.182
319.3670, 1210.448
319.8491, 1215.340
320.3312, 1226.143
320.8133, 1245.170
321.2954, 1257.869
321.7776, 1258.004
322.2597, 1251.869
322.7418, 1246.174
323.2239, 1236.410
323.7060, 1232.630
324.1881, 1241.556
324.6703, 1265.118
325.1524, 1278.277
325.6345, 1266.730
326.1166, 1250.651
326.5987, 1246.274
327.0808, 1268.817
327.5630, 1285.231
328.0451, 1289.706
328.5272, 1282.846
329.0093, 1277.703
329.4914, 1274.660
329.9735, 1273.088
330.4557, 1272.408
330.9378, 1270.893
331.4199, 1273.660
331.9020, 1284.080
332.3841, 1299.596
332.8662, 1307.346
333.3484, 1304.293
333.8305, 1297.965
334.3126, 1291.651
334.7947, 1284.255
335.2768, 1280.972
335.7589, 1284.291
336.2411, 1290.637
336.7232, 1290.239
337.2053, 1280.847
337.6874, 1271.280
338.1695, 1266.589
338.6516, 1267.817
339.1338, 1264.538
339.6159, 1255.179
340.0980, 1243.537
340.5801, 1235.861
341.0622, 1232.226
341.5443, 1231.248
342.0265, 1233.921
342.5086, 1239.527
342.9907, 1241.129
343.4728, 1238.198
343.9549, 1233.267
344.4370, 1228.547
344.9192, 1224.198
345.4013, 1221.745
345.8834, 1223.085
346.3655, 1226.369
346.8476, 1226.811
347.3297, 1224.392
347.8119, 1219.990
348.2940, 1211.822
348.7761, 1201.974
349.2582, 1197.538
349.7403, 1204.630
350.2225, 1213.702
350.7046, 1207.257
351.1867, 1187.505
351.6688, 1171.962
352.1509, 1179.251
352.6331, 1197.237
353.1152, 1207.014
353.5973, 1201.294
354.0794, 1192.225
354.5615, 1192.389
355.0436, 1198.500
355.5258, 1200.560
356.0079, 1187.364
356.4900, 1170.879
356.9721, 1162.214
357.4542, 1165.001
357.9363, 1169.080
358.4185, 1169.082
358.9006, 1166.488
359.3827, 1163.868
359.8648, 1163.235
360.3469, 1162.030
360.8290, 1157.635
361.3112, 1148.905
361.7933, 1143.903
362.2754, 1148.120
362.7575, 1156.232
363.2396, 1162.479
363.7217, 1164.565
364.2039, 1165.577
364.6860, 1166.354
365.1681, 1166.926
365.6502, 1166.359
366.1323, 1163.448
366.6144, 1160.031
367.0966, 1157.360
367.5787, 1155.749
368.0608, 1154.546
368.5429, 1152.598
369.0250, 1150.681
369.5071, 1153.284
369.9893, 1166.527
370.4714, 1177.181
370.9535, 1178.182
371.4356, 1164.303
371.9177, 1152.522
372.3998, 1142.918
372.8820, 1135.560
373.3641, 1131.515
373.8462, 1132.731
374.3283, 1132.195
374.8104, 1126.091
375.2925, 1113.584
375.7747, 1105.447
376.2568, 1103.175
376.7389, 1102.172
377.2210, 1094.137
377.7031, 1078.176
378.1852, 1068.470
378.6674, 1072.126
379.1495, 1085.336
379.6316, 1092.733
380.1137, 1094.211
380.5958, 1090.247
381.0779, 1076.414
381.5601, 1055.642
382.0422, 1044.197
382.5243, 1048.632
383.0064, 1059.984
383.4885, 1062.912
383.9706, 1058.481
384.4528, 1054.348
384.9349, 1057.384
385.4170, 1063.694
385.8991, 1066.205
386.3812, 1062.721
386.8633, 1059.190
387.3455, 1064.030
387.8276, 1073.216
388.3097, 1077.577
388.7918, 1067.001
389.2739, 1053.189
389.7560, 1045.229
390.2382, 1044.033
390.7203, 1046.085
391.2024, 1052.849
391.6845, 1060.668
392.1666, 1065.404
392.6487, 1060.511
393.1309, 1057.081
393.6130, 1061.525
394.0951, 1072.990
394.5772, 1080.892
395.0593, 1079.407
395.5414, 1075.505
396.0236, 1073.555
396.5057, 1076.817
396.9878, 1078.892
397.4699, 1077.952
397.9520, 1075.234
398.4341, 1074.545
398.9163, 1074.855
399.3984, 1078.275
399.8805, 1085.783
400.3626, 1098.287
400.8447, 1112.623
401.3268, 1131.463
401.8090, 1150.138
402.2911, 1160.850
402.7732, 1158.511
403.2553, 1161.571
403.7374, 1177.489
404.2195, 1205.150
404.7017, 1222.383
405.1838, 1225.620
405.6659, 1228.222
406.1480, 1243.743
406.6301, 1272.443
407.1122, 1298.944
407.5944, 1318.255
408.0765, 1336.219
408.5586, 1372.597
409.0407, 1427.032
409.5228, 1471.764
410.0049, 1488.147
410.4871, 1480.351
410.9692, 1457.526
411.4513, 1418.363
411.9334, 1372.721
412.4155, 1325.671
412.8976, 1279.658
413.3798, 1243.306
413.8619, 1226.460
414.3440, 1216.966
414.8261, 1200.774
415.3082, 1177.553
415.7903, 1157.226
416.2725, 1146.785
416.7546, 1142.464
417.2367, 1139.906
417.7188, 1139.102
418.2009, 1138.419
418.6830, 1137.750
419.1652, 1136.766
419.6473, 1134.289
420.1294, 1125.687
420.6115, 1118.590
421.0937, 1117.646
421.5758, 1126.995
422.0579, 1134.942
422.5400, 1138.991
423.0221, 1140.959
423.5042, 1143.896
423.9864, 1147.758
424.4685, 1152.740
424.9506, 1159.553
425.4327, 1168.381
425.9148, 1175.627
426.3969, 1181.707
426.8791, 1185.736
427.3612, 1185.246
427.8433, 1176.181
428.3254, 1176.178
428.8075, 1191.296
429.2896, 1215.779
429.7718, 1228.194
430.2539, 1226.271
430.7360, 1224.536
431.2181, 1232.749
431.7002, 1250.100
432.1823, 1265.424
432.6645, 1278.670
433.1466, 1288.248
433.6287, 1291.181
434.1108, 1288.163
434.5929, 1282.299
435.0750, 1271.412
435.5572, 1260.004
436.0393, 1257.000
436.5214, 1262.104
437.0035, 1269.088
437.4856, 1268.802
437.9677, 1268.561
438.4499, 1279.471
438.9320, 1308.962
439.4141, 1342.382
439.8962, 1373.731
440.3783, 1401.171
440.8604, 1420.893
441.3426, 1415.604
441.8247, 1413.636
442.3068, 1433.907
442.7889, 1483.469
443.2710, 1531.086
443.7531, 1564.217
444.2353, 1592.718
444.7174, 1628.067
445.1995, 1673.641
445.6816, 1723.698
446.1637, 1776.033
446.6458, 1830.744
447.1280, 1895.343
447.6101, 1972.577
448.0922, 2057.033
448.5743, 2144.064
449.0564, 2230.720
449.5385, 2330.539
450.0207, 2445.021
450.5028, 2571.254
450.9849, 2700.867
451.4670, 2829.660
451.9491, 2977.226
452.4312, 3155.023
452.9134, 3359.427
453.3955, 3566.783
453.8776, 3775.430
454.3597, 3993.269
454.8418, 4216.229
455.3239, 4451.338
455.8061, 4720.710
456.2882, 5040.794
456.7703, 5385.021
457.2524, 5717.767
457.7345, 6041.540
458.2166, 6375.147
458.6988, 6713.877
459.1809, 7073.310
459.6630, 7474.272
460.1451, 7928.945
460.6272, 8380.052
461.1093, 8800.884
461.5915, 9192.593
462.0736, 9547.831
462.5557, 9920.460
463.0378, 10202.02
463.5199, 10358.81
464.0020, 10389.97
464.4842, 10296.92
464.9663, 10045.45
465.4484, 9694.057
465.9305, 9269.091
466.4126, 8738.131
466.8947, 8182.859
467.3769, 7579.258
467.8590, 6964.201
468.3411, 6385.775
468.8232, 5838.638
469.3053, 5345.018
469.7874, 4909.154
470.2696, 4530.217
470.7517, 4196.437
471.2338, 3913.583
471.7159, 3660.443
472.1980, 3423.553
472.6801, 3202.153
473.1623, 3001.753
473.6444, 2821.298
474.1265, 2662.363
474.6086, 2534.860
475.0907, 2435.177
475.5728, 2339.926
476.0550, 2229.631
476.5371, 2117.981
477.0192, 2032.050
477.5013, 1972.551
477.9834, 1918.312
478.4655, 1848.978
478.9477, 1776.103
479.4298, 1716.236
479.9119, 1682.880
480.3940, 1651.732
480.8761, 1608.535
481.3582, 1557.508
481.8404, 1511.293
482.3225, 1473.995
482.8046, 1442.499
483.2867, 1415.000
483.7688, 1390.966
484.2509, 1372.301
484.7331, 1364.580
485.2152, 1359.587
485.6973, 1349.069
486.1794, 1327.322
486.6615, 1309.839
487.1436, 1299.538
487.6258, 1295.102
488.1079, 1290.555
488.5900, 1286.025
489.0721, 1281.095
489.5542, 1275.453
490.0363, 1269.071
490.5185, 1261.746
491.0006, 1252.573
491.4827, 1245.672
491.9648, 1246.434
492.4470, 1254.315
492.9291, 1266.950
493.4112, 1285.636
493.8933, 1306.561
494.3754, 1325.098
494.8575, 1341.019
495.3397, 1351.790
495.8218, 1351.501
496.3039, 1347.411
496.7860, 1348.889
497.2681, 1359.862
497.7502, 1366.431
498.2324, 1363.720
498.7145, 1351.529
499.1966, 1329.509
499.6787, 1293.734
500.1608, 1252.038
500.6429, 1201.774
501.1251, 1144.199
501.6072, 1097.523
502.0893, 1066.286
502.5714, 1042.642
503.0535, 1023.588
503.5356, 1011.579
504.0178, 998.2611
504.4999, 982.6993
504.9820, 966.7965
505.4641, 953.9036
505.9462, 945.0516
506.4283, 933.6554
506.9105, 915.7148
507.3926, 894.3562
507.8747, 884.3187
508.3568, 886.2208
508.8389, 887.4270
509.3210, 874.3698
509.8032, 853.3182
510.2853, 842.6742
510.7674, 846.3619
511.2495, 853.4876
511.7316, 852.7924
512.2137, 847.2802
512.6959, 843.0861
513.1780, 844.5135
513.6601, 846.6312
514.1422, 845.5562
514.6243, 841.8634
515.1064, 839.6837
515.5886, 841.5464
516.0707, 844.7883
516.5528, 848.1348
517.0349, 852.9870
517.5170, 854.7354
517.9991, 852.1185
518.4813, 846.4650
518.9634, 838.9463
519.4455, 826.7602
519.9276, 817.6747
520.4097, 814.3912
520.8918, 815.8261
521.3740, 813.7796
521.8561, 806.9013
522.3382, 801.0137
522.8203, 800.8007
523.3024, 805.8589
523.7845, 809.3231
524.2667, 810.8253
524.7488, 810.7273
525.2309, 809.8058
525.7130, 807.7462
526.1951, 803.2468
526.6772, 792.9756
527.1594, 782.7402
527.6415, 780.7072
528.1236, 785.2818
528.6057, 789.4360
529.0878, 786.6486
529.5699, 783.5434
530.0521, 786.6683
530.5342, 799.2891
531.0163, 807.1196
531.4984, 801.4253
531.9805, 790.4812
532.4626, 783.0793
532.9448, 787.2020
533.4269, 786.5385
533.9090, 775.6473
534.3911, 758.2537
534.8732, 749.8358
535.3553, 754.5334
535.8375, 760.3140
536.3196, 761.2975
536.8017, 757.0931
537.2838, 757.5999
537.7659, 764.1931
538.2480, 770.9752
538.7302, 770.7091
539.2123, 764.4079
539.6944, 759.0868
540.1765, 756.3955
540.6586, 755.0986
541.1407, 754.2256
541.6229, 753.4051
542.1050, 751.3091
542.5871, 744.7731
543.0692, 738.2418
543.5513, 736.7772
544.0334, 740.5956
544.5156, 743.3804
544.9977, 739.5938
545.4798, 735.0423
545.9619, 734.6258
546.4440, 744.7905
546.9261, 750.8826
547.4083, 747.6289
547.8904, 739.6827
548.3725, 735.8002
548.8546, 740.3226
549.3367, 741.5007
549.8188, 734.5508
550.3010, 720.6545
550.7831, 714.6341
551.2652, 718.4673
551.7473, 723.5867
552.2294, 722.4625
552.7115, 716.0992
553.1937, 715.8686
553.6758, 723.9225
554.1579, 732.9058
554.6400, 732.9736
555.1221, 726.4869
555.6042, 720.2117
556.0864, 716.6587
556.5685, 714.1850
557.0506, 709.9376
557.5327, 705.0726
558.0148, 704.0159
558.4969, 714.8867
558.9791, 725.7515
559.4612, 727.9229
559.9433, 718.2570
560.4254, 711.7144
560.9075, 713.7675
561.3896, 718.5774
561.8718, 721.1085
562.3539, 721.4918
562.8360, 718.9182
563.3181, 710.7842
563.8002, 700.8904
564.2823, 699.9373
564.7645, 710.4845
565.2466, 718.4459
565.7287, 717.3788
566.2108, 709.0864
566.6929, 701.3421
567.1750, 694.1282
567.6572, 689.2866
568.1393, 689.9001
568.6214, 693.8327
569.1035, 696.5170
569.5856, 696.7836
570.0677, 697.7277
570.5499, 704.6829
571.0320, 713.4622
571.5141, 717.5025
571.9962, 707.0174
572.4783, 698.6866
572.9604, 702.9395
573.4426, 716.5852
573.9247, 722.9184
574.4068, 711.1747
574.8889, 698.9235
575.3710, 692.8717
575.8531, 694.1588
576.3353, 696.1163
576.8174, 699.1983
577.2995, 702.2490
577.7816, 703.9893
578.2637, 704.2468
578.7458, 705.0300
579.2280, 706.8084
579.7101, 708.9065
580.1922, 710.1386
580.6743, 710.5973
581.1564, 710.8051
581.6385, 708.5965
582.1207, 707.5582
582.6028, 715.1228
583.0849, 729.8661
583.5670, 741.1721
584.0491, 740.9079
584.5313, 735.8735
585.0134, 730.7136
585.4955, 725.4805
585.9776, 722.3358
586.4597, 724.8750
586.9418, 728.5286
587.4240, 727.8582
587.9061, 717.2634
588.3882, 710.9872
588.8703, 712.0337
589.3524, 717.9680
589.8345, 721.6888
590.3167, 722.7916
590.7988, 723.2311
591.2809, 723.7526
591.7630, 724.2939
592.2451, 723.9002
592.7272, 722.4759
593.2094, 722.4608
593.6915, 727.0667
594.1736, 734.2870
594.6557, 740.4743
595.1378, 744.9512
595.6199, 748.2471
596.1021, 750.0382
596.5842, 751.0527
597.0663, 752.3347
597.5485, 754.7811
598.0306, 756.9517
598.5127, 757.1049
598.9948, 756.2547
599.4769, 758.8458
599.9590, 767.5296
600.4412, 776.8422
600.9233, 785.9665
601.4054, 795.2862
601.8875, 797.5551
602.3696, 789.2727
602.8517, 782.5190
603.3339, 790.5030
603.8160, 811.7837
604.2981, 826.5864
604.7802, 832.1303
605.2623, 832.4265
605.7444, 829.2877
606.2266, 824.7394
606.7087, 824.4542
607.1908, 833.9581
607.6729, 844.8927
608.1550, 851.2617
608.6371, 853.6911
609.1193, 854.4378
609.6014, 855.8763
610.0835, 854.5160
610.5656, 847.8856
611.0477, 835.1136
611.5298, 822.7468
612.0120, 809.6639
612.4941, 798.4924
612.9762, 791.5043
613.4583, 790.0467
613.9404, 787.9001
614.4225, 784.5798
614.9047, 780.9763
615.3868, 777.3187
615.8689, 773.8351
616.3510, 774.3220
616.8331, 781.5453
617.3152, 791.1035
617.7974, 797.6473
618.2795, 800.9764
618.7616, 800.7469
619.2437, 792.3657
619.7258, 783.6291
620.2079, 781.6150
620.6901, 786.6116
621.1722, 789.5632
621.6543, 784.5299
622.1364, 778.3827
622.6185, 775.9355
623.1006, 780.3668
623.5828, 781.7509
624.0649, 777.9930
624.5470, 773.1101
625.0291, 772.3913
625.5112, 776.8365
625.9933, 779.8788
626.4755, 779.7075
626.9576, 778.3177
627.4397, 779.7076
627.9218, 783.6950
628.4039, 788.8891
628.8860, 797.1067
629.3682, 804.8420
629.8503, 806.2098
630.3324, 801.9477
630.8145, 797.5676
631.2966, 795.3511
631.7787, 794.8550
632.2609, 796.3932
632.7430, 800.9592
633.2251, 803.7349
633.7072, 802.0888
634.1893, 799.2864
634.6714, 798.0122
635.1536, 798.8893
635.6357, 799.7419
636.1178, 799.7065
636.5999, 800.3033
637.0820, 805.2881
637.5641, 814.8719
638.0463, 823.0856
638.5284, 827.7175
639.0105, 830.1056
