##NAMES=Sodalite
##RRUFFID=R060436
##IDEAL CHEMISTRY=Na_4_Si_3_Al_3_O_12_Cl
##LOCALITY=Koksha Valley, Budakshan Province, Afghanistan
##OWNER=RRUFF
##SOURCE=Herb Obodda
##DESCRIPTION=Pale blue fragment
##STATUS=The identification of this mineral has been confirmed by X-ray diffraction and chemical analysis
##URL=rruff.info/R060436
##MEASURED CHEMISTRY=(Na_0.99_K_0.01_)_8_Al_6.00_Si_6.00_O_24_Cl_2.00_
170.1024, 1389.599
170.5845, 1388.400
171.0666, 1387.503
171.5487, 1388.516
172.0309, 1391.315
172.5130, 1394.262
172.9951, 1396.363
173.4772, 1397.867
173.9593, 1399.151
174.4414, 1401.281
174.9236, 1402.783
175.4057, 1401.385
175.8878, 1397.043
176.3699, 1392.613
176.8520, 1391.156
177.3341, 1391.352
177.8163, 1390.349
178.2984, 1386.155
178.7805, 1380.309
179.2626, 1374.996
179.7447, 1370.351
180.2268, 1365.923
180.7090, 1361.463
181.1911, 1356.942
181.6732, 1352.312
182.1553, 1347.159
182.6374, 1341.944
183.1195, 1337.755
183.6017, 1334.580
184.0838, 1332.305
184.5659, 1330.857
185.0480, 1330.172
185.5301, 1329.891
186.0123, 1330.093
186.4944, 1330.575
186.9765, 1330.593
187.4586, 1329.990
187.9407, 1329.344
188.4228, 1329.558
188.9050, 1330.547
189.3871, 1331.559
189.8692, 1332.166
190.3513, 1332.442
190.8334, 1332.813
191.3155, 1333.342
191.7977, 1333.876
192.2798, 1334.432
192.7619, 1335.025
193.2440, 1334.874
193.7261, 1333.309
194.2082, 1330.473
194.6904, 1327.674
195.1725, 1324.860
195.6546, 1322.357
196.1367, 1321.203
196.6188, 1321.520
197.1009, 1321.533
197.5831, 1319.928
198.0652, 1316.697
198.5473, 1314.283
199.0294, 1312.741
199.5115, 1312.138
199.9937, 1313.265
200.4758, 1316.511
200.9579, 1318.863
201.4400, 1318.035
201.9221, 1313.705
202.4042, 1310.620
202.8864, 1309.199
203.3685, 1308.977
203.8506, 1308.974
204.3327, 1309.204
204.8148, 1309.559
205.2969, 1310.297
205.7791, 1311.660
206.2612, 1311.362
206.7433, 1308.469
207.2254, 1304.446
207.7075, 1303.393
208.1896, 1306.211
208.6718, 1309.368
209.1539, 1310.771
209.6360, 1309.920
210.1181, 1309.964
210.6002, 1311.491
211.0823, 1313.813
211.5645, 1314.886
212.0466, 1314.361
212.5287, 1313.499
213.0108, 1312.850
213.4929, 1312.293
213.9750, 1312.584
214.4572, 1314.231
214.9393, 1316.574
215.4214, 1317.648
215.9035, 1317.138
216.3856, 1315.980
216.8678, 1314.280
217.3499, 1311.152
217.8320, 1310.387
218.3141, 1313.096
218.7962, 1317.954
219.2783, 1320.702
219.7605, 1320.378
220.2426, 1319.568
220.7247, 1319.701
221.2068, 1321.293
221.6889, 1322.212
222.1710, 1321.876
222.6532, 1320.932
223.1353, 1321.638
223.6174, 1325.216
224.0995, 1328.461
224.5816, 1329.502
225.0637, 1326.958
225.5459, 1325.865
226.0280, 1326.865
226.5101, 1329.317
226.9922, 1331.317
227.4743, 1333.046
227.9564, 1334.072
228.4386, 1333.916
228.9207, 1331.420
229.4028, 1330.580
229.8849, 1331.987
230.3670, 1334.928
230.8492, 1337.511
231.3313, 1339.612
231.8134, 1341.501
232.2955, 1343.376
232.7776, 1345.448
233.2597, 1346.974
233.7419, 1347.807
234.2240, 1348.172
234.7061, 1348.643
235.1882, 1349.531
235.6703, 1350.115
236.1524, 1350.025
236.6346, 1348.820
237.1167, 1347.994
237.5988, 1347.667
238.0809, 1347.670
238.5630, 1347.518
239.0451, 1346.700
239.5273, 1346.472
240.0094, 1347.487
240.4915, 1350.471
240.9736, 1352.652
241.4557, 1353.440
241.9378, 1353.656
242.4200, 1355.069
242.9021, 1358.268
243.3842, 1361.737
243.8663, 1364.864
244.3484, 1367.354
244.8306, 1370.425
245.3127, 1374.418
245.7948, 1378.786
246.2769, 1382.406
246.7590, 1384.583
247.2411, 1387.137
247.7233, 1390.672
248.2054, 1395.286
248.6875, 1400.737
249.1696, 1407.834
249.6517, 1415.200
250.1338, 1420.263
250.6160, 1421.352
251.0981, 1423.179
251.5802, 1427.243
252.0623, 1433.891
252.5444, 1441.224
253.0265, 1449.730
253.5087, 1458.488
253.9908, 1465.896
254.4729, 1471.233
254.9550, 1476.803
255.4371, 1483.240
255.9192, 1490.533
256.4014, 1498.367
256.8835, 1506.973
257.3656, 1515.894
257.8477, 1524.798
258.3298, 1533.569
258.8120, 1542.653
259.2941, 1552.455
259.7762, 1563.109
260.2583, 1572.640
260.7404, 1580.827
261.2225, 1588.233
261.7047, 1595.833
262.1868, 1604.177
262.6689, 1611.228
263.1510, 1616.577
263.6331, 1620.187
264.1152, 1622.703
264.5974, 1624.172
265.0795, 1624.430
265.5616, 1623.515
266.0437, 1621.781
266.5258, 1617.693
267.0079, 1610.716
267.4901, 1601.041
267.9722, 1590.706
268.4543, 1579.520
268.9364, 1567.924
269.4185, 1556.017
269.9006, 1543.541
270.3828, 1532.042
270.8649, 1521.822
271.3470, 1512.677
271.8291, 1503.436
272.3112, 1493.832
272.7933, 1484.447
273.2755, 1475.626
273.7576, 1467.257
274.2397, 1459.934
274.7218, 1454.027
275.2039, 1449.059
275.6860, 1443.473
276.1682, 1436.942
276.6503, 1430.827
277.1324, 1426.017
277.6145, 1422.642
278.0966, 1419.799
278.5787, 1417.625
279.0609, 1415.811
279.5430, 1413.612
280.0251, 1411.036
280.5072, 1408.354
280.9893, 1405.436
281.4715, 1402.329
281.9536, 1400.225
282.4357, 1399.192
282.9178, 1399.125
283.3999, 1399.969
283.8820, 1401.724
284.3642, 1403.934
284.8463, 1406.474
285.3284, 1409.298
285.8105, 1411.818
286.2926, 1413.748
286.7747, 1416.173
287.2569, 1421.194
287.7390, 1428.677
288.2211, 1435.545
288.7032, 1439.842
289.1853, 1442.387
289.6674, 1447.067
290.1496, 1454.091
290.6317, 1462.070
291.1138, 1469.675
291.5959, 1476.982
292.0780, 1484.218
292.5602, 1492.116
293.0423, 1499.855
293.5244, 1505.664
294.0065, 1509.545
294.4886, 1510.975
294.9707, 1508.600
295.4529, 1503.178
295.9350, 1497.707
296.4171, 1493.831
296.8992, 1489.435
297.3813, 1480.627
297.8634, 1467.653
298.3456, 1452.539
298.8277, 1435.116
299.3098, 1416.885
299.7919, 1401.377
300.2740, 1389.848
300.7561, 1380.597
301.2383, 1372.132
301.7204, 1364.347
302.2025, 1357.343
302.6846, 1351.660
303.1667, 1346.602
303.6488, 1340.707
304.1310, 1333.379
304.6131, 1326.552
305.0952, 1322.739
305.5773, 1321.117
306.0594, 1319.477
306.5415, 1316.095
307.0237, 1312.354
307.5058, 1309.739
307.9879, 1308.492
308.4700, 1307.736
308.9521, 1306.960
309.4343, 1306.190
309.9164, 1305.455
310.3985, 1304.894
310.8806, 1304.269
311.3627, 1303.350
311.8448, 1302.116
312.3270, 1300.866
312.8091, 1299.798
313.2912, 1298.813
313.7733, 1297.795
314.2554, 1296.015
314.7375, 1294.792
315.2197, 1295.236
315.7018, 1297.140
316.1839, 1298.719
316.6660, 1299.391
317.1481, 1299.289
317.6302, 1298.463
318.1124, 1295.920
318.5945, 1293.910
319.0766, 1293.625
319.5587, 1294.577
320.0408, 1295.066
320.5229, 1294.610
321.0051, 1293.504
321.4872, 1291.782
321.9693, 1288.849
322.4514, 1286.473
322.9335, 1284.916
323.4156, 1284.160
323.8978, 1284.169
324.3799, 1286.563
324.8620, 1288.314
325.3441, 1287.824
325.8262, 1283.599
326.3083, 1281.534
326.7905, 1284.601
327.2726, 1289.254
327.7547, 1291.094
328.2368, 1286.701
328.7189, 1282.912
329.2010, 1280.995
329.6832, 1281.078
330.1653, 1281.803
330.6474, 1284.055
331.1295, 1286.315
331.6116, 1287.357
332.0938, 1286.625
332.5759, 1285.539
333.0580, 1284.223
333.5401, 1282.668
334.0222, 1280.737
334.5043, 1277.386
334.9865, 1275.057
335.4686, 1275.708
335.9507, 1281.382
336.4328, 1284.319
336.9149, 1283.242
337.3970, 1279.606
337.8792, 1277.339
338.3613, 1276.753
338.8434, 1276.557
339.3255, 1276.082
339.8076, 1275.201
340.2898, 1275.264
340.7719, 1276.669
341.2540, 1278.379
341.7361, 1278.795
342.2182, 1277.810
342.7003, 1276.566
343.1825, 1275.230
343.6646, 1273.911
344.1467, 1273.629
344.6288, 1274.568
345.1109, 1275.578
345.5930, 1275.028
346.0752, 1273.152
346.5573, 1272.442
347.0394, 1273.988
347.5215, 1276.610
348.0036, 1277.577
348.4857, 1276.910
348.9679, 1276.017
349.4500, 1276.040
349.9321, 1276.658
350.4142, 1276.845
350.8963, 1276.266
351.3784, 1275.676
351.8606, 1276.287
352.3427, 1277.807
352.8248, 1279.172
353.3069, 1279.727
353.7890, 1279.782
354.2711, 1279.695
354.7533, 1279.481
355.2354, 1279.301
355.7175, 1279.142
356.1996, 1279.132
356.6817, 1279.489
357.1638, 1280.979
357.6460, 1282.373
358.1281, 1282.661
358.6102, 1281.892
359.0923, 1280.840
359.5744, 1279.787
360.0565, 1278.738
360.5387, 1277.681
361.0208, 1276.415
361.5029, 1275.392
361.9850, 1275.019
362.4671, 1275.094
362.9492, 1275.001
363.4314, 1273.854
363.9135, 1272.975
364.3956, 1273.167
364.8777, 1274.910
365.3598, 1276.854
365.8419, 1279.297
366.3241, 1281.652
366.8062, 1283.008
367.2883, 1282.557
367.7704, 1281.750
368.2526, 1280.766
368.7347, 1279.470
369.2168, 1278.833
369.6989, 1279.264
370.1810, 1280.097
370.6631, 1280.809
371.1453, 1281.494
371.6274, 1281.939
372.1095, 1282.324
372.5916, 1282.520
373.0737, 1281.489
373.5558, 1278.157
374.0380, 1275.171
374.5201, 1274.230
375.0022, 1276.275
375.4843, 1277.122
375.9664, 1276.065
376.4485, 1274.250
376.9307, 1274.306
377.4128, 1276.858
377.8949, 1278.591
378.3770, 1277.597
378.8591, 1274.088
379.3412, 1272.643
379.8234, 1273.751
380.3055, 1275.243
380.7876, 1274.137
381.2697, 1270.631
381.7518, 1268.437
382.2339, 1269.057
382.7161, 1271.210
383.1982, 1271.815
383.6803, 1270.917
384.1624, 1269.901
384.6445, 1270.174
385.1266, 1271.111
385.6088, 1270.888
386.0909, 1268.857
386.5730, 1266.814
387.0551, 1267.354
387.5372, 1269.688
388.0193, 1271.567
388.5015, 1271.408
388.9836, 1270.390
389.4657, 1269.488
389.9478, 1268.731
390.4299, 1268.725
390.9120, 1270.639
391.3942, 1273.302
391.8763, 1275.251
392.3584, 1275.908
392.8405, 1275.796
393.3226, 1274.601
393.8047, 1272.654
394.2869, 1271.453
394.7690, 1271.859
395.2511, 1273.012
395.7332, 1274.596
396.2154, 1277.383
396.6975, 1278.876
397.1796, 1277.250
397.6617, 1274.216
398.1438, 1272.715
398.6259, 1274.508
399.1081, 1276.509
399.5902, 1277.836
400.0723, 1278.341
400.5544, 1279.082
401.0365, 1280.241
401.5186, 1281.473
402.0008, 1282.500
402.4829, 1283.389
402.9650, 1283.859
403.4471, 1283.472
403.9292, 1282.634
404.4113, 1283.288
404.8935, 1286.155
405.3756, 1288.860
405.8577, 1289.957
406.3398, 1289.138
406.8219, 1289.028
407.3040, 1289.759
407.7862, 1291.050
408.2683, 1292.760
408.7504, 1294.934
409.2325, 1296.601
409.7146, 1297.185
410.1967, 1297.096
410.6789, 1298.076
411.1610, 1300.204
411.6431, 1301.773
412.1252, 1300.998
412.6073, 1298.474
413.0894, 1295.747
413.5716, 1292.992
414.0537, 1290.532
414.5358, 1289.219
415.0179, 1288.658
415.5000, 1287.531
415.9821, 1283.824
416.4643, 1279.865
416.9464, 1278.336
417.4285, 1279.547
417.9106, 1281.265
418.3927, 1282.635
418.8748, 1283.471
419.3570, 1283.532
419.8391, 1281.292
420.3212, 1279.662
420.8033, 1280.317
421.2854, 1282.805
421.7675, 1284.959
422.2497, 1285.694
422.7318, 1286.272
423.2139, 1287.486
423.6960, 1290.147
424.1781, 1291.912
424.6602, 1291.749
425.1424, 1290.774
425.6245, 1290.594
426.1066, 1291.324
426.5887, 1292.748
427.0709, 1295.233
427.5530, 1298.772
428.0351, 1300.870
428.5172, 1300.557
428.9993, 1300.135
429.4814, 1301.402
429.9636, 1304.872
430.4457, 1308.053
430.9278, 1310.848
431.4099, 1313.131
431.8920, 1314.461
432.3741, 1314.737
432.8563, 1314.898
433.3384, 1315.067
433.8205, 1315.386
434.3026, 1317.182
434.7847, 1320.654
435.2668, 1324.061
435.7490, 1325.106
436.2311, 1324.497
436.7132, 1324.700
437.1953, 1326.407
437.6774, 1329.166
438.1595, 1333.118
438.6417, 1337.864
439.1238, 1341.744
439.6059, 1342.654
440.0880, 1342.764
440.5701, 1344.363
441.0522, 1347.802
441.5344, 1352.149
442.0165, 1357.385
442.4986, 1363.008
442.9807, 1368.374
443.4628, 1371.258
443.9449, 1375.810
444.4271, 1384.165
444.9092, 1395.831
445.3913, 1408.043
445.8734, 1419.499
446.3555, 1431.518
446.8376, 1444.658
447.3198, 1458.836
447.8019, 1474.452
448.2840, 1491.428
448.7661, 1509.706
449.2482, 1529.229
449.7303, 1550.082
450.2125, 1571.722
450.6946, 1593.994
451.1767, 1617.068
451.6588, 1641.633
452.1409, 1667.715
452.6230, 1695.676
453.1052, 1725.490
453.5873, 1757.432
454.0694, 1790.614
454.5515, 1824.184
455.0337, 1860.420
455.5158, 1902.291
455.9979, 1950.034
456.4800, 2001.723
456.9621, 2057.379
457.4442, 2116.666
457.9264, 2178.805
458.4085, 2243.578
458.8906, 2313.312
459.3727, 2390.777
459.8548, 2473.748
460.3369, 2557.128
460.8191, 2640.782
461.3012, 2724.783
461.7833, 2814.278
462.2654, 2904.295
462.7475, 2984.141
463.2296, 3055.295
463.7118, 3111.026
464.1939, 3149.452
464.6760, 3170.854
465.1581, 3169.408
465.6402, 3140.703
466.1223, 3090.066
466.6045, 3021.347
467.0866, 2925.001
467.5687, 2823.224
468.0508, 2711.511
468.5329, 2595.170
469.0150, 2484.161
469.4972, 2379.600
469.9793, 2280.653
470.4614, 2187.370
470.9435, 2099.597
471.4256, 2021.529
471.9077, 1954.569
472.3899, 1894.577
472.8720, 1837.766
473.3541, 1783.148
473.8362, 1736.122
474.3183, 1697.960
474.8004, 1666.133
475.2826, 1636.053
475.7647, 1607.776
476.2468, 1582.189
476.7289, 1560.476
477.2110, 1541.531
477.6931, 1523.267
478.1753, 1505.571
478.6574, 1489.077
479.1395, 1474.328
479.6216, 1461.103
480.1037, 1449.310
480.5858, 1439.739
481.0680, 1429.991
481.5501, 1417.281
482.0322, 1403.214
482.5143, 1391.246
482.9964, 1383.926
483.4786, 1378.005
483.9607, 1372.089
484.4428, 1366.121
484.9249, 1360.421
485.4070, 1354.860
485.8892, 1349.782
486.3713, 1345.456
486.8534, 1342.152
487.3355, 1339.286
487.8176, 1337.427
488.2997, 1335.803
488.7819, 1332.389
489.2640, 1325.833
489.7461, 1320.523
490.2282, 1318.222
490.7103, 1318.697
491.1924, 1318.359
491.6746, 1316.994
492.1567, 1315.638
492.6388, 1315.858
493.1209, 1317.280
493.6030, 1316.218
494.0851, 1311.433
494.5673, 1306.045
495.0494, 1305.059
495.5315, 1307.478
496.0136, 1309.737
496.4957, 1309.963
496.9778, 1309.302
497.4600, 1309.240
497.9421, 1309.665
498.4242, 1309.406
498.9063, 1307.774
499.3884, 1305.160
499.8705, 1301.782
500.3527, 1297.484
500.8348, 1292.987
501.3169, 1287.971
501.7990, 1283.148
502.2811, 1279.494
502.7632, 1279.580
503.2454, 1278.351
503.7275, 1273.710
504.2096, 1266.141
504.6917, 1260.718
505.1738, 1258.296
505.6559, 1256.957
506.1381, 1255.929
506.6202, 1255.434
507.1023, 1254.337
507.5844, 1252.428
508.0665, 1250.329
508.5486, 1248.910
509.0308, 1248.176
509.5129, 1247.552
509.9950, 1246.660
510.4771, 1245.967
510.9592, 1247.111
511.4413, 1249.816
511.9235, 1251.692
512.4056, 1250.567
512.8877, 1247.873
513.3698, 1245.493
513.8519, 1243.529
514.3340, 1242.325
514.8162, 1242.873
515.2983, 1244.056
515.7804, 1244.526
516.2625, 1243.440
516.7446, 1242.163
517.2267, 1241.018
517.7089, 1240.112
518.1910, 1239.694
518.6731, 1241.486
519.1552, 1242.247
519.6373, 1240.297
520.1194, 1235.281
520.6016, 1231.417
521.0837, 1228.666
521.5658, 1227.131
522.0479, 1227.193
522.5300, 1229.503
523.0121, 1230.922
523.4943, 1230.998
523.9764, 1230.405
524.4585, 1230.569
524.9406, 1231.521
525.4227, 1231.661
525.9048, 1229.866
526.3870, 1227.143
526.8691, 1226.326
527.3513, 1227.280
527.8334, 1228.010
528.3155, 1226.486
528.7976, 1224.064
529.2797, 1222.743
529.7618, 1222.853
530.2440, 1223.486
530.7261, 1224.901
531.2082, 1226.166
531.6903, 1226.068
532.1724, 1222.468
532.6545, 1219.284
533.1367, 1217.962
533.6188, 1218.090
534.1009, 1218.117
534.5830, 1217.543
535.0651, 1217.123
535.5472, 1217.310
536.0294, 1218.329
536.5115, 1218.348
536.9936, 1217.138
537.4757, 1215.260
537.9578, 1212.924
538.4399, 1209.892
538.9221, 1207.808
539.4042, 1206.868
539.8863, 1206.850
540.3684, 1207.935
540.8505, 1209.958
541.3326, 1210.903
541.8148, 1209.431
542.2969, 1206.696
542.7790, 1204.583
543.2611, 1203.061
543.7432, 1201.804
544.2253, 1200.530
544.7075, 1199.442
545.1896, 1198.833
545.6717, 1198.830
546.1538, 1198.819
546.6359, 1197.976
547.1180, 1197.188
547.6002, 1197.407
548.0823, 1200.712
548.5644, 1202.901
549.0465, 1202.514
549.5286, 1200.435
550.0107, 1199.237
550.4929, 1199.318
550.9750, 1199.709
551.4571, 1200.483
551.9392, 1201.643
552.4213, 1200.431
552.9034, 1196.002
553.3856, 1191.805
553.8677, 1191.355
554.3498, 1194.238
554.8319, 1195.214
555.3140, 1193.462
555.7961, 1190.841
556.2783, 1189.676
556.7604, 1189.618
557.2425, 1189.716
557.7246, 1189.736
558.2067, 1189.663
558.6888, 1189.519
559.1710, 1189.292
559.6531, 1188.914
560.1352, 1188.670
560.6173, 1188.033
561.0994, 1186.443
561.5815, 1183.686
562.0637, 1181.504
562.5458, 1180.135
563.0279, 1179.542
563.5100, 1179.716
563.9921, 1181.518
564.4742, 1182.552
564.9564, 1182.713
565.4385, 1182.099
565.9206, 1180.632
566.4027, 1178.064
566.8848, 1175.878
567.3669, 1174.512
567.8491, 1173.823
568.3312, 1173.323
568.8133, 1173.027
569.2954, 1173.396
569.7775, 1175.251
570.2596, 1177.838
570.7418, 1180.140
571.2239, 1182.156
571.7060, 1182.711
572.1881, 1179.524
572.6702, 1175.026
573.1523, 1171.957
573.6345, 1171.812
574.1166, 1171.751
574.5987, 1170.454
575.0808, 1168.625
575.5629, 1167.403
576.0450, 1168.508
576.5272, 1168.464
577.0093, 1165.527
577.4914, 1160.505
577.9735, 1159.084
578.4556, 1163.010
578.9377, 1166.983
579.4199, 1168.285
579.9020, 1166.856
580.3841, 1165.794
580.8662, 1165.164
581.3483, 1164.641
581.8304, 1163.677
582.3126, 1162.531
582.7947, 1162.322
583.2768, 1163.620
583.7589, 1164.788
584.2410, 1163.337
584.7231, 1160.522
585.2053, 1158.829
585.6874, 1159.392
586.1696, 1161.238
586.6517, 1165.536
587.1338, 1171.177
587.6159, 1173.407
588.0980, 1166.755
588.5801, 1160.156
589.0623, 1157.978
589.5444, 1161.172
590.0265, 1162.426
590.5086, 1161.000
590.9907, 1158.597
591.4728, 1156.333
591.9550, 1154.171
592.4371, 1152.693
592.9192, 1152.032
593.4013, 1151.963
593.8834, 1152.380
594.3655, 1153.211
594.8477, 1153.917
595.3298, 1154.483
595.8119, 1154.664
596.2940, 1153.723
596.7761, 1152.023
597.2582, 1150.757
597.7404, 1150.740
598.2225, 1151.214
598.7046, 1151.745
599.1867, 1152.281
599.6688, 1152.709
600.1509, 1153.193
600.6331, 1153.381
601.1152, 1153.006
601.5973, 1151.836
602.0794, 1150.582
602.5615, 1148.948
603.0436, 1147.521
603.5258, 1147.176
604.0079, 1148.208
604.4900, 1148.735
604.9721, 1148.329
605.4542, 1147.494
605.9363, 1147.233
606.4185, 1147.510
606.9006, 1147.877
607.3827, 1148.447
607.8648, 1148.806
608.3469, 1148.094
608.8290, 1146.484
609.3112, 1144.973
609.7933, 1144.401
610.2754, 1143.954
610.7575, 1142.653
611.2396, 1140.156
611.7217, 1138.856
612.2039, 1141.147
612.6860, 1143.785
613.1681, 1144.216
613.6502, 1140.407
614.1323, 1137.826
614.6144, 1136.973
615.0966, 1136.976
615.5787, 1136.586
616.0608, 1135.742
616.5429, 1134.846
617.0250, 1133.822
617.5071, 1133.016
617.9893, 1133.888
618.4714, 1136.125
618.9535, 1137.191
619.4356, 1134.281
619.9177, 1130.299
620.3998, 1129.365
620.8820, 1131.201
621.3641, 1132.813
621.8462, 1132.458
622.3283, 1131.297
622.8104, 1130.019
623.2925, 1128.539
623.7747, 1127.585
624.2568, 1127.686
624.7389, 1128.093
625.2210, 1128.267
625.7031, 1128.430
626.1852, 1127.686
626.6674, 1125.457
627.1495, 1122.910
627.6316, 1122.228
628.1137, 1123.497
628.5958, 1124.587
629.0779, 1124.949
629.5601, 1124.722
630.0422, 1124.062
630.5243, 1123.030
631.0064, 1121.834
631.4885, 1119.886
631.9706, 1118.330
632.4528, 1118.773
632.9349, 1121.035
633.4170, 1122.684
633.8991, 1122.314
634.3812, 1121.270
634.8633, 1120.176
635.3455, 1118.798
635.8276, 1118.462
636.3097, 1119.945
636.7918, 1121.768
637.2739, 1122.722
637.7560, 1122.674
638.2382, 1122.109
638.7203, 1120.898
639.2024, 1119.450
639.6845, 1118.185
640.1666, 1117.133
640.6487, 1116.769
641.1309, 1117.595
641.6130, 1118.618
642.0951, 1118.232
642.5772, 1116.868
643.0594, 1115.783
643.5415, 1115.571
644.0236, 1115.827
644.5057, 1116.974
644.9879, 1118.760
645.4700, 1118.962
645.9521, 1115.400
646.4342, 1111.692
646.9163, 1109.391
647.3984, 1108.664
647.8806, 1108.360
648.3627, 1108.662
648.8448, 1109.115
649.3269, 1109.598
649.8090, 1110.121
650.2911, 1109.489
650.7733, 1107.422
651.2554, 1105.072
651.7375, 1103.418
652.2196, 1102.542
652.7017, 1102.775
653.1838, 1104.806
653.6660, 1106.749
654.1481, 1106.879
654.6302, 1105.926
655.1123, 1105.188
655.5944, 1105.055
656.0765, 1105.199
656.5587, 1105.725
657.0408, 1106.472
657.5229, 1106.695
658.0050, 1105.658
658.4871, 1105.327
658.9692, 1106.598
659.4514, 1109.292
659.9335, 1111.843
660.4156, 1114.410
660.8977, 1115.512
661.3798, 1112.916
661.8619, 1108.138
662.3441, 1105.385
662.8262, 1104.948
663.3083, 1104.884
663.7904, 1103.541
664.2725, 1101.799
664.7546, 1100.702
665.2368, 1100.755
665.7189, 1100.691
666.2010, 1099.670
666.6831, 1098.516
