##NAMES=Sodalite
##RRUFFID=R060405
##IDEAL CHEMISTRY=Na_4_Si_3_Al_3_O_12_Cl
##LOCALITY=Cerro Sapo, Cochabamba Department, Bolivia
##OWNER=RRUFF
##SOURCE=Marcus Origlieri
##DESCRIPTION=Blue massive associated with brown burbankite R050646
##STATUS=The identification of this mineral has been confirmed by X-ray diffraction and chemical analysis
##URL=rruff.info/R060405
##MEASURED CHEMISTRY=Na_8.00_Al_6.00_Si_6.00_O_24_Cl_2_
137.3708, 47.32581
137.8529, 47.61905
138.3350, 47.91942
138.8171, 48.13115
139.2992, 48.11610
139.7813, 47.97982
140.2635, 47.94531
140.7456, 48.20748
141.2277, 48.80370
141.7098, 49.41988
142.1919, 49.88131
142.6740, 50.49339
143.1561, 51.50489
143.6383, 52.89625
144.1204, 54.37920
144.6025, 55.67147
145.0846, 56.73683
145.5667, 57.76278
146.0488, 58.88724
146.5310, 59.91249
147.0131, 60.59637
147.4952, 60.87161
147.9773, 60.93790
148.4594, 61.02748
148.9415, 61.13073
149.4237, 61.07138
149.9058, 60.52198
150.3879, 59.73822
150.8700, 59.46405
151.3521, 59.97112
151.8342, 60.85222
152.3164, 61.73235
152.7985, 62.61604
153.2806, 63.57406
153.7627, 64.62914
154.2448, 65.78158
154.7269, 67.09621
155.2091, 68.55663
155.6912, 70.22391
156.1733, 72.14162
156.6554, 74.31728
157.1375, 76.70109
157.6196, 79.22889
158.1018, 81.86752
158.5839, 84.77309
159.0660, 87.62167
159.5481, 90.91224
160.0302, 95.04115
160.5123, 100.0757
160.9945, 105.7188
161.4766, 111.4048
161.9587, 117.0966
162.4408, 123.0004
162.9229, 129.8730
163.4050, 136.5776
163.8871, 142.2680
164.3693, 146.6337
164.8514, 149.5019
165.3335, 150.3203
165.8156, 148.5064
166.2977, 145.4590
166.7798, 140.8780
167.2620, 135.2026
167.7441, 128.9727
168.2262, 122.3235
168.7083, 115.4855
169.1904, 109.1559
169.6725, 103.1912
170.1547, 97.78967
170.6368, 93.16381
171.1189, 89.21429
171.6010, 85.58567
172.0831, 82.05030
172.5652, 78.87557
173.0474, 76.38989
173.5295, 74.81948
174.0116, 73.50887
174.4937, 71.89382
174.9758, 69.97209
175.4579, 68.37718
175.9401, 67.78212
176.4222, 67.46671
176.9043, 66.61501
177.3864, 64.95357
177.8685, 63.02033
178.3506, 61.48586
178.8328, 60.43631
179.3149, 59.47917
179.7970, 58.67186
180.2791, 57.80365
180.7612, 56.66393
181.2433, 55.15170
181.7255, 53.40273
182.2076, 51.65152
182.6897, 49.71771
183.1718, 48.15417
183.6539, 47.13251
184.1360, 46.43491
184.6181, 45.88409
185.1003, 45.40160
185.5824, 44.95820
186.0645, 44.46472
186.5466, 44.06345
187.0287, 43.40372
187.5108, 42.07777
187.9930, 40.57232
188.4751, 39.51160
188.9572, 39.26072
189.4393, 39.68975
189.9214, 40.09777
190.4035, 40.78606
190.8857, 41.12018
191.3678, 40.70997
191.8499, 39.88128
192.3320, 39.17279
192.8141, 38.90268
193.2962, 39.03180
193.7784, 39.28322
194.2605, 39.90430
194.7426, 40.36092
195.2247, 40.47721
195.7068, 40.28267
196.1889, 39.82152
196.6711, 39.00725
197.1532, 37.99630
197.6353, 37.52143
198.1174, 38.04276
198.5995, 38.61723
199.0816, 38.70464
199.5638, 38.36003
200.0459, 37.94658
200.5280, 37.59742
201.0101, 37.36892
201.4922, 37.36158
201.9743, 37.72766
202.4565, 38.16657
202.9386, 38.39830
203.4207, 38.41676
203.9028, 38.46880
204.3849, 38.70062
204.8670, 39.04805
205.3492, 39.45464
205.8313, 40.03162
206.3134, 40.50682
206.7955, 40.43159
207.2776, 39.66628
207.7597, 39.00143
208.2419, 38.85543
208.7240, 38.97351
209.2061, 39.15861
209.6882, 39.36669
210.1703, 39.57634
210.6524, 39.71964
211.1346, 39.71551
211.6167, 39.86051
212.0988, 40.44697
212.5809, 41.12599
213.0630, 41.52745
213.5451, 41.47381
214.0273, 41.18403
214.5094, 41.18532
214.9915, 41.75887
215.4736, 42.10825
215.9557, 41.80726
216.4378, 41.36097
216.9200, 41.30659
217.4021, 41.89148
217.8842, 42.88443
218.3663, 43.63625
218.8484, 43.98747
219.3305, 44.30100
219.8127, 44.65033
220.2948, 44.97845
220.7769, 45.15424
221.2590, 45.11738
221.7411, 45.03150
222.2232, 45.38971
222.7054, 46.87954
223.1875, 48.00426
223.6696, 48.40665
224.1517, 48.49799
224.6338, 48.73195
225.1159, 49.31113
225.5980, 50.15371
226.0802, 51.02949
226.5623, 51.95977
227.0444, 52.89652
227.5265, 53.84829
228.0086, 54.80153
228.4907, 55.64844
228.9729, 56.32496
229.4550, 57.03313
229.9371, 58.34332
230.4192, 60.90182
230.9013, 63.02216
231.3834, 64.16327
231.8656, 64.76844
232.3477, 65.55138
232.8298, 66.82609
233.3119, 68.22652
233.7940, 68.89253
234.2761, 68.66344
234.7583, 68.31277
235.2404, 67.71166
235.7225, 67.15947
236.2046, 67.28757
236.6867, 68.43839
237.1688, 70.00972
237.6510, 70.92454
238.1331, 71.11770
238.6152, 71.30950
239.0973, 71.67297
239.5794, 72.20822
240.0615, 72.91094
240.5437, 73.78354
241.0258, 74.83414
241.5079, 76.15320
241.9900, 77.74269
242.4721, 79.23703
242.9542, 80.24088
243.4364, 81.02563
243.9185, 82.32841
244.4006, 84.41064
244.8827, 86.83498
245.3648, 89.19559
245.8469, 91.49746
246.3290, 93.75608
246.8112, 95.99467
247.2933, 98.18862
247.7754, 100.2724
248.2575, 102.1014
248.7396, 104.0505
249.2217, 106.3072
249.7039, 108.8677
250.1860, 111.7633
250.6681, 115.3779
251.1502, 119.3988
251.6323, 122.6091
252.1144, 124.3990
252.5966, 126.2576
253.0787, 128.9576
253.5608, 132.3537
254.0429, 136.1972
254.5250, 140.5378
255.0071, 145.2079
255.4893, 149.5801
255.9714, 153.4612
256.4535, 157.3181
256.9356, 161.3699
257.4177, 165.5358
257.8998, 169.7298
258.3820, 173.9306
258.8641, 178.0921
259.3462, 182.0854
259.8283, 186.0671
260.3104, 189.5601
260.7925, 192.6528
261.2747, 195.2294
261.7568, 197.1662
262.2389, 198.4465
262.7210, 198.9976
263.2031, 198.5912
263.6852, 196.9976
264.1674, 194.7101
264.6495, 191.9057
265.1316, 188.5922
265.6137, 184.7474
266.0958, 180.3576
266.5779, 175.5335
267.0601, 170.5077
267.5422, 165.1384
268.0243, 159.8483
268.5064, 154.4861
268.9885, 149.3192
269.4706, 144.7205
269.9528, 140.7999
270.4349, 137.1932
270.9170, 133.1264
271.3991, 128.0631
271.8812, 123.6793
272.3633, 120.2717
272.8455, 117.3456
273.3276, 114.5445
273.8097, 111.7728
274.2918, 109.1879
274.7739, 107.0758
275.2560, 105.7413
275.7382, 104.2405
276.2202, 102.3738
276.7024, 100.5203
277.1845, 98.92449
277.6666, 97.60760
278.1487, 96.41445
278.6308, 95.12710
279.1129, 93.61732
279.5951, 92.49001
280.0772, 91.98313
280.5593, 91.57532
281.0414, 90.81716
281.5235, 89.82488
282.0056, 89.17843
282.4878, 89.52425
282.9699, 91.09164
283.4520, 91.99013
283.9341, 91.46806
284.4162, 91.10863
284.8983, 91.50917
285.3805, 92.61961
285.8626, 94.14256
286.3447, 95.87541
286.8268, 97.81010
287.3089, 99.87370
287.7910, 101.9969
288.2732, 104.3023
288.7553, 106.5675
289.2374, 109.0506
289.7195, 112.3402
290.2016, 116.8824
290.6837, 122.3186
291.1659, 126.7434
291.6480, 129.6646
292.1301, 132.1282
292.6122, 134.7579
293.0943, 136.9088
293.5764, 137.5984
294.0586, 136.3609
294.5407, 133.6289
295.0228, 130.5581
295.5049, 127.5407
295.9870, 123.6336
296.4691, 118.5016
296.9513, 112.5921
297.4334, 106.1621
297.9155, 99.35568
298.3976, 92.51591
298.8797, 86.22298
299.3618, 80.56363
299.8440, 75.42917
300.3261, 70.86061
300.8082, 66.81046
301.2903, 63.24147
301.7724, 60.15150
302.2545, 57.46392
302.7367, 55.10422
303.2188, 53.17562
303.7009, 51.25499
304.1830, 49.05420
304.6651, 47.07864
305.1472, 45.67140
305.6294, 44.81642
306.1115, 44.29605
306.5936, 43.98107
307.0757, 43.89272
307.5578, 43.49769
308.0399, 42.57268
308.5221, 41.62173
309.0042, 40.97149
309.4863, 40.48866
309.9684, 39.73127
310.4505, 38.33954
310.9326, 36.49424
311.4148, 35.54094
311.8969, 36.25365
312.3790, 36.81084
312.8611, 36.75864
313.3432, 36.27316
313.8253, 35.59840
314.3075, 34.82815
314.7896, 34.05305
315.2717, 33.51298
315.7538, 33.50310
316.2359, 33.29952
316.7180, 32.61686
317.2001, 31.81320
317.6823, 31.31654
318.1644, 31.24292
318.6465, 31.34490
319.1286, 31.24667
319.6107, 30.80646
320.0928, 30.50370
320.5750, 30.34951
321.0571, 30.31777
321.5392, 30.45845
322.0213, 30.74197
322.5034, 31.00679
322.9855, 31.09994
323.4677, 31.01074
323.9498, 30.75909
324.4319, 30.01705
324.9140, 29.43744
325.3961, 29.52881
325.8782, 30.10125
326.3604, 30.51804
326.8425, 30.29970
327.3246, 29.52413
327.8067, 29.07667
328.2888, 29.27260
328.7709, 29.38952
329.2531, 29.21347
329.7352, 28.84360
330.2173, 28.40014
330.6994, 27.92764
331.1815, 27.51709
331.6636, 27.41753
332.1458, 28.04618
332.6279, 28.48028
333.1100, 28.61889
333.5921, 28.58594
334.0742, 28.43534
334.5563, 28.20218
335.0385, 28.01967
335.5206, 28.11095
336.0027, 28.70455
336.4848, 28.96768
336.9669, 28.68418
337.4490, 28.28081
337.9312, 28.00099
338.4133, 27.87274
338.8954, 27.81574
339.3775, 27.74668
339.8596, 27.65117
340.3417, 27.72993
340.8239, 28.27478
341.3060, 28.66938
341.7881, 28.57663
342.2702, 28.17017
342.7523, 27.83023
343.2344, 27.80028
343.7166, 28.00191
344.1987, 28.05397
344.6808, 27.73525
345.1629, 27.51296
345.6450, 27.48595
346.1271, 27.55413
346.6093, 27.65192
347.0914, 27.74556
347.5735, 27.75505
348.0556, 27.48112
348.5377, 26.48310
349.0198, 26.02514
349.5020, 26.49794
349.9841, 27.14058
350.4662, 27.46222
350.9483, 27.39948
351.4304, 27.16045
351.9125, 26.94263
352.3947, 26.73086
352.8768, 26.64669
353.3589, 26.80131
353.8410, 26.97149
354.3231, 27.06313
354.8052, 27.10948
355.2874, 27.23664
355.7695, 27.57544
356.2516, 28.01787
356.7337, 27.91245
357.2158, 26.56331
357.6979, 25.61079
358.1800, 25.48278
358.6621, 25.81614
359.1443, 26.22371
359.6264, 26.55772
360.1085, 26.90412
360.5906, 27.51338
361.0727, 28.70052
361.5548, 29.30395
362.0370, 28.63939
362.5191, 27.82627
363.0012, 27.59904
363.4833, 27.98838
363.9654, 28.49208
364.4475, 28.53394
364.9297, 28.06641
365.4118, 27.94754
365.8939, 28.48300
366.3760, 29.05275
366.8581, 29.44203
367.3402, 29.67594
367.8224, 29.81931
368.3045, 29.87220
368.7866, 29.88970
369.2687, 30.06621
369.7508, 30.51646
370.2329, 30.86785
370.7151, 31.02807
371.1972, 31.02310
371.6793, 30.84015
372.1614, 30.46297
372.6435, 30.00607
373.1256, 29.58349
373.6078, 29.19254
374.0899, 28.89244
374.5720, 28.81731
375.0541, 28.72713
375.5362, 28.36265
376.0183, 27.75947
376.5005, 27.28620
376.9826, 27.29254
377.4647, 27.63760
377.9468, 27.79467
378.4289, 27.68968
378.9110, 27.48881
379.3932, 27.21965
379.8753, 26.94190
380.3574, 26.78747
380.8395, 26.86597
381.3216, 27.02230
381.8037, 27.05511
382.2859, 26.96161
382.7680, 26.88664
383.2501, 26.88804
383.7322, 26.95165
384.2143, 27.07380
384.6964, 27.29861
385.1786, 27.42333
385.6607, 27.27076
386.1428, 26.92749
386.6249, 26.56249
387.1070, 26.14582
387.5891, 25.91552
388.0713, 26.30827
388.5534, 27.25822
389.0355, 28.05944
389.5176, 28.57846
389.9997, 28.87907
390.4818, 28.94205
390.9640, 28.78868
391.4461, 28.65486
391.9282, 28.69115
392.4103, 28.88624
392.8924, 29.13426
393.3745, 29.44473
393.8567, 29.79214
394.3388, 30.24053
394.8209, 30.71039
395.3030, 31.03049
395.7851, 31.13305
396.2672, 31.10011
396.7494, 31.05735
397.2315, 30.92679
397.7136, 30.99055
398.1957, 31.39134
398.6778, 31.90421
399.1599, 32.42456
399.6420, 32.89968
400.1241, 33.17348
400.6063, 33.04052
401.0884, 32.47281
401.5705, 32.47836
402.0526, 33.48651
402.5347, 34.50446
403.0168, 35.23394
403.4990, 35.77345
403.9811, 36.27969
404.4632, 36.82355
404.9453, 37.43328
405.4274, 38.18059
405.9095, 39.12012
406.3917, 40.11085
406.8738, 41.25866
407.3559, 42.36720
407.8380, 43.27663
408.3201, 43.98470
408.8022, 44.64444
409.2844, 45.49853
409.7665, 46.59166
410.2486, 47.07364
410.7307, 46.70864
411.2128, 45.92110
411.6949, 44.42893
412.1771, 42.68391
412.6592, 41.40414
413.1413, 40.98957
413.6234, 41.07251
414.1055, 40.83349
414.5876, 40.10549
415.0698, 39.56291
415.5519, 39.45434
416.0340, 39.53060
416.5161, 39.66509
416.9982, 39.83474
417.4803, 40.02415
417.9625, 40.27735
418.4446, 40.56425
418.9267, 40.64008
419.4088, 40.33100
419.8909, 40.09692
420.3730, 40.32710
420.8552, 40.83495
421.3373, 41.22353
421.8194, 41.15200
422.3015, 41.11819
422.7836, 41.85514
423.2657, 43.35073
423.7479, 44.74553
424.2300, 45.70934
424.7121, 46.36973
425.1942, 46.94355
425.6763, 47.41113
426.1584, 47.88922
426.6406, 48.28223
427.1227, 48.76062
427.6048, 49.70594
428.0869, 51.21811
428.5690, 52.77909
429.0511, 53.82176
429.5333, 54.36769
430.0154, 55.42345
430.4975, 57.50261
430.9796, 59.61467
431.4617, 61.27482
431.9438, 62.51882
432.4260, 63.41882
432.9081, 63.95143
433.3902, 64.35691
433.8723, 65.20649
434.3544, 66.70505
434.8365, 68.33807
435.3187, 69.96558
435.8008, 71.80391
436.2829, 74.19254
436.7650, 77.06174
437.2471, 79.84821
437.7292, 81.93830
438.2114, 83.30274
438.6935, 85.46953
439.1756, 88.71310
439.6577, 92.48660
440.1398, 96.61854
440.6219, 101.2253
441.1040, 106.4785
441.5862, 112.4282
442.0683, 118.9554
442.5504, 125.7281
443.0325, 132.5914
443.5146, 140.2575
443.9967, 149.1386
444.4789, 158.5359
444.9610, 168.1634
445.4431, 177.9455
445.9252, 187.9963
446.4073, 198.4611
446.8894, 209.1598
447.3716, 219.4160
447.8537, 229.2210
448.3358, 238.5753
448.8179, 246.7930
449.3000, 254.9041
449.7821, 264.0819
450.2643, 274.6288
450.7464, 285.9693
451.2285, 297.4546
451.7106, 309.2601
452.1927, 321.8831
452.6748, 335.2322
453.1570, 349.6813
453.6391, 365.3469
454.1212, 382.2343
454.6033, 401.4769
455.0854, 423.2950
455.5675, 447.4980
456.0497, 474.1885
456.5318, 503.1966
457.0139, 534.1388
457.4960, 566.7362
457.9781, 601.2963
458.4602, 639.3385
458.9424, 682.5930
459.4245, 725.0496
459.9066, 767.0816
460.3887, 806.8795
460.8708, 843.6031
461.3529, 876.6569
461.8351, 904.3303
462.3172, 925.7704
462.7993, 941.0291
463.2814, 943.5316
463.7635, 931.0823
464.2456, 909.4678
464.7278, 877.3747
465.2099, 837.6337
465.6920, 793.0289
466.1741, 744.5688
466.6562, 694.0050
467.1383, 643.9100
467.6205, 593.2701
468.1026, 544.9677
468.5847, 497.8105
469.0668, 454.2003
469.5489, 415.7287
470.0310, 381.9352
470.5132, 351.8781
470.9953, 325.1744
471.4774, 301.5595
471.9595, 280.6443
472.4416, 262.8536
472.9237, 246.2706
473.4059, 230.3911
473.8880, 215.4876
474.3701, 201.6820
474.8522, 189.0482
475.3343, 178.0160
475.8164, 169.6072
476.2986, 163.0234
476.7807, 156.1151
477.2628, 148.5649
477.7449, 141.3049
478.2270, 135.1285
478.7091, 129.8587
479.1913, 124.6655
479.6734, 118.9372
480.1555, 113.9210
480.6376, 110.6784
481.1197, 108.5758
481.6018, 106.2392
482.0839, 103.2090
482.5660, 100.0022
483.0482, 97.28245
483.5303, 95.09925
484.0124, 93.40489
484.4945, 92.68148
484.9766, 91.96664
485.4587, 90.72401
485.9409, 89.06023
486.4230, 87.34427
486.9051, 85.78084
487.3872, 84.27283
487.8693, 82.51841
488.3514, 80.15573
488.8336, 78.21580
489.3157, 77.16674
489.7978, 76.18880
490.2799, 74.63525
490.7620, 72.57229
491.2441, 70.59877
491.7263, 69.24781
492.2084, 68.38624
492.6905, 67.30034
493.1726, 65.74924
493.6547, 64.56244
494.1368, 64.51119
494.6190, 64.79605
495.1011, 64.55324
495.5832, 63.57412
496.0653, 62.54802
496.5474, 62.20866
497.0295, 62.24749
497.5117, 61.65696
497.9938, 60.18856
498.4759, 58.50843
498.9580, 57.14207
499.4401, 56.01872
499.9222, 54.75406
500.4044, 53.08984
500.8865, 51.51855
501.3686, 50.33826
501.8507, 49.42124
502.3328, 48.45048
502.8149, 47.31579
503.2971, 46.23286
503.7792, 45.54488
504.2613, 45.43729
504.7434, 45.03270
505.2255, 43.94961
505.7076, 42.97918
506.1898, 42.67235
506.6719, 42.74903
507.1540, 42.50457
507.6361, 41.53962
508.1182, 40.36377
508.6003, 40.33024
509.0825, 42.18578
509.5646, 43.17559
510.0467, 42.34008
510.5288, 41.16682
511.0109, 40.34193
511.4930, 39.88482
511.9752, 39.57845
512.4573, 39.35289
512.9394, 39.14626
513.4215, 38.75566
513.9036, 38.12325
514.3857, 37.67499
514.8679, 37.70450
515.3500, 37.90703
515.8321, 37.89210
516.3142, 37.63624
516.7963, 37.30960
517.2784, 36.88372
517.7606, 36.47587
518.2427, 36.35122
518.7248, 36.50631
519.2069, 36.47209
519.6890, 35.85889
520.1711, 34.83002
520.6533, 34.22966
521.1354, 34.30696
521.6175, 34.40124
522.0996, 34.37825
522.5817, 34.33782
523.0638, 34.41190
523.5460, 34.60152
524.0281, 34.77971
524.5102, 34.83481
524.9923, 34.76716
525.4744, 34.54671
525.9565, 33.95036
526.4387, 33.49795
526.9208, 33.29974
527.4029, 33.28407
527.8850, 33.51366
528.3671, 33.96991
528.8492, 34.20785
529.3314, 33.49559
529.8135, 31.98344
530.2956, 31.24429
530.7777, 31.71763
531.2598, 32.23748
531.7419, 31.83123
532.2241, 31.04425
532.7062, 30.83246
533.1883, 31.70492
533.6704, 32.49013
534.1525, 32.20164
534.6346, 31.24761
535.1168, 30.58682
535.5989, 30.44381
536.0810, 30.52207
536.5631, 30.55337
537.0452, 30.53511
537.5273, 30.49154
538.0095, 30.45086
538.4916, 30.35608
538.9737, 30.21324
539.4558, 29.99370
539.9379, 29.56939
540.4200, 28.92579
540.9022, 28.35217
541.3843, 28.33452
541.8664, 29.05147
542.3485, 29.30857
542.8306, 28.58551
543.3127, 27.95130
543.7948, 27.73350
544.2769, 27.82183
544.7590, 28.11358
545.2411, 28.61675
545.7233, 28.99292
546.2054, 28.64641
546.6875, 27.64462
547.1696, 27.05852
547.6517, 27.22257
548.1339, 27.50029
548.6160, 27.26493
549.0981, 26.70469
549.5802, 26.35346
550.0623, 26.52053
550.5444, 26.69938
551.0266, 26.52312
551.5087, 26.11579
551.9908, 25.75675
552.4729, 25.53028
552.9550, 25.36225
553.4371, 25.14823
553.9193, 24.85346
554.4014, 24.73472
554.8835, 24.99858
555.3656, 25.18421
555.8477, 25.06604
556.3298, 24.78315
556.8120, 24.53406
557.2941, 24.39355
557.7762, 24.33830
558.2583, 24.34498
558.7404, 24.41911
559.2225, 24.52390
559.7047, 24.81594
560.1868, 24.91798
560.6689, 24.44002
561.1510, 23.72869
561.6331, 23.42279
562.1152, 23.84657
562.5974, 24.34366
563.0795, 24.18918
563.5616, 23.58575
564.0437, 23.33791
564.5258, 23.67627
565.0079, 24.03953
565.4901, 23.84368
565.9722, 23.12768
566.4543, 22.77279
566.9364, 23.12609
567.4185, 23.44061
567.9006, 23.50751
568.3828, 23.33457
568.8649, 22.76292
569.3470, 21.82745
569.8291, 21.09072
570.3112, 21.31467
570.7933, 22.58859
571.2755, 23.21368
571.7576, 22.62161
572.2397, 22.07189
572.7218, 21.83694
573.2039, 21.81455
573.6860, 21.91985
574.1682, 22.12606
574.6503, 22.32981
575.1324, 22.41345
575.6145, 22.40760
576.0966, 22.46037
576.5787, 22.59994
577.0609, 22.72650
577.5430, 22.82586
578.0251, 22.84860
578.5072, 22.66467
578.9893, 22.10477
579.4714, 21.71462
579.9536, 21.79273
580.4357, 22.10740
580.9178, 22.46367
581.3999, 22.79366
581.8820, 22.93097
582.3641, 22.71380
582.8463, 22.22492
583.3284, 21.94769
583.8105, 22.05422
584.2926, 22.13114
584.7747, 22.08686
585.2568, 22.04857
585.7390, 22.13343
586.2211, 22.32887
586.7032, 22.53345
587.1853, 22.71166
587.6674, 22.82099
588.1495, 22.71585
588.6317, 22.36488
589.1138, 21.96867
589.5959, 21.42465
590.0780, 21.02985
590.5601, 21.19551
591.0422, 21.91029
591.5244, 22.55871
592.0065, 22.99752
592.4886, 23.25519
592.9707, 23.24331
593.4528, 23.05242
593.9349, 23.00179
594.4171, 23.24699
594.8992, 23.58349
595.3813, 23.64687
595.8634, 23.33483
596.3455, 23.04333
596.8276, 22.60097
597.3098, 22.35320
597.7919, 22.56875
598.2740, 23.04605
598.7561, 23.46445
599.2382, 23.69625
599.7203, 23.78974
600.2025, 23.78054
600.6846, 23.67170
601.1667, 23.58720
601.6488, 23.57738
602.1309, 23.51563
602.6130, 23.12346
603.0952, 22.64328
603.5773, 22.63496
604.0594, 23.42969
604.5415, 24.20831
605.0236, 24.56033
605.5057, 24.63023
605.9879, 24.64959
606.4700, 24.64983
606.9521, 24.47577
607.4342, 23.95506
607.9163, 23.16271
608.3984, 22.66269
608.8806, 22.56384
609.3627, 22.63555
609.8448, 23.10999
610.3269, 23.55424
610.8090, 23.53641
611.2911, 23.12072
611.7733, 22.77451
612.2554, 22.87170
612.7375, 23.21140
613.2196, 23.30530
613.7017, 23.12768
614.1838, 22.98689
614.6660, 23.01241
615.1481, 23.06643
615.6302, 22.91786
616.1123, 22.58649
616.5944, 22.47050
617.0765, 22.92726
617.5587, 23.36308
618.0408, 23.23446
618.5229, 22.79575
619.0050, 22.70349
619.4871, 23.17771
619.9692, 23.72943
620.4514, 23.66707
620.9335, 22.88620
621.4156, 22.27880
621.8977, 21.71164
622.3798, 21.50207
622.8619, 22.11378
623.3441, 22.93206
623.8262, 23.22922
624.3083, 22.83839
624.7904, 22.20804
625.2725, 21.59192
625.7546, 21.04142
626.2367, 20.68599
626.7188, 20.52824
627.2009, 20.64474
627.6830, 21.21179
628.1652, 21.97080
628.6473, 22.30867
629.1294, 22.13842
629.6115, 21.92549
630.0936, 21.75509
630.5757, 21.54927
631.0579, 21.16116
631.5400, 20.68997
632.0221, 20.41585
632.5042, 20.48765
632.9863, 20.70564
633.4684, 20.65973
