##NAMES=Sodalite
##RRUFFID=R060435
##IDEAL CHEMISTRY=Na_4_Si_3_Al_3_O_12_Cl
##LOCALITY=Koksha Valley, Badakshan Province, Afghanistan
##OWNER=RRUFF
##SOURCE=Herb Obodda
##DESCRIPTION=Pale purple fragment
##STATUS=The identification of this mineral has been confirmed by X-ray diffraction and chemical analysis
##URL=rruff.info/R060435
##MEASURED CHEMISTRY=(Na_0.99_K_0.01_)_8_Al_6.00_Si_6.00_O_24_Cl_2_
174.9758, 339.3698
175.4579, 340.0672
175.9401, 339.9034
176.4222, 339.2447
176.9043, 338.4010
177.3864, 337.3272
177.8685, 336.3128
178.3506, 335.7912
178.8328, 335.9158
179.3149, 335.9864
179.7970, 335.7744
180.2791, 335.3987
180.7612, 334.9587
181.2433, 334.4958
181.7255, 333.9523
182.2076, 333.1273
182.6897, 331.6309
183.1718, 330.6001
183.6539, 330.3168
184.1360, 330.4977
184.6181, 331.0475
185.1003, 331.9702
185.5824, 332.9283
186.0645, 332.6678
186.5466, 329.4059
187.0287, 327.0703
187.5108, 326.4565
187.9930, 326.9677
188.4751, 327.8832
188.9572, 328.8072
189.4393, 329.7692
189.9214, 330.9331
190.4035, 333.2591
190.8857, 334.7250
191.3678, 334.3062
191.8499, 332.8099
192.3320, 331.6805
192.8141, 331.8448
193.2962, 333.0663
193.7784, 333.4838
194.2605, 332.0109
194.7426, 331.0726
195.2247, 332.0516
195.7068, 334.3397
196.1889, 336.1377
196.6711, 336.2526
197.1532, 335.0002
197.6353, 334.2578
198.1174, 334.1353
198.5995, 334.3482
199.0816, 334.8357
199.5638, 335.5698
200.0459, 336.3794
200.5280, 337.2428
201.0101, 338.0831
201.4922, 338.6732
201.9743, 338.5691
202.4565, 338.6576
202.9386, 340.0955
203.4207, 342.9417
203.9028, 345.1836
204.3849, 345.2901
204.8670, 344.2277
205.3492, 343.3299
205.8313, 342.8258
206.3134, 342.5788
206.7955, 342.3163
207.2776, 341.9167
207.7597, 342.0783
208.2419, 344.1794
208.7240, 346.6151
209.2061, 347.6214
209.6882, 346.3243
210.1703, 344.0023
210.6524, 342.8450
211.1346, 343.1768
211.6167, 343.8996
212.0988, 344.9016
212.5809, 345.9735
213.0630, 346.8717
213.5451, 347.4612
214.0273, 347.9607
214.5094, 348.9492
214.9915, 350.9841
215.4736, 352.4712
215.9557, 352.8426
216.4378, 352.7338
216.9200, 352.7036
217.4021, 352.9905
217.8842, 353.5933
218.3663, 354.5453
218.8484, 356.3253
219.3305, 357.7581
219.8127, 358.5829
220.2948, 359.0802
220.7769, 359.5130
221.2590, 360.0005
221.7411, 360.5438
222.2232, 361.1492
222.7054, 362.0225
223.1875, 362.6997
223.6696, 362.8951
224.1517, 362.9723
224.6338, 363.3286
225.1159, 364.1413
225.5980, 365.3346
226.0802, 366.7031
226.5623, 368.3630
227.0444, 370.0643
227.5265, 372.0198
228.0086, 373.9427
228.4907, 375.3570
228.9729, 376.0423
229.4550, 376.3134
229.9371, 376.9781
230.4192, 378.2569
230.9013, 379.5531
231.3834, 380.8629
231.8656, 382.1154
232.3477, 383.2272
232.8298, 384.1775
233.3119, 384.9279
233.7940, 385.2741
234.2761, 384.8824
234.7583, 384.9580
235.2404, 386.0828
235.7225, 387.8265
236.2046, 389.5385
236.6867, 391.0925
237.1688, 392.3297
237.6510, 392.7769
238.1331, 392.2738
238.6152, 392.0939
239.0973, 392.6337
239.5794, 393.7988
240.0615, 395.4832
240.5437, 397.8272
241.0258, 400.3580
241.5079, 402.4660
241.9900, 404.1802
242.4721, 405.7504
242.9542, 406.9855
243.4364, 408.1439
243.9185, 410.0117
244.4006, 413.0457
244.8827, 416.2577
245.3648, 418.6843
245.8469, 420.4083
246.3290, 421.8193
246.8112, 422.6956
247.2933, 423.3590
247.7754, 424.9175
248.2575, 427.8589
248.7396, 431.1479
249.2217, 434.2470
249.7039, 437.0814
250.1860, 439.2913
250.6681, 440.2223
251.1502, 440.2879
251.6323, 441.0502
252.1144, 442.7062
252.5966, 444.8973
253.0787, 447.4725
253.5608, 450.3349
254.0429, 453.3134
254.5250, 456.3497
255.0071, 459.4147
255.4893, 462.3914
255.9714, 465.0949
256.4535, 468.0150
256.9356, 471.5285
257.4177, 475.3402
257.8998, 479.0276
258.3820, 482.4320
258.8641, 485.4940
259.3462, 487.9221
259.8283, 489.2588
260.3104, 490.6938
260.7925, 492.8167
261.2747, 495.2148
261.7568, 497.4424
262.2389, 499.3935
262.7210, 500.8527
263.2031, 501.2157
263.6852, 500.3488
264.1674, 498.4407
264.6495, 494.8152
265.1316, 490.6625
265.6137, 487.2976
266.0958, 485.3086
266.5779, 484.1979
267.0601, 482.8261
267.5422, 481.1034
268.0243, 479.2649
268.5064, 477.7644
268.9885, 475.9822
269.4706, 473.0621
269.9528, 468.7526
270.4349, 464.0459
270.9170, 460.9259
271.3991, 460.4058
271.8812, 459.5784
272.3633, 457.9464
272.8455, 456.1658
273.3276, 454.4851
273.8097, 453.0619
274.2918, 452.2767
274.7739, 452.9923
275.2560, 456.8358
275.7382, 458.6220
276.2202, 457.2870
276.7024, 455.1555
277.1845, 453.4627
277.6666, 452.4878
278.1487, 451.9868
278.6308, 451.6551
279.1129, 451.4121
279.5951, 451.6573
280.0772, 452.8422
280.5593, 454.0344
281.0414, 454.7236
281.5235, 454.9257
282.0056, 454.9320
282.4878, 454.9437
282.9699, 454.8545
283.4520, 455.6269
283.9341, 457.5688
284.4162, 459.9319
284.8983, 462.9519
285.3805, 466.2122
285.8626, 468.7343
286.3447, 469.6453
286.8268, 468.9845
287.3089, 469.2875
287.7910, 470.7121
288.2732, 472.8270
288.7553, 475.8385
289.2374, 479.4420
289.7195, 483.2227
290.2016, 486.9979
290.6837, 490.6057
291.1659, 493.1722
291.6480, 494.5801
292.1301, 495.0725
292.6122, 494.2730
293.0943, 492.6709
293.5764, 491.0150
294.0586, 489.6553
294.5407, 488.2364
295.0228, 485.7821
295.5049, 481.6664
295.9870, 477.1913
296.4691, 471.8048
296.9513, 466.3376
297.4334, 461.7596
297.9155, 458.3879
298.3976, 455.6423
298.8797, 452.5161
299.3618, 448.1571
299.8440, 445.1652
300.3261, 444.7418
300.8082, 444.9214
301.2903, 443.8949
301.7724, 441.4222
302.2545, 438.7847
302.7367, 437.5018
303.2188, 437.9957
303.7009, 438.4002
304.1830, 438.7455
304.6651, 438.9863
305.1472, 439.0891
305.6294, 439.0562
306.1115, 438.9142
306.5936, 438.6858
307.0757, 438.3673
307.5578, 437.9394
308.0399, 436.8925
308.5221, 436.2470
309.0042, 436.7072
309.4863, 437.9655
309.9684, 439.2201
310.4505, 439.9757
310.9326, 440.2789
311.4148, 440.4007
311.8969, 440.0376
312.3790, 439.8734
312.8611, 440.2700
313.3432, 440.9388
313.8253, 441.3597
314.3075, 441.2748
314.7896, 440.9479
315.2717, 441.0616
315.7538, 441.9464
316.2359, 442.8054
316.7180, 443.5172
317.2001, 444.2021
317.6823, 445.1874
318.1644, 446.5418
318.6465, 447.6404
319.1286, 447.4305
319.6107, 444.8244
320.0928, 443.5753
320.5750, 444.5249
321.0571, 446.1939
321.5392, 447.6158
322.0213, 448.6064
322.5034, 449.3088
322.9855, 449.7902
323.4677, 449.9654
323.9498, 450.6517
324.4319, 452.5114
324.9140, 454.1877
325.3961, 454.8177
325.8782, 454.6367
326.3604, 454.5439
326.8425, 455.2305
327.3246, 456.5717
327.8067, 457.1166
328.2888, 455.9884
328.7709, 455.1861
329.2531, 455.5073
329.7352, 456.4445
330.2173, 457.1183
330.6994, 457.1010
331.1815, 456.6796
331.6636, 456.6264
332.1458, 457.4103
332.6279, 458.0015
333.1100, 458.2198
333.5921, 458.3041
334.0742, 458.2634
334.5563, 458.1657
335.0385, 458.5527
335.5206, 460.3745
336.0027, 464.8873
336.4848, 467.5028
336.9669, 467.2898
337.4490, 466.1597
337.9312, 464.8759
338.4133, 463.7591
338.8954, 463.3052
339.3775, 464.0891
339.8596, 466.2689
340.3417, 467.7026
340.8239, 467.9247
341.3060, 467.9935
341.7881, 468.1895
342.2702, 468.5204
342.7523, 468.9396
343.2344, 469.4245
343.7166, 469.9522
344.1987, 470.4102
344.6808, 470.6305
345.1629, 470.9752
345.6450, 471.4355
346.1271, 472.0518
346.6093, 472.7615
347.0914, 473.5573
347.5735, 474.6971
348.0556, 476.8711
348.5377, 482.0809
349.0198, 484.5572
349.5020, 481.7523
349.9841, 478.5026
350.4662, 478.2826
350.9483, 481.3144
351.4304, 485.4635
351.9125, 488.5742
352.3947, 490.6255
352.8768, 491.7287
353.3589, 490.7568
353.8410, 489.9628
354.3231, 490.0211
354.8052, 490.8774
355.2874, 492.3882
355.7695, 494.6046
356.2516, 497.2389
356.7337, 498.6464
357.2158, 497.7235
357.6979, 497.0049
358.1800, 496.9083
358.6621, 497.2553
359.1443, 497.9664
359.6264, 499.0100
360.1085, 500.0634
360.5906, 500.4633
361.0727, 499.8297
361.5548, 499.5420
362.0370, 499.6894
362.5191, 500.2336
363.0012, 501.5193
363.4833, 503.3882
363.9654, 504.9348
364.4475, 504.9392
364.9297, 503.2511
365.4118, 502.5649
365.8939, 503.7512
366.3760, 505.0412
366.8581, 505.4673
367.3402, 505.4669
367.8224, 506.0459
368.3045, 508.0001
368.7866, 510.7557
369.2687, 512.6561
369.7508, 513.6021
370.2329, 513.8423
370.7151, 512.7482
371.1972, 511.3940
371.6793, 511.0644
372.1614, 512.2595
372.6435, 513.5515
373.1256, 512.7343
373.6078, 509.5811
374.0899, 507.6767
374.5720, 508.7663
375.0541, 510.5022
375.5362, 510.9988
376.0183, 510.3398
376.5005, 509.9078
376.9826, 511.0660
377.4647, 513.2443
377.9468, 514.1710
378.4289, 513.1710
378.9110, 512.1082
379.3932, 512.2260
379.8753, 513.1618
380.3574, 514.3558
380.8395, 515.9835
381.3216, 517.4704
381.8037, 517.8694
382.2859, 517.1542
382.7680, 516.7061
383.2501, 517.2189
383.7322, 518.3138
384.2143, 519.3311
384.6964, 520.2296
385.1786, 521.1479
385.6607, 522.2438
386.1428, 523.4177
386.6249, 524.4024
387.1070, 525.1204
387.5891, 525.6809
388.0713, 526.2688
388.5534, 526.8777
389.0355, 527.1383
389.5176, 526.3898
389.9997, 525.6245
390.4818, 525.8263
390.9640, 527.0349
391.4461, 528.8522
391.9282, 531.2502
392.4103, 534.0101
392.8924, 536.0176
393.3745, 536.5653
393.8567, 537.2004
394.3388, 538.9785
394.8209, 541.2153
395.3030, 542.3981
395.7851, 541.8858
396.2672, 540.6257
396.7494, 540.3012
397.2315, 541.3490
397.7136, 542.3317
398.1957, 543.0705
398.6778, 543.8052
399.1599, 544.8344
399.6420, 546.1274
400.1241, 547.3036
400.6063, 547.9837
401.0884, 548.1475
401.5705, 548.6409
402.0526, 549.9019
402.5347, 550.9706
403.0168, 551.1833
403.4990, 551.0915
403.9811, 551.7198
404.4632, 553.5721
404.9453, 556.0420
405.4274, 557.5940
405.9095, 557.2572
406.3917, 557.6371
406.8738, 559.1869
407.3559, 561.1258
407.8380, 563.1224
408.3201, 565.0035
408.8022, 566.5138
409.2844, 567.3606
409.7665, 567.4984
410.2486, 567.5660
410.7307, 567.1873
411.2128, 567.1588
411.6949, 567.9828
412.1771, 569.2489
412.6592, 570.2460
413.1413, 570.5676
413.6234, 570.6202
414.1055, 571.4073
414.5876, 573.3272
415.0698, 574.7734
415.5519, 574.8304
416.0340, 574.6383
416.5161, 574.9089
416.9982, 575.7430
417.4803, 576.8965
417.9625, 578.3102
418.4446, 579.9243
418.9267, 581.3389
419.4088, 582.4277
419.8909, 583.4825
420.3730, 584.7137
420.8552, 586.0420
421.3373, 587.3047
421.8194, 588.5049
422.3015, 589.5547
422.7836, 590.0719
423.2657, 590.0707
423.7479, 590.8229
424.2300, 593.2888
424.7121, 596.3799
425.1942, 598.4504
425.6763, 599.4202
426.1584, 599.8552
426.6406, 599.4524
427.1227, 598.8285
427.6048, 599.0380
428.0869, 600.2746
428.5690, 602.1345
429.0511, 604.3873
429.5333, 607.0410
430.0154, 609.4882
430.4975, 612.2599
430.9796, 614.3254
431.4617, 614.1468
431.9438, 612.7426
432.4260, 612.8760
432.9081, 615.9686
433.3902, 620.8456
433.8723, 624.7803
434.3544, 627.6124
434.8365, 629.6389
435.3187, 630.1561
435.8008, 630.3391
436.2829, 631.1205
436.7650, 632.6078
437.2471, 634.3409
437.7292, 635.7966
438.2114, 636.9434
438.6935, 639.3239
439.1756, 643.9814
439.6577, 648.7513
440.1398, 652.0921
440.6219, 655.5973
441.1040, 661.9539
441.5862, 672.2499
442.0683, 684.0482
442.5504, 692.6609
443.0325, 697.0270
443.5146, 701.5466
443.9967, 704.4127
444.4789, 709.3614
444.9610, 720.1028
445.4431, 735.1854
445.9252, 749.2853
446.4073, 757.7938
446.8894, 762.3051
447.3716, 769.0325
447.8537, 778.6534
448.3358, 788.7880
448.8179, 798.5683
449.3000, 808.2745
449.7821, 818.4063
450.2643, 829.2346
450.7464, 839.6833
451.2285, 848.5781
451.7106, 856.2077
452.1927, 863.4980
452.6748, 870.0552
453.1570, 877.4234
453.6391, 887.3481
454.1212, 899.4404
454.6033, 912.7319
455.0854, 927.3771
455.5675, 942.7797
456.0497, 958.1246
456.5318, 973.5817
457.0139, 990.4517
457.4960, 1009.258
457.9781, 1030.106
458.4602, 1053.889
458.9424, 1082.374
459.4245, 1109.580
459.9066, 1134.404
460.3887, 1157.398
460.8708, 1179.993
461.3529, 1201.977
461.8351, 1220.756
462.3172, 1234.217
462.7993, 1242.295
463.2814, 1244.039
463.7635, 1239.496
464.2456, 1229.107
464.7278, 1211.712
465.2099, 1188.808
465.6920, 1161.875
466.1741, 1131.446
466.6562, 1098.654
467.1383, 1064.967
467.6205, 1029.161
468.1026, 995.3943
468.5847, 963.3914
469.0668, 933.8510
469.5489, 907.4324
470.0310, 883.8929
470.5132, 862.8063
470.9953, 843.8269
471.4774, 827.1558
471.9595, 813.7239
472.4416, 804.2435
472.9237, 795.4135
473.4059, 785.8953
473.8880, 776.7239
474.3701, 768.9327
474.8522, 762.7034
475.3343, 757.1279
475.8164, 751.3908
476.2986, 745.9396
476.7807, 742.1189
477.2628, 740.3607
477.7449, 738.7808
478.2270, 735.8906
478.7091, 731.9806
479.1913, 728.4178
479.6734, 724.8138
480.1555, 722.0756
480.6376, 721.0543
481.1197, 721.2015
481.6018, 721.5133
482.0839, 721.6967
482.5660, 721.5574
483.0482, 720.7845
483.5303, 719.1863
484.0124, 717.5778
484.4945, 715.5764
484.9766, 713.9235
485.4587, 713.1100
485.9409, 712.9655
486.4230, 713.0643
486.9051, 713.1797
487.3872, 713.2951
487.8693, 713.3774
488.3514, 713.5354
488.8336, 713.4416
489.3157, 712.6861
489.7978, 712.0183
490.2799, 712.1617
490.7620, 712.9733
491.2441, 713.5520
491.7263, 712.8452
492.2084, 711.3287
492.6905, 711.4871
493.1726, 714.0358
493.6547, 716.5456
494.1368, 718.0239
494.6190, 718.9473
495.1011, 719.7432
495.5832, 720.4890
496.0653, 721.0709
496.5474, 721.5463
497.0295, 721.7889
497.5117, 721.0410
497.9938, 718.8012
498.4759, 717.2086
498.9580, 718.3448
499.4401, 721.7784
499.9222, 724.8947
500.4044, 728.8146
500.8865, 731.0791
501.3686, 728.9147
501.8507, 724.3795
502.3328, 721.8105
502.8149, 722.7234
503.2971, 725.3417
503.7792, 727.3251
504.2613, 728.8392
504.7434, 728.9478
505.2255, 725.8666
505.7076, 723.3019
506.1898, 723.2848
506.6719, 725.1189
507.1540, 727.4132
507.6361, 729.4985
508.1182, 731.0120
508.6003, 730.8104
509.0825, 727.7861
509.5646, 726.0248
510.0467, 726.6934
510.5288, 728.0591
511.0109, 729.4938
511.4930, 730.8448
511.9752, 731.9240
512.4573, 732.3451
512.9394, 732.5869
513.4215, 733.9707
513.9036, 736.7379
514.3857, 739.1570
514.8679, 740.5963
515.3500, 741.3051
515.8321, 741.6054
516.3142, 741.4716
516.7963, 741.2168
517.2784, 740.5932
517.7606, 740.1044
518.2427, 740.6741
518.7248, 742.3222
519.2069, 743.9489
519.6890, 744.8147
520.1711, 745.0727
520.6533, 745.4480
521.1354, 745.9875
521.6175, 746.5627
522.0996, 747.2281
522.5817, 747.8738
523.0638, 748.2656
523.5460, 748.4370
524.0281, 748.7504
524.5102, 749.5125
524.9923, 750.7204
525.4744, 752.5969
525.9565, 756.6029
526.4387, 759.2871
526.9208, 758.9384
527.4029, 757.5383
527.8850, 757.1337
528.3671, 758.2393
528.8492, 759.9731
529.3314, 761.6926
529.8135, 763.3428
530.2956, 764.2744
530.7777, 764.0819
531.2598, 763.9364
531.7419, 764.6516
532.2241, 765.8779
532.7062, 767.1087
533.1883, 768.2497
533.6704, 769.3864
534.1525, 770.6603
534.6346, 771.9680
535.1168, 773.0118
535.5989, 773.6975
536.0810, 774.4151
536.5631, 775.6849
537.0452, 777.5451
537.5273, 778.5071
538.0095, 777.8657
538.4916, 777.2004
538.9737, 777.2100
539.4558, 777.5244
539.9379, 777.3668
540.4200, 776.5452
540.9022, 775.8898
541.3843, 776.6967
541.8664, 779.3282
542.3485, 781.3816
542.8306, 781.9431
543.3127, 782.9124
543.7948, 785.6868
544.2769, 789.0123
544.7590, 790.7458
545.2411, 789.9487
545.7233, 788.5364
546.2054, 789.0305
546.6875, 791.2874
547.1696, 793.1520
547.6517, 794.1826
548.1339, 794.9749
548.6160, 796.0702
549.0981, 797.3263
549.5802, 798.3322
550.0623, 798.6359
550.5444, 799.0582
551.0266, 800.3578
551.5087, 802.1572
551.9908, 803.5543
552.4729, 804.2676
552.9550, 804.7177
553.4371, 805.3979
553.9193, 806.3275
554.4014, 807.4330
554.8835, 809.2643
555.3656, 810.6508
555.8477, 810.7056
556.3298, 810.2098
556.8120, 810.3731
557.2941, 811.6241
557.7762, 813.3138
558.2583, 814.3484
558.7404, 814.5187
559.2225, 815.8547
559.7047, 819.9141
560.1868, 823.1103
560.6689, 823.0906
561.1510, 821.3563
561.6331, 820.4958
562.1152, 821.4619
562.5974, 822.9662
563.0795, 823.6922
563.5616, 823.9446
564.0437, 825.0880
564.5258, 827.6410
565.0079, 829.9322
565.4901, 830.0974
565.9722, 828.2897
566.4543, 827.8943
566.9364, 829.6351
567.4185, 831.9480
567.9006, 834.7835
568.3828, 837.6269
568.8649, 839.8113
569.3470, 841.1542
569.8291, 841.9148
570.3112, 842.3324
570.7933, 842.3971
571.2755, 842.3163
571.7576, 841.3874
572.2397, 841.2349
572.7218, 842.8887
573.2039, 845.1664
573.6860, 846.5308
574.1682, 846.6360
574.6503, 846.8978
575.1324, 849.1190
575.6145, 852.7239
576.0966, 855.1119
576.5787, 855.9694
577.0609, 856.1529
577.5430, 855.5919
578.0251, 854.8966
578.5072, 855.5213
578.9893, 858.0714
579.4714, 860.6400
579.9536, 862.9089
580.4357, 864.5876
580.9178, 865.0074
581.3999, 864.2737
581.8820, 863.5175
582.3641, 863.5731
582.8463, 864.3651
583.3284, 865.4407
583.8105, 866.9429
584.2926, 868.5596
584.7747, 870.6287
585.2568, 872.5396
585.7390, 873.7162
586.2211, 874.2359
586.7032, 874.6846
587.1853, 875.5085
587.6674, 876.5406
588.1495, 877.1825
588.6317, 877.2930
589.1138, 877.9318
589.5959, 879.6955
590.0780, 881.9136
590.5601, 883.7802
591.0422, 885.3036
591.5244, 886.8117
592.0065, 888.4477
592.4886, 890.0657
592.9707, 891.4539
593.4528, 892.6775
593.9349, 894.0286
594.4171, 895.6464
594.8992, 897.3049
595.3813, 898.5681
595.8634, 899.1170
596.3455, 900.2281
596.8276, 902.8717
597.3098, 904.9763
597.7919, 905.3193
598.2740, 904.6201
598.7561, 904.0170
599.2382, 903.9538
599.7203, 904.4936
600.2025, 905.9065
600.6846, 908.1733
601.1667, 910.3600
601.6488, 912.4949
602.1309, 914.2934
602.6130, 914.9285
603.0952, 915.1747
603.5773, 916.8008
604.0594, 921.1115
604.5415, 924.7981
605.0236, 925.7956
605.5057, 925.2599
605.9879, 924.5713
606.4700, 924.0906
606.9521, 924.5302
607.4342, 926.7186
607.9163, 930.2597
608.3984, 932.1454
608.8806, 930.2536
609.3627, 929.5852
609.8448, 931.2110
610.3269, 933.6709
610.8090, 936.3472
611.2911, 938.8425
611.7733, 940.3077
612.2554, 939.7209
612.7375, 938.0964
613.2196, 937.7510
613.7017, 938.7457
614.1838, 940.5618
614.6660, 943.8298
615.1481, 946.9264
615.6302, 947.4792
616.1123, 945.7037
616.5944, 944.7976
617.0765, 945.8436
617.5587, 947.5539
618.0408, 949.2613
618.5229, 950.9447
619.0050, 952.6662
619.4871, 954.4444
619.9692, 956.2093
620.4514, 957.9081
620.9335, 959.6003
621.4156, 960.7922
621.8977, 961.0174
622.3798, 961.2718
622.8619, 961.5331
623.3441, 962.0894
623.8262, 963.4269
624.3083, 965.6292
624.7904, 967.8729
625.2725, 969.4948
625.7546, 970.6137
626.2367, 971.3619
626.7188, 971.6835
627.2009, 972.5114
627.6830, 974.7199
628.1652, 977.4417
628.6473, 978.4721
629.1294, 977.1436
629.6115, 976.5904
630.0936, 977.5941
630.5757, 979.2418
631.0579, 981.0714
631.5400, 982.9714
632.0221, 984.9355
632.5042, 986.9609
632.9863, 988.8524
633.4684, 990.1237
633.9506, 990.5760
634.4327, 991.4432
634.9148, 993.1869
635.3969, 994.8323
635.8790, 995.5779
636.3611, 995.9855
636.8433, 997.1680
637.3254, 999.6965
637.8075, 1002.052
638.2896, 1002.907
638.7717, 1002.871
639.2538, 1002.884
639.7360, 1003.114
640.2181, 1004.256
640.7002, 1007.140
641.1823, 1011.026
641.6644, 1012.894
642.1465, 1010.695
642.6287, 1009.229
643.1108, 1008.355
643.5929, 1008.398
644.0750, 1010.492
644.5571, 1013.717
645.0392, 1015.423
645.5214, 1013.723
646.0035, 1011.164
646.4856, 1012.505
646.9677, 1017.729
647.4498, 1022.281
647.9319, 1025.326
648.4141, 1027.630
648.8962, 1029.807
649.3783, 1031.737
649.8604, 1032.875
650.3425, 1032.496
650.8246, 1032.230
651.3068, 1032.429
651.7889, 1033.232
652.2710, 1035.164
652.7531, 1038.054
653.2352, 1040.751
653.7173, 1042.339
654.1995, 1043.046
654.6816, 1043.760
655.1637, 1044.234
655.6458, 1045.307
656.1279, 1048.070
656.6100, 1050.668
657.0922, 1051.863
657.5743, 1051.951
658.0564, 1052.043
658.5385, 1052.377
659.0206, 1053.153
659.5027, 1055.089
659.9849, 1057.614
660.4670, 1058.866
660.9491, 1058.377
661.4312, 1057.759
661.9133, 1058.503
662.3954, 1060.512
662.8776, 1062.338
663.3597, 1064.047
663.8418, 1065.485
664.3239, 1066.353
664.8060, 1067.169
665.2881, 1068.250
665.7703, 1069.676
666.2524, 1071.581
666.7345, 1074.370
667.2166, 1077.219
667.6987, 1078.382
668.1808, 1077.911
668.6630, 1077.642
669.1451, 1077.867
669.6272, 1078.739
670.1093, 1080.782
670.5914, 1083.831
671.0735, 1085.822
671.5557, 1085.354
