##NAMES=Sodalite
##RRUFFID=R060355
##IDEAL CHEMISTRY=Na_4_Si_3_Al_3_O_12_Cl
##LOCALITY=Mont Saint-Hilaire, Quebec, Canada
##OWNER=RRUFF
##SOURCE=Herb Obodda
##DESCRIPTION=Clear colorless fragment
##STATUS=The identification of this mineral has been confirmed by X-ray diffraction and chemical analysis
##URL=rruff.info/R060355
##MEASURED CHEMISTRY=(Na_0.98_[box]_0.02_)_8_Al_6.00_(Si_0.99_Al_0.01_)_6_O_24_Cl_1.82_
91.53320, 225.9604
92.01532, 224.5104
92.49744, 223.2862
92.97955, 225.2160
93.46167, 228.0650
93.94379, 230.5351
94.42590, 234.8174
94.90802, 239.0725
95.39014, 241.0487
95.87225, 240.9525
96.35437, 238.5283
96.83649, 233.2294
97.31860, 226.4402
97.80072, 219.2973
98.28284, 211.8736
98.76495, 204.2034
99.24707, 197.6916
99.72919, 192.8795
100.2113, 188.6597
100.6934, 184.6815
101.1755, 180.9752
101.6577, 177.7345
102.1398, 175.0675
102.6219, 172.9376
103.1040, 171.5736
103.5861, 171.0432
104.0682, 170.9304
104.5504, 170.9314
105.0325, 171.0206
105.5146, 171.4396
105.9967, 172.4543
106.4788, 173.8917
106.9609, 176.5491
107.4431, 180.9137
107.9252, 186.4075
108.4073, 192.5549
108.8894, 199.5349
109.3715, 206.3164
109.8536, 211.2615
110.3358, 214.6287
110.8179, 216.3726
111.3000, 216.3411
111.7821, 214.5871
112.2642, 211.5558
112.7463, 207.0572
113.2285, 201.4100
113.7106, 194.8193
114.1927, 187.1759
114.6748, 179.0272
115.1569, 170.9652
115.6390, 162.4981
116.1212, 155.3092
116.6033, 149.9041
117.0854, 145.7412
117.5675, 142.3949
118.0496, 139.6750
118.5317, 137.5459
119.0139, 135.8687
119.4960, 134.7813
119.9781, 134.0859
120.4602, 134.1367
120.9423, 134.5392
121.4244, 134.5886
121.9066, 133.6626
122.3887, 131.6276
122.8708, 130.5376
123.3529, 131.2147
123.8350, 131.8698
124.3171, 131.3638
124.7993, 129.8036
125.2814, 128.3926
125.7635, 128.4153
126.2456, 130.2755
126.7277, 131.7868
127.2098, 132.5159
127.6920, 133.0601
128.1741, 133.8882
128.6562, 135.0076
129.1383, 136.7912
129.6204, 140.2757
130.1025, 145.2664
130.5847, 149.7668
131.0668, 153.8551
131.5489, 157.0195
132.0310, 157.2374
132.5131, 152.6715
132.9952, 146.3074
133.4774, 140.5296
133.9595, 135.4163
134.4416, 131.1120
134.9237, 127.7123
135.4058, 125.1904
135.8879, 123.6946
136.3701, 124.2691
136.8522, 125.2636
137.3343, 125.7664
137.8164, 125.5530
138.2985, 125.0114
138.7806, 124.8240
139.2628, 125.3008
139.7449, 125.5731
140.2270, 125.4332
140.7091, 125.1457
141.1912, 124.8223
141.6733, 124.5167
142.1555, 124.3939
142.6376, 125.0388
143.1197, 127.8595
143.6018, 129.9124
144.0839, 130.3743
144.5660, 129.9177
145.0482, 129.6353
145.5303, 130.1875
146.0124, 131.4340
146.4945, 132.3246
146.9766, 133.1360
147.4587, 133.4290
147.9409, 132.5882
148.4230, 130.8792
148.9051, 129.5065
149.3872, 129.4289
149.8693, 130.4624
150.3514, 131.0652
150.8336, 130.9198
151.3157, 130.5170
151.7978, 130.1743
152.2799, 129.8631
152.7620, 129.8674
153.2441, 130.6402
153.7263, 131.8739
154.2084, 133.1129
154.6905, 133.9177
155.1726, 134.6582
155.6547, 136.2295
156.1368, 138.9402
156.6190, 141.9717
157.1011, 144.7338
157.5832, 147.4309
158.0653, 150.5074
158.5474, 154.2236
159.0295, 158.5632
159.5117, 163.2784
159.9938, 167.9364
160.4759, 173.5718
160.9580, 180.9292
161.4401, 189.6180
161.9222, 198.6265
162.4044, 207.0615
162.8865, 214.8910
163.3686, 222.5859
163.8507, 231.7137
164.3328, 239.4763
164.8149, 244.6816
165.2971, 247.2557
165.7792, 247.6447
166.2613, 246.3711
166.7434, 243.3251
167.2255, 238.4224
167.7076, 230.5506
168.1898, 221.8583
168.6719, 213.6668
169.1540, 206.2700
169.6361, 199.4979
170.1182, 193.1226
170.6003, 187.2188
171.0825, 181.6348
171.5646, 176.1557
172.0467, 171.0932
172.5288, 166.8314
173.0109, 163.4966
173.4930, 160.8718
173.9752, 158.7438
174.4573, 157.0844
174.9394, 155.6816
175.4215, 154.6984
175.9036, 153.9189
176.3857, 152.8569
176.8679, 151.3097
177.3500, 149.4940
177.8321, 147.7424
178.3142, 146.0669
178.7963, 144.2927
179.2784, 142.1716
179.7606, 139.7583
180.2427, 137.6662
180.7248, 136.2921
181.2069, 135.1091
181.6890, 133.5695
182.1711, 131.6092
182.6533, 129.7568
183.1354, 128.5977
183.6175, 128.2231
184.0996, 127.8203
184.5817, 127.5369
185.0638, 126.9529
185.5460, 125.5854
186.0281, 123.3620
186.5102, 120.9632
186.9923, 119.3913
187.4744, 118.9834
187.9565, 118.5335
188.4387, 117.9448
188.9208, 117.2307
189.4029, 116.2763
189.8850, 115.0708
190.3671, 113.8987
190.8492, 113.3324
191.3314, 113.9409
191.8135, 114.2594
192.2956, 114.0572
192.7777, 113.6342
193.2598, 113.2210
193.7419, 112.9131
194.2241, 112.7007
194.7062, 112.5607
195.1883, 112.7168
195.6704, 112.6766
196.1525, 112.4082
196.6346, 111.9452
197.1168, 111.2388
197.5989, 110.2514
198.0810, 109.1703
198.5631, 108.5632
199.0452, 108.8221
199.5273, 108.9990
200.0095, 108.7963
200.4916, 108.4363
200.9737, 108.3264
201.4558, 108.6950
201.9379, 109.3287
202.4200, 109.5938
202.9022, 109.3084
203.3843, 109.0596
203.8664, 109.1205
204.3485, 109.3868
204.8306, 109.5680
205.3127, 109.5273
205.7949, 109.3365
206.2770, 109.1595
206.7591, 108.9750
207.2412, 108.8418
207.7233, 108.8518
208.2054, 108.9726
208.6876, 108.9951
209.1697, 108.7740
209.6518, 108.4520
210.1339, 108.2691
210.6160, 108.2901
211.0981, 108.2899
211.5803, 107.9091
212.0624, 107.1454
212.5445, 106.8535
213.0266, 107.8232
213.5087, 109.1196
213.9908, 109.8977
214.4730, 110.0095
214.9551, 109.7299
215.4372, 109.2193
215.9193, 108.3999
216.4014, 107.8237
216.8836, 107.9219
217.3657, 108.1739
217.8478, 108.1637
218.3299, 107.7842
218.8120, 107.4239
219.2941, 107.6765
219.7763, 108.7459
220.2584, 109.7603
220.7405, 110.6132
221.2226, 111.3343
221.7047, 111.8660
222.1868, 112.2059
222.6690, 112.5326
223.1511, 113.1965
223.6332, 114.5195
224.1153, 115.4330
224.5974, 115.5820
225.0795, 115.5160
225.5617, 115.5153
226.0438, 115.6935
226.5259, 116.1473
227.0080, 117.1018
227.4901, 118.9720
227.9722, 120.5926
228.4544, 121.6206
228.9365, 122.6008
229.4186, 124.0247
229.9007, 125.9982
230.3828, 128.1780
230.8649, 129.9592
231.3471, 131.2325
231.8292, 132.2204
232.3113, 132.7975
232.7934, 133.1891
233.2755, 133.6395
233.7576, 134.1962
234.2398, 134.6454
234.7219, 134.6062
235.2040, 133.6062
235.6861, 132.9432
236.1682, 132.6827
236.6503, 132.7102
237.1325, 133.0818
237.6146, 133.7813
238.0967, 134.4372
238.5788, 134.4273
239.0609, 133.1953
239.5430, 132.6159
240.0252, 132.9591
240.5073, 133.8809
240.9894, 135.1840
241.4715, 136.8232
241.9536, 138.4964
242.4357, 139.7204
242.9179, 140.2784
243.4000, 141.3789
243.8821, 143.4492
244.3642, 145.9698
244.8463, 148.4292
245.3284, 150.7411
245.8106, 152.9390
246.2927, 155.0213
246.7748, 156.9824
247.2569, 159.0170
247.7390, 160.8125
248.2211, 162.8517
248.7033, 165.9917
249.1854, 170.4975
249.6675, 175.0582
250.1496, 178.0154
250.6317, 179.6802
251.1138, 182.0831
251.5960, 186.0010
252.0781, 190.7357
252.5602, 195.4070
253.0423, 199.8612
253.5244, 204.5306
254.0065, 209.7688
254.4887, 215.4704
254.9708, 221.4969
255.4529, 227.8042
255.9350, 234.4114
256.4171, 241.3753
256.8992, 248.7624
257.3813, 256.1956
257.8635, 263.2900
258.3456, 270.2658
258.8277, 277.6382
259.3098, 285.9903
259.7919, 294.4901
260.2740, 301.9609
260.7562, 308.3389
261.2383, 313.9396
261.7204, 319.3492
262.2025, 323.9803
262.6846, 326.9012
263.1667, 327.6478
263.6489, 326.8047
264.1310, 325.0841
264.6131, 322.4347
265.0952, 319.1202
265.5773, 315.5802
266.0594, 311.2983
266.5416, 305.4644
267.0237, 297.6041
267.5058, 288.8138
267.9879, 280.2826
268.4700, 271.9508
268.9521, 264.2735
269.4343, 258.2237
269.9164, 252.4690
270.3985, 245.8912
270.8806, 238.1559
271.3627, 230.2164
271.8448, 223.2922
272.3270, 217.5123
272.8091, 211.9187
273.2912, 206.0041
273.7733, 200.4005
274.2554, 195.6137
274.7375, 191.6827
275.2197, 188.1317
275.7018, 184.2671
276.1839, 179.9525
276.6660, 176.3049
277.1481, 174.0287
277.6302, 172.1152
278.1124, 170.2646
278.5945, 168.3818
279.0766, 166.3645
279.5587, 163.8530
280.0408, 160.6789
280.5229, 158.4841
281.0051, 158.3271
281.4872, 158.3888
281.9693, 157.8690
282.4514, 156.8688
282.9335, 155.9517
283.4156, 155.6320
283.8978, 155.9225
284.3799, 156.1833
284.8620, 155.9456
285.3441, 156.1905
285.8262, 157.3716
286.3083, 159.2962
286.7905, 161.4855
287.2726, 163.4964
287.7547, 165.4364
288.2368, 168.3613
288.7189, 173.0659
289.2010, 177.8996
289.6832, 182.2359
290.1653, 186.4105
290.6474, 191.0213
291.1295, 196.4262
291.6116, 202.4313
292.0938, 208.2981
292.5759, 214.6058
293.0580, 219.7881
293.5401, 224.0069
294.0222, 226.9138
294.5043, 227.9883
294.9865, 226.9807
295.4686, 224.3301
295.9507, 221.1563
296.4328, 218.0422
296.9149, 213.1721
297.3970, 205.8013
297.8792, 197.1935
298.3613, 188.2342
298.8434, 179.2300
299.3255, 170.3590
299.8076, 161.7995
300.2897, 153.1140
300.7719, 145.8394
301.2540, 140.5381
301.7361, 136.0422
302.2182, 131.6125
302.7003, 127.1342
303.1824, 122.8582
303.6646, 118.9781
304.1467, 115.3602
304.6288, 112.7334
305.1109, 111.7836
305.5930, 111.1420
306.0751, 110.3928
306.5573, 109.4120
307.0394, 108.1060
307.5215, 106.2806
308.0036, 103.8476
308.4857, 102.0576
308.9678, 101.4316
309.4500, 100.9637
309.9321, 100.4769
310.4142, 99.92548
310.8963, 99.24393
311.3784, 98.32973
311.8605, 97.27059
312.3427, 96.78789
312.8248, 97.76118
313.3069, 98.28983
313.7890, 97.65187
314.2711, 96.49047
314.7532, 95.71508
315.2354, 95.79980
315.7175, 96.34929
316.1996, 96.18346
316.6817, 94.60796
317.1638, 93.40047
317.6459, 92.91770
318.1281, 92.75709
318.6102, 92.58706
319.0923, 92.29594
319.5744, 91.95476
320.0565, 91.68762
320.5386, 91.54936
321.0208, 91.35790
321.5029, 90.98331
321.9850, 90.65255
322.4671, 90.63400
322.9492, 90.88231
323.4313, 91.00968
323.9135, 90.47109
324.3956, 89.01647
324.8777, 88.18169
325.3598, 88.54296
325.8419, 88.98857
326.3240, 89.11465
326.8062, 88.95879
327.2883, 88.75509
327.7704, 88.68542
328.2525, 88.73997
328.7346, 88.74038
329.2167, 88.73267
329.6989, 88.60527
330.1810, 88.22334
330.6631, 87.73168
331.1452, 87.36639
331.6273, 87.27213
332.1094, 87.32594
332.5916, 87.11501
333.0737, 86.36872
333.5558, 85.82588
334.0379, 85.64867
334.5200, 85.67862
335.0021, 85.82001
335.4843, 86.03415
335.9664, 86.23727
336.4485, 86.32109
336.9306, 86.32897
337.4127, 86.07595
337.8948, 85.13175
338.3770, 84.24464
338.8591, 83.96335
339.3412, 84.27090
339.8233, 84.66113
340.3055, 84.54462
340.7876, 83.83958
341.2697, 83.46440
341.7518, 83.76041
342.2339, 84.07359
342.7160, 84.19840
343.1982, 84.13884
343.6803, 83.94936
344.1624, 83.64877
344.6445, 83.25113
345.1266, 82.78918
345.6087, 82.05463
346.0909, 81.62122
346.5730, 81.87672
347.0551, 82.42091
347.5372, 82.73073
348.0193, 82.56738
348.5014, 82.17821
348.9836, 81.99057
349.4657, 82.02139
349.9478, 82.20345
350.4299, 82.76172
350.9120, 83.31706
351.3941, 83.58894
351.8763, 83.52538
352.3584, 83.26170
352.8405, 82.85252
353.3226, 82.28770
353.8047, 81.89404
354.2868, 81.83674
354.7690, 81.84160
355.2511, 81.66813
355.7332, 81.37568
356.2153, 81.23154
356.6974, 81.59652
357.1795, 82.28036
357.6617, 82.44949
358.1438, 81.78928
358.6259, 81.25350
359.1080, 81.64196
359.5901, 82.45683
360.0722, 82.87205
360.5544, 82.41279
361.0365, 81.63742
361.5186, 81.30333
362.0007, 81.44275
362.4828, 81.80474
362.9649, 82.48952
363.4471, 83.23698
363.9292, 83.77761
364.4113, 84.08554
364.8934, 84.17820
365.3755, 83.86408
365.8576, 83.26443
366.3398, 83.08767
366.8219, 83.63950
367.3040, 84.45898
367.7861, 85.17573
368.2682, 85.78576
368.7503, 86.07409
369.2325, 85.71113
369.7146, 85.04403
370.1967, 84.65923
370.6788, 84.62225
371.1609, 84.77537
371.6430, 85.09731
372.1252, 85.52380
372.6073, 85.83147
373.0894, 86.09818
373.5715, 86.15004
374.0536, 85.73573
374.5357, 84.92754
375.0179, 84.14140
375.5000, 83.58504
375.9821, 83.17913
376.4642, 82.73133
376.9463, 82.24928
377.4284, 81.72234
377.9106, 80.84875
378.3927, 79.99303
378.8748, 79.95122
379.3569, 81.00788
379.8390, 82.32813
380.3211, 82.78715
380.8033, 82.18443
381.2854, 81.87241
381.7675, 82.31782
382.2496, 82.82073
382.7317, 82.74019
383.2138, 82.10104
383.6960, 81.45036
384.1781, 81.20872
384.6602, 81.34175
385.1423, 81.31047
385.6244, 80.91116
386.1065, 80.60497
386.5887, 80.61055
387.0708, 80.79903
387.5529, 80.90483
388.0350, 80.80275
388.5171, 80.67368
388.9992, 80.93462
389.4814, 82.25256
389.9635, 82.91054
390.4456, 82.32077
390.9277, 81.47183
391.4098, 81.15758
391.8919, 81.48200
392.3741, 82.06363
392.8562, 82.52686
393.3383, 82.86946
393.8204, 83.11915
394.3025, 83.32031
394.7846, 83.39243
395.2668, 83.13539
395.7489, 82.74679
396.2310, 82.60948
396.7131, 82.96962
397.1952, 83.65414
397.6773, 84.05217
398.1595, 83.96026
398.6416, 83.90742
399.1237, 83.83310
399.6058, 83.89648
400.0879, 84.32851
400.5700, 85.14442
401.0522, 86.00887
401.5343, 86.46080
402.0164, 86.39365
402.4985, 86.53461
402.9806, 86.97008
403.4627, 87.57885
403.9449, 88.30913
404.4270, 89.16930
404.9091, 90.18225
405.3912, 91.33437
405.8733, 92.66579
406.3554, 94.30848
406.8376, 96.34509
407.3197, 98.52439
407.8018, 100.7577
408.2839, 103.0712
408.7660, 105.6373
409.2481, 108.6378
409.7303, 111.2563
410.2124, 112.8089
410.6945, 113.2952
411.1766, 112.7231
411.6587, 110.7895
412.1408, 108.1222
412.6230, 105.0918
413.1051, 101.7873
413.5872, 98.91354
414.0693, 96.72836
414.5514, 95.16587
415.0335, 94.30551
415.5157, 94.20881
415.9978, 94.16656
416.4799, 93.62771
416.9620, 92.81930
417.4441, 92.45768
417.9262, 92.98673
418.4084, 93.40861
418.8905, 92.84616
419.3726, 91.72649
419.8547, 91.22507
420.3368, 91.81689
420.8189, 92.93394
421.3011, 93.71067
421.7832, 94.11890
422.2653, 94.33508
422.7474, 94.02706
423.2295, 93.77012
423.7116, 94.19832
424.1938, 95.26933
424.6759, 96.32624
425.1580, 96.82793
425.6401, 96.81882
426.1222, 97.15154
426.6043, 98.19102
427.0865, 99.09161
427.5686, 99.26051
428.0507, 99.28627
428.5328, 100.1666
429.0149, 102.2619
429.4970, 104.7861
429.9792, 106.3221
430.4613, 106.2279
430.9434, 106.5413
431.4255, 107.4493
431.9076, 108.5225
432.3897, 109.6749
432.8719, 110.7976
433.3540, 111.6666
433.8361, 112.0434
434.3182, 112.0230
434.8003, 112.2968
435.2824, 112.9234
435.7646, 113.7868
436.2467, 114.9464
436.7288, 116.2493
437.2109, 117.4933
437.6930, 118.6135
438.1751, 119.8052
438.6573, 121.2566
439.1394, 122.9564
439.6215, 125.1131
440.1036, 127.9282
440.5857, 131.0549
441.0678, 134.2647
441.5500, 137.5757
442.0321, 141.0557
442.5142, 144.6637
442.9963, 148.5022
443.4784, 152.7831
443.9605, 157.5114
444.4427, 162.6499
444.9248, 168.1530
445.4069, 174.0993
445.8890, 180.4958
446.3711, 187.4086
446.8532, 194.6490
447.3354, 202.1649
447.8175, 209.9080
448.2996, 217.6696
448.7817, 225.3297
449.2638, 233.3867
449.7459, 242.3117
450.2281, 252.1772
450.7102, 262.6731
451.1923, 273.2539
451.6744, 284.9395
452.1565, 298.2342
452.6386, 313.1532
453.1208, 329.3382
453.6029, 346.5612
454.0850, 365.2905
454.5671, 386.8250
455.0492, 410.8341
455.5313, 438.5983
456.0135, 470.7505
456.4956, 506.2373
456.9777, 544.0467
457.4598, 584.2748
457.9419, 628.6932
458.4240, 679.3965
458.9062, 736.3455
459.3883, 796.3787
459.8704, 862.0279
460.3525, 928.5609
460.8346, 998.2339
461.3167, 1067.000
461.7989, 1131.593
462.2810, 1191.178
462.7631, 1241.504
463.2452, 1277.230
463.7273, 1298.777
464.2094, 1303.051
464.6916, 1286.434
465.1737, 1253.649
465.6558, 1204.324
466.1379, 1141.072
466.6200, 1071.380
467.1021, 995.9789
467.5843, 918.1793
468.0664, 844.4726
468.5485, 774.4667
469.0306, 709.3073
469.5127, 649.6174
469.9948, 595.3740
470.4770, 546.6821
470.9591, 503.8100
471.4412, 465.5259
471.9233, 431.8983
472.4054, 402.2246
472.8875, 375.8081
473.3697, 352.5698
473.8518, 331.7468
474.3339, 312.7455
474.8160, 295.7663
475.2981, 280.5952
475.7802, 268.0381
476.2624, 256.4373
476.7445, 245.0061
477.2266, 233.9389
477.7087, 223.6868
478.1908, 214.3414
478.6729, 205.9637
479.1551, 198.7340
479.6372, 193.0409
480.1193, 187.6158
480.6014, 182.4456
481.0835, 177.4900
481.5656, 172.7182
482.0478, 168.1553
482.5299, 163.8201
483.0120, 159.6947
483.4941, 155.8772
483.9762, 152.9283
484.4583, 151.2175
484.9405, 149.6488
485.4226, 148.1030
485.9047, 146.5340
486.3868, 144.8776
486.8689, 143.1396
487.3510, 141.4721
487.8332, 140.1808
488.3153, 139.1230
488.7974, 137.4590
489.2795, 134.9209
489.7616, 132.3697
490.2437, 130.4161
490.7259, 128.7663
491.2080, 126.9067
491.6901, 124.5500
492.1722, 122.3929
492.6543, 120.9630
493.1364, 120.1413
493.6186, 119.6285
494.1007, 119.3750
494.5828, 119.2731
495.0649, 119.1630
495.5470, 119.0298
496.0291, 119.2367
496.5113, 120.3671
496.9934, 121.3107
497.4755, 121.5355
497.9576, 121.0507
498.4397, 119.9214
498.9218, 118.1736
499.4040, 115.9385
499.8861, 113.5146
500.3682, 110.8640
500.8503, 108.1029
501.3324, 104.8195
501.8145, 101.7748
502.2967, 99.38254
502.7788, 97.63961
503.2609, 96.37972
503.7430, 95.55100
504.2251, 95.02891
504.7072, 94.33464
505.1894, 93.39565
505.6715, 92.44149
506.1536, 91.40097
506.6357, 90.45166
507.1178, 89.74472
507.5999, 89.29755
508.0821, 89.02555
508.5642, 89.05196
509.0463, 89.20273
509.5284, 88.86594
510.0105, 87.88744
510.4926, 86.95549
510.9748, 86.50435
511.4569, 86.40965
511.9390, 86.36904
512.4211, 86.45863
512.9032, 86.43460
513.3853, 86.00966
513.8674, 85.43568
514.3495, 85.20872
514.8317, 85.43626
515.3138, 85.76653
515.7959, 85.89564
516.2780, 85.83278
516.7601, 85.31008
517.2422, 83.61567
517.7244, 82.33118
518.2065, 82.25996
518.6886, 82.83968
519.1707, 83.24256
519.6528, 83.17529
520.1349, 82.93607
520.6171, 83.08484
521.0992, 83.90086
521.5813, 83.96256
522.0634, 82.34825
522.5455, 80.87154
523.0276, 80.29454
523.5098, 80.31233
523.9919, 80.27562
524.4740, 79.84868
524.9561, 79.38585
525.4382, 79.53279
525.9203, 80.30447
526.4025, 80.75639
526.8846, 80.60009
527.3667, 80.13969
527.8488, 79.52124
528.3309, 78.80025
528.8130, 78.37167
529.2952, 78.68261
529.7773, 79.08122
530.2594, 78.86202
530.7415, 78.15425
531.2236, 77.62954
531.7057, 77.62424
532.1879, 77.84364
532.6700, 77.72552
533.1521, 77.14271
533.6342, 76.47375
534.1163, 75.35097
534.5984, 74.46461
535.0806, 74.49155
535.5627, 75.17116
536.0448, 75.66234
536.5269, 75.41318
537.0090, 74.75133
537.4911, 74.77708
537.9733, 76.15269
538.4554, 76.74010
538.9375, 75.60158
539.4196, 74.20853
539.9017, 73.40618
540.3839, 73.19360
540.8660, 73.15871
541.3481, 73.11848
541.8302, 73.03242
542.3123, 72.72801
542.7944, 72.15630
543.2766, 71.82506
543.7587, 72.11379
544.2408, 72.59983
544.7229, 72.63802
545.2050, 72.17757
545.6871, 71.76165
546.1693, 71.54658
546.6514, 71.48703
547.1335, 71.70019
547.6156, 72.09708
548.0977, 72.10884
548.5798, 71.29024
549.0620, 69.99348
549.5441, 69.41328
550.0262, 70.46763
550.5083, 71.03056
550.9904, 70.71150
551.4725, 70.18716
551.9547, 69.97399
552.4368, 70.05982
552.9189, 70.12084
553.4010, 69.90057
553.8831, 69.48748
554.3652, 69.24624
554.8474, 69.23450
555.3295, 69.25298
555.8116, 69.58716
556.2937, 69.69564
556.7758, 68.88424
557.2579, 67.23319
557.7401, 65.96429
558.2222, 66.12862
558.7043, 67.00384
559.1864, 67.32153
559.6685, 67.04417
560.1506, 66.71323
560.6328, 66.57527
561.1149, 66.55868
561.5970, 66.50292
562.0791, 66.37801
562.5612, 66.31334
563.0433, 66.44929
563.5255, 66.56731
564.0076, 66.51977
564.4897, 66.28365
564.9718, 65.79237
565.4539, 64.95336
565.9360, 63.99178
566.4182, 63.73018
566.9003, 64.79420
567.3824, 65.37355
567.8645, 65.03192
568.3466, 64.49434
568.8287, 64.12220
569.3109, 63.96014
569.7930, 63.99423
570.2751, 64.32545
570.7572, 64.73136
571.2393, 64.70187
571.7214, 64.20620
572.2036, 63.62445
572.6857, 62.87794
573.1678, 62.32369
573.6499, 62.55009
574.1320, 63.53128
574.6141, 64.16326
575.0963, 63.98356
575.5784, 63.45978
576.0605, 62.72005
576.5426, 61.95306
577.0247, 61.79828
577.5068, 62.60601
577.9890, 63.79488
578.4711, 64.25239
578.9532, 63.59486
579.4353, 63.16538
579.9174, 63.09676
580.3995, 63.09258
580.8817, 62.97942
581.3638, 62.83022
581.8459, 62.82273
582.3280, 63.05106
582.8101, 63.37236
583.2922, 63.55674
583.7744, 63.59525
584.2565, 63.63514
584.7386, 63.79090
585.2207, 63.80972
585.7029, 63.27589
586.1850, 62.47108
586.6671, 62.16534
587.1492, 62.91552
587.6313, 63.71053
