##NAMES=Sodalite
##RRUFFID=R060354
##IDEAL CHEMISTRY=Na_4_Si_3_Al_3_O_12_Cl
##LOCALITY=Koksha Valley, Badakshan Province, Afghanistan
##OWNER=RRUFF
##SOURCE=Herb Obodda
##DESCRIPTION=Pale purple transparent fragment
##STATUS=The identification of this mineral has been confirmed by X-ray diffraction and chemical analysis
##URL=rruff.info/R060354
##MEASURED CHEMISTRY=(Na_0.99_K_0.01_)_8_Al_6.00_Si_6.00_O_24_Cl_2.00_
122.3119, 23.42116
122.7940, 25.45561
123.2761, 25.54762
123.7582, 24.36800
124.2404, 23.41076
124.7225, 23.60463
125.2046, 24.41996
125.6867, 25.24334
126.1688, 26.02585
126.6509, 26.71207
127.1331, 27.09662
127.6152, 27.26042
128.0973, 27.60547
128.5794, 28.35110
129.0615, 29.48072
129.5436, 30.98475
130.0258, 32.95790
130.5079, 35.20052
130.9900, 37.32817
131.4721, 39.32287
131.9542, 41.55992
132.4363, 44.29921
132.9185, 47.53778
133.4006, 51.24987
133.8827, 55.43951
134.3648, 60.06765
134.8469, 65.19236
135.3290, 70.74906
135.8112, 77.11710
136.2933, 84.63065
136.7754, 93.32968
137.2575, 102.9762
137.7396, 113.4083
138.2217, 124.4701
138.7039, 137.3978
139.1860, 152.5099
139.6681, 169.0306
140.1502, 186.3093
140.6323, 204.3706
141.1144, 222.5412
141.5966, 240.7136
142.0787, 258.9099
142.5608, 276.6246
143.0429, 293.9601
143.5250, 310.7229
144.0071, 326.2715
144.4893, 340.0396
144.9714, 353.2931
145.4535, 366.3922
145.9356, 379.4735
146.4177, 392.3041
146.8998, 404.1528
147.3820, 415.6783
147.8641, 430.2621
148.3462, 449.3322
148.8283, 469.9277
149.3104, 490.6735
149.7925, 509.9618
150.2747, 531.3759
150.7568, 555.2685
151.2389, 581.4814
151.7210, 608.3095
152.2031, 636.7721
152.6852, 664.9548
153.1674, 691.9856
153.6495, 718.6631
154.1316, 743.0480
154.6137, 764.5691
155.0958, 783.1959
155.5779, 800.4994
156.0601, 816.8436
156.5422, 831.9036
157.0243, 845.2006
157.5064, 855.2241
157.9885, 864.8124
158.4706, 874.7382
158.9528, 885.0970
159.4349, 895.3343
159.9170, 903.9431
160.3991, 912.7567
160.8812, 923.8952
161.3633, 939.3018
161.8455, 956.0940
162.3276, 972.8719
162.8097, 988.9481
163.2918, 1006.682
163.7739, 1027.619
164.2560, 1049.465
164.7382, 1063.762
165.2203, 1077.163
165.7024, 1089.240
166.1845, 1098.075
166.6666, 1102.964
167.1487, 1106.542
167.6309, 1110.699
168.1130, 1114.718
168.5951, 1116.991
169.0772, 1115.990
169.5593, 1113.432
170.0414, 1110.617
170.5236, 1107.526
171.0057, 1104.748
171.4878, 1103.332
171.9699, 1102.691
172.4520, 1101.075
172.9341, 1096.776
173.4163, 1091.212
173.8984, 1086.027
174.3805, 1081.591
174.8626, 1077.526
175.3447, 1073.259
175.8268, 1068.874
176.3090, 1064.803
176.7911, 1061.820
177.2732, 1059.276
177.7553, 1056.049
178.2374, 1051.344
178.7195, 1046.374
179.2017, 1042.861
179.6838, 1040.641
180.1659, 1038.558
180.6480, 1035.319
181.1301, 1031.513
181.6122, 1028.415
182.0944, 1026.256
182.5765, 1025.085
183.0586, 1025.492
183.5407, 1027.450
184.0228, 1029.239
184.5049, 1028.855
184.9871, 1026.884
185.4692, 1025.448
185.9513, 1025.325
186.4334, 1026.109
186.9155, 1026.976
187.3976, 1027.936
187.8798, 1028.822
188.3619, 1029.774
188.8440, 1030.672
189.3261, 1030.588
189.8082, 1028.530
190.2903, 1025.263
190.7725, 1023.814
191.2546, 1024.432
191.7367, 1025.446
192.2188, 1024.768
192.7009, 1022.481
193.1830, 1020.302
193.6652, 1019.095
194.1473, 1018.610
194.6294, 1017.221
195.1115, 1014.737
195.5936, 1011.985
196.0757, 1009.862
196.5579, 1008.359
197.0400, 1007.666
197.5221, 1008.175
198.0042, 1009.784
198.4863, 1011.002
198.9684, 1011.833
199.4506, 1012.266
199.9327, 1011.986
200.4148, 1010.854
200.8969, 1010.253
201.3790, 1010.909
201.8611, 1012.862
202.3433, 1014.764
202.8254, 1016.720
203.3075, 1018.435
203.7896, 1019.202
204.2717, 1018.802
204.7538, 1018.503
205.2360, 1019.161
205.7181, 1021.018
206.2002, 1021.287
206.6823, 1019.364
207.1644, 1016.575
207.6465, 1015.520
208.1287, 1016.640
208.6108, 1017.987
209.0929, 1018.802
209.5750, 1019.077
210.0571, 1018.843
210.5392, 1017.777
211.0214, 1016.540
211.5035, 1016.694
211.9856, 1018.770
212.4677, 1020.818
212.9498, 1021.945
213.4319, 1021.960
213.9140, 1021.880
214.3962, 1021.769
214.8783, 1021.523
215.3604, 1020.655
215.8425, 1018.463
216.3246, 1017.160
216.8067, 1018.186
217.2889, 1022.692
217.7710, 1025.295
218.2531, 1025.099
218.7352, 1023.343
219.2173, 1023.099
219.6994, 1024.978
220.1816, 1027.169
220.6637, 1028.867
221.1458, 1029.842
221.6279, 1031.023
222.1100, 1032.551
222.5921, 1034.268
223.0743, 1035.868
223.5564, 1037.573
224.0385, 1038.808
224.5206, 1039.106
225.0027, 1037.778
225.4848, 1037.496
225.9670, 1038.700
226.4491, 1040.859
226.9312, 1042.461
227.4133, 1042.736
227.8954, 1043.691
228.3775, 1046.404
228.8597, 1051.929
229.3418, 1056.691
229.8239, 1060.603
230.3060, 1063.713
230.7881, 1065.926
231.2702, 1066.540
231.7524, 1067.291
232.2345, 1069.029
232.7166, 1072.425
233.1987, 1075.256
233.6808, 1077.429
234.1629, 1079.046
234.6451, 1080.524
235.1272, 1082.523
235.6093, 1083.434
236.0914, 1082.346
236.5735, 1078.030
237.0556, 1074.555
237.5378, 1071.736
238.0199, 1069.852
238.5020, 1069.694
238.9841, 1071.977
239.4662, 1074.969
239.9483, 1078.115
240.4305, 1081.887
240.9126, 1084.544
241.3947, 1085.484
241.8768, 1085.473
242.3589, 1086.342
242.8410, 1088.052
243.3232, 1090.639
243.8053, 1094.283
244.2874, 1099.789
244.7695, 1104.298
245.2516, 1107.179
245.7337, 1109.334
246.2159, 1112.856
246.6980, 1118.467
247.1801, 1124.344
247.6622, 1129.921
248.1443, 1135.346
248.6264, 1140.008
249.1086, 1143.252
249.5907, 1146.098
250.0728, 1150.701
250.5549, 1157.705
251.0370, 1165.391
251.5191, 1173.374
252.0013, 1182.014
252.4834, 1189.350
252.9655, 1194.595
253.4476, 1198.912
253.9297, 1204.348
254.4118, 1210.823
254.8940, 1218.426
255.3761, 1227.511
255.8582, 1238.776
256.3403, 1248.822
256.8224, 1257.280
257.3046, 1264.828
257.7867, 1272.385
258.2688, 1280.079
258.7509, 1287.704
259.2330, 1295.255
259.7151, 1302.923
260.1973, 1309.848
260.6794, 1316.031
261.1615, 1321.375
261.6436, 1325.439
262.1257, 1327.863
262.6078, 1330.019
263.0900, 1332.686
263.5721, 1336.185
264.0542, 1336.993
264.5363, 1334.426
265.0184, 1329.964
265.5005, 1325.475
265.9827, 1321.387
266.4648, 1316.089
266.9469, 1309.133
267.4290, 1300.535
267.9111, 1290.594
268.3932, 1278.776
268.8754, 1266.536
269.3575, 1255.621
269.8396, 1246.228
270.3217, 1237.078
270.8038, 1227.883
271.2859, 1218.592
271.7681, 1209.411
272.2502, 1199.952
272.7323, 1191.421
273.2144, 1185.780
273.6965, 1183.654
274.1786, 1180.843
274.6608, 1176.176
275.1429, 1169.985
275.6250, 1164.469
276.1071, 1159.665
276.5892, 1155.451
277.0714, 1151.836
277.5535, 1148.807
278.0356, 1146.347
278.5177, 1144.472
278.9998, 1143.167
279.4819, 1142.481
279.9641, 1142.529
280.4462, 1142.736
280.9283, 1142.474
281.4104, 1141.718
281.8925, 1141.664
282.3746, 1142.668
282.8568, 1144.363
283.3389, 1145.412
283.8210, 1145.623
284.3031, 1146.601
284.7852, 1149.881
285.2673, 1155.284
285.7495, 1160.210
286.2316, 1164.004
286.7137, 1167.604
287.1958, 1173.445
287.6779, 1181.591
288.1600, 1189.461
288.6422, 1194.787
289.1243, 1198.103
289.6064, 1202.885
290.0885, 1209.531
290.5706, 1217.563
291.0527, 1227.737
291.5349, 1239.746
292.0170, 1248.939
292.4991, 1251.193
292.9812, 1248.315
293.4633, 1247.185
293.9454, 1248.695
294.4276, 1249.742
294.9097, 1246.071
295.3918, 1238.204
295.8739, 1228.823
296.3560, 1219.183
296.8381, 1208.966
297.3203, 1197.383
297.8024, 1184.348
298.2845, 1171.000
298.7666, 1158.361
299.2487, 1146.453
299.7308, 1134.964
300.2130, 1123.282
300.6951, 1112.136
301.1772, 1102.571
301.6593, 1094.624
302.1414, 1088.065
302.6235, 1083.312
303.1057, 1079.848
303.5878, 1076.756
304.0699, 1073.811
304.5520, 1070.992
305.0341, 1068.313
305.5162, 1065.772
305.9984, 1063.192
306.4805, 1059.958
306.9626, 1056.747
307.4447, 1054.664
307.9268, 1054.584
308.4089, 1054.873
308.8911, 1053.936
309.3732, 1052.049
309.8553, 1050.380
310.3374, 1049.638
310.8195, 1049.426
311.3016, 1049.486
311.7838, 1050.087
312.2659, 1050.271
312.7480, 1048.944
313.2301, 1046.691
313.7122, 1044.917
314.1943, 1044.724
314.6765, 1044.969
315.1586, 1044.687
315.6407, 1043.438
316.1228, 1042.772
316.6049, 1044.377
317.0870, 1046.933
317.5692, 1048.249
318.0513, 1046.379
318.5334, 1044.024
319.0155, 1042.395
319.4976, 1041.608
319.9797, 1041.227
320.4619, 1041.454
320.9440, 1041.864
321.4261, 1041.980
321.9082, 1041.749
322.3903, 1041.134
322.8724, 1039.870
323.3546, 1037.941
323.8367, 1036.488
324.3188, 1035.474
324.8009, 1035.176
325.2830, 1035.820
325.7651, 1039.581
326.2473, 1041.944
326.7294, 1041.257
327.2115, 1038.058
327.6936, 1036.531
328.1757, 1039.140
328.6578, 1041.881
329.1400, 1042.753
329.6221, 1039.492
330.1042, 1037.429
330.5863, 1037.541
331.0684, 1038.881
331.5505, 1038.550
332.0327, 1034.316
332.5148, 1030.998
332.9969, 1030.710
333.4790, 1034.837
333.9611, 1038.207
334.4432, 1041.061
334.9254, 1043.008
335.4075, 1043.117
335.8896, 1040.303
336.3717, 1037.854
336.8538, 1036.880
337.3359, 1037.512
337.8180, 1038.296
338.3001, 1039.513
338.7823, 1040.475
339.2644, 1040.120
339.7465, 1038.018
340.2286, 1036.498
340.7107, 1036.187
341.1928, 1036.943
341.6750, 1038.056
342.1571, 1039.799
342.6392, 1040.924
343.1213, 1039.828
343.6034, 1036.461
344.0855, 1034.278
344.5677, 1034.121
345.0498, 1035.188
345.5319, 1035.501
346.0140, 1035.031
346.4961, 1034.647
346.9782, 1035.268
347.4604, 1036.586
347.9425, 1036.776
348.4246, 1035.351
348.9067, 1033.794
349.3888, 1034.817
349.8709, 1037.927
350.3531, 1040.341
350.8352, 1040.277
351.3173, 1038.667
351.7994, 1036.999
352.2815, 1035.280
352.7636, 1034.155
353.2458, 1034.795
353.7279, 1036.486
354.2100, 1037.676
354.6921, 1037.021
355.1742, 1036.074
355.6563, 1036.803
356.1385, 1039.032
356.6206, 1041.001
357.1027, 1040.995
357.5848, 1040.231
358.0669, 1040.212
358.5490, 1041.843
359.0312, 1043.530
359.5133, 1044.134
359.9954, 1043.942
360.4775, 1043.871
360.9596, 1044.305
361.4417, 1045.039
361.9239, 1046.083
362.4060, 1047.739
362.8881, 1048.806
363.3702, 1048.372
363.8523, 1047.152
364.3344, 1046.245
364.8166, 1045.541
365.2987, 1045.581
365.7808, 1046.977
366.2629, 1050.004
366.7450, 1052.245
367.2271, 1052.812
367.7093, 1052.702
368.1914, 1052.789
368.6735, 1053.599
369.1556, 1054.140
369.6377, 1054.292
370.1198, 1054.075
370.6020, 1053.539
371.0841, 1052.391
371.5662, 1051.196
372.0483, 1050.276
372.5304, 1049.804
373.0125, 1049.248
373.4947, 1048.523
373.9768, 1047.733
374.4589, 1047.181
374.9410, 1047.110
375.4231, 1046.770
375.9052, 1045.802
376.3874, 1044.109
376.8695, 1042.346
377.3516, 1040.095
377.8337, 1038.461
378.3158, 1039.298
378.7979, 1043.048
379.2801, 1046.004
379.7622, 1047.137
380.2443, 1046.700
380.7264, 1045.417
381.2085, 1043.087
381.6906, 1041.357
382.1728, 1042.376
382.6549, 1045.589
383.1370, 1047.298
383.6191, 1046.585
384.1012, 1044.645
384.5833, 1042.933
385.0655, 1041.552
385.5476, 1041.199
386.0297, 1043.077
386.5118, 1046.053
386.9939, 1047.910
387.4760, 1048.309
387.9582, 1048.674
388.4403, 1051.231
388.9224, 1054.740
389.4045, 1056.621
389.8866, 1054.212
390.3687, 1050.854
390.8509, 1049.301
391.3330, 1049.482
391.8151, 1050.300
392.2972, 1051.989
392.7793, 1053.593
393.2614, 1054.142
393.7436, 1052.734
394.2257, 1051.155
394.7078, 1049.911
395.1899, 1049.051
395.6720, 1048.708
396.1541, 1049.342
396.6363, 1050.184
397.1184, 1050.944
397.6005, 1051.690
398.0826, 1052.076
398.5647, 1051.600
399.0468, 1050.899
399.5290, 1050.743
400.0111, 1051.962
400.4932, 1052.878
400.9753, 1052.602
401.4574, 1051.150
401.9395, 1052.000
402.4217, 1057.100
402.9038, 1062.438
403.3859, 1065.112
403.8680, 1063.481
404.3501, 1063.165
404.8322, 1065.082
405.3144, 1068.280
405.7965, 1070.107
406.2786, 1070.228
406.7607, 1070.119
407.2428, 1070.049
407.7249, 1069.975
408.2071, 1072.027
408.6892, 1076.762
409.1713, 1081.999
409.6534, 1085.166
410.1355, 1086.291
410.6176, 1086.282
411.0998, 1085.027
411.5819, 1083.068
412.0640, 1081.715
412.5461, 1080.961
413.0282, 1080.290
413.5103, 1079.346
413.9925, 1078.209
414.4746, 1076.987
414.9567, 1075.633
415.4388, 1074.387
415.9209, 1073.532
416.4030, 1072.976
416.8852, 1072.470
417.3673, 1071.714
417.8494, 1071.080
418.3315, 1070.974
418.8136, 1071.426
419.2957, 1071.841
419.7779, 1071.764
420.2600, 1071.536
420.7421, 1071.497
421.2242, 1071.807
421.7063, 1072.274
422.1884, 1072.873
422.6706, 1073.596
423.1527, 1074.418
423.6348, 1075.434
424.1169, 1076.476
424.5990, 1077.487
425.0811, 1078.469
425.5633, 1079.415
426.0454, 1080.105
426.5275, 1080.856
427.0096, 1082.058
427.4917, 1083.538
427.9738, 1085.795
428.4560, 1089.456
428.9381, 1094.411
429.4202, 1097.266
429.9023, 1097.060
430.3844, 1096.452
430.8665, 1097.400
431.3487, 1100.144
431.8308, 1102.965
432.3129, 1105.750
432.7950, 1108.465
433.2771, 1110.922
433.7592, 1113.080
434.2414, 1115.312
434.7235, 1118.100
435.2056, 1121.129
435.6877, 1122.725
436.1698, 1122.736
436.6519, 1123.023
437.1341, 1125.859
437.6162, 1130.430
438.0983, 1134.596
438.5804, 1137.341
439.0625, 1140.079
439.5446, 1144.683
440.0268, 1150.760
440.5089, 1156.857
440.9910, 1161.218
441.4731, 1165.765
441.9552, 1172.604
442.4373, 1182.292
442.9195, 1192.151
443.4016, 1199.965
443.8837, 1207.453
444.3658, 1216.702
444.8479, 1228.504
445.3300, 1241.989
445.8122, 1257.412
446.2943, 1274.500
446.7764, 1292.118
447.2585, 1309.094
447.7406, 1327.310
448.2227, 1347.986
448.7049, 1372.450
449.1870, 1396.377
449.6691, 1418.797
450.1512, 1441.067
450.6333, 1464.739
451.1154, 1489.812
451.5976, 1516.683
452.0797, 1545.236
452.5618, 1575.556
453.0439, 1607.377
453.5260, 1639.863
454.0081, 1674.504
454.4903, 1711.807
454.9724, 1751.487
455.4545, 1796.609
455.9366, 1847.775
456.4187, 1903.174
456.9008, 1957.770
457.3830, 2012.833
457.8651, 2071.781
458.3472, 2137.927
458.8293, 2209.364
459.3114, 2286.341
459.7935, 2368.106
460.2757, 2448.614
460.7578, 2523.823
461.2399, 2593.601
461.7220, 2658.308
462.2041, 2722.397
462.6862, 2775.251
463.1684, 2813.118
463.6505, 2834.960
464.1326, 2837.354
464.6147, 2817.460
465.0968, 2778.948
465.5789, 2721.886
466.0611, 2645.252
466.5432, 2559.793
467.0253, 2462.749
467.5074, 2360.909
467.9895, 2260.336
468.4716, 2154.631
468.9538, 2056.811
469.4359, 1969.020
469.9180, 1890.362
470.4001, 1817.771
470.8822, 1752.110
471.3643, 1691.954
471.8465, 1636.804
472.3286, 1586.669
472.8107, 1541.656
473.2928, 1502.699
473.7749, 1467.888
474.2570, 1436.259
474.7392, 1407.807
475.2213, 1381.445
475.7034, 1356.719
476.1855, 1334.204
476.6676, 1315.763
477.1497, 1301.041
477.6319, 1287.523
478.1140, 1273.292
478.5961, 1259.228
479.0782, 1247.131
479.5603, 1237.223
480.0424, 1227.626
480.5246, 1215.899
481.0067, 1203.756
481.4888, 1193.615
481.9709, 1187.049
482.4530, 1181.623
482.9352, 1176.254
483.4173, 1171.040
483.8994, 1166.292
484.3815, 1162.590
484.8636, 1158.973
485.3457, 1154.789
485.8279, 1149.543
486.3100, 1145.348
486.7921, 1142.893
487.2742, 1141.299
487.7563, 1139.928
488.2384, 1139.890
488.7206, 1138.049
489.2027, 1133.364
489.6848, 1126.752
490.1669, 1121.454
490.6490, 1117.658
491.1311, 1114.766
491.6133, 1112.748
492.0954, 1111.584
492.5775, 1110.407
493.0596, 1109.256
493.5417, 1107.980
494.0238, 1106.268
494.5060, 1104.239
494.9881, 1102.468
495.4702, 1101.160
495.9523, 1100.103
496.4344, 1098.979
496.9165, 1097.850
497.3987, 1096.964
497.8808, 1097.097
498.3629, 1097.138
498.8450, 1095.936
499.3271, 1093.355
499.8092, 1090.339
500.2914, 1086.743
500.7735, 1083.239
501.2556, 1080.375
501.7377, 1078.907
502.2198, 1077.372
502.7019, 1075.228
503.1841, 1072.761
503.6662, 1070.742
504.1483, 1069.367
504.6304, 1068.295
505.1125, 1067.699
505.5946, 1067.711
506.0768, 1066.475
506.5589, 1063.072
507.0410, 1059.831
507.5231, 1059.028
508.0052, 1061.191
508.4873, 1062.357
508.9695, 1061.987
509.4516, 1060.598
509.9337, 1058.868
510.4158, 1056.827
510.8979, 1055.083
511.3800, 1053.941
511.8622, 1053.240
512.3443, 1052.684
512.8264, 1052.263
513.3085, 1051.834
513.7906, 1051.130
514.2728, 1050.406
514.7549, 1050.098
515.2370, 1050.491
515.7191, 1050.680
516.2012, 1049.997
516.6833, 1048.771
517.1655, 1047.495
517.6476, 1045.664
518.1297, 1044.485
518.6118, 1045.017
519.0939, 1047.024
519.5760, 1047.779
520.0582, 1045.506
520.5403, 1043.161
521.0224, 1042.112
521.5045, 1043.047
521.9866, 1043.134
522.4688, 1041.794
522.9509, 1040.225
523.4330, 1040.189
523.9151, 1042.135
524.3972, 1043.001
524.8793, 1041.730
525.3615, 1039.302
525.8436, 1038.482
526.3257, 1039.241
526.8078, 1039.872
527.2899, 1039.037
527.7720, 1037.418
528.2542, 1036.808
528.7363, 1037.330
529.2184, 1037.589
529.7005, 1035.805
530.1826, 1033.236
530.6647, 1031.637
531.1469, 1031.952
531.6290, 1032.602
532.1111, 1033.055
532.5932, 1033.193
533.0753, 1032.776
533.5574, 1031.003
534.0396, 1029.352
534.5217, 1028.262
535.0038, 1027.772
535.4859, 1027.708
535.9680, 1028.495
536.4501, 1029.260
536.9323, 1029.518
537.4144, 1029.213
537.8965, 1028.504
538.3786, 1027.266
538.8607, 1025.807
539.3428, 1024.386
539.8250, 1022.931
540.3071, 1022.508
540.7892, 1023.756
541.2713, 1025.979
541.7534, 1027.884
542.2355, 1029.398
542.7177, 1029.657
543.1998, 1026.977
543.6819, 1023.107
544.1640, 1020.995
544.6461, 1020.932
545.1282, 1020.886
545.6104, 1019.187
546.0925, 1016.821
546.5746, 1014.862
547.0567, 1013.345
547.5388, 1012.619
548.0209, 1012.867
548.5031, 1013.992
548.9852, 1015.782
549.4673, 1020.850
549.9494, 1023.725
550.4315, 1022.108
550.9136, 1016.028
551.3958, 1012.325
551.8779, 1011.859
552.3600, 1012.330
552.8421, 1012.431
553.3242, 1012.159
553.8063, 1011.503
554.2885, 1010.399
554.7706, 1009.090
555.2527, 1007.617
555.7348, 1006.105
556.2169, 1005.461
556.6990, 1006.538
557.1812, 1007.872
557.6633, 1006.749
558.1454, 1003.886
558.6275, 1001.976
559.1096, 1003.914
559.5917, 1006.529
560.0739, 1006.770
560.5560, 1004.389
561.0381, 1002.884
561.5202, 1004.922
562.0023, 1007.638
562.4844, 1008.871
562.9666, 1006.879
563.4487, 1005.560
563.9308, 1005.617
564.4129, 1006.237
564.8950, 1006.094
565.3771, 1004.612
565.8593, 1003.693
566.3414, 1004.009
566.8235, 1005.172
567.3056, 1005.392
567.7877, 1004.564
568.2698, 1003.485
568.7520, 1002.588
569.2341, 1001.824
569.7162, 1000.886
570.1983, 999.7498
570.6804, 998.8293
571.1625, 998.7145
571.6447, 999.0421
572.1268, 999.3090
572.6089, 999.6395
573.0910, 999.3834
573.5731, 997.7006
574.0552, 995.2279
574.5374, 993.0354
575.0195, 991.3477
575.5016, 990.1592
575.9837, 989.6913
576.4658, 989.8807
576.9479, 989.8497
577.4301, 989.3641
577.9122, 988.9193
578.3943, 988.6298
578.8764, 988.3969
579.3585, 989.1002
579.8406, 991.1572
580.3228, 993.2156
580.8049, 993.5806
581.2870, 992.3626
581.7691, 991.6674
582.2512, 991.8954
582.7333, 992.6559
583.2155, 993.6428
583.6975, 994.7001
584.1796, 995.4093
584.6617, 995.1618
585.1439, 994.7432
585.6260, 994.7708
586.1081, 995.2224
586.5902, 996.0028
587.0723, 998.3525
587.5544, 1000.008
588.0366, 999.2493
588.5187, 995.0830
589.0008, 992.1396
589.4829, 992.0672
589.9650, 992.6995
590.4471, 992.3665
590.9293, 990.2791
591.4114, 989.1572
591.8935, 989.4984
592.3756, 990.5364
592.8577, 990.8572
593.3398, 990.4189
593.8220, 990.0127
594.3041, 989.9927
594.7862, 990.0909
595.2683, 989.6844
595.7504, 988.8087
596.2325, 987.6964
596.7147, 985.9304
597.1968, 984.3177
597.6789, 984.0429
598.1610, 985.2162
598.6431, 986.2230
599.1252, 985.8264
599.6074, 985.0822
600.0895, 984.9246
600.5716, 986.2750
601.0537, 986.9108
601.5358, 985.6620
602.0179, 983.8539
602.5001, 983.2949
602.9822, 984.9560
603.4643, 985.8542
603.9464, 985.1215
604.4285, 983.4181
604.9106, 983.0314
605.3928, 984.0846
605.8749, 985.2469
606.3570, 985.6741
606.8391, 985.7069
607.3212, 986.8997
607.8033, 989.1713
608.2855, 990.7565
608.7676, 989.6747
609.2497, 987.3494
609.7318, 985.5365
610.2139, 984.5015
610.6960, 983.9171
611.1782, 984.1465
611.6603, 984.4936
612.1424, 984.2188
612.6245, 982.6207
613.1066, 981.0408
613.5887, 978.9859
614.0709, 977.1870
614.5530, 977.4039
615.0351, 981.0946
615.5172, 983.6568
615.9993, 983.6269
616.4814, 981.4770
616.9636, 979.5725
617.4457, 977.9036
617.9278, 976.7074
618.4099, 976.6155
