##NAMES=Sodalite
##RRUFFID=R060416
##IDEAL CHEMISTRY=Na_4_Si_3_Al_3_O_12_Cl
##LOCALITY=Koksha Valley, Badakshan Province, Afghanistan
##OWNER=RRUFF
##SOURCE=Herb Obodda
##DESCRIPTION=Colorless fragment
##STATUS=The identification of this mineral has been confirmed by X-ray diffraction and chemical analysis
##URL=rruff.info/R060416
##MEASURED CHEMISTRY=Na_8.00_Al_6.00_Si_6.00_O_24_Cl_2.00_
132.4972, 22.40429
132.9794, 23.21454
133.4615, 24.30354
133.9436, 24.81145
134.4257, 24.78462
134.9078, 24.82458
135.3899, 25.09298
135.8721, 25.41772
136.3542, 25.18497
136.8363, 24.26044
137.3184, 23.37282
137.8005, 23.18466
138.2826, 23.79429
138.7648, 24.36231
139.2469, 24.73067
139.7290, 24.93238
140.2111, 25.18429
140.6932, 25.49609
141.1753, 25.84419
141.6575, 26.19926
142.1396, 26.55395
142.6217, 26.94020
143.1038, 27.32832
143.5859, 27.71179
144.0681, 28.35162
144.5502, 29.47812
145.0323, 30.66121
145.5144, 31.36530
145.9965, 31.09811
146.4786, 31.11878
146.9608, 31.91799
147.4429, 33.89697
147.9250, 34.93204
148.4071, 34.15652
148.8892, 32.75957
149.3713, 32.52540
149.8535, 34.64003
150.3356, 36.74767
150.8177, 38.18012
151.2998, 38.50660
151.7819, 39.08387
152.2640, 39.98546
152.7462, 41.13309
153.2283, 42.37113
153.7104, 43.27384
154.1925, 44.60431
154.6746, 46.76900
155.1567, 50.73188
155.6389, 53.83422
156.1210, 55.19355
156.6031, 55.43717
157.0852, 56.13079
157.5673, 57.20347
158.0495, 59.06102
158.5316, 62.01698
159.0137, 67.07212
159.4958, 71.84926
159.9779, 75.36670
160.4600, 78.05213
160.9422, 81.30234
161.4243, 85.79678
161.9064, 90.89257
162.3885, 96.14050
162.8706, 101.4777
163.3527, 106.9847
163.8349, 113.1367
164.3170, 119.7020
164.7991, 125.5749
165.2812, 129.7011
165.7633, 133.1307
166.2454, 136.8655
166.7276, 143.1395
167.2097, 148.0389
167.6918, 149.1300
168.1739, 146.6273
168.6560, 142.4380
169.1381, 136.6388
169.6203, 130.0257
170.1024, 122.8072
170.5845, 115.5148
171.0666, 108.9789
171.5487, 103.4495
172.0309, 98.91757
172.5130, 95.42977
172.9951, 93.46757
173.4772, 92.48314
173.9593, 91.62697
174.4414, 90.89945
174.9236, 89.96976
175.4057, 88.22438
175.8878, 85.63682
176.3699, 83.28816
176.8520, 82.26118
177.3341, 82.12205
177.8163, 81.93475
178.2984, 81.64792
178.7805, 80.96858
179.2626, 79.19937
179.7447, 76.28723
180.2268, 73.20028
180.7090, 71.22161
181.1911, 69.96254
181.6732, 68.23514
182.1553, 64.84161
182.6374, 60.69768
183.1195, 57.96753
183.6017, 56.79957
184.0838, 56.24451
184.5659, 55.24690
185.0480, 53.88467
185.5301, 52.49720
186.0123, 51.05824
186.4944, 49.70133
186.9765, 49.07011
187.4586, 49.33134
187.9407, 49.74080
188.4228, 48.96384
188.9050, 47.14271
189.3871, 45.76380
189.8692, 46.10931
190.3513, 47.72516
190.8334, 48.15631
191.3155, 47.05141
191.7977, 45.36217
192.2798, 44.72564
192.7619, 45.13844
193.2440, 45.36900
193.7261, 44.44573
194.2082, 42.52917
194.6904, 41.55461
195.1725, 41.79148
195.6546, 42.65797
196.1367, 43.10366
196.6188, 43.10811
197.1009, 43.02542
197.5831, 43.16846
198.0652, 43.53640
198.5473, 43.28307
199.0294, 42.14720
199.5115, 40.67371
199.9937, 40.04858
200.4758, 40.38310
200.9579, 40.87388
201.4400, 41.09758
201.9221, 41.03640
202.4042, 40.91222
202.8864, 40.63228
203.3685, 40.39861
203.8506, 40.88063
204.3327, 42.31351
204.8148, 43.49231
205.2969, 43.56885
205.7791, 42.32990
206.2612, 41.52861
206.7433, 41.25090
207.2254, 41.47247
207.7075, 42.34364
208.1896, 44.20260
208.6718, 45.73521
209.1539, 46.10726
209.6360, 45.05959
210.1181, 44.18109
210.6002, 43.62397
211.0823, 43.25024
211.5645, 42.56615
212.0466, 41.30714
212.5287, 40.35991
213.0108, 40.31631
213.4929, 41.46200
213.9750, 42.39212
214.4572, 43.04043
214.9393, 43.42243
215.4214, 43.52299
215.9035, 43.14553
216.3856, 42.88708
216.8678, 43.13906
217.3499, 44.12807
217.8320, 44.86509
218.3141, 45.17288
218.7962, 45.23186
219.2783, 45.59706
219.7605, 46.29779
220.2426, 47.24170
220.7247, 48.50245
221.2068, 50.43294
221.6889, 51.60051
222.1710, 51.58505
222.6532, 50.84901
223.1353, 50.84900
223.6174, 51.81294
224.0995, 53.13280
224.5816, 54.61991
225.0637, 56.64388
225.5459, 57.89067
226.0280, 58.04470
226.5101, 57.46228
226.9922, 57.14402
227.4743, 56.87599
227.9564, 57.19629
228.4386, 58.52388
228.9207, 61.49381
229.4028, 63.87444
229.8849, 65.58162
230.3670, 66.69801
230.8492, 67.48320
231.3313, 67.88326
231.8134, 68.02451
232.2955, 67.81854
232.7776, 66.64152
233.2597, 66.66621
233.7419, 68.53828
234.2240, 71.44678
234.7061, 73.21938
235.1882, 73.50805
235.6703, 73.20306
236.1524, 72.57443
236.6346, 71.25227
237.1167, 70.48643
237.5988, 70.46846
238.0809, 70.92970
238.5630, 71.20562
239.0451, 70.97093
239.5273, 71.03654
240.0094, 71.75222
240.4915, 73.30563
240.9736, 75.06868
241.4557, 77.27402
241.9378, 79.59532
242.4200, 81.26308
242.9021, 81.71488
243.3842, 82.41563
243.8663, 83.97231
244.3484, 86.70383
244.8306, 89.35074
245.3127, 91.87125
245.7948, 94.30613
246.2769, 96.66734
246.7590, 98.69131
247.2411, 101.0458
247.7233, 104.0290
248.2054, 107.8503
248.6875, 111.5295
249.1696, 114.9550
249.6517, 118.2791
250.1338, 121.6808
250.6160, 125.0031
251.0981, 128.7054
251.5802, 132.9392
252.0623, 137.8138
252.5444, 142.7894
253.0265, 147.8379
253.5087, 152.9785
253.9908, 158.1089
254.4729, 163.1508
254.9550, 168.4089
255.4371, 174.0013
255.9192, 179.8972
256.4014, 185.9314
256.8835, 191.9896
257.3656, 198.3021
257.8477, 205.5186
258.3298, 214.3657
258.8120, 222.5166
259.2941, 229.3372
259.7762, 234.7755
260.2583, 240.2092
260.7404, 245.9122
261.2225, 251.3276
261.7047, 255.9166
262.1868, 259.3736
262.6689, 262.9084
263.1510, 267.3853
263.6331, 272.6690
264.1152, 274.9003
264.5974, 273.3972
265.0795, 269.8513
265.5616, 265.8770
266.0437, 261.5126
266.5258, 256.3731
267.0079, 250.2062
267.4901, 243.1040
267.9722, 236.4796
268.4543, 230.5841
268.9364, 224.5362
269.4185, 217.4457
269.9006, 209.0064
270.3828, 200.8560
270.8649, 193.0384
271.3470, 185.6666
271.8291, 179.1968
272.3112, 173.6921
272.7933, 168.7181
273.2755, 164.0264
273.7576, 159.6049
274.2397, 155.4532
274.7218, 151.5829
275.2039, 148.0069
275.6860, 144.8360
276.1682, 142.1106
276.6503, 139.5266
277.1324, 136.7264
277.6145, 133.6666
278.0966, 131.3335
278.5787, 129.8606
279.0609, 129.0946
279.5430, 128.8073
280.0251, 129.0670
280.5072, 129.4178
280.9893, 129.6165
281.4715, 129.6642
281.9536, 129.7003
282.4357, 129.6577
282.9178, 129.7454
283.3999, 130.3417
283.8820, 131.4582
284.3642, 132.8336
284.8463, 134.3293
285.3284, 135.9641
285.8105, 137.8956
286.2926, 140.1474
286.7747, 142.6370
287.2569, 145.1665
287.7390, 147.7478
288.2211, 150.7633
288.7032, 154.6026
289.1853, 159.0368
289.6674, 162.9507
290.1496, 166.2583
290.6317, 169.7279
291.1138, 174.6115
291.5959, 180.6753
292.0780, 186.1622
292.5602, 190.8848
293.0423, 194.5552
293.5244, 196.3985
294.0065, 196.3875
294.4886, 194.8883
294.9707, 192.3948
295.4529, 188.7083
295.9350, 183.1261
296.4171, 175.0454
296.8992, 165.2950
297.3813, 155.0072
297.8634, 144.2862
298.3456, 133.7508
298.8277, 123.8160
299.3098, 114.5120
299.7919, 105.9336
300.2740, 98.08793
300.7561, 91.11900
301.2383, 85.74300
301.7204, 81.68113
302.2025, 78.03860
302.6846, 74.12868
303.1667, 70.28017
303.6488, 66.91302
304.1310, 64.14798
304.6131, 61.79572
305.0952, 59.76197
305.5773, 58.03072
306.0594, 56.56520
306.5415, 55.44949
307.0237, 54.52655
307.5058, 53.64553
307.9879, 52.81023
308.4700, 51.92916
308.9521, 50.80260
309.4343, 49.59149
309.9164, 48.55284
310.3985, 47.90566
310.8806, 47.38961
311.3627, 46.73159
311.8448, 45.91005
312.3270, 45.32019
312.8091, 45.68596
313.2912, 46.26080
313.7733, 46.16294
314.2554, 44.28103
314.7375, 42.33823
315.2197, 41.09898
315.7018, 40.54546
316.1839, 40.55352
316.6660, 41.89158
317.1481, 43.34029
317.6302, 43.86587
318.1124, 42.52975
318.5945, 41.11276
319.0766, 40.14568
319.5587, 39.55866
320.0408, 39.08997
320.5229, 38.56920
321.0051, 38.20568
321.4872, 38.16588
321.9693, 38.77364
322.4514, 39.14274
322.9335, 38.99697
323.4156, 38.50105
323.8978, 37.97233
324.3799, 37.41073
324.8620, 36.87277
325.3441, 36.34085
325.8262, 35.74441
326.3083, 35.39135
326.7905, 35.62933
327.2726, 36.01852
327.7547, 36.01569
328.2368, 34.89439
328.7189, 34.11946
329.2010, 34.08886
329.6832, 34.88622
330.1653, 35.50322
330.6474, 36.06659
331.1295, 36.35786
331.6116, 36.14360
332.0938, 34.75468
332.5759, 33.93951
333.0580, 34.12153
333.5401, 35.14682
334.0222, 35.87526
334.5043, 36.33532
334.9865, 36.46988
335.4686, 36.24229
335.9507, 35.62112
336.4328, 34.61747
336.9149, 32.82382
337.3970, 30.83120
337.8792, 30.44565
338.3613, 32.20769
338.8434, 34.02801
339.3255, 35.01253
339.8076, 35.09231
340.2898, 34.79152
340.7719, 33.95824
341.2540, 33.00237
341.7361, 32.49579
342.2182, 32.46471
342.7003, 32.72990
343.1825, 33.42372
343.6646, 34.41896
344.1467, 34.66692
344.6288, 34.03287
345.1109, 33.34274
345.5930, 33.55382
346.0752, 34.57063
346.5573, 35.46238
347.0394, 36.05363
347.5215, 36.34669
348.0036, 36.26106
348.4857, 35.80418
348.9679, 35.30493
349.4500, 34.91726
349.9321, 34.67038
350.4142, 34.73730
350.8963, 35.28538
351.3784, 35.78987
351.8606, 35.36041
352.3427, 34.23326
352.8248, 33.26997
353.3069, 33.01085
353.7890, 33.19329
354.2711, 33.46060
354.7533, 33.77690
355.2354, 34.24258
355.7175, 35.20436
356.1996, 36.34359
356.6817, 37.10434
357.1638, 36.94887
357.6460, 36.54686
358.1281, 36.37948
358.6102, 36.44121
359.0923, 36.55973
359.5744, 36.86097
360.0565, 37.07245
360.5387, 36.89059
361.0208, 35.65755
361.5029, 34.73341
361.9850, 35.01094
362.4671, 36.13284
362.9492, 37.00019
363.4314, 37.02781
363.9135, 36.84658
364.3956, 36.79360
364.8777, 36.95002
365.3598, 37.15516
365.8419, 37.28814
366.3241, 37.46748
366.8062, 37.87162
367.2883, 38.87209
367.7704, 39.76521
368.2526, 40.33834
368.7347, 40.53559
369.2168, 40.71170
369.6989, 40.91889
370.1810, 41.08133
370.6631, 41.13540
371.1453, 41.01270
371.6274, 40.88591
372.1095, 40.81079
372.5916, 40.75972
373.0737, 40.57972
373.5558, 40.36408
374.0380, 39.88001
374.5201, 38.82252
375.0022, 36.76607
375.4843, 35.67093
375.9664, 35.96070
376.4485, 36.92611
376.9307, 37.04332
377.4128, 36.05709
377.8949, 35.30925
378.3770, 35.48798
378.8591, 36.52905
379.3412, 37.13525
379.8234, 37.23686
380.3055, 37.13147
380.7876, 37.21665
381.2697, 37.46762
381.7518, 37.39624
382.2339, 36.73754
382.7161, 35.78399
383.1982, 35.10701
383.6803, 34.71506
384.1624, 34.70144
384.6445, 35.58419
385.1266, 36.89125
385.6088, 37.30833
386.0909, 36.43060
386.5730, 35.28712
387.0551, 34.98694
387.5372, 35.38959
388.0193, 36.09685
388.5015, 37.29351
388.9836, 38.47668
389.4657, 39.03688
389.9478, 38.92810
390.4299, 38.66451
390.9120, 38.47351
391.3942, 38.36925
391.8763, 38.37117
392.3584, 38.38868
392.8405, 38.60655
393.3226, 39.34553
393.8047, 40.45110
394.2869, 41.21570
394.7690, 41.04167
395.2511, 40.66115
395.7332, 40.52934
396.2154, 40.82476
396.6975, 41.14552
397.1796, 41.30018
397.6617, 41.44758
398.1438, 41.85538
398.6259, 42.98335
399.1081, 43.96457
399.5902, 44.40623
400.0723, 44.15159
400.5544, 44.46273
401.0365, 45.91883
401.5186, 47.51247
402.0008, 48.34434
402.4829, 47.76752
402.9650, 47.67681
403.4471, 48.41802
403.9292, 49.80357
404.4113, 50.99995
404.8935, 51.89479
405.3756, 52.87355
405.8577, 54.03693
406.3398, 55.30610
406.8219, 57.39544
407.3040, 60.58753
407.7862, 64.08466
408.2683, 66.74188
408.7504, 68.53899
409.2325, 70.26406
409.7146, 72.54389
410.1967, 74.86375
410.6789, 75.60429
411.1610, 74.74857
411.6431, 72.82780
412.1252, 69.76755
412.6073, 65.97874
413.0894, 62.66936
413.5716, 60.21498
414.0537, 58.15718
414.5358, 55.65207
415.0179, 53.03543
415.5000, 51.32138
415.9821, 51.86404
416.4643, 53.17771
416.9464, 53.65678
417.4285, 53.12700
417.9106, 52.57774
418.3927, 52.73392
418.8748, 53.20403
419.3570, 53.52066
419.8391, 53.16050
420.3212, 52.97199
420.8033, 53.53045
421.2854, 54.64661
421.7675, 55.43877
422.2497, 55.09354
422.7318, 54.76136
423.2139, 55.09548
423.6960, 56.49731
424.1781, 57.84230
424.6602, 59.07685
425.1424, 60.16726
425.6245, 61.03953
426.1066, 61.41601
426.5887, 61.91431
427.0709, 62.65567
427.5530, 63.63969
428.0351, 64.77885
428.5172, 66.27312
428.9993, 67.66463
429.4814, 68.61719
429.9636, 69.05836
430.4457, 69.25473
430.9278, 69.00498
431.4099, 68.74162
431.8920, 69.55140
432.3741, 71.57030
432.8563, 73.66669
433.3384, 75.39275
433.8205, 76.77640
434.3026, 77.96006
434.7847, 78.95358
435.2668, 79.72446
435.7490, 79.90363
436.2311, 79.76449
436.7132, 80.31788
437.1953, 82.02248
437.6774, 84.26926
438.1595, 86.35151
438.6417, 88.30119
439.1238, 90.25050
439.6059, 92.07284
440.0880, 94.04118
440.5701, 96.33939
441.0522, 98.94754
441.5344, 102.2746
442.0165, 106.9766
442.4986, 112.4124
442.9807, 117.7748
443.4628, 122.3732
443.9449, 127.2642
444.4271, 132.5953
444.9092, 138.4645
445.3913, 145.4433
445.8734, 153.6273
446.3555, 162.8286
446.8376, 172.9253
447.3198, 183.8534
447.8019, 195.8499
448.2840, 208.7747
448.7661, 222.6984
449.2482, 237.7275
449.7303, 253.8835
450.2125, 270.8853
450.6946, 288.8372
451.1767, 307.3142
451.6588, 327.1117
452.1409, 346.7139
452.6230, 367.2253
453.1052, 388.7516
453.5873, 411.4505
454.0694, 435.5245
454.5515, 460.8237
455.0337, 487.7314
455.5158, 515.6946
455.9979, 545.0857
456.4800, 577.7594
456.9621, 615.6007
457.4442, 657.2766
457.9264, 699.6472
458.4085, 742.5955
458.8906, 788.5160
459.3727, 839.9363
459.8548, 895.1359
460.3369, 950.3776
460.8191, 1005.541
461.3012, 1060.557
461.7833, 1118.545
462.2654, 1176.430
462.7475, 1227.597
463.2296, 1274.478
463.7118, 1310.170
464.1939, 1332.240
464.6760, 1340.775
465.1581, 1332.136
465.6402, 1302.165
466.1223, 1256.522
466.6045, 1199.389
467.0866, 1123.330
467.5687, 1045.900
468.0508, 964.7922
468.5329, 882.8441
469.0150, 804.9686
469.4972, 730.7988
469.9793, 662.6693
470.4614, 602.1036
470.9435, 549.2249
471.4256, 501.7528
471.9077, 460.0377
472.3899, 423.0459
472.8720, 390.3372
473.3541, 361.6432
473.8362, 335.9807
474.3183, 313.1969
474.8004, 292.9754
475.2826, 275.0858
475.7647, 259.4487
476.2468, 244.9694
476.7289, 230.7254
477.2110, 217.2620
477.6931, 206.3732
478.1753, 198.0079
478.6574, 190.4656
479.1395, 182.4290
479.6216, 174.2970
480.1037, 166.6120
480.5858, 159.3528
481.0680, 152.8262
481.5501, 147.5225
482.0322, 143.0774
482.5143, 138.7822
482.9964, 134.0066
483.4786, 129.6244
483.9607, 126.3538
484.4428, 124.3761
484.9249, 121.7246
485.4070, 117.1586
485.8892, 112.3601
486.3713, 108.5176
486.8534, 105.8685
487.3355, 103.9289
487.8176, 103.1796
488.2997, 102.9726
488.7819, 101.7644
489.2640, 98.88218
489.7461, 96.52202
490.2282, 95.53353
490.7103, 95.81944
491.1924, 95.87672
491.6746, 95.68710
492.1567, 95.34363
492.6388, 94.89303
493.1209, 94.33961
493.6030, 93.71165
494.0851, 92.90833
494.5673, 92.29460
495.0494, 92.58395
495.5315, 93.56684
496.0136, 94.47607
496.4957, 95.16451
496.9778, 95.47267
497.4600, 95.09844
497.9421, 94.09745
498.4242, 93.01175
498.9063, 92.83759
499.3884, 92.33692
499.8705, 90.19958
500.3527, 85.40267
500.8348, 80.92020
501.3169, 77.97460
501.7990, 75.99801
502.2811, 74.17709
502.7632, 72.66509
503.2454, 71.01229
503.7275, 68.89451
504.2096, 66.40666
504.6917, 64.52987
505.1738, 63.64154
505.6559, 62.88003
506.1381, 61.71492
506.6202, 59.88134
507.1023, 58.76198
507.5844, 58.48790
508.0665, 58.69156
508.5486, 59.10310
509.0308, 59.73936
509.5129, 59.77431
509.9950, 58.80147
510.4771, 57.29386
510.9592, 56.13826
511.4413, 55.33875
511.9235, 54.87669
512.4056, 55.06815
512.8877, 55.46691
513.3698, 55.27598
513.8519, 54.39127
514.3340, 53.62415
514.8162, 53.68483
515.2983, 54.16086
515.7804, 54.55357
516.2625, 54.56144
516.7446, 54.65823
517.2267, 55.38813
517.7089, 56.36104
518.1910, 56.60425
518.6731, 55.11375
519.1552, 53.60826
519.6373, 52.76298
520.1194, 52.65555
520.6016, 52.31965
521.0837, 51.48003
521.5658, 50.72185
522.0479, 50.52045
522.5300, 51.06190
523.0121, 51.48659
523.4943, 51.72399
523.9764, 51.83741
524.4585, 51.98439
524.9406, 52.16827
525.4227, 52.13987
525.9048, 51.79218
526.3870, 51.17926
526.8691, 50.23642
527.3513, 49.00087
527.8334, 48.07953
528.3155, 48.13750
528.7976, 48.68925
529.2797, 49.00644
529.7618, 48.96251
530.2440, 48.92279
530.7261, 49.33089
531.2082, 49.83761
531.6903, 49.98926
532.1724, 49.35339
532.6545, 48.64465
533.1367, 48.08624
533.6188, 47.63763
534.1009, 47.12843
534.5830, 46.37013
535.0651, 45.71071
535.5472, 45.23862
536.0294, 44.93740
536.5115, 44.98146
536.9936, 45.66738
537.4757, 46.28511
537.9578, 46.06229
538.4399, 44.75969
538.9221, 44.23562
539.4042, 44.92140
539.8863, 46.03132
540.3684, 45.95234
540.8505, 44.80788
541.3326, 44.11280
541.8148, 45.01012
542.2969, 46.41952
542.7790, 46.19674
543.2611, 44.52272
543.7432, 42.84768
544.2253, 42.14743
544.7075, 41.94775
545.1896, 41.79388
545.6717, 41.62851
546.1538, 41.47935
546.6359, 41.33288
547.1180, 41.22068
547.6002, 41.17848
548.0823, 41.30222
548.5644, 41.39553
549.0465, 41.46505
549.5286, 41.48062
550.0107, 41.34889
550.4929, 40.97561
550.9750, 40.59811
551.4571, 40.31499
551.9392, 40.12573
552.4213, 39.74755
552.9034, 39.09003
553.3856, 38.51808
553.8677, 38.39466
554.3498, 38.67907
554.8319, 38.84824
555.3140, 38.81221
555.7961, 38.79504
556.2783, 39.32575
556.7604, 40.13627
557.2425, 40.43602
557.7246, 39.61750
558.2067, 38.49229
558.6888, 37.79012
559.1710, 37.43746
559.6531, 37.19784
560.1352, 37.01930
560.6173, 36.87304
561.0994, 36.80798
561.5815, 36.86198
562.0637, 36.67809
562.5458, 35.70115
563.0279, 34.78139
563.5100, 34.54995
563.9921, 35.61039
564.4742, 36.27419
564.9564, 36.29461
565.4385, 36.06474
565.9206, 36.38620
566.4027, 37.46511
566.8848, 37.99001
567.3669, 37.33450
567.8491, 35.98675
568.3312, 35.67226
568.8133, 36.35116
569.2954, 36.96083
569.7775, 36.68322
570.2596, 35.90718
570.7418, 35.30199
571.2239, 34.90231
571.7060, 34.66032
572.1881, 34.59494
572.6702, 34.64104
573.1523, 34.72994
573.6345, 34.85512
574.1166, 35.00118
574.5987, 35.16918
575.0808, 35.35147
575.5629, 35.53868
576.0450, 35.60659
576.5272, 35.82514
577.0093, 36.41771
577.4914, 37.26411
577.9735, 37.54598
578.4556, 37.09630
578.9377, 36.41709
579.4199, 35.54065
579.9020, 34.46096
580.3841, 34.53019
580.8662, 35.99540
581.3483, 37.29144
581.8304, 36.26601
582.3126, 33.67768
582.7947, 32.27256
583.2768, 32.77808
583.7589, 33.91540
584.2410, 34.58461
584.7231, 34.86387
585.2053, 34.90779
585.6874, 34.61733
586.1696, 34.26001
586.6517, 33.94953
587.1338, 33.68532
587.6159, 33.45895
588.0980, 32.96704
588.5801, 32.78037
589.0623, 33.35050
589.5444, 34.89223
590.0265, 35.67194
590.5086, 35.25861
590.9907, 34.63473
591.4728, 34.64106
591.9550, 35.43181
592.4371, 35.83953
592.9192, 35.72197
593.4013, 35.33360
593.8834, 34.95133
594.3655, 34.59460
594.8477, 34.38786
595.3298, 34.39659
595.8119, 34.54573
596.2940, 34.86864
596.7761, 35.27442
597.2582, 35.46798
597.7404, 35.06981
598.2225, 34.57428
598.7046, 34.23559
599.1867, 34.07772
599.6688, 34.25877
600.1509, 35.33828
600.6331, 36.40058
601.1152, 36.82571
601.5973, 36.26361
602.0794, 35.85917
602.5615, 35.61797
603.0436, 35.53278
603.5258, 35.57434
604.0079, 35.71165
604.4900, 36.21397
604.9721, 37.30434
605.4542, 38.51031
605.9363, 38.66192
606.4185, 37.89024
606.9006, 37.37765
607.3827, 37.96727
607.8648, 38.94170
608.3469, 39.25216
608.8290, 38.97886
609.3112, 38.55492
609.7933, 38.06266
610.2754, 37.63966
610.7575, 37.41963
611.2396, 37.44969
611.7217, 37.44659
612.2039, 37.43267
612.6860, 37.29274
613.1681, 36.92373
613.6502, 36.14191
614.1323, 35.45021
614.6144, 34.83058
615.0966, 34.32977
615.5787, 34.00777
616.0608, 33.87705
616.5429, 33.89802
617.0250, 34.16598
617.5071, 34.46149
617.9893, 34.13852
618.4714, 33.28352
618.9535, 32.58382
619.4356, 32.48391
619.9177, 32.68435
620.3998, 32.95402
620.8820, 33.24599
621.3641, 33.21046
621.8462, 32.24117
622.3283, 31.14896
622.8104, 30.52988
623.2925, 30.52026
623.7747, 30.70881
624.2568, 31.21983
624.7389, 31.77584
625.2210, 32.17430
625.7031, 32.48119
626.1852, 32.44445
626.6674, 31.90805
627.1495, 31.18736
627.6316, 30.75671
628.1137, 30.61635
628.5958, 30.83562
629.0779, 31.71856
629.5601, 32.64714
