##NAMES=Sodalite
##RRUFFID=R060436
##IDEAL CHEMISTRY=Na_4_Si_3_Al_3_O_12_Cl
##LOCALITY=Koksha Valley, Budakshan Province, Afghanistan
##OWNER=RRUFF
##SOURCE=Herb Obodda
##DESCRIPTION=Pale blue fragment
##STATUS=The identification of this mineral has been confirmed by X-ray diffraction and chemical analysis
##URL=rruff.info/R060436
##MEASURED CHEMISTRY=(Na_0.99_K_0.01_)_8_Al_6.00_Si_6.00_O_24_Cl_2.00_
134.4781, 181.4871
134.9602, 180.4990
135.4423, 180.2147
135.9244, 180.3436
136.4065, 180.5239
136.8886, 180.5278
137.3708, 180.3759
137.8529, 180.3599
138.3350, 180.6639
138.8171, 180.9284
139.2992, 181.1158
139.7813, 181.1994
140.2635, 181.0981
140.7456, 180.6781
141.2277, 179.8325
141.7098, 179.7792
142.1919, 180.7578
142.6740, 182.1364
143.1561, 183.6189
143.6383, 185.1682
144.1204, 186.8967
144.6025, 188.9750
145.0846, 191.4795
145.5667, 193.8071
146.0488, 196.2591
146.5310, 198.3723
147.0131, 199.6165
147.4952, 199.8611
147.9773, 199.4369
148.4594, 198.3878
148.9415, 196.8351
149.4237, 195.4464
149.9058, 194.5183
150.3879, 193.9422
150.8700, 193.3502
151.3521, 192.3561
151.8342, 191.8577
152.3164, 192.5745
152.7985, 194.4010
153.2806, 196.5769
153.7627, 198.5842
154.2448, 200.4228
154.7269, 202.2920
155.2091, 203.8199
155.6912, 205.7147
156.1733, 208.3388
156.6554, 211.7320
157.1375, 215.6918
157.6196, 219.8615
158.1018, 223.9013
158.5839, 229.2578
159.0660, 236.6155
159.5481, 244.7039
160.0302, 252.5543
160.5123, 259.9975
160.9945, 267.7521
161.4766, 277.1143
161.9587, 290.1599
162.4408, 301.8744
162.9229, 312.4687
163.4050, 321.7126
163.8871, 329.6449
164.3693, 336.2914
164.8514, 341.0427
165.3335, 342.2116
165.8156, 338.4692
166.2977, 333.0086
166.7798, 325.6694
167.2620, 316.8555
167.7441, 307.0005
168.2262, 296.1428
168.7083, 284.6981
169.1904, 273.8764
169.6725, 263.3224
170.1547, 253.7477
170.6368, 245.5760
171.1189, 238.6727
171.6010, 232.5776
172.0831, 227.0630
172.5652, 222.4061
173.0474, 218.7427
173.5295, 216.3109
174.0116, 214.4172
174.4937, 212.8153
174.9758, 211.5014
175.4579, 209.7918
175.9401, 206.9600
176.4222, 203.7709
176.9043, 201.0889
177.3864, 199.1469
177.8685, 197.5272
178.3506, 195.6955
178.8328, 193.5909
179.3149, 191.4771
179.7970, 189.2290
180.2791, 187.1015
180.7612, 185.4771
181.2433, 184.5696
181.7255, 183.8964
182.2076, 182.2990
182.6897, 178.9715
183.1718, 176.2026
183.6539, 174.6847
184.1360, 173.7675
184.6181, 172.7875
185.1003, 171.4131
185.5824, 169.8185
186.0645, 168.6511
186.5466, 168.4644
187.0287, 168.0410
187.5108, 166.9824
187.9930, 165.6687
188.4751, 164.6176
188.9572, 164.1377
189.4393, 164.0993
189.9214, 163.7814
190.4035, 162.6169
190.8857, 161.8051
191.3678, 161.8912
191.8499, 162.4626
192.3320, 162.7541
192.8141, 162.2597
193.2962, 161.1315
193.7784, 160.5644
194.2605, 161.0247
194.7426, 161.4050
195.2247, 161.2611
195.7068, 160.7178
196.1889, 160.1693
196.6711, 159.8724
197.1532, 159.7522
197.6353, 159.4247
198.1174, 158.4537
198.5995, 157.6859
199.0816, 157.7784
199.5638, 158.6059
200.0459, 159.3189
200.5280, 159.3772
201.0101, 158.9544
201.4922, 158.6459
201.9743, 158.3877
202.4565, 158.3325
202.9386, 158.7859
203.4207, 159.7701
203.9028, 160.5086
204.3849, 160.1500
204.8670, 159.4379
205.3492, 159.5538
205.8313, 161.2229
206.3134, 163.1264
206.7955, 163.4258
207.2776, 161.7595
207.7597, 160.1706
208.2419, 159.6374
208.7240, 159.6410
209.2061, 159.7897
209.6882, 160.0091
210.1703, 160.2159
210.6524, 160.1887
211.1346, 159.7202
211.6167, 159.5688
212.0988, 160.1110
212.5809, 160.9853
213.0630, 161.9283
213.5451, 162.8616
214.0273, 163.6840
214.5094, 164.1006
214.9915, 163.7485
215.4736, 163.6505
215.9557, 164.3976
216.4378, 165.2891
216.9200, 165.4869
217.4021, 164.5907
217.8842, 163.1460
218.3663, 162.7173
218.8484, 164.1392
219.3305, 165.4530
219.8127, 166.5307
220.2948, 167.3563
220.7769, 167.8431
221.2590, 167.9509
221.7411, 167.8623
222.2232, 168.1171
222.7054, 168.9770
223.1875, 169.9111
223.6696, 170.8486
224.1517, 171.8573
224.6338, 172.9633
225.1159, 174.1796
225.5980, 175.5863
226.0802, 177.4329
226.5623, 180.8415
227.0444, 183.3353
227.5265, 183.9352
228.0086, 183.7444
228.4907, 184.2416
228.9729, 186.0756
229.4550, 188.6649
229.9371, 190.4611
230.4192, 190.7759
230.9013, 191.4250
231.3834, 193.0112
231.8656, 195.0222
232.3477, 196.7805
232.8298, 198.0608
233.3119, 198.8423
233.7940, 198.8828
234.2761, 197.7611
234.7583, 197.0855
235.2404, 197.3499
235.7225, 198.3060
236.2046, 199.6864
236.6867, 201.5748
237.1688, 203.4372
237.6510, 204.0797
238.1331, 203.2423
238.6152, 202.9564
239.0973, 204.3109
239.5794, 206.6748
240.0615, 208.6452
240.5437, 209.7428
241.0258, 210.5891
241.5079, 211.9643
241.9900, 213.8300
242.4721, 215.9945
242.9542, 218.2134
243.4364, 220.6631
243.9185, 223.9935
244.4006, 228.7859
244.8827, 233.6282
245.3648, 237.0113
245.8469, 239.1107
246.3290, 240.9738
246.8112, 242.5939
247.2933, 244.3098
247.7754, 247.4113
248.2575, 252.7372
248.7396, 258.3416
249.2217, 262.5007
249.7039, 265.6024
250.1860, 268.9281
250.6681, 273.2679
251.1502, 278.3882
251.6323, 283.5111
252.1144, 288.5489
252.5966, 293.6418
253.0787, 298.6452
253.5608, 303.7232
254.0429, 309.3517
254.5250, 316.0374
255.0071, 323.4652
255.4893, 330.4420
255.9714, 336.6157
256.4535, 342.8596
256.9356, 349.5241
257.4177, 356.5009
257.8998, 363.7507
258.3820, 371.4784
258.8641, 379.3218
259.3462, 385.9359
259.8283, 390.7811
260.3104, 395.1755
260.7925, 399.9650
261.2747, 404.5910
261.7568, 408.4417
262.2389, 411.3673
262.7210, 413.1011
263.2031, 412.8118
263.6852, 409.8300
264.1674, 405.7342
264.6495, 401.0956
265.1316, 395.6996
265.6137, 389.2323
266.0958, 381.5412
266.5779, 372.9805
267.0601, 364.3443
267.5422, 355.5116
268.0243, 346.8917
268.5064, 338.4710
268.9885, 330.2797
269.4706, 322.4024
269.9528, 314.8607
270.4349, 307.6023
270.9170, 300.4143
271.3991, 292.7733
271.8812, 286.4408
272.3633, 282.2335
272.8455, 278.6949
273.3276, 274.7674
273.8097, 270.1761
274.2918, 265.3463
274.7739, 260.8326
275.2560, 256.3467
275.7382, 252.8953
276.2202, 251.0598
276.7024, 249.5825
277.1845, 247.6616
277.6666, 245.1906
278.1487, 242.5874
278.6308, 240.3731
279.1129, 238.7235
279.5951, 236.8687
280.0772, 234.1388
280.5593, 231.7937
281.0414, 230.4636
281.5235, 230.1659
282.0056, 230.6579
282.4878, 231.8593
282.9699, 234.0278
283.4520, 235.0142
283.9341, 233.2180
284.4162, 231.9613
284.8983, 232.7780
285.3805, 235.3223
285.8626, 238.4158
286.3447, 241.2026
286.8268, 243.6773
287.3089, 246.0929
287.7910, 247.1624
288.2732, 249.5215
288.7553, 254.5814
289.2374, 261.4554
289.7195, 268.5253
290.2016, 274.8747
290.6837, 280.5041
291.1659, 285.5268
291.6480, 289.8995
292.1301, 293.6850
292.6122, 297.3826
293.0943, 300.3669
293.5764, 301.8591
294.0586, 301.5150
294.5407, 299.3697
295.0228, 295.4927
295.5049, 289.2538
295.9870, 281.8771
296.4691, 272.8792
296.9513, 262.9864
297.4334, 252.6908
297.9155, 242.2381
298.3976, 231.9951
298.8797, 222.5961
299.3618, 214.1983
299.8440, 206.5608
300.3261, 199.5263
300.8082, 193.3765
301.2903, 188.5127
301.7724, 184.9460
302.2545, 181.9711
302.7367, 178.7236
303.2188, 175.0104
303.7009, 171.9092
304.1830, 169.4488
304.6651, 167.4885
305.1472, 166.3005
305.6294, 165.6732
306.1115, 164.7292
306.5936, 162.6042
307.0757, 159.1855
307.5578, 156.7607
308.0399, 155.7465
308.5221, 155.1060
309.0042, 154.6076
309.4863, 154.1356
309.9684, 153.4735
310.4505, 152.4446
310.9326, 151.1400
311.4148, 150.2426
311.8969, 150.2304
312.3790, 150.0054
312.8611, 149.0501
313.3432, 147.7585
313.8253, 146.7981
314.3075, 146.4910
314.7896, 146.5855
315.2717, 146.4366
315.7538, 145.8116
316.2359, 145.2784
316.7180, 144.7613
317.2001, 144.4102
317.6823, 144.5426
318.1644, 145.2273
318.6465, 145.9761
319.1286, 146.0364
319.6107, 145.0074
320.0928, 144.1915
320.5750, 143.6249
321.0571, 143.2327
321.5392, 143.1315
322.0213, 143.2479
322.5034, 143.1174
322.9855, 142.1719
323.4677, 140.1811
323.9498, 139.1302
324.4319, 139.8327
324.9140, 140.5640
325.3961, 140.1852
325.8782, 139.0276
326.3604, 138.3749
326.8425, 139.2805
327.3246, 141.4934
327.8067, 142.1136
328.2888, 139.5636
328.7709, 137.4537
329.2531, 136.9726
329.7352, 137.4924
330.2173, 137.9661
330.6994, 137.8997
331.1815, 137.4829
331.6636, 137.2249
332.1458, 137.1402
332.6279, 137.2177
333.1100, 137.8622
333.5921, 138.4694
334.0742, 138.2928
334.5563, 137.1700
335.0385, 135.7185
335.5206, 134.8246
336.0027, 134.6268
336.4848, 134.7184
336.9669, 135.6915
337.4490, 136.4644
337.9312, 135.9509
338.4133, 134.3556
338.8954, 133.0599
339.3775, 133.4971
339.8596, 135.9197
340.3417, 136.8802
340.8239, 134.8981
341.3060, 133.1959
341.7881, 133.1738
342.2702, 134.2950
342.7523, 135.3388
343.2344, 135.5478
343.7166, 135.0850
344.1987, 134.7384
344.6808, 134.4795
345.1629, 134.3906
345.6450, 134.5439
346.1271, 134.8475
346.6093, 135.2714
347.0914, 135.7884
347.5735, 136.2606
348.0556, 136.3932
348.5377, 135.8901
349.0198, 135.5793
349.5020, 135.8075
349.9841, 135.9507
350.4662, 135.2718
350.9483, 133.8896
351.4304, 132.7997
351.9125, 133.2431
352.3947, 135.5885
352.8768, 136.9904
353.3589, 136.5112
353.8410, 136.0279
354.3231, 136.2798
354.8052, 137.0395
355.2874, 137.7241
355.7695, 137.9370
356.2516, 137.7489
356.7337, 137.5536
357.2158, 137.1775
357.6979, 137.0518
358.1800, 137.6309
358.6621, 138.3238
359.1443, 138.2638
359.6264, 137.1260
360.1085, 135.7910
360.5906, 136.1307
361.0727, 139.3376
361.5548, 141.0691
362.0370, 139.6183
362.5191, 137.6261
363.0012, 136.6084
363.4833, 136.7318
363.9654, 137.3526
364.4475, 137.8923
364.9297, 138.3454
365.4118, 138.8120
365.8939, 139.4029
366.3760, 139.8742
366.8581, 139.9954
367.3402, 139.9321
367.8224, 140.0471
368.3045, 140.6403
368.7866, 141.4833
369.2687, 141.8676
369.7508, 141.6046
370.2329, 141.2858
370.7151, 141.3054
371.1972, 141.2847
371.6793, 140.7005
372.1614, 139.3364
372.6435, 137.9298
373.1256, 137.5588
373.6078, 138.3203
374.0899, 138.7246
374.5720, 138.2924
375.0541, 137.5293
375.5362, 136.6971
376.0183, 135.8369
376.5005, 135.1446
376.9826, 134.8126
377.4647, 134.7584
377.9468, 134.6722
378.4289, 134.5099
378.9110, 134.3721
379.3932, 134.3444
379.8753, 134.3854
380.3574, 134.4223
380.8395, 134.4223
381.3216, 134.4168
381.8037, 134.4858
382.2859, 134.6337
382.7680, 134.6566
383.2501, 134.4095
383.7322, 134.0157
384.2143, 133.6379
384.6964, 133.2279
385.1786, 133.0264
385.6607, 133.2884
386.1428, 133.8699
386.6249, 134.4161
387.1070, 134.8690
387.5891, 135.1994
388.0713, 135.2947
388.5534, 135.1803
389.0355, 135.1585
389.5176, 135.3138
389.9997, 135.5748
390.4818, 135.9567
390.9640, 136.4386
391.4461, 136.7202
391.9282, 136.4408
392.4103, 135.8147
392.8924, 135.9381
393.3745, 137.7016
393.8567, 139.1733
394.3388, 139.2651
394.8209, 138.5665
395.3030, 138.2587
395.7851, 138.8073
396.2672, 139.7507
396.7494, 140.2819
397.2315, 140.2273
397.7136, 140.1391
398.1957, 139.7756
398.6778, 139.5620
399.1599, 139.9256
399.6420, 140.8575
400.1241, 142.0068
400.6063, 143.1056
401.0884, 144.1663
401.5705, 144.8751
402.0526, 144.8291
402.5347, 144.9314
403.0168, 145.2604
403.4990, 145.9627
403.9811, 147.3245
404.4632, 149.4855
404.9453, 152.1444
405.4274, 154.5595
405.9095, 156.4581
406.3917, 158.5524
406.8738, 160.7827
407.3559, 163.2403
407.8380, 166.3739
408.3201, 169.9959
408.8022, 173.1787
409.2844, 175.1165
409.7665, 175.7993
410.2486, 175.1072
410.7307, 171.7641
411.2128, 168.3482
411.6949, 165.7443
412.1771, 163.5459
412.6592, 160.8911
413.1413, 157.2265
413.6234, 153.3171
414.1055, 150.9367
414.5876, 150.5609
415.0698, 150.2424
415.5519, 149.2954
416.0340, 148.4069
416.5161, 148.1112
416.9982, 148.4507
417.4803, 148.9883
417.9625, 149.2682
418.4446, 149.3766
418.9267, 150.0047
419.4088, 151.5229
419.8909, 152.9705
420.3730, 153.7621
420.8552, 154.0409
421.3373, 153.9978
421.8194, 153.3642
422.3015, 152.7800
422.7836, 153.1890
423.2657, 154.5765
423.7479, 155.7718
424.2300, 156.0329
424.7121, 156.1190
425.1942, 157.3155
425.6763, 159.8563
426.1584, 162.2437
426.6406, 163.8006
427.1227, 164.8024
427.6048, 165.5727
428.0869, 166.1418
428.5690, 166.8785
429.0511, 168.1568
429.5333, 169.9998
430.0154, 171.7939
430.4975, 173.3725
430.9796, 175.0602
431.4617, 177.2050
431.9438, 179.6040
432.4260, 181.7380
432.9081, 183.3378
433.3902, 184.5753
433.8723, 185.8215
434.3544, 186.7067
434.8365, 188.2487
435.3187, 190.7045
435.8008, 193.6802
436.2829, 196.9761
436.7650, 200.4908
437.2471, 204.0246
437.7292, 207.3452
438.2114, 210.4485
438.6935, 214.0029
439.1756, 217.5981
439.6577, 222.1389
440.1398, 228.0050
440.6219, 234.8869
441.1040, 242.3130
441.5862, 250.0564
442.0683, 258.3458
442.5504, 267.4995
443.0325, 277.5635
443.5146, 288.4612
443.9967, 300.0823
444.4789, 312.6163
444.9610, 326.4043
445.4431, 341.2023
445.9252, 356.4947
446.4073, 372.0077
446.8894, 387.5767
447.3716, 402.5043
447.8537, 416.5885
448.3358, 430.4978
448.8179, 444.1037
449.3000, 457.9431
449.7821, 472.5639
450.2643, 488.0026
450.7464, 504.6135
451.2285, 522.3224
451.7106, 541.3572
452.1927, 562.2977
452.6748, 584.9824
453.1570, 609.9520
453.6391, 637.5618
454.1212, 667.6776
454.6033, 701.5483
455.0854, 739.2703
455.5675, 780.8172
456.0497, 825.7756
456.5318, 874.3079
457.0139, 928.6663
457.4960, 990.6375
457.9781, 1058.489
458.4602, 1128.799
458.9424, 1205.035
459.4245, 1276.291
459.9066, 1339.021
460.3887, 1396.523
460.8708, 1453.591
461.3529, 1510.213
461.8351, 1561.753
462.3172, 1606.021
462.7993, 1643.334
463.2814, 1653.466
463.7635, 1629.719
464.2456, 1588.733
464.7278, 1529.695
465.2099, 1457.072
465.6920, 1374.195
466.1741, 1282.322
466.6562, 1186.989
467.1383, 1096.685
467.6205, 1009.931
468.1026, 930.6122
468.5847, 860.9744
469.0668, 796.9875
469.5489, 737.2410
470.0310, 681.9197
470.5132, 632.6998
470.9953, 591.0490
471.4774, 555.6453
471.9595, 523.4301
472.4416, 494.6894
472.9237, 468.2168
473.4059, 444.2263
473.8880, 422.2177
474.3701, 401.7525
474.8522, 382.8943
475.3343, 365.8695
475.8164, 351.3589
476.2986, 338.8696
476.7807, 326.9590
477.2628, 315.4474
477.7449, 304.9308
478.2270, 296.1118
478.7091, 288.7470
479.1913, 281.6556
479.6734, 274.6513
480.1555, 268.0640
480.6376, 262.1872
481.1197, 256.8434
481.6018, 251.4966
482.0839, 245.9348
482.5660, 240.8075
483.0482, 237.0867
483.5303, 235.2910
484.0124, 233.1651
484.4945, 230.4177
484.9766, 227.6412
485.4587, 225.2585
485.9409, 223.0944
486.4230, 220.6065
486.9051, 217.4424
487.3872, 213.9776
487.8693, 211.4161
488.3514, 210.6338
488.8336, 209.0561
489.3157, 205.6572
489.7978, 202.1959
490.2799, 199.9398
490.7620, 198.8407
491.2441, 197.9795
491.7263, 196.4753
492.2084, 194.6132
492.6905, 193.8833
493.1726, 194.7077
493.6547, 195.6547
494.1368, 196.2880
494.6190, 196.6717
495.1011, 196.8329
495.5832, 196.7690
496.0653, 196.5426
496.5474, 196.4453
497.0295, 196.2328
497.5117, 195.1460
497.9938, 193.0335
498.4759, 190.1737
498.9580, 186.4026
499.4401, 181.9444
499.9222, 178.0591
500.4044, 175.2182
500.8865, 172.5461
501.3686, 169.4380
501.8507, 166.1746
502.3328, 163.3061
502.8149, 161.0336
503.2971, 159.1159
503.7792, 157.1895
504.2613, 155.0885
504.7434, 153.6025
505.2255, 152.9617
505.7076, 152.6362
506.1898, 152.7738
506.6719, 152.9884
507.1540, 152.4788
507.6361, 150.7891
508.1182, 148.5243
508.6003, 147.1333
509.0825, 146.9554
509.5646, 146.7396
510.0467, 146.2586
510.5288, 145.8029
511.0109, 145.7082
511.4930, 145.8192
511.9752, 145.5479
512.4573, 144.2486
512.9394, 142.4984
513.4215, 141.7768
513.9036, 142.2755
514.3857, 142.5676
514.8679, 142.0119
515.3500, 141.0328
515.8321, 140.1021
516.3142, 139.1968
516.7963, 138.6413
517.2784, 138.9848
517.7606, 139.5680
518.2427, 139.3017
518.7248, 138.1404
519.2069, 137.1090
519.6890, 136.9553
520.1711, 137.4587
520.6533, 137.5193
521.1354, 136.8479
521.6175, 136.1964
522.0996, 135.5746
522.5817, 135.0950
523.0638, 134.9969
523.5460, 135.2459
524.0281, 135.4477
524.5102, 135.2029
524.9923, 134.5281
525.4744, 133.9440
525.9565, 133.2850
526.4387, 132.9689
526.9208, 133.2192
527.4029, 133.7590
527.8850, 134.5189
528.3671, 135.4283
528.8492, 135.8657
529.3314, 134.8635
529.8135, 132.6093
530.2956, 130.9803
530.7777, 130.3153
531.2598, 129.7993
531.7419, 128.8192
532.2241, 127.6779
532.7062, 126.8356
533.1883, 126.3218
533.6704, 126.2363
534.1525, 126.9735
534.6346, 128.1571
535.1168, 128.9411
535.5989, 129.1375
536.0810, 128.8608
536.5631, 128.1112
537.0452, 126.8570
537.5273, 125.9758
538.0095, 125.5838
538.4916, 125.3941
538.9737, 125.4957
539.4558, 125.6665
539.9379, 125.5122
540.4200, 124.9311
540.9022, 124.3014
541.3843, 124.2377
541.8664, 124.9414
542.3485, 125.0644
542.8306, 123.9015
543.3127, 122.9082
543.7948, 122.6415
544.2769, 122.8081
544.7590, 123.0043
545.2411, 123.1112
545.7233, 123.0113
546.2054, 122.2960
546.6875, 121.0462
547.1696, 120.6171
547.6517, 121.5646
548.1339, 122.6944
548.6160, 123.0422
549.0981, 122.7776
549.5802, 122.2761
550.0623, 121.2449
550.5444, 120.3798
551.0266, 120.3191
551.5087, 120.7453
551.9908, 120.8628
552.4729, 120.4180
552.9550, 119.9044
553.4371, 119.9910
553.9193, 120.8586
554.4014, 121.2147
554.8835, 120.8164
555.3656, 120.2580
555.8477, 119.6588
556.3298, 119.0668
556.8120, 118.4604
557.2941, 117.8430
557.7762, 117.4271
558.2583, 117.5791
558.7404, 118.3697
559.2225, 119.1779
559.7047, 120.4620
560.1868, 121.0861
560.6689, 120.2260
561.1510, 118.5083
561.6331, 116.9244
562.1152, 115.6990
562.5974, 114.8930
563.0795, 114.7584
563.5616, 115.1178
564.0437, 115.3139
564.5258, 115.1959
565.0079, 115.0084
565.4901, 115.0219
565.9722, 115.2070
566.4543, 115.0953
566.9364, 114.1252
567.4185, 113.5014
567.9006, 114.0380
568.3828, 115.0654
568.8649, 115.6524
569.3470, 115.5531
569.8291, 115.0764
570.3112, 114.4951
570.7933, 113.7728
571.2755, 113.6057
571.7576, 114.9857
572.2397, 115.6529
572.7218, 114.2732
573.2039, 112.3206
573.6860, 111.5497
574.1682, 112.3751
574.6503, 113.6423
575.1324, 114.4274
575.6145, 114.7581
576.0966, 114.6297
576.5787, 113.8784
577.0609, 113.3258
577.5430, 113.6654
578.0251, 114.4987
578.5072, 114.8202
578.9893, 114.3325
579.4714, 113.9604
579.9536, 114.2476
580.4357, 114.7440
580.9178, 114.9583
581.3999, 114.8089
581.8820, 114.2830
582.3641, 113.2633
582.8463, 111.9497
583.3284, 111.5115
583.8105, 112.7206
584.2926, 113.7188
584.7747, 114.3159
585.2568, 114.7049
585.7390, 114.9137
586.2211, 115.0323
586.7032, 115.3447
587.1853, 116.2653
587.6674, 117.3720
588.1495, 117.2353
588.6317, 115.5533
589.1138, 114.5328
589.5959, 115.1909
590.0780, 116.5449
590.5601, 117.5075
591.0422, 118.0872
591.5244, 118.3997
592.0065, 118.1023
592.4886, 117.8455
592.9707, 118.3654
593.4528, 119.4640
593.9349, 120.4814
594.4171, 121.1471
594.8992, 121.4042
595.3813, 121.0779
595.8634, 119.7643
596.3455, 119.0738
596.8276, 119.3529
597.3098, 119.7965
597.7919, 120.2219
598.2740, 120.5401
598.7561, 120.5791
599.2382, 120.2523
599.7203, 119.9418
600.2025, 120.2110
600.6846, 121.0456
601.1667, 121.9599
601.6488, 123.1720
602.1309, 123.9183
602.6130, 123.1534
603.0952, 121.6109
603.5773, 120.8318
604.0594, 121.4171
604.5415, 122.0107
605.0236, 121.8073
605.5057, 121.2162
605.9879, 120.9091
606.4700, 120.9721
606.9521, 121.0047
607.4342, 120.6736
607.9163, 120.0215
608.3984, 119.3641
608.8806, 118.6949
609.3627, 118.0305
609.8448, 117.4877
610.3269, 116.8632
610.8090, 115.8814
611.2911, 114.6236
611.7733, 113.4904
612.2554, 112.7247
612.7375, 112.3023
613.2196, 112.2860
613.7017, 112.7357
614.1838, 112.9071
614.6660, 112.3410
615.1481, 111.6935
615.6302, 111.9448
616.1123, 113.0162
616.5944, 113.5389
617.0765, 113.0197
617.5587, 112.0731
618.0408, 110.7331
618.5229, 109.3306
619.0050, 108.6774
619.4871, 109.0389
619.9692, 109.6209
620.4514, 109.2636
620.9335, 107.7440
621.4156, 106.9830
621.8977, 107.7816
622.3798, 108.4115
622.8619, 108.1940
623.3441, 107.6950
623.8262, 107.6871
624.3083, 108.3341
624.7904, 108.8702
625.2725, 108.4756
625.7546, 107.4896
626.2367, 106.9035
626.7188, 106.8044
627.2009, 106.6127
627.6830, 105.9138
628.1652, 105.0207
628.6473, 104.6736
629.1294, 104.9613
629.6115, 105.3743
630.0936, 106.0608
630.5757, 106.6593
631.0579, 106.9662
