##NAMES=Soddyite
##RRUFFID=R060361
##IDEAL CHEMISTRY=(U^6+^O_2_)_2_SiO_4_&#183;2H_2_O
##LOCALITY=Musonoi Extension, near Kolwezi, Shaba Province, Zaire
##OWNER=RRUFF
##SOURCE=Michael Scott
##DESCRIPTION=Yellow pyramidal crystals associated with light green malachite and dark green brochantite
##STATUS=The identification of this mineral has been confirmed by single-crystal X-ray diffraction.
##URL=rruff.info/R060361
90.49219, 186.8236
90.97430, 188.0293
91.45642, 188.4643
91.93854, 186.7813
92.42065, 184.7264
92.90277, 185.3472
93.38489, 189.2917
93.86700, 193.8352
94.34912, 195.6423
94.83124, 195.0332
95.31335, 193.7689
95.79547, 192.5345
96.27759, 191.4314
96.75970, 190.7395
97.24182, 190.3356
97.72394, 190.5658
98.20605, 192.6989
98.68817, 196.9891
99.17029, 201.1869
99.65240, 203.5263
100.1345, 203.9199
100.6166, 203.6933
101.0988, 202.7011
101.5809, 201.1767
102.0630, 201.1772
102.5451, 203.0959
103.0272, 205.8375
103.5093, 208.3346
103.9915, 210.6214
104.4736, 212.5117
104.9557, 213.8745
105.4378, 214.6172
105.9199, 215.3473
106.4020, 216.0895
106.8842, 216.8106
107.3663, 217.4508
107.8484, 217.7945
108.3305, 218.3013
108.8126, 219.1503
109.2947, 220.6702
109.7769, 221.9833
110.2590, 222.6628
110.7411, 223.0660
111.2232, 224.2840
111.7053, 227.5988
112.1874, 230.8457
112.6696, 233.0260
113.1517, 233.1173
113.6338, 233.1386
114.1159, 233.2139
114.5980, 233.3751
115.0801, 233.8484
115.5623, 234.2239
116.0444, 235.1544
116.5265, 237.1350
117.0086, 241.8921
117.4907, 246.3481
117.9728, 249.1206
118.4550, 250.1233
118.9371, 251.1313
119.4192, 252.8821
119.9013, 255.1105
120.3834, 257.4525
120.8655, 260.2288
121.3477, 262.7811
121.8298, 264.2929
122.3119, 264.4551
122.7940, 265.0341
123.2761, 266.7223
123.7582, 269.7159
124.2404, 274.4518
124.7225, 282.8289
125.2046, 292.5365
125.6867, 300.0464
126.1688, 303.8225
126.6509, 307.9749
127.1331, 316.8739
127.6152, 330.1039
128.0973, 345.5975
128.5794, 361.8027
129.0615, 379.2173
129.5436, 398.9481
130.0258, 421.1468
130.5079, 445.8885
130.9900, 473.4282
131.4721, 503.5294
131.9542, 537.4950
132.4363, 575.7849
132.9185, 618.5679
133.4006, 666.8585
133.8827, 720.6882
134.3648, 779.9050
134.8469, 846.8693
135.3290, 921.0547
135.8112, 1005.708
136.2933, 1102.429
136.7754, 1211.441
137.2575, 1334.817
137.7396, 1476.262
138.2217, 1633.058
138.7039, 1797.565
139.1860, 1972.149
139.6681, 2151.163
140.1502, 2330.242
140.6323, 2507.788
141.1144, 2684.879
141.5966, 2863.704
142.0787, 3045.489
142.5608, 3219.177
143.0429, 3383.647
143.5250, 3540.324
144.0071, 3689.315
144.4893, 3821.383
144.9714, 3958.703
145.4535, 4109.369
145.9356, 4278.508
146.4177, 4453.560
146.8998, 4631.523
147.3820, 4815.208
147.8641, 5025.098
148.3462, 5269.106
148.8283, 5529.170
149.3104, 5798.884
149.7925, 6078.333
150.2747, 6365.651
150.7568, 6659.832
151.2389, 6960.117
151.7210, 7257.622
152.2031, 7554.713
152.6852, 7844.599
153.1674, 8126.349
153.6495, 8400.545
154.1316, 8663.216
154.6137, 8913.546
155.0958, 9151.491
155.5779, 9378.761
156.0601, 9589.818
156.5422, 9793.393
157.0243, 9994.445
157.5064, 10191.67
157.9885, 10388.65
158.4706, 10586.39
158.9528, 10785.05
159.4349, 10983.69
159.9170, 11176.53
160.3991, 11370.85
160.8812, 11575.05
161.3633, 11795.19
161.8455, 12022.81
162.3276, 12254.81
162.8097, 12487.02
163.2918, 12727.56
163.7739, 12982.93
164.2560, 13232.00
164.7382, 13380.78
165.2203, 13490.37
165.7024, 13598.67
166.1845, 13712.31
166.6666, 13835.47
167.1487, 13954.87
167.6309, 14067.81
168.1130, 14173.58
168.5951, 14268.45
169.0772, 14348.88
169.5593, 14420.21
170.0414, 14486.92
170.5236, 14550.46
171.0057, 14608.63
171.4878, 14660.41
171.9699, 14706.35
172.4520, 14747.01
172.9341, 14780.90
173.4163, 14810.79
173.8984, 14839.12
174.3805, 14864.20
174.8626, 14891.25
175.3447, 14926.60
175.8268, 14969.06
176.3090, 15013.94
176.7911, 15057.75
177.2732, 15101.40
177.7553, 15146.06
178.2374, 15191.82
178.7195, 15238.85
179.2017, 15287.32
179.6838, 15337.57
180.1659, 15389.27
180.6480, 15442.82
181.1301, 15497.81
181.6122, 15554.85
182.0944, 15615.22
182.5765, 15676.68
183.0586, 15737.29
183.5407, 15796.04
184.0228, 15854.00
184.5049, 15911.85
184.9871, 15969.42
185.4692, 16023.66
185.9513, 16073.75
186.4334, 16120.21
186.9155, 16165.29
187.3976, 16208.78
187.8798, 16251.24
188.3619, 16292.16
188.8440, 16332.30
189.3261, 16374.04
189.8082, 16420.73
190.2903, 16469.88
190.7725, 16513.35
191.2546, 16551.61
191.7367, 16584.69
192.2188, 16611.05
192.7009, 16631.26
193.1830, 16652.79
193.6652, 16679.06
194.1473, 16709.36
194.6294, 16738.86
195.1115, 16768.29
195.5936, 16794.55
196.0757, 16810.61
196.5579, 16816.00
197.0400, 16825.35
197.5221, 16846.28
198.0042, 16877.82
198.4863, 16905.54
198.9684, 16927.53
199.4506, 16949.96
199.9327, 16983.54
200.4148, 17029.80
200.8969, 17074.35
201.3790, 17109.12
201.8611, 17133.25
202.3433, 17167.04
202.8254, 17212.79
203.3075, 17264.10
203.7896, 17309.74
204.2717, 17349.06
204.7538, 17385.84
205.2360, 17420.82
205.7181, 17453.51
206.2002, 17486.87
206.6823, 17520.17
207.1644, 17554.78
207.6465, 17594.76
208.1287, 17641.91
208.6108, 17687.25
209.0929, 17726.33
209.5750, 17758.25
210.0571, 17790.71
210.5392, 17823.47
211.0214, 17858.06
211.5035, 17897.68
211.9856, 17942.66
212.4677, 17991.63
212.9498, 18044.06
213.4319, 18099.26
213.9141, 18159.89
214.3962, 18228.20
214.8783, 18300.65
215.3604, 18367.67
215.8425, 18428.21
216.3246, 18486.27
216.8067, 18544.74
217.2889, 18604.34
217.7710, 18658.98
218.2531, 18709.33
218.7352, 18753.61
219.2173, 18789.43
219.6994, 18817.49
220.1816, 18835.26
220.6637, 18839.88
221.1458, 18824.94
221.6279, 18816.14
222.1100, 18817.43
222.5921, 18824.02
223.0743, 18822.36
223.5564, 18808.49
224.0385, 18794.40
224.5206, 18786.72
225.0027, 18789.38
225.4848, 18787.94
225.9670, 18777.95
226.4491, 18765.48
226.9312, 18767.51
227.4133, 18791.93
227.8954, 18818.03
228.3775, 18834.26
228.8597, 18832.29
229.3418, 18841.02
229.8239, 18864.85
230.3060, 18897.68
230.7881, 18921.18
231.2702, 18926.39
231.7524, 18935.05
232.2345, 18958.70
232.7166, 19009.87
233.1987, 19046.04
233.6808, 19060.95
234.1629, 19062.29
234.6451, 19070.62
235.1272, 19088.57
235.6093, 19110.44
236.0914, 19135.30
236.5735, 19169.08
237.0556, 19193.55
237.5378, 19205.36
238.0199, 19209.71
238.5020, 19218.82
238.9841, 19233.35
239.4662, 19252.55
239.9483, 19275.92
240.4305, 19301.77
240.9126, 19335.54
241.3947, 19381.03
241.8768, 19432.85
242.3589, 19478.12
242.8410, 19515.29
243.3232, 19547.36
243.8053, 19574.12
244.2874, 19591.52
244.7695, 19613.05
245.2516, 19640.44
245.7337, 19671.33
246.2159, 19699.78
246.6980, 19721.55
247.1801, 19748.08
247.6622, 19786.45
248.1443, 19846.18
248.6264, 19891.29
249.1086, 19916.43
249.5907, 19930.21
250.0728, 19949.56
250.5549, 19974.57
251.0370, 20004.92
251.5191, 20041.65
252.0013, 20086.95
252.4834, 20129.06
252.9655, 20165.43
253.4476, 20199.20
253.9297, 20236.66
254.4118, 20280.11
254.8940, 20321.53
255.3761, 20357.40
255.8582, 20386.15
256.3403, 20416.41
256.8224, 20449.60
257.3046, 20483.44
257.7867, 20514.25
258.2688, 20544.48
258.7509, 20567.78
259.2330, 20580.25
259.7151, 20579.74
260.1973, 20583.97
260.6794, 20593.93
261.1615, 20608.19
261.6436, 20624.85
262.1257, 20645.12
262.6078, 20664.96
263.0900, 20680.54
263.5721, 20690.12
264.0542, 20713.44
264.5363, 20754.81
265.0184, 20804.37
265.5005, 20851.19
265.9827, 20893.60
266.4648, 20936.00
266.9469, 20979.05
267.4290, 21022.43
267.9111, 21067.39
268.3932, 21116.94
268.8754, 21162.63
269.3575, 21191.98
269.8396, 21199.57
270.3217, 21212.24
270.8038, 21237.84
271.2859, 21275.96
271.7681, 21311.30
272.2502, 21342.21
272.7323, 21374.10
273.2144, 21412.21
273.6965, 21457.83
274.1786, 21503.55
274.6608, 21547.38
275.1429, 21590.05
275.6250, 21639.37
276.1071, 21697.44
276.5892, 21756.20
277.0714, 21805.34
277.5535, 21843.71
278.0356, 21886.17
278.5177, 21935.69
278.9998, 21991.54
279.4819, 22052.00
279.9641, 22119.29
280.4462, 22185.40
280.9283, 22244.57
281.4104, 22296.38
281.8925, 22343.50
282.3746, 22383.06
282.8568, 22420.75
283.3389, 22473.59
283.8210, 22542.49
284.3031, 22618.27
284.7852, 22697.32
285.2673, 22778.36
285.7495, 22854.14
286.2316, 22921.60
286.7137, 22985.37
287.1958, 23056.48
287.6779, 23134.87
288.1600, 23212.38
288.6422, 23285.07
289.1243, 23353.18
289.6064, 23414.87
290.0885, 23470.81
290.5706, 23520.64
291.0527, 23563.19
291.5349, 23598.85
292.0170, 23630.35
292.4991, 23660.77
292.9812, 23688.88
293.4633, 23706.90
293.9454, 23713.42
294.4276, 23716.01
294.9097, 23722.24
295.3918, 23732.36
295.8739, 23747.40
296.3560, 23765.94
296.8381, 23789.74
297.3203, 23824.38
297.8024, 23870.34
298.2845, 23920.13
298.7666, 23969.44
299.2487, 24016.34
299.7308, 24056.59
300.2130, 24080.03
300.6951, 24098.86
301.1772, 24134.68
301.6593, 24187.43
302.1414, 24246.07
302.6235, 24300.92
303.1057, 24354.78
303.5878, 24411.71
304.0699, 24476.03
304.5520, 24543.06
305.0341, 24609.10
305.5162, 24673.72
305.9984, 24735.48
306.4805, 24786.11
306.9626, 24834.46
307.4447, 24892.87
307.9268, 24972.03
308.4089, 25052.79
308.8911, 25122.29
309.3732, 25180.09
309.8553, 25225.08
310.3374, 25249.80
310.8195, 25264.34
311.3016, 25277.97
311.7838, 25292.10
312.2659, 25306.90
312.7480, 25326.41
313.2301, 25347.24
313.7122, 25361.11
314.1943, 25361.23
314.6765, 25355.54
315.1586, 25348.30
315.6407, 25338.71
316.1228, 25333.57
316.6049, 25336.67
317.0870, 25346.40
317.5692, 25359.89
318.0513, 25380.69
318.5334, 25400.82
319.0155, 25413.74
319.4976, 25416.89
319.9797, 25425.77
320.4619, 25447.43
320.9440, 25476.23
321.4261, 25505.65
321.9082, 25535.13
322.3903, 25563.79
322.8724, 25591.46
323.3546, 25618.20
323.8367, 25644.03
324.3188, 25664.88
324.8009, 25687.80
325.2830, 25718.03
325.7651, 25769.18
326.2473, 25814.69
326.7294, 25848.15
327.2115, 25871.64
327.6936, 25899.67
328.1757, 25933.85
328.6578, 25972.38
329.1400, 26014.67
329.6221, 26067.75
330.1042, 26114.16
330.5863, 26150.90
331.0684, 26180.57
331.5505, 26209.98
332.0327, 26234.43
332.5148, 26263.51
332.9969, 26302.03
333.4790, 26353.26
333.9611, 26400.94
334.4432, 26440.60
334.9254, 26479.16
335.4075, 26529.87
335.8896, 26602.88
336.3717, 26668.38
336.8538, 26714.07
337.3359, 26738.01
337.8180, 26769.31
338.3001, 26808.18
338.7823, 26854.52
339.2644, 26910.24
339.7465, 26979.31
340.2286, 27042.27
340.7107, 27093.18
341.1928, 27133.91
341.6750, 27171.40
342.1571, 27204.47
342.6392, 27239.60
343.1213, 27285.65
343.6034, 27342.27
344.0855, 27391.30
344.5677, 27427.59
345.0498, 27455.77
345.5319, 27483.17
346.0140, 27509.51
346.4961, 27543.42
346.9782, 27598.25
347.4604, 27668.48
347.9425, 27721.61
348.4246, 27752.39
348.9067, 27775.41
349.3888, 27811.99
349.8709, 27860.40
350.3531, 27909.64
350.8352, 27954.89
351.3173, 27997.27
351.7994, 28039.19
352.2815, 28080.63
352.7636, 28121.71
353.2458, 28159.71
353.7279, 28197.33
354.2100, 28240.56
354.6921, 28293.86
355.1742, 28351.65
355.6563, 28411.63
356.1385, 28472.70
356.6206, 28528.07
357.1027, 28565.76
357.5848, 28597.45
358.0669, 28637.94
358.5490, 28694.97
359.0312, 28755.21
359.5133, 28811.07
359.9954, 28863.43
360.4775, 28916.08
360.9596, 28974.23
361.4417, 29030.73
361.9239, 29079.56
362.4060, 29115.66
362.8881, 29155.88
363.3702, 29213.79
363.8523, 29278.34
364.3344, 29332.71
364.8166, 29369.18
365.2987, 29397.76
365.7808, 29417.20
366.2629, 29425.69
366.7450, 29445.61
367.2271, 29490.43
367.7093, 29543.83
368.1914, 29591.55
368.6735, 29636.23
369.1556, 29671.63
369.6377, 29688.47
370.1198, 29690.51
370.6020, 29709.28
371.0841, 29755.13
371.5662, 29808.30
372.0483, 29858.27
372.5304, 29905.77
373.0125, 29948.77
373.4947, 29983.41
373.9768, 30014.29
374.4589, 30054.29
374.9410, 30110.00
375.4231, 30161.17
375.9052, 30197.19
376.3874, 30214.59
376.8695, 30246.80
377.3516, 30297.48
377.8337, 30357.63
378.3158, 30420.17
378.7979, 30486.59
379.2801, 30545.94
379.7622, 30593.53
380.2443, 30632.06
380.7264, 30676.55
381.2085, 30727.40
381.6906, 30778.81
382.1728, 30822.15
382.6549, 30860.06
383.1370, 30909.49
383.6191, 30978.47
384.1012, 31051.47
384.5833, 31100.46
385.0655, 31128.29
385.5476, 31156.64
386.0297, 31200.43
386.5118, 31253.23
386.9939, 31303.88
387.4760, 31350.81
387.9582, 31398.80
388.4403, 31456.58
388.9224, 31519.29
389.4045, 31576.36
389.8866, 31621.70
390.3687, 31661.43
390.8509, 31697.05
391.3330, 31729.09
391.8151, 31765.58
392.2972, 31817.93
392.7793, 31873.38
393.2614, 31919.08
393.7436, 31941.83
394.2257, 31967.51
394.7078, 32008.45
395.1899, 32060.64
395.6720, 32113.50
396.1541, 32165.24
396.6363, 32216.10
397.1184, 32266.01
397.6005, 32314.58
398.0826, 32364.36
398.5647, 32417.33
399.0468, 32471.38
399.5290, 32523.95
400.0111, 32578.89
400.4932, 32627.90
400.9753, 32663.07
401.4574, 32684.67
401.9395, 32727.21
402.4217, 32804.75
402.9038, 32888.22
403.3859, 32957.11
403.8680, 33001.63
404.3501, 33055.03
404.8322, 33122.86
405.3144, 33198.79
405.7965, 33264.29
406.2786, 33318.09
406.7607, 33366.66
407.2428, 33411.07
407.7249, 33451.24
408.2071, 33494.63
408.6892, 33541.33
409.1713, 33591.27
409.6534, 33646.93
410.1355, 33707.67
410.6176, 33763.88
411.0998, 33810.85
411.5819, 33853.30
412.0640, 33902.36
412.5461, 33957.51
413.0282, 34016.58
413.5103, 34085.26
413.9925, 34154.97
414.4746, 34206.20
414.9567, 34231.54
415.4388, 34250.54
415.9209, 34283.86
416.4030, 34327.04
416.8852, 34369.86
417.3673, 34406.03
417.8494, 34439.85
418.3315, 34475.17
418.8136, 34511.84
419.2957, 34548.67
419.7779, 34579.91
420.2600, 34612.90
420.7421, 34654.54
421.2242, 34716.82
421.7063, 34778.42
422.1884, 34835.26
422.6706, 34887.07
423.1527, 34934.80
423.6348, 34980.06
424.1169, 35020.04
424.5990, 35052.23
425.0811, 35068.80
425.5633, 35095.73
426.0454, 35140.09
426.5275, 35192.64
427.0096, 35242.05
427.4917, 35281.86
427.9738, 35328.15
428.4560, 35385.89
428.9381, 35454.86
429.4202, 35520.05
429.9023, 35578.41
430.3844, 35636.55
430.8665, 35700.79
431.3487, 35773.70
431.8308, 35833.20
432.3129, 35872.21
432.7950, 35902.77
433.2771, 35948.71
433.7592, 36009.65
434.2414, 36077.36
434.7235, 36153.61
435.2056, 36233.84
435.6877, 36297.84
436.1698, 36344.24
436.6519, 36386.16
437.1341, 36432.41
437.6162, 36483.54
438.0983, 36544.48
438.5804, 36625.71
439.0625, 36704.52
439.5446, 36748.89
440.0268, 36766.97
440.5089, 36787.74
440.9910, 36831.73
441.4731, 36884.33
441.9552, 36935.61
442.4373, 36985.33
442.9195, 37026.98
443.4016, 37049.30
443.8837, 37064.39
444.3658, 37086.97
444.8479, 37122.71
445.3300, 37165.41
445.8122, 37215.69
446.2943, 37272.32
446.7764, 37329.23
447.2585, 37385.23
447.7406, 37441.21
448.2227, 37498.20
448.7049, 37558.32
449.1870, 37613.98
449.6691, 37660.76
450.1512, 37705.02
450.6333, 37756.28
451.1154, 37818.50
451.5976, 37879.79
452.0797, 37935.43
452.5618, 37986.21
453.0439, 38042.38
453.5260, 38104.21
454.0081, 38166.97
454.4903, 38228.00
454.9724, 38286.77
455.4545, 38338.41
455.9366, 38378.11
456.4187, 38418.39
456.9008, 38486.19
457.3830, 38578.26
457.8651, 38661.81
458.3472, 38716.27
458.8293, 38754.82
459.3114, 38804.91
459.7935, 38866.23
460.2757, 38923.48
460.7578, 38962.99
461.2399, 38990.52
461.7220, 39012.33
462.2041, 39023.44
462.6862, 39040.62
463.1684, 39077.57
463.6505, 39128.88
464.1326, 39181.38
464.6147, 39237.15
465.0968, 39286.58
465.5789, 39318.97
466.0611, 39330.14
466.5432, 39351.52
467.0253, 39402.13
467.5074, 39457.95
467.9895, 39498.57
468.4716, 39502.86
468.9538, 39518.29
469.4359, 39554.95
469.9180, 39604.71
470.4001, 39640.45
470.8822, 39654.80
471.3643, 39669.23
471.8465, 39693.44
472.3286, 39729.09
472.8107, 39762.08
473.2928, 39790.81
473.7749, 39821.69
474.2570, 39864.32
474.7392, 39918.85
475.2213, 39967.26
475.7034, 40004.58
476.1855, 40035.02
476.6676, 40062.07
477.1497, 40087.11
477.6319, 40122.68
478.1140, 40184.60
478.5961, 40258.96
479.0782, 40323.31
479.5603, 40375.59
480.0424, 40420.73
480.5246, 40453.63
481.0067, 40484.12
481.4888, 40526.84
481.9709, 40601.50
482.4530, 40672.32
482.9352, 40715.00
483.4173, 40737.77
483.8994, 40766.80
484.3815, 40818.78
484.8636, 40872.58
485.3457, 40917.17
485.8279, 40948.98
486.3100, 40983.00
486.7921, 41017.69
487.2742, 41056.82
487.7563, 41105.34
488.2384, 41174.50
488.7206, 41234.39
489.2027, 41280.55
489.6848, 41315.56
490.1669, 41346.23
490.6490, 41370.41
491.1311, 41397.01
491.6133, 41432.03
492.0954, 41475.65
492.5775, 41512.26
493.0596, 41540.14
493.5417, 41568.70
494.0238, 41609.87
494.5060, 41661.34
494.9881, 41711.07
495.4702, 41754.12
495.9523, 41796.32
496.4344, 41845.52
496.9165, 41900.46
497.3987, 41956.29
497.8808, 42013.86
498.3629, 42069.22
498.8450, 42115.13
499.3271, 42150.60
499.8092, 42191.78
500.2914, 42254.35
500.7735, 42322.94
501.2556, 42384.64
501.7377, 42431.54
502.2198, 42475.12
502.7019, 42518.42
503.1841, 42560.18
503.6662, 42597.48
504.1483, 42626.07
504.6304, 42655.35
505.1125, 42688.21
505.5946, 42725.23
506.0768, 42762.77
506.5589, 42803.51
507.0410, 42841.44
507.5231, 42867.86
508.0052, 42878.85
508.4873, 42908.48
508.9695, 42965.70
509.4516, 43034.65
509.9337, 43082.98
510.4158, 43111.84
510.8979, 43142.93
511.3800, 43188.65
511.8622, 43242.03
512.3443, 43289.60
512.8264, 43330.68
513.3085, 43365.35
513.7906, 43381.91
514.2728, 43396.19
514.7549, 43433.79
515.2370, 43509.70
515.7191, 43578.31
516.2012, 43601.90
516.6833, 43601.83
517.1655, 43611.34
517.6476, 43645.96
518.1297, 43687.71
518.6118, 43735.02
519.0939, 43786.85
519.5760, 43831.97
520.0582, 43865.52
520.5403, 43894.91
521.0224, 43921.28
521.5045, 43940.21
521.9866, 43968.99
522.4688, 44009.64
522.9509, 44057.27
523.4330, 44108.03
523.9151, 44162.89
524.3972, 44214.13
524.8793, 44258.79
525.3615, 44298.93
525.8436, 44340.34
526.3257, 44383.16
526.8078, 44426.55
527.2899, 44476.52
527.7720, 44526.45
528.2542, 44557.80
528.7363, 44569.60
529.2184, 44577.66
529.7005, 44590.14
530.1826, 44608.84
530.6647, 44636.60
531.1469, 44676.70
531.6290, 44721.73
532.1111, 44768.62
532.5932, 44816.98
533.0753, 44865.89
533.5574, 44916.71
534.0396, 44966.35
534.5217, 45014.86
535.0038, 45061.59
535.4859, 45103.45
535.9680, 45137.93
536.4501, 45168.68
536.9323, 45197.65
537.4144, 45225.62
537.8965, 45248.73
538.3786, 45263.32
538.8607, 45278.23
539.3428, 45310.86
539.8250, 45363.82
540.3071, 45406.31
540.7892, 45426.39
541.2713, 45433.42
541.7534, 45446.98
542.2355, 45467.18
542.7177, 45492.53
543.1998, 45523.84
543.6819, 45559.66
544.1640, 45600.38
544.6461, 45646.55
545.1282, 45686.50
545.6104, 45699.89
546.0925, 45706.70
546.5746, 45730.04
547.0567, 45789.51
547.5388, 45847.09
548.0209, 45884.97
548.5031, 45911.46
548.9852, 45945.82
549.4673, 46006.84
549.9494, 46058.79
550.4315, 46089.93
550.9136, 46100.41
551.3958, 46114.29
551.8779, 46127.76
552.3600, 46151.47
552.8421, 46198.93
553.3242, 46274.88
553.8063, 46327.80
554.2885, 46352.18
554.7706, 46362.76
555.2527, 46376.61
555.7348, 46393.45
556.2169, 46410.53
556.6990, 46422.70
557.1812, 46439.99
557.6633, 46483.70
558.1454, 46547.00
558.6275, 46604.49
559.1096, 46635.96
559.5917, 46659.27
560.0739, 46685.67
560.5560, 46716.17
561.0381, 46755.30
561.5202, 46816.38
562.0023, 46879.54
562.4844, 46929.30
562.9666, 46947.91
563.4487, 46976.70
563.9308, 47026.54
564.4129, 47083.41
564.8950, 47124.73
565.3771, 47141.27
565.8593, 47160.88
566.3414, 47189.63
566.8235, 47225.49
567.3056, 47264.21
567.7877, 47306.52
568.2698, 47342.29
568.7520, 47360.10
569.2341, 47365.75
569.7162, 47384.54
570.1983, 47417.93
570.6804, 47453.24
571.1625, 47482.20
571.6447, 47504.40
572.1268, 47516.59
572.6089, 47510.90
573.0910, 47511.99
573.5731, 47546.81
574.0552, 47597.98
574.5374, 47635.74
575.0195, 47640.77
575.5016, 47641.17
575.9837, 47641.51
576.4658, 47643.46
576.9479, 47660.62
577.4301, 47710.50
577.9122, 47755.31
578.3943, 47773.66
578.8764, 47755.37
579.3585, 47770.56
579.8406, 47826.87
580.3228, 47899.35
580.8049, 47965.62
581.2870, 48025.13
581.7691, 48075.84
582.2512, 48113.37
582.7333, 48148.65
583.2155, 48203.65
583.6976, 48270.07
584.1797, 48325.78
584.6617, 48336.98
585.1439, 48348.10
585.6260, 48407.09
586.1081, 48504.96
586.5902, 48597.29
