##NAMES=Soddyite
##RRUFFID=R060407
##IDEAL CHEMISTRY=(U^6+^O_2_)_2_SiO_4_&#183;2H_2_O
##LOCALITY=Palette, Northern Territory, Australia
##OWNER=RRUFF
##SOURCE=American Museum of Natural History
##DESCRIPTION=Pale yellow consolidated earthy powder
##STATUS=The identification of this mineral has been confirmed by X-ray diffraction and chemical analysis
##URL=rruff.info/R060407
##MEASURED CHEMISTRY=(U_1.00_O_2_)_2_Si_1.00_O_4_Â·2H_2_O
176.3699, 7193.822
176.8520, 7209.461
177.3341, 7220.031
177.8163, 7232.078
178.2984, 7250.549
178.7805, 7271.071
179.2626, 7287.283
179.7447, 7298.669
180.2268, 7307.041
180.7090, 7310.326
181.1911, 7311.037
181.6732, 7317.140
182.1553, 7335.438
182.6374, 7361.161
183.1195, 7383.561
183.6017, 7402.273
184.0838, 7419.994
184.5659, 7441.502
185.0480, 7465.675
185.5301, 7487.948
186.0123, 7505.388
186.4944, 7519.030
186.9765, 7530.588
187.4586, 7539.414
187.9407, 7548.870
188.4228, 7565.873
188.9050, 7589.411
189.3871, 7610.225
189.8692, 7621.719
190.3513, 7625.680
190.8334, 7631.798
191.3155, 7641.148
191.7977, 7651.100
192.2798, 7658.161
192.7619, 7662.423
193.2440, 7663.607
193.7261, 7659.007
194.2082, 7649.630
194.6904, 7647.019
195.1725, 7653.135
195.6546, 7663.683
196.1367, 7671.053
196.6188, 7675.236
197.1009, 7677.464
197.5831, 7676.556
198.0652, 7672.501
198.5473, 7674.088
199.0294, 7683.179
199.5115, 7695.944
199.9937, 7703.794
200.4758, 7705.586
200.9579, 7708.506
201.4400, 7716.318
201.9221, 7729.125
202.4042, 7745.156
202.8864, 7766.564
203.3685, 7788.749
203.8506, 7798.836
204.3327, 7793.642
204.8148, 7788.760
205.2969, 7794.102
205.7791, 7811.620
206.2612, 7824.746
206.7433, 7831.598
207.2254, 7834.243
207.7075, 7838.394
208.1896, 7845.258
208.6718, 7850.221
209.1539, 7849.464
209.6360, 7841.038
210.1181, 7837.217
210.6002, 7839.285
211.0823, 7846.137
211.5645, 7855.763
212.0466, 7870.550
212.5287, 7883.018
213.0108, 7887.938
213.4929, 7882.544
213.9750, 7881.060
214.4572, 7884.482
214.9393, 7892.248
215.4214, 7903.727
215.9035, 7921.261
216.3856, 7937.727
216.8678, 7948.584
217.3499, 7952.191
217.8320, 7955.360
218.3141, 7957.572
218.7962, 7959.446
219.2783, 7963.304
219.7605, 7969.473
220.2426, 7976.459
220.7247, 7983.647
221.2068, 7991.507
221.6889, 7997.933
222.1710, 8002.913
222.6532, 8006.414
223.1353, 8008.225
223.6174, 8008.807
224.0995, 8007.249
224.5816, 8002.580
225.0637, 7992.615
225.5459, 7985.382
226.0280, 7981.914
226.5101, 7981.229
226.9922, 7980.541
227.4743, 7980.235
227.9564, 7979.327
228.4386, 7976.993
228.9207, 7971.928
229.4028, 7968.827
229.8849, 7969.744
230.3670, 7972.061
230.8492, 7967.661
231.3313, 7951.415
231.8134, 7936.232
232.2955, 7928.050
232.7776, 7929.714
233.2597, 7932.612
233.7419, 7938.024
234.2240, 7944.476
234.7061, 7947.383
235.1882, 7943.920
235.6703, 7941.537
236.1524, 7943.914
236.6346, 7954.350
237.1167, 7962.087
237.5988, 7966.031
238.0809, 7967.728
238.5630, 7970.802
239.0451, 7975.565
239.5273, 7981.019
240.0094, 7986.817
240.4915, 7993.240
240.9736, 7998.734
241.4557, 8002.760
241.9378, 8005.871
242.4200, 8009.459
242.9021, 8014.409
243.3842, 8018.241
243.8663, 8019.234
244.3484, 8014.770
244.8306, 8015.508
245.3127, 8023.815
245.7948, 8036.059
246.2769, 8045.685
246.7590, 8052.174
247.2411, 8056.891
247.7233, 8060.290
248.2054, 8062.448
248.6875, 8063.084
249.1696, 8061.042
249.6517, 8058.385
250.1338, 8058.757
250.6160, 8064.201
251.0981, 8069.160
251.5802, 8072.068
252.0623, 8072.942
252.5444, 8071.581
253.0265, 8066.007
253.5087, 8059.919
253.9908, 8059.094
254.4729, 8066.221
254.9550, 8073.233
255.4371, 8077.740
255.9192, 8079.318
256.4014, 8081.599
256.8835, 8084.521
257.3656, 8088.200
257.8477, 8093.292
258.3298, 8101.267
258.8120, 8107.270
259.2941, 8109.823
259.7762, 8108.697
260.2583, 8106.940
260.7404, 8103.492
261.2225, 8100.462
261.7047, 8099.755
262.1868, 8100.932
262.6689, 8105.458
263.1510, 8115.475
263.6331, 8130.528
264.1152, 8138.518
264.5974, 8136.889
265.0795, 8131.987
265.5616, 8130.008
266.0437, 8131.998
266.5258, 8133.399
267.0079, 8132.289
267.4901, 8129.599
267.9722, 8134.609
268.4543, 8151.849
268.9364, 8168.311
269.4185, 8171.202
269.9006, 8156.081
270.3828, 8147.681
270.8649, 8151.763
271.3470, 8165.158
271.8291, 8172.856
272.3112, 8173.594
272.7933, 8171.589
273.2755, 8168.365
273.7576, 8162.812
274.2397, 8162.815
274.7218, 8171.388
275.2039, 8184.668
275.6860, 8190.318
276.1682, 8186.739
276.6503, 8181.766
277.1324, 8180.579
277.6145, 8183.643
278.0966, 8186.115
278.5787, 8187.519
279.0609, 8188.805
279.5430, 8192.161
280.0251, 8198.048
280.5072, 8204.616
280.9893, 8211.511
281.4715, 8218.767
281.9536, 8224.099
282.4357, 8226.624
282.9178, 8228.653
283.3999, 8234.225
283.8820, 8243.326
284.3642, 8253.456
284.8463, 8263.649
285.3284, 8273.721
285.8105, 8282.661
286.2926, 8290.000
286.7747, 8296.968
287.2569, 8306.672
287.7390, 8318.776
288.2211, 8327.164
288.7032, 8327.427
289.1853, 8321.601
289.6674, 8318.472
290.1496, 8318.087
290.6317, 8320.337
291.1138, 8327.318
291.5959, 8338.137
292.0780, 8345.697
292.5602, 8346.698
293.0423, 8343.495
293.5244, 8341.709
294.0065, 8341.457
294.4886, 8341.856
294.9707, 8341.207
295.4529, 8340.352
295.9350, 8342.434
296.4171, 8349.219
296.8992, 8358.503
297.3813, 8367.069
297.8634, 8374.829
298.3456, 8381.101
298.8277, 8385.004
299.3098, 8386.979
299.7919, 8387.757
300.2740, 8387.064
300.7561, 8385.988
301.2383, 8385.218
301.7204, 8385.027
302.2025, 8386.716
302.6846, 8393.106
303.1667, 8401.338
303.6488, 8407.237
304.1310, 8409.975
304.6131, 8410.771
305.0952, 8410.201
305.5773, 8408.514
306.0594, 8406.406
306.5415, 8402.964
307.0237, 8399.861
307.5058, 8399.903
307.9879, 8404.001
308.4700, 8406.475
308.9521, 8401.120
309.4343, 8391.318
309.9164, 8382.939
310.3985, 8379.420
310.8806, 8377.546
311.3627, 8374.228
311.8448, 8369.257
312.3270, 8366.339
312.8091, 8370.643
313.2912, 8377.316
313.7733, 8380.632
314.2554, 8375.587
314.7375, 8369.272
315.2197, 8363.724
315.7018, 8359.309
316.1839, 8359.118
316.6660, 8368.825
317.1481, 8381.161
317.6302, 8390.106
318.1124, 8393.321
318.5945, 8394.166
319.0766, 8392.981
319.5587, 8390.142
320.0408, 8386.954
320.5229, 8380.666
321.0051, 8376.330
321.4872, 8377.295
321.9693, 8387.616
322.4514, 8396.522
322.9335, 8401.679
323.4156, 8403.996
323.8978, 8405.240
324.3799, 8404.443
324.8620, 8403.756
325.3441, 8403.767
325.8262, 8404.298
326.3083, 8406.257
326.7905, 8411.069
327.2726, 8416.938
327.7547, 8421.585
328.2368, 8423.236
328.7189, 8425.469
329.2010, 8428.702
329.6832, 8432.847
330.1653, 8438.927
330.6474, 8451.579
331.1295, 8462.839
331.6116, 8465.824
332.0938, 8453.155
332.5759, 8443.903
333.0580, 8441.040
333.5401, 8443.803
334.0222, 8446.934
334.5043, 8450.569
334.9865, 8454.351
335.4686, 8458.334
335.9507, 8463.272
336.4328, 8466.131
336.9149, 8465.994
337.3970, 8464.046
337.8792, 8463.046
338.3613, 8462.431
338.8434, 8464.372
339.3255, 8471.313
339.8076, 8484.603
340.2898, 8492.619
340.7719, 8494.000
341.2540, 8492.852
341.7361, 8495.742
342.2182, 8503.183
342.7003, 8509.830
343.1825, 8513.274
343.6646, 8514.172
344.1467, 8516.720
344.6288, 8521.089
345.1109, 8526.199
345.5930, 8530.095
346.0752, 8533.071
346.5573, 8539.585
347.0394, 8552.647
347.5215, 8568.082
348.0036, 8575.832
348.4857, 8575.965
348.9679, 8575.525
349.4500, 8579.954
349.9321, 8587.944
350.4142, 8596.134
350.8963, 8604.589
351.3784, 8611.714
351.8606, 8612.147
352.3427, 8608.372
352.8248, 8609.612
353.3069, 8629.274
353.7890, 8653.893
354.2711, 8663.449
354.7533, 8655.143
355.2354, 8643.784
355.7175, 8641.360
356.1996, 8644.681
356.6817, 8648.147
357.1638, 8648.518
357.6460, 8648.764
358.1281, 8651.999
358.6102, 8657.899
359.0923, 8662.482
359.5744, 8661.789
360.0565, 8659.387
360.5387, 8658.789
361.0208, 8662.162
361.5029, 8666.060
361.9850, 8668.254
362.4671, 8669.636
362.9492, 8672.911
363.4314, 8681.940
363.9135, 8691.034
364.3956, 8696.748
364.8777, 8696.983
365.3598, 8697.919
365.8419, 8700.411
366.3241, 8704.532
366.8062, 8710.377
367.2883, 8720.983
367.7704, 8730.366
368.2526, 8736.786
368.7347, 8739.827
369.2168, 8741.866
369.6989, 8741.465
370.1810, 8740.971
370.6631, 8742.220
371.1453, 8744.823
371.6274, 8749.896
372.1095, 8759.187
372.5916, 8771.665
373.0737, 8780.074
373.5558, 8782.874
374.0380, 8783.957
374.5201, 8785.021
375.0022, 8785.348
375.4843, 8787.832
375.9664, 8792.354
376.4485, 8799.249
376.9307, 8811.014
377.4128, 8829.597
377.8949, 8844.171
378.3770, 8848.417
378.8591, 8842.988
379.3412, 8842.418
379.8234, 8847.717
380.3055, 8854.271
380.7876, 8856.939
381.2697, 8855.921
381.7518, 8853.619
382.2339, 8849.356
382.7161, 8845.329
383.1982, 8847.819
383.6803, 8856.638
384.1624, 8866.009
384.6445, 8871.655
385.1266, 8874.553
385.6088, 8876.988
386.0909, 8879.237
386.5730, 8881.368
387.0551, 8882.127
387.5372, 8882.576
388.0193, 8885.794
388.5015, 8896.436
388.9836, 8908.971
389.4657, 8917.663
389.9478, 8922.136
390.4299, 8924.110
390.9120, 8921.865
391.3942, 8918.666
391.8763, 8918.629
392.3584, 8926.896
392.8405, 8935.095
393.3226, 8937.915
393.8047, 8936.618
394.2869, 8936.890
394.7690, 8944.323
395.2511, 8951.757
395.7332, 8954.214
396.2154, 8947.538
396.6975, 8943.077
397.1796, 8943.360
397.6617, 8947.341
398.1438, 8953.131
398.6259, 8963.098
399.1081, 8972.266
399.5902, 8979.360
400.0723, 8984.254
400.5544, 8987.283
401.0365, 8985.738
401.5186, 8984.122
402.0008, 8986.375
402.4829, 8995.334
402.9650, 9002.450
403.4471, 9006.201
403.9292, 9007.333
404.4113, 9009.433
404.8935, 9013.709
405.3756, 9016.224
405.8577, 9014.323
406.3398, 9007.362
406.8219, 9001.472
407.3040, 8996.832
407.7862, 8993.351
408.2683, 8990.807
408.7504, 8989.307
409.2325, 8989.063
409.7146, 8990.673
410.1967, 8993.703
410.6789, 8996.178
411.1610, 8998.134
411.6431, 9001.322
412.1252, 9009.007
412.6073, 9019.269
413.0894, 9026.267
413.5716, 9028.156
414.0537, 9027.634
414.5358, 9024.956
415.0179, 9021.799
415.5000, 9023.712
415.9821, 9039.335
416.4643, 9058.228
416.9464, 9068.550
417.4285, 9068.743
417.9106, 9067.826
418.3927, 9071.593
418.8748, 9077.390
419.3570, 9082.031
419.8391, 9080.863
420.3212, 9081.800
420.8033, 9090.348
421.2854, 9104.734
421.7675, 9116.577
422.2497, 9121.838
422.7318, 9125.243
423.2139, 9129.706
423.6960, 9138.036
424.1781, 9142.408
424.6602, 9138.338
425.1424, 9130.972
425.6245, 9127.700
426.1066, 9128.715
426.5887, 9133.819
427.0709, 9144.738
427.5530, 9161.416
428.0351, 9173.436
428.5172, 9178.889
428.9993, 9182.252
429.4814, 9186.510
429.9636, 9191.667
430.4457, 9197.656
430.9278, 9205.247
431.4099, 9212.817
431.8920, 9215.559
432.3741, 9212.581
432.8563, 9211.834
433.3384, 9218.601
433.8205, 9231.416
434.3026, 9239.443
434.7847, 9242.235
435.2668, 9244.198
435.7490, 9249.622
436.2311, 9257.969
436.7132, 9267.566
437.1953, 9279.443
437.6774, 9290.321
438.1595, 9295.397
438.6417, 9295.533
439.1238, 9294.238
439.6059, 9292.208
440.0880, 9290.620
440.5701, 9291.138
441.0522, 9294.287
441.5344, 9297.438
442.0165, 9298.593
442.4986, 9298.942
442.9807, 9299.921
443.4628, 9302.737
443.9449, 9305.527
444.4271, 9307.565
444.9092, 9308.894
445.3913, 9309.991
445.8734, 9308.997
446.3555, 9309.173
446.8376, 9312.486
447.3198, 9321.746
447.8019, 9328.675
448.2840, 9330.972
448.7661, 9331.659
449.2482, 9335.208
449.7303, 9344.509
450.2125, 9351.699
450.6946, 9354.526
451.1767, 9353.400
451.6588, 9353.927
452.1409, 9356.678
452.6230, 9359.902
453.1052, 9362.837
453.5873, 9365.657
454.0694, 9365.783
454.5515, 9362.284
455.0337, 9357.488
455.5158, 9354.150
455.9979, 9352.372
456.4800, 9354.689
456.9621, 9366.036
457.4442, 9381.107
457.9264, 9385.916
458.4085, 9380.840
458.8906, 9375.366
459.3727, 9380.144
459.8548, 9388.996
460.3369, 9390.865
460.8191, 9380.425
461.3012, 9369.922
461.7833, 9370.673
462.2654, 9378.677
462.7475, 9385.513
463.2296, 9387.663
463.7118, 9387.606
464.1939, 9386.028
464.6760, 9382.894
465.1581, 9380.161
465.6402, 9376.971
466.1223, 9375.053
466.6045, 9375.650
467.0866, 9381.843
467.5687, 9386.587
468.0508, 9388.302
468.5329, 9388.312
469.0150, 9389.725
469.4972, 9393.621
469.9793, 9397.252
470.4614, 9399.767
470.9435, 9401.170
471.4256, 9402.540
471.9077, 9404.197
472.3899, 9405.498
472.8720, 9405.501
473.3541, 9404.081
473.8362, 9403.928
474.3183, 9405.534
474.8004, 9408.444
475.2826, 9412.575
475.7647, 9417.719
476.2468, 9421.312
476.7289, 9420.604
477.2110, 9417.589
477.6931, 9416.946
478.1753, 9418.646
478.6574, 9420.733
479.1395, 9422.382
479.6216, 9423.138
480.1037, 9421.994
480.5858, 9417.301
481.0680, 9413.356
481.5501, 9414.361
482.0322, 9418.342
482.5143, 9421.114
482.9964, 9420.377
483.4786, 9418.838
483.9607, 9417.473
484.4428, 9416.381
484.9249, 9416.356
485.4070, 9418.384
485.8892, 9421.119
486.3713, 9423.604
486.8534, 9424.896
487.3355, 9427.240
487.8176, 9430.813
488.2997, 9435.366
488.7819, 9440.408
489.2640, 9445.643
489.7461, 9451.994
490.2282, 9460.644
490.7103, 9471.229
491.1924, 9476.396
491.6746, 9474.809
492.1567, 9473.044
492.6388, 9477.411
493.1209, 9487.208
493.6030, 9496.574
494.0851, 9505.358
494.5673, 9511.828
495.0494, 9511.623
495.5315, 9506.434
496.0136, 9502.439
496.4957, 9503.922
496.9778, 9507.316
497.4600, 9508.983
497.9421, 9508.987
498.4242, 9508.073
498.9063, 9504.001
499.3884, 9500.797
499.8705, 9502.855
500.3527, 9514.192
500.8348, 9522.917
501.3169, 9521.917
501.7990, 9516.487
502.2811, 9514.097
502.7632, 9522.204
503.2454, 9526.991
503.7275, 9522.939
504.2096, 9511.323
504.6917, 9505.871
505.1738, 9510.330
505.6559, 9516.137
506.1381, 9518.589
506.6202, 9516.463
507.1023, 9516.147
507.5844, 9517.207
508.0665, 9521.063
508.5486, 9531.786
509.0308, 9549.661
509.5129, 9562.572
509.9950, 9565.819
510.4771, 9563.595
510.9592, 9564.134
511.4413, 9567.221
511.9235, 9572.138
512.4056, 9580.556
512.8877, 9589.479
513.3698, 9593.765
513.8519, 9592.673
514.3340, 9591.429
514.8162, 9594.846
515.2983, 9599.967
515.7804, 9603.236
516.2625, 9602.360
516.7446, 9601.282
517.2267, 9601.946
517.7089, 9603.817
518.1910, 9605.403
518.6731, 9605.332
519.1552, 9606.221
519.6373, 9610.155
520.1194, 9617.868
520.6016, 9621.126
521.0837, 9615.704
521.5658, 9610.356
522.0479, 9612.190
522.5300, 9623.957
523.0121, 9632.072
523.4943, 9634.407
523.9764, 9634.200
524.4585, 9637.768
524.9406, 9645.141
525.4227, 9651.441
525.9048, 9654.122
526.3870, 9654.938
526.8691, 9659.014
527.3513, 9666.144
527.8334, 9672.556
528.3155, 9676.841
528.7976, 9678.349
529.2797, 9674.801
529.7618, 9664.920
530.2440, 9656.295
530.7261, 9654.423
531.2082, 9656.921
531.6903, 9660.771
532.1724, 9665.821
532.6545, 9671.116
533.1367, 9676.426
533.6188, 9681.752
534.1009, 9687.340
534.5830, 9696.374
535.0651, 9702.535
535.5472, 9702.629
536.0294, 9695.347
536.5115, 9691.744
536.9936, 9692.525
537.4757, 9696.091
537.9578, 9701.847
538.4399, 9710.483
538.9221, 9717.462
539.4042, 9722.603
539.8863, 9725.546
540.3684, 9723.999
540.8505, 9718.493
541.3326, 9715.637
541.8148, 9719.476
542.2969, 9726.769
542.7790, 9732.197
543.2611, 9735.878
543.7432, 9738.907
544.2253, 9741.892
544.7075, 9744.698
545.1896, 9746.582
545.6717, 9746.924
546.1538, 9749.416
546.6359, 9759.288
547.1180, 9770.855
547.6002, 9777.924
548.0823, 9773.989
548.5644, 9771.292
549.0465, 9772.583
549.5286, 9776.672
550.0107, 9780.120
550.4929, 9782.386
550.9750, 9784.614
551.4571, 9786.785
551.9392, 9788.857
552.4213, 9792.929
552.9034, 9799.396
553.3856, 9806.536
553.8677, 9814.739
554.3498, 9823.442
554.8319, 9824.298
555.3140, 9814.724
555.7961, 9803.677
556.2783, 9803.119
556.7604, 9810.681
557.2425, 9819.956
557.7246, 9830.908
558.2067, 9840.319
558.6888, 9843.766
559.1710, 9842.790
559.6531, 9842.353
560.1352, 9844.646
560.6173, 9848.521
561.0994, 9854.592
561.5815, 9863.634
562.0637, 9868.521
562.5458, 9862.877
563.0279, 9855.774
563.5100, 9853.732
563.9921, 9858.916
564.4742, 9865.417
564.9564, 9873.861
565.4385, 9882.699
565.9206, 9888.926
566.4027, 9891.731
566.8848, 9895.177
567.3669, 9900.757
567.8491, 9907.482
568.3312, 9911.674
568.8133, 9913.415
569.2954, 9915.562
569.7775, 9921.192
570.2596, 9928.171
570.7418, 9932.316
571.2239, 9933.418
571.7060, 9933.448
572.1881, 9933.193
572.6702, 9933.080
573.1523, 9933.643
573.6345, 9935.460
574.1166, 9937.223
574.5987, 9938.560
575.0808, 9939.496
575.5629, 9940.074
576.0450, 9941.313
576.5272, 9940.941
577.0093, 9937.926
577.4914, 9932.753
577.9735, 9928.049
578.4556, 9922.641
578.9377, 9920.409
579.4199, 9924.696
579.9020, 9935.707
580.3841, 9943.753
580.8662, 9948.857
581.3483, 9951.513
581.8304, 9950.561
582.3126, 9947.338
582.7947, 9946.304
583.2768, 9948.334
583.7589, 9952.579
584.2410, 9958.921
584.7231, 9966.641
585.2053, 9974.368
585.6874, 9980.551
586.1696, 9987.145
586.6517, 9997.213
587.1338, 10008.98
587.6159, 10015.25
588.0980, 10008.31
588.5801, 10000.27
589.0623, 9996.296
589.5444, 9996.998
590.0265, 9997.609
590.5086, 9998.814
590.9907, 9999.192
591.4728, 9997.243
591.9550, 9992.558
592.4371, 9989.949
592.9192, 9990.738
593.4013, 9992.165
593.8834, 9989.184
594.3655, 9982.823
594.8477, 9978.938
595.3298, 9980.938
595.8119, 9984.716
596.2940, 9984.197
596.7761, 9980.573
597.2582, 9977.777
597.7404, 9975.780
598.2225, 9976.741
598.7046, 9984.849
599.1867, 9999.916
599.6688, 10009.11
600.1509, 10002.45
600.6331, 9992.941
601.1152, 9988.854
601.5973, 9993.354
602.0794, 9996.176
602.5615, 9997.155
603.0436, 9996.589
603.5258, 9994.553
604.0079, 9990.824
604.4900, 9987.292
604.9721, 9984.213
605.4542, 9981.967
605.9363, 9981.808
606.4185, 9983.608
606.9006, 9985.284
607.3827, 9986.261
607.8648, 9986.481
608.3469, 9985.035
608.8290, 9982.344
609.3112, 9980.756
609.7933, 9981.010
610.2754, 9983.225
610.7575, 9988.418
611.2396, 9997.100
611.7217, 10003.73
612.2039, 10005.06
612.6860, 10004.47
613.1681, 10004.47
613.6502, 10005.33
614.1323, 10005.94
614.6144, 10005.22
615.0966, 10005.04
615.5787, 10009.28
616.0608, 10019.13
616.5429, 10025.87
617.0250, 10027.21
617.5071, 10024.83
617.9893, 10021.70
618.4714, 10018.03
618.9535, 10014.98
619.4356, 10013.68
619.9177, 10013.15
620.3998, 10011.91
620.8820, 10010.14
621.3641, 10009.07
621.8462, 10009.03
622.3283, 10010.18
622.8104, 10011.96
623.2925, 10013.25
623.7747, 10019.07
624.2568, 10035.34
624.7389, 10053.12
625.2210, 10065.71
625.7031, 10074.24
626.1852, 10073.60
626.6674, 10059.22
627.1495, 10040.40
627.6316, 10033.05
628.1137, 10037.58
628.5958, 10044.49
629.0779, 10052.80
629.5601, 10060.08
630.0422, 10059.95
630.5243, 10053.95
631.0064, 10048.98
631.4885, 10049.16
631.9706, 10052.13
632.4528, 10056.44
632.9349, 10061.90
633.4170, 10067.04
633.8991, 10072.77
634.3812, 10076.89
634.8633, 10077.19
635.3455, 10070.90
635.8276, 10069.16
636.3097, 10072.62
636.7918, 10080.23
637.2739, 10092.13
637.7560, 10109.96
638.2382, 10124.45
638.7203, 10134.34
639.2024, 10140.94
639.6845, 10145.84
640.1666, 10149.02
640.6487, 10150.77
641.1309, 10149.64
641.6130, 10149.02
642.0951, 10155.30
642.5772, 10166.11
643.0594, 10174.62
643.5415, 10176.32
644.0236, 10175.82
644.5057, 10176.40
644.9879, 10177.86
645.4700, 10176.78
645.9521, 10170.39
646.4342, 10163.48
646.9163, 10158.12
647.3984, 10154.53
647.8806, 10152.71
648.3627, 10153.96
648.8448, 10155.26
649.3269, 10153.94
649.8090, 10150.14
650.2911, 10146.85
650.7733, 10144.14
651.2554, 10142.96
651.7375, 10144.06
652.2196, 10147.54
652.7017, 10153.84
653.1838, 10163.80
653.6660, 10174.87
654.1481, 10185.73
654.6302, 10195.98
655.1123, 10205.13
655.5944, 10212.98
656.0765, 10219.22
656.5587, 10221.55
657.0408, 10221.32
657.5229, 10225.62
658.0050, 10236.99
658.4871, 10248.02
658.9692, 10256.21
659.4514, 10261.65
659.9335, 10265.61
660.4156, 10267.85
660.8977, 10270.39
661.3798, 10276.04
661.8619, 10283.01
662.3441, 10285.88
662.8262, 10284.31
663.3083, 10282.34
663.7904, 10283.68
664.2725, 10286.25
664.7546, 10287.07
665.2368, 10283.57
665.7189, 10284.30
666.2010, 10297.82
666.6831, 10314.74
667.1652, 10324.00
667.6473, 10319.66
668.1295, 10317.12
668.6116, 10316.88
669.0937, 10319.57
669.5758, 10327.54
670.0579, 10341.54
670.5400, 10353.98
671.0222, 10362.85
671.5043, 10368.36
671.9864, 10367.73
