##NAMES=Soddyite
##RRUFFID=R060361
##IDEAL CHEMISTRY=(U^6+^O_2_)_2_SiO_4_&#183;2H_2_O
##LOCALITY=Musonoi Extension, near Kolwezi, Shaba Province, Zaire
##OWNER=RRUFF
##SOURCE=Michael Scott
##DESCRIPTION=Yellow pyramidal crystals associated with light green malachite and dark green brochantite
##STATUS=The identification of this mineral has been confirmed by single-crystal X-ray diffraction.
##URL=rruff.info/R060361
107.9252, 831.4121
108.4073, 833.1594
108.8894, 839.9602
109.3715, 848.9200
109.8536, 855.5815
110.3358, 860.6728
110.8179, 862.4740
111.3000, 859.3690
111.7821, 851.6688
112.2642, 842.2263
112.7463, 830.7722
113.2285, 818.7757
113.7106, 807.4041
114.1927, 796.6738
114.6748, 787.2048
115.1569, 780.0877
115.6390, 775.7374
116.1212, 772.6931
116.6033, 770.8743
117.0854, 769.7465
117.5675, 768.7261
118.0496, 767.4472
118.5317, 766.1545
119.0139, 766.0535
119.4960, 767.9724
119.9781, 770.3624
120.4602, 773.5162
120.9423, 776.9279
121.4244, 779.7927
121.9066, 781.4592
122.3887, 781.8395
122.8708, 782.1923
123.3529, 782.5372
123.8350, 782.8451
124.3171, 783.1359
124.7993, 783.3932
125.2814, 783.5867
125.7635, 783.8181
126.2456, 784.1898
126.7277, 783.3740
127.2098, 780.8745
127.6920, 777.3849
128.1741, 773.2789
128.6562, 768.4686
129.1383, 763.8882
129.6204, 761.1044
130.1025, 759.8896
130.5847, 758.4836
131.0668, 756.1454
131.5489, 753.0469
132.0310, 749.7252
132.5131, 745.9143
132.9952, 742.3148
133.4774, 739.5551
133.9595, 737.6409
134.4416, 735.9542
134.9237, 734.1373
135.4058, 732.2608
135.8879, 729.7318
136.3701, 725.1779
136.8522, 720.7582
137.3343, 717.6035
137.8164, 716.0052
138.2985, 715.7716
138.7806, 716.4699
139.2628, 717.6441
139.7449, 720.9339
140.2270, 726.2350
140.7091, 733.3940
141.1912, 742.4410
141.6733, 753.3401
142.1555, 765.8961
142.6376, 779.3026
143.1197, 794.4052
143.6018, 809.4578
144.0839, 823.9963
144.5660, 838.3947
145.0482, 853.2142
145.5303, 868.7247
146.0124, 884.9476
146.4945, 902.4413
146.9766, 922.1595
147.4587, 941.8228
147.9409, 960.0717
148.4230, 977.2396
148.9051, 994.9501
149.3872, 1014.721
149.8693, 1036.114
150.3514, 1056.630
150.8336, 1075.209
151.3157, 1093.511
151.7978, 1113.223
152.2799, 1134.650
152.7620, 1156.394
153.2441, 1177.339
153.7263, 1197.908
154.2084, 1219.251
154.6905, 1242.256
155.1726, 1266.044
155.6547, 1288.635
156.1368, 1309.054
156.6190, 1329.886
157.1011, 1352.957
157.5832, 1377.403
158.0653, 1401.910
158.5474, 1426.022
159.0295, 1449.625
159.5117, 1471.175
159.9938, 1490.563
160.4759, 1507.749
160.9580, 1523.310
161.4401, 1536.791
161.9222, 1546.988
162.4044, 1552.449
162.8865, 1552.486
163.3686, 1551.712
163.8507, 1553.129
164.3328, 1551.337
164.8149, 1543.734
165.2971, 1530.257
165.7792, 1512.554
166.2613, 1492.055
166.7434, 1467.421
167.2255, 1443.961
167.7076, 1423.625
168.1898, 1402.909
168.6719, 1379.240
169.1540, 1352.074
169.6361, 1323.149
170.1182, 1294.659
170.6003, 1266.488
171.0825, 1239.318
171.5646, 1212.678
172.0467, 1187.335
172.5288, 1164.164
173.0109, 1143.423
173.4930, 1124.833
173.9752, 1108.259
174.4573, 1093.503
174.9394, 1080.130
175.4215, 1067.974
175.9036, 1057.042
176.3857, 1047.377
176.8679, 1038.747
177.3500, 1031.776
177.8321, 1027.361
178.3142, 1025.606
178.7963, 1024.286
179.2784, 1021.596
179.7606, 1017.833
180.2427, 1015.628
180.7248, 1016.176
181.2069, 1018.289
181.6890, 1021.061
182.1711, 1024.469
182.6533, 1027.921
183.1354, 1030.513
183.6175, 1031.997
184.0996, 1034.614
184.5817, 1040.835
185.0638, 1047.180
185.5460, 1051.471
186.0281, 1053.263
186.5102, 1053.811
186.9923, 1054.935
187.4744, 1057.194
187.9565, 1058.481
188.4387, 1058.835
188.9208, 1058.109
189.4029, 1055.972
189.8850, 1052.355
190.3671, 1047.770
190.8492, 1043.208
191.3314, 1039.730
191.8135, 1034.374
192.2956, 1026.482
192.7777, 1017.172
193.2598, 1007.013
193.7419, 996.3134
194.2241, 985.6022
194.7062, 976.1790
195.1883, 969.6512
195.6704, 962.6021
196.1525, 954.4183
196.6346, 945.8763
197.1168, 937.8035
197.5989, 930.5485
198.0810, 924.0535
198.5631, 918.2231
199.0452, 913.1938
199.5273, 908.5689
200.0095, 903.8890
200.4916, 899.6363
200.9737, 896.7340
201.4558, 895.7485
201.9379, 896.0389
202.4200, 895.6785
202.9022, 893.9742
203.3843, 892.9112
203.8664, 893.2916
204.3485, 894.8701
204.8306, 896.9086
205.3127, 898.9543
205.7949, 901.5090
206.2770, 905.4587
206.7591, 911.0430
207.2412, 917.3254
207.7233, 923.7475
208.2054, 930.3965
208.6876, 937.6691
209.1697, 945.8423
209.6518, 954.7220
210.1339, 963.6500
210.6160, 972.2828
211.0981, 981.7715
211.5803, 993.2878
212.0624, 1006.810
212.5445, 1020.790
213.0266, 1034.477
213.5087, 1048.442
213.9908, 1063.687
214.4730, 1080.597
214.9551, 1097.016
215.4372, 1109.896
215.9193, 1118.695
216.4014, 1127.670
216.8836, 1140.455
217.3657, 1152.484
217.8478, 1160.981
218.3299, 1165.252
218.8120, 1165.582
219.2941, 1162.440
219.7763, 1156.117
220.2584, 1145.040
220.7405, 1127.128
221.2226, 1105.766
221.7047, 1082.762
222.1868, 1058.658
222.6690, 1033.341
223.1511, 1006.276
223.6332, 975.7775
224.1153, 947.1204
224.5974, 921.5544
225.0795, 897.2910
225.5617, 873.0527
226.0438, 848.4990
226.5259, 824.2352
227.0080, 801.1693
227.4901, 779.1061
227.9722, 759.1137
228.4544, 741.4249
228.9365, 725.3547
229.4186, 710.9282
229.9007, 698.0291
230.3828, 685.9609
230.8649, 673.5807
231.3471, 659.5749
231.8292, 647.4476
232.3113, 638.0812
232.7934, 629.9088
233.2755, 621.4633
233.7576, 612.4247
234.2398, 603.5820
234.7219, 596.3798
235.2040, 591.6303
235.6861, 587.3035
236.1682, 583.4841
236.6503, 580.0209
237.1325, 576.6663
237.6146, 573.3910
238.0967, 570.5940
238.5788, 569.0190
239.0609, 569.6624
239.5430, 569.1943
240.0252, 566.7079
240.5073, 563.4606
240.9894, 560.7025
241.4715, 558.7195
241.9536, 557.0464
242.4357, 555.0456
242.9179, 552.6295
243.4000, 550.3047
243.8821, 548.2024
244.3642, 546.1840
244.8463, 544.2214
245.3284, 542.3197
245.8106, 540.1483
246.2927, 537.1996
246.7748, 533.4479
247.2569, 529.6879
247.7390, 526.1591
248.2211, 522.6125
248.7033, 518.6620
249.1854, 514.2006
249.6675, 509.6601
250.1496, 505.2644
250.6317, 501.0255
251.1138, 497.5109
251.5960, 495.1634
252.0781, 493.4564
252.5602, 491.5883
253.0423, 489.4057
253.5244, 487.5947
254.0065, 487.0085
254.4887, 487.3217
254.9708, 487.7529
255.4529, 488.6416
255.9350, 489.3302
256.4171, 488.9754
256.8992, 487.5604
257.3813, 485.0785
257.8635, 481.3949
258.3456, 476.6297
258.8277, 470.6153
259.3098, 463.0714
259.7919, 454.4333
260.2740, 444.9569
260.7562, 434.3111
261.2383, 424.2705
261.7204, 415.8146
262.2025, 408.5656
262.6846, 402.1582
263.1667, 396.4062
263.6489, 391.5566
264.1310, 388.0526
264.6131, 386.0719
265.0952, 384.6670
265.5773, 383.5119
266.0594, 382.7071
266.5416, 382.3053
267.0237, 382.2055
267.5058, 382.8349
267.9879, 384.8743
268.4700, 388.4940
268.9521, 392.7438
269.4343, 398.0100
269.9164, 403.4388
270.3985, 408.2601
270.8806, 412.2497
271.3627, 416.0522
271.8448, 420.4530
272.3270, 425.5535
272.8091, 430.8164
273.2912, 436.2503
273.7733, 441.7304
274.2554, 447.0435
274.7375, 452.2124
275.2197, 457.6945
275.7018, 464.2882
276.1839, 472.2055
276.6660, 479.6662
277.1481, 485.4206
277.6302, 491.3706
278.1124, 498.3427
278.5945, 506.4455
279.0766, 515.3137
279.5587, 524.6111
280.0408, 534.3454
280.5229, 544.6437
281.0051, 555.6677
281.4872, 567.1622
281.9693, 579.1439
282.4514, 591.5154
282.9335, 604.1307
283.4156, 616.7587
283.8978, 629.3913
284.3799, 642.4588
284.8620, 656.3655
285.3441, 670.3328
285.8262, 684.3000
286.3083, 698.1135
286.7905, 711.6176
287.2726, 724.8146
287.7547, 737.6008
288.2368, 748.6970
288.7189, 757.5363
289.2010, 765.1180
289.6832, 772.9607
290.1653, 779.5439
290.6474, 782.5385
291.1295, 780.4252
291.6116, 774.0076
292.0938, 766.3398
292.5759, 756.3764
293.0580, 746.6436
293.5401, 738.3173
294.0222, 730.2161
294.5043, 720.7289
294.9865, 709.0651
295.4686, 696.5224
295.9507, 686.2338
296.4328, 678.8597
296.9149, 672.8488
297.3970, 667.4213
297.8792, 663.3354
298.3613, 661.5381
298.8434, 662.2288
299.3255, 664.4531
299.8076, 666.4930
300.2897, 667.4259
300.7719, 670.4219
301.2540, 676.5018
301.7361, 683.6852
302.2182, 690.8190
302.7003, 697.6845
303.1824, 704.8254
303.6646, 712.9277
304.1467, 722.0582
304.6288, 731.8773
305.1109, 742.7457
305.5930, 753.9991
306.0751, 765.9009
306.5573, 778.0358
307.0394, 789.4324
307.5215, 799.4344
308.0036, 808.1920
308.4857, 813.9531
308.9678, 817.3759
309.4500, 816.9359
309.9321, 811.4779
310.4142, 801.6986
310.8963, 789.1437
311.3784, 774.8914
311.8605, 756.5244
312.3427, 738.7087
312.8248, 712.1901
313.3069, 684.5726
313.7890, 655.3441
314.2711, 626.0441
314.7532, 598.2643
315.2354, 572.9631
315.7175, 549.5797
316.1996, 526.8873
316.6817, 504.6497
317.1638, 483.4572
317.6459, 462.7895
318.1281, 443.3312
318.6102, 425.8449
319.0923, 410.5436
319.5744, 397.0541
320.0565, 384.9283
320.5386, 374.7450
321.0208, 364.6826
321.5029, 353.6468
321.9850, 343.4603
322.4671, 335.5407
322.9492, 329.8415
323.4313, 325.0405
323.9135, 319.5461
324.3956, 313.0438
324.8777, 307.4953
325.3598, 303.7965
325.8419, 300.2065
326.3240, 295.7389
326.8062, 290.7406
327.2883, 286.2462
327.7704, 283.0962
328.2525, 281.2260
328.7346, 279.3441
329.2167, 277.4239
329.6989, 275.5139
330.1810, 273.6950
330.6631, 271.8788
331.1452, 269.8270
331.6273, 267.3327
332.1094, 264.7774
332.5916, 263.4520
333.0737, 264.2843
333.5558, 264.7990
334.0379, 264.4410
334.5200, 263.6875
335.0021, 262.9702
335.4843, 262.4293
335.9664, 261.6511
336.4485, 261.2576
336.9306, 260.2530
337.4127, 259.4586
337.8948, 258.7927
338.3770, 258.4341
338.8591, 258.6489
339.3412, 259.3765
339.8233, 260.1829
340.3055, 260.6051
340.7876, 260.5932
341.2697, 260.6934
341.7518, 261.2648
342.2339, 261.5801
342.7160, 261.2028
343.1982, 260.3354
343.6803, 259.4645
344.1624, 258.8698
344.6445, 258.5446
345.1266, 258.5371
345.6087, 259.3175
346.0909, 259.6195
346.5730, 258.7570
347.0551, 257.3542
347.5372, 256.2272
348.0193, 255.7382
348.5014, 255.5256
348.9836, 254.8249
349.4657, 253.3828
349.9478, 252.3190
350.4299, 252.2013
350.9120, 252.4035
351.3941, 252.6555
351.8763, 252.8858
352.3584, 252.7649
352.8405, 251.6192
353.3226, 249.3933
353.8047, 248.0522
354.2868, 248.5880
354.7690, 249.3347
355.2511, 249.4106
355.7332, 248.8131
356.2153, 247.7086
356.6974, 245.9687
357.1795, 243.7695
357.6617, 241.7769
358.1438, 240.0032
358.6259, 238.4601
359.1080, 237.3453
359.5901, 236.4241
360.0722, 235.3134
360.5544, 233.8730
361.0365, 232.1919
361.5186, 230.2840
362.0007, 228.1138
362.4828, 226.0773
362.9649, 224.5147
363.4471, 223.0597
363.9292, 221.2501
364.4113, 218.9696
364.8934, 216.6335
365.3755, 214.1978
365.8576, 211.8391
366.3398, 210.6729
366.8219, 211.4189
367.3040, 212.7612
367.7861, 213.7121
368.2682, 214.2564
368.7503, 213.5712
369.2325, 209.8491
369.7146, 205.1153
370.1967, 203.1916
370.6788, 204.7444
371.1609, 206.9735
371.6430, 207.9381
372.1252, 207.8570
372.6073, 207.4608
373.0894, 206.7800
373.5715, 205.8597
374.0536, 204.4431
374.5357, 202.6805
375.0179, 201.5570
375.5000, 201.8635
375.9821, 202.8320
376.4642, 202.6495
376.9463, 201.1118
377.4284, 199.1184
377.9106, 195.9394
378.3927, 192.7497
378.8748, 192.1553
379.3569, 195.0999
379.8390, 198.7463
380.3211, 199.2730
380.8033, 196.0060
381.2854, 193.4206
381.7675, 192.3328
382.2496, 191.6825
382.7317, 190.8523
383.2138, 189.7144
383.6960, 187.9374
384.1781, 184.9366
384.6602, 180.9509
385.1423, 179.3414
385.6244, 182.0009
386.1065, 184.4375
386.5887, 184.8885
387.0708, 184.1735
387.5529, 183.7839
388.0350, 184.3813
388.5171, 185.5029
388.9992, 186.1448
389.4814, 186.2056
389.9635, 185.8571
390.4456, 184.6557
390.9277, 183.3455
391.4098, 182.4994
391.8919, 182.2079
392.3741, 182.2356
392.8562, 182.3507
393.3383, 182.5484
393.8204, 182.8886
394.3025, 183.7068
394.7846, 184.3143
395.2668, 184.5856
395.7489, 184.4627
396.2310, 183.7818
396.7131, 182.3873
397.1952, 180.5815
397.6773, 179.4223
398.1595, 179.2328
398.6416, 179.1973
399.1237, 179.2772
399.6058, 179.4009
400.0879, 179.5775
400.5700, 179.7829
401.0522, 179.8553
401.5343, 179.5329
402.0164, 178.7305
402.4985, 178.0393
402.9806, 177.2916
403.4627, 176.8629
403.9449, 177.0739
404.4270, 177.7474
404.9091, 178.4444
405.3912, 178.9446
405.8733, 179.2462
406.3554, 179.3135
406.8376, 179.0720
407.3197, 178.7788
407.8018, 178.5532
408.2839, 178.3219
408.7660, 177.9342
409.2481, 177.2928
409.7303, 176.8107
410.2124, 177.0460
410.6945, 177.9435
411.1766, 178.6433
411.6587, 178.9651
412.1408, 179.0228
412.6230, 178.8037
413.1051, 178.3661
413.5872, 178.1666
414.0693, 178.5397
414.5514, 179.2159
415.0335, 179.8316
415.5157, 180.3796
415.9978, 180.7201
416.4799, 180.7098
416.9620, 180.4132
417.4441, 180.0627
417.9262, 179.4355
418.4084, 179.0624
418.8905, 179.4268
419.3726, 180.2856
419.8547, 180.9824
420.3368, 181.2617
420.8189, 181.4071
421.3011, 181.9249
421.7832, 182.9641
422.2653, 183.7223
422.7474, 184.2076
423.2295, 184.3153
423.7116, 183.5878
424.1938, 182.1977
424.6759, 181.2537
425.1580, 181.7059
425.6401, 183.4594
426.1222, 184.7619
426.6043, 185.1775
427.0865, 185.7202
427.5686, 186.8673
428.0507, 188.2228
428.5328, 189.1558
429.0149, 189.4357
429.4970, 189.4566
429.9792, 189.9426
430.4613, 191.2482
430.9434, 192.2513
431.4255, 192.9167
431.9076, 193.3745
432.3897, 193.5140
432.8719, 193.4831
433.3540, 193.6514
433.8361, 194.3014
434.3182, 195.4017
434.8003, 196.7560
435.2824, 198.4397
435.7646, 200.2798
436.2467, 202.2792
436.7288, 204.3631
437.2109, 206.4358
437.6930, 208.4681
438.1751, 210.5136
438.6573, 212.4813
439.1394, 214.3139
439.6215, 216.9770
440.1036, 221.3683
440.5857, 225.7843
441.0678, 228.9738
441.5500, 231.2161
442.0321, 233.6191
442.5142, 237.0406
442.9963, 240.8678
443.4784, 243.7522
443.9605, 245.4973
444.4427, 247.8795
444.9248, 252.2827
445.4069, 257.6327
445.8890, 261.8890
446.3711, 264.5409
446.8532, 267.3406
447.3354, 271.7092
447.8175, 276.8607
448.2996, 280.8615
448.7817, 283.1295
449.2638, 285.1703
449.7459, 288.6613
450.2281, 293.7177
450.7102, 298.4572
451.1923, 302.2177
451.6744, 306.1714
452.1565, 311.4392
452.6386, 317.5662
453.1208, 323.1142
453.6029, 327.3511
454.0850, 330.5618
454.5671, 333.5243
455.0492, 335.8733
455.5313, 338.4779
456.0135, 341.8226
456.4956, 345.1115
456.9777, 348.0877
457.4598, 350.4892
457.9419, 351.6986
458.4240, 351.0117
458.9062, 348.4041
459.3883, 345.7061
459.8704, 343.8353
460.3525, 340.7328
460.8346, 335.6856
461.3167, 329.2609
461.7989, 322.0327
462.2810, 314.1749
462.7631, 306.0360
463.2452, 298.2039
463.7273, 290.7951
464.2094, 282.9788
464.6916, 274.3431
465.1737, 265.5421
465.6558, 256.5266
466.1379, 247.6056
466.6200, 239.6407
467.1021, 233.5827
467.5843, 228.5685
468.0664, 222.8120
468.5485, 216.1456
469.0306, 209.7704
469.5127, 204.1136
469.9948, 199.1654
470.4770, 194.9315
470.9591, 191.4957
471.4412, 188.4659
471.9233, 185.9104
472.4054, 183.5620
472.8875, 180.8392
473.3697, 177.6077
473.8518, 174.4907
474.3339, 172.0361
474.8160, 170.2806
475.2981, 168.7603
475.7802, 167.7582
476.2624, 166.6930
476.7445, 165.2419
477.2266, 163.5437
477.7087, 161.8485
478.1908, 160.2394
478.6729, 158.7512
479.1551, 157.4562
479.6372, 156.4074
480.1193, 155.4323
480.6014, 154.5410
481.0835, 153.6982
481.5656, 152.8935
482.0478, 152.1230
482.5299, 151.3940
483.0120, 150.7248
483.4941, 150.0783
483.9762, 149.2850
484.4583, 148.0871
484.9405, 147.2888
485.4226, 147.6852
485.9047, 148.0780
486.3868, 147.3366
486.8689, 145.4036
487.3510, 143.4138
487.8332, 142.3129
488.3153, 141.9726
488.7974, 141.7909
489.2795, 141.8437
489.7616, 141.8179
490.2437, 141.6189
490.7259, 141.1908
491.2080, 140.3050
491.6901, 138.5832
492.1722, 137.0780
492.6543, 136.7725
493.1364, 137.3044
493.6186, 137.7081
494.1007, 137.7927
494.5828, 137.4396
495.0649, 136.2840
495.5470, 134.2014
496.0291, 132.9767
496.5113, 133.4435
496.9934, 134.0550
497.4755, 133.9194
497.9576, 133.1996
498.4397, 132.3168
498.9218, 131.4554
499.4040, 130.7581
499.8861, 130.6008
500.3682, 131.5665
500.8503, 131.9932
501.3324, 131.5575
501.8145, 130.9268
502.2967, 130.5390
502.7788, 130.3369
503.2609, 129.9462
503.7430, 129.0208
504.2251, 127.8040
504.7072, 127.3333
505.1894, 128.0261
505.6715, 128.5043
506.1536, 128.0465
506.6357, 127.4841
507.1178, 127.7040
507.5999, 128.7464
508.0821, 129.4198
508.5642, 128.2796
509.0463, 126.1052
509.5284, 125.4050
510.0105, 126.6347
510.4926, 127.9520
510.9748, 128.2047
511.4569, 127.7369
511.9390, 127.4115
512.4211, 127.3875
512.9032, 127.2972
513.3853, 126.7647
513.8674, 126.0979
514.3495, 125.9671
514.8317, 126.5175
515.3138, 127.0369
515.7959, 126.7138
516.2780, 125.4500
516.7601, 124.8569
517.2422, 125.4606
517.7244, 126.0272
518.2065, 126.0526
518.6886, 125.8117
519.1707, 125.7846
519.6528, 126.1269
520.1349, 126.5114
520.6171, 126.3656
521.0992, 125.4740
521.5813, 124.9386
522.0634, 125.2365
522.5455, 125.4274
523.0276, 125.0938
523.5098, 124.4186
523.9919, 123.7303
524.4740, 123.1172
524.9561, 122.7046
525.4382, 122.7857
525.9203, 123.3712
526.4025, 123.7774
526.8846, 123.7482
527.3667, 123.6185
527.8488, 123.7468
528.3309, 124.0868
528.8130, 124.3435
529.2952, 124.4664
529.7773, 124.4422
530.2594, 124.1087
530.7415, 123.5705
531.2236, 123.3637
531.7057, 123.8145
532.1879, 124.4577
532.6700, 124.3561
533.1521, 122.9770
533.6342, 122.0550
534.1163, 121.9950
534.5984, 122.0846
535.0806, 121.5896
535.5627, 120.8137
536.0448, 120.8628
536.5269, 122.5351
537.0090, 125.0111
537.4911, 125.6025
537.9733, 123.0276
538.4554, 121.4024
538.9375, 122.0775
539.4196, 123.0808
539.9017, 123.2220
540.3839, 122.5395
540.8660, 121.7457
541.3481, 121.3091
541.8302, 121.0626
542.3123, 120.5058
542.7944, 119.5537
543.2766, 119.0981
543.7587, 119.8782
544.2408, 121.0183
544.7229, 121.0725
545.2050, 119.8630
545.6871, 119.1947
546.1693, 120.4493
546.6514, 122.0798
547.1335, 122.2072
547.6156, 120.9082
548.0977, 119.5497
548.5798, 118.9145
549.0620, 118.8944
549.5441, 119.1280
550.0262, 120.3792
550.5083, 120.8323
550.9904, 119.5628
551.4725, 118.1852
551.9547, 118.1001
552.4368, 119.1442
552.9189, 120.1412
553.4010, 120.1892
553.8831, 119.5382
554.3652, 119.2468
554.8474, 119.5987
555.3295, 119.5978
555.8116, 118.4314
556.2937, 117.2079
556.7758, 116.8145
557.2579, 117.2616
557.7401, 117.7813
558.2222, 117.9694
558.7043, 117.9252
559.1864, 117.6628
559.6685, 117.1833
560.1506, 117.1845
560.6328, 118.2668
561.1149, 119.7855
561.5970, 120.2456
562.0791, 119.3575
562.5612, 118.5791
563.0433, 118.0699
563.5255, 117.8524
564.0076, 117.9289
564.4897, 118.3115
564.9718, 119.1420
565.4539, 120.5867
565.9360, 122.3002
566.4182, 123.0466
566.9003, 122.1077
567.3824, 121.5581
567.8645, 121.7052
568.3466, 122.0980
568.8287, 122.5167
569.3109, 122.9315
569.7930, 123.3702
570.2751, 123.9104
570.7572, 124.4276
571.2393, 124.4126
571.7214, 123.7522
572.2036, 123.9891
572.6857, 126.1600
573.1678, 128.8381
573.6499, 130.2140
574.1320, 130.3244
574.6141, 130.7153
575.0963, 132.1732
575.5784, 133.7854
576.0605, 134.5874
576.5426, 134.8232
577.0247, 135.5346
577.5068, 137.2541
577.9890, 139.2715
578.4711, 140.1705
578.9532, 139.1115
579.4353, 139.0894
579.9174, 140.9620
580.3995, 142.8792
580.8817, 143.8796
581.3638, 144.2705
581.8459, 144.7643
582.3280, 145.7058
582.8101, 146.8264
583.2922, 147.5524
583.7744, 147.8118
584.2565, 148.7443
584.7386, 150.7416
585.2207, 153.1262
585.7029, 155.6710
586.1850, 158.2199
586.6671, 160.3051
587.1492, 161.3587
587.6313, 162.5478
588.1135, 164.9595
588.5956, 168.1308
589.0777, 171.0662
589.5598, 173.5181
590.0419, 175.5421
590.5240, 177.3059
591.0062, 178.8576
591.4883, 178.8440
591.9704, 176.1289
592.4525, 173.4293
592.9346, 172.1111
593.4167, 170.8074
593.8989, 167.6616
594.3810, 162.4218
594.8631, 156.6408
595.3452, 151.8103
595.8273, 147.8916
596.3094, 144.3649
596.7916, 141.3277
597.2737, 138.4310
597.7558, 135.6375
598.2379, 132.8374
598.7200, 129.7757
599.2021, 126.3536
599.6843, 123.3739
600.1664, 121.5543
600.6485, 120.2554
601.1306, 118.3481
601.6127, 115.8796
602.0948, 114.0635
602.5770, 113.7251
603.0591, 114.2967
603.5412, 114.2158
604.0233, 113.0496
