##NAMES=Soddyite
##RRUFFID=R060407
##IDEAL CHEMISTRY=(U^6+^O_2_)_2_SiO_4_&#183;2H_2_O
##LOCALITY=Palette, Northern Territory, Australia
##OWNER=RRUFF
##SOURCE=American Museum of Natural History
##DESCRIPTION=Pale yellow consolidated earthy powder
##STATUS=The identification of this mineral has been confirmed by X-ray diffraction and chemical analysis
##URL=rruff.info/R060407
##MEASURED CHEMISTRY=(U_1.00_O_2_)_2_Si_1.00_O_4_Â·2H_2_O
158.1018, 3485.530
158.5839, 3489.668
159.0660, 3490.521
159.5481, 3489.809
160.0302, 3488.097
160.5123, 3485.692
160.9945, 3483.061
161.4766, 3481.139
161.9587, 3481.293
162.4408, 3479.984
162.9229, 3475.807
163.4050, 3470.951
163.8871, 3467.722
164.3693, 3466.950
164.8514, 3467.409
165.3335, 3466.105
165.8156, 3462.595
166.2977, 3457.985
166.7798, 3450.824
167.2620, 3442.883
167.7441, 3437.200
168.2262, 3435.419
168.7083, 3435.948
169.1904, 3434.132
169.6725, 3428.405
170.1547, 3423.645
170.6368, 3422.533
171.1189, 3424.156
171.6010, 3425.403
172.0831, 3424.863
172.5652, 3423.065
173.0474, 3421.262
173.5295, 3419.239
174.0116, 3417.612
174.4937, 3416.583
174.9758, 3416.149
175.4579, 3417.137
175.9401, 3421.848
176.4222, 3427.249
176.9043, 3429.830
177.3864, 3428.423
177.8685, 3425.392
178.3506, 3423.452
178.8328, 3422.606
179.3149, 3422.923
179.7970, 3425.539
180.2791, 3428.767
180.7612, 3431.180
181.2433, 3432.255
181.7255, 3432.343
182.2076, 3432.220
182.6897, 3432.120
183.1718, 3431.244
183.6539, 3428.565
184.1360, 3425.489
184.6181, 3423.771
185.1003, 3424.353
185.5824, 3426.229
186.0645, 3425.847
186.5466, 3421.589
187.0287, 3416.744
187.5108, 3411.433
187.9930, 3405.926
188.4751, 3400.411
188.9572, 3394.999
189.4393, 3389.789
189.9214, 3385.410
190.4035, 3383.251
190.8857, 3380.432
191.3678, 3375.700
191.8499, 3370.031
192.3320, 3365.147
192.8141, 3362.152
193.2962, 3360.780
193.7784, 3358.928
194.2605, 3356.274
194.7426, 3353.604
195.2247, 3351.964
195.7068, 3350.654
196.1889, 3347.204
196.6711, 3339.085
197.1532, 3328.047
197.6353, 3322.617
198.1174, 3327.746
198.5995, 3333.276
199.0816, 3332.817
199.5638, 3327.200
200.0459, 3322.262
200.5280, 3322.023
201.0101, 3324.796
201.4922, 3325.188
201.9743, 3320.645
202.4565, 3316.082
202.9386, 3316.715
203.4207, 3322.731
203.9028, 3327.607
204.3849, 3326.448
204.8670, 3322.413
205.3492, 3320.072
205.8313, 3320.924
206.3134, 3322.880
206.7955, 3323.299
207.2776, 3321.856
207.7597, 3320.384
208.2419, 3319.837
208.7240, 3319.633
209.2061, 3319.110
209.6882, 3317.830
210.1703, 3316.572
210.6524, 3317.167
211.1346, 3320.973
211.6167, 3322.990
212.0988, 3320.652
212.5809, 3316.385
213.0630, 3312.397
213.5451, 3309.608
214.0273, 3307.426
214.5094, 3304.384
214.9915, 3299.446
215.4736, 3295.589
215.9557, 3294.565
216.4378, 3294.217
216.9200, 3292.090
217.4021, 3287.051
217.8842, 3280.426
218.3663, 3276.146
218.8484, 3277.376
219.3305, 3276.384
219.8127, 3270.589
220.2948, 3262.999
220.7769, 3256.963
221.2590, 3254.010
221.7411, 3252.905
222.2232, 3250.003
222.7054, 3244.163
223.1875, 3237.634
223.6696, 3230.383
224.1517, 3222.570
224.6338, 3214.288
225.1159, 3205.547
225.5980, 3196.539
226.0802, 3187.825
226.5623, 3178.101
227.0444, 3170.330
227.5265, 3166.431
228.0086, 3164.132
228.4907, 3160.504
228.9729, 3154.278
229.4550, 3146.442
229.9371, 3139.533
230.4192, 3132.740
230.9013, 3127.981
231.3834, 3127.077
231.8656, 3128.083
232.3477, 3128.000
232.8298, 3125.573
233.3119, 3122.008
233.7940, 3120.029
234.2761, 3120.223
234.7583, 3120.132
235.2404, 3118.668
235.7225, 3116.578
236.2046, 3115.409
236.6867, 3115.940
237.1688, 3116.825
237.6510, 3115.162
238.1331, 3110.417
238.6152, 3106.810
239.0973, 3106.792
239.5794, 3108.844
240.0615, 3109.620
240.5437, 3107.957
241.0258, 3105.332
241.5079, 3103.969
241.9900, 3103.899
242.4721, 3103.034
242.9542, 3099.125
243.4364, 3093.748
243.9185, 3091.357
244.4006, 3093.936
244.8827, 3097.661
245.3648, 3098.649
245.8469, 3097.239
246.3290, 3095.436
246.8112, 3094.724
247.2933, 3094.428
247.7754, 3092.013
248.2575, 3085.706
248.7396, 3079.734
249.2217, 3077.943
249.7039, 3079.285
250.1860, 3080.316
250.6681, 3078.922
251.1502, 3075.690
251.6323, 3072.752
252.1144, 3070.250
252.5966, 3067.988
253.0787, 3066.155
253.5608, 3064.466
254.0429, 3062.208
254.5250, 3058.559
255.0071, 3054.024
255.4893, 3050.603
255.9714, 3048.949
256.4535, 3047.458
256.9356, 3045.640
257.4177, 3043.457
257.8998, 3040.741
258.3820, 3037.142
258.8641, 3033.075
259.3462, 3030.034
259.8283, 3028.389
260.3104, 3027.252
260.7925, 3026.743
261.2747, 3026.340
261.7568, 3025.320
262.2389, 3023.251
262.7210, 3020.471
263.2031, 3017.902
263.6852, 3015.450
264.1674, 3013.423
264.6495, 3011.380
265.1316, 3009.922
265.6137, 3010.103
266.0958, 3012.486
266.5779, 3015.771
267.0601, 3016.685
267.5422, 3013.482
268.0243, 3010.992
268.5064, 3010.048
268.9885, 3009.944
269.4706, 3010.362
269.9528, 3011.145
270.4349, 3011.759
270.9170, 3010.978
271.3991, 3007.425
271.8812, 3005.244
272.3633, 3005.544
272.8455, 3006.552
273.3276, 3006.878
273.8097, 3006.207
274.2918, 3005.237
274.7739, 3005.335
275.2560, 3008.393
275.7382, 3008.256
276.2202, 3002.392
276.7024, 2995.910
277.1845, 2991.823
277.6666, 2990.607
278.1487, 2991.053
278.6308, 2991.816
279.1129, 2993.034
279.5951, 2994.035
280.0772, 2994.818
280.5593, 2995.411
281.0414, 2996.155
281.5235, 2996.831
282.0056, 2996.675
282.4878, 2994.844
282.9699, 2991.027
283.4520, 2987.676
283.9341, 2984.240
284.4162, 2981.711
284.8983, 2981.583
285.3805, 2982.880
285.8626, 2983.011
286.3447, 2979.767
286.8268, 2973.251
287.3089, 2968.602
287.7910, 2968.366
288.2732, 2967.149
288.7553, 2962.054
289.2374, 2954.935
289.7195, 2949.603
290.2016, 2948.499
290.6837, 2950.714
291.1659, 2951.187
291.6480, 2948.602
292.1301, 2945.790
292.6122, 2942.966
293.0943, 2940.223
293.5764, 2937.564
294.0586, 2934.960
294.5407, 2932.609
295.0228, 2931.048
295.5049, 2931.626
295.9870, 2931.359
296.4691, 2929.684
296.9513, 2927.321
297.4334, 2925.351
297.9155, 2924.086
298.3976, 2922.375
298.8797, 2918.056
299.3618, 2907.700
299.8440, 2901.439
300.3261, 2902.862
300.8082, 2906.075
301.2903, 2906.092
301.7724, 2902.091
302.2545, 2896.876
302.7367, 2893.841
303.2188, 2894.024
303.7009, 2892.208
304.1830, 2886.698
304.6651, 2880.732
305.1472, 2876.725
305.6294, 2874.449
306.1115, 2871.661
306.5936, 2866.238
307.0757, 2857.934
307.5578, 2851.499
308.0399, 2848.442
308.5221, 2845.393
309.0042, 2841.243
309.4863, 2835.935
309.9684, 2829.350
310.4505, 2821.138
310.9326, 2811.821
311.4148, 2805.399
311.8969, 2804.724
312.3790, 2803.165
312.8611, 2798.346
313.3432, 2791.777
313.8253, 2785.844
314.3075, 2781.647
314.7896, 2778.753
315.2717, 2776.099
315.7538, 2775.052
316.2359, 2772.259
316.7180, 2765.443
317.2001, 2757.638
317.6823, 2752.389
318.1644, 2750.663
318.6465, 2750.583
319.1286, 2749.289
319.6107, 2745.757
320.0928, 2743.518
320.5750, 2743.600
321.0571, 2744.182
321.5392, 2743.923
322.0213, 2742.647
322.5034, 2740.916
322.9855, 2739.339
323.4677, 2737.989
323.9498, 2735.834
324.4319, 2731.169
324.9140, 2727.356
325.3961, 2726.913
325.8782, 2728.941
326.3604, 2730.393
326.8425, 2728.995
327.3246, 2725.114
327.8067, 2722.840
328.2888, 2723.605
328.7709, 2724.158
329.2531, 2723.479
329.7352, 2722.115
330.2173, 2721.183
330.6994, 2721.270
331.1815, 2721.703
331.6636, 2720.604
332.1458, 2715.468
332.6279, 2711.914
333.1100, 2710.876
333.5921, 2711.132
334.0742, 2711.276
334.5563, 2710.979
335.0385, 2711.316
335.5206, 2714.149
336.0027, 2721.783
336.4848, 2725.723
336.9669, 2723.231
337.4490, 2719.635
337.9312, 2718.858
338.4133, 2720.731
338.8954, 2722.047
339.3775, 2719.497
339.8596, 2712.508
340.3417, 2708.809
340.8239, 2710.658
341.3060, 2712.950
341.7881, 2713.917
342.2702, 2713.940
342.7523, 2714.120
343.2344, 2715.147
343.7166, 2716.819
344.1987, 2718.156
344.6808, 2720.200
345.1629, 2720.570
345.6450, 2717.514
346.1271, 2713.290
346.6093, 2710.346
347.0914, 2709.604
347.5735, 2710.302
348.0556, 2711.215
348.5377, 2713.554
349.0198, 2713.785
349.5020, 2709.871
349.9841, 2705.688
350.4662, 2704.164
350.9483, 2705.423
351.4304, 2707.413
351.9125, 2707.846
352.3947, 2706.373
352.8768, 2705.726
353.3589, 2706.142
353.8410, 2707.129
354.3231, 2709.269
354.8052, 2711.832
355.2874, 2713.524
355.7695, 2713.490
356.2516, 2711.816
356.7337, 2708.795
357.2158, 2701.532
357.6979, 2697.007
358.1800, 2697.580
358.6621, 2700.851
359.1443, 2704.597
359.6264, 2707.968
360.1085, 2710.646
360.5906, 2711.911
361.0727, 2711.141
361.5548, 2710.590
362.0370, 2710.666
362.5191, 2710.895
363.0012, 2711.099
363.4833, 2711.204
363.9654, 2711.085
364.4475, 2710.278
364.9297, 2708.659
365.4118, 2708.427
365.8939, 2710.910
366.3760, 2713.368
366.8581, 2714.341
367.3402, 2714.465
367.8224, 2715.156
368.3045, 2717.395
368.7866, 2720.624
369.2687, 2723.310
369.7508, 2725.556
370.2329, 2726.962
370.7151, 2726.801
371.1972, 2726.109
371.6793, 2725.983
372.1614, 2726.806
372.6435, 2727.778
373.1256, 2727.935
373.6078, 2727.251
374.0899, 2726.202
374.5720, 2723.890
375.0541, 2722.195
375.5362, 2722.983
376.0183, 2726.012
376.5005, 2728.775
376.9826, 2728.613
377.4647, 2726.708
377.9468, 2727.987
378.4289, 2734.262
378.9110, 2740.289
379.3932, 2742.623
379.8753, 2742.225
380.3574, 2740.450
380.8395, 2736.363
381.3216, 2732.315
381.8037, 2731.695
382.2859, 2734.573
382.7680, 2737.431
383.2501, 2739.154
383.7322, 2739.639
384.2143, 2738.809
384.6964, 2736.314
385.1786, 2733.805
385.6607, 2732.150
386.1428, 2731.235
386.6249, 2730.913
387.1070, 2731.396
387.5891, 2731.821
388.0713, 2730.827
388.5534, 2728.581
389.0355, 2726.974
389.5176, 2726.834
389.9997, 2727.238
390.4818, 2727.387
390.9640, 2727.215
391.4461, 2726.754
391.9282, 2726.019
392.4103, 2724.982
392.8924, 2723.643
393.3745, 2720.906
393.8567, 2719.044
394.3388, 2719.609
394.8209, 2721.585
395.3030, 2722.978
395.7851, 2723.020
396.2672, 2722.342
396.7494, 2722.119
397.2315, 2722.903
397.7136, 2722.699
398.1957, 2720.194
398.6778, 2717.464
399.1599, 2716.574
399.6420, 2717.490
400.1241, 2718.406
400.6063, 2717.678
401.0884, 2715.250
401.5705, 2713.165
402.0526, 2711.950
402.5347, 2710.483
403.0168, 2708.383
403.4990, 2705.837
403.9811, 2703.037
404.4632, 2700.080
404.9453, 2697.285
405.4274, 2695.540
405.9095, 2696.383
406.3917, 2695.692
406.8738, 2692.271
407.3559, 2688.250
407.8380, 2684.187
408.3201, 2680.724
408.8022, 2679.530
409.2844, 2683.114
409.7665, 2691.966
410.2486, 2697.231
410.7307, 2696.679
411.2128, 2694.586
411.6949, 2690.404
412.1771, 2685.871
412.6592, 2683.900
413.1413, 2686.293
413.6234, 2690.745
414.1055, 2692.038
414.5876, 2688.961
415.0698, 2686.424
415.5519, 2686.795
416.0340, 2687.311
416.5161, 2685.199
416.9982, 2680.415
417.4803, 2676.866
417.9625, 2679.152
418.4446, 2686.197
418.9267, 2690.384
419.4088, 2690.054
419.8909, 2688.855
420.3730, 2688.928
420.8552, 2689.894
421.3373, 2691.065
421.8194, 2692.361
422.3015, 2693.601
422.7836, 2694.712
423.2657, 2695.683
423.7479, 2695.909
424.2300, 2694.606
424.7121, 2692.914
425.1942, 2692.913
425.6763, 2695.111
426.1584, 2696.392
426.6406, 2693.775
427.1227, 2689.849
427.6048, 2689.787
428.0869, 2694.716
428.5690, 2699.886
429.0511, 2700.668
429.5333, 2697.011
430.0154, 2694.953
430.4975, 2696.493
430.9796, 2697.765
431.4617, 2695.478
431.9438, 2691.121
432.4260, 2688.881
432.9081, 2690.929
433.3902, 2695.432
433.8723, 2698.101
434.3544, 2698.006
434.8365, 2697.436
435.3187, 2695.225
435.8008, 2693.363
436.2829, 2694.082
436.7650, 2697.240
437.2471, 2700.575
437.7292, 2702.060
438.2114, 2701.683
438.6935, 2700.173
439.1756, 2695.861
439.6577, 2692.288
440.1398, 2689.994
440.6219, 2689.033
441.1040, 2690.054
441.5862, 2693.312
442.0683, 2696.908
442.5504, 2696.911
443.0325, 2691.663
443.5146, 2687.970
443.9967, 2688.102
444.4789, 2688.543
444.9610, 2687.427
445.4431, 2684.930
445.9252, 2682.305
446.4073, 2680.409
446.8894, 2679.109
447.3716, 2677.841
447.8537, 2676.381
448.3358, 2675.486
448.8179, 2675.568
449.3000, 2676.326
449.7821, 2677.877
450.2643, 2680.581
450.7464, 2682.417
451.2285, 2681.088
451.7106, 2677.178
452.1927, 2673.704
452.6748, 2671.442
453.1570, 2669.389
453.6391, 2665.690
454.1212, 2660.930
454.6033, 2658.469
455.0854, 2661.687
455.5675, 2665.617
456.0497, 2665.712
456.5318, 2662.289
457.0139, 2657.787
457.4960, 2653.141
457.9781, 2648.587
458.4602, 2644.883
458.9424, 2642.763
459.4245, 2639.854
459.9066, 2635.094
460.3887, 2629.729
460.8708, 2625.002
461.3529, 2621.099
461.8351, 2617.520
462.3172, 2613.753
462.7993, 2609.802
463.2814, 2606.214
463.7635, 2603.445
464.2456, 2600.483
464.7278, 2596.923
465.2099, 2593.031
465.6920, 2589.093
466.1741, 2585.215
466.6562, 2581.578
467.1383, 2578.664
467.6205, 2576.970
468.1026, 2574.358
468.5847, 2570.051
469.0668, 2565.442
469.5489, 2560.998
470.0310, 2556.773
470.5132, 2552.771
470.9953, 2548.977
471.4774, 2545.430
471.9595, 2542.136
472.4416, 2538.986
472.9237, 2536.569
473.4059, 2536.105
473.8880, 2535.889
474.3701, 2534.394
474.8522, 2531.448
475.3343, 2527.767
475.8164, 2522.962
476.2986, 2517.857
476.7807, 2514.786
477.2628, 2514.337
477.7449, 2514.154
478.2270, 2512.400
478.7091, 2509.406
479.1913, 2506.752
479.6734, 2504.130
480.1555, 2502.275
480.6376, 2502.504
481.1197, 2503.672
481.6018, 2503.169
482.0839, 2500.078
482.5660, 2495.899
483.0482, 2492.613
483.5303, 2490.374
484.0124, 2488.709
484.4945, 2488.255
484.9766, 2487.741
485.4587, 2486.492
485.9409, 2484.616
486.4230, 2482.549
486.9051, 2480.538
487.3872, 2478.425
487.8693, 2475.583
488.3514, 2470.455
488.8336, 2467.598
489.3157, 2469.376
489.7978, 2471.573
490.2799, 2471.106
490.7620, 2468.144
491.2441, 2465.097
491.7263, 2464.237
492.2084, 2464.888
492.6905, 2463.452
493.1726, 2458.790
493.6547, 2454.819
494.1368, 2453.063
494.6190, 2452.888
495.1011, 2454.600
495.5832, 2458.682
496.0653, 2461.191
496.5474, 2457.577
497.0295, 2449.948
497.5117, 2444.785
497.9938, 2443.257
498.4759, 2443.259
498.9580, 2443.808
499.4401, 2444.559
499.9222, 2443.879
500.4044, 2440.352
500.8865, 2436.712
501.3686, 2434.352
501.8507, 2432.884
502.3328, 2431.489
502.8149, 2429.899
503.2971, 2428.290
503.7792, 2426.962
504.2613, 2426.124
504.7434, 2424.769
505.2255, 2422.000
505.7076, 2419.680
506.1898, 2419.039
506.6719, 2419.506
507.1540, 2419.921
507.6361, 2419.693
508.1182, 2418.927
508.6003, 2417.906
509.0825, 2416.813
509.5646, 2414.964
510.0467, 2410.629
510.5288, 2406.941
511.0109, 2406.477
511.4930, 2408.404
511.9752, 2409.404
512.4573, 2406.925
512.9394, 2402.443
513.4215, 2399.253
513.9036, 2397.426
514.3857, 2396.406
514.8679, 2396.633
515.3500, 2397.083
515.8321, 2396.418
516.3142, 2394.512
516.7963, 2392.390
517.2784, 2390.150
517.7606, 2388.100
518.2427, 2386.687
518.7248, 2385.940
519.2069, 2385.666
519.6890, 2385.925
520.1711, 2386.487
520.6533, 2386.153
521.1354, 2384.657
521.6175, 2382.786
522.0996, 2380.155
522.5817, 2377.505
523.0638, 2375.659
523.5460, 2374.710
524.0281, 2374.133
524.5102, 2373.420
524.9923, 2372.585
525.4744, 2372.204
525.9565, 2372.873
526.4387, 2373.223
526.9208, 2372.700
527.4029, 2371.888
527.8850, 2371.584
528.3671, 2371.945
528.8492, 2372.055
529.3314, 2370.829
529.8135, 2368.399
530.2956, 2365.949
530.7777, 2363.403
531.2598, 2361.166
531.7419, 2359.272
532.2241, 2357.911
532.7062, 2357.594
533.1883, 2358.946
533.6704, 2360.289
534.1525, 2361.003
534.6346, 2360.806
535.1168, 2358.187
535.5989, 2352.503
536.0810, 2347.709
536.5631, 2348.531
537.0452, 2355.311
537.5273, 2358.142
538.0095, 2353.657
538.4916, 2349.364
538.9737, 2348.028
539.4558, 2348.628
539.9379, 2349.888
540.4200, 2351.275
540.9022, 2352.140
541.3843, 2351.374
541.8664, 2348.537
542.3485, 2346.605
542.8306, 2346.895
543.3127, 2346.704
543.7948, 2344.219
544.2769, 2341.007
544.7590, 2339.721
545.2411, 2341.515
545.7233, 2344.100
546.2054, 2344.552
546.6875, 2343.011
547.1696, 2341.407
547.6517, 2339.577
548.1339, 2338.572
548.6160, 2340.218
549.0981, 2343.496
549.5802, 2345.519
550.0623, 2345.370
550.5444, 2344.209
551.0266, 2342.128
551.5087, 2339.640
551.9908, 2338.138
552.4729, 2338.087
552.9550, 2338.218
553.4371, 2336.743
553.9193, 2333.070
554.4014, 2331.528
554.8835, 2334.069
555.3656, 2336.286
555.8477, 2336.185
556.3298, 2334.894
556.8120, 2334.318
557.2941, 2335.124
557.7762, 2336.191
558.2583, 2335.557
558.7404, 2332.836
559.2225, 2331.793
559.7047, 2334.122
560.1868, 2336.037
560.6689, 2335.088
561.1510, 2332.740
561.6331, 2331.618
562.1152, 2332.870
562.5974, 2334.473
563.0795, 2334.622
563.5616, 2333.570
564.0437, 2332.179
564.5258, 2330.558
565.0079, 2328.848
565.4901, 2327.005
565.9722, 2325.114
566.4543, 2324.048
566.9364, 2323.874
567.4185, 2324.458
567.9006, 2326.798
568.3828, 2329.485
568.8649, 2330.282
569.3470, 2328.735
569.8291, 2326.513
570.3112, 2325.566
570.7933, 2325.981
571.2755, 2326.106
571.7576, 2326.346
572.2397, 2325.711
572.7218, 2322.686
573.2039, 2319.315
573.6860, 2318.180
574.1682, 2319.860
574.6503, 2322.087
575.1324, 2322.754
575.6145, 2322.142
576.0966, 2321.505
576.5787, 2320.929
577.0609, 2320.271
577.5430, 2319.481
578.0251, 2318.528
578.5072, 2317.390
578.9893, 2316.049
579.4714, 2314.563
579.9536, 2312.376
580.4357, 2310.368
580.9178, 2310.191
581.3999, 2311.708
581.8820, 2312.595
582.3641, 2310.969
582.8463, 2307.312
583.3284, 2304.365
583.8105, 2302.241
584.2926, 2300.755
584.7747, 2300.747
585.2568, 2300.702
585.7390, 2299.208
586.2211, 2296.437
586.7032, 2293.751
587.1853, 2292.095
587.6674, 2291.239
588.1495, 2291.035
588.6317, 2291.851
589.1138, 2290.793
589.5959, 2285.113
590.0780, 2278.878
590.5601, 2277.495
591.0422, 2280.853
591.5244, 2283.073
592.0065, 2282.610
592.4886, 2280.050
592.9707, 2274.638
593.4528, 2267.410
593.9349, 2261.328
594.4171, 2257.635
594.8992, 2256.350
595.3813, 2257.912
595.8634, 2264.412
596.3455, 2267.460
596.8276, 2265.884
597.3098, 2262.606
597.7919, 2257.764
598.2740, 2252.330
598.7561, 2247.615
599.2382, 2244.152
599.7203, 2241.540
600.2025, 2239.471
600.6846, 2237.920
601.1667, 2236.060
601.6488, 2233.957
602.1309, 2231.285
602.6130, 2226.994
603.0952, 2222.098
603.5773, 2218.897
604.0594, 2218.466
604.5415, 2218.273
605.0236, 2216.888
605.5057, 2214.974
605.9879, 2213.895
606.4700, 2213.727
606.9521, 2212.746
607.4342, 2209.261
607.9163, 2203.792
608.3984, 2200.286
608.8806, 2199.805
609.3627, 2199.942
609.8448, 2201.355
610.3269, 2202.624
610.8090, 2202.737
611.2911, 2201.613
611.7733, 2199.547
612.2554, 2196.256
612.7375, 2192.602
613.2196, 2190.675
613.7017, 2190.585
614.1838, 2191.117
614.6660, 2192.544
615.1481, 2193.698
615.6302, 2192.998
616.1123, 2190.593
616.5944, 2188.181
617.0765, 2186.114
617.5587, 2184.158
618.0408, 2182.281
618.5229, 2180.381
619.0050, 2177.969
619.4871, 2174.901
619.9692, 2172.315
620.4514, 2172.120
620.9335, 2174.986
621.4156, 2175.017
621.8977, 2168.452
622.3798, 2163.464
622.8619, 2163.756
623.3441, 2165.907
623.8262, 2165.537
624.3083, 2161.687
624.7904, 2157.977
625.2725, 2158.079
625.7546, 2160.622
626.2367, 2161.909
626.7188, 2161.726
627.2009, 2160.664
627.6830, 2158.629
628.1652, 2156.228
628.6473, 2155.004
629.1294, 2155.505
629.6115, 2155.246
630.0936, 2153.231
630.5757, 2150.878
631.0579, 2148.986
631.5400, 2147.636
632.0221, 2146.798
632.5042, 2146.471
632.9863, 2146.432
633.4684, 2146.328
633.9506, 2146.199
634.4327, 2145.719
634.9148, 2144.089
635.3969, 2143.126
635.8790, 2144.778
636.3611, 2147.362
636.8433, 2147.565
637.3254, 2143.659
637.8075, 2140.198
638.2896, 2142.222
638.7717, 2146.518
639.2538, 2146.042
639.7360, 2139.994
640.2181, 2133.999
640.7002, 2132.154
641.1823, 2133.368
641.6644, 2133.179
642.1465, 2129.903
642.6287, 2127.530
643.1108, 2126.084
643.5929, 2125.589
644.0750, 2126.777
644.5571, 2128.953
645.0392, 2130.275
645.5214, 2129.555
646.0035, 2128.045
646.4856, 2128.030
646.9677, 2129.505
647.4498, 2130.399
647.9319, 2130.179
648.4141, 2129.668
648.8962, 2129.749
649.3783, 2130.104
649.8604, 2129.515
650.3425, 2126.719
650.8246, 2124.524
651.3068, 2124.378
651.7889, 2125.245
652.2710, 2125.957
652.7531, 2126.309
653.2352, 2126.658
653.7173, 2127.365
