##NAMES=Sonoraite
##RRUFFID=R070745
##IDEAL CHEMISTRY=Fe^3+^Te^4+^O_3_(OH)&#183;H_2_O
##LOCALITY=Tombstone, Tombstone District, Cochise County, Arizona, USA
##OWNER=RRUFF
##SOURCE=Michael Scott
##DESCRIPTION=Massive, lime-yellow crystals associated with anglesite, calcite and jarosite
##STATUS=The identification of this mineral has been confirmed only by single crystal X-ray diffraction.
##URL=rruff.info/R070745
131.5764, 4812.400
132.0585, 4656.054
132.5406, 4511.883
133.0227, 4370.509
133.5048, 4208.551
133.9869, 4075.889
134.4691, 3988.350
134.9512, 3933.464
135.4333, 3891.821
135.9154, 3851.237
136.3975, 3812.553
136.8796, 3787.243
137.3618, 3780.482
137.8439, 3779.212
138.3260, 3775.822
138.8081, 3770.986
139.2902, 3772.660
139.7723, 3791.537
140.2545, 3827.093
140.7366, 3849.129
141.2187, 3841.904
141.7008, 3826.750
142.1829, 3828.774
142.6650, 3853.636
143.1472, 3884.669
143.6293, 3904.781
144.1114, 3916.249
144.5935, 3929.427
145.0756, 3949.813
145.5577, 3975.382
146.0399, 3998.522
146.5220, 4012.454
147.0041, 4031.132
147.4862, 4066.004
147.9683, 4116.489
148.4504, 4171.359
148.9326, 4222.712
149.4147, 4271.016
149.8968, 4314.277
150.3789, 4355.539
150.8610, 4388.935
151.3431, 4411.133
151.8252, 4421.295
152.3074, 4419.501
152.7895, 4402.898
153.2716, 4359.998
153.7537, 4327.079
154.2358, 4315.713
154.7179, 4310.564
155.2001, 4297.030
155.6822, 4268.700
156.1643, 4232.119
156.6464, 4207.209
157.1285, 4196.393
157.6106, 4196.665
158.0928, 4221.060
158.5749, 4253.687
159.0570, 4276.251
159.5391, 4278.928
160.0212, 4260.957
160.5033, 4210.301
160.9855, 4109.681
161.4676, 3999.558
161.9497, 3887.484
162.4318, 3775.308
162.9139, 3664.020
163.3960, 3553.149
163.8782, 3443.033
164.3603, 3345.959
164.8424, 3261.983
165.3245, 3188.627
165.8066, 3121.124
166.2887, 3059.698
166.7709, 3017.066
167.2530, 3012.120
167.7351, 3044.626
168.2172, 3069.820
168.6993, 3077.892
169.1814, 3078.331
169.6636, 3080.822
170.1457, 3085.609
170.6278, 3096.759
171.1099, 3120.357
171.5920, 3154.392
172.0741, 3193.670
172.5563, 3235.508
173.0384, 3281.106
173.5205, 3334.071
174.0026, 3398.232
174.4847, 3466.587
174.9668, 3534.202
175.4490, 3601.059
175.9311, 3664.816
176.4132, 3716.395
176.8953, 3757.002
177.3774, 3819.106
177.8595, 3925.468
178.3417, 4043.375
178.8238, 4160.482
179.3059, 4274.259
179.7880, 4370.432
180.2701, 4430.214
180.7522, 4448.033
181.2344, 4452.614
181.7165, 4454.347
182.1986, 4441.083
182.6807, 4400.476
183.1628, 4329.849
183.6449, 4241.722
184.1271, 4154.904
184.6092, 4064.697
185.0913, 3986.709
185.5734, 3928.021
186.0555, 3877.179
186.5376, 3823.292
187.0198, 3761.890
187.5019, 3698.742
187.9840, 3648.066
188.4661, 3622.806
188.9482, 3595.105
189.4303, 3554.847
189.9125, 3513.168
190.3946, 3483.949
190.8767, 3474.253
191.3588, 3480.689
191.8409, 3487.323
192.3230, 3497.647
192.8052, 3504.278
193.2873, 3499.547
193.7694, 3490.543
194.2515, 3488.576
194.7336, 3500.027
195.2157, 3524.583
195.6979, 3562.046
196.1800, 3632.488
196.6621, 3692.425
197.1442, 3715.884
197.6263, 3713.156
198.1084, 3717.417
198.5906, 3753.780
199.0727, 3819.184
199.5548, 3867.341
200.0369, 3883.116
200.5190, 3896.038
201.0011, 3922.396
201.4833, 3962.240
201.9654, 4008.147
202.4475, 4056.592
202.9296, 4107.116
203.4117, 4156.223
203.8938, 4201.156
204.3760, 4246.406
204.8581, 4297.428
205.3402, 4355.102
205.8223, 4411.225
206.3044, 4458.610
206.7865, 4498.967
207.2687, 4537.597
207.7508, 4589.395
208.2329, 4634.424
208.7150, 4639.703
209.1971, 4595.544
209.6792, 4542.033
210.1614, 4516.271
210.6435, 4506.610
211.1256, 4485.209
211.6077, 4438.748
212.0898, 4374.002
212.5719, 4304.100
213.0541, 4226.945
213.5362, 4149.792
214.0183, 4077.565
214.5004, 4009.344
214.9825, 3942.843
215.4646, 3874.919
215.9468, 3807.411
216.4289, 3748.730
216.9110, 3696.755
217.3931, 3658.611
217.8752, 3640.555
218.3573, 3637.816
218.8395, 3636.859
219.3216, 3627.986
219.8037, 3611.996
220.2858, 3598.392
220.7679, 3585.958
221.2500, 3577.975
221.7322, 3576.741
222.2143, 3581.189
222.6964, 3587.960
223.1785, 3593.538
223.6606, 3597.632
224.1427, 3606.968
224.6249, 3621.645
225.1070, 3642.337
225.5891, 3677.708
226.0712, 3721.969
226.5533, 3757.317
227.0354, 3761.270
227.5176, 3726.363
227.9997, 3712.123
228.4818, 3734.025
228.9639, 3764.301
229.4460, 3798.603
229.9281, 3833.009
230.4103, 3860.687
230.8924, 3871.154
231.3745, 3857.091
231.8566, 3859.518
232.3387, 3888.379
232.8208, 3923.952
233.3030, 3955.877
233.7851, 3984.865
234.2672, 4018.765
234.7493, 4065.834
235.2314, 4126.612
235.7135, 4200.327
236.1957, 4294.654
236.6778, 4393.540
237.1599, 4481.180
237.6420, 4560.542
238.1241, 4651.422
238.6062, 4778.907
239.0884, 4960.052
239.5705, 5122.867
240.0526, 5250.677
240.5347, 5375.710
241.0168, 5513.798
241.4989, 5668.266
241.9811, 5834.003
242.4632, 6006.879
242.9453, 6189.864
243.4274, 6372.413
243.9095, 6550.317
244.3916, 6729.998
244.8738, 6913.021
245.3559, 7100.765
245.8380, 7301.198
246.3201, 7524.274
246.8022, 7776.447
247.2843, 8034.473
247.7665, 8298.010
248.2486, 8568.402
248.7307, 8846.949
249.2128, 9133.869
249.6949, 9426.837
250.1770, 9727.666
250.6592, 10049.17
251.1413, 10322.08
251.6234, 10540.88
252.1055, 10718.13
252.5876, 10863.44
253.0697, 10977.63
253.5519, 11059.55
254.0340, 11106.54
254.5161, 11113.40
254.9982, 11086.14
255.4803, 11004.60
255.9624, 10903.47
256.4445, 10801.37
256.9267, 10703.17
257.4088, 10617.52
257.8909, 10553.67
258.3730, 10516.33
258.8551, 10489.69
259.3372, 10472.67
259.8194, 10467.07
260.3015, 10475.74
260.7836, 10498.64
261.2657, 10532.39
261.7478, 10578.79
262.2299, 10641.27
262.7121, 10678.44
263.1942, 10677.59
263.6763, 10659.16
264.1584, 10646.39
264.6405, 10640.02
265.1227, 10611.86
265.6048, 10536.55
266.0869, 10407.92
266.5690, 10255.23
267.0511, 10084.15
267.5332, 9885.104
268.0154, 9645.900
268.4975, 9366.803
268.9796, 9066.666
269.4617, 8761.482
269.9438, 8446.717
270.4259, 8114.942
270.9081, 7747.275
271.3902, 7375.517
271.8723, 7024.591
272.3544, 6693.473
272.8365, 6372.646
273.3186, 6051.029
273.8008, 5731.615
274.2829, 5432.288
274.7650, 5144.227
275.2471, 4883.042
275.7292, 4666.565
276.2113, 4493.701
276.6935, 4337.397
277.1756, 4180.919
277.6577, 4027.101
278.1398, 3892.156
278.6219, 3776.477
279.1040, 3678.600
279.5862, 3603.881
280.0683, 3549.701
280.5504, 3496.688
281.0325, 3429.375
281.5146, 3355.484
281.9967, 3303.325
282.4789, 3290.015
282.9610, 3282.006
283.4431, 3257.106
283.9252, 3218.134
284.4073, 3181.283
284.8894, 3154.110
285.3716, 3135.947
285.8537, 3121.491
286.3358, 3108.039
286.8179, 3101.347
287.3000, 3107.558
287.7821, 3124.242
288.2643, 3140.654
288.7464, 3149.755
289.2285, 3157.952
289.7106, 3180.371
290.1927, 3221.416
290.6748, 3266.812
291.1570, 3311.197
291.6391, 3354.908
292.1212, 3398.298
292.6033, 3440.971
293.0854, 3484.255
293.5675, 3530.453
294.0497, 3579.508
294.5318, 3631.649
295.0139, 3687.387
295.4960, 3746.342
295.9781, 3808.783
296.4602, 3876.179
296.9424, 3944.195
297.4245, 4001.415
297.9066, 4044.007
298.3887, 4095.507
298.8708, 4163.571
299.3529, 4245.258
299.8351, 4337.521
300.3172, 4441.337
300.7993, 4549.718
301.2814, 4653.867
301.7635, 4752.947
302.2456, 4852.861
302.7278, 4948.826
303.2099, 5047.947
303.6920, 5160.537
304.1741, 5289.257
304.6562, 5424.923
305.1383, 5557.616
305.6205, 5686.080
306.1026, 5826.117
306.5847, 5990.478
307.0668, 6161.710
307.5489, 6325.696
308.0310, 6481.165
308.5132, 6622.447
308.9953, 6743.725
309.4774, 6843.321
309.9595, 6930.970
310.4416, 7002.017
310.9237, 7064.762
311.4059, 7137.270
311.8880, 7215.928
312.3701, 7263.682
312.8522, 7250.093
313.3343, 7173.703
313.8164, 7082.231
314.2986, 6989.731
314.7807, 6871.446
315.2628, 6704.981
315.7449, 6497.606
316.2270, 6275.880
316.7091, 6054.907
317.1913, 5834.208
317.6734, 5610.971
318.1555, 5375.938
318.6376, 5147.787
319.1197, 4936.032
319.6018, 4735.959
320.0840, 4532.894
320.5661, 4318.912
321.0482, 4101.180
321.5303, 3909.588
322.0124, 3746.889
322.4945, 3600.558
322.9767, 3477.993
323.4588, 3367.948
323.9409, 3250.153
324.4230, 3115.616
324.9051, 2979.879
325.3872, 2873.730
325.8694, 2812.324
326.3515, 2755.197
326.8336, 2702.496
327.3157, 2652.002
327.7978, 2602.510
328.2799, 2553.596
328.7621, 2502.301
329.2442, 2442.345
329.7263, 2364.147
330.2084, 2304.145
330.6905, 2270.361
331.1726, 2248.054
331.6548, 2232.316
332.1369, 2219.734
332.6190, 2200.775
333.1011, 2163.812
333.5832, 2103.260
334.0653, 2056.750
334.5475, 2024.950
335.0296, 2003.477
335.5117, 1997.491
335.9938, 2001.349
336.4759, 2000.034
336.9580, 1980.819
337.4402, 1944.115
337.9223, 1916.884
338.4044, 1901.738
338.8865, 1892.864
339.3686, 1889.403
339.8507, 1891.144
340.3329, 1899.913
340.8150, 1917.702
341.2971, 1940.355
341.7792, 1949.778
342.2613, 1929.787
342.7434, 1916.363
343.2256, 1911.999
343.7077, 1916.550
344.1898, 1933.552
344.6719, 1964.060
345.1540, 1997.785
345.6361, 2012.276
346.1183, 1991.812
346.6004, 1982.359
347.0825, 1989.047
347.5646, 2004.428
348.0467, 2024.585
348.5288, 2048.069
349.0110, 2074.205
349.4931, 2104.230
349.9752, 2142.016
350.4573, 2168.496
350.9394, 2167.573
351.4215, 2168.500
351.9037, 2186.921
352.3858, 2220.794
352.8679, 2257.080
353.3500, 2283.913
353.8321, 2301.631
354.3142, 2323.423
354.7964, 2350.035
355.2785, 2380.227
355.7606, 2417.575
356.2427, 2457.678
356.7248, 2492.158
357.2069, 2514.878
357.6891, 2529.447
358.1712, 2544.770
358.6533, 2558.739
359.1354, 2578.752
359.6175, 2606.086
360.0996, 2641.039
360.5818, 2685.660
361.0639, 2742.258
361.5460, 2804.649
362.0281, 2868.881
362.5102, 2937.132
362.9923, 2988.775
363.4745, 2998.710
363.9566, 3001.028
364.4387, 3031.126
364.9208, 3095.437
365.4029, 3164.863
365.8850, 3211.977
366.3672, 3242.894
366.8493, 3295.397
367.3314, 3388.400
367.8135, 3488.929
368.2956, 3561.390
368.7777, 3607.898
369.2599, 3653.518
369.7420, 3706.660
370.2241, 3765.458
370.7062, 3827.717
371.1883, 3893.932
371.6704, 3960.162
372.1526, 4027.862
372.6347, 4094.632
373.1168, 4146.094
373.5989, 4172.677
374.0810, 4189.208
374.5631, 4206.301
375.0453, 4224.252
375.5274, 4241.766
376.0095, 4258.667
376.4916, 4274.299
376.9737, 4286.547
377.4558, 4296.638
377.9380, 4302.543
378.4201, 4302.022
378.9022, 4296.959
379.3843, 4289.537
379.8664, 4279.963
380.3485, 4271.810
380.8307, 4273.262
381.3128, 4292.306
381.7949, 4306.183
382.2770, 4315.703
382.7591, 4318.212
383.2412, 4307.611
383.7234, 4284.169
384.2055, 4258.548
384.6876, 4244.109
385.1697, 4245.510
385.6518, 4237.783
386.1339, 4215.714
386.6161, 4191.066
387.0982, 4171.147
387.5803, 4153.867
388.0624, 4132.270
388.5445, 4100.795
389.0266, 4060.285
389.5088, 4020.789
389.9909, 3988.670
390.4730, 3949.888
390.9551, 3896.952
391.4372, 3837.913
391.9193, 3782.454
392.4015, 3734.759
392.8836, 3692.720
393.3657, 3651.961
393.8478, 3612.987
394.3299, 3574.817
394.8120, 3536.951
395.2942, 3499.971
395.7763, 3460.780
396.2584, 3420.227
396.7405, 3388.336
397.2226, 3380.268
397.7047, 3396.291
398.1869, 3401.563
398.6690, 3385.353
399.1511, 3368.053
399.6332, 3359.910
400.1153, 3359.963
400.5974, 3364.717
401.0796, 3371.003
401.5617, 3381.198
402.0438, 3402.586
402.5259, 3437.963
403.0080, 3473.572
403.4901, 3500.233
403.9723, 3522.972
404.4544, 3548.468
404.9365, 3576.190
405.4186, 3609.699
405.9007, 3654.734
406.3828, 3709.229
406.8650, 3761.155
407.3471, 3803.537
407.8292, 3844.787
408.3113, 3901.543
408.7934, 3976.794
409.2755, 4047.666
409.7577, 4101.119
410.2398, 4147.987
410.7219, 4201.398
411.2040, 4263.601
411.6861, 4333.805
412.1682, 4414.403
412.6504, 4507.544
413.1325, 4584.760
413.6146, 4624.809
414.0967, 4669.100
414.5788, 4746.500
415.0609, 4849.079
415.5431, 4950.965
416.0252, 5036.865
416.5073, 5108.896
416.9894, 5178.313
417.4715, 5231.772
417.9536, 5299.746
418.4358, 5393.741
418.9179, 5499.756
419.4000, 5607.041
419.8821, 5711.209
420.3642, 5808.257
420.8463, 5892.399
421.3285, 5962.715
421.8106, 6021.117
422.2927, 6064.828
422.7748, 6099.631
423.2569, 6126.012
423.7390, 6145.314
424.2212, 6161.114
424.7033, 6178.608
425.1854, 6195.133
425.6675, 6194.671
426.1496, 6177.925
426.6317, 6140.882
427.1139, 6073.382
427.5960, 5990.531
428.0781, 5912.332
428.5602, 5849.149
429.0423, 5784.485
429.5244, 5696.279
430.0066, 5584.129
430.4887, 5467.776
430.9708, 5353.942
431.4529, 5236.134
431.9350, 5104.037
432.4171, 4956.035
432.8993, 4819.304
433.3814, 4712.989
433.8635, 4625.197
434.3456, 4534.188
434.8277, 4437.403
435.3098, 4337.144
435.7920, 4229.416
436.2741, 4116.802
436.7562, 4026.374
437.2383, 3979.368
437.7204, 3936.185
438.2025, 3870.256
438.6847, 3788.433
439.1668, 3710.460
439.6489, 3645.033
440.1310, 3592.223
440.6131, 3552.914
441.0952, 3539.710
441.5774, 3522.171
442.0595, 3492.497
442.5416, 3461.529
443.0237, 3437.736
443.5058, 3423.219
443.9879, 3417.849
444.4701, 3423.560
444.9522, 3443.331
445.4343, 3452.720
445.9164, 3438.649
446.3985, 3427.260
446.8806, 3429.685
447.3628, 3440.478
447.8449, 3447.222
448.3270, 3441.354
448.8091, 3432.007
449.2912, 3445.219
449.7733, 3491.864
450.2555, 3530.592
450.7376, 3541.247
451.2197, 3545.773
451.7018, 3558.372
452.1839, 3581.360
452.6660, 3614.222
453.1482, 3664.427
453.6303, 3726.417
454.1124, 3769.880
454.5945, 3782.345
455.0766, 3796.737
455.5587, 3846.673
456.0409, 3921.755
456.5230, 3992.556
457.0051, 4052.365
457.4872, 4106.141
457.9693, 4152.621
458.4514, 4194.857
458.9336, 4248.763
459.4156, 4323.320
459.8978, 4412.473
460.3799, 4500.614
460.8620, 4586.625
461.3441, 4673.586
461.8262, 4769.080
462.3083, 4862.137
462.7905, 4944.179
463.2726, 5012.340
463.7547, 5062.194
464.2368, 5090.487
464.7189, 5098.186
465.2010, 5074.094
465.6832, 5003.333
466.1653, 4919.084
466.6474, 4828.389
467.1295, 4732.196
467.6116, 4627.929
468.0938, 4514.874
468.5759, 4395.866
469.0580, 4279.031
469.5401, 4166.291
470.0222, 4049.216
470.5043, 3909.131
470.9865, 3777.459
471.4686, 3681.167
471.9507, 3619.325
472.4328, 3557.957
472.9149, 3463.946
473.3970, 3349.441
473.8792, 3260.317
474.3613, 3203.790
474.8434, 3156.985
475.3255, 3104.434
475.8076, 3051.277
476.2897, 3008.588
476.7719, 2984.273
477.2540, 2962.817
477.7361, 2933.259
478.2182, 2897.900
478.7003, 2864.876
479.1824, 2838.266
479.6646, 2810.689
480.1467, 2768.513
480.6288, 2702.013
481.1109, 2652.317
481.5930, 2635.021
482.0751, 2624.802
482.5573, 2605.760
483.0394, 2576.749
483.5215, 2541.486
484.0036, 2501.604
484.4857, 2458.616
484.9678, 2422.728
485.4500, 2398.959
485.9321, 2376.120
486.4142, 2354.534
486.8963, 2332.281
487.3784, 2307.355
487.8605, 2279.426
488.3427, 2249.922
488.8248, 2219.302
489.3069, 2187.389
489.7890, 2158.903
490.2711, 2133.233
490.7532, 2112.487
491.2354, 2100.417
491.7175, 2093.394
492.1996, 2082.523
492.6817, 2062.637
493.1638, 2039.351
493.6459, 2019.379
494.1281, 2002.404
494.6102, 1983.935
495.0923, 1960.528
495.5744, 1936.856
496.0565, 1922.639
496.5386, 1920.186
497.0208, 1914.391
497.5029, 1899.658
497.9850, 1881.186
498.4671, 1862.438
498.9492, 1844.575
499.4313, 1830.745
499.9135, 1824.675
500.3956, 1825.301
500.8777, 1817.837
501.3598, 1791.895
501.8419, 1770.394
502.3240, 1759.737
502.8062, 1754.238
503.2883, 1747.909
503.7704, 1738.833
504.2525, 1728.001
504.7346, 1715.749
505.2167, 1701.545
505.6989, 1690.401
506.1810, 1684.803
506.6631, 1679.712
507.1452, 1672.804
507.6273, 1664.570
508.1094, 1656.143
508.5916, 1647.760
509.0737, 1639.707
509.5558, 1633.721
510.0379, 1629.632
510.5200, 1621.286
511.0021, 1604.712
511.4843, 1585.045
511.9664, 1569.364
512.4485, 1557.296
512.9306, 1549.417
513.4127, 1550.145
513.8948, 1552.428
514.3770, 1549.509
514.8591, 1541.070
515.3412, 1529.444
515.8233, 1515.436
516.3054, 1500.117
516.7875, 1490.764
517.2697, 1496.445
517.7518, 1496.892
518.2339, 1487.052
518.7160, 1472.871
519.1981, 1458.962
519.6802, 1446.773
520.1624, 1437.037
520.6445, 1432.741
521.1266, 1434.238
521.6087, 1426.001
522.0908, 1400.305
522.5729, 1376.322
523.0551, 1362.948
523.5372, 1356.412
524.0193, 1351.461
524.5014, 1347.423
524.9835, 1342.283
525.4656, 1333.693
525.9478, 1322.128
526.4299, 1309.031
526.9120, 1293.562
527.3941, 1279.884
527.8762, 1274.460
528.3583, 1277.708
528.8405, 1277.865
529.3226, 1272.437
529.8047, 1264.834
530.2868, 1255.730
530.7689, 1246.232
531.2510, 1239.798
531.7332, 1238.638
532.2153, 1238.667
532.6974, 1228.642
533.1795, 1194.859
533.6616, 1176.473
534.1437, 1184.840
534.6259, 1197.791
535.1080, 1203.739
535.5901, 1201.730
536.0722, 1194.523
536.5543, 1182.456
537.0364, 1167.588
537.5186, 1156.724
538.0007, 1150.641
538.4828, 1145.472
538.9649, 1139.263
539.4470, 1133.673
539.9291, 1130.863
540.4113, 1131.274
540.8934, 1132.293
541.3755, 1131.362
541.8576, 1130.718
542.3397, 1137.133
542.8218, 1150.832
543.3040, 1157.357
543.7861, 1143.256
544.2682, 1112.188
544.7503, 1095.781
545.2324, 1105.653
545.7145, 1113.543
546.1967, 1113.332
546.6788, 1108.814
547.1609, 1102.894
547.6430, 1096.867
548.1251, 1092.793
548.6072, 1094.963
549.0894, 1103.924
549.5715, 1101.215
550.0536, 1075.500
550.5357, 1054.339
551.0178, 1048.646
551.4999, 1052.646
551.9821, 1059.720
552.4642, 1069.263
552.9463, 1076.432
553.4284, 1074.008
553.9105, 1064.886
554.3926, 1061.826
554.8748, 1068.734
555.3569, 1076.253
555.8390, 1075.585
556.3211, 1066.596
556.8032, 1057.514
557.2853, 1043.050
557.7675, 1034.162
558.2496, 1042.062
558.7317, 1057.606
559.2138, 1064.926
559.6959, 1058.376
560.1780, 1044.157
560.6602, 1030.344
561.1423, 1015.040
561.6244, 1007.810
562.1065, 1016.843
562.5886, 1026.262
563.0707, 1030.418
563.5529, 1031.128
564.0350, 1032.584
564.5171, 1037.063
564.9992, 1041.488
565.4813, 1042.145
565.9634, 1039.078
566.4456, 1032.157
566.9277, 1018.982
567.4098, 1006.009
567.8919, 1000.991
568.3740, 1003.070
568.8561, 1005.432
569.3383, 1006.207
569.8204, 1007.783
570.3025, 1014.422
570.7846, 1023.004
571.2667, 1025.274
571.7488, 1017.707
572.2310, 1005.359
572.7131, 997.0354
573.1952, 992.9244
573.6773, 992.4406
574.1594, 999.2228
574.6415, 1005.813
575.1237, 1007.989
575.6058, 1007.603
576.0879, 1009.301
576.5700, 1016.034
577.0521, 1024.005
577.5342, 1027.403
578.0164, 1026.200
578.4985, 1022.981
578.9806, 1017.041
579.4627, 1011.234
579.9448, 1009.620
580.4269, 1011.591
580.9091, 1011.340
581.3912, 1005.183
581.8733, 998.7991
582.3554, 996.4578
582.8375, 997.0308
583.3196, 996.6850
583.8018, 993.7203
584.2839, 991.2244
584.7660, 995.4440
585.2481, 1011.225
585.7302, 1019.749
586.2123, 1014.423
586.6945, 1008.908
587.1766, 1009.755
587.6587, 1014.535
588.1408, 1017.843
588.6229, 1017.228
589.1050, 1014.051
589.5872, 1009.539
590.0693, 1003.747
590.5514, 998.4042
591.0335, 992.4925
591.5156, 989.5925
591.9977, 996.1690
592.4799, 1010.586
592.9620, 1020.059
593.4441, 1020.847
593.9262, 1018.232
594.4083, 1013.005
594.8904, 1006.972
595.3726, 1003.729
595.8547, 1004.508
596.3368, 1007.306
596.8189, 1008.833
597.3010, 1007.879
597.7831, 1011.446
598.2653, 1028.930
598.7474, 1040.976
599.2295, 1035.878
599.7116, 1022.998
600.1937, 1017.644
600.6758, 1026.315
601.1580, 1037.958
601.6401, 1040.277
602.1222, 1035.134
602.6043, 1031.209
603.0864, 1029.525
603.5685, 1030.677
604.0507, 1036.663
604.5328, 1046.659
605.0149, 1052.508
605.4970, 1050.900
605.9791, 1049.088
606.4612, 1049.555
606.9434, 1051.244
607.4255, 1052.896
607.9076, 1054.165
608.3897, 1055.282
608.8718, 1056.585
609.3539, 1058.049
609.8361, 1057.853
610.3182, 1050.319
610.8003, 1050.844
611.2824, 1071.028
611.7645, 1097.664
612.2466, 1117.203
612.7288, 1127.103
613.2109, 1132.580
613.6930, 1135.909
614.1751, 1137.413
614.6572, 1136.759
615.1393, 1134.049
615.6215, 1132.976
616.1036, 1136.302
616.5857, 1142.641
617.0678, 1147.024
617.5499, 1144.578
618.0320, 1146.976
618.5142, 1154.026
618.9963, 1166.625
619.4784, 1190.506
619.9605, 1221.518
620.4426, 1245.887
620.9247, 1252.432
621.4069, 1248.130
621.8890, 1250.852
622.3711, 1261.080
622.8532, 1275.802
623.3353, 1297.263
623.8174, 1320.033
624.2996, 1339.131
624.7817, 1354.695
625.2638, 1368.117
625.7459, 1378.222
626.2280, 1387.663
626.7101, 1396.286
627.1923, 1405.947
627.6744, 1422.696
