##NAMES=Sonoraite
##RRUFFID=R070745
##IDEAL CHEMISTRY=Fe^3+^Te^4+^O_3_(OH)&#183;H_2_O
##LOCALITY=Tombstone, Tombstone District, Cochise County, Arizona, USA
##OWNER=RRUFF
##SOURCE=Michael Scott
##DESCRIPTION=Massive, lime-yellow crystals associated with anglesite, calcite and jarosite
##STATUS=The identification of this mineral has been confirmed only by single crystal X-ray diffraction.
##URL=rruff.info/R070745
130.2518, 5900.368
130.7339, 5636.706
131.2160, 5393.891
131.6981, 5198.413
132.1802, 5049.064
132.6623, 4928.875
133.1445, 4834.802
133.6266, 4764.979
134.1087, 4714.397
134.5908, 4684.351
135.0729, 4667.835
135.5550, 4653.399
136.0372, 4640.150
136.5193, 4634.615
137.0014, 4638.004
137.4835, 4649.408
137.9656, 4679.403
138.4477, 4736.726
138.9299, 4809.930
139.4120, 4856.386
139.8941, 4865.512
140.3762, 4871.617
140.8583, 4905.251
141.3404, 4977.701
141.8225, 5041.147
142.3047, 5086.071
142.7868, 5111.812
143.2689, 5136.448
143.7510, 5158.492
144.2331, 5180.749
144.7152, 5207.374
145.1974, 5243.730
145.6795, 5276.434
146.1616, 5297.731
146.6437, 5289.967
147.1258, 5314.926
147.6079, 5384.493
148.0901, 5486.668
148.5722, 5586.218
149.0543, 5688.432
149.5364, 5784.316
150.0185, 5869.237
150.5006, 5946.646
150.9828, 6009.036
151.4649, 6044.833
151.9470, 6057.496
152.4291, 6087.440
152.9112, 6142.716
153.3933, 6211.659
153.8755, 6286.715
154.3576, 6369.425
154.8397, 6455.152
155.3218, 6538.838
155.8039, 6618.257
156.2860, 6714.553
156.7682, 6842.188
157.2503, 6984.495
157.7324, 7121.936
158.2145, 7296.189
158.6966, 7427.620
159.1787, 7482.838
159.6609, 7449.189
160.1430, 7359.693
160.6251, 7217.122
161.1072, 7027.453
161.5893, 6801.284
162.0714, 6499.652
162.5536, 6189.293
163.0357, 5914.913
163.5178, 5691.736
163.9999, 5500.270
164.4820, 5342.887
164.9641, 5215.292
165.4463, 5095.758
165.9284, 4955.613
166.4105, 4823.418
166.8926, 4729.967
167.3747, 4707.034
167.8568, 4711.565
168.3390, 4717.606
168.8211, 4723.996
169.3032, 4734.875
169.7853, 4750.280
170.2674, 4772.023
170.7495, 4803.350
171.2317, 4842.016
171.7138, 4892.928
172.1959, 4964.036
172.6780, 5060.139
173.1601, 5161.500
173.6422, 5240.122
174.1244, 5307.050
174.6065, 5395.995
175.0886, 5539.878
175.5707, 5715.824
176.0528, 5890.613
176.5349, 6053.207
177.0171, 6215.801
177.4992, 6401.887
177.9813, 6606.720
178.4634, 6804.318
178.9455, 6977.464
179.4276, 7127.129
179.9098, 7261.947
180.3919, 7408.894
180.8740, 7528.806
181.3561, 7553.691
181.8382, 7481.300
182.3203, 7356.557
182.8025, 7204.820
183.2846, 7033.245
183.7667, 6863.884
184.2488, 6706.931
184.7309, 6559.297
185.2130, 6417.574
185.6951, 6277.829
186.1773, 6151.642
186.6594, 6055.029
187.1415, 5986.942
187.6236, 5930.404
188.1057, 5869.240
188.5878, 5809.430
189.0700, 5781.106
189.5521, 5794.382
190.0342, 5828.446
190.5163, 5844.914
190.9984, 5842.875
191.4805, 5840.552
191.9627, 5846.300
192.4448, 5860.580
192.9269, 5892.356
193.4090, 5946.916
193.8911, 6017.508
194.3732, 6083.653
194.8554, 6144.877
195.3375, 6207.923
195.8196, 6286.272
196.3017, 6380.794
196.7838, 6455.906
197.2659, 6493.305
197.7481, 6501.458
198.2302, 6539.382
198.7123, 6613.381
199.1944, 6699.725
199.6765, 6768.952
200.1586, 6819.481
200.6408, 6870.673
201.1229, 6924.601
201.6050, 6980.456
202.0871, 7063.266
202.5692, 7181.142
203.0513, 7313.259
203.5335, 7419.114
204.0156, 7489.305
204.4977, 7571.951
204.9798, 7693.539
205.4619, 7858.549
205.9440, 8023.691
206.4262, 8194.744
206.9083, 8359.656
207.3904, 8489.283
207.8725, 8582.564
208.3546, 8642.930
208.8367, 8670.822
209.3189, 8664.069
209.8010, 8633.677
210.2831, 8582.763
210.7652, 8508.954
211.2473, 8395.741
211.7294, 8229.674
212.2116, 8050.747
212.6937, 7889.882
213.1758, 7748.522
213.6579, 7617.189
214.1400, 7495.292
214.6221, 7382.070
215.1043, 7268.425
215.5864, 7143.013
216.0685, 7032.075
216.5506, 6966.758
217.0327, 6962.035
217.5148, 6962.754
217.9970, 6952.412
218.4791, 6928.698
218.9612, 6934.763
219.4433, 6981.676
219.9254, 7046.555
220.4075, 7097.423
220.8897, 7120.817
221.3718, 7156.970
221.8539, 7221.706
222.3360, 7325.121
222.8181, 7409.070
223.3002, 7461.769
223.7824, 7501.700
224.2645, 7564.069
224.7466, 7668.258
225.2287, 7762.749
225.7108, 7826.894
226.1929, 7851.102
226.6750, 7871.596
227.1572, 7888.288
227.6393, 7901.325
228.1214, 7912.408
228.6035, 7927.449
229.0856, 7931.711
229.5677, 7916.511
230.0499, 7874.233
230.5320, 7829.637
231.0141, 7779.083
231.4962, 7726.913
231.9783, 7688.415
232.4604, 7655.925
232.9426, 7647.247
233.4247, 7676.687
233.9068, 7763.105
234.3889, 7847.043
234.8710, 7915.958
235.3531, 7974.725
235.8353, 8063.275
236.3174, 8194.629
236.7995, 8341.174
237.2816, 8483.606
237.7637, 8623.418
238.2458, 8756.478
238.7280, 8881.373
239.2101, 8998.233
239.6922, 9113.112
240.1743, 9228.606
240.6564, 9339.531
241.1385, 9438.774
241.6207, 9516.028
242.1028, 9601.903
242.5849, 9702.468
243.0670, 9818.063
243.5491, 9940.669
244.0313, 10055.39
244.5134, 10189.48
244.9955, 10376.53
245.4776, 10635.37
245.9597, 10915.47
246.4418, 11205.47
246.9240, 11502.63
247.4061, 11829.00
247.8882, 12192.16
248.3703, 12575.76
248.8524, 12955.44
249.3345, 13334.26
249.8167, 13705.91
250.2988, 14081.49
250.7809, 14481.30
251.2630, 14807.43
251.7451, 15061.58
252.2272, 15238.25
252.7094, 15320.84
253.1915, 15288.88
253.6736, 15196.31
254.1557, 15060.81
254.6378, 14879.83
255.1199, 14658.06
255.6021, 14382.28
256.0842, 14074.15
256.5663, 13775.19
257.0484, 13460.82
257.5305, 13197.18
258.0126, 13016.55
258.4948, 12935.77
258.9769, 12886.73
259.4590, 12866.72
259.9411, 12878.53
260.4232, 12931.25
260.9053, 13032.50
261.3875, 13161.55
261.8696, 13321.01
262.3517, 13531.58
262.8338, 13692.23
263.3159, 13770.13
263.7980, 13800.78
264.2802, 13922.41
264.7623, 14202.67
265.2444, 14440.39
265.7265, 14505.11
266.2086, 14352.05
266.6907, 14186.48
267.1729, 14035.33
267.6550, 13883.39
268.1371, 13668.40
268.6192, 13388.08
269.1013, 13053.04
269.5834, 12669.35
270.0656, 12240.63
270.5477, 11767.22
271.0298, 11236.71
271.5119, 10668.57
271.9940, 10128.83
272.4761, 9620.703
272.9583, 9144.256
273.4404, 8691.775
273.9225, 8261.319
274.4046, 7873.050
274.8867, 7529.056
275.3688, 7228.314
275.8510, 6961.012
276.3331, 6731.425
276.8152, 6527.357
277.2973, 6335.288
277.7794, 6152.785
278.2615, 6006.210
278.7437, 5906.560
279.2258, 5845.826
279.7079, 5790.912
280.1900, 5743.044
280.6721, 5696.332
281.1542, 5646.039
281.6364, 5591.926
282.1185, 5533.749
282.6006, 5464.473
283.0827, 5392.044
283.5648, 5352.394
284.0469, 5349.376
284.5291, 5359.166
285.0112, 5364.106
285.4933, 5364.012
285.9754, 5350.206
286.4575, 5305.833
286.9396, 5249.605
287.4217, 5252.935
287.9038, 5320.443
288.3860, 5413.250
288.8681, 5500.822
289.3502, 5582.168
289.8323, 5654.779
290.3144, 5705.718
290.7965, 5750.632
291.2787, 5841.229
291.7608, 5981.461
292.2429, 6127.568
292.7250, 6238.266
293.2071, 6318.952
293.6892, 6396.925
294.1714, 6484.574
294.6535, 6572.910
295.1356, 6641.597
295.6177, 6690.544
296.0998, 6730.784
296.5819, 6767.690
297.0641, 6804.084
297.5462, 6848.485
298.0283, 6906.701
298.5104, 6972.983
298.9925, 7038.125
299.4746, 7102.388
299.9568, 7169.077
300.4389, 7240.949
300.9210, 7317.625
301.4031, 7400.166
301.8852, 7483.492
302.3673, 7574.632
302.8495, 7682.403
303.3316, 7805.815
303.8137, 7947.500
304.2958, 8116.485
304.7779, 8303.855
305.2600, 8490.608
305.7422, 8668.747
306.2243, 8843.804
306.7064, 9026.515
307.1885, 9217.308
307.6706, 9393.186
308.1527, 9538.455
308.6349, 9659.758
309.1170, 9763.452
309.5991, 9861.975
310.0812, 9938.097
310.5633, 9983.269
311.0454, 9997.848
311.5276, 9978.430
312.0097, 9930.580
312.4918, 9845.877
312.9739, 9713.718
313.4560, 9503.623
313.9381, 9267.220
314.4203, 9036.110
314.9024, 8806.297
315.3845, 8561.606
315.8666, 8295.304
316.3487, 8009.665
316.8308, 7706.830
317.3130, 7340.220
317.7951, 6998.741
318.2772, 6738.189
318.7593, 6550.512
319.2414, 6357.636
319.7235, 6122.672
320.2057, 5877.783
320.6878, 5648.467
321.1699, 5439.818
321.6520, 5247.333
322.1341, 5070.087
322.6162, 4907.856
323.0984, 4767.347
323.5805, 4664.798
324.0626, 4575.707
324.5447, 4483.545
325.0268, 4376.613
325.5089, 4277.026
325.9911, 4185.287
326.4732, 4102.667
326.9553, 4033.420
327.4374, 3985.479
327.9195, 3945.935
328.4016, 3906.828
328.8838, 3872.790
329.3659, 3833.053
329.8480, 3782.755
330.3301, 3724.452
330.8122, 3673.337
331.2943, 3631.384
331.7765, 3594.134
332.2586, 3558.469
332.7407, 3518.495
333.2228, 3491.786
333.7049, 3487.354
334.1870, 3497.346
334.6692, 3486.967
335.1513, 3443.835
335.6334, 3400.275
336.1155, 3374.759
336.5976, 3371.647
337.0797, 3373.102
337.5619, 3381.172
338.0440, 3391.836
338.5261, 3391.396
339.0082, 3375.746
339.4903, 3361.170
339.9724, 3359.151
340.4546, 3371.952
340.9367, 3375.520
341.4188, 3364.805
341.9009, 3348.899
342.3830, 3347.286
342.8651, 3360.917
343.3473, 3379.912
343.8294, 3401.831
344.3115, 3426.304
344.7936, 3442.417
345.2757, 3446.380
345.7578, 3450.356
346.2400, 3479.070
346.7221, 3530.585
347.2042, 3577.396
347.6863, 3595.499
348.1684, 3597.127
348.6505, 3626.516
349.1327, 3689.827
349.6148, 3761.969
350.0969, 3812.900
350.5790, 3846.597
351.0611, 3878.793
351.5432, 3913.796
352.0254, 3952.609
352.5075, 3998.635
352.9896, 4052.188
353.4717, 4108.331
353.9538, 4160.261
354.4359, 4211.405
354.9181, 4267.036
355.4002, 4335.806
355.8823, 4406.406
356.3644, 4467.146
356.8465, 4517.850
357.3286, 4567.790
357.8108, 4620.194
358.2929, 4676.633
358.7750, 4740.122
359.2571, 4810.386
359.7392, 4889.133
360.2213, 4982.781
360.7035, 5089.946
361.1856, 5191.062
361.6677, 5265.943
362.1498, 5336.236
362.6319, 5421.540
363.1140, 5528.776
363.5962, 5649.595
364.0783, 5791.516
364.5604, 5950.102
365.0425, 6094.856
365.5246, 6200.601
366.0067, 6302.198
366.4889, 6420.902
366.9710, 6578.116
367.4531, 6731.641
367.9352, 6874.525
368.4173, 7009.906
368.8994, 7152.243
369.3815, 7312.273
369.8636, 7469.444
370.3458, 7613.992
370.8279, 7751.831
371.3100, 7868.572
371.7921, 7958.692
372.2742, 8029.558
372.7563, 8101.284
373.2385, 8183.796
373.7206, 8249.574
374.2027, 8284.419
374.6848, 8281.238
375.1669, 8276.270
375.6490, 8271.006
376.1312, 8262.318
376.6133, 8243.158
377.0954, 8210.699
377.5775, 8179.216
378.0596, 8158.133
378.5417, 8147.049
379.0239, 8111.691
379.5060, 8045.442
379.9881, 7975.771
380.4702, 7943.169
380.9523, 7945.946
381.4344, 7943.511
381.9166, 7918.977
382.3987, 7879.874
382.8808, 7848.275
383.3629, 7824.807
383.8450, 7801.581
384.3271, 7766.996
384.8093, 7725.851
385.2914, 7695.792
385.7735, 7693.731
386.2556, 7694.325
386.7377, 7656.050
387.2198, 7583.735
387.7020, 7512.277
388.1841, 7487.336
388.6662, 7473.013
389.1483, 7417.041
389.6304, 7287.829
390.1125, 7145.769
390.5947, 7033.040
391.0768, 6942.887
391.5589, 6857.486
392.0410, 6764.992
392.5231, 6675.837
393.0052, 6597.376
393.4874, 6534.011
393.9695, 6474.616
394.4516, 6404.521
394.9337, 6335.752
395.4158, 6290.398
395.8979, 6291.759
396.3801, 6302.747
396.8622, 6309.671
397.3443, 6310.564
397.8264, 6309.602
398.3085, 6300.347
398.7906, 6291.705
399.2728, 6294.520
399.7549, 6305.465
400.2370, 6331.924
400.7191, 6378.225
401.2012, 6445.608
401.6833, 6515.847
402.1655, 6590.405
402.6476, 6665.768
403.1297, 6738.148
403.6118, 6805.109
404.0939, 6874.772
404.5760, 6943.467
405.0582, 7015.132
405.5403, 7112.854
406.0224, 7241.143
406.5045, 7379.405
406.9866, 7515.129
407.4688, 7648.840
407.9509, 7777.323
408.4330, 7898.203
408.9151, 8017.742
409.3972, 8149.707
409.8793, 8293.535
410.3615, 8442.882
410.8436, 8596.163
411.3257, 8753.715
411.8078, 8912.945
412.2899, 9074.263
412.7720, 9239.579
413.2542, 9412.347
413.7363, 9589.491
414.2184, 9765.280
414.7005, 9934.963
415.1826, 10100.86
415.6647, 10260.06
416.1469, 10410.87
416.6290, 10574.10
417.1111, 10779.37
417.5932, 11001.48
418.0753, 11200.82
418.5574, 11334.49
419.0396, 11472.25
419.5217, 11663.68
420.0038, 11898.12
420.4859, 12117.02
420.9680, 12294.13
421.4501, 12448.91
421.9323, 12591.27
422.4144, 12743.87
422.8965, 12860.66
423.3786, 12919.57
423.8607, 12936.61
424.3428, 12958.04
424.8250, 13031.59
425.3071, 13071.79
425.7892, 13047.55
426.2713, 12940.68
426.7534, 12817.28
427.2355, 12677.31
427.7177, 12520.30
428.1998, 12348.45
428.6819, 12163.31
429.1640, 11958.43
429.6461, 11723.14
430.1282, 11460.68
430.6104, 11205.00
431.0925, 10957.19
431.5746, 10713.72
432.0567, 10474.50
432.5388, 10239.46
433.0209, 10008.10
433.5031, 9779.739
433.9852, 9555.883
434.4673, 9328.931
434.9494, 9100.402
435.4315, 8888.205
435.9136, 8710.193
436.3958, 8560.618
436.8779, 8426.443
437.3600, 8310.296
437.8421, 8200.900
438.3242, 8077.324
438.8063, 7949.443
439.2885, 7844.857
439.7706, 7800.549
440.2527, 7772.450
440.7348, 7711.822
441.2169, 7609.880
441.6990, 7527.033
442.1812, 7503.333
442.6633, 7514.922
443.1454, 7532.928
443.6275, 7555.404
444.1096, 7575.754
444.5917, 7586.197
445.0739, 7588.320
445.5560, 7603.965
446.0381, 7646.711
446.5202, 7697.834
447.0023, 7746.288
447.4844, 7786.807
447.9666, 7830.770
448.4487, 7878.145
448.9308, 7929.354
449.4129, 7984.832
449.8950, 8037.856
450.3771, 8104.448
450.8592, 8195.749
451.3413, 8317.667
451.8235, 8423.232
452.3056, 8506.237
452.7877, 8583.108
453.2698, 8679.177
453.7519, 8795.656
454.2340, 8911.830
454.7162, 9020.001
455.1983, 9123.837
455.6804, 9235.530
456.1625, 9354.889
456.6446, 9493.993
457.1267, 9675.704
457.6089, 9885.529
458.0910, 10093.45
458.5731, 10288.63
459.0552, 10483.93
459.5373, 10691.07
460.0194, 10907.72
460.5016, 11130.76
460.9837, 11374.28
461.4658, 11611.81
461.9479, 11821.35
462.4300, 11999.74
462.9121, 12151.49
463.3943, 12305.53
463.8764, 12425.67
464.3585, 12462.43
464.8406, 12367.39
465.3227, 12220.11
465.8048, 12037.85
466.2870, 11821.58
466.7691, 11587.04
467.2512, 11317.23
467.7333, 11039.85
468.2154, 10771.52
468.6975, 10520.41
469.1797, 10263.08
469.6618, 9990.543
470.1439, 9716.293
470.6260, 9479.377
471.1081, 9284.952
471.5902, 9115.393
472.0724, 8970.531
472.5545, 8851.152
473.0366, 8717.687
473.5187, 8566.330
474.0008, 8415.262
474.4829, 8287.215
474.9651, 8181.247
475.4472, 8086.167
475.9293, 8002.204
476.4114, 7924.729
476.8935, 7845.365
477.3756, 7764.803
477.8578, 7681.581
478.3399, 7590.373
478.8220, 7497.448
479.3041, 7413.888
479.7862, 7346.382
480.2683, 7277.125
480.7505, 7187.174
481.2326, 7085.544
481.7147, 6990.875
482.1968, 6914.954
482.6789, 6843.417
483.1610, 6769.518
483.6432, 6692.490
484.1253, 6613.384
484.6074, 6530.175
485.0895, 6446.751
485.5716, 6365.846
486.0537, 6289.311
486.5359, 6212.959
487.0180, 6132.190
487.5001, 6050.162
487.9822, 5982.930
488.4643, 5940.121
488.9464, 5897.502
489.4286, 5839.826
489.9107, 5762.146
490.3928, 5702.016
490.8749, 5666.111
491.3570, 5636.459
491.8391, 5582.970
492.3213, 5506.318
492.8034, 5430.922
493.2855, 5365.020
493.7676, 5307.487
494.2497, 5253.990
494.7318, 5205.065
495.2140, 5162.573
495.6961, 5137.072
496.1782, 5117.470
496.6603, 5082.479
497.1424, 5017.644
497.6245, 4957.221
498.1067, 4935.436
498.5888, 4938.397
499.0709, 4933.645
499.5530, 4904.432
500.0351, 4865.444
500.5172, 4819.703
500.9994, 4765.939
501.4815, 4722.789
501.9636, 4700.404
502.4457, 4687.045
502.9278, 4672.226
503.4099, 4662.063
503.8921, 4641.069
504.3742, 4600.641
504.8563, 4547.705
505.3384, 4512.624
505.8205, 4505.068
506.3026, 4497.482
506.7848, 4473.577
507.2669, 4429.006
507.7490, 4401.571
508.2311, 4395.145
508.7132, 4397.207
509.1953, 4394.490
509.6775, 4386.677
510.1596, 4368.300
510.6417, 4329.703
511.1238, 4284.604
511.6059, 4263.883
512.0880, 4265.304
512.5701, 4266.037
513.0522, 4250.979
513.5344, 4225.072
514.0165, 4190.563
514.4986, 4140.690
514.9807, 4103.556
515.4628, 4113.613
515.9449, 4145.749
516.4271, 4157.201
516.9092, 4115.729
517.3913, 4068.438
517.8734, 4033.461
518.3555, 4012.212
518.8376, 3988.007
519.3198, 3952.157
519.8019, 3917.912
520.2840, 3894.911
520.7661, 3900.638
521.2482, 3881.825
521.7303, 3824.097
522.2125, 3747.197
522.6946, 3697.772
523.1767, 3680.806
523.6588, 3668.888
524.1409, 3654.314
524.6230, 3636.476
525.1052, 3604.388
525.5873, 3555.875
526.0694, 3510.239
526.5515, 3494.646
527.0336, 3497.992
527.5157, 3487.373
527.9979, 3450.970
528.4800, 3405.455
528.9621, 3363.967
529.4442, 3327.494
529.9263, 3297.627
530.4084, 3283.156
530.8906, 3270.217
531.3727, 3248.226
531.8548, 3214.808
532.3369, 3182.995
532.8190, 3160.137
533.3011, 3139.188
533.7833, 3114.103
534.2654, 3068.523
534.7475, 3037.636
535.2296, 3032.964
535.7117, 3045.540
536.1938, 3042.955
536.6760, 3016.750
537.1581, 2991.431
537.6402, 2979.033
538.1223, 2981.260
538.6044, 2975.626
539.0865, 2961.682
539.5687, 2941.091
540.0508, 2912.142
540.5329, 2876.304
541.0150, 2847.135
541.4971, 2829.161
541.9792, 2818.166
542.4614, 2808.180
542.9435, 2799.643
543.4256, 2794.578
543.9077, 2801.878
544.3898, 2808.827
544.8719, 2800.702
545.3541, 2773.958
545.8362, 2747.947
546.3183, 2731.569
546.8004, 2720.732
547.2825, 2710.830
547.7646, 2703.069
548.2468, 2693.703
548.7289, 2680.471
549.2110, 2664.624
549.6931, 2651.784
550.1752, 2644.333
550.6573, 2636.669
551.1395, 2626.106
551.6216, 2611.920
552.1037, 2599.268
552.5858, 2588.210
553.0679, 2578.426
553.5500, 2570.571
554.0322, 2564.559
554.5143, 2555.254
554.9964, 2538.774
555.4785, 2521.743
555.9606, 2519.925
556.4427, 2530.405
556.9249, 2537.363
557.4070, 2525.208
557.8891, 2507.435
558.3712, 2499.997
558.8533, 2505.262
559.3354, 2511.951
559.8176, 2517.025
560.2997, 2518.904
560.7818, 2515.956
561.2639, 2503.724
561.7460, 2491.110
562.2281, 2477.519
562.7103, 2464.447
563.1924, 2457.997
563.6745, 2467.309
564.1566, 2470.839
564.6387, 2456.743
565.1208, 2421.129
565.6030, 2409.339
566.0851, 2430.032
566.5672, 2454.874
567.0493, 2451.460
567.5314, 2421.441
568.0135, 2399.631
568.4957, 2394.371
568.9778, 2397.233
569.4599, 2394.641
569.9420, 2388.078
570.4241, 2383.901
570.9063, 2388.225
571.3884, 2394.892
571.8705, 2398.562
572.3526, 2398.915
572.8347, 2395.713
573.3168, 2383.884
573.7990, 2371.095
574.2811, 2363.985
574.7632, 2366.009
575.2453, 2370.618
575.7274, 2383.134
576.2095, 2396.619
576.6917, 2396.472
577.1738, 2374.058
577.6559, 2351.893
578.1380, 2334.154
578.6201, 2321.160
579.1022, 2320.170
579.5844, 2333.557
580.0665, 2350.075
580.5486, 2362.154
581.0307, 2370.084
581.5128, 2374.527
581.9949, 2374.809
582.4771, 2374.316
582.9592, 2381.271
583.4413, 2390.934
583.9234, 2391.563
584.4055, 2365.166
584.8876, 2338.260
585.3698, 2333.877
585.8519, 2348.255
586.3340, 2360.512
586.8161, 2360.718
587.2982, 2357.202
587.7803, 2353.354
588.2625, 2346.141
588.7446, 2348.184
589.2267, 2371.004
589.7088, 2395.821
590.1909, 2400.057
590.6730, 2372.606
591.1552, 2355.411
591.6373, 2358.156
592.1194, 2373.857
592.6015, 2381.721
593.0836, 2381.286
593.5657, 2380.586
594.0479, 2384.994
594.5300, 2392.327
595.0121, 2395.771
595.4942, 2395.031
595.9763, 2395.150
596.4584, 2402.481
596.9406, 2412.416
597.4227, 2418.018
597.9048, 2411.381
598.3869, 2410.974
598.8690, 2435.738
599.3511, 2471.538
599.8333, 2491.390
600.3154, 2472.607
600.7975, 2454.801
601.2796, 2447.064
601.7617, 2449.372
602.2438, 2460.747
602.7260, 2488.613
603.2081, 2512.880
603.6902, 2516.592
604.1723, 2497.266
604.6544, 2493.293
605.1365, 2510.248
605.6187, 2531.321
606.1008, 2527.564
606.5829, 2506.486
607.0650, 2500.146
607.5471, 2524.844
608.0292, 2562.305
608.5114, 2597.707
608.9935, 2628.970
609.4756, 2649.401
609.9577, 2640.426
610.4398, 2630.521
610.9219, 2640.162
611.4041, 2674.678
611.8862, 2702.171
612.3683, 2708.213
612.8504, 2710.309
613.3325, 2721.965
613.8146, 2749.076
614.2968, 2774.166
614.7789, 2794.581
615.2610, 2814.266
615.7431, 2841.104
616.2252, 2875.558
616.7073, 2911.229
617.1895, 2945.091
617.6716, 2978.714
618.1537, 3017.666
618.6358, 3061.764
619.1179, 3102.484
619.6000, 3124.137
620.0822, 3143.552
620.5643, 3186.982
621.0464, 3263.751
621.5285, 3330.714
622.0106, 3349.226
622.4927, 3351.656
622.9749, 3372.499
623.4570, 3435.337
623.9391, 3497.831
624.4212, 3553.776
624.9033, 3605.422
625.3854, 3658.686
625.8676, 3713.631
626.3497, 3768.677
