##NAMES=Sorensenite
##RRUFFID=R070576
##IDEAL CHEMISTRY=Na_4_Be_2_Sn^4+^(Si_3_O_9_)_2_&#183;2H_2_O
##LOCALITY=Kvanefjeld, Ilimaussaq, Narsaq, Kitaa, Greenland
##OWNER=RRUFF
##SOURCE=James Shigley
##DESCRIPTION=Striated colorless laths
##STATUS=The identification of this mineral has been confirmed by X-ray diffraction and chemical analysis
##URL=rruff.info/R070576
##MEASURED CHEMISTRY=(Na_3.98_[box]_0.02_)_Σ=4_Be_2.00_(Sn_0.91_Ti_0.07_Nb^5+^_0.02_)_Σ=1_(Si_3.00_O_9_)_2_·2H_2_O; Be and H_2_O not measured but assumed by stoichiometry
149.0633, 8563.475
149.5454, 8781.096
150.0275, 9012.242
150.5096, 9251.156
150.9917, 9494.702
151.4738, 9720.830
151.9560, 9971.287
152.4381, 10262.44
152.9202, 10621.87
153.4023, 10967.03
153.8844, 11314.64
154.3665, 11650.00
154.8487, 11938.48
155.3308, 12232.08
155.8129, 12442.68
156.2950, 12529.12
156.7771, 12484.03
157.2592, 12326.82
157.7414, 12023.65
158.2235, 11581.17
158.7056, 11147.59
159.1877, 10691.51
159.6698, 10279.21
160.1519, 9972.073
160.6341, 9816.055
161.1162, 9734.277
161.5983, 9710.899
162.0804, 9752.035
162.5625, 9815.926
163.0446, 9912.911
163.5268, 10023.45
164.0089, 10110.63
164.4910, 10198.81
164.9731, 10237.42
165.4552, 10190.33
165.9373, 9998.053
166.4195, 9791.034
166.9016, 9614.630
167.3837, 9467.966
167.8658, 9347.808
168.3479, 9238.239
168.8300, 9158.619
169.3122, 9128.869
169.7943, 9145.353
170.2764, 9221.012
170.7585, 9380.633
171.2406, 9628.724
171.7227, 9895.417
172.2049, 10152.39
172.6870, 10395.71
173.1691, 10618.14
173.6512, 10839.57
174.1333, 11026.91
174.6154, 11161.33
175.0976, 11251.09
175.5797, 11260.28
176.0618, 11124.98
176.5439, 10871.50
177.0260, 10593.75
177.5081, 10337.61
177.9903, 10097.76
178.4724, 9864.432
178.9545, 9628.660
179.4366, 9400.565
179.9187, 9202.059
180.4008, 9030.870
180.8830, 8860.595
181.3651, 8662.251
181.8472, 8448.074
182.3293, 8245.043
182.8114, 8050.388
183.2935, 7877.819
183.7757, 7757.296
184.2578, 7693.179
184.7399, 7665.231
185.2220, 7655.213
185.7041, 7663.048
186.1862, 7688.988
186.6684, 7735.999
187.1505, 7801.185
187.6326, 7883.169
188.1147, 7990.450
188.5968, 8098.479
189.0790, 8173.140
189.5611, 8215.200
190.0432, 8212.146
190.5253, 8143.079
191.0074, 8015.860
191.4895, 7870.941
191.9717, 7702.284
192.4538, 7527.670
192.9359, 7392.185
193.4180, 7298.122
193.9001, 7233.315
194.3822, 7182.828
194.8644, 7147.839
195.3465, 7140.469
195.8286, 7170.106
196.3107, 7233.715
196.7928, 7306.487
197.2749, 7386.972
197.7571, 7479.690
198.2392, 7590.634
198.7213, 7719.005
199.2034, 7862.449
199.6855, 8017.666
200.1676, 8185.900
200.6498, 8371.058
201.1319, 8569.552
201.6140, 8788.352
202.0961, 9048.824
202.5782, 9356.591
203.0603, 9682.888
203.5425, 10016.94
204.0246, 10357.08
204.5067, 10702.98
204.9888, 11053.69
205.4709, 11409.68
205.9530, 11775.85
206.4352, 12155.97
206.9173, 12538.82
207.3994, 12908.13
207.8815, 13252.90
208.3636, 13640.51
208.8457, 14108.96
209.3279, 14659.58
209.8100, 15160.07
210.2921, 15633.01
210.7742, 16027.82
211.2563, 16259.64
211.7384, 16301.05
212.2206, 16279.98
212.7027, 16221.93
213.1848, 16103.61
213.6669, 16061.67
214.1490, 16100.24
214.6311, 16213.40
215.1133, 16396.28
215.5954, 16671.55
216.0775, 16967.12
216.5596, 17250.32
217.0417, 17520.90
217.5238, 17775.73
218.0060, 18036.36
218.4881, 18283.77
218.9702, 18407.73
219.4523, 18391.60
219.9344, 18282.43
220.4165, 18113.29
220.8987, 17878.50
221.3808, 17591.56
221.8629, 17242.04
222.3450, 16828.24
222.8271, 16441.08
223.3092, 16089.70
223.7914, 15755.37
224.2735, 15418.53
224.7556, 15055.13
225.2377, 14736.50
225.7198, 14490.60
226.2020, 14336.89
226.6841, 14147.43
227.1662, 13915.23
227.6483, 13656.01
228.1304, 13400.41
228.6125, 13146.57
229.0947, 12895.48
229.5768, 12643.93
230.0589, 12392.05
230.5410, 12144.58
231.0231, 11902.29
231.5052, 11666.88
231.9874, 11431.64
232.4695, 11195.86
232.9516, 10963.74
233.4337, 10736.65
233.9158, 10503.37
234.3979, 10301.10
234.8801, 10136.18
235.3622, 10005.27
235.8443, 9876.287
236.3264, 9734.510
236.8085, 9610.744
237.2906, 9524.424
237.7728, 9476.513
238.2549, 9465.146
238.7370, 9500.732
239.2191, 9581.175
239.7012, 9650.123
240.1833, 9693.077
240.6655, 9738.713
241.1476, 9812.681
241.6297, 9915.885
242.1118, 10045.74
242.5939, 10202.52
243.0760, 10387.64
243.5582, 10594.68
244.0403, 10826.81
244.5224, 11079.99
245.0045, 11350.02
245.4866, 11639.78
245.9688, 11941.05
246.4509, 12247.88
246.9330, 12557.40
247.4151, 12889.34
247.8972, 13242.85
248.3793, 13618.29
248.8615, 14014.10
249.3436, 14431.94
249.8257, 14867.31
250.3078, 15316.45
250.7899, 15770.61
251.2720, 16261.45
251.7542, 16785.49
252.2363, 17343.77
252.7184, 17936.09
253.2005, 18556.77
253.6826, 19209.40
254.1647, 19896.37
254.6469, 20625.46
255.1290, 21379.59
255.6111, 22159.10
256.0932, 22957.48
256.5753, 23721.03
257.0574, 24475.87
257.5396, 25159.55
258.0217, 25744.92
258.5038, 26247.03
258.9859, 26619.94
259.4680, 26864.76
259.9501, 26979.87
260.4323, 26902.53
260.9144, 26606.38
261.3965, 26158.41
261.8786, 25594.42
262.3607, 24875.20
262.8428, 24150.97
263.3250, 23448.34
263.8071, 22767.37
264.2892, 22114.16
264.7713, 21494.88
265.2534, 20885.23
265.7355, 20258.31
266.2177, 19583.90
266.6998, 18955.61
267.1819, 18388.41
267.6640, 17892.75
268.1461, 17440.07
268.6282, 17046.66
269.1104, 16681.18
269.5925, 16293.49
270.0746, 15875.43
270.5567, 15468.58
271.0388, 15092.08
271.5209, 14749.50
272.0031, 14403.18
272.4852, 14037.43
272.9673, 13688.77
273.4494, 13415.37
273.9315, 13229.11
274.4136, 13086.21
274.8958, 12971.04
275.3779, 12885.29
275.8600, 12816.89
276.3421, 12755.04
276.8242, 12720.76
277.3063, 12769.38
277.7885, 12919.06
278.2706, 13075.31
278.7527, 13203.53
279.2348, 13305.38
279.7169, 13349.01
280.1990, 13330.19
280.6812, 13253.55
281.1633, 13123.83
281.6454, 12935.10
282.1275, 12715.18
282.6096, 12486.11
283.0917, 12249.07
283.5739, 11958.03
284.0560, 11598.03
284.5381, 11195.04
285.0202, 10808.66
285.5023, 10437.29
285.9844, 10096.46
286.4666, 9801.435
286.9487, 9551.461
287.4308, 9319.376
287.9129, 9099.050
288.3950, 8898.730
288.8771, 8745.257
289.3593, 8640.232
289.8414, 8564.189
290.3235, 8506.853
290.8056, 8467.571
291.2877, 8434.843
291.7699, 8400.007
292.2520, 8374.793
292.7341, 8387.694
293.2162, 8439.143
293.6983, 8517.662
294.1805, 8620.996
294.6626, 8745.350
295.1447, 8870.185
295.6268, 8988.294
296.1089, 9104.197
296.5910, 9230.277
297.0732, 9366.407
297.5553, 9517.603
298.0374, 9699.327
298.5195, 9901.620
299.0016, 10089.00
299.4837, 10243.56
299.9659, 10378.21
300.4480, 10522.49
300.9301, 10675.42
301.4122, 10814.88
301.8943, 10912.41
302.3764, 10979.19
302.8586, 11041.76
303.3407, 11117.34
303.8228, 11189.95
304.3049, 11240.00
304.7870, 11268.07
305.2691, 11271.54
305.7513, 11250.00
306.2334, 11202.66
306.7155, 11127.20
307.1976, 11018.47
307.6797, 10882.85
308.1618, 10729.94
308.6440, 10557.86
309.1261, 10367.71
309.6082, 10152.63
310.0903, 9919.484
310.5724, 9684.539
311.0545, 9452.118
311.5367, 9217.784
312.0188, 8973.770
312.5009, 8715.493
312.9830, 8473.712
313.4651, 8274.687
313.9472, 8102.316
314.4294, 7936.545
314.9115, 7771.075
315.3936, 7608.380
315.8757, 7446.050
316.3578, 7282.831
316.8399, 7136.627
317.3221, 7021.465
317.8042, 6927.935
318.2863, 6842.432
318.7684, 6758.882
319.2505, 6684.268
319.7326, 6625.373
320.2148, 6585.417
320.6969, 6542.667
321.1790, 6479.857
321.6611, 6411.921
322.1432, 6357.473
322.6253, 6333.527
323.1075, 6313.221
323.5896, 6284.021
324.0717, 6242.068
324.5538, 6208.708
325.0359, 6193.967
325.5180, 6188.547
326.0002, 6181.200
326.4823, 6160.486
326.9644, 6146.833
327.4465, 6149.070
327.9286, 6172.815
328.4107, 6191.330
328.8929, 6199.711
329.3750, 6203.099
329.8571, 6207.920
330.3392, 6200.854
330.8213, 6208.939
331.3034, 6239.057
331.7856, 6294.896
332.2677, 6359.119
332.7498, 6431.933
333.2319, 6512.684
333.7140, 6599.915
334.1961, 6689.942
334.6783, 6791.783
335.1604, 6906.906
335.6425, 7037.073
336.1246, 7175.139
336.6067, 7315.567
337.0888, 7467.747
337.5710, 7643.886
338.0531, 7850.430
338.5352, 8067.879
339.0173, 8291.683
339.4994, 8522.134
339.9815, 8767.744
340.4637, 9028.343
340.9458, 9302.939
341.4279, 9592.290
341.9100, 9896.988
342.3921, 10218.35
342.8742, 10560.43
343.3564, 10920.32
343.8385, 11295.55
344.3206, 11672.65
344.8027, 12083.43
345.2848, 12564.37
345.7669, 13121.71
346.2491, 13695.20
346.7312, 14264.90
347.2133, 14838.09
347.6954, 15468.17
348.1775, 16170.97
348.6596, 16887.10
349.1418, 17595.76
349.6239, 18287.81
350.1060, 18924.43
350.5881, 19546.63
351.0702, 20092.39
351.5523, 20428.84
352.0345, 20557.94
352.5166, 20484.69
352.9987, 20211.06
353.4808, 19740.14
353.9629, 19083.54
354.4450, 18172.32
354.9272, 17126.62
355.4093, 16056.44
355.8914, 14964.48
356.3735, 13927.11
356.8556, 12980.12
357.3377, 12123.26
357.8199, 11343.52
358.3020, 10651.17
358.7841, 10032.38
359.2662, 9479.608
359.7483, 8990.214
360.2304, 8561.575
360.7126, 8206.551
361.1947, 7901.583
361.6768, 7618.209
362.1589, 7340.959
362.6410, 7093.201
363.1231, 6888.087
363.6053, 6722.924
364.0874, 6586.399
364.5695, 6483.524
365.0516, 6400.110
365.5337, 6325.460
366.0158, 6249.941
366.4980, 6189.805
366.9801, 6154.356
367.4622, 6139.645
367.9443, 6128.123
368.4264, 6111.638
368.9085, 6100.474
369.3907, 6100.190
369.8728, 6106.617
370.3549, 6129.666
370.8370, 6178.334
371.3191, 6246.398
371.8012, 6308.577
372.2834, 6347.952
372.7655, 6397.376
373.2476, 6471.023
373.7297, 6580.824
374.2119, 6694.726
374.6940, 6807.492
375.1761, 6925.431
375.6582, 7068.516
376.1403, 7243.431
376.6224, 7433.828
377.1046, 7633.097
377.5867, 7836.524
378.0688, 8069.131
378.5509, 8331.677
379.0330, 8625.902
379.5151, 8953.665
379.9973, 9323.170
380.4794, 9706.670
380.9615, 10103.59
381.4436, 10515.36
381.9257, 10924.83
382.4078, 11346.79
382.8900, 11736.00
383.3721, 12049.63
383.8542, 12283.88
384.3363, 12418.54
384.8184, 12486.53
385.3005, 12450.68
385.7827, 12100.88
386.2648, 11399.06
386.7469, 10669.15
387.2290, 10320.90
387.7111, 10252.87
388.1932, 10151.37
388.6754, 9848.846
389.1575, 9457.609
389.6396, 9126.175
390.1217, 8855.924
390.6038, 8626.856
391.0859, 8438.739
391.5681, 8281.613
392.0502, 8140.355
392.5323, 7984.997
393.0144, 7862.541
393.4965, 7821.575
393.9786, 7854.439
394.4608, 7893.135
394.9429, 7892.726
395.4250, 7885.704
395.9071, 7901.275
396.3892, 7955.303
396.8713, 8024.370
397.3535, 8104.454
397.8356, 8194.063
398.3177, 8286.753
398.7998, 8386.463
399.2819, 8484.441
399.7640, 8576.124
400.2462, 8673.179
400.7283, 8747.418
401.2104, 8801.383
401.6925, 8831.149
402.1746, 8825.228
402.6567, 8774.604
403.1389, 8697.604
403.6210, 8602.834
404.1031, 8500.497
404.5852, 8356.578
405.0673, 8157.708
405.5494, 7922.889
406.0316, 7689.593
406.5137, 7452.333
406.9958, 7226.092
407.4779, 7014.105
407.9600, 6814.581
408.4421, 6640.154
408.9243, 6491.504
409.4064, 6363.457
409.8885, 6256.206
410.3706, 6170.624
410.8527, 6083.357
411.3348, 5983.271
411.8170, 5875.009
412.2991, 5773.565
412.7812, 5679.191
413.2633, 5595.983
413.7454, 5531.099
414.2275, 5482.338
414.7097, 5442.904
415.1918, 5413.194
415.6739, 5389.773
416.1560, 5368.654
416.6381, 5349.687
417.1202, 5329.853
417.6024, 5294.862
418.0845, 5261.008
418.5666, 5253.969
419.0487, 5297.237
419.5308, 5343.827
420.0129, 5350.954
420.4951, 5329.525
420.9772, 5317.116
421.4593, 5340.730
421.9414, 5375.163
422.4235, 5402.931
422.9056, 5421.444
423.3878, 5432.563
423.8699, 5426.646
424.3520, 5414.477
424.8341, 5417.439
425.3162, 5454.437
425.7983, 5494.747
426.2805, 5524.724
426.7626, 5533.770
427.2447, 5562.339
427.7268, 5633.654
428.2089, 5715.908
428.6910, 5771.841
429.1732, 5784.249
429.6553, 5796.549
430.1374, 5816.493
430.6195, 5844.315
431.1016, 5881.350
431.5837, 5936.047
432.0659, 5987.271
432.5480, 6013.054
433.0301, 6008.667
433.5122, 6004.905
433.9943, 6012.823
434.4764, 6023.263
434.9586, 6000.376
435.4407, 5941.313
435.9228, 5869.714
436.4049, 5805.376
436.8870, 5744.930
437.3691, 5669.376
437.8513, 5571.700
438.3334, 5466.995
438.8155, 5371.806
439.2976, 5286.271
439.7797, 5218.185
440.2618, 5186.655
440.7440, 5168.828
441.2261, 5127.857
441.7082, 5055.451
442.1903, 4986.930
442.6724, 4950.710
443.1545, 4937.698
443.6367, 4932.203
444.1188, 4933.852
444.6009, 4936.051
445.0830, 4935.282
445.5651, 4931.354
446.0472, 4925.717
446.5294, 4914.853
447.0115, 4904.366
447.4936, 4899.346
447.9757, 4902.335
448.4578, 4909.040
448.9399, 4918.366
449.4221, 4930.558
449.9042, 4947.714
450.3863, 4979.843
450.8684, 5008.112
451.3505, 5021.474
451.8326, 5005.035
452.3148, 5004.651
452.7969, 5030.666
453.2790, 5069.033
453.7611, 5083.823
454.2432, 5067.005
454.7253, 5050.738
455.2075, 5047.271
455.6896, 5056.779
456.1717, 5078.304
456.6538, 5114.348
457.1360, 5155.639
457.6181, 5192.527
458.1002, 5224.947
458.5823, 5248.301
459.0644, 5255.474
459.5465, 5254.931
460.0287, 5266.339
460.5108, 5289.335
460.9929, 5315.715
461.4750, 5334.619
461.9571, 5352.943
462.4392, 5383.077
462.9214, 5435.824
463.4035, 5490.890
463.8856, 5531.398
464.3677, 5560.369
464.8498, 5585.575
465.3319, 5601.721
465.8141, 5621.781
466.2962, 5655.088
466.7783, 5706.267
467.2604, 5762.586
467.7425, 5826.460
468.2246, 5891.627
468.7068, 5947.237
469.1889, 5969.393
469.6710, 6003.874
470.1531, 6069.869
470.6352, 6172.788
471.1173, 6256.882
471.5995, 6315.406
472.0816, 6361.474
472.5637, 6404.975
473.0458, 6440.005
473.5279, 6489.929
474.0100, 6566.910
474.4922, 6659.416
474.9743, 6719.841
475.4564, 6743.910
475.9385, 6755.514
476.4206, 6768.031
476.9027, 6781.150
477.3849, 6792.710
477.8670, 6802.792
478.3491, 6809.975
478.8312, 6807.475
479.3133, 6798.292
479.7954, 6797.106
480.2776, 6810.348
480.7597, 6835.899
481.2418, 6870.080
481.7239, 6912.728
482.2060, 6967.958
482.6881, 7041.498
483.1703, 7128.838
483.6524, 7224.020
484.1345, 7311.229
484.6166, 7420.487
485.0987, 7570.603
485.5808, 7756.325
486.0630, 7953.300
486.5451, 8158.414
487.0272, 8367.623
487.5093, 8578.211
487.9914, 8778.723
488.4735, 8996.280
488.9557, 9223.573
489.4378, 9471.115
489.9199, 9759.926
490.4020, 10102.52
490.8841, 10459.08
491.3662, 10817.06
491.8484, 11169.57
492.3305, 11552.54
492.8126, 11960.75
493.2947, 12413.99
493.7768, 12939.22
494.2589, 13539.51
494.7411, 14183.10
495.2232, 14871.08
495.7053, 15598.52
496.1874, 16390.77
496.6695, 17240.23
497.1516, 18135.44
497.6338, 19094.47
498.1159, 20083.57
498.5980, 21091.40
499.0801, 22139.27
499.5622, 23088.31
500.0443, 23902.16
500.5265, 24543.00
501.0086, 24962.18
501.4907, 25222.51
501.9728, 25176.91
502.4549, 24699.37
502.9370, 23788.17
503.4192, 22679.89
503.9013, 21301.75
504.3834, 19842.90
504.8655, 18421.60
505.3476, 16981.80
505.8297, 15689.28
506.3119, 14540.22
506.7940, 13537.85
507.2761, 12678.15
507.7582, 11974.05
508.2403, 11392.02
508.7224, 10933.27
509.2046, 10607.64
509.6867, 10318.82
510.1688, 10059.51
510.6509, 9847.229
511.1330, 9701.849
511.6151, 9624.037
512.0973, 9602.297
512.5794, 9641.644
513.0615, 9728.424
513.5436, 9834.763
514.0258, 9961.144
514.5079, 10120.23
514.9900, 10304.32
515.4721, 10531.35
515.9542, 10832.23
516.4363, 11216.76
516.9185, 11659.54
517.4006, 12148.66
517.8827, 12682.60
518.3648, 13258.84
518.8469, 13893.98
519.3290, 14555.31
519.8112, 15215.54
520.2933, 15868.86
520.7754, 16617.30
521.2575, 17500.12
521.7396, 18465.02
522.2217, 19468.55
522.7039, 20472.34
523.1860, 21581.27
523.6681, 22812.80
524.1502, 24163.42
524.6323, 25583.51
525.1144, 27056.50
525.5966, 28670.27
526.0787, 30500.07
526.5608, 32527.29
527.0429, 34596.30
527.5250, 36693.92
528.0071, 38810.63
528.4893, 40971.47
528.9714, 43135.91
529.4535, 45131.63
529.9356, 46998.06
530.4177, 48550.88
530.8998, 49585.31
531.3820, 50088.80
531.8641, 50006.53
532.3462, 49238.05
532.8283, 47911.26
533.3104, 46073.21
533.7925, 43662.86
534.2747, 41030.26
534.7568, 38153.45
535.2389, 35198.49
535.7210, 32403.86
536.2031, 29724.77
536.6852, 27276.51
537.1674, 25062.99
537.6495, 23096.39
538.1316, 21313.64
538.6137, 19729.34
539.0958, 18326.95
539.5779, 17109.11
540.0601, 16097.86
540.5422, 15187.17
541.0243, 14385.25
541.5064, 13674.87
541.9885, 13020.70
542.4706, 12423.53
542.9528, 11884.57
543.4349, 11402.66
543.9170, 10970.93
544.3991, 10565.93
544.8812, 10184.91
545.3633, 9848.431
545.8455, 9594.685
546.3276, 9387.381
546.8097, 9174.246
547.2918, 8928.644
547.7739, 8701.571
548.2560, 8531.281
548.7382, 8400.620
549.2203, 8272.805
549.7024, 8129.576
550.1845, 7990.115
550.6666, 7857.936
551.1487, 7728.896
551.6309, 7631.870
552.1130, 7594.816
552.5951, 7566.066
553.0772, 7500.945
553.5593, 7375.375
554.0414, 7279.027
554.5236, 7229.099
555.0057, 7208.417
555.4878, 7171.781
555.9699, 7117.526
556.4520, 7067.015
556.9341, 7033.416
557.4163, 7012.790
557.8984, 6992.337
558.3805, 6972.383
558.8626, 6947.511
559.3447, 6903.093
559.8268, 6851.698
560.3090, 6816.393
560.7911, 6807.826
561.2732, 6810.909
561.7553, 6818.151
562.2374, 6829.354
562.7195, 6843.707
563.2017, 6858.490
563.6838, 6878.343
564.1659, 6903.599
564.6480, 6932.087
565.1301, 6976.556
565.6122, 7046.441
566.0944, 7126.762
566.5765, 7203.058
567.0586, 7274.900
567.5407, 7344.124
568.0228, 7403.214
568.5049, 7462.927
568.9871, 7562.019
569.4692, 7704.414
569.9513, 7846.110
570.4334, 7953.143
570.9155, 8037.304
571.3976, 8138.715
571.8798, 8257.641
572.3619, 8390.222
572.8440, 8528.572
573.3261, 8677.751
573.8082, 8843.991
574.2903, 9028.101
574.7725, 9230.660
575.2546, 9464.003
575.7367, 9717.690
576.2188, 9969.252
576.7009, 10196.34
577.1830, 10428.97
577.6652, 10690.79
578.1473, 10992.33
578.6294, 11266.04
579.1115, 11513.07
579.5936, 11732.57
580.0757, 11936.82
580.5579, 12153.54
581.0400, 12269.34
581.5221, 12263.24
582.0042, 12154.48
582.4863, 11988.63
582.9684, 11764.97
583.4506, 11488.24
583.9327, 11136.66
584.4148, 10733.43
584.8969, 10332.42
585.3790, 9932.355
585.8611, 9546.531
586.3433, 9162.142
586.8254, 8797.807
587.3075, 8478.394
587.7896, 8222.434
588.2717, 7991.735
588.7538, 7767.144
589.2360, 7553.852
589.7181, 7362.264
590.2002, 7198.807
590.6823, 7056.355
591.1644, 6940.411
591.6465, 6852.266
592.1287, 6758.400
592.6108, 6648.467
593.0929, 6546.617
593.5750, 6475.701
594.0571, 6444.460
594.5392, 6394.515
595.0214, 6316.255
595.5035, 6227.227
595.9856, 6151.222
596.4677, 6088.842
596.9498, 6044.846
597.4319, 6032.139
597.9141, 6033.552
598.3962, 6026.852
598.8783, 6011.920
599.3604, 5988.245
599.8425, 5943.458
600.3246, 5896.186
600.8068, 5865.620
601.2889, 5863.419
601.7710, 5854.607
602.2531, 5815.993
602.7352, 5768.822
603.2173, 5742.648
603.6995, 5755.983
604.1816, 5767.314
604.6637, 5769.270
605.1458, 5763.826
605.6279, 5764.917
606.1100, 5778.373
606.5922, 5780.310
607.0743, 5748.716
607.5564, 5687.830
608.0385, 5647.327
608.5206, 5630.545
609.0027, 5624.286
609.4849, 5614.908
609.9670, 5605.417
610.4491, 5604.312
610.9312, 5623.546
611.4133, 5638.617
611.8954, 5619.601
612.3776, 5580.130
612.8597, 5556.852
613.3418, 5586.224
613.8239, 5616.584
614.3060, 5620.276
614.7881, 5589.274
615.2703, 5574.824
615.7524, 5585.575
616.2345, 5606.837
616.7166, 5630.375
617.1987, 5658.622
617.6808, 5679.350
618.1630, 5691.686
618.6451, 5696.255
619.1272, 5687.199
619.6093, 5665.497
620.0914, 5660.482
620.5735, 5697.108
621.0557, 5749.482
621.5378, 5766.622
622.0199, 5752.960
622.5020, 5745.987
622.9841, 5783.356
623.4662, 5831.369
623.9484, 5857.264
624.4305, 5850.429
624.9126, 5843.896
625.3947, 5844.857
625.8768, 5853.738
626.3589, 5871.482
626.8411, 5911.590
627.3232, 5941.562
627.8053, 5953.356
628.2874, 5953.425
628.7695, 5960.514
629.2516, 5971.742
629.7338, 6001.012
630.2159, 6067.897
630.6980, 6162.678
631.1801, 6217.259
631.6622, 6229.829
632.1443, 6232.716
632.6265, 6250.279
633.1086, 6279.006
633.5907, 6314.397
634.0728, 6359.185
634.5549, 6400.932
635.0370, 6414.614
635.5192, 6422.862
636.0013, 6463.589
636.4834, 6579.618
636.9655, 6697.826
637.4476, 6791.755
637.9297, 6865.396
638.4119, 6953.495
638.8940, 7061.619
639.3761, 7176.212
639.8582, 7294.181
640.3403, 7417.285
640.8224, 7529.278
641.3046, 7626.534
641.7867, 7723.991
642.2688, 7832.060
