##NAMES=Sorensenite
##RRUFFID=R070576
##IDEAL CHEMISTRY=Na_4_Be_2_Sn^4+^(Si_3_O_9_)_2_&#183;2H_2_O
##LOCALITY=Kvanefjeld, Ilimaussaq, Narsaq, Kitaa, Greenland
##OWNER=RRUFF
##SOURCE=James Shigley
##DESCRIPTION=Striated colorless laths
##STATUS=The identification of this mineral has been confirmed by X-ray diffraction and chemical analysis
##URL=rruff.info/R070576
##MEASURED CHEMISTRY=(Na_3.98_[box]_0.02_)_Σ=4_Be_2.00_(Sn_0.91_Ti_0.07_Nb^5+^_0.02_)_Σ=1_(Si_3.00_O_9_)_2_·2H_2_O; Be and H_2_O not measured but assumed by stoichiometry
140.3741, 3308.874
140.8563, 3352.157
141.3384, 3375.402
141.8205, 3379.988
142.3026, 3385.135
142.7847, 3413.270
143.2668, 3469.947
143.7490, 3531.424
144.2311, 3596.485
144.7132, 3665.864
145.1953, 3738.819
145.6774, 3815.683
146.1595, 3898.799
146.6417, 3992.607
147.1238, 4100.735
147.6059, 4210.230
148.0880, 4308.274
148.5701, 4414.470
149.0523, 4540.674
149.5344, 4690.795
150.0165, 4862.217
150.4986, 5054.745
150.9807, 5297.152
151.4628, 5508.639
151.9450, 5701.466
152.4271, 5858.893
152.9092, 5940.040
153.3913, 5931.470
153.8734, 5858.999
154.3555, 5757.477
154.8377, 5614.141
155.3198, 5461.338
155.8019, 5285.940
156.2840, 5110.224
156.7661, 4952.460
157.2482, 4819.875
157.7304, 4711.128
158.2125, 4624.167
158.6946, 4571.992
159.1767, 4526.398
159.6588, 4485.104
160.1409, 4449.156
160.6231, 4422.684
161.1052, 4408.232
161.5873, 4398.839
162.0694, 4370.419
162.5515, 4299.559
163.0336, 4234.814
163.5158, 4183.600
163.9979, 4139.728
164.4800, 4092.433
164.9621, 4035.640
165.4442, 3973.491
165.9263, 3925.265
166.4085, 3890.541
166.8906, 3869.174
167.3727, 3869.922
167.8548, 3882.676
168.3369, 3891.267
168.8190, 3886.079
169.3012, 3870.511
169.7833, 3865.923
170.2654, 3881.697
170.7475, 3896.864
171.2296, 3909.095
171.7117, 3917.415
172.1939, 3920.281
172.6760, 3916.494
173.1581, 3906.822
173.6402, 3896.883
174.1223, 3883.682
174.6044, 3873.442
175.0866, 3868.613
175.5687, 3868.119
176.0508, 3872.760
176.5329, 3885.898
177.0150, 3904.046
177.4971, 3887.384
177.9793, 3805.043
178.4614, 3728.074
178.9435, 3678.329
179.4256, 3651.609
179.9077, 3637.716
180.3898, 3631.973
180.8720, 3633.188
181.3541, 3624.438
181.8362, 3588.166
182.3183, 3562.186
182.8004, 3561.537
183.2825, 3582.101
183.7647, 3612.615
184.2468, 3646.877
184.7289, 3684.492
185.2110, 3721.602
185.6931, 3773.826
186.1752, 3810.803
186.6574, 3820.008
187.1395, 3804.573
187.6216, 3772.648
188.1037, 3727.288
188.5858, 3669.648
189.0679, 3618.902
189.5501, 3572.768
190.0322, 3534.198
190.5143, 3505.464
190.9964, 3485.357
191.4785, 3469.834
191.9606, 3455.763
192.4428, 3443.733
192.9249, 3443.973
193.4070, 3467.346
193.8891, 3489.189
194.3712, 3496.230
194.8533, 3493.039
195.3355, 3492.372
195.8176, 3501.722
196.2997, 3521.012
196.7818, 3550.873
197.2639, 3601.997
197.7460, 3650.286
198.2282, 3682.427
198.7103, 3703.619
199.1924, 3726.702
199.6745, 3758.790
200.1566, 3800.123
200.6387, 3854.853
201.1209, 3926.130
201.6030, 4003.704
202.0851, 4081.754
202.5672, 4162.826
203.0493, 4254.190
203.5314, 4362.282
204.0136, 4483.935
204.4957, 4592.000
204.9778, 4664.532
205.4599, 4749.879
205.9420, 4878.361
206.4241, 5031.765
206.9063, 5172.467
207.3884, 5280.280
207.8705, 5356.159
208.3526, 5407.958
208.8347, 5415.254
209.3168, 5425.421
209.7990, 5450.512
210.2811, 5487.475
210.7632, 5528.839
211.2453, 5569.972
211.7274, 5613.025
212.2095, 5671.468
212.6917, 5762.814
213.1738, 5848.493
213.6559, 5918.261
214.1380, 5976.916
214.6201, 6036.414
215.1022, 6104.158
215.5844, 6172.408
216.0665, 6206.207
216.5486, 6196.697
217.0307, 6163.822
217.5128, 6102.490
217.9949, 6020.935
218.4771, 5929.198
218.9592, 5831.674
219.4413, 5729.086
219.9234, 5623.701
220.4055, 5515.183
220.8876, 5404.426
221.3698, 5279.915
221.8519, 5157.255
222.3340, 5055.901
222.8161, 4984.692
223.2982, 4935.711
223.7803, 4889.634
224.2625, 4852.025
224.7446, 4810.387
225.2267, 4762.551
225.7088, 4711.479
226.1909, 4657.480
226.6730, 4601.287
227.1552, 4546.892
227.6373, 4503.531
228.1194, 4487.472
228.6015, 4457.617
229.0836, 4403.756
229.5658, 4341.963
230.0479, 4283.471
230.5300, 4232.299
231.0121, 4189.121
231.4942, 4155.722
231.9763, 4136.746
232.4585, 4119.554
232.9406, 4108.516
233.4227, 4095.983
233.9048, 4073.646
234.3869, 4040.964
234.8690, 4007.178
235.3512, 3984.278
235.8333, 3971.572
236.3154, 3972.520
236.7975, 3995.342
237.2796, 4023.450
237.7617, 4048.662
238.2439, 4069.357
238.7260, 4087.628
239.2081, 4104.335
239.6902, 4117.047
240.1723, 4138.216
240.6544, 4165.543
241.1366, 4203.065
241.6187, 4258.837
242.1008, 4329.304
242.5829, 4400.002
243.0650, 4453.840
243.5471, 4488.138
244.0293, 4539.162
244.5114, 4627.034
244.9935, 4713.799
245.4756, 4774.738
245.9577, 4820.356
246.4398, 4881.682
246.9220, 4990.523
247.4041, 5141.565
247.8862, 5267.705
248.3683, 5342.929
248.8504, 5425.793
249.3325, 5540.519
249.8147, 5679.481
250.2968, 5827.570
250.7789, 5977.959
251.2610, 6130.421
251.7431, 6284.060
252.2252, 6437.070
252.7074, 6596.399
253.1895, 6768.611
253.6716, 6948.338
254.1537, 7130.280
254.6358, 7320.420
255.1179, 7504.170
255.6001, 7657.989
256.0822, 7786.641
256.5643, 7870.994
257.0464, 7884.514
257.5285, 7853.922
258.0107, 7804.591
258.4928, 7742.292
258.9749, 7664.252
259.4570, 7564.841
259.9391, 7442.960
260.4212, 7309.148
260.9034, 7161.572
261.3855, 7005.952
261.8676, 6847.680
262.3497, 6683.169
262.8318, 6527.305
263.3139, 6395.226
263.7961, 6284.562
264.2782, 6172.291
264.7603, 6046.827
265.2424, 5921.282
265.7245, 5815.345
266.2066, 5732.840
266.6888, 5654.037
267.1709, 5570.110
267.6530, 5483.061
268.1351, 5396.774
268.6172, 5311.029
269.0993, 5229.592
269.5815, 5155.986
270.0636, 5088.150
270.5457, 5035.768
271.0278, 5008.832
271.5099, 4996.136
271.9920, 4980.579
272.4742, 4958.168
272.9563, 4941.549
273.4384, 4946.915
273.9205, 4978.917
274.4026, 5007.268
274.8847, 5024.299
275.3669, 5041.446
275.8490, 5072.739
276.3311, 5117.256
276.8132, 5158.166
277.2953, 5182.268
277.7774, 5188.227
278.2596, 5179.118
278.7417, 5158.860
279.2238, 5122.164
279.7059, 5055.415
280.1880, 4967.725
280.6701, 4885.321
281.1523, 4826.388
281.6344, 4788.331
282.1165, 4742.583
282.5986, 4684.877
283.0807, 4624.670
283.5628, 4555.174
284.0450, 4486.428
284.5271, 4433.725
285.0092, 4405.580
285.4913, 4395.095
285.9734, 4381.108
286.4555, 4356.174
286.9377, 4338.701
287.4198, 4328.018
287.9019, 4326.132
288.3840, 4336.040
288.8661, 4358.535
289.3482, 4389.844
289.8304, 4425.979
290.3125, 4472.896
290.7946, 4508.609
291.2767, 4516.092
291.7588, 4523.959
292.2409, 4552.381
292.7231, 4602.411
293.2052, 4657.790
293.6873, 4700.106
294.1694, 4727.568
294.6515, 4765.084
295.1336, 4822.738
295.6158, 4882.264
296.0979, 4935.373
296.5800, 4982.517
297.0621, 5026.575
297.5442, 5069.721
298.0263, 5111.533
298.5085, 5150.515
298.9906, 5187.062
299.4727, 5220.560
299.9548, 5255.518
300.4369, 5287.339
300.9190, 5305.500
301.4012, 5298.004
301.8833, 5280.850
302.3654, 5280.712
302.8475, 5299.989
303.3296, 5308.579
303.8117, 5288.651
304.2939, 5247.413
304.7760, 5201.435
305.2581, 5148.678
305.7402, 5095.598
306.2223, 5051.801
306.7044, 5012.848
307.1866, 4960.204
307.6687, 4884.189
308.1508, 4794.986
308.6329, 4711.465
309.1150, 4627.409
309.5971, 4561.256
310.0793, 4534.297
310.5614, 4522.642
311.0435, 4491.522
311.5256, 4432.256
312.0077, 4361.581
312.4898, 4300.860
312.9720, 4255.417
313.4541, 4205.187
313.9362, 4135.877
314.4183, 4072.723
314.9004, 4041.063
315.3825, 4037.086
315.8647, 4031.859
316.3468, 3997.821
316.8289, 3932.581
317.3110, 3890.601
317.7931, 3895.773
318.2752, 3897.210
318.7574, 3876.663
319.2395, 3841.540
319.7216, 3804.861
320.2037, 3773.576
320.6858, 3748.895
321.1679, 3737.604
321.6501, 3755.173
322.1322, 3761.143
322.6143, 3742.518
323.0964, 3713.805
323.5785, 3688.079
324.0606, 3669.660
324.5428, 3655.471
325.0249, 3640.362
325.5070, 3622.916
325.9891, 3611.678
326.4712, 3614.535
326.9533, 3619.202
327.4355, 3617.945
327.9176, 3610.494
328.3997, 3601.702
328.8818, 3593.155
329.3639, 3585.775
329.8460, 3582.524
330.3282, 3581.192
330.8103, 3589.230
331.2924, 3621.399
331.7745, 3668.910
332.2566, 3704.843
332.7387, 3711.241
333.2209, 3707.141
333.7030, 3712.076
334.1851, 3726.489
334.6672, 3751.029
335.1493, 3787.367
335.6314, 3834.476
336.1136, 3885.919
336.5957, 3949.560
337.0778, 4008.507
337.5599, 4048.736
338.0420, 4079.219
338.5241, 4120.064
339.0063, 4180.149
339.4884, 4250.580
339.9705, 4312.779
340.4526, 4354.006
340.9347, 4410.071
341.4168, 4485.546
341.8990, 4574.596
342.3811, 4676.026
342.8632, 4788.162
343.3453, 4903.606
343.8274, 5013.683
344.3095, 5114.896
344.7917, 5231.551
345.2738, 5374.027
345.7559, 5520.149
346.2380, 5669.482
346.7201, 5816.499
347.2022, 5954.415
347.6844, 6083.232
348.1665, 6195.313
348.6486, 6257.715
349.1307, 6268.205
349.6128, 6228.424
350.0949, 6133.965
350.5771, 5999.253
351.0592, 5829.658
351.5413, 5623.929
352.0234, 5411.134
352.5055, 5231.804
352.9876, 5086.774
353.4698, 4930.330
353.9519, 4740.696
354.4340, 4549.403
354.9161, 4387.389
355.3982, 4253.993
355.8803, 4134.263
356.3625, 4022.781
356.8446, 3919.604
357.3267, 3819.427
357.8088, 3720.411
358.2909, 3639.179
358.7730, 3596.425
359.2552, 3589.350
359.7373, 3568.552
360.2194, 3514.376
360.7015, 3462.243
361.1836, 3436.750
361.6657, 3431.542
362.1479, 3426.159
362.6300, 3409.924
363.1121, 3386.403
363.5942, 3366.989
364.0763, 3352.859
364.5584, 3341.542
365.0406, 3331.988
365.5227, 3325.588
366.0048, 3325.418
366.4869, 3331.486
366.9690, 3338.525
367.4511, 3338.080
367.9333, 3325.187
368.4154, 3324.983
368.8975, 3354.068
369.3796, 3380.557
369.8617, 3388.545
370.3438, 3382.870
370.8260, 3377.635
371.3081, 3380.447
371.7902, 3391.277
372.2723, 3411.604
372.7544, 3445.299
373.2365, 3478.641
373.7187, 3497.563
374.2008, 3516.382
374.6829, 3552.616
375.1650, 3612.825
375.6471, 3682.134
376.1292, 3749.055
376.6114, 3814.126
377.0935, 3880.277
377.5756, 3947.573
378.0577, 4016.736
378.5398, 4093.313
379.0219, 4179.116
379.5041, 4249.097
379.9862, 4294.482
380.4683, 4323.605
380.9504, 4346.698
381.4325, 4363.707
381.9146, 4365.675
382.3968, 4344.414
382.8789, 4300.719
383.3610, 4254.404
383.8431, 4213.014
384.3252, 4160.777
384.8073, 4079.828
385.2895, 3989.245
385.7716, 3917.227
386.2537, 3875.377
386.7358, 3851.354
387.2179, 3822.326
387.7000, 3785.605
388.1822, 3750.115
388.6643, 3708.171
389.1464, 3673.920
389.6285, 3657.322
390.1106, 3657.595
390.5927, 3665.562
391.0749, 3666.529
391.5570, 3698.958
392.0391, 3727.595
392.5212, 3752.644
393.0033, 3763.357
393.4854, 3792.582
393.9676, 3814.392
394.4497, 3835.894
394.9318, 3867.723
395.4139, 3880.522
395.8960, 3912.187
396.3781, 3936.322
396.8603, 3963.907
397.3424, 3982.251
397.8245, 4004.126
398.3066, 4021.997
398.7887, 4039.734
399.2708, 4041.410
399.7530, 4014.558
400.2351, 3976.861
400.7172, 3946.988
401.1993, 3924.832
401.6814, 3896.166
402.1635, 3849.021
402.6457, 3783.448
403.1278, 3710.401
403.6099, 3615.031
404.0920, 3529.204
404.5741, 3463.677
405.0562, 3410.192
405.5384, 3355.660
406.0205, 3294.991
406.5026, 3237.232
406.9847, 3200.776
407.4668, 3191.794
407.9489, 3173.904
408.4311, 3132.711
408.9132, 3089.605
409.3953, 3059.460
409.8774, 3040.623
410.3595, 3020.147
410.8416, 2982.784
411.3238, 2940.829
411.8059, 2922.423
412.2880, 2931.137
412.7701, 2940.159
413.2522, 2933.680
413.7343, 2915.144
414.2165, 2898.146
414.6986, 2880.853
415.1807, 2867.581
415.6628, 2862.026
416.1449, 2861.378
416.6270, 2861.386
417.1092, 2860.770
417.5913, 2859.264
418.0734, 2855.677
418.5555, 2846.538
419.0376, 2847.227
419.5197, 2869.881
420.0019, 2889.557
420.4840, 2891.979
420.9661, 2880.979
421.4482, 2867.508
421.9303, 2857.656
422.4124, 2851.780
422.8946, 2852.439
423.3767, 2864.475
423.8588, 2871.700
424.3409, 2861.085
424.8230, 2849.521
425.3051, 2853.432
425.7873, 2875.747
426.2694, 2898.621
426.7515, 2909.891
427.2336, 2910.917
427.7157, 2903.446
428.1978, 2884.873
428.6800, 2868.424
429.1621, 2867.983
429.6442, 2880.582
430.1263, 2885.191
430.6084, 2874.222
431.0905, 2860.943
431.5727, 2854.146
432.0548, 2850.733
432.5369, 2844.317
433.0190, 2832.556
433.5011, 2814.128
433.9832, 2785.488
434.4654, 2734.681
434.9475, 2696.587
435.4296, 2674.740
435.9117, 2660.846
436.3938, 2653.619
436.8759, 2650.405
437.3581, 2645.477
437.8402, 2633.607
438.3223, 2616.929
438.8044, 2605.547
439.2865, 2603.418
439.7686, 2597.482
440.2508, 2575.248
440.7329, 2550.287
441.2150, 2538.601
441.6971, 2545.662
442.1792, 2552.472
442.6613, 2539.620
443.1435, 2516.282
443.6256, 2510.079
444.1077, 2528.658
444.5898, 2549.120
445.0719, 2548.118
445.5540, 2524.092
446.0362, 2509.666
446.5183, 2505.740
447.0004, 2510.268
447.4825, 2531.813
447.9646, 2559.720
448.4467, 2572.120
448.9289, 2558.955
449.4110, 2533.462
449.8931, 2523.959
450.3752, 2540.978
450.8573, 2549.721
451.3394, 2538.299
451.8216, 2528.032
452.3037, 2533.981
452.7858, 2552.588
453.2679, 2567.320
453.7500, 2563.404
454.2321, 2549.952
454.7143, 2551.732
455.1964, 2571.962
455.6785, 2589.181
456.1606, 2592.900
456.6428, 2588.529
457.1249, 2584.783
457.6070, 2579.769
458.0891, 2581.469
458.5712, 2600.420
459.0533, 2625.052
459.5355, 2638.806
460.0176, 2639.416
460.4997, 2634.287
460.9818, 2628.948
461.4639, 2623.374
461.9460, 2623.943
462.4282, 2628.817
462.9103, 2641.667
463.3924, 2669.737
463.8745, 2703.726
464.3566, 2733.544
464.8387, 2755.632
465.3209, 2770.866
465.8030, 2778.895
466.2851, 2779.087
466.7672, 2780.098
467.2493, 2781.604
467.7314, 2785.402
468.2136, 2791.371
468.6957, 2800.105
469.1778, 2813.628
469.6599, 2835.578
470.1420, 2859.963
470.6241, 2883.636
471.1063, 2905.491
471.5884, 2918.841
472.0705, 2919.754
472.5526, 2915.558
473.0347, 2919.992
473.5168, 2943.848
473.9990, 2949.409
474.4811, 2920.955
474.9632, 2887.390
475.4453, 2862.869
475.9274, 2849.647
476.4095, 2847.963
476.8917, 2859.002
477.3738, 2879.470
477.8559, 2900.395
478.3380, 2925.796
478.8201, 2941.415
479.3022, 2930.512
479.7844, 2917.722
480.2665, 2920.349
480.7486, 2939.944
481.2307, 2967.858
481.7128, 3002.267
482.1949, 3040.421
482.6771, 3077.335
483.1592, 3112.981
483.6413, 3146.177
484.1234, 3173.114
484.6055, 3198.227
485.0876, 3241.038
485.5698, 3317.195
486.0519, 3386.912
486.5340, 3431.336
487.0161, 3472.236
487.4982, 3534.137
487.9803, 3619.229
488.4625, 3710.219
488.9446, 3786.727
489.4267, 3849.976
489.9088, 3940.150
490.3909, 4067.462
490.8730, 4207.180
491.3552, 4350.437
491.8373, 4499.536
492.3194, 4655.488
492.8015, 4816.355
493.2836, 4991.749
493.7657, 5185.822
494.2479, 5399.361
494.7300, 5647.771
495.2121, 5939.199
495.6942, 6224.777
496.1763, 6475.093
496.6584, 6685.492
497.1406, 6837.034
497.6227, 6943.790
498.1048, 6980.708
498.5869, 6929.475
499.0690, 6806.752
499.5511, 6630.615
500.0333, 6408.120
500.5154, 6145.157
500.9975, 5837.271
501.4796, 5471.490
501.9617, 5147.714
502.4438, 4879.642
502.9260, 4637.524
503.4081, 4402.716
503.8902, 4183.342
504.3723, 3990.285
504.8544, 3827.986
505.3365, 3692.915
505.8187, 3583.921
506.3008, 3499.863
506.7829, 3440.204
507.2650, 3406.361
507.7471, 3387.325
508.2292, 3372.313
508.7114, 3361.313
509.1935, 3356.009
509.6756, 3364.349
510.1577, 3369.454
510.6398, 3355.792
511.1219, 3336.935
511.6041, 3332.201
512.0862, 3349.126
512.5683, 3385.658
513.0504, 3442.290
513.5325, 3520.814
514.0146, 3600.192
514.4968, 3676.182
514.9789, 3756.982
515.4610, 3838.081
515.9431, 3927.070
516.4252, 4043.039
516.9073, 4203.557
517.3895, 4376.569
517.8716, 4533.875
518.3537, 4683.688
518.8358, 4849.496
519.3179, 5038.253
519.8000, 5244.292
520.2822, 5459.668
520.7643, 5680.300
521.2464, 5932.903
521.7285, 6208.799
522.2106, 6521.692
522.6927, 6890.159
523.1749, 7295.466
523.6570, 7706.780
524.1391, 8115.412
524.6212, 8532.250
525.1033, 8991.961
525.5854, 9493.241
526.0676, 9933.867
526.5497, 10310.49
527.0318, 10614.75
527.5139, 10852.27
527.9960, 11012.59
528.4781, 11037.01
528.9603, 10879.83
529.4424, 10624.75
529.9245, 10302.21
530.4066, 9914.936
530.8887, 9454.341
531.3708, 8921.291
531.8530, 8364.561
532.3351, 7834.999
532.8172, 7330.851
533.2993, 6861.831
533.7814, 6422.358
534.2635, 6029.325
534.7457, 5694.756
535.2278, 5404.372
535.7099, 5136.258
536.1920, 4883.947
536.6741, 4657.101
537.1563, 4475.560
537.6384, 4327.690
538.1205, 4175.114
538.6026, 4010.848
539.0847, 3860.768
539.5668, 3745.577
540.0490, 3662.712
540.5311, 3588.958
541.0132, 3531.993
541.4953, 3473.285
541.9774, 3400.008
542.4595, 3327.493
542.9417, 3274.986
543.4238, 3243.795
543.9059, 3216.184
544.3880, 3174.324
544.8701, 3120.466
545.3522, 3074.438
545.8344, 3036.666
546.3165, 3005.703
546.7986, 2983.600
547.2807, 2966.896
547.7628, 2953.896
548.2449, 2946.029
548.7271, 2932.113
549.2092, 2900.969
549.6913, 2864.384
550.1734, 2836.849
550.6555, 2818.932
551.1376, 2805.880
551.6198, 2795.407
552.1019, 2785.904
552.5840, 2771.146
553.0661, 2745.338
553.5482, 2724.274
554.0303, 2713.329
554.5125, 2703.227
554.9946, 2683.509
555.4767, 2657.924
555.9588, 2642.947
556.4409, 2656.516
556.9230, 2678.980
557.4052, 2675.121
557.8873, 2647.001
558.3694, 2624.991
558.8515, 2620.446
559.3336, 2623.813
559.8157, 2622.148
560.2979, 2614.025
560.7800, 2606.150
561.2621, 2597.715
561.7442, 2590.363
562.2263, 2584.180
562.7084, 2579.778
563.1906, 2578.157
563.6727, 2579.745
564.1548, 2583.844
564.6369, 2589.504
565.1190, 2596.681
565.6011, 2606.681
566.0833, 2622.950
566.5654, 2636.027
567.0475, 2635.120
567.5296, 2626.493
568.0117, 2624.370
568.4938, 2631.494
568.9760, 2644.051
569.4581, 2666.061
569.9402, 2689.933
570.4223, 2703.491
570.9044, 2705.508
571.3865, 2706.154
571.8687, 2714.643
572.3508, 2730.363
572.8329, 2745.098
573.3150, 2750.026
573.7971, 2770.317
574.2792, 2829.857
574.7614, 2894.701
575.2435, 2934.026
575.7256, 2945.278
576.2077, 2951.719
576.6898, 2969.308
577.1719, 2987.478
577.6541, 2992.418
578.1362, 2984.306
578.6183, 2967.994
579.1004, 2945.518
579.5825, 2916.938
580.0646, 2882.256
580.5468, 2839.593
581.0289, 2794.224
581.5110, 2745.150
581.9931, 2694.483
582.4752, 2642.044
582.9573, 2589.015
583.4395, 2537.905
583.9216, 2489.981
584.4037, 2444.295
584.8858, 2399.136
585.3679, 2355.383
585.8500, 2315.688
586.3322, 2280.156
586.8143, 2252.130
587.2964, 2236.265
587.7785, 2231.601
588.2606, 2222.928
588.7427, 2206.703
589.2249, 2191.501
589.7070, 2180.474
590.1891, 2170.569
590.6712, 2157.795
591.1533, 2142.216
591.6354, 2128.181
592.1176, 2120.312
592.5997, 2116.323
593.0818, 2108.142
593.5639, 2095.124
594.0460, 2081.950
594.5281, 2068.071
595.0103, 2057.131
595.4924, 2057.985
595.9745, 2072.923
596.4566, 2077.792
596.9387, 2057.730
597.4208, 2037.222
597.9030, 2033.533
598.3851, 2040.899
598.8672, 2046.027
599.3493, 2043.382
599.8314, 2038.010
600.3135, 2041.173
600.7957, 2054.193
601.2778, 2045.428
601.7599, 1998.492
602.2420, 1957.870
602.7241, 1958.290
603.2062, 1980.637
603.6884, 1989.234
604.1705, 1973.179
604.6526, 1959.619
605.1347, 1964.052
605.6168, 1973.581
606.0989, 1973.110
606.5811, 1962.453
607.0632, 1950.552
607.5453, 1943.367
608.0274, 1940.079
608.5095, 1938.741
608.9916, 1940.588
609.4738, 1939.894
609.9559, 1928.877
610.4380, 1922.220
610.9201, 1938.073
611.4022, 1969.278
611.8843, 1983.994
612.3665, 1956.779
612.8486, 1926.642
613.3307, 1921.372
613.8128, 1930.817
614.2949, 1936.437
614.7770, 1933.576
615.2592, 1927.706
615.7413, 1923.932
616.2234, 1922.283
616.7055, 1924.077
617.1876, 1932.650
617.6697, 1938.594
618.1519, 1935.545
618.6340, 1931.258
619.1161, 1932.518
619.5982, 1939.899
620.0803, 1949.848
620.5624, 1967.895
621.0446, 1982.449
621.5267, 1977.000
622.0088, 1957.129
622.4909, 1942.318
622.9730, 1940.537
623.4551, 1944.161
623.9373, 1940.798
624.4194, 1927.989
624.9015, 1921.378
625.3836, 1921.395
625.8657, 1927.452
626.3478, 1945.191
626.8300, 1965.910
627.3121, 1976.588
627.7942, 1973.264
628.2763, 1969.378
628.7584, 1973.706
629.2405, 1981.353
629.7227, 1985.198
630.2048, 1985.470
630.6869, 1986.792
631.1690, 1991.801
631.6511, 1999.175
632.1332, 2006.309
632.6154, 2014.626
633.0975, 2018.442
633.5796, 2008.777
