##NAMES=Spangolite
##RRUFFID=R080023
##IDEAL CHEMISTRY=Cu^2+^_6_AlS^6+^O_4_(OH)_12_Cl&#183;3H_2_O
##LOCALITY=Mex-Tex mine, Hansonberg Mining District, Bingham, Socorro County, New Mexico, USA
##OWNER=RRUFF
##SOURCE=William W. Pinch
##DESCRIPTION=Deep bluish green doubly terminated and pyramidal crystals associated with quartz
##STATUS=The identification of this mineral has been confirmed by single-crystal X-ray diffraction.
##URL=rruff.info/R080023
94.51007, 0.0000000E+00
94.99219, 74.99443
95.47430, 72.75536
95.95642, 74.07970
96.43854, 78.15518
96.92065, 82.61140
97.40277, 84.49200
97.88489, 83.05952
98.36700, 81.49782
98.84912, 79.56810
99.33124, 77.66245
99.81335, 76.27995
100.2955, 75.57804
100.7776, 74.98664
101.2597, 73.22948
101.7418, 69.50986
102.2239, 66.70030
102.7061, 66.29143
103.1882, 67.34639
103.6703, 67.41547
104.1524, 65.04408
104.6345, 61.69957
105.1166, 59.89578
105.5988, 60.01697
106.0809, 60.72936
106.5630, 61.20599
107.0451, 61.57982
107.5272, 60.89125
108.0093, 56.88486
108.4915, 52.34367
108.9736, 49.91796
109.4557, 50.89561
109.9378, 54.14298
110.4199, 56.58378
110.9020, 57.85731
111.3842, 58.73386
111.8663, 59.33181
112.3484, 59.72092
112.8305, 60.03184
113.3126, 60.41687
113.7947, 60.90057
114.2769, 60.44439
114.7590, 57.91787
115.2411, 55.59116
115.7232, 54.02374
116.2053, 53.33941
116.6874, 53.59982
117.1696, 55.02842
117.6517, 58.10505
118.1338, 60.19246
118.6159, 60.77112
119.0980, 60.73137
119.5801, 60.87675
120.0623, 61.39771
120.5444, 61.82051
121.0265, 61.31174
121.5086, 59.87172
121.9907, 58.53098
122.4728, 57.36968
122.9550, 56.51180
123.4371, 56.45515
123.9192, 57.95643
124.4013, 59.48095
124.8834, 59.10505
125.3655, 56.71981
125.8476, 54.40404
126.3298, 54.15126
126.8119, 56.17212
127.2940, 57.68003
127.7761, 57.24946
128.2582, 56.43779
128.7404, 56.17421
129.2225, 56.70623
129.7046, 57.60741
130.1867, 58.22905
130.6688, 58.71537
131.1509, 58.54881
131.6331, 57.15947
132.1152, 55.43421
132.5973, 54.29685
133.0794, 54.21463
133.5615, 54.82332
134.0436, 54.59738
134.5258, 51.64513
135.0079, 49.87543
135.4900, 50.75293
135.9721, 53.12379
136.4542, 55.00563
136.9363, 55.08525
137.4185, 53.45501
137.9006, 51.94013
138.3827, 50.22475
138.8648, 48.85716
139.3469, 48.21247
139.8290, 48.22903
140.3112, 48.48460
140.7933, 48.80375
141.2754, 49.10252
141.7575, 48.92279
142.2396, 47.28774
142.7217, 45.63597
143.2039, 45.98571
143.6860, 48.94030
144.1681, 51.68909
144.6502, 51.10945
145.1323, 48.45980
145.6144, 46.41416
146.0966, 46.80962
146.5787, 48.72942
147.0608, 49.04060
147.5429, 46.14525
148.0250, 43.68779
148.5071, 44.25535
148.9893, 47.00467
149.4714, 49.53565
149.9535, 49.56829
150.4356, 46.83373
150.9177, 45.19293
151.3998, 46.10199
151.8820, 47.03014
152.3641, 46.79209
152.8462, 45.51529
153.3283, 44.26306
153.8104, 44.32885
154.2925, 46.29714
154.7747, 48.00626
155.2568, 50.06667
155.7389, 51.52684
156.2210, 51.40594
156.7031, 49.67390
157.1852, 47.40231
157.6673, 46.25479
158.1495, 46.93325
158.6316, 47.73856
159.1137, 49.27288
159.5958, 50.67423
160.0779, 50.68677
160.5600, 48.81796
161.0422, 46.38562
161.5243, 46.41571
162.0064, 50.28311
162.4885, 53.06342
162.9706, 52.93673
163.4527, 51.01941
163.9349, 49.44749
164.4170, 49.00164
164.8991, 49.37267
165.3812, 50.13465
165.8633, 51.73533
166.3454, 52.51033
166.8276, 50.72708
167.3097, 46.80424
167.7918, 43.94995
168.2739, 44.10140
168.7560, 45.50418
169.2381, 46.06262
169.7203, 45.49725
170.2024, 44.37270
170.6845, 42.94775
171.1666, 41.04451
171.6487, 39.93517
172.1308, 41.45042
172.6130, 43.27460
173.0951, 43.34510
173.5772, 40.85632
174.0593, 37.38216
174.5414, 35.70365
175.0235, 36.51508
175.5057, 37.83101
175.9878, 39.85908
176.4699, 41.80994
176.9520, 42.87318
177.4341, 42.64427
177.9162, 41.51883
178.3984, 40.69653
178.8805, 40.11068
179.3626, 39.99724
179.8447, 40.57157
180.3268, 41.55090
180.8089, 42.78653
181.2911, 44.24625
181.7732, 45.69286
182.2553, 45.71447
182.7374, 42.76918
183.2195, 40.10159
183.7016, 37.95234
184.1838, 36.52478
184.6659, 36.27648
185.1480, 37.66024
185.6301, 40.41633
186.1122, 41.82500
186.5943, 41.27897
187.0765, 40.35933
187.5586, 39.54371
188.0407, 38.83488
188.5228, 38.11710
189.0049, 37.26709
189.4870, 36.36294
189.9692, 35.78563
190.4513, 35.66010
190.9334, 35.73211
191.4155, 36.02024
191.8976, 36.48799
192.3797, 36.62397
192.8619, 35.73402
193.3440, 34.30256
193.8261, 33.70041
194.3082, 34.60346
194.7903, 36.04169
195.2724, 37.15192
195.7546, 37.96131
196.2367, 38.26472
196.7188, 37.05843
197.2009, 35.40427
197.6830, 34.88876
198.1651, 36.78878
198.6473, 39.53881
199.1294, 40.09113
199.6115, 37.33276
200.0936, 35.16671
200.5757, 35.94262
201.0578, 38.19396
201.5400, 40.16399
202.0221, 41.00988
202.5042, 41.05390
202.9863, 41.34300
203.4684, 42.49537
203.9505, 42.79324
204.4327, 40.84330
204.9148, 38.02739
205.3969, 36.34591
205.8790, 37.12263
206.3611, 39.76236
206.8432, 41.23519
207.3254, 40.66895
207.8075, 39.83886
208.2896, 39.09363
208.7717, 38.36726
209.2538, 37.43643
209.7359, 36.10448
210.2181, 34.48247
210.7002, 33.66025
211.1823, 33.91743
211.6644, 34.75999
212.1465, 36.49281
212.6286, 38.72931
213.1108, 41.08404
213.5929, 43.44259
214.0750, 45.65661
214.5571, 45.38109
215.0392, 39.19823
215.5213, 34.38140
216.0035, 33.91245
216.4856, 36.45327
216.9677, 38.89091
217.4498, 39.12704
217.9319, 37.36993
218.4140, 36.55352
218.8962, 36.80932
219.3783, 37.62228
219.8604, 39.31679
220.3425, 41.51546
220.8246, 43.13833
221.3067, 43.39800
221.7889, 42.47936
222.2710, 41.93621
222.7531, 41.69846
223.2352, 41.83738
223.7173, 42.98828
224.1994, 44.80524
224.6816, 45.54315
225.1637, 43.64640
225.6458, 39.96595
226.1279, 38.01079
226.6100, 39.27325
227.0921, 40.74921
227.5743, 40.02630
228.0564, 37.34760
228.5385, 35.18607
229.0206, 34.82513
229.5027, 36.01176
229.9848, 38.08229
230.4670, 42.23273
230.9491, 45.62794
231.4312, 45.08625
231.9133, 40.58001
232.3954, 36.51152
232.8775, 34.97390
233.3597, 35.11823
233.8418, 36.03740
234.3239, 38.08315
234.8060, 39.91143
235.2881, 39.73257
235.7702, 37.28674
236.2524, 35.29250
236.7345, 35.64074
237.2166, 36.49829
237.6987, 35.87309
238.1808, 33.00364
238.6629, 30.22420
239.1451, 30.98508
239.6272, 36.14992
240.1093, 40.22931
240.5914, 41.64041
241.0735, 41.26194
241.5556, 38.71899
242.0378, 33.84517
242.5199, 29.05637
243.0020, 27.77043
243.4841, 30.96038
243.9662, 34.14180
244.4483, 36.84335
244.9305, 39.04823
245.4126, 41.03969
245.8947, 42.79166
246.3768, 43.48888
246.8589, 41.40592
247.3410, 34.97926
247.8232, 30.72058
248.3053, 29.83167
248.7874, 30.64868
249.2695, 33.12073
249.7516, 36.84455
250.2337, 40.20415
250.7159, 40.67625
251.1980, 36.64218
251.6801, 34.11948
252.1622, 33.69907
252.6443, 34.22338
253.1264, 35.37621
253.6086, 36.94110
254.0907, 38.53566
254.5728, 39.67093
255.0549, 40.21516
255.5370, 40.68847
256.0191, 41.90438
256.5013, 42.43165
256.9834, 40.61396
257.4655, 36.87294
257.9476, 33.57336
258.4297, 33.53243
258.9118, 37.96729
259.3940, 40.69686
259.8761, 41.12518
260.3582, 40.76363
260.8403, 40.32372
261.3224, 39.84329
261.8045, 38.86926
262.2867, 36.72855
262.7688, 32.90932
263.2509, 31.70153
263.7330, 35.77329
264.2151, 39.41663
264.6972, 39.46317
265.1794, 36.47026
265.6615, 33.19063
266.1436, 31.92103
266.6257, 32.77226
267.1078, 33.04334
267.5899, 31.51159
268.0721, 30.70544
268.5542, 32.33865
269.0363, 35.72990
269.5184, 38.87648
270.0005, 40.37432
270.4826, 40.32205
270.9648, 40.16228
271.4469, 40.42529
271.9290, 40.07470
272.4111, 37.87366
272.8932, 34.69238
273.3753, 32.71688
273.8575, 33.40679
274.3396, 36.15273
274.8217, 37.77920
275.3038, 38.59953
275.7859, 38.27723
276.2680, 35.51257
276.7502, 31.55355
277.2323, 29.12240
277.7144, 29.68974
278.1965, 32.19521
278.6786, 33.47189
279.1607, 32.84039
279.6429, 32.50159
280.1250, 33.38830
280.6071, 34.92971
281.0892, 36.08161
281.5713, 36.44857
282.0534, 36.33961
282.5356, 36.43109
283.0177, 37.01415
283.4998, 36.89715
283.9819, 35.09850
284.4640, 32.59377
284.9461, 30.98394
285.4283, 30.78411
285.9104, 31.11051
286.3925, 30.59536
286.8746, 29.11942
287.3567, 28.16140
287.8388, 28.18286
288.3210, 28.81932
288.8031, 29.72505
289.2852, 30.88185
289.7673, 31.99625
290.2494, 32.85499
290.7315, 33.45560
291.2137, 33.43920
291.6958, 32.10372
292.1779, 30.46754
292.6600, 29.55593
293.1421, 29.46746
293.6242, 30.02363
294.1064, 31.46464
294.5885, 33.54064
295.0706, 34.88895
295.5527, 34.69498
296.0348, 34.19539
296.5169, 34.71171
296.9991, 36.20894
297.4812, 37.22031
297.9633, 36.42947
298.4454, 34.53680
298.9275, 33.83120
299.4096, 35.57398
299.8918, 37.18242
300.3739, 36.21225
300.8560, 33.09705
301.3381, 30.98000
301.8202, 31.62374
302.3023, 33.91106
302.7845, 35.51066
303.2666, 36.45512
303.7487, 36.65583
304.2308, 35.44787
304.7129, 33.31349
305.1950, 31.98891
305.6772, 32.15905
306.1593, 33.23310
306.6414, 34.71881
307.1235, 36.84165
307.6056, 37.75879
308.0877, 35.62194
308.5699, 31.75821
309.0520, 29.32330
309.5341, 29.21738
310.0162, 30.02423
310.4983, 30.29318
310.9804, 30.10783
311.4626, 29.86594
311.9447, 29.52180
312.4268, 29.25425
312.9089, 29.47489
313.3910, 30.33987
313.8731, 31.09377
314.3553, 30.80964
314.8374, 29.85100
315.3195, 29.39917
315.8016, 30.23237
316.2837, 31.35842
316.7658, 31.38227
317.2480, 30.23330
317.7301, 29.75517
318.2122, 31.82345
318.6943, 35.16652
319.1764, 36.67667
319.6585, 35.30268
320.1407, 33.08447
320.6228, 31.34826
321.1049, 30.06506
321.5870, 28.92005
322.0691, 27.47115
322.5512, 26.43556
323.0334, 27.05358
323.5155, 29.77299
323.9976, 32.62912
324.4797, 34.99779
324.9618, 36.73115
325.4439, 37.10909
325.9261, 35.43911
326.4082, 33.28864
326.8903, 33.05337
327.3724, 34.73508
327.8545, 35.71722
328.3366, 34.30354
328.8188, 31.81793
329.3009, 30.65258
329.7830, 31.39527
330.2651, 32.35349
330.7472, 31.59901
331.2293, 29.49405
331.7115, 28.02987
332.1936, 27.71122
332.6757, 28.11426
333.1578, 29.10699
333.6399, 30.67489
334.1220, 31.86386
334.6042, 31.88020
335.0863, 31.00324
335.5684, 30.44713
336.0505, 30.10612
336.5326, 30.23433
337.0147, 31.60417
337.4969, 33.81292
337.9790, 34.86099
338.4611, 33.42397
338.9432, 30.72280
339.4253, 29.49439
339.9074, 30.10091
340.3896, 30.98909
340.8717, 32.07761
341.3538, 32.96861
341.8359, 32.57663
342.3180, 30.33146
342.8001, 27.69275
343.2823, 27.00404
343.7644, 28.46206
344.2465, 29.31571
344.7286, 27.99773
345.2107, 26.35956
345.6928, 26.76576
346.1750, 29.52682
346.6571, 32.74514
347.1392, 34.93467
347.6213, 35.95839
348.1034, 36.03974
348.5855, 34.03033
349.0677, 32.03955
349.5498, 31.70902
350.0319, 32.75646
350.5140, 33.58465
350.9961, 33.11552
351.4782, 31.75107
351.9604, 31.41864
352.4425, 33.26665
352.9246, 34.57707
353.4067, 34.29713
353.8888, 32.95347
354.3709, 31.30670
354.8531, 29.57659
355.3352, 28.07917
355.8173, 27.46178
356.2994, 27.97809
356.7815, 28.78917
357.2636, 30.35801
357.7458, 31.89775
358.2279, 32.64807
358.7100, 32.48055
359.1921, 31.65802
359.6742, 30.25499
360.1563, 27.95672
360.6385, 27.34320
361.1206, 29.86930
361.6027, 32.57519
362.0848, 34.50488
362.5669, 35.30791
363.0490, 34.10396
363.5312, 29.88591
364.0133, 23.35905
364.4954, 20.48616
364.9775, 24.64883
365.4596, 28.21801
365.9417, 29.49806
366.4239, 29.36507
366.9060, 28.98811
367.3881, 28.84605
367.8702, 28.84913
368.3523, 28.78773
368.8344, 28.26469
369.3166, 28.37750
369.7987, 29.43050
370.2808, 30.84868
370.7629, 32.62299
371.2450, 34.51114
371.7271, 35.67700
372.2093, 35.06066
372.6914, 32.27206
373.1735, 30.19241
373.6556, 28.21978
374.1377, 27.50413
374.6198, 29.50531
375.1020, 33.07657
375.5841, 35.83210
376.0662, 36.14282
376.5483, 34.62840
377.0304, 34.34033
377.5125, 37.16145
377.9947, 38.43969
378.4768, 36.12652
378.9589, 32.69285
379.4410, 30.58451
379.9231, 30.60619
380.4052, 31.85398
380.8874, 33.21531
381.3695, 35.06853
381.8516, 35.74037
382.3337, 33.51370
382.8158, 31.38521
383.2979, 31.29064
383.7801, 32.94561
384.2622, 34.44585
384.7443, 33.65817
385.2264, 30.92320
385.7085, 30.83227
386.1906, 36.26004
386.6728, 40.14927
387.1549, 38.58822
387.6370, 34.15919
388.1191, 30.63940
388.6012, 29.51659
389.0833, 30.31573
389.5655, 32.99895
390.0476, 38.42963
390.5297, 41.76240
391.0118, 39.18996
391.4939, 35.19886
391.9760, 33.51125
392.4582, 34.66748
392.9403, 36.11533
393.4224, 35.49615
393.9045, 33.21302
394.3866, 31.69120
394.8687, 31.15336
395.3509, 31.67456
395.8330, 33.83685
396.3151, 37.14153
396.7972, 39.95499
397.2793, 41.76690
397.7614, 42.68847
398.2436, 42.82262
398.7257, 42.15735
399.2078, 40.85732
399.6899, 38.50478
400.1720, 35.78220
400.6541, 33.97847
401.1363, 32.88659
401.6184, 33.22156
402.1005, 37.02862
402.5826, 42.71126
403.0647, 45.40585
403.5468, 43.06106
404.0290, 38.81669
404.5111, 37.24084
404.9932, 38.51894
405.4753, 39.43565
405.9574, 39.14632
406.4395, 38.41132
406.9217, 37.80927
407.4038, 37.43335
407.8859, 37.47145
408.3680, 38.23532
408.8501, 39.60442
409.3322, 40.06116
409.8144, 38.36722
410.2965, 37.27526
410.7786, 38.32479
411.2607, 40.53088
411.7428, 42.23004
412.2249, 42.73565
412.7071, 42.35790
413.1892, 41.66659
413.6713, 40.42297
414.1534, 39.27863
414.6355, 38.49828
415.1176, 37.61994
415.5998, 36.04872
416.0819, 33.92741
416.5640, 32.06829
417.0461, 31.20005
417.5282, 31.32899
418.0103, 31.88286
418.4925, 32.94192
418.9746, 34.36573
419.4567, 37.11019
419.9388, 39.91195
420.4209, 40.90355
420.9030, 39.21105
421.3852, 36.00699
421.8673, 33.55630
422.3494, 31.78405
422.8315, 30.98880
423.3136, 31.74357
423.7957, 32.98505
424.2779, 34.44173
424.7600, 35.89434
425.2421, 36.78328
425.7242, 36.43383
426.2063, 34.98646
426.6884, 33.80962
427.1706, 32.97441
427.6527, 32.30981
428.1348, 31.65179
428.6169, 31.11344
429.0990, 30.82272
429.5811, 30.76403
430.0633, 31.11480
430.5454, 32.52299
431.0275, 35.03097
431.5096, 36.44489
431.9917, 35.40213
432.4738, 33.73919
432.9560, 33.27395
433.4381, 34.00016
433.9202, 35.46142
434.4023, 38.61311
434.8844, 42.01560
435.3665, 42.74716
435.8487, 40.33775
436.3308, 37.19430
436.8129, 34.40541
437.2950, 32.35942
437.7771, 32.18356
438.2592, 35.67927
438.7414, 39.13749
439.2235, 40.76011
439.7056, 40.81700
440.1877, 39.68030
440.6698, 37.30952
441.1519, 34.57979
441.6341, 32.81926
442.1162, 32.06295
442.5983, 32.35470
443.0804, 35.01994
443.5625, 37.74482
444.0446, 38.73692
444.5268, 38.03702
445.0089, 36.72250
445.4910, 35.51687
445.9731, 34.44857
446.4552, 33.77794
446.9373, 33.70004
447.4195, 33.79031
447.9016, 34.30432
448.3837, 34.81305
448.8658, 34.74352
449.3479, 33.96420
449.8300, 32.95667
450.3122, 32.35526
450.7943, 32.14006
451.2764, 32.41394
451.7585, 33.80998
452.2406, 35.11057
452.7227, 35.61367
453.2049, 35.64502
453.6870, 36.09743
454.1691, 37.73148
454.6512, 39.79317
455.1333, 40.10122
455.6154, 37.90444
456.0976, 36.20114
456.5797, 36.31396
457.0618, 37.08090
457.5439, 37.92991
458.0260, 38.76131
458.5081, 38.94465
458.9903, 37.33242
459.4724, 34.59584
459.9545, 33.45182
460.4366, 34.78698
460.9187, 36.02198
461.4008, 34.21174
461.8830, 30.78336
462.3651, 29.40606
462.8472, 32.66841
463.3293, 36.08899
463.8114, 35.70832
464.2935, 32.51904
464.7756, 29.99529
465.2578, 29.30590
465.7399, 30.12695
466.2220, 32.35725
466.7041, 36.66872
467.1862, 39.55992
467.6683, 40.40405
468.1505, 39.85388
468.6326, 37.53370
469.1147, 34.01731
469.5968, 31.56695
470.0789, 31.94198
470.5610, 34.61999
471.0432, 36.07525
471.5253, 35.19957
472.0074, 34.44044
472.4895, 33.97003
472.9716, 33.78022
473.4537, 33.84064
473.9359, 34.14788
474.4180, 34.77544
474.9001, 36.09461
475.3822, 38.38750
475.8643, 38.95672
476.3464, 35.64572
476.8286, 32.87230
477.3107, 32.22573
477.7928, 33.01752
478.2749, 34.25972
478.7570, 35.70654
479.2391, 36.70247
479.7213, 35.46250
480.2034, 31.48027
480.6855, 29.69836
481.1676, 32.82298
481.6497, 37.02428
482.1318, 39.37753
482.6140, 39.95197
483.0961, 39.73045
483.5782, 38.53841
484.0603, 37.11018
484.5424, 36.84962
485.0245, 37.84582
485.5067, 38.54393
485.9888, 38.04055
486.4709, 36.67994
486.9530, 35.35018
487.4351, 33.74136
487.9172, 32.81438
488.3994, 33.41708
488.8815, 34.66891
489.3636, 35.38237
489.8457, 35.33776
490.3278, 35.07360
490.8099, 35.23134
491.2921, 35.88525
491.7742, 35.10218
492.2563, 30.34815
492.7384, 27.28919
493.2205, 29.23576
493.7026, 33.41030
494.1848, 35.63134
494.6669, 34.39314
495.1490, 31.86273
495.6311, 31.62468
496.1132, 34.67582
496.5953, 36.79533
497.0775, 37.10968
497.5596, 37.31022
498.0417, 38.31351
498.5238, 39.71108
499.0059, 40.57893
499.4880, 40.46169
499.9702, 39.48549
500.4523, 37.47761
500.9344, 34.07745
501.4165, 31.95063
501.8986, 32.59579
502.3807, 34.20422
502.8629, 35.28369
503.3450, 35.78413
503.8271, 35.82321
504.3092, 34.97443
504.7913, 33.90090
505.2734, 33.67078
505.7556, 34.33767
506.2377, 35.34117
506.7198, 36.45891
507.2019, 37.63819
507.6840, 38.76978
508.1661, 40.25544
508.6483, 40.96815
509.1304, 39.98329
509.6125, 38.39710
510.0946, 37.15611
510.5767, 36.54600
511.0588, 37.11303
511.5410, 39.71293
512.0231, 44.31728
512.5052, 46.30859
512.9873, 42.84747
513.4694, 40.12607
513.9515, 39.83937
514.4337, 40.66251
514.9158, 41.33474
515.3979, 41.39297
515.8800, 40.62168
516.3621, 38.17485
516.8442, 33.71864
517.3264, 31.30285
517.8085, 32.32227
518.2906, 33.67377
518.7727, 33.68640
519.2548, 33.11922
519.7369, 33.33254
520.2191, 34.97408
520.7012, 37.05170
521.1833, 39.12040
521.6654, 40.95135
522.1475, 40.28267
522.6296, 35.51950
523.1118, 30.24990
523.5939, 28.84265
524.0760, 30.75046
524.5581, 32.32303
525.0402, 32.99977
525.5223, 33.12110
526.0045, 32.65186
526.4866, 31.80856
526.9687, 31.21629
527.4508, 31.17730
527.9329, 31.31534
528.4150, 30.85624
528.8972, 29.08961
529.3793, 28.44598
529.8614, 30.80669
530.3435, 32.49573
530.8256, 30.41006
531.3077, 25.93141
531.7899, 22.66265
532.2720, 22.74800
532.7541, 25.26941
533.2362, 28.19141
533.7183, 32.20166
534.2004, 34.68504
534.6826, 34.49501
535.1647, 33.15324
535.6468, 30.80855
536.1289, 27.86935
536.6110, 25.76199
537.0931, 25.63970
537.5753, 26.72988
538.0574, 27.79400
538.5395, 28.85006
539.0216, 29.52601
539.5037, 29.56345
539.9858, 29.21967
540.4680, 28.96919
540.9501, 28.87165
541.4322, 28.52467
541.9143, 27.11287
542.3964, 25.86280
542.8785, 26.61608
543.3607, 29.00282
543.8428, 30.47444
544.3249, 29.22873
544.8070, 26.16011
545.2891, 24.58578
545.7712, 26.13979
546.2534, 26.99653
546.7355, 26.46539
547.2176, 25.66533
547.6997, 25.80969
548.1818, 26.62755
548.6639, 26.50948
549.1461, 23.77055
549.6282, 19.41551
550.1103, 17.95341
550.5924, 20.53631
551.0745, 23.00487
551.5566, 24.13371
552.0388, 24.63047
552.5209, 24.78929
553.0030, 24.68129
553.4851, 24.90319
553.9672, 26.40246
554.4493, 28.24538
554.9315, 28.33231
555.4136, 26.54921
555.8957, 25.51173
556.3778, 27.07167
556.8599, 30.00446
557.3420, 30.82825
557.8242, 28.68151
558.3063, 26.90216
558.7884, 25.96032
559.2705, 25.77093
559.7526, 27.22385
560.2347, 29.66747
560.7169, 30.17731
561.1990, 26.23575
561.6811, 19.39976
562.1632, 17.09984
562.6453, 23.24825
563.1274, 27.28439
563.6096, 26.89082
564.0917, 25.16727
564.5738, 23.78945
565.0559, 23.14437
565.5380, 23.49475
566.0201, 25.84393
566.5023, 28.92975
566.9844, 28.77061
567.4665, 24.66251
567.9486, 21.95108
568.4307, 23.40555
568.9128, 26.68513
569.3950, 28.60201
569.8771, 29.09406
570.3592, 29.21207
570.8413, 29.19948
571.3234, 29.05599
571.8055, 29.00033
572.2877, 28.89051
572.7698, 27.82308
573.2519, 25.09128
573.7340, 21.74565
574.2161, 20.55632
574.6982, 23.39846
575.1804, 25.18568
575.6625, 25.38390
576.1446, 25.05629
576.6267, 24.53985
577.1088, 24.05575
577.5909, 23.99681
578.0731, 24.69142
578.5552, 25.64479
579.0373, 25.72635
579.5194, 24.81469
580.0015, 23.66871
580.4836, 21.97178
580.9658, 20.58609
581.4479, 19.96739
581.9300, 20.13495
582.4121, 21.15284
582.8942, 23.89877
583.3763, 26.81141
583.8585, 28.63948
584.3406, 29.37617
584.8227, 28.70577
585.3048, 26.31265
585.7869, 23.48461
586.2690, 22.00039
586.7512, 22.16187
587.2333, 22.32347
587.7154, 22.27475
588.1975, 22.44921
588.6796, 23.22906
589.1617, 24.29623
589.6439, 25.18816
