##NAMES=Spangolite
##RRUFFID=R060135
##IDEAL CHEMISTRY=Cu^2+^_6_AlS^6+^O_4_(OH)_12_Cl&#183;3H_2_O
##LOCALITY=Blanchard mine, Hansonburg District, Socorro County, New Mexico, USA
##OWNER=RRUFF
##SOURCE=University of Arizona Mineral Museum
##DESCRIPTION=Bluish-green stubby hexagonal pyramids
##STATUS=The identification of this mineral has been confirmed by X-ray diffraction and chemical analysis
##URL=rruff.info/R060135
##MEASURED CHEMISTRY=Cu_6.00_Al_1.00_(S_1.00_O_4_)Cl_1.00_(OH)_12_Â·3H_2_O
90.26367, 29.58250
90.74579, 29.03043
91.22791, 29.62612
91.71002, 31.17444
92.19214, 31.91629
92.67426, 29.62507
93.15637, 25.29921
93.63850, 21.64302
94.12061, 19.65002
94.60273, 18.86380
95.08485, 18.28586
95.56696, 17.91764
96.04908, 17.78300
96.53120, 18.10497
97.01331, 18.84577
97.49543, 19.35251
97.97755, 19.16098
98.45966, 18.32656
98.94178, 17.88538
99.42390, 17.91329
99.90602, 18.23710
100.3881, 18.53634
100.8703, 18.79466
101.3524, 19.09482
101.8345, 19.62886
102.3166, 20.60229
102.7987, 20.83292
103.2808, 19.92482
103.7630, 18.22134
104.2451, 17.34667
104.7272, 17.80143
105.2093, 18.41246
105.6914, 18.33686
106.1735, 16.87446
106.6557, 15.93582
107.1378, 15.91404
107.6199, 16.84216
108.1020, 17.57702
108.5841, 17.98602
109.0662, 18.27581
109.5484, 18.63667
110.0305, 19.04151
110.5126, 19.54798
110.9947, 20.12693
111.4768, 20.74192
111.9590, 21.62384
112.4411, 23.21905
112.9232, 24.99857
113.4053, 26.23519
113.8874, 25.92227
114.3695, 25.77086
114.8517, 26.48272
115.3338, 28.40980
115.8159, 30.50749
116.2980, 32.41896
116.7801, 34.30286
117.2622, 36.48278
117.7444, 38.85760
118.2265, 41.71809
118.7086, 45.23940
119.1907, 49.51561
119.6728, 54.43904
120.1549, 60.13072
120.6371, 66.49117
121.1192, 73.14590
121.6013, 79.63510
122.0834, 86.32207
122.5655, 93.60292
123.0477, 101.8976
123.5298, 110.5711
124.0119, 119.3564
124.4940, 128.2077
124.9761, 136.5123
125.4582, 143.3182
125.9404, 149.1782
126.4225, 155.1158
126.9046, 161.8225
127.3867, 168.7602
127.8688, 174.9543
128.3509, 180.3460
128.8331, 185.5664
129.3152, 191.1321
129.7973, 197.0842
130.2794, 203.4710
130.7615, 210.2775
131.2436, 217.5384
131.7258, 225.2887
132.2079, 233.5368
132.6900, 242.2534
133.1721, 251.4868
133.6542, 261.2016
134.1364, 271.1858
134.6185, 281.5176
135.1006, 292.2241
135.5827, 302.8351
136.0648, 313.5250
136.5469, 323.9812
137.0291, 333.4510
137.5112, 341.7982
137.9933, 349.4615
138.4754, 357.0459
138.9575, 364.7268
139.4396, 370.8097
139.9218, 374.9322
140.4039, 377.2913
140.8860, 378.6120
141.3681, 378.6606
141.8502, 378.0606
142.3323, 377.2525
142.8145, 376.1714
143.2966, 374.9812
143.7787, 373.4627
144.2608, 371.6282
144.7429, 370.9432
145.2251, 371.6551
145.7072, 373.2923
146.1893, 375.3972
146.6714, 377.7444
147.1535, 380.8755
147.6356, 384.7310
148.1178, 389.1692
148.5999, 395.1691
149.0820, 403.5013
149.5641, 413.0561
150.0462, 422.4586
150.5283, 431.3499
151.0105, 440.3267
151.4926, 445.4724
151.9747, 450.2083
152.4568, 454.9707
152.9389, 459.7880
153.4210, 464.6063
153.9032, 469.4360
154.3853, 474.5005
154.8674, 479.3043
155.3495, 483.7221
155.8316, 487.9266
156.3138, 491.4766
156.7959, 494.0398
157.2780, 495.9388
157.7601, 497.7672
158.2422, 499.0945
158.7243, 500.7988
159.2065, 503.3570
159.6886, 507.1964
160.1707, 511.2174
160.6528, 514.9815
161.1349, 518.6594
161.6170, 522.7167
162.0992, 527.6482
162.5813, 532.8038
163.0634, 537.6928
163.5455, 541.5842
164.0276, 546.0302
164.5097, 551.9092
164.9919, 558.9786
165.4740, 566.3146
165.9561, 573.5969
166.4382, 580.8707
166.9203, 588.3272
167.4025, 597.0482
167.8846, 604.9231
168.3667, 610.9525
168.8488, 615.1683
169.3309, 617.6611
169.8130, 619.3083
170.2952, 619.0538
170.7773, 615.5793
171.2594, 607.5151
171.7415, 596.8017
172.2236, 584.9082
172.7057, 571.8083
173.1879, 557.0558
173.6700, 539.2269
174.1521, 519.6215
174.6342, 500.4008
175.1163, 481.6730
175.5984, 463.8414
176.0806, 447.5067
176.5627, 432.5748
177.0448, 419.1995
177.5269, 407.8582
178.0090, 398.2536
178.4911, 389.3676
178.9733, 380.7823
179.4554, 372.7628
179.9375, 365.6274
180.4196, 359.4523
180.9017, 354.0478
181.3839, 349.3874
181.8660, 345.4261
182.3481, 341.8271
182.8302, 338.6696
183.3123, 335.7819
183.7944, 332.7080
184.2766, 329.3597
184.7587, 326.1122
185.2408, 323.6555
185.7229, 321.8383
186.2050, 319.5708
186.6871, 315.8495
187.1693, 311.1445
187.6514, 306.9512
188.1335, 305.6665
188.6156, 304.1356
189.0977, 302.3717
189.5798, 299.6770
190.0620, 298.1839
190.5441, 296.2095
191.0262, 294.2153
191.5083, 292.8917
191.9904, 290.3324
192.4725, 288.9982
192.9547, 287.1747
193.4368, 287.3431
193.9189, 287.3700
194.4010, 287.1639
194.8831, 286.0271
195.3652, 286.0921
195.8474, 285.6755
196.3295, 285.2391
196.8116, 285.4734
197.2937, 284.4719
197.7758, 284.6955
198.2579, 284.4301
198.7401, 284.3884
199.2222, 283.8622
199.7043, 285.0020
200.1864, 286.9583
200.6685, 287.9435
201.1507, 287.7464
201.6328, 287.5320
202.1149, 288.1469
202.5970, 289.7146
203.0791, 290.8041
203.5612, 291.2154
204.0434, 291.1355
204.5255, 290.9697
205.0076, 290.6425
205.4897, 290.4939
205.9718, 290.8942
206.4539, 292.0224
206.9361, 292.5809
207.4182, 292.2377
207.9003, 291.3542
208.3824, 291.1925
208.8645, 292.0494
209.3466, 292.8578
209.8288, 292.8324
210.3109, 291.6819
210.7930, 290.9626
211.2751, 290.8016
211.7572, 291.1685
212.2393, 291.9999
212.7215, 293.3704
213.2036, 295.0131
213.6857, 296.8300
214.1678, 298.9463
214.6499, 300.8081
215.1321, 302.3094
215.6142, 303.5374
216.0963, 304.8495
216.5784, 306.2837
217.0605, 307.7150
217.5426, 309.1472
218.0248, 310.7567
218.5069, 311.7809
218.9890, 311.9964
219.4711, 311.5672
219.9532, 311.2053
220.4353, 310.7308
220.9175, 310.6148
221.3996, 311.1984
221.8817, 312.6789
222.3638, 314.3931
222.8459, 316.5591
223.3280, 318.9542
223.8102, 320.1408
224.2923, 319.3609
224.7744, 318.5630
225.2565, 319.0065
225.7386, 321.1080
226.2208, 323.4224
226.7029, 325.8170
227.1850, 328.3261
227.6671, 331.0587
228.1492, 334.2036
228.6313, 337.3016
229.1135, 340.0103
229.5956, 342.0521
230.0777, 344.3902
230.5598, 347.2065
231.0419, 350.4025
231.5240, 353.6625
232.0062, 357.5480
232.4883, 360.7479
232.9704, 362.5411
233.4525, 362.9880
233.9346, 361.9217
234.4167, 359.2731
234.8989, 355.0987
235.3810, 349.5533
235.8631, 341.8820
236.3452, 333.7251
236.8273, 325.8525
237.3095, 318.1294
237.7916, 310.9588
238.2737, 304.0816
238.7558, 297.7238
239.2379, 292.7714
239.7200, 289.6717
240.2022, 287.3619
240.6843, 285.2544
241.1664, 283.2247
241.6485, 281.7162
242.1306, 281.0698
242.6127, 280.9557
243.0949, 280.0544
243.5770, 277.7379
244.0591, 275.5111
244.5412, 274.2220
245.0233, 274.3862
245.5054, 274.2776
245.9876, 273.4821
246.4697, 272.4305
246.9518, 272.5620
247.4339, 274.5287
247.9160, 276.7108
248.3981, 278.2811
248.8803, 278.8822
249.3624, 279.7301
249.8445, 280.8110
250.3266, 282.1554
250.8087, 283.8405
251.2909, 285.7653
251.7730, 288.1583
252.2551, 291.1979
252.7372, 295.3207
253.2193, 299.0020
253.7014, 302.0781
254.1836, 304.7540
254.6657, 307.4605
255.1478, 310.2471
255.6299, 312.9865
256.1120, 315.6310
256.5941, 318.0851
257.0763, 320.7157
257.5584, 323.6212
258.0405, 326.6757
258.5226, 329.5589
259.0047, 332.1853
259.4868, 334.8711
259.9690, 337.7183
260.4511, 340.7443
260.9332, 343.8690
261.4153, 347.1964
261.8974, 350.5699
262.3795, 353.6243
262.8617, 356.2091
263.3438, 358.9015
263.8259, 362.0056
264.3080, 365.6068
264.7901, 368.8275
265.2722, 371.4432
265.7544, 373.9380
266.2365, 377.0460
266.7186, 380.9919
267.2007, 384.8262
267.6829, 388.1746
268.1650, 391.0468
268.6471, 394.0589
269.1292, 397.4146
269.6113, 400.6806
270.0934, 403.2137
270.5756, 404.8118
271.0577, 406.6133
271.5398, 409.3275
272.0219, 412.8993
272.5040, 414.3770
272.9861, 413.4017
273.4683, 411.1021
273.9504, 408.7086
274.4325, 406.4048
274.9146, 402.9767
275.3967, 397.9348
275.8788, 391.4286
276.3610, 385.0845
276.8431, 379.1300
277.3252, 372.8414
277.8073, 365.3575
278.2894, 356.5557
278.7715, 348.0102
279.2537, 339.8984
279.7358, 332.2597
280.2179, 325.2234
280.7000, 318.8688
281.1821, 312.6686
281.6642, 305.8128
282.1464, 298.2908
282.6285, 291.9081
283.1106, 287.1438
283.5927, 283.5410
284.0748, 279.9500
284.5569, 276.3468
285.0391, 272.8228
285.5212, 269.2481
286.0033, 265.6683
286.4854, 262.7189
286.9675, 260.5901
287.4496, 258.9494
287.9318, 257.0872
288.4139, 254.9821
288.8960, 253.1183
289.3781, 252.0579
289.8602, 251.5628
290.3424, 250.2953
290.8245, 247.9657
291.3066, 245.2896
291.7887, 243.4091
292.2708, 242.2609
292.7530, 241.3269
293.2351, 240.4124
293.7172, 239.5028
294.1993, 238.4835
294.6814, 237.2748
295.1635, 236.2810
295.6457, 236.3312
296.1278, 237.1597
296.6099, 237.6344
297.0920, 236.9175
297.5741, 235.5517
298.0562, 234.6138
298.5384, 234.1473
299.0205, 233.8268
299.5026, 233.2265
299.9847, 232.5106
300.4668, 232.1017
300.9489, 232.3604
301.4311, 232.9304
301.9132, 233.3833
302.3953, 233.7227
302.8774, 233.8981
303.3595, 233.7824
303.8416, 233.4917
304.3238, 233.2159
304.8059, 232.9609
305.2880, 232.8085
305.7701, 232.9980
306.2522, 233.4532
306.7343, 233.7003
307.2165, 233.0854
307.6986, 232.1952
308.1807, 231.7981
308.6628, 232.2844
309.1449, 232.9676
309.6270, 233.3275
310.1092, 233.4473
310.5913, 233.5863
311.0734, 233.8843
311.5555, 234.2631
312.0376, 234.6670
312.5197, 235.1120
313.0019, 235.5066
313.4840, 235.7412
313.9661, 235.8948
314.4482, 236.1305
314.9304, 236.6626
315.4125, 237.1990
315.8946, 237.5467
316.3767, 237.6602
316.8588, 237.7207
317.3409, 237.7224
317.8231, 237.7401
318.3052, 237.8712
318.7873, 238.5533
319.2694, 239.0019
319.7515, 238.6465
320.2336, 237.3746
320.7158, 236.6148
321.1979, 237.1973
321.6800, 238.2782
322.1621, 239.0953
322.6442, 239.6675
323.1263, 239.7844
323.6085, 239.0258
324.0906, 237.4872
324.5727, 236.6059
325.0548, 237.1896
325.5369, 238.1157
326.0190, 238.7068
326.5012, 238.5053
326.9833, 238.4456
327.4654, 238.7066
327.9475, 239.1944
328.4296, 239.5222
328.9117, 239.5954
329.3939, 239.5914
329.8760, 239.5835
330.3581, 239.6181
330.8402, 239.5525
331.3223, 239.3421
331.8044, 239.0372
332.2866, 238.7202
332.7687, 238.2504
333.2508, 237.9738
333.7329, 238.0845
334.2150, 238.7408
334.6971, 238.9715
335.1793, 238.5731
335.6614, 237.9487
336.1435, 237.6560
336.6256, 237.8535
337.1077, 237.9711
337.5899, 237.8616
338.0720, 237.5390
338.5541, 237.1782
339.0362, 236.7090
339.5183, 236.3687
340.0005, 236.4748
340.4826, 237.1239
340.9647, 237.5546
341.4468, 237.5877
341.9289, 237.3438
342.4110, 237.2112
342.8932, 237.2033
343.3753, 237.2101
343.8574, 237.2189
344.3395, 237.2117
344.8216, 236.8813
345.3037, 236.0577
345.7859, 235.1651
346.2680, 234.9438
346.7501, 235.3679
347.2322, 236.0864
347.7143, 237.2185
348.1964, 238.5212
348.6786, 239.2306
349.1607, 239.3070
349.6428, 238.8931
350.1249, 237.8224
350.6070, 236.3400
351.0891, 235.2003
351.5713, 234.9890
352.0534, 235.1809
352.5355, 234.9292
353.0176, 234.2574
353.4997, 233.6565
353.9818, 233.5650
354.4640, 233.7857
354.9461, 234.0618
355.4282, 234.5674
355.9103, 234.7799
356.3924, 233.9222
356.8745, 232.2641
357.3567, 230.8929
357.8388, 230.4985
358.3209, 230.6030
358.8030, 230.8457
359.2851, 231.2374
359.7672, 231.5493
360.2494, 231.6834
360.7315, 231.6504
361.2136, 231.4702
361.6957, 230.7633
362.1779, 230.2235
362.6600, 230.2316
363.1421, 230.8625
363.6242, 231.6769
364.1063, 232.7563
364.5884, 233.8703
365.0706, 234.7736
365.5527, 235.5244
366.0348, 235.9447
366.5169, 235.7808
366.9990, 235.0837
367.4811, 234.7099
367.9633, 234.7047
368.4454, 235.0677
368.9275, 235.8140
369.4096, 237.4622
369.8917, 238.7602
370.3738, 239.4734
370.8560, 239.8333
371.3381, 240.4959
371.8202, 241.7953
372.3023, 242.9487
372.7844, 243.5173
373.2665, 243.1661
373.7487, 243.6534
374.2308, 245.3706
374.7129, 247.5339
375.1950, 249.0398
375.6771, 249.6289
376.1592, 250.4258
376.6414, 251.8795
377.1235, 253.8748
377.6056, 255.1108
378.0877, 255.3240
378.5698, 255.6800
379.0519, 257.4793
379.5341, 260.7192
380.0162, 263.4075
380.4983, 264.9283
380.9804, 266.0321
381.4625, 268.5645
381.9446, 272.5241
382.4268, 276.3987
382.9089, 279.0434
383.3910, 280.8546
383.8731, 283.2766
384.3553, 286.4773
384.8374, 289.9445
385.3195, 293.2538
385.8016, 296.3546
386.2837, 299.1591
386.7658, 301.0593
387.2480, 302.8788
387.7301, 305.7753
388.2122, 309.7141
388.6943, 314.0428
389.1764, 318.0986
389.6585, 322.2908
390.1407, 327.0881
390.6228, 332.8392
391.1049, 338.9087
391.5870, 344.8886
392.0691, 350.8122
392.5512, 356.7807
393.0334, 362.8856
393.5155, 369.0191
393.9976, 375.0938
394.4797, 381.0580
394.9618, 387.1023
395.4439, 392.9460
395.9261, 398.9999
396.4082, 405.7814
396.8903, 413.9767
397.3724, 422.4345
397.8545, 431.0599
398.3366, 439.8615
398.8188, 448.3179
399.3009, 456.2206
399.7830, 463.8825
400.2651, 471.4671
400.7472, 478.6439
401.2293, 486.2616
401.7115, 494.5205
402.1936, 503.2657
402.6757, 512.0258
403.1578, 520.7148
403.6399, 529.6063
404.1220, 538.9066
404.6042, 548.8987
405.0863, 557.9161
405.5684, 565.7653
406.0505, 572.7925
406.5326, 579.4564
407.0147, 585.8428
407.4969, 591.3585
407.9790, 595.8076
408.4611, 599.3242
408.9432, 602.6386
409.4254, 605.8146
409.9075, 607.9453
410.3896, 608.4060
410.8717, 607.2529
411.3538, 604.6839
411.8359, 600.7152
412.3181, 595.4523
412.8002, 589.0587
413.2823, 581.5784
413.7644, 572.7174
414.2465, 561.4918
414.7286, 549.2003
415.2108, 537.3721
415.6929, 526.1928
416.1750, 514.9508
416.6571, 502.7491
417.1392, 490.3581
417.6213, 478.4097
418.1035, 467.6622
418.5856, 457.0011
419.0677, 445.5933
419.5498, 433.6820
420.0319, 422.6281
420.5140, 413.0280
420.9962, 404.2766
421.4783, 396.0826
421.9604, 388.6536
422.4425, 381.1588
422.9246, 372.6049
423.4067, 364.1935
423.8889, 357.4633
424.3710, 354.3242
424.8531, 351.1429
425.3352, 347.1026
425.8173, 342.1993
426.2994, 337.6895
426.7816, 333.5762
427.2637, 329.8937
427.7458, 326.6544
428.2279, 323.7487
428.7100, 321.5337
429.1921, 320.3215
429.6743, 319.6421
430.1564, 318.4155
430.6385, 316.5231
431.1206, 314.5344
431.6028, 312.5556
432.0849, 310.5928
432.5670, 309.2060
433.0491, 308.4245
433.5312, 308.0927
434.0133, 308.1593
434.4955, 308.5764
434.9776, 309.0229
435.4597, 309.4378
435.9418, 309.8219
436.4239, 310.0791
436.9060, 310.2495
437.3882, 310.5994
437.8703, 311.4520
438.3524, 312.5302
438.8345, 313.3594
439.3166, 313.8288
439.7987, 314.4479
440.2809, 315.7441
440.7630, 317.4349
441.2451, 319.0674
441.7272, 320.5632
442.2093, 321.8607
442.6914, 322.6620
443.1736, 323.0978
443.6557, 324.0203
444.1378, 326.1689
444.6199, 328.6229
445.1020, 330.7747
445.5841, 332.2866
446.0663, 333.9834
446.5484, 336.2443
447.0305, 338.7056
447.5126, 340.7564
447.9947, 341.7910
448.4768, 343.1159
448.9590, 345.1173
449.4411, 347.8027
449.9232, 350.2871
450.4053, 352.4775
450.8874, 354.6267
451.3695, 356.9113
451.8517, 359.3890
452.3338, 361.8471
452.8159, 364.3980
453.2980, 366.7267
453.7801, 368.0101
454.2622, 368.1576
454.7444, 368.4193
455.2265, 369.4307
455.7086, 371.0282
456.1907, 372.6432
456.6729, 374.3329
457.1550, 375.5482
457.6371, 375.6601
458.1192, 374.9395
458.6013, 374.0113
459.0834, 372.9724
459.5656, 371.8952
460.0477, 370.9183
460.5298, 369.9779
461.0119, 368.9400
461.4940, 367.8373
461.9761, 366.5146
462.4583, 364.8368
462.9404, 362.7705
463.4225, 360.4799
463.9046, 357.7711
464.3867, 354.9814
464.8688, 352.4952
465.3510, 350.5197
465.8331, 348.6916
466.3152, 347.0156
466.7973, 345.4578
467.2794, 343.8997
467.7615, 341.9825
468.2437, 340.3879
468.7258, 339.3532
469.2079, 338.9538
469.6900, 338.8423
470.1721, 339.2173
470.6542, 339.6605
471.1364, 339.6711
471.6185, 339.0901
472.1006, 338.6688
472.5827, 338.4429
473.0648, 338.5193
473.5469, 339.3329
474.0291, 340.9310
474.5112, 342.7222
474.9933, 344.5696
475.4754, 346.3700
475.9575, 347.5591
476.4396, 348.0585
476.9218, 348.4146
477.4039, 349.3993
477.8860, 350.6807
478.3681, 351.4135
478.8503, 350.8780
479.3324, 350.2379
479.8145, 350.8679
480.2966, 352.4409
480.7787, 353.7273
481.2608, 353.7586
481.7430, 353.5262
482.2251, 353.7181
482.7072, 354.4630
483.1893, 355.3283
483.6714, 356.4730
484.1535, 357.5311
484.6357, 358.1386
485.1178, 357.7666
485.5999, 357.4979
486.0820, 357.5457
486.5641, 357.8376
487.0462, 358.0702
487.5284, 357.9118
488.0105, 358.1590
488.4926, 359.2710
488.9747, 361.4471
489.4568, 363.1382
489.9389, 364.2085
490.4211, 365.0148
490.9032, 365.8776
491.3853, 366.7942
491.8674, 367.7819
492.3495, 368.6931
492.8316, 369.8426
493.3138, 372.1519
493.7959, 375.5292
494.2780, 378.8887
494.7601, 381.0667
495.2422, 382.9110
495.7243, 386.2374
496.2065, 391.2234
496.6886, 396.2435
497.1707, 399.8067
497.6528, 402.7573
498.1349, 406.2455
498.6170, 410.6818
499.0992, 415.6496
499.5813, 421.1952
500.0634, 427.1411
500.5455, 433.1064
501.0276, 438.7419
501.5097, 444.5464
501.9919, 450.8996
502.4740, 457.9087
502.9561, 464.6027
503.4382, 470.5374
503.9203, 476.4775
504.4025, 482.9788
504.8846, 490.0339
505.3667, 497.4792
505.8488, 505.1997
506.3309, 513.3203
506.8130, 522.2880
507.2952, 532.3016
507.7773, 542.1491
508.2594, 551.2896
508.7415, 559.7773
509.2236, 568.2893
509.7057, 576.8106
510.1879, 585.5255
510.6700, 595.0139
511.1521, 604.8975
511.6342, 614.2380
512.1163, 622.8264
512.5984, 630.7540
513.0806, 637.6251
513.5627, 643.8903
514.0448, 650.4920
514.5269, 658.5547
515.0090, 666.5020
515.4911, 673.2792
515.9733, 678.9865
516.4554, 684.1962
516.9375, 689.2577
517.4196, 693.8490
517.9017, 697.8250
518.3839, 701.2927
518.8660, 703.8310
519.3481, 705.2892
519.8302, 705.8118
520.3123, 705.5045
520.7944, 704.3541
521.2766, 702.4371
521.7587, 699.8459
522.2408, 696.5125
522.7229, 692.1351
523.2050, 686.8334
523.6871, 680.1044
524.1693, 671.5125
524.6514, 661.2620
525.1335, 649.8451
525.6156, 637.1510
526.0977, 623.7343
526.5798, 609.8916
527.0620, 595.5706
527.5441, 580.7677
528.0262, 565.3015
528.5083, 549.7375
528.9904, 534.8463
529.4725, 520.4848
529.9547, 506.4149
530.4368, 492.6847
530.9189, 479.1909
531.4010, 466.0337
531.8831, 453.0497
532.3652, 440.5166
532.8474, 428.2695
533.3295, 416.4420
533.8116, 404.9116
534.2937, 393.2841
534.7758, 382.8576
535.2579, 374.2686
535.7401, 366.6091
536.2222, 358.7939
536.7043, 350.2944
537.1865, 342.6159
537.6686, 336.1963
538.1507, 330.8049
538.6328, 325.8375
539.1149, 321.3566
539.5970, 316.6300
540.0792, 310.8919
540.5613, 304.4332
541.0434, 299.0716
541.5255, 294.9309
542.0076, 291.2935
542.4897, 287.3487
542.9719, 283.3663
543.4540, 279.8845
543.9361, 277.2992
544.4182, 274.8885
544.9003, 272.1164
545.3824, 269.1219
545.8646, 266.2164
546.3467, 263.6367
546.8288, 261.0699
547.3109, 258.3286
547.7930, 255.4236
548.2751, 252.6959
548.7573, 250.1742
549.2394, 247.8693
549.7215, 245.8067
550.2036, 244.1130
550.6857, 242.3938
551.1678, 240.6767
551.6500, 238.9051
552.1321, 237.0047
552.6142, 234.9469
553.0963, 232.8883
553.5784, 230.8129
554.0605, 228.8081
554.5427, 227.1657
555.0248, 225.8686
555.5069, 224.5930
555.9890, 223.1043
556.4711, 221.5341
556.9532, 220.1084
557.4354, 218.8352
557.9175, 217.6918
558.3996, 216.9452
558.8817, 216.2023
559.3638, 214.9918
559.8459, 213.0017
560.3281, 210.9682
560.8102, 208.8708
561.2923, 207.0008
561.7744, 205.8352
562.2565, 206.3741
562.7386, 206.6211
563.2208, 206.1050
563.7029, 204.9243
564.1850, 203.6745
564.6671, 202.2484
565.1492, 200.9694
565.6313, 200.0238
566.1135, 199.4425
566.5956, 198.8766
567.0777, 198.3203
567.5598, 197.8114
568.0419, 197.4377
568.5240, 197.1615
569.0062, 196.7712
569.4883, 196.2233
569.9704, 195.5585
570.4525, 194.6544
570.9346, 193.6619
571.4167, 193.0087
571.8989, 193.1988
572.3810, 193.5237
572.8631, 193.5346
573.3452, 193.2467
573.8273, 192.8229
574.3094, 192.0730
574.7916, 191.4038
575.2737, 191.0643
575.7558, 191.1972
576.2379, 191.2860
576.7200, 191.3451
577.2021, 191.3327
577.6843, 191.1568
578.1664, 190.6541
578.6485, 190.4857
579.1306, 190.7631
579.6127, 191.3565
580.0948, 192.1641
580.5770, 193.1839
581.0591, 193.8477
581.5412, 193.7335
582.0233, 193.2181
582.5054, 193.1832
582.9875, 193.5667
583.4697, 193.8941
583.9518, 193.5390
584.4340, 193.1211
