##NAMES=Spangolite
##RRUFFID=R080023
##IDEAL CHEMISTRY=Cu^2+^_6_AlS^6+^O_4_(OH)_12_Cl&#183;3H_2_O
##LOCALITY=Mex-Tex mine, Hansonberg Mining District, Bingham, Socorro County, New Mexico, USA
##OWNER=RRUFF
##SOURCE=William W. Pinch
##DESCRIPTION=Deep bluish green doubly terminated and pyramidal crystals associated with quartz
##STATUS=The identification of this mineral has been confirmed by single-crystal X-ray diffraction.
##URL=rruff.info/R080023
93.40625, 65.34505
93.88837, 62.57806
94.37048, 64.94582
94.85260, 71.16011
95.33472, 77.46634
95.81683, 82.83652
96.29895, 87.97341
96.78107, 94.29634
97.26318, 101.8166
97.74530, 110.6799
98.22742, 121.6289
98.70953, 134.6589
99.19165, 146.9155
99.67377, 156.9110
100.1559, 164.9792
100.6380, 175.5602
101.1201, 189.7301
101.6022, 204.1036
102.0844, 213.1046
102.5665, 215.2760
103.0486, 217.3365
103.5307, 221.9536
104.0128, 230.1344
104.4949, 236.6422
104.9771, 241.0706
105.4592, 244.1031
105.9413, 247.1563
106.4234, 249.0960
106.9055, 252.5546
107.3876, 258.6842
107.8698, 268.8267
108.3519, 279.7156
108.8340, 291.7200
109.3161, 304.6904
109.7982, 317.1332
110.2803, 329.0332
110.7624, 340.5313
111.2446, 351.6946
111.7267, 361.5795
112.2088, 372.3076
112.6909, 384.8418
113.1730, 399.1523
113.6551, 412.1970
114.1373, 422.5653
114.6194, 431.9099
115.1015, 441.6912
115.5836, 453.8320
116.0657, 464.9563
116.5478, 473.7603
117.0300, 480.2388
117.5121, 485.4650
117.9942, 489.6067
118.4763, 492.7780
118.9584, 495.1168
119.4405, 495.9934
119.9227, 496.5453
120.4048, 496.8594
120.8869, 496.3970
121.3690, 498.1186
121.8511, 505.7816
122.3332, 517.0557
122.8154, 527.0364
123.2975, 531.3210
123.7796, 533.8328
124.2617, 538.5778
124.7438, 546.3103
125.2259, 556.0624
125.7081, 568.5323
126.1902, 582.5899
126.6723, 591.9679
127.1544, 593.9124
127.6365, 592.7870
128.1186, 592.5069
128.6008, 594.0883
129.0829, 596.6078
129.5650, 599.0710
130.0471, 601.4586
130.5292, 603.2700
131.0113, 604.3738
131.4935, 604.6636
131.9756, 603.4275
132.4577, 599.4753
132.9398, 594.2354
133.4219, 592.0719
133.9040, 593.1405
134.3862, 595.5579
134.8683, 598.3111
135.3504, 601.3888
135.8325, 602.0120
136.3146, 598.0311
136.7967, 590.1517
137.2789, 585.8406
137.7610, 585.8843
138.2431, 587.4461
138.7252, 586.4667
139.2073, 582.3787
139.6894, 578.5574
140.1716, 576.9456
140.6537, 578.2944
141.1358, 575.7977
141.6179, 568.4910
142.1000, 558.3256
142.5821, 549.0620
143.0643, 541.0249
143.5464, 533.0159
144.0285, 524.2737
144.5106, 514.1234
144.9927, 505.0877
145.4748, 497.1503
145.9570, 490.3706
146.4391, 485.4610
146.9212, 483.6589
147.4033, 482.1548
147.8854, 479.4571
148.3675, 473.1347
148.8497, 469.4384
149.3318, 469.0513
149.8139, 471.5621
150.2960, 475.1674
150.7781, 481.2908
151.2602, 487.4380
151.7424, 492.2050
152.2245, 493.5677
152.7066, 495.8691
153.1887, 500.2258
153.6708, 506.3287
154.1529, 510.8066
154.6351, 512.2269
155.1172, 512.7102
155.5993, 513.6811
156.0814, 514.6205
156.5635, 516.7544
157.0456, 520.3047
157.5278, 525.2460
158.0099, 531.4635
158.4920, 540.2090
158.9741, 549.7106
159.4562, 558.4255
159.9383, 564.1277
160.4205, 570.6944
160.9026, 579.9581
161.3847, 592.1681
161.8668, 604.0277
162.3489, 613.4733
162.8310, 622.2375
163.3132, 632.3364
163.7953, 643.3835
164.2774, 656.7419
164.7595, 674.0282
165.2416, 696.0143
165.7237, 717.4991
166.2059, 737.6143
166.6880, 755.5297
167.1701, 769.9800
167.6522, 782.8799
168.1343, 790.5913
168.6164, 790.3596
169.0986, 781.5240
169.5807, 766.3500
170.0628, 746.1598
170.5449, 720.8127
171.0270, 690.1038
171.5091, 647.7757
171.9913, 603.0680
172.4734, 565.3151
172.9555, 536.7051
173.4376, 511.4535
173.9197, 484.3318
174.4018, 456.4185
174.8840, 430.9157
175.3661, 409.1951
175.8482, 391.3036
176.3303, 378.2275
176.8124, 371.3315
177.2945, 366.1552
177.7767, 357.4057
178.2588, 345.9007
178.7409, 335.4164
179.2230, 329.2181
179.7051, 325.4346
180.1872, 320.5308
180.6694, 313.3965
181.1515, 305.7610
181.6336, 300.0451
182.1157, 296.0961
182.5978, 292.8548
183.0799, 289.8511
183.5621, 286.9727
184.0442, 284.0226
184.5263, 281.0408
185.0084, 277.8243
185.4905, 273.5261
185.9726, 268.2240
186.4547, 263.4193
186.9369, 260.7594
187.4190, 259.7127
187.9011, 258.1053
188.3832, 255.2221
188.8653, 251.7488
189.3474, 249.4938
189.8296, 248.4963
190.3117, 247.1683
190.7938, 243.3221
191.2759, 237.4391
191.7580, 233.4453
192.2401, 232.6940
192.7223, 234.1059
193.2044, 234.7675
193.6865, 234.7011
194.1686, 233.7506
194.6507, 230.9482
195.1328, 226.4375
195.6150, 223.7293
196.0971, 224.2693
196.5792, 227.1014
197.0613, 228.3059
197.5434, 227.5991
198.0255, 226.6041
198.5077, 227.1367
198.9898, 229.2765
199.4719, 230.8165
199.9540, 230.8276
200.4361, 229.7812
200.9182, 230.7569
201.4004, 234.4185
201.8825, 238.0674
202.3646, 238.5028
202.8467, 235.2680
203.3288, 232.7093
203.8109, 232.1587
204.2931, 233.3085
204.7752, 233.4462
205.2573, 232.3395
205.7394, 230.7830
206.2215, 229.7005
206.7036, 229.2843
207.1858, 228.3608
207.6679, 226.4928
208.1500, 223.7578
208.6321, 221.2150
209.1142, 218.6287
209.5963, 216.6695
210.0785, 216.2214
210.5606, 217.6274
211.0427, 219.3515
211.5248, 221.4556
212.0069, 223.8933
212.4890, 224.1166
212.9712, 221.1454
213.4533, 217.4674
213.9354, 215.8871
214.4175, 216.8559
214.8996, 218.5803
215.3817, 221.0872
215.8639, 224.3625
216.3460, 225.9658
216.8281, 225.2547
217.3102, 223.7202
217.7923, 223.0307
218.2744, 223.4663
218.7566, 224.0260
219.2387, 224.5868
219.7208, 225.1671
220.2029, 225.1315
220.6850, 224.0533
221.1671, 222.8649
221.6493, 222.6715
222.1314, 223.8761
222.6135, 225.1451
223.0956, 226.1031
223.5777, 226.7365
224.0598, 227.7609
224.5420, 229.3649
225.0241, 231.1613
225.5062, 232.6463
225.9883, 233.2780
226.4704, 234.7479
226.9525, 237.5775
227.4347, 241.8673
227.9168, 245.8880
228.3989, 249.4701
228.8810, 252.9626
229.3631, 256.7027
229.8452, 260.9693
230.3274, 264.9417
230.8095, 267.9083
231.2916, 269.7412
231.7737, 274.5208
232.2558, 284.3958
232.7379, 294.9929
233.2201, 301.9612
233.7022, 304.9634
234.1843, 304.9568
234.6664, 301.5703
235.1485, 294.8027
235.6306, 287.4529
236.1128, 278.9449
236.5949, 270.3454
237.0770, 262.7189
237.5591, 256.7838
238.0412, 250.4570
238.5233, 243.3906
239.0055, 235.5522
239.4876, 227.2096
239.9697, 216.8131
240.4518, 207.5015
240.9339, 202.2737
241.4160, 202.9856
241.8982, 204.1668
242.3803, 205.1596
242.8624, 205.9582
243.3445, 206.3445
243.8266, 206.5609
244.3087, 206.1019
244.7909, 204.3326
245.2730, 200.0972
245.7551, 196.8611
246.2372, 195.1722
246.7193, 194.9651
247.2014, 195.4581
247.6836, 196.9970
248.1657, 198.8079
248.6478, 200.2645
249.1299, 201.1411
249.6120, 202.1192
250.0941, 202.9658
250.5762, 203.8547
251.0584, 206.3930
251.5405, 211.5199
252.0226, 217.0118
252.5047, 221.3435
252.9868, 224.4589
253.4689, 226.6083
253.9511, 227.6276
254.4332, 227.6702
254.9153, 227.4555
255.3974, 226.5672
255.8795, 226.0702
256.3617, 226.8708
256.8438, 229.9048
257.3259, 231.8119
257.8080, 232.2602
258.2901, 231.4013
258.7722, 229.6153
259.2544, 226.1641
259.7365, 223.0122
260.2186, 221.0583
260.7007, 220.2042
261.1828, 221.1298
261.6649, 225.0052
262.1471, 230.3105
262.6292, 232.0644
263.1113, 228.2847
263.5934, 224.9419
264.0755, 225.2307
264.5576, 230.1363
265.0398, 235.2459
265.5219, 240.7257
266.0040, 246.2055
266.4861, 250.7760
266.9682, 253.8840
267.4503, 257.3940
267.9325, 262.4083
268.4146, 269.6437
268.8967, 275.3277
269.3788, 279.0814
269.8609, 281.6748
270.3430, 284.3732
270.8252, 287.1491
271.3073, 290.1230
271.7894, 293.6115
272.2715, 297.8059
272.7536, 300.5614
273.2357, 301.8253
273.7179, 301.6771
274.2000, 299.7704
274.6821, 295.6130
275.1642, 291.9693
275.6463, 290.4665
276.1284, 291.1133
276.6106, 288.8009
277.0927, 282.9413
277.5748, 275.4023
278.0569, 268.3729
278.5390, 261.9265
279.0211, 255.6293
279.5032, 249.5009
279.9854, 243.5326
280.4675, 237.0026
280.9496, 229.7574
281.4317, 222.4720
281.9138, 215.8444
282.3959, 209.8871
282.8781, 204.2616
283.3602, 198.8673
283.8423, 193.7189
284.3244, 188.9133
284.8065, 184.3750
285.2886, 180.4713
285.7708, 177.8943
286.2529, 176.5562
286.7350, 174.7804
287.2171, 172.1016
287.6992, 168.8278
288.1813, 165.6450
288.6635, 162.5076
289.1456, 159.9626
289.6277, 158.8455
290.1098, 158.8980
290.5919, 158.3225
291.0740, 156.5878
291.5562, 154.4487
292.0383, 153.6684
292.5204, 154.1662
293.0025, 154.3863
293.4846, 152.7572
293.9667, 149.9335
294.4489, 148.4160
294.9310, 148.8524
295.4131, 149.7894
295.8952, 148.6612
296.3773, 145.8441
296.8594, 143.7151
297.3416, 144.8061
297.8237, 147.4268
298.3058, 147.2402
298.7879, 143.5194
299.2700, 139.1493
299.7521, 137.3831
300.2343, 137.7745
300.7164, 139.0026
301.1985, 141.3925
301.6806, 143.9193
302.1627, 144.6857
302.6448, 143.5467
303.1270, 142.0196
303.6091, 141.0732
304.0912, 140.7752
304.5733, 141.2246
305.0554, 144.0273
305.5375, 146.7497
306.0197, 145.8070
306.5018, 141.4241
306.9839, 137.4685
307.4660, 136.8708
307.9481, 138.5173
308.4302, 140.8993
308.9124, 144.3517
309.3945, 147.5866
309.8766, 149.6815
310.3587, 150.6943
310.8408, 150.8135
311.3229, 149.2035
311.8051, 147.1731
312.2872, 146.1315
312.7693, 146.7727
313.2514, 147.8220
313.7335, 148.7955
314.2156, 149.6285
314.6978, 150.1490
315.1799, 149.1859
315.6620, 148.5603
316.1441, 149.9054
316.6262, 154.3831
317.1083, 158.3803
317.5905, 160.3830
318.0726, 160.8681
318.5547, 160.6852
319.0368, 159.2973
319.5189, 157.9571
320.0010, 157.2671
320.4832, 157.3232
320.9653, 157.7820
321.4474, 158.7479
321.9295, 159.9994
322.4116, 161.2772
322.8937, 162.4317
323.3759, 163.6983
323.8580, 165.3987
324.3401, 167.5762
324.8222, 169.0191
325.3043, 168.9994
325.7864, 168.4793
326.2686, 168.2005
326.7507, 168.1221
327.2328, 168.4109
327.7149, 169.3693
328.1970, 170.8912
328.6791, 171.9129
329.1613, 171.5225
329.6434, 171.3243
330.1255, 172.1734
330.6076, 175.6772
331.0897, 177.8993
331.5718, 178.4626
332.0540, 177.7029
332.5361, 176.5051
333.0182, 174.1922
333.5003, 172.3146
333.9824, 171.5787
334.4645, 172.3778
334.9467, 173.1281
335.4288, 173.9105
335.9109, 174.5830
336.3930, 174.9812
336.8751, 175.3149
337.3572, 174.8365
337.8394, 172.7978
338.3215, 169.0595
338.8036, 167.6747
339.2857, 169.5480
339.7678, 172.2017
340.2499, 172.7247
340.7321, 170.6709
341.2142, 169.0958
341.6963, 168.7278
342.1784, 169.3698
342.6605, 170.0359
343.1426, 170.6094
343.6248, 171.7252
344.1069, 174.4505
344.5890, 178.6366
345.0711, 181.6772
345.5532, 183.2620
346.0353, 183.3560
346.5175, 180.9129
346.9996, 175.9648
347.4817, 171.9828
347.9638, 171.9344
348.4459, 174.7000
348.9280, 176.2624
349.4102, 176.2749
349.8923, 175.2918
350.3744, 173.2396
350.8565, 170.5586
351.3386, 168.9334
351.8207, 170.6411
352.3029, 173.4314
352.7850, 173.1502
353.2671, 169.7093
353.7492, 165.9650
354.2313, 163.9855
354.7134, 163.4607
355.1956, 163.8971
355.6777, 165.8031
356.1598, 167.9633
356.6419, 169.5705
357.1240, 170.5700
357.6061, 170.6581
358.0883, 168.2627
358.5704, 165.5137
359.0525, 164.6997
359.5346, 167.0784
360.0167, 169.9084
360.4988, 172.4607
360.9810, 174.3003
361.4631, 174.4277
361.9452, 169.9069
362.4273, 165.4440
362.9094, 164.0665
363.3915, 166.8143
363.8737, 169.3029
364.3558, 169.5734
364.8379, 168.9717
365.3200, 169.0683
365.8021, 171.5479
366.2842, 173.4594
366.7664, 173.3269
367.2485, 171.1040
367.7306, 170.3083
368.2127, 172.4264
368.6948, 175.4326
369.1769, 178.0029
369.6591, 180.5048
370.1412, 182.0472
370.6233, 181.8956
371.1054, 180.6498
371.5875, 180.5780
372.0696, 181.9622
372.5518, 184.1802
373.0339, 187.1732
373.5160, 191.5300
373.9981, 194.8957
374.4802, 196.6755
374.9623, 197.9776
375.4445, 200.8819
375.9266, 206.4439
376.4087, 210.6631
376.8908, 211.7032
377.3729, 209.7361
377.8550, 210.2465
378.3372, 213.8243
378.8193, 218.2961
379.3014, 221.4286
379.7835, 223.1799
380.2656, 225.0651
380.7477, 227.2058
381.2299, 229.7943
381.7120, 233.8669
382.1941, 239.4294
382.6762, 244.4947
383.1583, 246.4608
383.6404, 246.5463
384.1226, 250.0125
384.6047, 258.0265
385.0868, 267.0204
385.5689, 272.0544
386.0510, 274.0897
386.5331, 276.8052
387.0153, 281.8445
387.4974, 288.6693
387.9795, 297.5708
388.4616, 308.5205
388.9437, 318.0665
389.4258, 321.2696
389.9080, 321.9804
390.3901, 325.8217
390.8722, 336.7820
391.3543, 348.7195
391.8364, 356.5251
392.3185, 361.2761
392.8007, 367.2278
393.2828, 376.7666
393.7649, 388.0255
394.2470, 399.8856
394.7291, 412.6168
395.2112, 424.6567
395.6934, 434.6542
396.1755, 443.7775
396.6576, 453.7769
397.1397, 466.6262
397.6218, 478.9300
398.1039, 489.1488
398.5861, 496.9708
399.0682, 505.7611
399.5503, 514.2067
400.0324, 524.7880
400.5145, 539.3216
400.9966, 563.1004
401.4788, 583.4714
401.9609, 598.0000
402.4430, 608.3549
402.9251, 621.0665
403.4072, 637.2822
403.8893, 654.1909
404.3714, 670.4117
404.8535, 685.8519
405.3357, 701.6528
405.8178, 718.3854
406.2999, 734.4797
406.7820, 747.5388
407.2641, 757.3467
407.7462, 765.2186
408.2284, 770.8015
408.7105, 774.7004
409.1926, 781.4606
409.6747, 791.6712
410.1568, 800.4340
410.6389, 804.1691
411.1211, 802.9736
411.6032, 797.0826
412.0853, 785.6412
412.5674, 771.2418
413.0495, 757.0684
413.5316, 742.9310
414.0138, 728.2906
414.4959, 712.8154
414.9780, 696.4489
415.4601, 679.1921
415.9422, 660.8561
416.4243, 642.1256
416.9065, 623.1513
417.3886, 604.1111
417.8707, 585.6661
418.3528, 567.9656
418.8349, 550.7789
419.3170, 533.8744
419.7992, 517.0884
420.2813, 500.6010
420.7634, 482.4161
421.2455, 465.5370
421.7276, 452.3589
422.2097, 444.7630
422.6919, 436.9074
423.1740, 425.8698
423.6561, 413.9809
424.1382, 404.5459
424.6203, 401.4471
425.1024, 397.7184
425.5846, 391.2968
426.0667, 382.0234
426.5488, 373.1985
427.0309, 363.6998
427.5130, 355.5424
427.9951, 350.1922
428.4773, 348.5687
428.9594, 347.8155
429.4415, 347.9890
429.9236, 348.7972
430.4057, 349.5643
430.8878, 350.3350
431.3700, 350.9095
431.8521, 350.9103
432.3342, 350.3397
432.8163, 351.2176
433.2984, 353.8576
433.7805, 356.8666
434.2627, 358.9237
434.7448, 360.0276
435.2269, 359.8228
435.7090, 357.0938
436.1911, 354.1740
436.6732, 356.7760
437.1554, 364.2628
437.6375, 371.4496
438.1196, 373.8295
438.6017, 373.9540
439.0838, 376.1316
439.5659, 381.1219
440.0481, 386.7515
440.5302, 392.3027
441.0123, 397.1209
441.4944, 400.1088
441.9765, 398.2336
442.4586, 396.5429
442.9408, 398.7227
443.4229, 404.3322
443.9050, 409.5380
444.3871, 412.5445
444.8692, 414.7181
445.3513, 416.8781
445.8335, 418.9527
446.3156, 421.4073
446.7977, 424.7510
447.2798, 428.4453
447.7619, 431.5245
448.2440, 433.3346
448.7262, 435.1191
449.2083, 436.8259
449.6904, 438.3856
450.1725, 441.4998
450.6546, 447.0921
451.1367, 453.0389
451.6189, 457.8025
452.1010, 461.3136
452.5831, 463.8516
453.0652, 465.2310
453.5473, 465.9135
454.0294, 467.1363
454.5116, 469.0416
454.9937, 470.3479
455.4758, 469.9865
455.9579, 468.3988
456.4400, 468.5211
456.9221, 470.5673
457.4043, 472.2923
457.8864, 470.9750
458.3685, 467.5245
458.8506, 464.7260
459.3327, 463.8831
459.8148, 462.9645
460.2970, 458.6876
460.7791, 452.0714
461.2612, 446.6225
461.7433, 446.4404
462.2254, 446.9264
462.7076, 443.4184
463.1897, 435.1083
463.6718, 427.4245
464.1539, 422.7574
464.6360, 420.3470
465.1181, 419.5397
465.6003, 422.4736
466.0824, 424.4762
466.5645, 424.6162
467.0466, 422.9451
467.5287, 419.6856
468.0108, 411.1015
468.4930, 404.3824
468.9751, 402.7397
469.4572, 408.2139
469.9393, 411.0921
470.4214, 410.1069
470.9035, 407.6440
471.3857, 406.0128
471.8678, 404.9490
472.3499, 405.6993
472.8320, 409.0703
473.3141, 414.1575
473.7962, 417.8141
474.2784, 419.8945
474.7605, 421.6242
475.2426, 423.6098
475.7247, 425.8492
476.2068, 428.3311
476.6889, 431.1210
477.1711, 433.8396
477.6532, 436.3684
478.1353, 438.5150
478.6174, 439.5146
479.0995, 437.5401
479.5816, 436.1104
480.0638, 440.3712
480.5459, 448.9369
481.0280, 456.6029
481.5101, 460.7671
481.9922, 462.6387
482.4743, 462.3991
482.9565, 459.5075
483.4386, 457.9304
483.9207, 460.6573
484.4028, 464.9432
484.8849, 467.9155
485.3670, 468.0806
485.8492, 467.8558
486.3313, 467.4881
486.8134, 467.0397
487.2955, 466.7771
487.7776, 466.9758
488.2597, 467.0434
488.7419, 466.4591
489.2240, 464.7140
489.7061, 465.1171
490.1882, 468.7569
490.6703, 472.9461
491.1524, 473.8172
491.6346, 470.5492
492.1167, 470.8807
492.5988, 477.6731
493.0809, 487.6550
493.5630, 491.6294
494.0451, 489.8165
494.5273, 488.3326
495.0094, 490.4625
495.4915, 495.6024
495.9736, 503.2915
496.4557, 513.6326
496.9378, 523.4109
497.4200, 528.3759
497.9021, 531.1911
498.3842, 535.9175
498.8663, 544.9017
499.3484, 554.5980
499.8305, 562.8034
500.3127, 569.9947
500.7948, 577.3444
501.2769, 584.3259
501.7590, 592.4886
502.2411, 603.3800
502.7232, 617.8800
503.2054, 630.0862
503.6875, 635.5391
504.1696, 640.6671
504.6517, 650.2081
505.1338, 667.7675
505.6159, 683.1723
506.0981, 694.2045
506.5802, 703.3857
507.0623, 717.0784
507.5444, 737.1303
508.0265, 756.3507
508.5086, 772.3934
508.9908, 785.4576
509.4729, 796.5587
509.9550, 805.3759
510.4371, 814.4269
510.9192, 826.9127
511.4013, 841.6534
511.8835, 853.4055
512.3655, 860.7722
512.8477, 867.2746
513.3298, 877.3192
513.8119, 889.7234
514.2940, 901.6597
514.7761, 913.5291
515.2582, 923.1478
515.7404, 927.9849
516.2225, 928.5965
516.7046, 929.1005
517.1867, 931.5590
517.6688, 934.3571
518.1509, 936.6621
518.6331, 938.8934
519.1152, 939.2640
519.5973, 936.5643
520.0794, 932.1291
520.5615, 927.8793
521.0436, 925.9312
521.5258, 920.7284
522.0079, 910.6497
522.4900, 896.5538
522.9721, 882.4987
523.4542, 868.8505
523.9363, 854.9595
524.4185, 841.0648
524.9006, 827.0912
525.3827, 810.2495
525.8648, 790.1303
526.3469, 768.9098
526.8290, 749.5966
527.3112, 731.3674
527.7933, 710.4417
528.2754, 684.5460
528.7575, 657.7957
529.2396, 635.0893
529.7217, 615.2524
530.2039, 595.2831
530.6860, 572.0471
531.1681, 549.0804
531.6502, 528.3389
532.1323, 509.8387
532.6144, 492.9484
533.0966, 478.8065
533.5787, 465.1203
534.0608, 450.0002
534.5429, 431.9903
535.0250, 414.5817
535.5071, 396.8859
535.9893, 380.5458
536.4714, 368.8280
536.9535, 364.9633
537.4356, 359.4285
537.9177, 349.5633
538.3998, 336.2137
538.8820, 324.9569
539.3641, 316.0201
539.8462, 308.6983
540.3283, 303.6837
540.8104, 300.4646
541.2925, 294.6935
541.7747, 285.8832
542.2568, 276.7625
542.7389, 270.7959
543.2210, 266.7581
543.7031, 261.5577
544.1852, 253.3342
544.6674, 245.2864
545.1495, 240.9463
545.6316, 239.1841
546.1137, 237.1770
546.5958, 233.5597
547.0779, 229.4390
547.5601, 225.4192
548.0422, 221.5458
548.5243, 217.3007
549.0064, 211.1634
549.4885, 205.6326
549.9706, 202.3842
550.4528, 203.3493
550.9349, 202.8969
551.4170, 200.3524
551.8991, 196.9104
552.3812, 194.3599
552.8633, 192.9409
553.3455, 191.4523
553.8276, 189.6714
554.3097, 187.5879
554.7918, 184.7534
555.2739, 181.2155
555.7560, 178.4915
556.2382, 178.9284
556.7203, 180.5926
557.2024, 178.2911
557.6845, 171.6694
558.1666, 165.6353
558.6487, 165.0914
559.1309, 167.2786
559.6130, 168.8708
560.0951, 169.5331
560.5772, 168.5350
561.0593, 163.4422
561.5414, 156.7508
562.0236, 152.9352
562.5057, 156.5585
562.9878, 159.4997
563.4699, 159.0332
563.9520, 155.5217
564.4341, 152.8159
564.9163, 150.7973
565.3984, 149.7674
565.8805, 150.5104
566.3626, 153.8213
566.8447, 153.3127
567.3268, 147.8654
567.8090, 141.7100
568.2911, 140.0718
568.7732, 142.4508
569.2553, 144.5845
569.7374, 145.7356
570.2195, 146.0174
570.7017, 145.2204
571.1838, 143.6432
571.6659, 142.2505
572.1480, 142.2533
572.6301, 142.0840
573.1122, 139.4543
573.5944, 134.8061
574.0765, 132.1990
574.5586, 136.1233
575.0407, 140.6400
575.5228, 141.8867
576.0049, 137.8696
576.4871, 134.8820
576.9692, 133.6420
577.4513, 133.4911
577.9334, 133.9726
578.4155, 135.6179
578.8976, 136.5956
579.3798, 136.5564
579.8619, 135.8387
580.3440, 135.1207
580.8261, 134.3793
581.3082, 133.9388
581.7903, 133.7599
582.2725, 134.0423
582.7546, 135.8701
583.2367, 139.0985
583.7188, 141.8185
584.2009, 142.2510
584.6830, 141.4644
585.1652, 140.8277
585.6473, 140.5462
586.1294, 140.1900
586.6115, 138.8201
587.0936, 137.5336
587.5757, 137.5061
588.0579, 140.0672
588.5400, 142.6887
