##NAMES=Spencerite
##RRUFFID=R050581
##IDEAL CHEMISTRY=Zn^2+^_4_(P^5+^O_4_)_2_(OH)_2_&#183;3H_2_O
##LOCALITY=Salmo, British Columbia, Canada
##OWNER=RRUFF
##SOURCE=University of Arizona Mineral Museum
##DESCRIPTION=White aggregate of parallel bladed crystals
##STATUS=The identification of this mineral has been confirmed by X-ray diffraction.
##URL=rruff.info/R050581
92.06543, 10652.56
92.54755, 10529.06
93.02966, 10550.32
93.51178, 10705.49
93.99390, 10822.67
94.47601, 10909.43
94.95813, 10970.57
95.44025, 11006.42
95.92236, 11018.33
96.40448, 11002.73
96.88660, 10954.89
97.36871, 10875.30
97.85082, 10781.22
98.33294, 10681.62
98.81506, 10572.05
99.29717, 10439.13
99.77929, 10310.65
100.2614, 10188.81
100.7435, 10084.12
101.2256, 9999.632
101.7078, 9930.694
102.1899, 9869.941
102.6720, 9813.903
103.1541, 9767.556
103.6362, 9733.993
104.1183, 9712.436
104.6005, 9693.795
105.0826, 9670.045
105.5647, 9639.760
106.0468, 9611.681
106.5289, 9582.192
107.0110, 9555.142
107.4931, 9534.109
107.9753, 9519.771
108.4574, 9508.988
108.9395, 9495.313
109.4216, 9473.432
109.9037, 9456.358
110.3858, 9445.469
110.8680, 9439.031
111.3501, 9435.899
111.8322, 9435.529
112.3143, 9437.272
112.7964, 9437.374
113.2785, 9434.307
113.7607, 9431.249
114.2428, 9429.231
114.7249, 9427.837
115.2070, 9425.454
115.6891, 9420.024
116.1712, 9412.098
116.6534, 9410.697
117.1355, 9422.875
117.6176, 9436.306
118.0997, 9440.208
118.5818, 9433.270
119.0639, 9424.837
119.5461, 9424.439
120.0282, 9429.681
120.5103, 9433.824
120.9924, 9431.824
121.4745, 9427.405
121.9566, 9430.517
122.4388, 9447.266
122.9209, 9463.454
123.4030, 9468.314
123.8851, 9464.192
124.3672, 9459.375
124.8493, 9460.350
125.3315, 9467.480
125.8136, 9474.365
126.2957, 9479.337
126.7778, 9484.813
127.2599, 9493.631
127.7420, 9505.125
128.2242, 9515.105
128.7063, 9516.660
129.1884, 9501.938
129.6705, 9495.058
130.1526, 9499.554
130.6347, 9508.310
131.1169, 9516.385
131.5990, 9522.062
132.0811, 9526.520
132.5632, 9532.369
133.0453, 9544.423
133.5274, 9551.982
134.0096, 9550.450
134.4917, 9544.943
134.9738, 9543.317
135.4559, 9549.841
135.9380, 9561.427
136.4201, 9567.291
136.9023, 9565.686
137.3844, 9562.447
137.8665, 9559.792
138.3486, 9557.601
138.8307, 9555.153
139.3128, 9552.299
139.7950, 9548.816
140.2771, 9544.411
140.7592, 9538.536
141.2413, 9532.269
141.7234, 9525.886
142.2055, 9518.866
142.6877, 9514.504
143.1698, 9515.795
143.6519, 9520.396
144.1340, 9526.319
144.6161, 9533.590
145.0982, 9541.187
145.5803, 9546.840
146.0625, 9551.483
146.5446, 9551.899
147.0267, 9546.127
147.5088, 9536.223
147.9909, 9525.330
148.4730, 9515.631
148.9552, 9506.942
149.4373, 9496.125
149.9194, 9477.304
150.4015, 9461.638
150.8836, 9453.578
151.3657, 9451.382
151.8479, 9450.269
152.3300, 9445.812
152.8121, 9436.874
153.2942, 9431.536
153.7763, 9431.170
154.2584, 9432.214
154.7406, 9433.206
155.2227, 9433.881
155.7048, 9434.563
156.1869, 9435.751
156.6690, 9437.871
157.1511, 9438.417
157.6333, 9436.255
158.1154, 9433.177
158.5975, 9431.193
159.0796, 9430.784
159.5617, 9429.984
160.0438, 9425.156
160.5260, 9415.951
161.0081, 9409.346
161.4902, 9408.950
161.9723, 9411.975
162.4544, 9413.065
162.9365, 9410.346
163.4187, 9406.896
163.9008, 9406.382
164.3829, 9408.654
164.8650, 9411.446
165.3471, 9412.766
165.8292, 9413.119
166.3113, 9415.905
166.7935, 9422.929
167.2756, 9431.837
167.7577, 9441.028
168.2398, 9450.381
168.7219, 9459.592
169.2040, 9467.721
169.6862, 9474.245
170.1683, 9482.862
170.6504, 9495.583
171.1325, 9509.509
171.6146, 9524.308
172.0967, 9539.519
172.5789, 9553.215
173.0610, 9562.750
173.5431, 9567.860
174.0252, 9569.453
174.5073, 9566.288
174.9894, 9560.142
175.4716, 9549.663
175.9537, 9534.806
176.4358, 9516.291
176.9179, 9495.449
177.4000, 9470.285
177.8821, 9445.437
178.3643, 9420.707
178.8464, 9396.608
179.3285, 9374.001
179.8106, 9353.182
180.2927, 9333.614
180.7748, 9314.000
181.2570, 9290.151
181.7391, 9271.452
182.2212, 9260.589
182.7033, 9255.269
183.1854, 9253.042
183.6675, 9253.381
184.1497, 9254.713
184.6318, 9251.582
185.1139, 9241.311
185.5960, 9231.744
186.0781, 9225.366
186.5602, 9221.735
187.0423, 9219.796
187.5245, 9219.424
188.0066, 9220.150
188.4887, 9220.884
188.9708, 9222.196
189.4529, 9222.467
189.9350, 9219.396
190.4172, 9213.395
190.8993, 9209.275
191.3814, 9210.543
191.8635, 9214.228
192.3456, 9215.881
192.8277, 9214.396
193.3099, 9212.156
193.7920, 9212.309
194.2741, 9215.465
194.7562, 9216.432
195.2383, 9209.571
195.7204, 9201.030
196.2026, 9196.519
196.6847, 9198.308
197.1668, 9202.247
197.6489, 9201.498
198.1310, 9194.006
198.6131, 9187.900
199.0953, 9187.178
199.5774, 9188.050
200.0595, 9186.658
200.5416, 9181.265
201.0237, 9174.667
201.5058, 9173.322
201.9880, 9180.135
202.4701, 9187.332
202.9522, 9194.891
203.4343, 9201.407
203.9164, 9205.215
204.3985, 9205.504
204.8807, 9203.206
205.3628, 9201.007
205.8449, 9197.489
206.3270, 9196.109
206.8091, 9199.053
207.2912, 9203.582
207.7733, 9206.489
208.2555, 9206.135
208.7376, 9203.495
209.2197, 9202.204
209.7018, 9203.282
210.1839, 9204.693
210.6660, 9206.406
211.1482, 9208.327
211.6303, 9210.476
212.1124, 9212.915
212.5945, 9215.425
213.0766, 9217.085
213.5587, 9215.544
214.0409, 9215.933
214.5230, 9219.854
215.0051, 9226.326
215.4872, 9234.082
215.9693, 9242.841
216.4514, 9251.813
216.9336, 9257.729
217.4157, 9258.963
217.8978, 9260.059
218.3799, 9261.481
218.8620, 9263.775
219.3441, 9268.785
219.8263, 9278.213
220.3084, 9290.050
220.7905, 9298.701
221.2726, 9302.725
221.7547, 9306.595
222.2368, 9312.956
222.7190, 9321.187
223.2011, 9328.588
223.6832, 9333.522
224.1653, 9337.390
224.6474, 9342.990
225.1295, 9350.955
225.6117, 9359.105
226.0938, 9367.097
226.5759, 9374.627
227.0580, 9378.734
227.5401, 9376.968
228.0222, 9371.907
228.5043, 9367.123
228.9865, 9362.938
229.4686, 9358.447
229.9507, 9352.542
230.4328, 9345.256
230.9149, 9338.815
231.3970, 9335.499
231.8792, 9332.163
232.3613, 9326.616
232.8434, 9318.669
233.3255, 9307.917
233.8076, 9292.283
234.2897, 9271.101
234.7719, 9253.175
235.2540, 9243.817
235.7361, 9236.251
236.2182, 9226.618
236.7003, 9214.313
237.1824, 9200.575
237.6646, 9186.221
238.1467, 9170.860
238.6288, 9156.532
239.1109, 9140.353
239.5930, 9127.522
240.0751, 9122.683
240.5573, 9125.599
241.0394, 9130.455
241.5215, 9130.581
242.0036, 9124.929
242.4857, 9118.468
242.9678, 9109.362
243.4500, 9101.065
243.9321, 9096.009
244.4142, 9094.021
244.8963, 9092.619
245.3784, 9088.410
245.8605, 9079.694
246.3427, 9074.681
246.8248, 9077.841
247.3069, 9080.846
247.7890, 9079.094
248.2711, 9072.826
248.7532, 9065.752
249.2354, 9062.152
249.7175, 9063.776
250.1996, 9061.452
250.6817, 9048.975
251.1638, 9038.547
251.6459, 9037.519
252.1281, 9044.732
252.6102, 9053.224
253.0923, 9055.856
253.5744, 9050.884
254.0565, 9050.712
254.5386, 9058.168
255.0208, 9066.729
255.5029, 9073.827
255.9850, 9079.340
256.4671, 9084.187
256.9492, 9089.043
257.4313, 9093.767
257.9135, 9099.793
258.3956, 9111.063
258.8777, 9119.609
259.3598, 9119.978
259.8419, 9114.245
260.3240, 9109.428
260.8062, 9111.402
261.2883, 9120.103
261.7704, 9122.090
262.2525, 9114.821
262.7346, 9105.292
263.2167, 9094.931
263.6989, 9084.472
264.1810, 9076.100
264.6631, 9072.188
265.1452, 9071.354
265.6273, 9060.825
266.1094, 9032.356
266.5916, 9005.317
267.0737, 8987.929
267.5558, 8977.459
268.0379, 8966.968
268.5200, 8952.639
269.0021, 8935.537
269.4843, 8920.061
269.9664, 8908.507
270.4485, 8895.438
270.9306, 8877.753
271.4127, 8857.333
271.8948, 8837.971
272.3770, 8821.118
272.8591, 8806.639
273.3412, 8794.342
273.8233, 8785.029
274.3054, 8775.554
274.7875, 8764.253
275.2697, 8752.208
275.7518, 8741.825
276.2339, 8734.276
276.7160, 8727.812
277.1981, 8718.635
277.6802, 8705.891
278.1623, 8694.945
278.6444, 8689.220
279.1266, 8685.864
279.6087, 8679.745
280.0908, 8669.187
280.5729, 8657.187
281.0550, 8647.413
281.5371, 8639.607
282.0193, 8633.818
282.5014, 8630.954
282.9835, 8629.846
283.4656, 8629.082
283.9477, 8628.551
284.4298, 8627.722
284.9120, 8626.380
285.3941, 8624.450
285.8762, 8620.690
286.3583, 8613.640
286.8404, 8605.120
287.3225, 8596.624
287.8047, 8588.042
288.2868, 8581.533
288.7689, 8580.921
289.2510, 8584.150
289.7331, 8583.765
290.2152, 8575.237
290.6974, 8564.585
291.1795, 8558.454
291.6616, 8557.100
292.1437, 8555.835
292.6258, 8551.914
293.1079, 8545.916
293.5901, 8539.208
294.0722, 8530.271
294.5543, 8522.514
295.0364, 8520.329
295.5185, 8523.316
296.0006, 8524.216
296.4828, 8518.377
296.9649, 8509.066
297.4470, 8502.358
297.9291, 8499.130
298.4112, 8496.811
298.8933, 8493.651
299.3755, 8489.812
299.8576, 8486.529
300.3397, 8485.236
300.8218, 8483.432
301.3039, 8477.344
301.7860, 8466.341
302.2682, 8456.022
302.7503, 8450.379
303.2324, 8448.053
303.7145, 8444.385
304.1966, 8438.638
304.6787, 8430.735
305.1609, 8420.184
305.6430, 8407.262
306.1251, 8394.108
306.6072, 8379.553
307.0893, 8365.679
307.5714, 8358.093
308.0536, 8359.289
308.5357, 8361.582
309.0178, 8358.209
309.4999, 8350.752
309.9820, 8342.882
310.4641, 8335.768
310.9463, 8328.938
311.4284, 8321.562
311.9105, 8313.455
312.3926, 8305.865
312.8747, 8300.345
313.3568, 8295.804
313.8390, 8290.173
314.3211, 8281.443
314.8032, 8273.162
315.2853, 8269.900
315.7674, 8271.772
316.2495, 8272.865
316.7317, 8269.966
317.2138, 8264.910
317.6959, 8260.517
318.1780, 8256.923
318.6601, 8254.058
319.1422, 8252.739
319.6243, 8252.527
320.1064, 8250.018
320.5886, 8242.016
321.0707, 8233.729
321.5528, 8232.325
322.0349, 8238.293
322.5170, 8243.450
322.9991, 8243.345
323.4813, 8239.086
323.9634, 8233.247
324.4455, 8225.354
324.9276, 8218.095
325.4097, 8214.913
325.8918, 8215.063
326.3740, 8215.122
326.8561, 8212.802
327.3382, 8210.101
327.8203, 8210.643
328.3024, 8215.243
328.7845, 8220.520
329.2667, 8224.339
329.7488, 8226.911
330.2309, 8228.590
330.7130, 8229.396
331.1951, 8229.324
331.6772, 8227.491
332.1594, 8223.925
332.6415, 8221.943
333.1236, 8223.988
333.6057, 8228.483
334.0878, 8231.845
334.5699, 8233.599
335.0521, 8234.768
335.5342, 8235.808
336.0163, 8236.735
336.4984, 8237.715
336.9805, 8238.880
337.4626, 8240.001
337.9448, 8241.624
338.4269, 8244.560
338.9090, 8243.741
339.3911, 8232.975
339.8732, 8217.859
340.3553, 8210.073
340.8375, 8213.062
341.3196, 8218.937
341.8017, 8218.778
342.2838, 8213.225
342.7659, 8208.191
343.2480, 8204.717
343.7302, 8202.313
344.2123, 8201.132
344.6944, 8201.128
345.1765, 8200.092
345.6586, 8195.504
346.1407, 8188.296
346.6229, 8184.323
347.1050, 8185.072
347.5871, 8187.765
348.0692, 8192.557
348.5513, 8198.373
349.0334, 8201.135
349.5156, 8198.389
349.9977, 8191.709
350.4798, 8185.337
350.9619, 8179.351
351.4440, 8173.517
351.9261, 8168.014
352.4083, 8162.640
352.8904, 8157.010
353.3725, 8151.026
353.8546, 8144.792
354.3367, 8137.868
354.8188, 8129.281
355.3010, 8124.489
355.7831, 8125.662
356.2652, 8129.801
356.7473, 8135.922
357.2294, 8143.331
357.7115, 8148.257
358.1937, 8146.978
358.6758, 8139.107
359.1579, 8132.242
359.6400, 8124.640
360.1221, 8119.525
360.6042, 8120.088
361.0863, 8124.588
361.5685, 8128.420
362.0506, 8128.932
362.5327, 8126.976
363.0148, 8126.050
363.4969, 8128.235
363.9790, 8128.841
364.4612, 8125.280
364.9433, 8120.550
365.4254, 8118.803
365.9075, 8121.325
366.3896, 8125.531
366.8717, 8127.259
367.3539, 8125.167
367.8360, 8123.492
368.3181, 8120.753
368.8002, 8119.511
369.2823, 8123.243
369.7644, 8130.942
370.2466, 8137.174
370.7287, 8136.344
371.2108, 8127.724
371.6929, 8124.606
372.1750, 8132.210
372.6571, 8139.222
373.1393, 8143.666
373.6214, 8144.983
374.1035, 8142.185
374.5856, 8134.470
375.0677, 8123.729
375.5498, 8116.087
376.0320, 8113.394
376.5141, 8111.295
376.9962, 8112.390
377.4783, 8112.146
377.9604, 8106.274
378.4425, 8093.873
378.9247, 8077.741
379.4068, 8061.381
379.8889, 8044.839
380.3710, 8027.932
380.8531, 8009.219
381.3352, 7991.427
381.8174, 7976.686
382.2995, 7964.091
382.7816, 7950.816
383.2637, 7934.519
383.7458, 7915.740
384.2279, 7898.330
384.7101, 7882.064
385.1922, 7867.744
385.6743, 7856.237
386.1564, 7846.258
386.6385, 7836.469
387.1206, 7826.619
387.6028, 7815.817
388.0849, 7801.236
388.5670, 7781.204
389.0491, 7765.619
389.5312, 7760.140
390.0133, 7757.599
390.4955, 7754.375
390.9776, 7749.931
391.4597, 7743.825
391.9418, 7734.532
392.4239, 7722.795
392.9060, 7713.359
393.3882, 7707.232
393.8703, 7702.289
394.3524, 7698.198
394.8345, 7694.175
395.3166, 7688.213
395.7987, 7677.789
396.2809, 7666.505
396.7630, 7660.713
397.2451, 7660.882
397.7272, 7658.512
398.2093, 7648.204
398.6914, 7633.952
399.1736, 7622.083
399.6557, 7612.888
400.1378, 7605.497
400.6199, 7600.512
401.1020, 7596.942
401.5841, 7591.822
402.0662, 7584.072
402.5483, 7575.828
403.0305, 7568.989
403.5126, 7563.449
403.9947, 7560.942
404.4768, 7566.510
404.9589, 7572.085
405.4410, 7568.844
405.9232, 7557.104
406.4053, 7544.445
406.8874, 7535.717
407.3695, 7530.167
407.8516, 7523.388
408.3337, 7512.683
408.8159, 7504.058
409.2980, 7500.037
409.7801, 7499.121
410.2622, 7499.542
410.7443, 7500.763
411.2264, 7501.438
411.7086, 7499.133
412.1907, 7491.490
412.6728, 7486.848
413.1549, 7488.910
413.6370, 7490.929
414.1191, 7487.071
414.6013, 7478.288
415.0834, 7470.470
415.5655, 7468.634
416.0476, 7472.263
416.5297, 7472.644
417.0118, 7467.552
417.4940, 7461.582
417.9761, 7453.785
418.4582, 7446.116
418.9403, 7441.505
419.4224, 7440.952
419.9045, 7442.054
420.3867, 7440.303
420.8688, 7434.015
421.3509, 7429.481
421.8330, 7428.979
422.3151, 7428.556
422.7972, 7426.542
423.2794, 7422.748
423.7615, 7417.434
424.2436, 7410.450
424.7257, 7402.070
425.2078, 7393.938
425.6899, 7385.423
426.1721, 7378.347
426.6542, 7372.856
427.1363, 7369.088
427.6184, 7367.838
428.1005, 7369.793
428.5826, 7372.020
429.0648, 7371.158
429.5469, 7367.183
430.0290, 7361.005
430.5111, 7349.948
430.9932, 7340.086
431.4753, 7337.780
431.9575, 7342.091
432.4396, 7345.296
432.9217, 7342.755
433.4038, 7337.141
433.8859, 7333.370
434.3680, 7332.000
434.8502, 7329.403
435.3323, 7321.655
435.8144, 7311.423
436.2965, 7306.117
436.7786, 7308.762
437.2607, 7312.116
437.7429, 7312.655
438.2250, 7310.999
438.7071, 7308.171
439.1892, 7304.269
439.6713, 7300.437
440.1534, 7298.412
440.6356, 7298.630
441.1177, 7298.823
441.5998, 7297.661
442.0819, 7297.406
442.5640, 7301.192
443.0461, 7307.875
443.5282, 7312.585
444.0103, 7311.777
444.4925, 7306.590
444.9746, 7303.331
445.4567, 7302.195
445.9388, 7302.874
446.4209, 7305.971
446.9030, 7310.541
447.3852, 7316.489
447.8673, 7323.405
448.3494, 7329.423
448.8315, 7331.648
449.3136, 7328.778
449.7957, 7328.508
450.2779, 7332.433
450.7600, 7337.394
451.2421, 7342.247
451.7242, 7347.354
452.2063, 7353.757
452.6884, 7362.167
453.1706, 7371.680
453.6527, 7380.833
454.1348, 7390.932
454.6169, 7396.454
455.0990, 7391.228
455.5811, 7384.064
456.0633, 7380.628
456.5454, 7381.550
457.0275, 7384.450
457.5096, 7391.038
457.9917, 7398.611
458.4738, 7395.656
458.9560, 7377.807
459.4381, 7359.896
459.9202, 7355.325
460.4023, 7357.134
460.8844, 7351.731
461.3665, 7332.068
461.8487, 7311.450
462.3308, 7301.950
462.8129, 7300.138
463.2950, 7293.508
463.7771, 7277.127
464.2592, 7256.746
464.7414, 7240.815
465.2235, 7230.255
465.7056, 7216.865
466.1877, 7195.760
466.6698, 7174.341
467.1519, 7158.982
467.6341, 7149.119
468.1162, 7140.557
468.5983, 7130.767
469.0804, 7119.993
469.5625, 7109.670
470.0446, 7100.849
470.5268, 7091.255
471.0089, 7080.077
471.4910, 7068.502
471.9731, 7057.913
472.4552, 7048.437
472.9373, 7038.820
473.4195, 7027.089
473.9016, 7012.762
474.3837, 7002.835
474.8658, 7001.034
475.3479, 6999.724
475.8300, 6998.161
476.3122, 6995.296
476.7943, 6989.321
477.2764, 6979.185
477.7585, 6967.601
478.2406, 6958.769
478.7227, 6953.013
479.2049, 6947.233
479.6870, 6940.352
480.1691, 6933.923
480.6512, 6929.519
481.1333, 6926.755
481.6154, 6923.616
482.0976, 6919.470
482.5797, 6914.289
483.0618, 6907.396
483.5439, 6898.752
484.0260, 6891.045
484.5081, 6885.717
484.9902, 6882.096
485.4724, 6878.317
485.9545, 6873.678
486.4366, 6870.831
486.9187, 6872.592
487.4008, 6875.788
487.8829, 6875.453
488.3651, 6871.032
488.8472, 6866.943
489.3293, 6867.681
489.8114, 6873.162
490.2935, 6873.384
490.7756, 6863.801
491.2578, 6855.269
491.7399, 6851.522
492.2220, 6850.368
492.7041, 6849.099
493.1862, 6846.731
493.6683, 6843.401
494.1505, 6838.729
494.6326, 6831.399
495.1147, 6828.071
495.5968, 6832.820
496.0789, 6837.717
496.5610, 6840.333
497.0432, 6840.909
497.5253, 6840.095
498.0074, 6837.896
498.4895, 6835.399
498.9716, 6835.155
499.4537, 6837.757
499.9359, 6838.736
500.4180, 6835.723
500.9001, 6831.856
501.3822, 6830.261
501.8643, 6830.648
502.3464, 6829.792
502.8286, 6823.802
503.3107, 6816.723
503.7928, 6815.425
504.2749, 6820.133
504.7570, 6825.216
505.2391, 6827.984
505.7213, 6828.964
506.2034, 6829.714
506.6855, 6831.076
507.1676, 6830.420
507.6497, 6824.826
508.1318, 6818.028
508.6140, 6814.457
509.0961, 6814.555
509.5782, 6815.890
510.0603, 6816.562
510.5424, 6816.542
511.0245, 6815.242
511.5067, 6811.388
511.9888, 6807.788
512.4709, 6805.583
512.9530, 6803.525
513.4351, 6799.875
513.9172, 6794.347
514.3994, 6788.675
514.8815, 6785.542
515.3636, 6785.352
515.8457, 6782.279
516.3278, 6774.423
516.8099, 6766.150
517.2921, 6758.945
517.7742, 6752.646
518.2563, 6746.830
518.7384, 6741.128
519.2205, 6736.529
519.7026, 6735.300
520.1848, 6736.753
520.6669, 6735.322
521.1490, 6728.985
521.6311, 6721.137
522.1132, 6714.414
522.5953, 6708.825
523.0775, 6705.545
523.5596, 6707.666
524.0417, 6709.555
524.5238, 6706.631
525.0059, 6700.198
525.4880, 6693.778
525.9702, 6688.710
526.4523, 6685.150
526.9344, 6683.553
527.4165, 6685.388
527.8986, 6685.457
528.3807, 6682.197
528.8629, 6678.858
529.3450, 6678.900
529.8271, 6680.297
530.3092, 6677.509
530.7913, 6666.990
531.2734, 6652.922
531.7556, 6645.878
532.2377, 6648.425
532.7198, 6650.830
533.2019, 6652.897
533.6840, 6653.480
534.1661, 6651.116
534.6483, 6646.382
535.1304, 6641.743
535.6125, 6638.486
536.0946, 6636.213
536.5767, 6634.010
537.0588, 6631.811
537.5410, 6630.967
538.0231, 6633.063
538.5052, 6635.736
538.9873, 6634.433
539.4694, 6628.287
539.9515, 6625.100
540.4337, 6630.641
540.9158, 6637.739
541.3979, 6639.254
541.8800, 6635.278
542.3621, 6629.156
542.8442, 6622.600
543.3264, 6616.125
543.8085, 6611.462
544.2906, 6609.514
544.7726, 6608.347
545.2548, 6608.370
545.7369, 6608.820
546.2190, 6609.757
546.7011, 6610.705
547.1832, 6610.209
547.6653, 6606.648
548.1475, 6601.270
548.6296, 6599.623
549.1117, 6603.644
549.5938, 6606.259
550.0759, 6602.774
550.5580, 6598.834
551.0402, 6599.909
551.5223, 6606.017
552.0044, 6610.210
552.4865, 6606.929
552.9686, 6599.670
553.4507, 6593.943
553.9329, 6589.975
554.4150, 6588.597
554.8971, 6591.228
555.3792, 6595.948
555.8613, 6597.579
556.3434, 6594.662
556.8256, 6592.927
557.3077, 6594.568
557.7898, 6597.082
558.2719, 6598.784
558.7540, 6599.233
559.2361, 6597.744
559.7183, 6593.566
560.2004, 6587.636
560.6825, 6583.869
561.1646, 6583.686
561.6467, 6583.375
562.1288, 6582.544
562.6110, 6581.527
563.0931, 6580.790
563.5752, 6580.190
564.0573, 6578.888
564.5394, 6575.683
565.0215, 6571.714
565.5037, 6569.842
565.9858, 6570.174
566.4679, 6572.237
566.9500, 6577.870
567.4321, 6583.428
567.9142, 6583.345
568.3964, 6577.112
568.8785, 6572.659
569.3606, 6573.992
569.8427, 6577.413
570.3248, 6579.558
570.8069, 6580.259
571.2891, 6579.834
571.7712, 6578.137
572.2533, 6576.345
572.7354, 6577.661
573.2175, 6586.828
573.6996, 6590.464
574.1818, 6583.328
574.6639, 6575.646
575.1460, 6573.967
575.6281, 6577.105
576.1102, 6580.573
576.5923, 6581.823
577.0745, 6581.583
577.5566, 6581.687
578.0387, 6582.548
578.5208, 6581.450
579.0029, 6576.346
579.4850, 6570.720
579.9672, 6566.852
580.4493, 6564.667
580.9314, 6563.736
581.4135, 6565.909
581.8956, 6567.604
582.3777, 6563.311
582.8599, 6555.125
583.3420, 6551.862
583.8241, 6557.224
584.3062, 6565.197
584.7883, 6567.337
585.2704, 6561.791
585.7526, 6559.677
586.2347, 6565.822
586.7168, 6570.038
587.1989, 6566.741
587.6810, 6558.975
588.1631, 6551.481
588.6453, 6546.084
589.1274, 6542.020
589.6095, 6538.528
