##NAMES=Spencerite
##RRUFFID=R050581
##IDEAL CHEMISTRY=Zn^2+^_4_(P^5+^O_4_)_2_(OH)_2_&#183;3H_2_O
##LOCALITY=Salmo, British Columbia, Canada
##OWNER=RRUFF
##SOURCE=University of Arizona Mineral Museum
##DESCRIPTION=White aggregate of parallel bladed crystals
##STATUS=The identification of this mineral has been confirmed by X-ray diffraction.
##URL=rruff.info/R050581
91.11523, 329.2085
91.59735, 331.0981
92.07947, 330.0928
92.56158, 326.8183
93.04370, 323.2264
93.52582, 319.0375
94.00793, 315.3970
94.49006, 315.6563
94.97218, 321.2144
95.45429, 328.3332
95.93641, 330.6408
96.41853, 328.2500
96.90064, 325.7762
97.38276, 327.0997
97.86488, 331.7933
98.34699, 334.9866
98.82911, 335.3309
99.31123, 333.9455
99.79334, 334.6422
100.2755, 337.7464
100.7576, 341.7867
101.2397, 346.2782
101.7218, 352.0372
102.2039, 354.0937
102.6861, 349.1987
103.1682, 337.4645
103.6503, 334.7889
104.1324, 344.5335
104.6145, 359.5786
105.0966, 371.9045
105.5788, 381.2169
106.0609, 388.0191
106.5430, 391.0972
107.0251, 387.6264
107.5072, 390.7993
107.9893, 404.0824
108.4715, 423.1953
108.9536, 440.4197
109.4357, 451.6428
109.9178, 464.7950
110.3999, 482.4955
110.8820, 504.8651
111.3642, 531.2880
111.8463, 560.8793
112.3284, 594.4904
112.8105, 634.5282
113.2926, 686.0750
113.7747, 741.5365
114.2569, 796.3983
114.7390, 840.9176
115.2211, 895.6265
115.7032, 964.7279
116.1853, 1047.617
116.6674, 1140.804
117.1496, 1240.974
117.6317, 1353.344
118.1138, 1481.132
118.5959, 1625.974
119.0780, 1786.985
119.5602, 1966.875
120.0423, 2166.497
120.5244, 2372.463
121.0065, 2580.089
121.4886, 2789.312
121.9707, 3000.961
122.4529, 3219.735
122.9350, 3436.125
123.4171, 3642.192
123.8992, 3837.569
124.3813, 4022.960
124.8634, 4197.729
125.3456, 4362.836
125.8277, 4521.125
126.3098, 4661.154
126.7919, 4797.552
127.2740, 4948.632
127.7561, 5114.751
128.2383, 5300.120
128.7204, 5512.457
129.2025, 5749.890
129.6846, 6002.575
130.1667, 6269.220
130.6488, 6544.553
131.1310, 6829.602
131.6131, 7125.664
132.0952, 7428.779
132.5773, 7733.526
133.0594, 8041.261
133.5415, 8346.736
134.0237, 8650.160
134.5058, 8952.724
134.9879, 9251.841
135.4700, 9553.926
135.9521, 9850.343
136.4343, 10123.33
136.9164, 10372.76
137.3985, 10602.31
137.8806, 10815.83
138.3627, 11013.95
138.8448, 11201.23
139.3270, 11379.80
139.8091, 11550.85
140.2912, 11715.75
140.7733, 11872.33
141.2554, 12029.24
141.7375, 12191.61
142.2197, 12358.39
142.7018, 12538.11
143.1839, 12733.80
143.6660, 12945.10
144.1481, 13165.12
144.6302, 13392.78
145.1124, 13628.53
145.5945, 13869.48
146.0766, 14124.02
146.5587, 14375.27
147.0408, 14620.17
147.5230, 14858.71
148.0051, 15083.53
148.4872, 15219.49
148.9693, 15254.42
149.4514, 15296.47
149.9335, 15362.11
150.4157, 15419.37
150.8978, 15456.28
151.3799, 15456.44
151.8620, 15474.46
152.3441, 15519.78
152.8262, 15582.06
153.3084, 15640.96
153.7905, 15702.39
154.2726, 15754.77
154.7547, 15793.70
155.2368, 15808.98
155.7189, 15826.09
156.2011, 15845.38
156.6832, 15867.94
157.1653, 15896.50
157.6474, 15936.06
158.1295, 15977.85
158.6116, 16017.33
159.0938, 16052.32
159.5759, 16086.35
160.0580, 16119.97
160.5401, 16152.98
161.0222, 16185.11
161.5044, 16218.20
161.9865, 16248.97
162.4686, 16274.75
162.9507, 16285.39
163.4328, 16301.47
163.9149, 16334.44
164.3971, 16381.53
164.8792, 16427.76
165.3613, 16465.37
165.8434, 16499.50
166.3255, 16534.97
166.8076, 16573.12
167.2898, 16612.92
167.7719, 16653.72
168.2540, 16695.78
168.7361, 16740.59
169.2182, 16783.07
169.7003, 16830.56
170.1825, 16891.78
170.6646, 16985.26
171.1467, 17083.10
171.6288, 17164.40
172.1109, 17228.72
172.5931, 17286.13
173.0752, 17340.78
173.5573, 17393.21
174.0394, 17444.69
174.5215, 17508.41
175.0036, 17564.43
175.4858, 17589.71
175.9679, 17584.10
176.4500, 17556.68
176.9321, 17505.35
177.4142, 17437.29
177.8963, 17369.94
178.3785, 17308.02
178.8606, 17251.18
179.3427, 17201.72
179.8248, 17159.55
180.3069, 17120.31
180.7890, 17075.35
181.2712, 17028.70
181.7533, 16993.90
182.2354, 16986.08
182.7175, 16993.50
183.1996, 16988.95
183.6818, 16969.46
184.1639, 16949.41
184.6460, 16948.06
185.1281, 16962.18
185.6102, 16974.80
186.0923, 16976.31
186.5745, 16969.73
187.0566, 16963.21
187.5387, 16956.25
188.0208, 16952.65
188.5029, 16959.82
188.9850, 16977.01
189.4672, 16993.95
189.9493, 17004.64
190.4314, 17010.58
190.9135, 17019.41
191.3956, 17031.80
191.8777, 17046.75
192.3599, 17064.18
192.8420, 17084.03
193.3241, 17102.63
193.8062, 17116.56
194.2883, 17126.40
194.7704, 17138.18
195.2526, 17151.35
195.7347, 17167.19
196.2168, 17188.66
196.6989, 17215.66
197.1810, 17245.25
197.6632, 17279.52
198.1453, 17318.54
198.6274, 17342.04
199.1095, 17343.77
199.5916, 17336.71
200.0737, 17349.82
200.5559, 17386.20
201.0380, 17424.35
201.5201, 17452.57
202.0022, 17470.72
202.4843, 17488.69
202.9664, 17506.48
203.4486, 17525.76
203.9307, 17550.53
204.4128, 17581.46
204.8949, 17615.26
205.3770, 17651.93
205.8591, 17692.69
206.3413, 17726.67
206.8234, 17751.50
207.3055, 17770.09
207.7876, 17790.46
208.2697, 17813.20
208.7519, 17834.21
209.2340, 17849.70
209.7161, 17857.18
210.1982, 17870.32
210.6803, 17890.10
211.1624, 17915.71
211.6446, 17946.50
212.1267, 17985.02
212.6088, 18022.57
213.0909, 18054.15
213.5730, 18077.76
214.0551, 18104.76
214.5373, 18137.32
215.0194, 18173.42
215.5015, 18207.29
215.9836, 18237.62
216.4657, 18269.32
216.9478, 18306.44
217.4300, 18351.80
217.9121, 18392.47
218.3942, 18424.04
218.8763, 18451.07
219.3584, 18488.10
219.8405, 18539.08
220.3227, 18591.15
220.8048, 18636.87
221.2869, 18672.79
221.7690, 18712.51
222.2511, 18757.77
222.7333, 18806.54
223.2154, 18851.49
223.6975, 18892.43
224.1796, 18931.42
224.6617, 18969.70
225.1438, 19007.63
225.6260, 19044.90
226.1081, 19080.78
226.5902, 19116.83
227.0723, 19155.96
227.5544, 19200.61
228.0365, 19245.85
228.5187, 19290.14
229.0008, 19335.62
229.4829, 19374.55
229.9650, 19406.99
230.4471, 19432.41
230.9292, 19449.40
231.4114, 19453.19
231.8935, 19454.78
232.3756, 19458.81
232.8577, 19466.70
233.3398, 19472.79
233.8220, 19478.60
234.3041, 19481.79
234.7862, 19476.07
235.2683, 19457.50
235.7504, 19436.54
236.2325, 19416.94
236.7147, 19398.70
237.1968, 19384.29
237.6789, 19375.15
238.1610, 19370.31
238.6431, 19366.98
239.1252, 19364.61
239.6074, 19365.82
240.0895, 19371.99
240.5716, 19384.20
241.0537, 19398.88
241.5358, 19416.90
242.0179, 19436.87
242.5001, 19455.19
242.9822, 19466.38
243.4643, 19483.81
243.9464, 19512.46
244.4285, 19554.69
244.9106, 19598.69
245.3928, 19644.26
245.8749, 19691.01
246.3570, 19738.40
246.8391, 19785.43
247.3212, 19834.00
247.8034, 19885.27
248.2855, 19940.57
248.7676, 19993.79
249.2497, 20045.77
249.7318, 20095.94
250.2139, 20142.16
250.6961, 20179.18
251.1782, 20223.19
251.6603, 20281.74
252.1424, 20359.01
252.6245, 20427.99
253.1066, 20482.60
253.5888, 20535.40
254.0709, 20605.76
254.5530, 20704.80
255.0351, 20798.90
255.5172, 20876.78
255.9993, 20936.95
256.4815, 21000.27
256.9636, 21065.76
257.4457, 21134.36
257.9278, 21208.73
258.4099, 21292.34
258.8921, 21374.13
259.3742, 21453.47
259.8563, 21529.78
260.3384, 21599.46
260.8205, 21662.90
261.3026, 21718.34
261.7848, 21764.93
262.2669, 21802.63
262.7490, 21830.54
263.2311, 21847.70
263.7132, 21854.45
264.1953, 21854.79
264.6775, 21850.95
265.1596, 21836.81
265.6417, 21806.22
266.1238, 21757.17
266.6059, 21698.76
267.0880, 21631.93
267.5702, 21556.78
268.0523, 21478.45
268.5344, 21396.40
269.0165, 21310.18
269.4986, 21215.51
269.9807, 21107.06
270.4629, 21010.53
270.9450, 20932.00
271.4271, 20866.81
271.9092, 20799.30
272.3913, 20728.51
272.8734, 20657.89
273.3556, 20588.69
273.8377, 20520.22
274.3198, 20457.35
274.8019, 20399.97
275.2840, 20348.01
275.7661, 20300.06
276.2483, 20255.64
276.7304, 20217.31
277.2125, 20189.63
277.6946, 20173.42
278.1768, 20153.96
278.6589, 20128.76
279.1410, 20102.36
279.6231, 20084.97
280.1052, 20077.74
280.5873, 20071.88
281.0695, 20064.57
281.5516, 20055.86
282.0337, 20040.24
282.5158, 20015.06
282.9979, 19988.45
283.4800, 19974.18
283.9622, 19972.55
284.4443, 19973.26
284.9264, 19971.03
285.4085, 19966.40
285.8906, 19965.88
286.3727, 19969.89
286.8549, 19975.50
287.3370, 19980.20
287.8191, 19983.76
288.3012, 19983.57
288.7833, 19977.50
289.2654, 19967.01
289.7476, 19957.43
290.2297, 19949.11
290.7118, 19940.18
291.1939, 19927.35
291.6760, 19911.81
292.1581, 19899.57
292.6403, 19895.63
293.1224, 19894.89
293.6045, 19881.17
294.0866, 19854.59
294.5687, 19831.77
295.0508, 19832.46
295.5330, 19849.85
296.0151, 19859.84
296.4972, 19854.25
296.9793, 19841.59
297.4614, 19835.32
297.9435, 19834.96
298.4257, 19837.79
298.9078, 19845.67
299.3899, 19854.99
299.8720, 19856.85
300.3541, 19847.41
300.8362, 19835.01
301.3184, 19829.83
301.8005, 19830.66
302.2826, 19832.67
302.7647, 19837.47
303.2469, 19840.25
303.7290, 19831.29
304.2111, 19806.58
304.6932, 19781.74
305.1753, 19775.81
305.6574, 19781.97
306.1396, 19784.44
306.6217, 19769.17
307.1038, 19749.28
307.5859, 19741.78
308.0680, 19749.21
308.5501, 19752.01
309.0323, 19727.94
309.5144, 19690.59
309.9965, 19661.69
310.4786, 19654.94
310.9607, 19656.33
311.4428, 19658.16
311.9250, 19660.13
312.4071, 19658.10
312.8892, 19644.29
313.3713, 19627.47
313.8534, 19616.81
314.3355, 19621.35
314.8177, 19627.51
315.2998, 19625.66
315.7819, 19618.07
316.2640, 19616.97
316.7461, 19635.84
317.2282, 19658.62
317.7104, 19672.78
318.1925, 19669.38
318.6746, 19665.96
319.1567, 19671.31
319.6388, 19681.40
320.1209, 19685.45
320.6031, 19669.56
321.0852, 19654.60
321.5673, 19651.83
322.0494, 19667.24
322.5315, 19684.59
323.0136, 19702.55
323.4958, 19720.38
323.9779, 19736.78
324.4600, 19749.23
324.9421, 19762.88
325.4242, 19778.69
325.9064, 19796.31
326.3885, 19819.32
326.8706, 19856.44
327.3527, 19895.82
327.8348, 19925.41
328.3170, 19929.11
328.7991, 19939.78
329.2812, 19963.67
329.7633, 20000.97
330.2454, 20038.51
330.7275, 20077.24
331.2097, 20114.18
331.6918, 20146.38
332.1739, 20166.25
332.6560, 20193.20
333.1381, 20231.87
333.6202, 20278.86
334.1024, 20317.23
334.5845, 20342.50
335.0666, 20364.78
335.5487, 20390.39
336.0308, 20423.45
336.5129, 20447.41
336.9951, 20459.59
337.4772, 20464.88
337.9593, 20474.33
338.4414, 20491.01
338.9235, 20505.03
339.4056, 20510.99
339.8878, 20508.16
340.3699, 20512.70
340.8520, 20526.15
341.3341, 20544.81
341.8162, 20565.14
342.2983, 20587.06
342.7805, 20608.35
343.2626, 20627.33
343.7447, 20644.52
344.2268, 20662.89
344.7089, 20682.37
345.1910, 20701.61
345.6732, 20716.86
346.1553, 20729.07
346.6374, 20747.82
347.1195, 20777.99
347.6016, 20812.31
348.0837, 20836.76
348.5659, 20851.96
349.0480, 20862.37
349.5301, 20870.72
350.0122, 20877.15
350.4944, 20881.31
350.9765, 20883.66
351.4586, 20883.75
351.9407, 20878.93
352.4228, 20871.04
352.9049, 20865.68
353.3871, 20864.69
353.8692, 20868.37
354.3513, 20878.48
354.8334, 20895.21
355.3155, 20912.41
355.7976, 20925.30
356.2798, 20934.98
356.7619, 20943.50
357.2440, 20947.66
357.7261, 20953.28
358.2082, 20964.62
358.6903, 20981.03
359.1725, 20999.52
359.6546, 21020.13
360.1367, 21041.00
360.6188, 21060.37
361.1009, 21077.61
361.5830, 21093.27
362.0652, 21106.56
362.5473, 21118.50
363.0294, 21131.50
363.5115, 21150.31
363.9936, 21167.81
364.4757, 21179.59
364.9579, 21183.38
365.4400, 21188.86
365.9221, 21200.22
366.4042, 21214.13
366.8863, 21226.29
367.3684, 21230.02
367.8506, 21238.66
368.3327, 21259.88
368.8148, 21295.67
369.2969, 21319.32
369.7790, 21318.43
370.2611, 21314.19
370.7433, 21321.44
371.2254, 21347.27
371.7075, 21373.16
372.1896, 21399.32
372.6717, 21424.45
373.1538, 21442.48
373.6360, 21449.65
374.1181, 21455.19
374.6002, 21463.94
375.0823, 21478.13
375.5645, 21486.71
376.0466, 21488.16
376.5287, 21485.51
377.0108, 21484.61
377.4929, 21486.88
377.9750, 21484.98
378.4572, 21477.63
378.9393, 21464.71
379.4214, 21440.48
379.9035, 21403.04
380.3856, 21363.96
380.8677, 21338.84
381.3499, 21326.02
381.8320, 21303.05
382.3141, 21261.95
382.7962, 21211.02
383.2783, 21163.46
383.7604, 21119.53
384.2426, 21083.21
384.7247, 21062.02
385.2068, 21049.62
385.6889, 21028.77
386.1710, 20995.79
386.6531, 20962.10
387.1353, 20939.07
387.6174, 20924.93
388.0995, 20914.72
388.5816, 20907.99
389.0637, 20903.24
389.5458, 20898.51
390.0280, 20893.99
390.5101, 20891.92
390.9922, 20895.43
391.4743, 20901.76
391.9564, 20908.21
392.4385, 20917.46
392.9207, 20922.32
393.4028, 20914.88
393.8849, 20899.23
394.3670, 20887.79
394.8491, 20887.45
395.3312, 20890.79
395.8134, 20894.02
396.2955, 20896.90
396.7776, 20898.49
397.2597, 20900.30
397.7418, 20900.17
398.2239, 20895.27
398.7061, 20879.31
399.1882, 20864.75
399.6703, 20855.26
400.1524, 20851.18
400.6346, 20846.24
401.1167, 20844.71
401.5988, 20838.84
402.0809, 20822.24
402.5630, 20785.62
403.0451, 20755.88
403.5273, 20735.01
404.0094, 20721.90
404.4915, 20715.79
404.9736, 20720.78
405.4557, 20721.95
405.9378, 20710.99
406.4200, 20686.37
406.9021, 20665.90
407.3842, 20649.96
407.8663, 20637.94
408.3484, 20632.37
408.8305, 20633.65
409.3127, 20627.82
409.7948, 20608.59
410.2769, 20581.76
410.7590, 20562.35
411.2411, 20550.66
411.7232, 20544.05
412.2054, 20541.25
412.6875, 20542.09
413.1696, 20547.18
413.6517, 20558.35
414.1338, 20568.03
414.6159, 20560.94
415.0981, 20543.98
415.5802, 20536.40
416.0623, 20559.25
416.5444, 20589.09
417.0265, 20599.17
417.5086, 20588.72
417.9908, 20578.30
418.4729, 20579.24
418.9550, 20587.48
419.4371, 20599.07
419.9192, 20617.43
420.4013, 20633.39
420.8835, 20641.99
421.3656, 20645.14
421.8477, 20648.57
422.3298, 20658.51
422.8119, 20665.83
423.2940, 20664.51
423.7762, 20648.59
424.2583, 20641.34
424.7404, 20652.76
425.2225, 20671.47
425.7047, 20684.69
426.1868, 20690.27
426.6689, 20693.02
427.1510, 20690.82
427.6331, 20684.84
428.1152, 20688.63
428.5974, 20707.42
429.0795, 20728.29
429.5616, 20744.60
430.0437, 20756.59
430.5258, 20760.98
431.0079, 20753.95
431.4901, 20743.42
431.9722, 20745.43
432.4543, 20761.21
432.9364, 20775.44
433.4185, 20781.03
433.9006, 20779.94
434.3828, 20781.12
434.8649, 20784.71
435.3470, 20789.38
435.8291, 20795.91
436.3112, 20803.06
436.7933, 20804.82
437.2755, 20796.69
437.7576, 20790.68
438.2397, 20809.24
438.7218, 20844.84
439.2039, 20871.71
439.6860, 20863.03
440.1682, 20845.82
440.6503, 20848.60
441.1324, 20873.41
441.6145, 20904.35
442.0966, 20938.71
442.5787, 20970.79
443.0609, 20994.38
443.5430, 20998.24
444.0251, 21002.26
444.5072, 21013.46
444.9893, 21030.08
445.4714, 21046.51
445.9536, 21057.18
446.4357, 21071.24
446.9178, 21094.65
447.3999, 21134.86
447.8820, 21166.28
448.3641, 21181.22
448.8463, 21192.36
449.3284, 21213.83
449.8105, 21250.89
450.2926, 21289.54
450.7747, 21328.02
451.2569, 21366.53
451.7390, 21404.39
452.2211, 21440.91
452.7032, 21478.55
453.1853, 21518.73
453.6674, 21561.56
454.1496, 21603.98
454.6317, 21646.04
455.1138, 21686.54
455.5959, 21723.38
456.0780, 21756.81
456.5602, 21788.03
457.0423, 21821.82
457.5244, 21851.13
458.0065, 21857.60
458.4886, 21843.17
458.9707, 21827.71
459.4529, 21833.20
459.9350, 21845.35
460.4171, 21841.37
460.8992, 21815.53
461.3813, 21782.77
461.8634, 21752.60
462.3456, 21723.65
462.8277, 21694.13
463.3098, 21661.42
463.7919, 21629.00
464.2740, 21598.09
464.7561, 21568.55
465.2383, 21540.31
465.7204, 21515.28
466.2025, 21489.52
466.6846, 21460.30
467.1667, 21421.80
467.6488, 21388.18
468.1310, 21363.97
468.6131, 21343.55
469.0952, 21317.12
469.5773, 21279.97
470.0594, 21244.55
470.5415, 21215.28
471.0237, 21191.92
471.5058, 21159.77
471.9879, 21114.09
472.4700, 21070.57
472.9521, 21043.41
473.4342, 21033.51
473.9164, 21021.93
474.3985, 21007.57
474.8806, 20989.53
475.3627, 20961.62
475.8448, 20925.45
476.3270, 20897.71
476.8091, 20890.98
477.2912, 20895.43
477.7733, 20890.96
478.2554, 20878.21
478.7375, 20866.51
479.2197, 20864.93
479.7018, 20868.05
480.1839, 20867.73
480.6660, 20860.36
481.1481, 20855.01
481.6302, 20859.71
482.1124, 20870.16
482.5945, 20879.12
483.0766, 20886.71
483.5587, 20889.69
484.0408, 20881.78
484.5229, 20863.69
485.0051, 20856.44
485.4872, 20874.97
485.9693, 20897.59
486.4514, 20911.13
486.9335, 20907.06
487.4156, 20908.90
487.8978, 20920.01
488.3799, 20935.45
488.8620, 20947.86
489.3441, 20957.07
489.8262, 20964.02
490.3083, 20967.79
490.7905, 20969.41
491.2726, 20976.68
491.7547, 20990.58
492.2368, 21005.75
492.7189, 21016.49
493.2010, 21024.05
493.6832, 21036.92
494.1653, 21056.64
494.6474, 21078.49
495.1295, 21098.52
495.6116, 21115.98
496.0938, 21129.17
496.5759, 21132.58
497.0580, 21135.02
497.5401, 21146.54
498.0222, 21165.97
498.5044, 21186.83
498.9865, 21206.43
499.4686, 21225.73
499.9507, 21246.94
500.4328, 21272.50
500.9149, 21291.99
501.3971, 21294.84
501.8792, 21292.75
502.3613, 21299.21
502.8434, 21326.46
503.3255, 21351.06
503.8076, 21366.22
504.2898, 21374.61
504.7719, 21389.75
505.2540, 21416.81
505.7361, 21442.25
506.2182, 21459.42
506.7003, 21466.20
507.1825, 21477.94
507.6646, 21496.55
508.1467, 21516.27
508.6288, 21530.22
509.1109, 21538.62
509.5930, 21548.21
510.0752, 21560.98
510.5573, 21575.45
511.0394, 21591.26
511.5215, 21607.57
512.0037, 21617.86
512.4858, 21615.55
512.9679, 21606.52
513.4500, 21597.68
513.9321, 21589.28
514.4142, 21583.07
514.8964, 21585.56
515.3785, 21588.21
515.8606, 21581.19
516.3427, 21556.30
516.8248, 21531.30
517.3069, 21508.72
517.7891, 21491.08
518.2712, 21483.01
518.7533, 21498.78
519.2354, 21510.94
519.7175, 21511.61
520.1996, 21501.08
520.6818, 21485.31
521.1639, 21454.46
521.6460, 21430.60
522.1281, 21429.47
522.6102, 21459.06
523.0923, 21480.35
523.5745, 21491.91
524.0566, 21496.00
524.5387, 21493.34
525.0208, 21483.90
525.5029, 21477.96
525.9850, 21478.84
526.4672, 21484.72
526.9493, 21494.96
527.4314, 21508.54
527.9135, 21516.32
528.3956, 21513.56
528.8777, 21501.35
529.3599, 21475.87
529.8420, 21435.25
530.3241, 21403.69
530.8062, 21407.12
531.2883, 21424.21
531.7704, 21430.77
532.2526, 21410.52
532.7347, 21392.17
533.2168, 21384.19
533.6989, 21384.58
534.1810, 21388.26
534.6631, 21400.82
535.1453, 21410.23
535.6274, 21410.31
536.1095, 21400.61
536.5916, 21403.29
537.0737, 21424.41
537.5558, 21448.67
538.0380, 21465.42
538.5201, 21473.50
539.0022, 21481.13
539.4843, 21486.79
539.9664, 21495.96
540.4485, 21520.38
540.9307, 21557.68
541.4128, 21589.64
541.8949, 21606.50
542.3770, 21617.38
542.8591, 21637.99
543.3412, 21666.34
543.8234, 21694.41
544.3055, 21720.87
544.7876, 21742.13
545.2697, 21751.00
545.7518, 21745.56
546.2339, 21744.34
546.7161, 21761.14
547.1982, 21783.91
547.6803, 21802.37
548.1624, 21811.15
548.6445, 21820.18
549.1266, 21833.95
549.6088, 21849.14
550.0909, 21858.33
550.5730, 21857.20
551.0551, 21858.58
551.5372, 21866.47
552.0193, 21880.55
552.5015, 21895.75
552.9836, 21912.79
553.4657, 21928.76
553.9478, 21939.49
554.4299, 21945.79
554.9120, 21958.88
555.3942, 21979.74
555.8763, 22002.46
556.3584, 22017.92
556.8405, 22029.46
557.3226, 22046.56
557.8047, 22074.43
558.2869, 22104.83
558.7690, 22134.64
559.2511, 22161.34
559.7332, 22178.25
560.2154, 22173.63
560.6975, 22166.38
561.1796, 22166.35
561.6617, 22174.47
562.1439, 22184.14
562.6260, 22197.29
563.1081, 22209.70
563.5902, 22218.78
564.0723, 22220.72
564.5544, 22227.76
565.0366, 22240.33
565.5187, 22257.44
566.0008, 22277.83
566.4829, 22301.83
566.9650, 22327.43
567.4471, 22355.12
567.9293, 22382.70
568.4114, 22402.74
568.8935, 22415.63
569.3756, 22428.57
569.8577, 22446.23
570.3398, 22466.15
570.8220, 22483.50
571.3041, 22498.44
571.7862, 22512.58
572.2683, 22526.60
572.7504, 22541.01
573.2325, 22555.87
573.7147, 22569.42
574.1968, 22588.77
574.6789, 22624.07
575.1610, 22664.37
575.6431, 22695.92
576.1252, 22702.77
576.6074, 22717.43
577.0895, 22747.40
577.5716, 22788.88
578.0537, 22827.09
578.5358, 22859.70
579.0179, 22894.61
579.5001, 22935.20
579.9822, 22981.40
580.4643, 23026.81
580.9464, 23070.69
581.4285, 23117.59
581.9106, 23176.63
582.3928, 23242.75
582.8749, 23298.26
583.3570, 23340.18
583.8391, 23375.81
584.3212, 23405.60
584.8033, 23435.58
585.2855, 23476.33
585.7676, 23537.01
586.2497, 23603.66
586.7318, 23685.65
587.2139, 23770.18
587.6960, 23820.64
588.1782, 23800.33
588.6603, 23770.88
