##NAMES=Sperrylite
##RRUFFID=R070214
##IDEAL CHEMISTRY=PtAs_2_
##LOCALITY=Vermilion Mine, Denison Township, Sudbury District, Ontario, Canada
##OWNER=RRUFF
##SOURCE=Michael Scott
##DESCRIPTION=Loose aggregate of bright silver cubes, some with octahedral modifications
##STATUS=The identification of this mineral has been confirmed only by single crystal X-ray diffraction.
##URL=rruff.info/R070214
127.2869, 1388.906
127.7690, 1445.847
128.2512, 1485.629
128.7333, 1533.729
129.2154, 1577.476
129.6975, 1648.827
130.1796, 1756.423
130.6617, 1892.916
131.1439, 2053.038
131.6260, 2237.265
132.1081, 2438.807
132.5902, 2603.994
133.0723, 2712.705
133.5544, 2802.563
134.0366, 2878.884
134.5187, 2940.530
135.0008, 2984.449
135.4829, 3008.353
135.9650, 3012.485
136.4471, 2997.381
136.9293, 2942.656
137.4114, 2891.557
137.8935, 2856.553
138.3756, 2835.652
138.8577, 2823.889
139.3398, 2820.814
139.8220, 2826.649
140.3041, 2799.052
140.7862, 2736.346
141.2683, 2651.022
141.7504, 2525.485
142.2325, 2375.400
142.7147, 2248.687
143.1968, 2182.083
143.6789, 2179.249
144.1610, 2193.829
144.6431, 2220.027
145.1252, 2265.718
145.6074, 2338.760
146.0895, 2437.546
146.5716, 2552.460
147.0537, 2680.590
147.5358, 2821.534
148.0179, 2948.229
148.5001, 3060.668
148.9822, 3159.274
149.4643, 3239.294
149.9464, 3302.062
150.4285, 3363.893
150.9106, 3443.193
151.3928, 3536.061
151.8749, 3607.342
152.3570, 3673.892
152.8391, 3706.442
153.3212, 3674.777
153.8033, 3576.005
154.2855, 3435.030
154.7676, 3251.620
155.2497, 3035.922
155.7318, 2834.592
156.2139, 2649.601
156.6960, 2485.019
157.1782, 2341.968
157.6603, 2219.005
158.1424, 2128.669
158.6245, 2094.478
159.1066, 2102.533
159.5887, 2125.645
160.0709, 2167.881
160.5530, 2217.451
161.0351, 2258.755
161.5172, 2291.761
161.9993, 2314.501
162.4814, 2325.883
162.9636, 2326.243
163.4457, 2312.639
163.9278, 2277.574
164.4099, 2229.635
164.8920, 2182.539
165.3741, 2134.445
165.8563, 2092.903
166.3384, 2071.490
166.8205, 2058.953
167.3026, 2035.395
167.7847, 1987.242
168.2668, 1924.614
168.7490, 1867.353
169.2311, 1812.648
169.7132, 1770.101
170.1953, 1747.647
170.6774, 1738.839
171.1595, 1735.065
171.6417, 1734.917
172.1238, 1736.246
172.6059, 1734.249
173.0880, 1730.058
173.5701, 1719.615
174.0522, 1700.231
174.5344, 1674.463
175.0165, 1644.896
175.4986, 1609.023
175.9807, 1572.280
176.4628, 1551.309
176.9449, 1556.309
177.4271, 1558.539
177.9092, 1545.539
178.3913, 1523.894
178.8734, 1502.234
179.3555, 1484.403
179.8376, 1469.333
180.3197, 1453.114
180.8019, 1432.811
181.2840, 1416.960
181.7661, 1410.570
182.2482, 1408.633
182.7303, 1404.987
183.2124, 1396.420
183.6946, 1384.613
184.1767, 1374.120
184.6588, 1364.610
185.1409, 1357.394
185.6230, 1351.784
186.1051, 1348.556
186.5873, 1349.321
187.0694, 1355.438
187.5515, 1364.260
188.0336, 1369.119
188.5157, 1369.932
188.9978, 1366.134
189.4800, 1358.506
189.9621, 1346.855
190.4442, 1329.172
190.9263, 1304.050
191.4084, 1276.284
191.8905, 1257.177
192.3727, 1247.420
192.8548, 1246.366
193.3369, 1259.475
193.8190, 1276.952
194.3011, 1288.289
194.7832, 1289.203
195.2654, 1285.905
195.7475, 1293.114
196.2296, 1321.694
196.7117, 1340.167
197.1938, 1339.693
197.6759, 1331.876
198.1581, 1326.858
198.6402, 1328.029
199.1223, 1331.331
199.6044, 1328.236
200.0865, 1311.959
200.5686, 1303.158
201.0508, 1306.361
201.5329, 1314.493
202.0150, 1321.828
202.4971, 1326.921
202.9792, 1332.834
203.4613, 1345.929
203.9435, 1373.343
204.4256, 1391.413
204.9077, 1394.924
205.3898, 1393.283
205.8719, 1389.000
206.3540, 1384.240
206.8362, 1384.916
207.3183, 1400.688
207.8004, 1438.413
208.2825, 1473.923
208.7646, 1501.162
209.2467, 1530.888
209.7289, 1574.201
210.2110, 1629.410
210.6931, 1682.552
211.1752, 1718.844
211.6573, 1738.803
212.1395, 1737.781
212.6216, 1710.970
213.1037, 1669.288
213.5858, 1612.466
214.0679, 1543.951
214.5500, 1471.141
215.0322, 1399.204
215.5143, 1326.283
215.9964, 1268.610
216.4785, 1232.586
216.9606, 1205.311
217.4427, 1184.169
217.9249, 1167.989
218.4070, 1155.319
218.8891, 1144.594
219.3712, 1135.689
219.8533, 1133.475
220.3354, 1147.452
220.8176, 1159.168
221.2997, 1163.286
221.7818, 1161.258
222.2639, 1157.440
222.7460, 1155.661
223.2281, 1154.833
223.7103, 1143.371
224.1924, 1109.087
224.6745, 1076.666
225.1566, 1051.744
225.6387, 1031.736
226.1208, 1011.671
226.6030, 988.3140
227.0851, 963.8477
227.5672, 947.5428
228.0493, 942.9817
228.5314, 942.7286
229.0135, 949.9461
229.4957, 958.8462
229.9778, 962.1973
230.4599, 956.5717
230.9420, 946.0266
231.4241, 940.8611
231.9062, 945.5712
232.3884, 948.0930
232.8705, 944.0276
233.3526, 938.9666
233.8347, 939.4523
234.3168, 947.3348
234.7989, 956.2922
235.2811, 953.8460
235.7632, 931.7619
236.2453, 917.9626
236.7274, 921.4285
237.2095, 928.1647
237.6916, 927.2921
238.1738, 917.4784
238.6559, 907.2371
239.1380, 908.4545
239.6201, 925.3712
240.1022, 938.0681
240.5843, 944.7056
241.0665, 947.9325
241.5486, 947.1717
242.0307, 943.4293
242.5128, 940.0131
242.9949, 941.0908
243.4770, 947.3797
243.9592, 949.4272
244.4413, 942.4063
244.9234, 935.4774
245.4055, 931.6467
245.8876, 930.6861
246.3697, 931.4368
246.8519, 933.7744
247.3340, 937.3171
247.8161, 938.5443
248.2982, 936.9898
248.7803, 933.4196
249.2624, 924.3831
249.7446, 914.2922
250.2267, 910.8082
250.7088, 919.5731
251.1909, 935.8817
251.6730, 945.5590
252.1551, 944.4800
252.6373, 945.1806
253.1194, 953.1174
253.6015, 964.1023
254.0836, 974.3217
254.5657, 982.8000
255.0478, 988.4974
255.5300, 987.8144
256.0121, 977.6971
256.4942, 972.8962
256.9763, 984.5171
257.4584, 999.1706
257.9406, 1005.366
258.4227, 1000.377
258.9048, 995.8638
259.3869, 1006.868
259.8690, 1034.340
260.3511, 1055.682
260.8333, 1065.178
261.3154, 1068.112
261.7975, 1066.000
262.2796, 1059.623
262.7617, 1055.691
263.2438, 1063.142
263.7260, 1078.874
264.2081, 1084.071
264.6902, 1073.106
265.1723, 1056.610
265.6544, 1041.682
266.1365, 1027.923
266.6187, 1014.267
267.1008, 998.4001
267.5829, 982.6064
268.0650, 971.7836
268.5471, 966.4695
269.0292, 964.7606
269.5114, 968.5336
269.9935, 974.8370
270.4756, 978.2546
270.9577, 972.4810
271.4398, 967.2787
271.9219, 974.6918
272.4041, 995.0366
272.8862, 1018.409
273.3683, 1040.770
273.8504, 1062.866
274.3325, 1087.224
274.8146, 1119.115
275.2968, 1143.898
275.7789, 1148.486
276.2610, 1136.731
276.7431, 1125.579
277.2252, 1123.798
277.7073, 1121.057
278.1895, 1098.198
278.6716, 1051.963
279.1537, 1006.519
279.6358, 967.8740
280.1179, 936.3104
280.6000, 912.6723
281.0822, 897.1436
281.5643, 889.1126
282.0464, 890.5109
282.5285, 902.3760
283.0106, 910.2407
283.4927, 912.5275
283.9749, 910.1026
284.4570, 900.3665
284.9391, 884.2376
285.4212, 871.6837
285.9033, 871.6628
286.3854, 884.1671
286.8676, 893.9192
287.3497, 900.0479
287.8318, 904.5761
288.3139, 908.4409
288.7960, 911.5145
289.2781, 912.7249
289.7603, 911.0022
290.2424, 907.7560
290.7245, 909.0976
291.2066, 922.8461
291.6887, 931.2518
292.1708, 929.7383
292.6530, 922.1119
293.1351, 912.4102
293.6172, 902.1215
294.0993, 891.5960
294.5814, 881.5142
295.0635, 871.9872
295.5457, 862.7084
296.0278, 854.2994
296.5099, 845.7351
296.9920, 834.6266
297.4741, 821.7208
297.9562, 811.8848
298.4384, 811.2324
298.9205, 822.1114
299.4026, 825.6766
299.8847, 815.7667
300.3668, 804.9482
300.8489, 795.3148
301.3311, 788.1556
301.8131, 785.4097
302.2953, 788.8589
302.7774, 797.1798
303.2595, 803.9565
303.7416, 811.5219
304.2237, 813.4973
304.7058, 803.0110
305.1880, 789.3355
305.6701, 783.5718
306.1522, 790.0515
306.6343, 801.0883
307.1164, 803.1083
307.5985, 792.8240
308.0807, 785.7639
308.5628, 788.6295
309.0449, 792.8169
309.5270, 792.7169
310.0091, 788.0740
310.4912, 783.4317
310.9734, 783.8901
311.4555, 788.7437
311.9376, 789.5686
312.4197, 782.2761
312.9018, 776.0363
313.3839, 778.2191
313.8661, 785.9262
314.3482, 791.5985
314.8303, 791.5356
315.3124, 787.4956
315.7945, 781.1581
316.2766, 771.6382
316.7588, 765.1074
317.2409, 766.6517
317.7230, 772.9216
318.2051, 778.2360
318.6872, 781.0080
319.1693, 784.3439
319.6515, 793.7647
320.1336, 806.7674
320.6157, 811.1790
321.0978, 800.4082
321.5799, 783.1103
322.0620, 772.8358
322.5442, 770.0485
323.0263, 768.7150
323.5084, 767.7790
323.9905, 767.0716
324.4726, 766.5676
324.9547, 766.2543
325.4369, 765.5345
325.9190, 763.7313
326.4011, 760.7106
326.8832, 757.9828
327.3653, 752.1970
327.8474, 749.6958
328.3296, 757.0924
328.8117, 771.2392
329.2938, 782.2592
329.7759, 783.9081
330.2580, 778.8650
330.7401, 779.2318
331.2223, 795.1324
331.7044, 803.8792
332.1865, 796.6085
332.6686, 784.0333
333.1507, 777.6956
333.6328, 781.0715
334.1150, 789.7119
334.5971, 797.9514
335.0792, 808.2321
335.5613, 810.9305
336.0434, 796.6060
336.5255, 783.9326
337.0077, 784.1668
337.4898, 795.2118
337.9719, 807.3956
338.4540, 812.6323
338.9361, 812.0674
339.4182, 816.3553
339.9004, 829.4046
340.3825, 841.6131
340.8646, 853.1263
341.3467, 861.3196
341.8288, 861.9570
342.3109, 852.6877
342.7931, 839.1348
343.2752, 830.6094
343.7573, 828.3892
344.2394, 821.7310
344.7215, 803.5284
345.2036, 783.4872
345.6858, 768.9203
346.1679, 760.1709
346.6500, 754.1854
347.1321, 749.2314
347.6142, 745.5618
348.0963, 744.6973
348.5785, 747.9916
349.0606, 750.3009
349.5427, 745.4824
350.0248, 736.1500
350.5069, 730.1965
350.9890, 730.1240
351.4712, 733.0189
351.9533, 739.3077
352.4354, 747.5892
352.9175, 749.8546
353.3996, 740.6196
353.8817, 725.0190
354.3639, 717.0567
354.8460, 720.3636
355.3281, 721.8921
355.8102, 716.3124
356.2923, 708.5494
356.7744, 705.1359
357.2566, 707.2464
357.7387, 710.3767
358.2208, 709.0263
358.7029, 701.5145
359.1850, 699.1942
359.6671, 705.6204
360.1493, 712.8713
360.6314, 718.6119
361.1135, 722.3480
361.5956, 723.4812
362.0777, 721.4434
362.5598, 717.3027
363.0420, 715.1051
363.5241, 717.1010
364.0062, 717.3928
364.4883, 715.4850
364.9704, 711.7001
365.4525, 704.6651
365.9347, 694.7722
366.4168, 686.5739
366.8989, 686.4374
367.3810, 694.9756
367.8631, 701.3690
368.3452, 704.7595
368.8274, 706.3367
369.3095, 705.0073
369.7916, 702.4752
370.2737, 702.7830
370.7558, 708.6652
371.2379, 717.7682
371.7201, 727.9268
372.2022, 739.8376
372.6843, 745.6051
373.1664, 737.6080
373.6485, 723.9382
374.1306, 717.2537
374.6128, 719.4894
375.0949, 723.0683
375.5770, 723.5056
376.0591, 722.6144
376.5412, 725.1573
377.0233, 732.6699
377.5055, 739.1180
377.9876, 737.5289
378.4697, 726.8399
378.9518, 718.9495
379.4339, 716.4348
379.9160, 714.5713
380.3982, 710.1368
380.8803, 703.9951
381.3624, 698.8766
381.8445, 696.2388
382.3266, 695.6814
382.8087, 696.0726
383.2909, 702.6161
383.7730, 702.8708
384.2551, 689.4916
384.7372, 674.4304
385.2193, 668.4977
385.7014, 672.6721
386.1836, 679.2615
386.6657, 679.8819
387.1478, 674.0750
387.6299, 671.1360
388.1120, 673.4930
388.5941, 676.0521
389.0763, 679.9075
389.5584, 682.2409
390.0405, 677.5931
390.5226, 661.9197
391.0047, 643.2872
391.4868, 634.7929
391.9690, 637.3765
392.4511, 641.7275
392.9332, 647.8115
393.4153, 652.5515
393.8974, 651.7775
394.3795, 645.5807
394.8617, 641.6198
395.3438, 646.0155
395.8259, 654.2203
396.3080, 658.8217
396.7901, 659.1030
397.2722, 657.0905
397.7544, 653.4930
398.2365, 648.6924
398.7186, 644.7719
399.2007, 639.7426
399.6828, 637.7850
400.1649, 642.7173
400.6471, 651.2838
401.1292, 658.1955
401.6113, 661.7427
402.0934, 663.3331
402.5755, 665.1296
403.0576, 667.7183
403.5398, 668.5477
404.0219, 667.8555
404.5040, 665.4700
404.9861, 659.7505
405.4682, 652.2224
405.9503, 646.5799
406.4325, 645.4427
406.9146, 647.2592
407.3967, 646.0165
407.8788, 638.3795
408.3609, 634.6621
408.8430, 639.6330
409.3252, 647.1101
409.8073, 652.8204
410.2894, 655.9684
410.7715, 657.3759
411.2536, 656.5067
411.7357, 654.1237
412.2179, 654.5583
412.7000, 659.0591
413.1821, 664.0389
413.6642, 666.9865
414.1463, 668.6467
414.6284, 670.4732
415.1106, 674.7411
415.5927, 676.8062
416.0748, 671.5281
416.5569, 661.0658
417.0390, 651.6085
417.5211, 644.9023
418.0033, 641.4385
418.4854, 642.7479
418.9675, 651.1805
419.4496, 656.2966
419.9317, 654.8137
420.4138, 652.2887
420.8960, 652.6661
421.3781, 655.4379
421.8602, 658.1730
422.3423, 659.4819
422.8244, 659.1435
423.3065, 655.8228
423.7887, 643.7692
424.2708, 637.9773
424.7529, 645.9042
425.2350, 656.1344
425.7171, 659.5970
426.1992, 654.9743
426.6814, 646.6050
427.1635, 636.2842
427.6456, 624.5716
428.1277, 620.0560
428.6098, 626.6815
429.0919, 632.9573
429.5741, 629.5315
430.0562, 622.8769
430.5383, 624.3892
431.0204, 642.0889
431.5025, 656.8683
431.9846, 645.0018
432.4668, 615.7053
432.9489, 604.5958
433.4310, 624.0967
433.9131, 652.7391
434.3952, 665.7780
434.8773, 661.5319
435.3595, 656.4883
435.8416, 652.0193
436.3237, 646.4615
436.8058, 635.0052
437.2879, 621.5417
437.7701, 616.9353
438.2522, 627.3905
438.7343, 645.8654
439.2164, 654.0997
439.6985, 644.1815
440.1806, 637.8629
440.6628, 639.2321
441.1449, 640.8854
441.6270, 635.9654
442.1091, 626.2134
442.5912, 619.8507
443.0733, 624.2343
443.5555, 636.3981
444.0376, 645.1199
444.5197, 650.0862
445.0018, 652.4688
445.4839, 650.3233
445.9660, 647.0035
446.4482, 646.3494
446.9303, 649.3032
447.4124, 651.1363
447.8945, 648.0284
448.3766, 641.9233
448.8587, 636.3036
449.3409, 631.4930
449.8230, 628.8178
450.3051, 629.9210
450.7872, 634.3857
451.2693, 637.4293
451.7514, 638.2883
452.2336, 638.7379
452.7157, 638.2742
453.1978, 638.1348
453.6799, 641.1058
454.1620, 647.6485
454.6441, 653.7012
455.1263, 653.3741
455.6084, 644.9029
456.0905, 640.0704
456.5726, 642.6274
457.0547, 645.1716
457.5368, 645.8333
458.0190, 644.9282
458.5011, 643.0672
458.9832, 640.4025
459.4653, 637.3635
459.9474, 634.4349
460.4295, 631.6250
460.9117, 628.8900
461.3938, 625.2422
461.8759, 623.0776
462.3580, 625.7263
462.8401, 632.1477
463.3222, 636.8331
463.8044, 636.7695
464.2865, 635.5609
464.7686, 637.4583
465.2507, 641.2870
465.7328, 641.5288
466.2149, 635.1617
466.6971, 626.2148
467.1792, 622.7827
467.6613, 628.9451
468.1434, 632.1625
468.6255, 629.8679
469.1076, 626.9203
469.5898, 626.8356
470.0719, 628.8181
470.5540, 629.6599
471.0361, 627.0878
471.5182, 622.6883
472.0003, 621.3856
472.4825, 624.6393
472.9646, 627.0314
473.4467, 628.0717
473.9288, 627.3358
474.4109, 622.6909
474.8930, 614.8745
475.3752, 609.7773
475.8573, 614.1115
476.3394, 621.9905
476.8215, 621.7898
477.3036, 613.1769
477.7857, 607.1313
478.2679, 610.5476
478.7500, 618.8323
479.2321, 620.1913
479.7142, 611.1278
480.1963, 605.0034
480.6784, 605.4145
481.1606, 609.1309
481.6427, 614.8884
482.1248, 621.5153
482.6069, 625.6100
483.0890, 624.1287
483.5711, 618.5757
484.0533, 617.4618
484.5354, 623.7300
485.0175, 629.7634
485.4996, 636.1741
485.9817, 640.7800
486.4638, 641.0662
486.9460, 637.1835
487.4281, 632.3970
487.9102, 628.7886
488.3923, 626.2546
488.8744, 624.1525
489.3565, 622.1888
489.8387, 622.5728
490.3208, 628.3185
490.8029, 636.1552
491.2850, 638.9863
491.7671, 634.8007
492.2492, 631.5408
492.7314, 631.8040
493.2135, 634.4376
493.6956, 639.5375
494.1777, 646.3411
494.6598, 651.4607
495.1419, 652.3723
495.6241, 649.3286
496.1062, 643.7213
496.5883, 629.7711
497.0704, 621.6423
497.5525, 624.1147
498.0346, 630.2836
498.5168, 635.4615
498.9989, 638.5840
499.4810, 639.8011
499.9631, 638.0872
500.4452, 634.6074
500.9273, 634.3150
501.4095, 638.1171
501.8916, 641.2296
502.3737, 640.9103
502.8558, 639.0814
503.3379, 639.3422
503.8200, 642.7832
504.3022, 643.9174
504.7843, 637.4469
505.2664, 629.4456
505.7485, 628.2304
506.2306, 633.4965
506.7127, 637.9886
507.1949, 636.6660
507.6770, 630.9967
508.1591, 627.4203
508.6412, 627.4487
509.1233, 627.4480
509.6054, 628.6501
510.0876, 628.6722
510.5697, 623.5696
511.0518, 614.8909
511.5339, 609.8259
512.0161, 615.4898
512.4982, 627.2218
512.9803, 631.8946
513.4624, 628.4687
513.9445, 623.9490
514.4266, 619.9894
514.9088, 616.7482
515.3909, 614.1504
515.8730, 612.1184
516.3551, 611.4894
516.8372, 613.8788
517.3193, 616.7701
517.8015, 616.8550
518.2836, 615.0353
518.7657, 616.2125
519.2478, 623.5253
519.7299, 632.9017
520.2120, 634.0524
520.6942, 619.3065
521.1763, 611.0149
521.6584, 612.7093
522.1405, 616.7383
522.6226, 620.5898
523.1047, 623.3455
523.5869, 623.4821
524.0690, 619.2874
524.5511, 614.1390
525.0332, 614.1666
525.5153, 619.3335
525.9974, 623.9126
526.4796, 626.9144
526.9617, 628.3445
527.4438, 628.6826
527.9259, 627.8428
528.4080, 623.2802
528.8901, 608.6647
529.3723, 596.1176
529.8544, 593.6317
530.3365, 598.2173
530.8186, 605.3994
531.3007, 613.4412
531.7828, 618.9000
532.2650, 615.6108
532.7471, 600.7231
533.2292, 594.9662
533.7113, 608.9606
534.1934, 620.0551
534.6755, 618.3679
535.1577, 610.9131
535.6398, 607.9346
536.1219, 612.7477
536.6040, 618.4143
537.0861, 617.9543
537.5682, 613.1355
538.0504, 609.7679
538.5325, 608.7026
539.0146, 607.8574
539.4967, 605.9712
539.9788, 603.0858
540.4609, 599.4674
540.9431, 589.8144
541.4252, 586.6392
541.9073, 600.0080
542.3894, 616.1022
542.8715, 620.7061
543.3536, 613.4822
543.8358, 603.9434
544.3179, 599.5131
544.8000, 599.0355
545.2821, 597.1466
545.7642, 592.5541
546.2463, 590.1376
546.7285, 594.0344
547.2106, 598.4105
547.6927, 597.9871
548.1748, 593.0751
548.6569, 589.3090
549.1390, 590.7897
549.6211, 593.4894
550.1032, 591.5348
550.5853, 586.4285
551.0674, 586.0717
551.5496, 594.4004
552.0317, 604.7065
552.5138, 605.3101
552.9959, 590.7170
553.4780, 585.1774
553.9601, 596.6373
554.4423, 607.2721
554.9244, 611.1985
555.4065, 609.1910
555.8886, 601.3978
556.3707, 587.6020
556.8528, 575.0858
557.3350, 574.3381
557.8171, 583.7797
558.2992, 590.6818
558.7813, 593.8530
559.2634, 594.4490
559.7455, 591.3971
560.2277, 586.5648
560.7098, 585.8528
561.1919, 591.6735
561.6740, 597.4505
562.1561, 601.8580
562.6382, 604.7656
563.1204, 605.3673
563.6025, 604.0886
564.0846, 603.2450
564.5667, 604.8881
565.0488, 607.6194
565.5309, 605.0827
566.0131, 593.4333
566.4952, 586.2647
566.9773, 592.2513
567.4594, 598.2957
567.9415, 592.7659
568.4236, 578.7761
568.9058, 571.9760
569.3879, 585.8698
569.8700, 603.5923
570.3521, 607.7929
570.8342, 601.3842
571.3163, 592.7662
571.7985, 584.0430
572.2806, 578.5825
572.7627, 581.3915
573.2448, 593.8719
573.7269, 601.4024
574.2090, 601.2162
574.6912, 599.7427
575.1733, 597.8649
575.6554, 595.9000
576.1375, 593.7538
576.6196, 591.5296
577.1017, 590.2189
577.5839, 591.4822
578.0660, 594.3680
578.5481, 595.6537
579.0302, 595.2034
579.5123, 593.6335
579.9944, 589.8516
580.4766, 586.3170
580.9587, 589.0815
581.4408, 600.4587
581.9229, 607.4256
582.4050, 604.0753
582.8871, 599.4749
583.3693, 601.2927
583.8514, 606.4616
584.3335, 606.2342
584.8156, 596.5358
585.2977, 584.8688
585.7798, 584.9970
586.2620, 598.4813
586.7441, 604.5986
587.2262, 597.1150
587.7083, 590.9363
588.1904, 599.4962
588.6725, 613.6389
589.1547, 617.3770
589.6368, 604.7404
590.1189, 591.9397
590.6010, 585.0167
591.0831, 583.2554
591.5652, 587.9239
592.0474, 597.6911
592.5295, 606.8533
593.0116, 611.8809
593.4937, 612.8084
593.9758, 608.7825
594.4579, 595.1362
594.9401, 587.6949
595.4222, 595.6217
595.9043, 602.9333
596.3864, 600.1172
596.8685, 590.3383
597.3506, 582.4067
597.8328, 580.0096
598.3149, 579.6459
598.7970, 577.4169
599.2791, 574.8084
599.7612, 577.1932
600.2433, 585.6395
600.7255, 591.9701
601.2076, 588.1364
601.6897, 576.0803
602.1718, 571.7377
602.6539, 583.2626
603.1360, 591.5524
603.6182, 593.2111
604.1003, 592.7402
604.5824, 594.9788
605.0645, 598.6561
605.5466, 596.8734
606.0287, 581.5245
606.5109, 564.2108
606.9930, 565.4202
607.4751, 582.5627
607.9572, 595.0869
608.4393, 597.8830
608.9214, 594.9151
609.4036, 588.5745
609.8857, 578.8518
610.3678, 574.7233
610.8499, 580.9572
611.3320, 586.1878
611.8141, 586.2134
612.2963, 584.9850
612.7784, 587.3015
613.2605, 593.0711
613.7426, 597.6183
614.2247, 596.2761
614.7068, 592.1523
615.1890, 595.1401
615.6711, 605.8680
616.1532, 608.3632
616.6353, 594.6083
617.1174, 577.1211
617.5995, 569.9189
618.0817, 573.2502
618.5638, 577.1446
619.0459, 585.2648
619.5280, 589.2291
620.0101, 579.5188
620.4922, 566.9428
620.9744, 566.5917
621.4565, 580.1620
621.9386, 596.1707
622.4207, 605.0182
622.9028, 607.7498
623.3849, 607.4441
623.8671, 603.3973
