##NAMES=Spertiniite
##RRUFFID=R100193
##IDEAL CHEMISTRY=Cu^2+^(OH)_2_
##LOCALITY=Jeffrey mine, Asbestos, Shipton Township, Richmond County, Quebec, Canada
##OWNER=RRUFF
##SOURCE=Rob Lavinsky
##DESCRIPTION=Blue botryoidal aggregates forming coatings on the rock. Sample is from F. Spertini
##STATUS=The identification of this mineral has been confirmed by X-ray diffraction.
##URL=rruff.info/R100193
181.2433, 21.13638
181.7255, 21.28193
182.2076, 21.29485
182.6897, 21.02015
183.1718, 20.90696
183.6539, 21.13223
184.1360, 21.50078
184.6181, 21.83375
185.1003, 22.04882
185.5824, 22.14871
186.0645, 22.13034
186.5466, 21.72236
187.0287, 21.53834
187.5108, 21.96720
187.9930, 22.58115
188.4751, 22.71811
188.9572, 21.96516
189.4393, 20.60456
189.9214, 20.25146
190.4035, 22.24545
190.8857, 23.75800
191.3678, 24.09241
191.8499, 23.59911
192.3320, 22.90258
192.8141, 22.35971
193.2962, 21.94219
193.7784, 21.41842
194.2605, 20.35547
194.7426, 19.65510
195.2247, 19.88358
195.7068, 20.77259
196.1889, 21.55740
196.6711, 21.77616
197.1532, 21.49935
197.6353, 21.22278
198.1174, 20.97756
198.5995, 20.70380
199.0816, 20.23105
199.5638, 19.62067
200.0459, 19.30515
200.5280, 19.65460
201.0101, 20.47417
201.4922, 21.10617
201.9743, 21.51142
202.4565, 21.74471
202.9386, 21.72545
203.4207, 21.44079
203.9028, 21.36584
204.3849, 22.02946
204.8670, 22.97228
205.3492, 23.52814
205.8313, 23.49976
206.3134, 23.14392
206.7955, 22.65053
207.2776, 21.93017
207.7597, 21.49343
208.2419, 21.81465
208.7240, 22.45138
209.2061, 23.03801
209.6882, 23.49518
210.1703, 23.77784
210.6524, 23.84567
211.1346, 23.77647
211.6167, 23.25480
212.0988, 21.56390
212.5809, 19.68607
213.0630, 18.61403
213.5451, 18.79688
214.0273, 19.78367
214.5094, 20.63222
214.9915, 21.48503
215.4736, 21.88380
215.9557, 21.58966
216.4378, 20.95928
216.9200, 20.26091
217.4021, 19.60530
217.8842, 19.08476
218.3663, 18.98514
218.8484, 19.62307
219.3305, 20.26289
219.8127, 20.75407
220.2948, 21.22724
220.7769, 21.98595
221.2590, 23.16981
221.7411, 24.40184
222.2232, 24.54193
222.7054, 21.82630
223.1875, 20.10523
223.6696, 20.12999
224.1517, 21.06764
224.6338, 22.09907
225.1159, 22.86801
225.5980, 23.30393
226.0802, 23.18337
226.5623, 21.59369
227.0444, 20.52868
227.5265, 20.48135
228.0086, 20.94000
228.4907, 21.25097
228.9729, 21.13429
229.4550, 20.77334
229.9371, 20.64841
230.4192, 20.94823
230.9013, 21.17298
231.3834, 21.40827
231.8656, 21.48711
232.3477, 20.96964
232.8298, 19.57744
233.3119, 17.96075
233.7940, 17.69657
234.2761, 19.23419
234.7583, 20.65565
235.2404, 21.52116
235.7225, 21.95544
236.2046, 22.14583
236.6867, 22.11875
237.1688, 21.95523
237.6510, 21.79571
238.1331, 21.66214
238.6152, 21.44764
239.0973, 20.90153
239.5794, 20.26028
240.0615, 20.07697
240.5437, 20.58965
241.0258, 21.42002
241.5079, 22.17314
241.9900, 22.87667
242.4721, 23.29053
242.9542, 23.19691
243.4364, 22.73413
243.9185, 22.18731
244.4006, 21.47204
244.8827, 20.95718
245.3648, 21.20484
245.8469, 22.09831
246.3290, 22.73947
246.8112, 22.35047
247.2933, 21.33917
247.7754, 21.03794
248.2575, 21.96539
248.7396, 23.03708
249.2217, 23.41706
249.7039, 23.24167
250.1860, 22.93170
250.6681, 22.66376
251.1502, 22.43307
251.6323, 22.21814
252.1144, 22.02137
252.5966, 21.83877
253.0787, 21.62048
253.5608, 21.40851
254.0429, 21.30540
254.5250, 21.46848
255.0071, 21.79164
255.4893, 21.81663
255.9714, 21.28324
256.4535, 20.87299
256.9356, 20.93384
257.4177, 21.29203
257.8998, 21.68331
258.3820, 22.00662
258.8641, 22.23844
259.3462, 22.26142
259.8283, 21.87970
260.3104, 21.61423
260.7925, 21.85184
261.2747, 22.22930
261.7568, 22.15229
262.2389, 21.18151
262.7210, 19.83923
263.2031, 19.77944
263.6852, 22.08766
264.1674, 23.83743
264.6495, 24.22985
265.1316, 23.85417
265.6137, 23.22530
266.0958, 22.54346
266.5779, 21.92060
267.0601, 21.64237
267.5422, 21.86701
268.0243, 22.18443
268.5064, 22.70243
268.9885, 23.18235
269.4706, 23.38100
269.9528, 23.21837
270.4349, 22.84793
270.9170, 22.55031
271.3991, 22.33873
271.8812, 22.18705
272.3633, 22.10205
272.8455, 22.05823
273.3276, 22.04440
273.8097, 22.05452
274.2918, 22.07885
274.7739, 22.07950
275.2560, 21.93404
275.7382, 22.04764
276.2202, 22.89907
276.7024, 23.60373
277.1845, 23.39505
277.6666, 22.29074
278.1487, 21.05953
278.6308, 20.64990
279.1129, 21.31763
279.5951, 21.95589
280.0772, 22.77995
280.5593, 23.40551
281.0414, 23.50853
281.5235, 23.17003
282.0056, 22.77969
282.4878, 22.73509
282.9699, 23.12108
283.4520, 23.22673
283.9341, 22.74532
284.4162, 22.32300
284.8983, 22.20308
285.3805, 22.36535
285.8626, 22.72330
286.3447, 23.25727
286.8268, 23.95602
287.3089, 24.20057
287.7910, 23.46227
288.2732, 22.87484
288.7553, 23.04214
289.2374, 23.58214
289.7195, 23.65349
290.2016, 22.68531
290.6837, 20.97366
291.1659, 20.17789
291.6480, 21.30439
292.1301, 22.16825
292.6122, 22.26096
293.0943, 21.91823
293.5764, 21.60919
294.0586, 21.54619
294.5407, 21.65849
295.0228, 21.75510
295.5049, 22.01236
295.9870, 22.02513
296.4691, 21.50413
296.9513, 20.84988
297.4334, 20.48322
297.9155, 20.54158
298.3976, 20.88994
298.8797, 21.32406
299.3618, 22.00879
299.8440, 22.44566
300.3261, 22.51400
300.8082, 22.41429
301.2903, 22.26551
301.7724, 22.10616
302.2545, 21.97283
302.7367, 21.91189
303.2188, 21.94714
303.7009, 21.97134
304.1830, 22.04509
304.6651, 22.06141
305.1472, 21.86433
305.6294, 21.50513
306.1115, 21.25889
306.5936, 21.40470
307.0757, 21.97950
307.5578, 22.17327
308.0399, 21.59389
308.5221, 21.09271
309.0042, 21.13333
309.4863, 21.56853
309.9684, 21.96690
310.4505, 22.04644
310.9326, 21.85930
311.4148, 21.76379
311.8969, 21.59552
312.3790, 21.68628
312.8611, 22.50475
313.3432, 23.56561
313.8253, 24.04284
314.3075, 23.53469
314.7896, 22.39105
315.2717, 21.47860
315.7538, 20.42274
316.2359, 20.15331
316.7180, 21.66204
317.2001, 23.59376
317.6823, 24.30465
318.1644, 23.34738
318.6465, 21.72730
319.1286, 20.94872
319.6107, 21.49799
320.0928, 21.80522
320.5750, 21.71515
321.0571, 21.49937
321.5392, 21.33909
322.0213, 21.26589
322.5034, 21.24698
322.9855, 21.26904
323.4677, 21.35549
323.9498, 21.27098
324.4319, 20.84280
324.9140, 20.43065
325.3961, 20.15818
325.8782, 20.04895
326.3604, 20.16772
326.8425, 20.62341
327.3246, 21.34262
327.8067, 21.47272
328.2888, 20.27772
328.7709, 19.41403
329.2531, 19.48854
329.7352, 20.14161
330.2173, 20.85731
330.6994, 21.41070
331.1815, 21.72536
331.6636, 21.58605
332.1458, 19.94990
332.6279, 19.16673
333.1100, 20.01998
333.5921, 21.40694
334.0742, 22.28733
334.5563, 22.35600
335.0385, 21.93568
335.5206, 21.48440
336.0027, 21.04600
336.4848, 20.43279
336.9669, 19.02008
337.4490, 17.92623
337.9312, 18.17375
338.4133, 19.60825
338.8954, 21.11819
339.3775, 21.65643
339.8596, 21.13631
340.3417, 20.72972
340.8239, 20.53031
341.3060, 20.33132
341.7881, 19.90561
342.2702, 19.42947
342.7523, 19.31988
343.2344, 19.87107
343.7166, 20.89346
344.1987, 21.45767
344.6808, 20.97141
345.1629, 20.67697
345.6450, 20.75455
346.1271, 21.05130
346.6093, 21.47345
347.0914, 21.96759
347.5735, 22.38902
348.0556, 22.43224
348.5377, 21.80832
349.0198, 21.31405
349.5020, 20.89804
349.9841, 20.62796
350.4662, 20.71417
350.9483, 21.08038
351.4304, 21.30613
351.9125, 20.85120
352.3947, 19.53368
352.8768, 18.76254
353.3589, 18.81946
353.8410, 19.13526
354.3231, 19.59185
354.8052, 20.15475
355.2874, 20.87002
355.7695, 21.83061
356.2516, 22.90170
356.7337, 23.29030
357.2158, 22.23747
357.6979, 21.51703
358.1800, 21.71464
358.6621, 22.27332
359.1443, 22.60701
359.6264, 22.49129
360.1085, 22.05507
360.5906, 21.44497
361.0727, 20.43841
361.5548, 19.85723
362.0370, 20.15063
362.5191, 20.58667
363.0012, 20.63341
363.4833, 20.29500
363.9654, 20.03698
364.4475, 20.49915
364.9297, 21.76183
365.4118, 22.36253
365.8939, 21.58348
366.3760, 20.90406
366.8581, 21.09869
367.3402, 21.82508
367.8224, 22.32526
368.3045, 22.07151
368.7866, 21.35581
369.2687, 21.08214
369.7508, 21.48676
370.2329, 21.81561
370.7151, 21.71543
371.1972, 21.46773
371.6793, 21.34560
372.1614, 21.43400
372.6435, 21.61119
373.1256, 21.84593
373.6078, 22.17200
374.0899, 22.02811
374.5720, 20.59899
375.0541, 19.29912
375.5362, 19.45362
376.0183, 20.92287
376.5005, 22.16080
376.9826, 21.84725
377.4647, 20.44447
377.9468, 19.68168
378.4289, 19.80850
378.9110, 20.25730
379.3932, 20.83591
379.8753, 21.44154
380.3574, 21.86646
380.8395, 22.07594
381.3216, 22.04857
381.8037, 21.63410
382.2859, 20.82092
382.7680, 20.13674
383.2501, 19.74504
383.7322, 19.68792
384.2143, 20.09043
384.6964, 21.17587
385.1786, 21.92936
385.6607, 21.42898
386.1428, 20.14104
386.6249, 19.26126
387.1070, 19.04514
387.5891, 19.36218
388.0713, 20.49499
388.5534, 22.34744
389.0355, 23.34925
389.5176, 22.47154
389.9997, 21.04181
390.4818, 20.41440
390.9640, 20.63142
391.4461, 20.93381
391.9282, 20.76532
392.4103, 20.26327
392.8924, 20.16797
393.3745, 21.05242
393.8567, 21.68231
394.3388, 21.27289
394.8209, 20.30061
395.3030, 19.74870
395.7851, 20.01145
396.2672, 20.63598
396.7494, 20.80298
397.2315, 20.21563
397.7136, 19.87334
398.1957, 20.02803
398.6778, 20.30038
399.1599, 20.26857
399.6420, 19.95833
400.1241, 19.86619
400.6063, 20.53074
401.0884, 22.00141
401.5705, 22.57046
402.0526, 21.37317
402.5347, 20.36722
403.0168, 20.41962
403.4990, 21.00454
403.9811, 21.12560
404.4632, 20.29391
404.9453, 19.04158
405.4274, 18.68372
405.9095, 19.79364
406.3917, 20.88819
406.8738, 22.32623
407.3559, 23.44264
407.8380, 23.54319
408.3201, 22.69519
408.8022, 21.72556
409.2844, 21.53862
409.7665, 22.21735
410.2486, 22.33945
410.7307, 21.21366
411.2128, 20.26319
411.6949, 19.97450
412.1771, 20.12304
412.6592, 20.34290
413.1413, 20.47221
413.6234, 20.51310
414.1055, 20.41579
414.5876, 20.06147
415.0698, 19.93393
415.5519, 20.35103
416.0340, 20.90025
416.5161, 21.36174
416.9982, 21.69604
417.4803, 21.87161
417.9625, 21.82510
418.4446, 21.58117
418.9267, 21.27221
419.4088, 20.79646
419.8909, 20.46494
420.3730, 20.66647
420.8552, 21.13812
421.3373, 21.31167
421.8194, 20.75482
422.3015, 20.06954
422.7836, 20.02093
423.2657, 20.60253
423.7479, 21.28269
424.2300, 21.95853
424.7121, 22.52045
425.1942, 22.82902
425.6763, 22.86780
426.1584, 22.75892
426.6406, 22.38071
427.1227, 21.93746
427.6048, 21.91861
428.0869, 22.44814
428.5690, 22.80834
429.0511, 22.20730
429.5333, 20.64683
430.0154, 19.64244
430.4975, 19.31857
430.9796, 19.43885
431.4617, 20.14672
431.9438, 21.20538
432.4260, 22.01035
432.9081, 22.24512
433.3902, 22.17565
433.8723, 22.44741
434.3544, 23.60622
434.8365, 24.18261
435.3187, 23.60459
435.8008, 22.77457
436.2829, 22.44840
436.7650, 22.69193
437.2471, 23.12581
437.7292, 23.43677
438.2114, 23.63119
438.6935, 23.48029
439.1756, 22.40948
439.6577, 21.63061
440.1398, 21.46676
440.6219, 21.74512
441.1040, 22.37088
441.5862, 23.29732
442.0683, 24.14544
442.5504, 24.08782
443.0325, 22.68476
443.5146, 21.72850
443.9967, 21.65236
444.4789, 21.82798
444.9610, 22.00997
445.4431, 22.16781
445.9252, 22.34289
446.4073, 22.62270
446.8894, 22.93323
447.3716, 22.96272
447.8537, 22.62129
448.3358, 22.22137
448.8179, 21.65553
449.3000, 21.20762
449.7821, 21.30802
450.2643, 22.15411
450.7464, 23.02877
451.2285, 23.24483
451.7106, 22.92760
452.1927, 22.71921
452.6748, 22.81120
453.1570, 22.90555
453.6391, 22.57029
454.1212, 21.92007
454.6033, 21.52333
455.0854, 21.67227
455.5675, 22.01177
456.0497, 22.26291
456.5318, 22.42230
457.0139, 22.54213
457.4960, 22.65574
457.9781, 22.73766
458.4602, 22.69823
458.9424, 22.44310
459.4245, 22.28315
459.9066, 22.34551
460.3887, 22.48865
460.8708, 22.52936
461.3529, 22.46063
461.8351, 22.48568
462.3172, 22.85452
462.7993, 23.59177
463.2814, 23.81145
463.7635, 22.82006
464.2456, 22.14303
464.7278, 22.41592
465.2099, 23.14707
465.6920, 23.65602
466.1741, 23.67968
466.6562, 23.41806
467.1383, 23.17725
467.6205, 22.92525
468.1026, 22.78994
468.5847, 22.75269
469.0668, 22.85734
469.5489, 23.21127
470.0310, 23.73543
470.5132, 24.24293
470.9953, 24.66141
471.4774, 24.94760
471.9595, 24.93581
472.4416, 24.53268
472.9237, 24.17804
473.4059, 23.98532
473.8880, 23.94446
474.3701, 24.11744
474.8522, 24.52042
475.3343, 24.86609
475.8164, 24.87519
476.2986, 24.69632
476.7807, 24.73013
477.2628, 25.05624
477.7449, 25.39999
478.2270, 25.54095
478.7091, 25.52517
479.1913, 25.56236
479.6734, 25.70320
480.1555, 25.85375
480.6376, 25.95007
481.1197, 26.02267
481.6018, 26.16180
482.0839, 26.40371
482.5660, 26.64486
483.0482, 26.78518
483.5303, 26.91365
484.0124, 26.50059
484.4945, 24.82471
484.9766, 23.31881
485.4587, 22.83565
485.9409, 23.15038
486.4230, 23.63380
486.9051, 23.94734
487.3872, 24.10635
487.8693, 24.12654
488.3514, 23.80984
488.8336, 23.73666
489.3157, 24.19214
489.7978, 24.67370
490.2799, 24.82257
490.7620, 24.65162
491.2441, 24.42410
491.7263, 24.40951
492.2084, 24.50997
492.6905, 24.13926
493.1726, 22.94595
493.6547, 22.13186
494.1368, 22.66556
494.6190, 23.60185
495.1011, 24.01046
495.5832, 23.70959
496.0653, 23.05357
496.5474, 21.88304
497.0295, 20.55390
497.5117, 20.44992
497.9938, 22.10094
498.4759, 23.57702
498.9580, 22.91546
499.4401, 20.60180
499.9222, 19.34841
500.4044, 19.98337
500.8865, 21.01939
501.3686, 21.91627
501.8507, 22.63187
502.3328, 23.06554
502.8149, 23.17468
503.2971, 23.11855
503.7792, 23.13180
504.2613, 23.28651
504.7434, 23.22991
505.2255, 22.74437
505.7076, 22.28640
506.1898, 21.98404
506.6719, 21.88634
507.1540, 22.16184
507.6361, 22.92843
508.1182, 23.79990
508.6003, 23.76550
509.0825, 22.30857
509.5646, 21.33337
510.0467, 21.31441
510.5288, 21.57422
511.0109, 21.89270
511.4930, 22.18947
511.9752, 22.32057
512.4573, 22.05653
512.9394, 21.65548
513.4215, 21.84560
513.9036, 22.76826
514.3857, 23.37309
514.8679, 23.03776
515.3500, 22.33692
515.8321, 22.05740
516.3142, 22.26687
516.7963, 22.41175
517.2784, 22.18184
517.7606, 21.78105
518.2427, 21.47378
518.7248, 21.28559
519.2069, 21.15897
519.6890, 21.03956
520.1711, 20.95645
520.6533, 21.06795
521.1354, 21.61462
521.6175, 22.00563
522.0996, 22.12801
522.5817, 22.05890
523.0638, 21.74093
523.5460, 21.24347
524.0281, 20.93745
524.5102, 21.28052
524.9923, 22.23503
525.4744, 22.37976
525.9565, 20.58944
526.4387, 19.46608
526.9208, 20.01352
527.4029, 21.19787
527.8850, 21.92217
528.3671, 21.91590
528.8492, 21.71571
529.3314, 21.93435
529.8135, 22.50852
530.2956, 22.78291
530.7777, 22.59893
531.2598, 22.36725
531.7419, 22.47365
532.2241, 22.67398
532.7062, 22.50103
533.1883, 21.62568
533.6704, 20.86584
534.1525, 20.91092
534.6346, 21.47414
535.1168, 21.92175
535.5989, 22.11904
536.0810, 22.07937
536.5631, 21.69975
537.0452, 20.95672
537.5273, 20.82218
538.0095, 22.02970
538.4916, 22.97001
538.9737, 22.67602
539.4558, 21.86647
539.9379, 21.81958
540.4200, 22.88967
540.9022, 24.05831
541.3843, 23.76383
541.8664, 21.61177
542.3485, 20.22941
542.8306, 20.14029
543.3127, 20.30945
543.7948, 20.53278
544.2769, 20.77464
544.7590, 21.01976
545.2411, 21.26752
545.7233, 21.48654
546.2054, 21.67056
546.6875, 21.81146
547.1696, 21.74864
547.6517, 21.36545
548.1339, 20.95095
548.6160, 20.75821
549.0981, 20.72914
549.5802, 20.71702
550.0623, 20.70738
550.5444, 20.69483
551.0266, 20.58813
551.5087, 20.48283
551.9908, 20.69222
552.4729, 21.32769
552.9550, 21.94644
553.4371, 21.93289
553.9193, 21.09601
554.4014, 20.80518
554.8835, 21.60838
555.3656, 22.26941
555.8477, 22.18310
556.3298, 21.72327
556.8120, 21.50254
557.2941, 21.73615
557.7762, 22.09515
558.2583, 22.10967
558.7404, 21.74457
559.2225, 21.32383
559.7047, 20.78749
560.1868, 20.28998
560.6689, 19.74064
561.1510, 19.30941
561.6331, 19.33475
562.1152, 20.04019
562.5974, 20.88030
563.0795, 21.32775
563.5616, 21.48656
564.0437, 21.81721
564.5258, 22.49193
565.0079, 22.94916
565.4901, 22.47996
565.9722, 21.16524
566.4543, 20.62225
566.9364, 21.73072
567.4185, 22.59972
567.9006, 22.20303
568.3828, 21.24656
568.8649, 20.78256
569.3470, 21.06382
569.8291, 21.54957
570.3112, 21.60447
570.7933, 21.19677
571.2755, 20.93310
571.7576, 20.87034
572.2397, 20.89034
572.7218, 20.99265
573.2039, 21.14469
573.6860, 21.29526
574.1682, 21.43455
574.6503, 21.63965
575.1324, 22.13602
575.6145, 22.79046
576.0966, 22.92740
576.5787, 22.37891
577.0609, 21.80912
577.5430, 21.59784
578.0251, 21.66161
578.5072, 21.84612
578.9893, 22.45031
579.4714, 22.49334
579.9536, 20.76624
580.4357, 18.70873
580.9178, 18.32106
581.3999, 19.67823
581.8820, 21.28604
582.3641, 22.05387
582.8463, 22.06565
583.3284, 21.81041
583.8105, 20.99163
584.2926, 20.32966
584.7747, 19.89901
585.2568, 19.61761
585.7390, 19.35220
586.2211, 19.15022
586.7032, 19.26960
587.1853, 20.07379
587.6674, 21.20106
588.1495, 21.48586
588.6317, 20.72335
589.1138, 20.44312
589.5959, 21.55387
590.0780, 22.96578
590.5601, 23.29992
591.0422, 22.57897
591.5244, 21.99081
592.0065, 22.04950
592.4886, 22.27437
592.9707, 22.17525
593.4528, 21.85308
593.9349, 21.75945
594.4171, 22.11753
594.8992, 22.61456
595.3813, 22.70218
595.8634, 22.26913
596.3455, 21.73469
596.8276, 20.63449
597.3098, 19.92982
597.7919, 20.33730
598.2740, 21.33521
598.7561, 22.03869
599.2382, 22.08457
599.7203, 21.80731
600.2025, 21.61766
600.6846, 21.51283
601.1667, 21.37326
601.6488, 21.06512
602.1309, 20.97042
602.6130, 21.72841
603.0952, 22.83938
603.5773, 23.21047
604.0594, 22.36199
604.5415, 21.41214
605.0236, 20.82598
605.5057, 20.53965
605.9879, 20.49328
606.4700, 20.66307
606.9521, 20.99612
607.4342, 21.48949
607.9163, 22.09204
608.3984, 22.41372
608.8806, 22.13958
609.3627, 22.00953
609.8448, 22.21012
610.3269, 22.47937
610.8090, 22.65119
611.2911, 22.69462
611.7733, 22.61757
612.2554, 22.39127
612.7375, 22.07893
613.2196, 21.72986
613.7017, 21.30091
614.1838, 21.36642
614.6660, 22.50618
615.1481, 23.71879
615.6302, 23.62352
616.1123, 22.32715
616.5944, 21.40869
617.0765, 21.33516
617.5587, 21.59930
618.0408, 22.10204
618.5229, 22.65070
619.0050, 22.82686
619.4871, 22.48968
619.9692, 21.91985
620.4514, 21.45721
620.9335, 21.07579
621.4156, 20.99052
621.8977, 21.42819
622.3798, 21.90825
622.8619, 22.52794
623.3441, 23.01575
623.8262, 22.94810
624.3083, 22.24387
624.7904, 21.51852
625.2725, 21.26046
625.7546, 21.38590
626.2367, 21.86505
626.7188, 22.77083
627.2009, 23.08609
627.6830, 21.98234
628.1652, 20.19366
628.6473, 19.43860
629.1294, 19.92857
629.6115, 20.52893
630.0936, 21.47001
630.5757, 22.13139
631.0579, 21.79865
631.5400, 20.80687
632.0221, 20.08459
632.5042, 20.11018
632.9863, 20.51776
633.4684, 20.61266
633.9506, 20.30856
634.4327, 20.11556
634.9148, 20.03268
635.3969, 20.10766
635.8790, 20.42973
636.3611, 20.89099
636.8433, 21.31223
637.3254, 21.64979
637.8075, 21.93339
638.2896, 22.23054
638.7717, 22.47374
639.2538, 22.48322
639.7360, 22.24300
640.2181, 21.99642
640.7002, 21.90983
641.1823, 21.95599
641.6644, 22.02326
642.1465, 21.94635
642.6287, 22.13422
643.1108, 23.19325
643.5929, 24.00255
644.0750, 23.50955
644.5571, 22.09885
645.0392, 20.98502
645.5214, 20.87649
646.0035, 21.29322
646.4856, 21.54491
646.9677, 21.63088
647.4498, 21.25634
647.9319, 20.02501
648.4141, 19.04068
648.8962, 19.44365
649.3783, 20.88556
649.8604, 22.05245
650.3425, 23.03138
650.8246, 23.46577
651.3068, 22.67360
651.7889, 21.53836
652.2710, 21.23205
652.7531, 21.83390
653.2352, 22.62462
653.7173, 23.08424
654.1995, 23.21412
654.6816, 22.92977
655.1637, 21.86076
655.6458, 21.26827
656.1279, 21.87851
656.6100, 22.58480
657.0922, 22.79176
657.5743, 22.55364
658.0564, 22.13357
658.5385, 21.35007
659.0206, 20.81975
659.5027, 21.53997
659.9849, 22.98135
660.4670, 23.51814
660.9491, 22.75496
661.4312, 21.71562
661.9133, 21.33172
662.3954, 21.54656
662.8776, 21.55663
663.3597, 20.85773
663.8418, 20.62220
664.3239, 21.49236
664.8060, 22.47076
665.2881, 22.67302
665.7703, 22.16616
666.2524, 21.64152
666.7345, 21.56028
667.2166, 21.67225
667.6987, 21.45644
668.1808, 20.92593
668.6630, 20.55231
669.1451, 20.41259
669.6272, 20.55156
670.1093, 21.21613
670.5914, 22.31651
671.0735, 22.79162
671.5557, 22.02253
672.0378, 21.36466
672.5199, 21.41981
673.0020, 21.71231
673.4841, 21.66291
673.9662, 21.24839
674.4484, 20.89168
674.9305, 20.94204
675.4126, 21.25761
675.8947, 21.31194
676.3768, 20.98782
676.8589, 20.93567
677.3411, 21.46281
677.8232, 22.10587
