##NAMES=Sperrylite
##RRUFFID=R070214
##IDEAL CHEMISTRY=PtAs_2_
##LOCALITY=Vermilion Mine, Denison Township, Sudbury District, Ontario, Canada
##OWNER=RRUFF
##SOURCE=Michael Scott
##DESCRIPTION=Loose aggregate of bright silver cubes, some with octahedral modifications
##STATUS=The identification of this mineral has been confirmed only by single crystal X-ray diffraction.
##URL=rruff.info/R070214
164.6075, 696.9462
165.0896, 695.8025
165.5717, 698.6980
166.0538, 707.0245
166.5359, 717.7496
167.0180, 726.5540
167.5002, 731.0981
167.9823, 733.4810
168.4644, 733.9657
168.9465, 731.9146
169.4286, 732.5376
169.9107, 745.1439
170.3929, 763.4454
170.8750, 774.5146
171.3571, 764.5454
171.8392, 746.9764
172.3213, 735.8291
172.8034, 733.3460
173.2856, 736.0327
173.7677, 743.5913
174.2498, 754.5600
174.7319, 763.7896
175.2140, 768.8196
175.6961, 770.0416
176.1783, 767.2489
176.6604, 758.8376
177.1425, 749.2841
177.6246, 742.7445
178.1067, 739.4125
178.5888, 740.1629
179.0710, 749.7479
179.5531, 763.8870
180.0352, 772.5406
180.5173, 771.3318
180.9994, 765.4658
181.4815, 763.2959
181.9637, 764.7091
182.4458, 766.7605
182.9279, 766.3203
183.4100, 764.2487
183.8921, 763.7621
184.3742, 765.8516
184.8564, 770.0828
185.3385, 776.3136
185.8206, 784.8221
186.3027, 792.6033
186.7848, 794.9044
187.2669, 792.7106
187.7491, 793.7791
188.2312, 804.3269
188.7133, 820.3624
189.1954, 826.3594
189.6775, 821.1348
190.1596, 810.9045
190.6418, 800.5559
191.1239, 790.2796
191.6060, 785.1055
192.0881, 790.2251
192.5702, 804.0110
193.0524, 809.8749
193.5345, 804.7871
194.0166, 799.5795
194.4987, 813.6716
194.9808, 848.3307
195.4629, 883.2951
195.9451, 906.1772
196.4272, 917.6397
196.9093, 938.3038
197.3914, 970.9914
197.8735, 1009.466
198.3556, 1043.027
198.8378, 1071.515
199.3199, 1095.523
199.8020, 1113.655
200.2841, 1125.253
200.7662, 1138.351
201.2483, 1153.319
201.7305, 1170.110
202.2126, 1187.189
202.6947, 1202.940
203.1768, 1225.013
203.6589, 1258.151
204.1410, 1302.477
204.6232, 1355.114
205.1053, 1416.919
205.5874, 1486.385
206.0695, 1559.221
206.5516, 1636.221
207.0337, 1714.503
207.5159, 1793.336
207.9980, 1871.832
208.4801, 1947.012
208.9622, 2014.330
209.4443, 2078.065
209.9264, 2164.906
210.4086, 2288.986
210.8907, 2408.166
211.3728, 2498.121
211.8549, 2571.427
212.3370, 2572.734
212.8191, 2482.196
213.3013, 2309.041
213.7834, 2115.167
214.2655, 1881.996
214.7476, 1657.212
215.2297, 1484.530
215.7118, 1371.047
216.1940, 1286.351
216.6761, 1229.025
217.1582, 1198.001
217.6403, 1177.781
218.1224, 1171.454
218.6045, 1172.079
219.0867, 1172.970
219.5688, 1172.476
220.0509, 1176.561
220.5330, 1188.952
221.0151, 1210.183
221.4972, 1223.430
221.9794, 1233.619
222.4615, 1230.524
222.9436, 1200.126
223.4257, 1127.987
223.9078, 1057.162
224.3899, 996.3098
224.8721, 944.4670
225.3542, 904.9218
225.8363, 880.2691
226.3184, 865.0930
226.8005, 853.0823
227.2827, 845.0583
227.7648, 838.8772
228.2469, 834.5380
228.7290, 832.4546
229.2111, 828.7609
229.6932, 821.3612
230.1754, 814.0901
230.6575, 812.6704
231.1396, 821.6950
231.6217, 828.4182
232.1038, 828.6961
232.5859, 821.0150
233.0681, 814.8865
233.5502, 810.0824
234.0323, 806.9996
234.5144, 806.5310
234.9965, 810.5101
235.4786, 813.9673
235.9608, 814.7290
236.4429, 811.3804
236.9250, 812.1446
237.4071, 819.3903
237.8892, 829.2805
238.3713, 835.8450
238.8535, 838.4221
239.3356, 838.6956
239.8177, 836.1087
240.2998, 828.5366
240.7819, 826.5988
241.2640, 832.6576
241.7462, 842.9418
242.2283, 851.4272
242.7104, 859.1341
243.1925, 863.2790
243.6746, 861.5992
244.1567, 850.5796
244.6389, 846.2628
245.1210, 852.1497
245.6031, 862.6375
246.0852, 867.2604
246.5673, 861.7751
247.0494, 857.7094
247.5316, 860.2709
248.0137, 873.3174
248.4958, 879.4561
248.9779, 875.2838
249.4600, 866.0741
249.9421, 861.5447
250.4243, 862.6396
250.9064, 866.6545
251.3885, 873.0731
251.8706, 882.8634
252.3527, 892.1970
252.8348, 902.0453
253.3170, 910.8340
253.7991, 915.0125
254.2812, 912.3873
254.7633, 909.2626
255.2454, 907.7410
255.7275, 907.8309
256.2097, 909.6306
256.6918, 913.5305
257.1739, 918.8486
257.6560, 924.0295
258.1381, 927.8449
258.6202, 934.1385
259.1024, 945.4001
259.5845, 963.5206
260.0666, 978.3145
260.5487, 989.4056
261.0308, 997.4124
261.5129, 1003.907
261.9951, 1009.010
262.4772, 1012.160
262.9593, 1012.677
263.4414, 1009.887
263.9235, 1007.037
264.4056, 1002.150
264.8878, 999.0448
265.3699, 1006.069
265.8520, 1027.541
266.3341, 1046.960
266.8162, 1056.675
267.2983, 1054.319
267.7805, 1056.922
268.2626, 1065.119
268.7447, 1077.586
269.2268, 1091.397
269.7089, 1105.404
270.1910, 1124.883
270.6732, 1155.386
271.1553, 1198.980
271.6374, 1230.000
272.1195, 1243.946
272.6016, 1251.968
273.0837, 1269.831
273.5659, 1297.405
274.0480, 1335.749
274.5301, 1393.069
275.0122, 1470.522
275.4943, 1529.128
275.9764, 1574.635
276.4586, 1590.460
276.9407, 1538.214
277.4228, 1410.633
277.9049, 1284.348
278.3870, 1187.030
278.8691, 1118.106
279.3513, 1066.362
279.8334, 1033.960
280.3155, 1013.188
280.7976, 993.7527
281.2798, 975.6091
281.7619, 963.8102
282.2440, 963.4582
282.7261, 972.5014
283.2082, 974.2256
283.6903, 967.1926
284.1725, 958.1332
284.6546, 954.4033
285.1367, 955.9860
285.6188, 962.0295
286.1009, 976.5407
286.5830, 995.6917
287.0652, 1000.131
287.5473, 987.7648
288.0294, 972.9576
288.5115, 972.5376
288.9936, 985.0029
289.4757, 997.8102
289.9579, 1006.910
290.4400, 1013.352
290.9221, 1022.240
291.4042, 1034.145
291.8863, 1041.319
292.3684, 1035.384
292.8506, 1017.758
293.3327, 993.9108
293.8148, 959.0091
294.2969, 922.5612
294.7790, 906.0844
295.2611, 909.5752
295.7433, 915.0300
296.2254, 903.0992
296.7075, 880.1561
297.1896, 865.0414
297.6717, 867.2884
298.1538, 876.1851
298.6360, 874.9493
299.1181, 864.3099
299.6002, 853.0289
300.0823, 848.1150
300.5644, 847.2114
301.0465, 845.9316
301.5287, 843.4878
302.0108, 839.7559
302.4929, 832.5113
302.9750, 822.7379
303.4571, 816.4808
303.9392, 822.2698
304.4214, 832.6408
304.9035, 837.0580
305.3856, 830.1302
305.8677, 821.1204
306.3498, 817.6035
306.8319, 818.7206
307.3141, 821.4184
307.7962, 825.4063
308.2783, 829.3842
308.7604, 832.8802
309.2425, 837.6050
309.7246, 837.6475
310.2068, 822.3014
310.6889, 798.4288
311.1710, 783.6271
311.6531, 792.5034
312.1352, 809.9459
312.6173, 826.3887
313.0995, 841.9346
313.5816, 851.0616
314.0637, 846.8065
314.5458, 834.6005
315.0279, 824.6689
315.5100, 822.8308
315.9922, 822.8635
316.4743, 821.3315
316.9564, 817.2988
317.4385, 813.9401
317.9206, 812.5234
318.4027, 812.3565
318.8849, 812.4721
319.3670, 814.9965
319.8491, 815.6619
320.3312, 810.3989
320.8133, 796.6688
321.2954, 790.9401
321.7776, 805.0587
322.2597, 825.3583
322.7418, 837.2725
323.2239, 831.0945
323.7060, 823.9446
324.1881, 818.8578
324.6703, 815.8847
325.1524, 815.9102
325.6345, 822.4732
326.1166, 830.2275
326.5987, 834.9372
327.0808, 835.2546
327.5630, 834.0673
328.0451, 831.0729
328.5272, 826.3817
329.0093, 822.3500
329.4914, 819.0392
329.9735, 816.4180
330.4557, 814.3235
330.9378, 811.4149
331.4199, 811.4133
331.9020, 814.9720
332.3841, 821.7134
332.8662, 830.7305
333.3484, 845.8788
333.8305, 857.3198
334.3126, 857.9829
334.7947, 842.2114
335.2768, 833.3035
335.7589, 833.8283
336.2411, 841.0789
336.7232, 849.5876
337.2053, 860.9859
337.6874, 868.6708
338.1695, 866.9626
338.6516, 853.8687
339.1338, 849.6501
339.6159, 856.5600
340.0980, 869.4463
340.5801, 880.9587
341.0622, 891.5064
341.5443, 897.9037
342.0265, 897.4468
342.5086, 890.9694
342.9907, 887.0721
343.4728, 886.6953
343.9549, 885.3330
344.4370, 874.4272
344.9192, 855.4258
345.4013, 842.0917
345.8834, 843.3368
346.3655, 852.7458
346.8476, 852.4962
347.3297, 842.3445
347.8119, 830.1048
348.2940, 822.1752
348.7761, 817.9554
349.2582, 815.9266
349.7403, 816.4150
350.2225, 818.0331
350.7046, 819.3450
351.1867, 820.2646
351.6688, 820.0306
352.1509, 815.9388
352.6331, 810.8956
353.1152, 809.5726
353.5973, 814.1752
354.0794, 820.5346
354.5615, 825.2110
355.0436, 828.6432
355.5258, 832.1674
356.0079, 838.1866
356.4900, 843.6930
356.9721, 845.5384
357.4542, 842.2091
357.9363, 838.7165
358.4185, 839.1649
358.9006, 841.2156
359.3827, 840.8225
359.8648, 831.6763
360.3469, 823.4305
360.8290, 822.3073
361.3112, 829.9882
361.7933, 836.2324
362.2754, 836.1502
362.7575, 833.6049
363.2396, 832.7915
363.7217, 837.5806
364.2039, 841.2772
364.6860, 840.9596
365.1681, 836.5400
365.6502, 834.7950
366.1323, 838.6810
366.6144, 844.1340
367.0966, 848.3652
367.5787, 849.0294
368.0608, 851.2039
368.5429, 856.1165
369.0250, 863.0987
369.5071, 868.6418
369.9893, 872.5229
370.4714, 875.2181
370.9535, 877.0599
371.4356, 878.6509
371.9177, 877.4662
372.3998, 870.7346
372.8820, 862.6009
373.3641, 863.3432
373.8462, 876.4190
374.3283, 889.3740
374.8104, 897.0292
375.2925, 899.0007
375.7747, 900.6468
376.2568, 901.6597
376.7389, 902.9821
377.2210, 907.1848
377.7031, 914.7273
378.1852, 918.5480
378.6674, 916.4907
379.1495, 909.0129
379.6316, 895.4512
380.1137, 875.0010
380.5958, 856.7873
381.0779, 852.4477
381.5601, 858.9675
382.0422, 861.2361
382.5243, 853.9175
383.0064, 843.2749
383.4885, 840.3068
383.9706, 844.1346
384.4528, 848.4758
384.9349, 850.3394
385.4170, 849.6137
385.8991, 845.3431
386.3812, 836.1840
386.8633, 827.2759
387.3455, 823.7213
387.8276, 824.0927
388.3097, 825.0890
388.7918, 825.1334
389.2739, 825.0891
389.7560, 825.2513
390.2382, 825.5291
390.7203, 827.4081
391.2024, 835.4860
391.6845, 844.3124
392.1666, 847.6782
392.6487, 836.2133
393.1309, 825.6879
393.6130, 824.6025
394.0951, 831.9348
394.5772, 835.0198
395.0593, 823.0898
395.5414, 810.6688
396.0236, 806.9717
396.5057, 822.5643
396.9878, 835.9094
397.4699, 846.0682
397.9520, 852.6582
398.4341, 854.4221
398.9163, 848.0864
399.3984, 840.3033
399.8805, 833.3999
400.3626, 827.8704
400.8447, 821.1381
401.3268, 809.0956
401.8090, 798.9061
402.2911, 802.9537
402.7732, 829.0432
403.2553, 848.7339
403.7374, 853.1111
404.2195, 843.0432
404.7017, 833.1074
405.1838, 821.9578
405.6659, 814.5638
406.1480, 818.0103
406.6301, 832.5310
407.1122, 842.6984
407.5944, 845.4233
408.0765, 842.5327
408.5586, 834.7676
409.0407, 822.2864
409.5228, 816.3887
410.0049, 832.2275
410.4871, 860.6052
410.9692, 874.6558
411.4513, 869.9133
411.9334, 857.9180
412.4155, 849.1278
412.8976, 843.3385
413.3798, 840.1857
413.8619, 841.9123
414.3440, 844.6785
414.8261, 844.0425
415.3082, 839.9173
415.7903, 835.7370
416.2725, 832.6511
416.7546, 831.1366
417.2367, 831.8118
417.7188, 838.0024
418.2009, 842.9659
418.6830, 841.7274
419.1652, 836.1822
419.6473, 833.3322
420.1294, 837.4818
420.6115, 843.4670
421.0937, 848.6748
421.5758, 852.5965
422.0579, 855.8740
422.5400, 859.4582
423.0221, 862.2836
423.5042, 862.5873
423.9864, 855.8567
424.4685, 851.6495
424.9506, 853.1456
425.4327, 860.9787
425.9148, 866.0630
426.3969, 867.5345
426.8791, 867.2470
427.3612, 866.4542
427.8433, 864.6431
428.3254, 864.2347
428.8075, 866.7072
429.2896, 870.3647
429.7718, 868.2706
430.2539, 859.1524
430.7360, 851.0084
431.2181, 848.6062
431.7002, 851.7017
432.1823, 857.8248
432.6645, 867.9286
433.1466, 877.4978
433.6287, 879.0599
434.1108, 874.0117
434.5929, 869.2075
435.0750, 867.4131
435.5572, 867.6808
436.0393, 868.6627
436.5214, 870.3377
437.0035, 872.2670
437.4856, 874.2500
437.9677, 876.2154
438.4499, 878.1828
438.9320, 880.7091
439.4141, 882.2968
439.8962, 881.0551
440.3783, 877.9647
440.8604, 875.5164
441.3426, 876.4001
441.8247, 877.0642
442.3068, 873.3080
442.7889, 861.9834
443.2710, 859.3514
443.7531, 885.0677
444.2353, 915.6945
444.7174, 925.7495
445.1995, 884.4260
445.6816, 851.9071
446.1637, 839.8281
446.6458, 846.6959
447.1280, 856.9405
447.6101, 875.5917
448.0922, 892.1110
448.5743, 900.3188
449.0564, 897.7284
449.5385, 892.9435
450.0207, 884.2018
450.5028, 875.1938
450.9849, 874.2579
451.4670, 883.2072
451.9491, 890.9892
452.4312, 892.2827
452.9134, 888.2612
453.3955, 888.3876
453.8776, 892.9646
454.3597, 899.4360
454.8418, 907.1940
455.3239, 915.2311
455.8061, 918.7126
456.2882, 915.4412
456.7703, 908.9366
457.2524, 903.7439
457.7345, 899.6028
458.2166, 895.3238
458.6988, 888.6872
459.1809, 882.3486
459.6630, 879.7480
460.1451, 881.6086
460.6272, 884.2007
461.1093, 883.9517
461.5915, 883.4160
462.0736, 885.7944
462.5557, 898.9194
463.0378, 908.5018
463.5199, 905.9050
464.0020, 893.1182
464.4842, 885.2636
464.9663, 889.6417
465.4484, 896.7401
465.9305, 901.8929
466.4126, 906.8158
466.8947, 906.1961
467.3769, 894.6496
467.8590, 879.9283
468.3411, 875.0599
468.8232, 884.2930
469.3053, 895.3735
469.7874, 906.9321
470.2696, 918.5558
470.7517, 920.6395
471.2338, 910.1602
471.7159, 899.4394
472.1980, 902.1719
472.6801, 917.8795
473.1623, 924.3694
473.6444, 916.3263
474.1265, 902.1644
474.6086, 895.2341
475.0907, 894.9727
475.5728, 897.7371
476.0550, 903.8490
476.5371, 911.0007
477.0192, 914.8635
477.5013, 915.2757
477.9834, 915.5394
478.4655, 918.2504
478.9477, 922.3401
479.4298, 926.7463
479.9119, 935.6884
480.3940, 939.2151
480.8761, 924.3379
481.3582, 898.8387
481.8404, 885.3405
482.3225, 906.8649
482.8046, 929.1655
483.2867, 933.8937
483.7688, 911.1226
484.2509, 899.9233
484.7331, 914.4349
485.2152, 936.3965
485.6973, 949.2866
486.1794, 950.0604
486.6615, 946.3923
487.1436, 936.0488
487.6258, 921.9017
488.1079, 919.2988
488.5900, 932.5529
489.0721, 945.4861
489.5542, 948.7418
490.0363, 942.2781
490.5185, 934.2781
491.0006, 923.8681
491.4827, 915.7571
491.9648, 918.7787
492.4470, 930.7948
492.9291, 939.8552
493.4112, 939.4230
493.8933, 935.8018
494.3754, 939.6163
494.8575, 949.7743
495.3397, 959.1722
495.8218, 962.7975
496.3039, 963.4929
496.7860, 964.4550
497.2681, 966.5405
497.7502, 967.5042
498.2324, 965.0356
498.7145, 961.0512
499.1966, 958.1093
499.6787, 958.4492
500.1608, 958.4735
500.6429, 956.0937
501.1251, 951.6058
501.6072, 949.9623
502.0893, 952.5058
502.5714, 957.0566
503.0535, 963.4541
503.5356, 975.6380
504.0178, 979.3055
504.4999, 969.3701
504.9820, 955.5243
505.4641, 955.0784
505.9462, 972.1078
506.4283, 980.6572
506.9105, 969.2483
507.3926, 944.5450
507.8747, 934.5306
508.3568, 939.8736
508.8389, 947.2863
509.3210, 945.1692
509.8032, 937.5191
510.2853, 936.6006
510.7674, 945.4154
511.2495, 954.6508
511.7316, 954.3474
512.2137, 947.4136
512.6959, 939.8195
513.1780, 929.4747
513.6601, 923.0563
514.1422, 930.3658
514.6243, 948.4329
515.1064, 957.0995
515.5886, 933.5927
516.0707, 908.6538
516.5528, 902.7518
517.0349, 931.1899
517.5170, 951.8900
517.9991, 960.3787
518.4813, 959.0829
518.9634, 949.0888
519.4455, 918.8837
519.9276, 900.3647
520.4097, 904.6719
520.8918, 927.1376
521.3740, 935.8863
521.8561, 927.1266
522.3382, 917.2051
522.8203, 917.7621
523.3024, 928.0545
523.7845, 936.3449
524.2667, 942.7441
524.7488, 944.2712
525.2309, 932.6959
525.7130, 912.2802
526.1951, 898.1990
526.6772, 898.0707
527.1594, 904.3971
527.6415, 909.4854
528.1236, 913.6213
528.6057, 918.1965
529.0878, 922.4685
529.5699, 928.4522
530.0521, 940.6002
530.5342, 963.4609
531.0163, 974.6964
531.4984, 955.4318
531.9805, 926.0546
532.4626, 908.1790
532.9448, 916.2415
533.4269, 922.1425
533.9090, 922.2555
534.3911, 917.8805
534.8732, 913.6519
535.3553, 908.1871
535.8375, 905.4174
536.3196, 907.5275
536.8017, 914.7581
537.2838, 923.2947
537.7659, 934.4308
538.2480, 942.8465
538.7302, 940.2040
539.2123, 928.3602
539.6944, 920.7460
540.1765, 921.6007
540.6586, 925.4872
541.1407, 922.4322
541.6229, 915.2195
542.1050, 913.7485
542.5871, 929.9420
543.0692, 949.9328
543.5513, 961.9122
544.0334, 965.1381
544.5156, 963.4462
544.9977, 952.1771
545.4798, 940.4273
545.9619, 935.8323
546.4440, 946.9564
546.9261, 954.6457
547.4083, 955.8235
547.8904, 951.9828
548.3725, 945.3221
548.8546, 931.2607
549.3367, 921.9996
549.8188, 922.0926
550.3010, 930.5117
550.7831, 935.0396
551.2652, 934.9143
551.7473, 933.4353
552.2294, 932.2863
552.7115, 931.5767
553.1937, 933.0795
553.6758, 937.4593
554.1579, 941.8712
554.6400, 941.5316
555.1221, 938.2315
555.6042, 937.1835
556.0864, 941.8237
556.5685, 947.9086
557.0506, 951.6625
557.5327, 953.4523
558.0148, 954.5584
558.4969, 956.1240
558.9791, 956.8052
559.4612, 954.7648
559.9433, 948.6308
560.4254, 946.0624
560.9075, 954.1300
561.3896, 963.1302
561.8718, 964.2838
562.3539, 949.8272
562.8360, 940.9381
563.3181, 941.2748
563.8002, 947.1700
564.2823, 949.8375
564.7645, 948.6837
565.2466, 946.9136
565.7287, 946.2652
566.2108, 946.0792
566.6929, 941.5860
567.1750, 932.5462
567.6572, 925.4587
568.1393, 929.0997
568.6214, 938.1559
569.1035, 940.6309
569.5856, 932.8553
570.0677, 925.8991
570.5499, 931.8250
571.0320, 944.0075
571.5141, 951.9922
571.9962, 947.9889
572.4783, 943.0124
572.9604, 940.6274
573.4426, 940.7897
573.9247, 942.8560
574.4068, 951.8855
574.8889, 958.0110
575.3710, 957.1959
575.8531, 948.4828
576.3353, 936.3930
576.8174, 914.9009
577.2995, 899.1475
577.7816, 909.3124
578.2637, 949.1075
578.7458, 972.8958
579.2280, 970.4667
579.7101, 955.8733
580.1922, 954.7615
580.6743, 964.6609
581.1564, 971.6196
581.6385, 966.2725
582.1207, 955.8926
582.6028, 948.0831
583.0849, 943.1828
583.5670, 943.2268
584.0491, 956.6654
584.5313, 970.9183
585.0134, 974.4415
585.4955, 960.6618
585.9776, 952.0859
586.4597, 960.0457
586.9418, 973.8190
587.4240, 981.0246
587.9061, 975.5900
588.3882, 972.7654
588.8703, 976.1162
589.3524, 982.5909
589.8345, 981.7239
590.3167, 970.7282
590.7988, 963.2150
591.2809, 966.9026
591.7630, 979.2466
592.2451, 987.4896
592.7272, 991.5718
593.2094, 992.9959
593.6915, 990.4305
594.1736, 986.6179
594.6557, 988.1072
595.1378, 997.5516
595.6199, 1005.310
596.1021, 1001.246
596.5842, 991.6796
597.0663, 985.6021
597.5485, 990.6631
598.0306, 994.8592
598.5127, 993.2076
598.9948, 987.2151
599.4769, 983.6094
599.9590, 984.6526
600.4412, 985.8116
600.9233, 985.3530
601.4054, 983.0685
601.8875, 982.8373
602.3696, 985.6409
602.8517, 988.0861
603.3339, 986.0903
603.8160, 980.1717
604.2981, 978.1074
604.7802, 981.6147
605.2623, 986.1592
605.7444, 984.6329
606.2266, 979.3339
606.7087, 976.6197
607.1908, 981.9282
607.6729, 987.4349
608.1550, 984.4754
608.6371, 976.1292
609.1193, 972.3029
609.6014, 985.1561
610.0835, 996.4534
610.5656, 995.1694
611.0477, 978.2476
611.5298, 968.1606
612.0120, 971.4110
612.4941, 975.9941
612.9762, 972.9856
613.4583, 958.5862
613.9404, 950.6925
614.4225, 951.2009
614.9047, 956.3785
615.3868, 961.8486
615.8689, 967.5621
616.3510, 972.3640
616.8331, 976.2731
617.3152, 978.6407
617.7974, 976.4908
618.2795, 971.3771
618.7616, 969.1928
619.2437, 976.4161
619.7258, 985.3906
620.2079, 990.8916
620.6901, 992.5728
621.1722, 992.0296
621.6543, 985.9041
622.1364, 980.4667
622.6185, 980.5205
623.1006, 991.2212
623.5828, 996.2385
624.0649, 993.1790
624.5470, 986.6305
625.0291, 980.9693
625.5112, 975.3904
625.9933, 975.9280
626.4755, 985.9249
626.9576, 999.5389
627.4397, 1003.779
627.9218, 999.7083
628.4039, 995.4332
628.8860, 997.1588
629.3682, 999.8073
629.8503, 993.2410
630.3324, 979.2252
630.8145, 971.3275
631.2966, 986.3423
631.7787, 1004.186
632.2609, 1009.070
632.7430, 994.7322
633.2251, 984.2707
633.7072, 986.2577
634.1893, 991.4498
634.6714, 991.6431
635.1536, 981.6368
635.6357, 978.8424
636.1178, 987.5253
636.5999, 1000.821
637.0820, 1006.295
637.5641, 1003.702
638.0463, 997.4998
638.5284, 985.6585
639.0105, 974.0800
639.4926, 977.2772
639.9747, 992.9104
640.4568, 1007.250
640.9390, 1011.614
641.4211, 1011.222
641.9032, 1011.331
642.3853, 1012.320
642.8674, 1009.916
643.3495, 997.6464
643.8317, 984.5828
644.3138, 976.7908
644.7959, 976.0641
645.2780, 979.3253
645.7601, 990.5617
646.2422, 1002.278
646.7244, 1004.396
647.2065, 994.4323
647.6886, 987.7698
648.1707, 987.6729
648.6528, 991.4416
649.1349, 994.4271
649.6171, 996.6129
650.0992, 998.0047
650.5813, 999.2300
651.0634, 999.2740
651.5455, 995.9869
652.0276, 989.9703
652.5098, 984.6122
652.9919, 979.6246
653.4740, 977.4705
653.9561, 981.4198
654.4382, 993.5691
654.9203, 1000.631
655.4025, 996.0918
655.8846, 989.9745
656.3667, 989.1503
656.8488, 995.7921
657.3309, 1001.240
657.8130, 1005.068
658.2952, 1007.934
658.7773, 1011.694
659.2594, 1016.020
659.7415, 1016.087
660.2236, 1008.969
660.7057, 999.7943
661.1879, 996.2319
