##NAMES=Spessartine
##RRUFFID=R050063
##IDEAL CHEMISTRY=Mn^2+^_3_Al_2_(SiO_4_)_3_
##LOCALITY=Fujian Province, China
##OWNER=RRUFF
##SOURCE=Rock Currier
##DESCRIPTION=Reddish brown crystals
##STATUS=The identification of this mineral has been confirmed by X-ray diffraction and chemical analysis
##URL=rruff.info/R050063
##MEASURED CHEMISTRY=(Mn_2.72_Fe_0.24_Ca_0.04_)_Σ=3_(Al_1.95_Fe^3+^_0.05_)_Σ=2_(Si_1.00_O_4_)_2.75_(F_0.58_(OH)_0.42_)_Σ=1_; trace amounts of Mg; OH estimated by charge balance
131.8235, 275.0583
132.3056, 282.6876
132.7877, 290.7173
133.2699, 301.8290
133.7520, 316.1917
134.2341, 331.0494
134.7162, 344.8832
135.1983, 357.7456
135.6804, 373.1067
136.1626, 392.0060
136.6447, 411.7381
137.1268, 426.9684
137.6089, 436.9594
138.0910, 444.6137
138.5731, 450.9135
139.0553, 455.7346
139.5374, 460.1909
140.0195, 464.4420
140.5016, 468.3469
140.9837, 470.8289
141.4658, 470.6204
141.9480, 471.0208
142.4301, 474.2138
142.9122, 480.6176
143.3943, 489.1849
143.8764, 502.1310
144.3585, 519.1183
144.8407, 527.6428
145.3228, 520.3064
145.8049, 510.0721
146.2870, 509.2419
146.7691, 524.3601
147.2512, 540.2976
147.7334, 554.5134
148.2155, 566.9529
148.6976, 578.4846
149.1797, 587.7772
149.6618, 596.5745
150.1439, 607.0804
150.6261, 618.1017
151.1082, 631.7828
151.5903, 649.4716
152.0724, 674.5137
152.5545, 695.9490
153.0366, 709.6165
153.5188, 719.1669
154.0009, 731.7211
154.4830, 750.1061
154.9651, 770.4774
155.4472, 791.2844
155.9293, 811.6550
156.4115, 833.3345
156.8936, 856.1718
157.3757, 880.5168
157.8578, 907.8547
158.3399, 948.2078
158.8221, 986.1174
159.3042, 1011.872
159.7863, 1011.372
160.2684, 1009.869
160.7505, 1019.491
161.2326, 1038.046
161.7148, 1047.835
162.1969, 1033.583
162.6790, 1009.943
163.1611, 991.2636
163.6432, 985.8847
164.1253, 983.5956
164.6075, 978.3829
165.0896, 970.0101
165.5717, 964.1258
166.0538, 961.5118
166.5359, 963.8237
167.0180, 973.2975
167.5002, 996.7012
167.9823, 1024.005
168.4644, 1047.825
168.9465, 1067.369
169.4286, 1085.189
169.9107, 1105.035
170.3929, 1124.529
170.8750, 1139.171
171.3571, 1141.989
171.8392, 1140.621
172.3213, 1144.219
172.8034, 1155.528
173.2856, 1166.382
173.7677, 1168.245
174.2498, 1162.953
174.7319, 1156.808
175.2140, 1154.443
175.6961, 1153.459
176.1783, 1150.365
176.6604, 1144.780
177.1425, 1136.528
177.6246, 1124.990
178.1067, 1110.428
178.5888, 1093.716
179.0710, 1075.596
179.5531, 1056.040
180.0352, 1034.359
180.5173, 1007.523
180.9994, 981.6831
181.4815, 969.9785
181.9637, 971.9202
182.4458, 975.3856
182.9279, 968.1022
183.4100, 953.1386
183.8921, 941.9169
184.3742, 937.9891
184.8564, 939.7446
185.3385, 946.7009
185.8206, 959.6727
186.3027, 968.6733
186.7848, 958.4220
187.2669, 931.9323
187.7491, 911.9391
188.2312, 909.2699
188.7133, 919.3716
189.1954, 925.8646
189.6775, 928.4354
190.1596, 928.5689
190.6418, 928.9397
191.1239, 929.4257
191.6060, 925.8434
192.0881, 913.5460
192.5702, 894.0360
193.0524, 880.5070
193.5345, 873.3833
194.0166, 871.1609
194.4987, 873.5841
194.9808, 881.0748
195.4629, 886.8485
195.9451, 886.6545
196.4272, 880.6367
196.9093, 876.6195
197.3914, 875.4873
197.8735, 875.3503
198.3556, 871.2088
198.8378, 861.9410
199.3199, 855.8077
199.8020, 859.0693
200.2841, 872.5182
200.7662, 882.9686
201.2483, 889.1990
201.7305, 892.4514
202.2126, 895.4229
202.6947, 897.9427
203.1768, 900.8213
203.6589, 904.6683
204.1410, 909.5774
204.6232, 914.0962
205.1053, 916.7925
205.5874, 919.5807
206.0695, 930.3428
206.5516, 952.0876
207.0337, 973.9050
207.5159, 988.1828
207.9980, 993.3813
208.4801, 996.6671
208.9622, 997.1376
209.4443, 996.3807
209.9264, 1003.352
210.4086, 1021.207
210.8907, 1040.519
211.3728, 1052.665
211.8549, 1054.344
212.3370, 1060.859
212.8191, 1076.361
213.3013, 1099.268
213.7834, 1116.925
214.2655, 1127.156
214.7476, 1135.686
215.2297, 1147.993
215.7118, 1166.761
216.1940, 1181.975
216.6761, 1190.578
217.1582, 1193.026
217.6403, 1199.209
218.1224, 1211.374
218.6045, 1224.173
219.0867, 1232.013
219.5688, 1232.437
220.0509, 1233.688
220.5330, 1238.307
221.0151, 1246.511
221.4972, 1250.361
221.9794, 1248.381
222.4615, 1243.742
222.9436, 1240.057
223.4257, 1238.934
223.9078, 1235.311
224.3899, 1227.610
224.8721, 1215.384
225.3542, 1203.536
225.8363, 1191.650
226.3184, 1180.437
226.8005, 1170.668
227.2827, 1163.087
227.7648, 1155.687
228.2469, 1148.211
228.7290, 1140.840
229.2111, 1132.234
229.6932, 1122.376
230.1754, 1111.401
230.6575, 1099.443
231.1396, 1087.147
231.6217, 1072.711
232.1038, 1054.221
232.5859, 1029.692
233.0681, 1012.303
233.5502, 1005.508
234.0323, 1003.408
234.5144, 996.8111
234.9965, 981.2976
235.4786, 968.9734
235.9608, 965.2202
236.4429, 973.6334
236.9250, 973.6802
237.4071, 961.2955
237.8892, 943.0439
238.3713, 929.4899
238.8535, 923.5181
239.3356, 917.3828
239.8177, 908.0117
240.2998, 893.5322
240.7819, 883.1998
241.2640, 878.7794
241.7462, 877.3113
242.2283, 873.7401
242.7104, 867.5277
243.1925, 860.0333
243.6746, 850.7604
244.1567, 837.4956
244.6389, 830.5800
245.1210, 833.7886
245.6031, 841.0969
246.0852, 841.3494
246.5673, 830.3596
247.0494, 819.4423
247.5316, 812.7124
248.0137, 811.5026
248.4958, 809.8578
248.9779, 806.9510
249.4600, 804.0885
249.9421, 804.3071
250.4243, 810.3386
250.9064, 814.5348
251.3885, 813.1784
251.8706, 803.2711
252.3527, 798.1596
252.8348, 800.0853
253.3170, 805.4088
253.7991, 807.1899
254.2812, 804.2347
254.7633, 799.9982
255.2454, 795.7145
255.7275, 791.6328
256.2097, 786.3904
256.6918, 778.6038
257.1739, 770.6632
257.6560, 767.3719
258.1381, 770.7228
258.6202, 774.6515
259.1024, 777.5637
259.5845, 780.2064
260.0666, 777.5839
260.5487, 765.3597
261.0308, 751.1854
261.5129, 750.9754
261.9951, 771.9875
262.4772, 789.5698
262.9593, 791.8165
263.4414, 773.8143
263.9235, 764.8673
264.4056, 768.7646
264.8878, 778.0986
265.3699, 779.1232
265.8520, 768.8199
266.3341, 758.8281
266.8162, 753.3933
267.2983, 752.9601
267.7805, 755.0864
268.2626, 761.1750
268.7447, 768.2407
269.2268, 770.4075
269.7089, 766.1006
270.1910, 762.5776
270.6732, 763.7926
271.1553, 770.7017
271.6374, 771.9764
272.1195, 765.5002
272.6016, 756.4897
273.0837, 754.3906
273.5659, 760.6629
274.0480, 766.2455
274.5301, 766.4085
275.0122, 760.8047
275.4943, 760.5645
275.9764, 766.9571
276.4586, 776.3262
276.9407, 783.7964
277.4228, 789.2755
277.9049, 792.9457
278.3870, 794.2488
278.8691, 793.3088
279.3513, 792.4197
279.8334, 790.9691
280.3155, 791.1459
280.7976, 797.0758
281.2798, 808.9765
281.7619, 820.3564
282.2440, 828.9422
282.7261, 834.9219
283.2082, 839.6401
283.6903, 843.0605
284.1725, 845.3530
284.6546, 845.0240
285.1367, 842.3123
285.6188, 843.6233
286.1009, 853.1960
286.5830, 868.8185
287.0652, 880.4244
287.5473, 887.3208
288.0294, 893.7067
288.5115, 905.3291
288.9936, 921.4411
289.4757, 935.4412
289.9579, 945.3441
290.4400, 951.5793
290.9221, 954.3950
291.4042, 953.4970
291.8863, 952.8525
292.3684, 955.9814
292.8506, 962.6566
293.3327, 972.0219
293.8148, 985.3004
294.2969, 1000.295
294.7790, 1013.150
295.2611, 1023.907
295.7433, 1033.271
296.2254, 1040.749
296.7075, 1047.359
297.1896, 1055.931
297.6717, 1069.554
298.1538, 1083.810
298.6360, 1090.359
299.1181, 1089.891
299.6002, 1089.853
300.0823, 1097.470
300.5644, 1109.427
301.0465, 1119.100
301.5287, 1122.526
302.0108, 1125.760
302.4929, 1137.747
302.9750, 1156.921
303.4571, 1173.644
303.9392, 1180.726
304.4214, 1181.775
304.9035, 1181.476
305.3856, 1180.135
305.8677, 1179.020
306.3498, 1178.917
306.8319, 1179.882
307.3141, 1182.140
307.7962, 1185.374
308.2783, 1190.148
308.7604, 1197.219
309.2425, 1206.979
309.7246, 1218.229
310.2068, 1231.583
310.6889, 1246.041
311.1710, 1259.163
311.6531, 1268.838
312.1352, 1277.316
312.6173, 1286.313
313.0995, 1296.442
313.5816, 1305.798
314.0637, 1314.324
314.5458, 1321.443
315.0279, 1326.166
315.5100, 1322.082
315.9922, 1320.044
316.4743, 1327.331
316.9564, 1347.385
317.4385, 1365.922
317.9206, 1376.013
318.4027, 1382.273
318.8849, 1391.151
319.3670, 1407.700
319.8491, 1424.240
320.3312, 1436.236
320.8133, 1441.706
321.2954, 1453.209
321.7776, 1479.749
322.2597, 1511.059
322.7418, 1536.198
323.2239, 1541.674
323.7060, 1552.733
324.1881, 1578.369
324.6703, 1620.398
325.1524, 1656.835
325.6345, 1681.771
326.1166, 1702.473
326.5987, 1724.999
327.0808, 1750.716
327.5630, 1776.662
328.0451, 1802.302
328.5272, 1827.693
329.0093, 1854.079
329.4914, 1878.068
329.9735, 1905.462
330.4557, 1941.033
330.9378, 1995.422
331.4199, 2039.030
331.9020, 2064.801
332.3841, 2077.403
332.8662, 2100.725
333.3484, 2141.450
333.8305, 2182.414
334.3126, 2213.590
334.7947, 2230.167
335.2768, 2251.563
335.7589, 2281.950
336.2411, 2315.857
336.7232, 2339.271
337.2053, 2349.054
337.6874, 2357.000
338.1695, 2371.015
338.6516, 2392.957
339.1338, 2402.094
339.6159, 2394.434
340.0980, 2379.543
340.5801, 2374.833
341.0622, 2381.561
341.5443, 2386.342
342.0265, 2382.610
342.5086, 2371.405
342.9907, 2363.635
343.4728, 2360.896
343.9549, 2355.574
344.4370, 2333.940
344.9192, 2298.216
345.4013, 2268.997
345.8834, 2259.083
346.3655, 2259.664
346.8476, 2246.457
347.3297, 2219.155
347.8119, 2189.127
348.2940, 2169.413
348.7761, 2155.963
349.2582, 2136.947
349.7403, 2106.696
350.2225, 2071.220
350.7046, 2036.113
351.1867, 2001.733
351.6688, 1973.297
352.1509, 1958.444
352.6331, 1950.843
353.1152, 1940.985
353.5973, 1926.193
354.0794, 1909.722
354.5615, 1893.683
355.0436, 1878.185
355.5258, 1863.550
356.0079, 1849.466
356.4900, 1836.598
356.9721, 1824.795
357.4542, 1812.965
357.9363, 1805.844
358.4185, 1812.120
358.9006, 1824.276
359.3827, 1829.302
359.8648, 1818.249
360.3469, 1801.835
360.8290, 1782.015
361.3112, 1757.054
361.7933, 1742.993
362.2754, 1752.250
362.7575, 1772.105
363.2396, 1788.803
363.7217, 1800.196
364.2039, 1806.971
364.6860, 1806.547
365.1681, 1798.875
365.6502, 1795.813
366.1323, 1802.678
366.6144, 1812.129
367.0966, 1819.171
367.5787, 1825.152
368.0608, 1826.671
368.5429, 1820.542
369.0250, 1808.807
369.5071, 1802.458
369.9893, 1807.054
370.4714, 1810.594
370.9535, 1806.653
371.4356, 1790.445
371.9177, 1778.348
372.3998, 1774.177
372.8820, 1772.335
373.3641, 1759.051
373.8462, 1729.581
374.3283, 1701.172
374.8104, 1682.718
375.2925, 1675.538
375.7747, 1660.175
376.2568, 1634.768
376.7389, 1604.622
377.2210, 1576.320
377.7031, 1549.864
378.1852, 1525.461
378.6674, 1503.768
379.1495, 1484.106
379.6316, 1461.538
380.1137, 1435.759
380.5958, 1411.552
381.0779, 1396.823
381.5601, 1388.798
382.0422, 1374.235
382.5243, 1347.132
383.0064, 1315.541
383.4885, 1293.299
383.9706, 1279.234
384.4528, 1266.242
384.9349, 1249.459
385.4170, 1230.466
385.8991, 1211.383
386.3812, 1192.220
386.8633, 1173.386
387.3455, 1155.806
387.8276, 1138.895
388.3097, 1120.989
388.7918, 1096.512
389.2739, 1073.952
389.7560, 1061.967
390.2382, 1062.095
390.7203, 1062.166
391.2024, 1056.652
391.6845, 1047.161
392.1666, 1035.436
392.6487, 1019.652
393.1309, 1004.016
393.6130, 990.1404
394.0951, 977.9462
394.5772, 966.8414
395.0593, 958.2596
395.5414, 949.7009
396.0236, 939.6772
396.5057, 925.3560
396.9878, 912.6301
397.4699, 902.2424
397.9520, 893.9237
398.4341, 886.8558
398.9163, 880.2686
399.3984, 875.7802
399.8805, 874.9355
400.3626, 880.9199
400.8447, 880.6247
401.3268, 870.3216
401.8090, 856.4932
402.2911, 848.9030
402.7732, 851.0074
403.2553, 850.2389
403.7374, 841.3243
404.2195, 825.0855
404.7017, 817.9739
405.1838, 822.8068
405.6659, 829.1284
406.1480, 826.0779
406.6301, 813.4670
407.1122, 804.3893
407.5944, 802.8871
408.0765, 804.4890
408.5586, 796.7808
409.0407, 779.9377
409.5228, 764.6308
410.0049, 758.9333
410.4871, 760.3536
410.9692, 762.7721
411.4513, 766.2584
411.9334, 767.9570
412.4155, 763.2085
412.8976, 753.7647
413.3798, 744.9214
413.8619, 739.6669
414.3440, 735.7491
414.8261, 730.3008
415.3082, 723.2587
415.7903, 717.3576
416.2725, 715.7157
416.7546, 715.6548
417.2367, 714.1292
417.7188, 710.1732
418.2009, 704.6132
418.6830, 696.1289
419.1652, 685.8674
419.6473, 678.3724
420.1294, 678.7780
420.6115, 679.6105
421.0937, 676.2934
421.5758, 665.2327
422.0579, 656.6412
422.5400, 654.4461
423.0221, 654.9517
423.5042, 651.9706
423.9864, 639.7430
424.4685, 630.3215
424.9506, 627.1621
425.4327, 630.9023
425.9148, 633.3334
426.3969, 634.4024
426.8791, 634.2276
427.3612, 632.5416
427.8433, 628.5110
428.3254, 625.7936
428.8075, 625.6866
429.2896, 626.9361
429.7718, 624.5005
430.2539, 617.4875
430.7360, 611.4782
431.2181, 611.0245
431.7002, 615.5906
432.1823, 616.8677
432.6645, 613.8358
433.1466, 609.5388
433.6287, 608.3178
434.1108, 609.6390
434.5929, 610.8813
435.0750, 611.0237
435.5572, 610.3821
436.0393, 609.2490
436.5214, 607.6558
437.0035, 606.2680
437.4856, 607.1323
437.9677, 608.0927
438.4499, 605.4101
438.9320, 594.7852
439.4141, 586.0163
439.8962, 588.2384
440.3783, 597.9686
440.8604, 606.2943
441.3426, 607.4500
441.8247, 607.3765
442.3068, 609.5186
442.7889, 614.7217
443.2710, 619.8801
443.7531, 625.9182
444.2353, 630.7943
444.7174, 632.3525
445.1995, 626.5309
445.6816, 621.4347
446.1637, 617.6857
446.6458, 615.4377
447.1280, 616.5049
447.6101, 623.6830
448.0922, 631.1130
448.5743, 635.3932
449.0564, 635.2255
449.5385, 635.1956
450.0207, 634.6477
450.5028, 634.9837
450.9849, 639.6372
451.4670, 649.5097
451.9491, 658.9451
452.4312, 666.1024
452.9134, 671.0065
453.3955, 673.1302
453.8776, 671.9427
454.3597, 671.6810
454.8418, 677.3788
455.3239, 687.8141
455.8061, 697.7683
456.2882, 706.3065
456.7703, 713.6525
457.2524, 720.0316
457.7345, 725.4774
458.2166, 730.2667
458.6988, 732.3174
459.1809, 734.8789
459.6630, 742.1960
460.1451, 755.3733
460.6272, 768.8055
461.1093, 779.2813
461.5915, 787.8011
462.0736, 795.3818
462.5557, 799.1895
463.0378, 805.2380
463.5199, 816.9377
464.0020, 833.4799
464.4842, 849.1540
464.9663, 861.8347
465.4484, 873.9037
465.9305, 886.6896
466.4126, 901.0573
466.8947, 915.0494
467.3769, 929.4561
467.8590, 943.0953
468.3411, 953.8719
468.8232, 959.9278
469.3053, 966.8846
469.7874, 977.4726
470.2696, 991.2216
470.7517, 998.8608
471.2338, 999.2540
471.7159, 997.0204
472.1980, 996.5739
472.6801, 997.7922
473.1623, 995.0175
473.6444, 985.8629
474.1265, 975.4699
474.6086, 975.5525
475.0907, 984.0827
475.5728, 987.9447
476.0550, 976.8929
476.5371, 957.8508
477.0192, 941.8376
477.5013, 929.1738
477.9834, 917.3950
478.4655, 903.4677
478.9477, 889.5900
479.4298, 878.9896
479.9119, 875.2415
480.3940, 871.4871
480.8761, 861.6270
481.3582, 848.6064
481.8404, 841.0556
482.3225, 846.8779
482.8046, 854.6194
483.2867, 859.3037
483.7688, 860.0426
484.2509, 859.3214
484.7331, 854.4323
485.2152, 849.6913
485.6973, 849.1080
486.1794, 854.1461
486.6615, 861.0428
487.1436, 870.3337
487.6258, 881.1641
488.1079, 889.1786
488.5900, 893.4149
489.0721, 897.3601
489.5542, 903.4576
490.0363, 911.7709
490.5185, 916.8992
491.0006, 917.5554
491.4827, 918.7227
491.9648, 928.7612
492.4470, 945.9103
492.9291, 960.4384
493.4112, 968.5259
493.8933, 972.3369
494.3754, 972.2429
494.8575, 969.3091
495.3397, 970.2316
495.8218, 985.7776
496.3039, 1004.462
496.7860, 1012.147
497.2681, 1003.953
497.7502, 996.4187
498.2324, 997.8461
498.7145, 1005.343
499.1966, 1015.014
499.6787, 1035.427
500.1608, 1047.984
500.6429, 1042.759
501.1251, 1021.050
501.6072, 1004.937
502.0893, 1000.678
502.5714, 997.9513
503.0535, 991.9711
503.5356, 981.4652
504.0178, 970.4805
504.4999, 957.7416
504.9820, 945.7994
505.4641, 938.8557
505.9462, 937.7823
506.4283, 937.5421
506.9105, 938.1136
507.3926, 938.1124
507.8747, 929.9180
508.3568, 912.9807
508.8389, 897.4465
509.3210, 893.0657
509.8032, 895.7184
510.2853, 893.4492
510.7674, 883.9891
511.2495, 872.9260
511.7316, 866.2027
512.2137, 862.0721
512.6959, 857.0889
513.1780, 847.0692
513.6601, 837.9310
514.1422, 833.3579
514.6243, 833.1312
515.1064, 835.4235
515.5886, 844.0569
516.0707, 851.8242
516.5528, 853.5327
517.0349, 843.6108
517.5170, 837.9896
517.9991, 844.6700
518.4813, 853.9554
518.9634, 852.5005
519.4455, 829.2466
519.9276, 814.5903
520.4097, 817.5795
520.8918, 834.9550
521.3740, 844.8498
521.8561, 845.1117
522.3382, 845.0196
522.8203, 851.6750
523.3024, 864.4812
523.7845, 874.1047
524.2667, 879.9257
524.7488, 883.1003
525.2309, 883.4565
525.7130, 882.1622
526.1951, 883.0723
526.6772, 886.2112
527.1594, 893.4872
527.6415, 908.5523
528.1236, 930.1497
528.6057, 953.2285
529.0878, 975.8898
529.5699, 998.0836
530.0521, 1019.321
530.5342, 1039.565
531.0163, 1059.656
531.4984, 1079.063
531.9805, 1098.997
532.4626, 1120.824
532.9448, 1144.144
533.4269, 1170.124
533.9090, 1199.128
534.3911, 1230.906
534.8732, 1263.402
535.3553, 1297.185
535.8375, 1331.387
536.3196, 1364.905
536.8017, 1398.042
537.2838, 1433.829
537.7659, 1473.696
538.2480, 1512.614
538.7302, 1543.693
539.2123, 1568.432
539.6944, 1595.281
540.1765, 1626.407
540.6586, 1659.852
541.1407, 1694.825
541.6229, 1730.739
542.1050, 1766.006
542.5871, 1805.035
543.0692, 1839.654
543.5513, 1860.182
544.0334, 1866.058
544.5156, 1869.562
544.9977, 1883.583
545.4798, 1893.473
545.9619, 1887.149
546.4440, 1853.872
546.9261, 1816.947
547.4083, 1779.479
547.8904, 1740.053
548.3725, 1696.719
548.8546, 1647.185
549.3367, 1597.054
549.8188, 1547.784
550.3010, 1499.208
550.7831, 1448.452
551.2652, 1394.170
551.7473, 1342.010
552.2294, 1297.208
552.7115, 1258.996
553.1937, 1221.696
553.6758, 1184.790
554.1579, 1149.092
554.6400, 1115.554
555.1221, 1083.909
555.6042, 1053.921
556.0864, 1024.085
556.5685, 996.7991
557.0506, 976.1307
557.5327, 960.5762
558.0148, 944.8974
558.4969, 927.1270
558.9791, 907.9250
559.4612, 886.2824
559.9433, 860.5464
560.4254, 840.9655
560.9075, 834.1148
561.3896, 831.6907
561.8718, 826.0309
562.3539, 813.2612
562.8360, 804.2301
563.3181, 802.5026
563.8002, 803.7600
564.2823, 796.1052
564.7645, 777.2203
565.2466, 760.2095
565.7287, 751.5128
566.2108, 749.0991
566.6929, 742.0295
567.1750, 730.0809
567.6572, 719.8313
568.1393, 719.8386
568.6214, 725.1497
569.1035, 725.2241
569.5856, 717.3215
570.0677, 708.5944
570.5499, 705.6165
571.0320, 705.5372
571.5141, 703.8212
571.9962, 697.3126
572.4783, 690.3432
572.9604, 683.9670
573.4426, 678.4239
573.9247, 674.6203
574.4068, 674.6687
574.8889, 674.7432
575.3710, 673.2923
575.8531, 669.9554
576.3353, 667.1050
576.8174, 664.8930
577.2995, 662.9834
577.7816, 661.3707
578.2637, 660.2143
578.7458, 657.3249
579.2280, 651.6927
579.7101, 645.4647
580.1922, 642.5441
580.6743, 642.5613
581.1564, 643.4271
581.6385, 644.5789
582.1207, 645.8168
582.6028, 647.7552
583.0849, 650.0271
583.5670, 649.9172
584.0491, 643.2430
584.5313, 635.1888
585.0134, 629.7562
585.4955, 628.0029
585.9776, 627.4208
586.4597, 629.5971
586.9418, 631.6964
587.4240, 630.2548
587.9061, 620.3620
588.3882, 614.6786
588.8703, 616.6147
589.3524, 623.0657
589.8345, 624.3516
590.3167, 619.0459
590.7988, 614.0866
591.2809, 613.3124
591.7630, 615.5251
592.2451, 614.2317
592.7272, 609.3224
593.2094, 603.5833
593.6915, 598.4836
594.1736, 594.3748
594.6557, 591.6740
595.1378, 590.2591
595.6199, 591.3062
596.1021, 598.7927
596.5842, 608.5021
597.0663, 614.4430
597.5485, 611.9634
598.0306, 608.1149
598.5127, 603.8278
598.9948, 599.6650
599.4769, 597.9498
599.9590, 601.7584
600.4412, 604.3616
600.9233, 602.7967
601.4054, 596.5864
601.8875, 594.2805
602.3696, 597.4713
602.8517, 600.6945
603.3339, 597.7881
603.8160, 589.4593
604.2981, 585.8012
604.7802, 588.5369
605.2623, 594.1187
605.7444, 600.1347
606.2266, 605.4841
606.7087, 606.8003
607.1908, 598.9345
607.6729, 590.7250
608.1550, 588.9342
608.6371, 592.5502
609.1193, 598.2192
609.6014, 609.0326
610.0835, 617.7631
610.5656, 618.8605
611.0477, 610.2881
611.5298, 608.0953
612.0120, 615.8465
612.4941, 627.0006
612.9762, 638.0117
613.4583, 650.0069
613.9404, 657.0358
614.4225, 657.1840
614.9047, 655.1819
615.3868, 658.2884
615.8689, 666.1241
616.3510, 673.1665
616.8331, 677.1076
617.3152, 680.3277
617.7974, 686.3649
618.2795, 694.8644
618.7616, 704.7068
619.2437, 716.9397
619.7258, 728.9848
620.2079, 737.9086
620.6901, 743.6054
621.1722, 752.0027
621.6543, 770.3215
622.1364, 788.4393
622.6185, 799.0858
623.1006, 797.4596
623.5828, 798.5435
624.0649, 803.6979
624.5470, 810.3146
625.0291, 816.1505
625.5112, 821.9512
625.9933, 822.4374
