##NAMES=Spessartine
##RRUFFID=R060279
##IDEAL CHEMISTRY=Mn^2+^_3_Al_2_(SiO_4_)_3_
##LOCALITY=Shigar Valley, northeast of Skardu, Baltistan, Pakistan
##OWNER=RRUFF
##SOURCE=Herb Obodda
##DESCRIPTION=Reddish-brown fine grained fragment
##STATUS=The identification of this mineral has been confirmed by X-ray diffraction and chemical analysis
##URL=rruff.info/R060279
##MEASURED CHEMISTRY=(Mn^2+^_1.64_Ca_0.82_Fe^2+^_0.46_Mg_0.08_)_Σ=3_(Al_1.98_Fe^3+^_0.02_)_Σ=2_(Si_1.00_O_4_)_3_
92.20605, 111.3957
92.68817, 114.2679
93.17029, 116.3114
93.65240, 115.1957
94.13452, 112.8948
94.61664, 110.2817
95.09875, 107.8248
95.58087, 105.4146
96.06299, 102.4195
96.54510, 98.16381
97.02722, 94.32333
97.50933, 91.15951
97.99145, 88.60772
98.47356, 86.71834
98.95568, 85.60564
99.43780, 85.19444
99.91991, 83.16259
100.4020, 78.30795
100.8841, 73.42764
101.3663, 69.47332
101.8484, 66.47533
102.3305, 64.05031
102.8126, 61.82046
103.2947, 59.76653
103.7768, 58.21649
104.2590, 57.44120
104.7411, 57.01897
105.2232, 56.59794
105.7053, 56.13996
106.1874, 55.50408
106.6695, 54.39673
107.1517, 52.85701
107.6338, 51.31407
108.1159, 49.89339
108.5980, 48.60044
109.0801, 47.46566
109.5622, 46.55587
110.0444, 45.76857
110.5265, 45.03740
111.0086, 44.35463
111.4907, 43.67317
111.9728, 42.91750
112.4549, 42.04796
112.9371, 41.25447
113.4192, 40.50834
113.9013, 39.87329
114.3834, 39.40997
114.8655, 39.14341
115.3476, 39.03886
115.8298, 39.02180
116.3119, 39.35066
116.7940, 39.43167
117.2761, 38.99639
117.7582, 38.33326
118.2403, 37.80888
118.7225, 37.64231
119.2046, 37.80652
119.6867, 38.00899
120.1688, 38.40342
120.6509, 38.67985
121.1330, 38.71267
121.6152, 38.52297
122.0973, 38.19070
122.5794, 37.71775
123.0615, 37.12734
123.5436, 36.76608
124.0257, 36.77288
124.5079, 36.92815
124.9900, 37.06460
125.4721, 37.17761
125.9542, 37.22039
126.4363, 37.06854
126.9184, 36.79882
127.4006, 36.59544
127.8827, 36.59739
128.3648, 36.72766
128.8469, 36.73861
129.3290, 36.53182
129.8111, 36.31079
130.2932, 36.20393
130.7754, 36.19129
131.2575, 36.19844
131.7396, 36.18314
132.2217, 36.15054
132.7038, 36.04987
133.1859, 35.73931
133.6681, 35.46584
134.1502, 35.32321
134.6323, 35.32848
135.1144, 35.45581
135.5965, 35.70235
136.0786, 36.23251
136.5608, 36.53552
137.0429, 36.48798
137.5250, 36.33288
138.0071, 36.26062
138.4892, 36.32642
138.9713, 36.44140
139.4535, 36.41546
139.9356, 35.97873
140.4177, 35.77823
140.8998, 35.99705
141.3819, 36.43801
141.8640, 36.83311
142.3462, 37.05962
142.8283, 37.18549
143.3104, 37.40165
143.7925, 37.73332
144.2746, 38.08416
144.7567, 38.43052
145.2388, 38.76855
145.7210, 39.08114
146.2031, 39.34267
146.6852, 39.58332
147.1673, 39.87212
147.6494, 40.25529
148.1315, 40.62083
148.6137, 40.85361
149.0958, 40.93990
149.5779, 40.99191
150.0600, 41.02184
150.5421, 41.05988
151.0242, 41.13861
151.5064, 41.27013
151.9885, 41.44568
152.4706, 41.62233
152.9527, 41.70872
153.4348, 41.99422
153.9169, 42.75106
154.3991, 43.67090
154.8812, 44.34827
155.3633, 44.50204
155.8454, 44.25552
156.3275, 44.36540
156.8096, 45.29280
157.2918, 46.12221
157.7739, 46.62765
158.2560, 46.90469
158.7381, 47.11940
159.2202, 47.37971
159.7023, 47.68218
160.1845, 48.17149
160.6666, 48.91162
161.1487, 49.74493
161.6308, 50.66774
162.1129, 51.64631
162.5950, 52.60027
163.0772, 53.43930
163.5593, 54.14571
164.0414, 54.97034
164.5235, 56.06102
165.0056, 57.14791
165.4877, 58.17408
165.9698, 59.10799
166.4520, 59.68614
166.9341, 59.59608
167.4162, 58.81639
167.8983, 57.71856
168.3804, 56.37057
168.8625, 54.70445
169.3447, 52.46636
169.8268, 49.47345
170.3089, 46.51783
170.7910, 44.45836
171.2731, 43.11241
171.7552, 42.01390
172.2374, 40.99772
172.7195, 40.09815
173.2016, 39.44096
173.6837, 39.14947
174.1658, 38.95044
174.6479, 38.63686
175.1301, 38.23180
175.6122, 37.81982
176.0943, 37.41782
176.5764, 37.02997
177.0585, 36.79109
177.5406, 36.79193
178.0228, 36.88515
178.5049, 37.03437
178.9870, 37.22158
179.4691, 37.40590
179.9512, 37.55456
180.4333, 37.66920
180.9155, 37.73904
181.3976, 37.66609
181.8797, 37.62827
182.3618, 37.69606
182.8439, 37.88217
183.3260, 38.17273
183.8082, 38.58794
184.2903, 39.28642
184.7724, 39.67006
185.2545, 39.51768
185.7366, 39.28126
186.2187, 39.25809
186.7009, 39.49730
187.1830, 39.83659
187.6651, 40.04198
188.1472, 40.02749
188.6293, 40.04623
189.1114, 39.98129
189.5936, 40.00895
190.0757, 40.41053
190.5578, 41.24420
191.0399, 42.11443
191.5220, 42.31561
192.0041, 41.45912
192.4863, 41.01797
192.9684, 41.42941
193.4505, 42.24794
193.9326, 42.92284
194.4147, 43.29167
194.8968, 43.49712
195.3790, 43.75229
195.8611, 44.05722
196.3432, 44.37037
196.8253, 44.73254
197.3074, 45.09285
197.7895, 45.32775
198.2717, 45.37060
198.7538, 45.33296
199.2359, 45.27974
199.7180, 45.18981
200.2001, 45.33928
200.6822, 46.04986
201.1644, 47.19147
201.6465, 48.13082
202.1286, 48.73633
202.6107, 49.05819
203.0928, 49.01262
203.5749, 48.61769
204.0571, 48.45183
204.5392, 49.19543
205.0213, 50.83166
205.5034, 52.00486
205.9855, 52.19387
206.4676, 52.05843
206.9497, 51.85805
207.4319, 51.65382
207.9140, 51.61708
208.3961, 52.02197
208.8782, 52.97318
209.3603, 53.70266
209.8424, 53.80015
210.3246, 53.90439
210.8067, 54.41772
211.2888, 55.33283
211.7709, 56.27259
212.2530, 56.74647
212.7351, 56.56329
213.2173, 56.50327
213.6994, 56.63707
214.1815, 56.83985
214.6636, 57.04715
215.1457, 57.24945
215.6278, 57.48304
216.1100, 57.82608
216.5921, 58.43983
217.0742, 58.73710
217.5563, 58.48360
218.0384, 58.15685
218.5205, 58.01375
219.0027, 58.11571
219.4848, 58.41249
219.9669, 58.85439
220.4490, 59.54119
220.9311, 60.12529
221.4132, 60.63449
221.8954, 61.03986
222.3775, 61.35865
222.8596, 61.58004
223.3417, 61.60685
223.8238, 61.26297
224.3059, 60.25470
224.7881, 59.73473
225.2702, 60.09104
225.7523, 60.69392
226.2344, 61.06725
226.7165, 61.11288
227.1986, 60.89654
227.6807, 60.44018
228.1629, 59.67456
228.6450, 59.02132
229.1271, 58.60059
229.6092, 58.25661
230.0913, 57.82766
230.5734, 57.28339
231.0556, 56.71979
231.5377, 56.26333
232.0198, 55.91327
232.5019, 55.51122
232.9840, 55.03933
233.4661, 54.50105
233.9483, 53.87367
234.4304, 53.13998
234.9125, 52.40785
235.3946, 51.83972
235.8767, 51.38552
236.3588, 50.80241
236.8410, 49.80511
237.3231, 48.71916
237.8052, 48.10817
238.2873, 48.13526
238.7694, 48.19532
239.2515, 47.68580
239.7337, 46.82806
240.2158, 46.09214
240.6979, 45.74699
241.1800, 45.59820
241.6621, 45.27452
242.1442, 44.71572
242.6264, 44.12836
243.1085, 43.62792
243.5906, 43.18898
244.0727, 42.78125
244.5548, 42.41313
245.0369, 42.06142
245.5191, 41.67534
246.0012, 41.24710
246.4833, 40.80270
246.9654, 40.40478
247.4475, 39.99113
247.9296, 39.43033
248.4117, 38.54547
248.8939, 37.60103
249.3760, 37.26036
249.8581, 37.86084
250.3402, 38.35975
250.8223, 38.41302
251.3044, 38.17265
251.7866, 37.73833
252.2687, 37.09963
252.7508, 36.41668
253.2329, 36.10049
253.7150, 36.42789
254.1971, 36.55682
254.6793, 36.05426
255.1614, 35.38844
255.6435, 35.05113
256.1256, 35.25415
256.6077, 35.72268
257.0898, 35.87362
257.5720, 35.55373
258.0541, 35.19556
258.5362, 34.80903
259.0183, 34.45340
259.5004, 34.20989
259.9825, 34.10255
260.4647, 34.03042
260.9468, 33.76379
261.4289, 33.03902
261.9110, 32.65843
262.3931, 32.85047
262.8752, 33.23236
263.3574, 33.55193
263.8395, 33.72834
264.3216, 33.78297
264.8037, 33.72939
265.2858, 33.45231
265.7679, 33.30330
266.2501, 33.46082
266.7322, 33.60427
267.2143, 33.48013
267.6964, 33.06313
268.1785, 32.53181
268.6606, 32.09359
269.1428, 31.66123
269.6249, 31.59943
270.1070, 32.23651
270.5891, 32.91278
271.0712, 33.21664
271.5533, 33.12239
272.0355, 32.86898
272.5176, 32.70689
272.9997, 32.64323
273.4818, 32.65676
273.9639, 32.82345
274.4460, 32.98522
274.9282, 33.07849
275.4103, 33.09242
275.8924, 33.01451
276.3745, 32.80354
276.8566, 32.41593
277.3387, 32.33634
277.8208, 32.87172
278.3029, 33.34602
278.7851, 33.38292
279.2672, 33.08787
279.7493, 32.82877
280.2314, 32.88567
280.7135, 33.24562
281.1956, 33.52290
281.6778, 33.80504
282.1599, 33.93673
282.6420, 33.78899
283.1241, 33.44818
283.6062, 33.06531
284.0883, 32.70443
284.5705, 32.40447
285.0526, 32.42619
285.5347, 33.16074
286.0168, 33.71299
286.4989, 33.75318
286.9810, 33.48755
287.4632, 33.26381
287.9453, 33.24350
288.4274, 33.36321
288.9095, 33.44542
289.3916, 33.42422
289.8737, 33.46383
290.3559, 33.67744
290.8380, 33.94041
291.3201, 34.06376
291.8022, 33.97715
292.2843, 33.79133
292.7664, 33.70686
293.2486, 33.78288
293.7307, 33.81897
294.2128, 33.74242
294.6949, 33.64154
295.1770, 33.59643
295.6591, 33.62664
296.1413, 33.74288
296.6234, 33.98315
297.1055, 34.40282
297.5876, 34.71449
298.0697, 34.79663
298.5518, 34.83721
299.0340, 35.04967
299.5161, 35.44191
299.9982, 35.78384
300.4803, 35.85052
300.9624, 35.60639
301.4445, 35.37296
301.9267, 35.11616
302.4088, 34.89841
302.8909, 34.66990
303.3730, 34.47510
303.8551, 34.56373
304.3372, 35.20357
304.8194, 36.30473
305.3015, 37.02925
305.7836, 37.28164
306.2657, 37.30380
306.7478, 37.01436
307.2299, 36.55379
307.7121, 36.33438
308.1942, 36.59156
308.6763, 37.21784
309.1584, 37.85500
309.6405, 38.63377
310.1227, 39.23521
310.6048, 39.39363
311.0869, 39.32122
311.5690, 39.43077
312.0511, 39.89208
312.5332, 40.54128
313.0154, 41.07737
313.4975, 41.52621
313.9796, 41.83110
314.4617, 41.76108
314.9438, 41.62151
315.4259, 41.86189
315.9081, 42.60216
316.3902, 43.50643
316.8723, 44.13191
317.3544, 44.40328
317.8365, 44.91592
318.3186, 46.06820
318.8007, 47.26421
319.2828, 47.85005
319.7650, 47.79528
320.2471, 47.72670
320.7292, 48.23500
321.2113, 49.32871
321.6934, 50.11621
322.1755, 50.37830
322.6577, 50.53925
323.1398, 50.77797
323.6219, 51.12348
324.1040, 51.64109
324.5861, 52.37400
325.0682, 53.31573
325.5504, 54.37201
326.0325, 55.65304
326.5146, 56.91013
326.9967, 58.08902
327.4788, 59.18122
327.9609, 60.14721
328.4431, 60.94320
328.9252, 61.68014
329.4073, 62.63678
329.8894, 63.88614
330.3715, 65.15401
330.8536, 66.28144
331.3358, 67.43757
331.8179, 68.87566
332.3000, 70.66457
332.7821, 72.59730
333.2642, 74.40604
333.7463, 76.02336
334.2285, 77.76713
334.7106, 79.70622
335.1927, 81.72362
335.6748, 83.75895
336.1569, 85.78603
336.6390, 87.78030
337.1212, 89.65244
337.6033, 91.40529
338.0854, 93.59069
338.5675, 96.69691
339.0496, 99.73698
339.5317, 102.1475
340.0139, 104.0821
340.4960, 105.9692
340.9781, 108.0253
341.4602, 110.2756
341.9423, 112.8658
342.4244, 116.2257
342.9066, 119.3499
343.3887, 121.6446
343.8708, 123.6865
344.3529, 126.3510
344.8350, 129.9691
345.3171, 134.1294
345.7993, 138.0477
346.2814, 141.5357
346.7635, 145.0937
347.2456, 148.7115
347.7277, 152.3818
348.2098, 156.0971
348.6920, 159.8350
349.1741, 163.6353
349.6562, 167.4822
350.1383, 171.3774
350.6204, 175.4149
351.1025, 180.2934
351.5847, 184.6585
352.0668, 187.6729
352.5489, 189.5215
353.0310, 190.9465
353.5131, 192.5087
353.9952, 194.1042
354.4774, 194.6184
354.9595, 193.4615
355.4416, 191.9181
355.9237, 190.4634
356.4058, 188.6967
356.8879, 185.9023
357.3701, 181.7559
357.8522, 176.8157
358.3343, 172.3413
358.8164, 168.8828
359.2985, 165.0467
359.7806, 160.6620
360.2627, 156.0158
360.7448, 151.1802
361.2270, 146.2389
361.7091, 141.5435
362.1912, 137.5652
362.6733, 134.5710
363.1554, 131.0974
363.6375, 126.3124
364.1197, 121.8797
364.6018, 118.6888
365.0839, 116.4281
365.5660, 114.3013
366.0481, 111.7272
366.5302, 108.7735
367.0124, 105.9529
367.4945, 103.1383
367.9766, 100.6618
368.4587, 98.78383
368.9408, 97.19273
369.4229, 95.51456
369.9051, 93.60313
370.3872, 91.61207
370.8693, 89.82901
371.3514, 88.32531
371.8335, 86.86256
372.3156, 85.34000
372.7978, 83.89509
373.2799, 82.64518
373.7620, 81.58743
374.2441, 80.55629
374.7262, 79.39953
375.2083, 78.11556
375.6905, 76.79047
376.1726, 75.35281
376.6547, 73.95321
377.1368, 72.67778
377.6189, 71.48317
378.1010, 70.27665
378.5832, 68.94678
379.0653, 67.60766
379.5474, 66.63682
380.0295, 66.25523
380.5116, 65.65385
380.9937, 64.27592
381.4759, 62.65525
381.9580, 61.32264
382.4401, 60.43738
382.9222, 59.65589
383.4043, 58.63942
383.8864, 57.38755
384.3686, 55.99915
384.8507, 54.24690
385.3328, 52.64407
385.8149, 51.68359
386.2970, 51.30772
386.7791, 50.92783
387.2613, 50.26348
387.7434, 49.36614
388.2255, 48.31463
388.7076, 47.07579
389.1897, 45.82318
389.6718, 44.61680
390.1540, 43.48623
390.6361, 42.51447
391.1182, 41.77665
391.6003, 41.14264
392.0824, 40.51134
392.5645, 39.88214
393.0467, 39.26154
393.5288, 38.62202
394.0109, 38.02714
394.4930, 37.64518
394.9751, 37.58959
395.4572, 37.30761
395.9394, 36.35576
396.4215, 35.09810
396.9036, 34.17388
397.3857, 33.72258
397.8678, 33.44907
398.3499, 33.05679
398.8321, 32.53670
399.3142, 32.04137
399.7963, 31.58195
400.2784, 31.13987
400.7605, 30.68851
401.2426, 30.23731
401.7247, 29.84879
402.2068, 29.58999
402.6890, 29.39416
403.1711, 28.95689
403.6532, 27.95308
404.1353, 27.15055
404.6174, 26.74119
405.0995, 26.58229
405.5817, 26.58294
406.0638, 26.69953
406.5459, 26.76044
407.0280, 26.50345
407.5101, 25.78707
407.9922, 25.19620
408.4744, 24.64222
408.9565, 24.27482
409.4386, 24.31727
409.9207, 24.63847
410.4028, 24.86268
410.8849, 24.70872
411.3671, 24.23267
411.8492, 23.86700
412.3313, 23.74716
412.8134, 23.57391
413.2955, 23.22674
413.7776, 22.84449
414.2598, 22.61729
414.7419, 22.59652
415.2240, 22.60323
415.7061, 22.30518
416.1882, 21.52834
416.6703, 21.05327
417.1525, 21.08314
417.6346, 21.28618
418.1167, 21.70013
418.5988, 22.19268
419.0809, 22.42457
419.5630, 22.08473
420.0452, 21.31256
420.5273, 20.66454
421.0094, 20.09768
421.4915, 19.76447
421.9736, 19.89547
422.4557, 20.20039
422.9379, 20.35776
423.4200, 20.26591
423.9021, 20.10900
424.3842, 20.09908
424.8663, 20.22838
425.3484, 20.30868
425.8306, 20.33416
426.3127, 20.24940
426.7948, 19.91623
427.2769, 19.38961
427.7590, 19.03893
428.2411, 19.14875
428.7233, 19.47403
429.2054, 19.66306
429.6875, 19.70020
430.1696, 19.61950
430.6517, 19.36600
431.1339, 19.02979
431.6160, 18.86761
432.0981, 18.91529
432.5802, 19.08160
433.0623, 19.44492
433.5444, 19.88089
434.0266, 20.09306
434.5087, 19.97167
434.9908, 19.74633
435.4729, 19.74855
435.9550, 20.06765
436.4371, 20.20047
436.9193, 19.98397
437.4014, 19.69491
437.8835, 19.50173
438.3656, 19.40980
438.8477, 19.37738
439.3298, 19.38723
439.8120, 19.42179
440.2941, 19.38549
440.7762, 19.12529
441.2583, 18.98503
441.7404, 19.05833
442.2225, 19.23775
442.7046, 19.40199
443.1867, 19.52597
443.6689, 19.69742
444.1510, 20.06840
444.6331, 20.73683
445.1152, 21.11561
445.5973, 20.95777
446.0794, 20.75018
446.5616, 20.65480
447.0437, 20.63347
447.5258, 20.55835
448.0079, 20.33010
448.4900, 20.08517
448.9721, 20.20286
449.4543, 20.82738
449.9364, 21.39972
450.4185, 21.85584
450.9006, 22.16901
451.3827, 22.25986
451.8648, 22.13759
452.3470, 21.98603
452.8291, 21.86592
453.3112, 21.81843
453.7933, 22.08767
454.2754, 22.81786
454.7575, 23.54377
455.2397, 23.95694
455.7218, 24.15530
456.2039, 24.26658
456.6860, 24.25997
457.1681, 24.25620
457.6502, 24.35321
458.1324, 24.54000
458.6145, 24.77855
459.0966, 25.07416
459.5787, 25.38268
460.0608, 25.63042
460.5429, 25.81233
461.0251, 26.01187
461.5072, 26.34327
461.9893, 26.62906
462.4714, 26.66272
462.9535, 26.46934
463.4356, 26.26135
463.9178, 26.17310
464.3999, 26.19059
464.8820, 26.23703
465.3641, 26.35550
465.8462, 26.44573
466.3283, 26.46869
466.8105, 26.46988
467.2926, 26.51788
467.7747, 26.61926
468.2568, 26.69131
468.7389, 26.60975
469.2210, 26.31984
469.7032, 26.23852
470.1853, 26.51089
470.6674, 26.84631
471.1495, 27.18098
471.6316, 27.51781
472.1137, 27.90298
472.5959, 28.37264
473.0780, 28.80423
473.5601, 28.93557
474.0422, 28.69663
474.5243, 28.45619
475.0064, 28.21261
475.4886, 28.04455
475.9707, 28.11395
476.4528, 28.35116
476.9349, 28.40572
477.4170, 27.91705
477.8991, 27.12555
478.3813, 26.58495
478.8634, 26.33191
479.3455, 26.13099
479.8276, 25.88216
480.3097, 25.60342
480.7918, 25.30635
481.2740, 24.94008
481.7561, 24.70349
482.2382, 24.77930
482.7203, 25.03489
483.2024, 25.24056
483.6845, 25.35241
484.1666, 25.37990
484.6487, 25.27350
485.1309, 25.03284
485.6130, 25.10613
486.0951, 25.81246
486.5772, 26.47220
487.0593, 26.73351
487.5414, 26.75971
488.0236, 26.86239
488.5057, 27.16612
488.9878, 27.57560
489.4699, 27.93144
489.9520, 28.26844
490.4341, 28.46120
490.9163, 28.19342
491.3984, 28.09770
491.8805, 28.58140
492.3626, 29.50738
492.8447, 30.51632
493.3268, 31.40578
493.8090, 32.16874
494.2911, 32.71436
494.7732, 32.84488
495.2553, 33.29375
495.7374, 34.68206
496.2195, 36.13266
496.7017, 36.95827
497.1838, 37.14335
497.6659, 37.28065
498.1480, 37.79285
498.6301, 38.56895
499.1122, 39.30824
499.5944, 39.99650
500.0765, 40.67646
500.5586, 41.44597
501.0407, 42.20010
501.5228, 42.75394
502.0049, 43.14290
502.4871, 43.23670
502.9692, 42.88396
503.4513, 42.21555
503.9334, 41.46127
504.4155, 40.67263
504.8976, 39.76894
505.3798, 38.65931
505.8619, 37.32149
506.3440, 35.98388
506.8261, 34.60193
507.3082, 33.27040
507.7903, 31.95160
508.2725, 30.72468
508.7546, 29.73407
509.2367, 29.02882
509.7188, 28.50709
510.2009, 28.02014
510.6830, 27.56957
511.1652, 27.14727
511.6473, 26.69451
512.1294, 26.32981
512.6115, 26.16909
513.0936, 26.12322
513.5757, 26.01225
514.0579, 25.73356
514.5400, 25.37649
515.0221, 25.08974
515.5042, 24.87147
515.9863, 24.73388
516.4684, 24.73176
516.9506, 24.76180
517.4327, 24.72879
517.9148, 24.64135
518.3969, 24.57074
518.8790, 24.53104
519.3611, 24.53311
519.8433, 24.56153
520.3254, 24.62440
520.8075, 24.85739
521.2896, 25.40625
521.7717, 26.07150
522.2538, 26.32831
522.7360, 25.99860
523.2181, 25.85165
523.7002, 26.16510
524.1823, 26.60934
524.6644, 26.91924
525.1465, 27.07072
525.6287, 27.11340
526.1108, 27.04626
526.5929, 26.94645
527.0750, 27.24831
527.5571, 28.42709
528.0392, 29.32985
528.5214, 29.69864
529.0035, 29.87800
529.4856, 30.07456
529.9677, 30.35508
530.4498, 30.76661
530.9319, 31.33233
531.4141, 32.06029
531.8962, 33.07535
532.3783, 34.56216
532.8604, 35.89962
533.3425, 36.68041
533.8246, 37.23815
534.3068, 37.93165
534.7889, 38.83569
535.2710, 39.70155
535.7531, 40.24089
536.2352, 40.65268
536.7173, 41.43230
537.1995, 42.66680
537.6816, 43.92375
538.1637, 44.81360
538.6458, 45.44678
539.1279, 46.45503
539.6100, 48.29491
540.0922, 49.91988
540.5743, 50.87173
541.0564, 51.53092
541.5385, 52.29116
542.0206, 53.26591
542.5027, 54.50811
542.9849, 56.11294
543.4670, 58.09320
543.9491, 59.87474
544.4312, 61.38175
544.9133, 62.74993
545.3954, 63.99732
545.8775, 65.11970
546.3596, 66.02287
546.8417, 66.70601
547.3239, 67.45295
547.8060, 68.69546
548.2881, 70.36867
548.7702, 71.73249
549.2523, 72.93517
549.7344, 73.43670
550.2166, 72.31241
550.6987, 70.40499
551.1808, 69.05706
551.6629, 68.83149
552.1450, 68.39707
552.6271, 66.86387
553.1093, 64.53280
553.5914, 61.95347
554.0735, 59.23125
554.5556, 56.39823
555.0377, 53.40716
555.5198, 50.26120
556.0020, 47.65580
556.4841, 46.12270
556.9662, 44.40292
557.4483, 41.88558
557.9304, 39.11683
558.4125, 36.77343
558.8947, 35.01217
559.3768, 33.58950
559.8589, 32.23693
560.3410, 30.96026
560.8231, 29.81079
561.3052, 28.85333
561.7874, 27.94920
562.2695, 26.98133
562.7516, 26.06694
563.2337, 25.35323
563.7158, 24.88449
564.1979, 24.51171
564.6801, 24.17769
565.1622, 23.84021
565.6443, 23.31488
566.1264, 22.53738
566.6085, 21.79191
567.0906, 21.22600
567.5728, 20.86301
568.0549, 20.73425
568.5370, 21.12091
569.0191, 21.29975
569.5012, 20.87216
569.9833, 20.17761
570.4655, 19.56692
570.9476, 19.12727
571.4297, 18.86955
571.9118, 18.82437
572.3939, 18.97614
572.8760, 19.13249
573.3582, 19.42583
573.8403, 19.53230
574.3224, 19.30875
574.8045, 18.95457
575.2866, 18.54759
575.7687, 18.15053
576.2509, 17.97271
576.7330, 18.39572
577.2151, 19.18110
577.6972, 19.30053
578.1793, 18.57383
578.6614, 17.96993
579.1436, 18.04824
579.6257, 18.40609
580.1078, 18.43524
580.5899, 18.07627
581.0720, 17.68917
581.5541, 17.34391
582.0363, 17.08014
582.5184, 16.96097
583.0005, 16.97532
583.4826, 17.04186
583.9647, 17.11580
584.4468, 17.20234
584.9290, 17.31753
585.4111, 17.48801
585.8932, 17.64709
586.3753, 17.95378
586.8574, 18.11376
