##NAMES=Spessartine
##RRUFFID=R060279
##IDEAL CHEMISTRY=Mn^2+^_3_Al_2_(SiO_4_)_3_
##LOCALITY=Shigar Valley, northeast of Skardu, Baltistan, Pakistan
##OWNER=RRUFF
##SOURCE=Herb Obodda
##DESCRIPTION=Reddish-brown fine grained fragment
##STATUS=The identification of this mineral has been confirmed by X-ray diffraction and chemical analysis
##URL=rruff.info/R060279
##MEASURED CHEMISTRY=(Mn^2+^_1.64_Ca_0.82_Fe^2+^_0.46_Mg_0.08_)_Σ=3_(Al_1.98_Fe^3+^_0.02_)_Σ=2_(Si_1.00_O_4_)_3_
92.10938, 10.37815
92.59149, 9.838978
93.07361, 10.07377
93.55573, 11.01731
94.03784, 11.85190
94.51996, 11.68364
95.00208, 10.77867
95.48419, 10.08977
95.96631, 10.07211
96.44843, 10.44644
96.93054, 10.33069
97.41266, 9.651666
97.89478, 8.881143
98.37689, 8.645754
98.85901, 8.956152
99.34113, 9.252455
99.82324, 9.280832
100.3054, 9.041229
100.7875, 8.923623
101.2696, 8.960968
101.7517, 9.077903
102.2338, 9.159758
102.7159, 9.230664
103.1981, 9.193987
103.6802, 8.930071
104.1623, 8.259647
104.6444, 7.964993
105.1265, 8.235698
105.6086, 8.888022
106.0908, 9.179873
106.5729, 8.680208
107.0550, 8.324084
107.5371, 8.698973
108.0192, 10.65653
108.5013, 12.07658
108.9835, 12.70658
109.4656, 12.56005
109.9477, 12.27108
110.4298, 11.19100
110.9119, 10.32788
111.3940, 10.35144
111.8762, 12.67503
112.3583, 14.47450
112.8404, 14.96229
113.3225, 13.93427
113.8046, 13.53654
114.2867, 14.37403
114.7689, 15.90343
115.2510, 17.51716
115.7331, 19.39886
116.2152, 21.08944
116.6973, 22.30486
117.1794, 22.88996
117.6616, 23.57585
118.1437, 24.65564
118.6258, 26.01540
119.1079, 27.42822
119.5900, 28.96815
120.0721, 30.44215
120.5543, 31.72659
121.0364, 32.79636
121.5185, 33.68401
122.0006, 34.22988
122.4827, 34.57505
122.9648, 35.13158
123.4470, 36.21156
123.9291, 37.59576
124.4112, 39.04560
124.8933, 40.52641
125.3754, 42.02830
125.8575, 43.57464
126.3397, 45.15180
126.8218, 46.68237
127.3039, 47.78481
127.7860, 48.79743
128.2681, 50.45726
128.7502, 53.33890
129.2324, 56.72164
129.7145, 59.25940
130.1966, 60.96305
130.6787, 62.51095
131.1608, 64.89171
131.6429, 67.81115
132.1251, 69.88364
132.6072, 70.06960
133.0893, 69.07102
133.5714, 69.49715
134.0535, 71.55723
134.5356, 74.08113
135.0178, 75.54005
135.4999, 75.90053
135.9820, 76.35445
136.4641, 77.36392
136.9462, 78.92372
137.4283, 80.59972
137.9105, 82.40485
138.3926, 84.33022
138.8747, 86.46648
139.3568, 88.97801
139.8389, 91.10423
140.3210, 92.27856
140.8032, 92.17907
141.2853, 92.91981
141.7674, 94.74076
142.2495, 97.27053
142.7316, 99.47326
143.2137, 100.8024
143.6959, 101.7023
144.1780, 103.0513
144.6601, 105.2541
145.1422, 106.8961
145.6243, 107.5922
146.1064, 107.7160
146.5886, 108.7913
147.0707, 111.5598
147.5528, 114.4181
148.0349, 116.4226
148.5170, 116.7588
148.9991, 117.5730
149.4813, 119.1796
149.9634, 121.4851
150.4455, 123.5190
150.9276, 125.1610
151.4097, 126.6301
151.8918, 128.0202
152.3740, 129.1895
152.8561, 130.4681
153.3382, 131.8912
153.8203, 133.4483
154.3024, 135.0904
154.7845, 137.1611
155.2667, 139.1156
155.7488, 140.5741
156.2309, 140.7145
156.7130, 141.0950
157.1951, 142.1950
157.6772, 144.0557
158.1594, 145.7506
158.6415, 146.6596
159.1236, 147.4693
159.6057, 148.8568
160.0878, 151.2469
160.5699, 153.9699
161.0521, 156.8000
161.5342, 159.6866
162.0163, 162.8635
162.4984, 166.4364
162.9805, 170.3359
163.4626, 174.4750
163.9448, 178.7113
164.4269, 183.2575
164.9090, 188.6225
165.3911, 195.1457
165.8732, 200.8191
166.3553, 205.0402
166.8375, 207.7330
167.3196, 208.7606
167.8017, 208.4165
168.2838, 206.1881
168.7659, 201.2365
169.2480, 192.9218
169.7302, 184.0944
170.2123, 176.4843
170.6944, 169.7438
171.1765, 163.2299
171.6586, 155.8780
172.1407, 148.8699
172.6229, 143.3426
173.1050, 139.6229
173.5871, 136.8975
174.0692, 134.9008
174.5513, 133.4322
175.0334, 131.9277
175.5156, 129.7403
175.9977, 127.3878
176.4798, 125.6472
176.9619, 124.6337
177.4440, 124.1953
177.9261, 124.3545
178.4083, 125.0207
178.8904, 125.8100
179.3725, 126.7250
179.8546, 127.5584
180.3367, 127.7950
180.8188, 127.1046
181.3010, 126.1981
181.7831, 125.9552
182.2652, 126.3530
182.7473, 127.2140
183.2294, 128.7581
183.7115, 130.7019
184.1937, 132.1767
184.6758, 132.9134
185.1579, 133.2424
185.6400, 133.8346
186.1221, 134.6676
186.6042, 135.3078
187.0864, 135.1427
187.5685, 134.3981
188.0506, 134.0922
188.5327, 134.5209
189.0148, 135.4374
189.4969, 136.4515
189.9791, 137.5721
190.4612, 138.5097
190.9433, 138.8160
191.4254, 138.5945
191.9075, 138.7806
192.3896, 139.7242
192.8718, 141.1410
193.3539, 142.2378
193.8360, 143.0026
194.3181, 143.6251
194.8002, 144.2469
195.2823, 144.8726
195.7645, 145.4996
196.2466, 146.1040
196.7287, 146.7105
197.2108, 147.4604
197.6929, 148.3832
198.1750, 149.2987
198.6572, 149.9292
199.1393, 150.2407
199.6214, 150.8813
200.1035, 152.1500
200.5856, 153.8889
201.0677, 155.0925
201.5499, 155.6781
202.0320, 156.0269
202.5141, 156.3488
202.9962, 156.5701
203.4783, 157.4188
203.9604, 159.3745
204.4426, 162.2156
204.9247, 163.9877
205.4068, 164.4973
205.8889, 164.4007
206.3710, 164.1446
206.8531, 163.5930
207.3353, 163.5972
207.8174, 164.4336
208.2995, 166.0519
208.7816, 167.8131
209.2637, 169.7371
209.7458, 171.7276
210.2280, 173.7740
210.7101, 176.0121
211.1922, 177.7767
211.6743, 178.7612
212.1564, 178.9931
212.6385, 179.6078
213.1207, 180.6577
213.6028, 181.9883
214.0849, 183.4592
214.5670, 185.0639
215.0491, 186.8043
215.5313, 188.8156
216.0134, 191.0991
216.4955, 192.7552
216.9776, 193.6464
217.4597, 194.1225
217.9418, 194.4794
218.4239, 194.5718
218.9061, 194.9062
219.3882, 195.5698
219.8703, 196.5551
220.3524, 197.9693
220.8345, 200.0506
221.3166, 202.2443
221.7988, 204.0653
222.2809, 205.5447
222.7630, 206.5128
223.2451, 206.7219
223.7272, 206.1572
224.2093, 206.2141
224.6915, 207.2455
225.1736, 208.5056
225.6557, 209.2336
226.1378, 209.2998
226.6199, 209.1326
227.1020, 208.7457
227.5842, 208.1345
228.0663, 207.6677
228.5484, 207.4790
229.0305, 207.2820
229.5126, 206.8020
229.9947, 205.9485
230.4769, 205.0041
230.9590, 204.0588
231.4411, 203.1141
231.9232, 201.7800
232.4053, 199.7638
232.8874, 197.6510
233.3696, 196.0300
233.8517, 195.4071
234.3338, 194.2625
234.8159, 192.1699
235.2980, 189.1389
235.7801, 186.5672
236.2623, 184.5970
236.7444, 182.9346
237.2265, 181.4038
237.7086, 180.2778
238.1907, 178.7124
238.6728, 176.2454
239.1550, 172.9866
239.6371, 170.9595
240.1192, 171.0025
240.6013, 171.3335
241.0834, 170.4662
241.5655, 167.6085
242.0477, 165.1508
242.5298, 163.5078
243.0119, 162.5912
243.4940, 161.5090
243.9761, 160.2114
244.4582, 158.8036
244.9404, 157.3225
245.4225, 155.5911
245.9046, 154.1470
246.3867, 153.1170
246.8688, 152.4405
247.3509, 151.7051
247.8331, 150.9172
248.3152, 150.0640
248.7973, 149.0747
249.2794, 147.6452
249.7615, 146.7766
250.2436, 146.9045
250.7258, 147.6946
251.2079, 147.4544
251.6900, 145.4946
252.1721, 143.4854
252.6542, 142.4841
253.1363, 143.1309
253.6185, 143.2605
254.1006, 142.4777
254.5827, 141.1162
255.0648, 140.4529
255.5469, 140.9240
256.0291, 141.4031
256.5112, 141.2591
256.9933, 140.1642
257.4754, 139.2739
257.9575, 138.6676
258.4396, 138.2758
258.9218, 137.9153
259.4039, 137.5509
259.8860, 137.2778
260.3681, 137.1564
260.8502, 137.2511
261.3323, 137.2751
261.8145, 137.0760
262.2966, 136.8909
262.7787, 137.3985
263.2608, 139.1219
263.7429, 140.4149
264.2250, 140.3956
264.7072, 138.5583
265.1893, 137.4894
265.6714, 137.4494
266.1535, 137.9609
266.6356, 138.1835
267.1177, 138.0434
267.5999, 137.8013
268.0820, 137.4525
268.5641, 136.9134
269.0462, 137.0054
269.5283, 138.1130
270.0104, 139.3807
270.4926, 139.3901
270.9747, 137.7231
271.4568, 136.2843
271.9389, 135.7534
272.4210, 136.1559
272.9031, 136.4460
273.3853, 136.5640
273.8674, 136.6819
274.3495, 137.0752
274.8316, 137.8298
275.3137, 138.4184
275.7958, 138.6965
276.2780, 138.6725
276.7601, 138.4095
277.2422, 137.7695
277.7243, 137.2358
278.2064, 137.4123
278.6885, 138.3846
279.1707, 139.3235
279.6528, 140.1075
280.1349, 140.7029
280.6170, 140.8754
281.0991, 140.5644
281.5812, 140.0814
282.0634, 139.6510
282.5455, 139.2668
283.0276, 139.0095
283.5097, 138.8652
283.9918, 138.8764
284.4739, 139.2841
284.9561, 140.1484
285.4382, 140.9686
285.9203, 141.3519
286.4024, 141.3136
286.8845, 141.0999
287.3666, 140.6024
287.8488, 140.1330
288.3309, 140.6065
288.8130, 142.0489
289.2951, 143.3022
289.7772, 143.3396
290.2593, 142.4097
290.7415, 142.0495
291.2236, 142.5302
291.7057, 143.3370
292.1878, 143.6664
292.6699, 143.5466
293.1520, 143.3092
293.6342, 143.0184
294.1163, 142.7445
294.5984, 142.7969
295.0805, 143.2516
295.5626, 143.7771
296.0447, 143.8465
296.5269, 143.5720
297.0090, 143.4984
297.4911, 144.0310
297.9732, 144.9244
298.4553, 145.6249
298.9374, 146.1088
299.4196, 146.5420
299.9017, 147.1659
300.3838, 147.8782
300.8659, 148.3895
301.3480, 148.3903
301.8301, 148.2160
302.3123, 148.4268
302.7944, 149.0099
303.2765, 149.5694
303.7586, 149.6493
304.2407, 149.4998
304.7228, 149.5967
305.2050, 150.2638
305.6871, 151.0660
306.1692, 151.3462
306.6513, 151.2296
307.1334, 151.4105
307.6155, 152.7954
308.0977, 154.6047
308.5798, 155.7848
309.0619, 155.8154
309.5440, 155.6803
310.0261, 156.0599
310.5082, 156.9053
310.9904, 158.0638
311.4725, 159.8671
311.9546, 161.7349
312.4367, 163.1078
312.9188, 163.7731
313.4009, 164.3244
313.8831, 164.9321
314.3652, 165.6801
314.8473, 166.7330
315.3294, 168.2911
315.8115, 170.0938
316.2936, 172.0285
316.7758, 174.1040
317.2579, 176.1677
317.7400, 178.3631
318.2221, 180.4615
318.7042, 182.2193
319.1863, 183.1084
319.6685, 184.0440
320.1506, 185.4848
320.6327, 187.4568
321.1148, 189.3115
321.5969, 190.6526
322.0790, 191.8861
322.5612, 193.3833
323.0433, 195.2541
323.5254, 197.3443
324.0075, 199.7459
324.4896, 202.4141
324.9717, 204.9282
325.4539, 207.1949
325.9360, 209.3362
326.4181, 211.3932
326.9002, 213.2316
327.3823, 215.1847
327.8644, 217.3913
328.3466, 219.7446
328.8287, 221.9140
329.3108, 223.3794
329.7929, 225.1354
330.2750, 227.5477
330.7571, 231.0403
331.2393, 234.2882
331.7214, 237.2331
332.2035, 239.9642
332.6856, 242.5444
333.1677, 244.6567
333.6498, 247.0925
334.1320, 250.0615
334.6141, 253.5111
335.0962, 257.4431
335.5783, 261.8550
336.0604, 266.7525
336.5425, 272.3329
337.0247, 279.0336
337.5068, 285.3481
337.9889, 290.9909
338.4710, 296.0107
338.9531, 300.7996
339.4352, 304.9690
339.9173, 309.8734
340.3994, 316.8001
340.8816, 326.1868
341.3637, 335.1293
341.8458, 343.2020
342.3279, 350.7540
342.8100, 359.1619
343.2921, 368.4077
343.7743, 378.1637
344.2564, 388.0908
344.7385, 398.2872
345.2206, 408.9095
345.7027, 420.0249
346.1848, 431.7057
346.6670, 444.1756
347.1491, 457.4174
347.6312, 471.1219
348.1133, 485.2106
348.5954, 499.7263
349.0775, 515.1033
349.5597, 531.5268
350.0418, 548.3146
350.5239, 565.1044
351.0060, 581.7761
351.4881, 597.2187
351.9702, 611.0395
352.4524, 623.5222
352.9345, 635.1102
353.4166, 645.7102
353.8987, 654.4921
354.3808, 660.4833
354.8629, 664.3184
355.3451, 666.9701
355.8272, 669.1672
356.3093, 669.1427
356.7914, 665.0248
357.2735, 657.3522
357.7556, 647.6433
358.2378, 636.3061
358.7199, 623.6324
359.2020, 609.4373
359.6841, 593.3635
360.1662, 577.7711
360.6483, 564.5491
361.1305, 552.5042
361.6126, 539.9633
362.0947, 525.6915
362.5768, 511.3366
363.0589, 497.0844
363.5410, 482.9884
364.0232, 470.4185
364.5053, 460.7549
364.9874, 452.3017
365.4695, 443.7419
365.9516, 434.0266
366.4337, 425.0422
366.9159, 417.4712
367.3980, 410.9702
367.8801, 404.1418
368.3622, 396.4307
368.8443, 388.7286
369.3264, 381.4098
369.8086, 374.4565
370.2907, 367.8929
370.7728, 361.6979
371.2549, 355.9012
371.7370, 350.6200
372.2191, 346.1201
372.7013, 341.7573
373.1834, 337.5001
373.6655, 333.3793
374.1476, 328.7651
374.6297, 323.3528
375.1118, 317.9616
375.5940, 313.4720
376.0761, 310.2167
376.5582, 306.9707
377.0403, 303.6086
377.5224, 300.1131
378.0045, 296.1445
378.4867, 291.6640
378.9688, 287.1399
379.4509, 282.9185
379.9330, 279.0418
380.4151, 274.9591
380.8972, 270.5362
381.3794, 266.1496
381.8615, 262.7580
382.3436, 260.2872
382.8257, 257.6102
383.3078, 254.0829
383.7899, 249.9120
384.2721, 245.5477
384.7542, 240.9787
385.2363, 236.5733
385.7184, 232.5242
386.2005, 228.9215
386.6826, 225.8476
387.1648, 223.7665
387.6469, 221.8298
388.1290, 218.8491
388.6111, 214.9621
389.0932, 210.8983
389.5753, 206.9525
390.0575, 203.1424
390.5396, 199.3930
391.0217, 195.6024
391.5038, 192.0393
391.9859, 188.9927
392.4680, 186.2999
392.9502, 183.6169
393.4323, 180.7370
393.9144, 177.8863
394.3965, 175.2383
394.8786, 172.7945
395.3607, 170.4184
395.8429, 167.9969
396.3250, 165.6268
396.8071, 163.3850
397.2892, 161.5643
397.7713, 159.5661
398.2534, 156.9299
398.7356, 153.8886
399.2177, 151.6311
399.6998, 151.3293
400.1819, 150.9788
400.6640, 149.6745
401.1461, 146.8261
401.6283, 144.2266
402.1104, 141.8050
402.5925, 139.6700
403.0746, 137.9700
403.5567, 136.8473
404.0388, 135.9124
404.5210, 135.1577
405.0031, 134.5831
405.4852, 133.6469
405.9673, 132.1672
406.4494, 130.6579
406.9315, 129.6454
407.4137, 129.2205
407.8958, 128.4933
408.3779, 127.1893
408.8600, 125.6591
409.3421, 124.9135
409.8242, 125.0111
410.3064, 125.0353
410.7885, 124.4276
411.2706, 123.2932
411.7527, 122.0673
412.2348, 120.7142
412.7169, 119.5375
413.1991, 119.0130
413.6812, 118.9882
414.1633, 118.9828
414.6454, 118.8432
415.1275, 118.6114
415.6096, 118.3461
416.0918, 118.0440
416.5739, 117.6679
417.0560, 117.1600
417.5381, 116.5762
418.0202, 115.9746
418.5023, 115.3619
418.9845, 114.7517
419.4666, 114.1207
419.9487, 113.5044
420.4308, 112.9839
420.9129, 112.5510
421.3951, 112.2495
421.8772, 112.1818
422.3593, 112.3801
422.8414, 112.4117
423.3235, 111.9324
423.8056, 111.3616
424.2878, 111.0404
424.7699, 111.3454
425.2520, 111.5221
425.7341, 111.4843
426.2162, 111.2537
426.6983, 110.8794
427.1805, 110.0641
427.6626, 109.4539
428.1447, 109.3672
428.6268, 110.0378
429.1089, 110.3648
429.5910, 110.2349
430.0732, 109.8821
430.5553, 109.5627
431.0374, 109.2531
431.5195, 109.0792
432.0016, 109.1216
432.4837, 109.3143
432.9659, 109.3177
433.4480, 109.1012
433.9301, 108.8838
434.4122, 108.7943
434.8943, 108.8327
435.3764, 109.0551
435.8586, 109.5291
436.3407, 109.9917
436.8228, 109.8844
437.3049, 109.3792
437.7870, 109.2095
438.2691, 110.0253
438.7513, 111.2240
439.2334, 112.0146
439.7155, 112.4024
440.1976, 112.4921
440.6797, 112.0510
441.1618, 111.4725
441.6440, 111.2621
442.1261, 111.7153
442.6082, 112.2406
443.0903, 112.3793
443.5724, 112.3390
444.0545, 112.5676
444.5367, 113.5226
445.0188, 114.5396
445.5009, 115.3485
445.9830, 115.9155
446.4651, 116.2842
446.9472, 116.2727
447.4294, 116.1625
447.9115, 116.1891
448.3936, 116.3822
448.8757, 116.6928
449.3578, 117.1261
449.8399, 117.6714
450.3221, 118.3429
450.8042, 119.2563
451.2863, 120.1170
451.7684, 120.8334
452.2505, 121.4145
452.7326, 121.7587
453.2148, 121.7534
453.6969, 121.7179
454.1790, 122.0867
454.6611, 122.8901
455.1432, 123.6013
455.6253, 124.0476
456.1075, 124.3575
456.5896, 124.9302
457.0717, 125.7604
457.5538, 126.4552
458.0359, 126.5266
458.5180, 126.2943
459.0002, 126.6087
459.4823, 127.6107
459.9644, 128.6491
460.4465, 128.8921
460.9286, 128.7184
461.4107, 128.8502
461.8929, 130.0330
462.3750, 131.2237
462.8571, 131.4714
463.3392, 130.9791
463.8213, 130.6736
464.3034, 131.1255
464.7856, 131.8287
465.2677, 132.4925
465.7498, 133.1518
466.2319, 133.5500
466.7140, 133.0214
467.1961, 132.3899
467.6783, 132.7100
468.1604, 135.4943
468.6425, 137.6981
469.1246, 138.4922
469.6067, 138.0336
470.0888, 138.2216
470.5710, 139.2301
471.0531, 140.6447
471.5352, 142.3570
472.0173, 144.6154
472.4994, 146.2508
472.9815, 147.0300
473.4637, 147.4932
473.9458, 148.6639
474.4279, 150.6309
474.9100, 151.9814
475.3921, 152.1170
475.8742, 151.3827
476.3564, 150.8830
476.8385, 150.6125
477.3206, 150.0304
477.8027, 148.4795
478.2848, 146.3609
478.7669, 144.4976
479.2491, 142.9997
479.7312, 141.7571
480.2133, 140.9178
480.6954, 140.2333
481.1775, 139.2371
481.6596, 137.2121
482.1418, 135.2574
482.6239, 134.0623
483.1060, 133.5715
483.5881, 133.3719
484.0702, 133.6526
484.5523, 133.9170
485.0345, 133.7693
485.5166, 132.7120
485.9987, 132.2457
486.4808, 133.0297
486.9629, 134.3736
487.4450, 135.3088
487.9272, 135.2228
488.4093, 135.6042
488.8914, 136.8271
489.3735, 138.8142
489.8556, 140.7750
490.3377, 142.8280
490.8199, 144.6606
491.3020, 145.8493
491.7841, 146.2893
492.2662, 147.6458
492.7483, 150.1453
493.2304, 153.0812
493.7126, 155.4324
494.1947, 157.2777
494.6768, 158.9830
495.1589, 160.2482
495.6410, 161.8035
496.1231, 165.3372
496.6053, 170.6103
497.0874, 175.6921
497.5695, 179.3125
498.0516, 182.1677
498.5337, 185.0530
499.0158, 188.0328
499.4980, 191.1170
499.9801, 194.5284
500.4622, 197.9846
500.9443, 201.2259
501.4264, 204.5893
501.9085, 207.1894
502.3907, 208.8910
502.8728, 209.6549
503.3549, 209.3838
503.8370, 207.9258
504.3191, 205.5391
504.8012, 202.2685
505.2834, 198.0078
505.7655, 193.2839
506.2476, 187.7782
506.7297, 182.1889
507.2118, 177.0866
507.6939, 172.5003
508.1761, 168.4439
508.6582, 165.0609
509.1403, 162.0663
509.6224, 158.5599
510.1045, 154.5111
510.5866, 151.1039
511.0688, 149.3673
511.5509, 148.7206
512.0330, 147.3071
512.5151, 145.0975
512.9973, 142.9741
513.4794, 141.7292
513.9615, 141.0346
514.4436, 140.3609
514.9257, 139.5344
515.4078, 138.8340
515.8900, 138.5944
516.3721, 138.6234
516.8542, 138.5492
517.3363, 138.0587
517.8184, 137.5976
518.3005, 137.3492
518.7827, 137.3188
519.2648, 137.3881
519.7469, 137.8117
520.2290, 138.1198
520.7111, 138.0011
521.1932, 136.9590
521.6754, 136.5414
522.1575, 136.9576
522.6396, 137.8192
523.1217, 138.6313
523.6038, 139.4366
524.0859, 140.0127
524.5681, 140.2316
525.0502, 140.2060
525.5323, 140.3046
526.0144, 140.5272
526.4965, 140.8860
526.9786, 141.3927
527.4608, 142.0462
527.9429, 142.8547
528.4250, 143.8335
528.9071, 144.8786
529.3892, 145.9135
529.8713, 146.9520
530.3535, 147.9617
530.8356, 148.7208
531.3177, 149.7826
531.7998, 151.6759
532.2819, 154.1644
532.7640, 156.5900
533.2462, 158.4643
533.7283, 160.5095
534.2104, 163.0503
534.6925, 166.1030
535.1746, 169.4409
535.6567, 173.4902
536.1389, 177.4583
536.6210, 180.6931
537.1031, 182.5322
537.5852, 185.3006
538.0673, 189.4249
538.5494, 194.1708
539.0316, 198.2392
539.5137, 201.5143
539.9958, 205.1621
540.4779, 209.5742
540.9600, 214.5834
541.4421, 219.6793
541.9243, 224.8476
542.4064, 230.3091
542.8885, 235.9486
543.3706, 241.9976
543.8527, 249.2317
544.3348, 257.8329
544.8170, 266.1056
545.2991, 272.4614
545.7812, 277.7675
546.2633, 283.1904
546.7454, 289.2910
547.2275, 295.2032
547.7097, 300.9605
548.1918, 306.2848
548.6739, 310.4410
549.1560, 312.9166
549.6381, 314.6200
550.1202, 316.0848
550.6024, 317.3852
551.0845, 316.6938
551.5666, 313.5952
552.0487, 309.0461
552.5308, 303.7424
553.0129, 297.7793
553.4951, 290.3120
553.9772, 281.0889
554.4593, 270.8273
554.9414, 260.2059
555.4235, 249.2864
555.9056, 238.7768
556.3878, 229.0773
556.8699, 219.7991
557.3520, 210.2505
557.8341, 200.6084
558.3162, 191.8253
558.7983, 184.6168
559.2805, 178.4331
559.7626, 172.8934
560.2447, 168.0010
560.7268, 163.3338
561.2089, 158.4020
561.6910, 153.7399
562.1732, 149.7850
562.6553, 147.1160
563.1374, 144.4429
563.6195, 141.2260
564.1016, 138.0371
564.5837, 135.7318
565.0659, 134.5522
565.5480, 133.8339
566.0301, 133.7724
566.5122, 134.0721
566.9943, 133.0254
567.4764, 130.3685
567.9586, 127.6801
568.4407, 125.8815
568.9228, 124.8713
569.4049, 124.1195
569.8870, 123.6401
570.3691, 123.2173
570.8513, 122.6527
571.3334, 121.9946
571.8155, 121.3574
572.2976, 120.7551
572.7797, 120.1794
573.2618, 119.6621
573.7440, 119.1572
574.2261, 118.5707
574.7082, 117.6135
575.1903, 116.8218
575.6724, 116.6156
576.1545, 116.8950
576.6367, 116.7452
577.1188, 115.4818
577.6009, 114.3946
578.0830, 114.1131
578.5651, 114.9196
579.0472, 114.9946
579.5294, 114.0455
580.0115, 112.8881
580.4936, 112.4089
580.9757, 112.6246
581.4578, 112.4079
581.9399, 111.4399
582.4221, 110.3543
582.9042, 110.2658
583.3863, 110.9592
583.8684, 111.5530
584.3505, 111.7126
584.8326, 111.5547
585.3148, 110.9556
585.7969, 110.0539
586.2789, 109.5153
586.7610, 110.1474
