##NAMES=Spessartine
##RRUFFID=R060451
##IDEAL CHEMISTRY=Mn^2+^_3_Al_2_(SiO_4_)_3_
##LOCALITY=unknown
##OWNER=RRUFF
##SOURCE=Gemological Institute of America
##DESCRIPTION=Reddish orange fragment
##STATUS=The identification of this mineral has been confirmed by X-ray diffraction and chemical analysis
##URL=rruff.info/R060451
##MEASURED CHEMISTRY=(Mn_1.26_Mg_0.98_Fe^2+^_0.39_Ca_0.37_)_Î£=3_Al_2.00_(Si_1.00_O_4_)_3_; trace amounts of Ti
92.35352, 1.529912
92.83563, 1.508071
93.31775, 1.498808
93.79987, 1.506895
94.28198, 1.528197
94.76410, 1.545460
95.24622, 1.540682
95.72833, 1.544983
96.21045, 1.641413
96.69257, 1.835292
97.17468, 2.042442
97.65680, 2.177977
98.13892, 2.244139
98.62103, 2.325536
99.10315, 2.462378
99.58527, 2.637569
100.0674, 2.697893
100.5495, 2.598092
101.0316, 2.481873
101.5137, 2.528006
101.9958, 2.763566
102.4780, 3.069794
102.9601, 3.442252
103.4422, 3.910541
103.9243, 4.230253
104.4064, 4.315252
104.8885, 4.308236
105.3707, 4.484671
105.8528, 4.973618
106.3349, 5.463017
106.8170, 5.829573
107.2991, 5.994482
107.7813, 6.186148
108.2634, 6.425681
108.7455, 6.696089
109.2276, 6.931674
109.7097, 7.150907
110.1918, 7.323380
110.6740, 7.436646
111.1561, 7.214821
111.6382, 7.243234
112.1203, 7.700407
112.6024, 8.513640
113.0845, 9.216093
113.5667, 9.568089
114.0488, 9.874354
114.5309, 10.34491
115.0130, 11.32584
115.4951, 12.18756
115.9772, 12.70309
116.4594, 12.88199
116.9415, 13.03096
117.4236, 13.21839
117.9057, 13.44979
118.3878, 13.72979
118.8699, 14.18283
119.3521, 14.59752
119.8342, 14.79503
120.3163, 14.73787
120.7984, 14.76036
121.2805, 15.07778
121.7626, 15.61206
122.2448, 16.22972
122.7269, 17.17597
123.2090, 18.02667
123.6911, 18.26346
124.1732, 17.71747
124.6553, 17.03636
125.1375, 16.72734
125.6196, 16.75527
126.1017, 17.00886
126.5838, 17.54595
127.0659, 18.24739
127.5480, 18.92306
128.0302, 19.57876
128.5123, 20.14071
128.9944, 20.45082
129.4765, 20.53132
129.9586, 20.59019
130.4407, 20.75159
130.9229, 21.00939
131.4050, 21.35688
131.8871, 21.82713
132.3692, 22.34604
132.8513, 22.70368
133.3334, 22.84992
133.8156, 22.89664
134.2977, 23.04951
134.7798, 23.38012
135.2619, 23.69306
135.7440, 23.95872
136.2261, 24.17291
136.7083, 24.30033
137.1904, 24.30738
137.6725, 24.33694
138.1546, 24.58590
138.6367, 25.11460
139.1188, 25.53247
139.6010, 25.73742
140.0831, 25.73036
140.5652, 25.67658
141.0473, 25.59712
141.5294, 25.44519
142.0115, 25.11475
142.4937, 24.45704
142.9758, 23.95750
143.4579, 23.75578
143.9400, 23.88302
144.4221, 24.16797
144.9042, 24.73941
145.3864, 25.39364
145.8685, 25.76285
146.3506, 25.70710
146.8327, 25.56567
147.3148, 25.43973
147.7969, 25.32963
148.2791, 25.23522
148.7612, 25.15641
149.2433, 25.09339
149.7254, 25.04309
150.2075, 24.85500
150.6896, 24.80967
151.1718, 25.02340
151.6539, 25.80083
152.1360, 26.39118
152.6181, 26.68267
153.1002, 26.76406
153.5823, 26.89821
154.0645, 27.08716
154.5466, 27.34513
155.0287, 27.68281
155.5108, 28.33158
155.9929, 28.78893
156.4750, 28.86261
156.9572, 28.64676
157.4393, 28.52125
157.9214, 28.50257
158.4035, 28.63457
158.8856, 28.94338
159.3677, 29.63872
159.8499, 30.30814
160.3320, 30.77061
160.8141, 31.07009
161.2962, 31.47769
161.7783, 32.32896
162.2604, 33.21399
162.7426, 33.79480
163.2247, 33.55798
163.7068, 33.35953
164.1889, 33.61954
164.6710, 34.31252
165.1531, 35.06413
165.6353, 35.70585
166.1174, 36.30459
166.5995, 36.93235
167.0816, 37.53563
167.5637, 38.23346
168.0458, 39.12428
168.5280, 40.20066
169.0101, 41.36322
169.4922, 42.61865
169.9743, 43.89627
170.4564, 45.08954
170.9385, 46.06574
171.4207, 46.99226
171.9028, 47.97290
172.3849, 49.00233
172.8670, 50.18975
173.3491, 52.04766
173.8312, 54.12380
174.3134, 55.55568
174.7955, 55.84777
175.2776, 55.32478
175.7597, 54.24415
176.2418, 52.56797
176.7239, 50.66352
177.2061, 48.67583
177.6882, 46.66625
178.1703, 44.83955
178.6524, 43.33937
179.1345, 42.04942
179.6166, 40.76660
180.0988, 39.44226
180.5809, 38.25171
181.0630, 37.38145
181.5451, 36.80293
182.0272, 36.44014
182.5093, 36.40477
182.9915, 36.54486
183.4736, 36.43963
183.9557, 36.00085
184.4378, 35.53050
184.9199, 35.43151
185.4020, 35.67412
185.8842, 36.04010
186.3663, 36.42317
186.8484, 36.83537
187.3305, 37.34032
187.8126, 37.98846
188.2947, 38.62506
188.7769, 38.93207
189.2590, 38.92762
189.7411, 38.98582
190.2232, 39.38578
190.7053, 40.06727
191.1874, 40.64616
191.6696, 41.08506
192.1517, 41.43591
192.6338, 41.72681
193.1159, 41.94935
193.5980, 42.33083
194.0801, 43.16517
194.5623, 44.39758
195.0444, 45.26871
195.5265, 45.65444
196.0086, 45.71762
196.4907, 45.67052
196.9728, 45.46756
197.4550, 45.52882
197.9371, 46.29588
198.4192, 47.78547
198.9013, 48.88906
199.3834, 49.46175
199.8655, 49.64662
200.3477, 49.67392
200.8298, 49.45833
201.3119, 49.48031
201.7940, 50.27195
202.2761, 51.96280
202.7582, 52.89339
203.2404, 52.70177
203.7225, 51.82421
204.2046, 51.48510
204.6867, 51.79352
205.1688, 52.26655
205.6509, 52.62360
206.1331, 52.85548
206.6152, 53.05545
207.0973, 53.25179
207.5794, 53.41133
208.0615, 53.39320
208.5436, 53.12256
209.0258, 52.87102
209.5079, 52.85389
209.9900, 53.15491
210.4721, 53.28563
210.9542, 53.16199
211.4363, 52.85657
211.9185, 52.60984
212.4006, 52.43164
212.8827, 52.28823
213.3648, 52.20042
213.8469, 52.23591
214.3290, 52.06349
214.8112, 51.59295
215.2933, 50.91174
215.7754, 50.29111
216.2575, 49.68665
216.7396, 49.22426
217.2217, 49.05797
217.7038, 49.39186
218.1860, 49.37271
218.6681, 48.80757
219.1502, 47.87093
219.6323, 47.21949
220.1144, 46.97301
220.5965, 46.81668
221.0787, 46.60398
221.5608, 46.38465
222.0429, 45.95438
222.5250, 45.17262
223.0071, 44.18496
223.4892, 43.59413
223.9714, 43.62153
224.4535, 43.68905
224.9356, 43.45904
225.4177, 42.76099
225.8998, 42.17149
226.3819, 41.68779
226.8641, 41.33274
227.3462, 41.25299
227.8283, 41.69194
228.3104, 42.03472
228.7925, 41.91509
229.2746, 41.01855
229.7568, 40.37361
230.2389, 40.09978
230.7210, 40.08121
231.2031, 39.95849
231.6852, 39.68367
232.1673, 39.37593
232.6495, 39.09566
233.1316, 38.86401
233.6137, 38.60503
234.0958, 38.27035
234.5779, 37.91991
235.0600, 37.72553
235.5422, 37.70144
236.0243, 37.81072
236.5064, 38.07605
236.9885, 38.68478
237.4706, 39.03323
237.9527, 39.07980
238.4349, 38.87250
238.9170, 38.46967
239.3991, 37.57804
239.8812, 36.93070
240.3633, 36.94584
240.8454, 38.16982
241.3276, 38.66138
241.8097, 38.05941
242.2918, 36.85280
242.7739, 36.12384
243.2560, 36.10379
243.7381, 36.20559
244.2203, 36.24019
244.7024, 36.25301
245.1845, 36.04854
245.6666, 35.47303
246.1487, 34.75466
246.6308, 34.33019
247.1130, 34.31907
247.5951, 34.40753
248.0772, 34.49684
248.5593, 34.58920
249.0414, 34.68032
249.5235, 34.79552
250.0057, 34.89300
250.4878, 34.91056
250.9699, 34.85820
251.4520, 34.70253
251.9341, 34.38683
252.4162, 33.83471
252.8984, 33.50651
253.3805, 33.50212
253.8626, 33.64463
254.3447, 33.67120
254.8268, 33.52825
255.3089, 33.38393
255.7911, 33.32213
256.2732, 33.37678
256.7553, 33.19374
257.2374, 32.60149
257.7195, 31.93974
258.2017, 31.63967
258.6838, 31.82267
259.1659, 32.09044
259.6480, 32.38657
260.1301, 32.71454
260.6122, 32.91972
261.0944, 33.00054
261.5765, 32.96015
262.0586, 32.76069
262.5407, 32.29894
263.0228, 31.96788
263.5049, 31.87683
263.9871, 32.01633
264.4692, 32.17323
264.9513, 32.38121
265.4334, 32.55549
265.9155, 32.60202
266.3976, 32.47412
266.8798, 32.37669
267.3619, 32.36359
267.8440, 32.41798
268.3261, 32.39624
268.8082, 32.27158
269.2903, 32.12728
269.7725, 32.01805
270.2546, 31.93661
270.7367, 31.93719
271.2188, 32.06508
271.7009, 32.27400
272.1830, 32.35828
272.6652, 32.28403
273.1473, 32.17564
273.6294, 32.11095
274.1115, 32.09344
274.5936, 32.08998
275.0757, 32.06852
275.5579, 32.07787
276.0400, 32.34592
276.5221, 32.97555
277.0042, 33.44712
277.4863, 33.32252
277.9684, 32.53570
278.4506, 32.08963
278.9327, 32.12107
279.4148, 32.43848
279.8969, 32.68066
280.3790, 32.85253
280.8611, 32.91692
281.3433, 32.75291
281.8254, 32.36430
282.3075, 32.29689
282.7896, 32.62431
283.2717, 33.14573
283.7538, 33.61643
284.2360, 34.04248
284.7181, 34.27125
285.2002, 34.13020
285.6823, 33.67370
286.1644, 33.39955
286.6465, 33.32735
287.1287, 33.37367
287.6108, 33.46268
288.0929, 33.59145
288.5750, 33.70872
289.0571, 33.77256
289.5392, 33.80923
290.0214, 33.95809
290.5035, 34.23615
290.9856, 34.48278
291.4677, 34.45104
291.9498, 34.19760
292.4319, 34.08014
292.9141, 34.25835
293.3962, 34.61318
293.8783, 34.90392
294.3604, 35.12969
294.8425, 35.25652
295.3246, 35.19033
295.8068, 34.99033
296.2889, 34.85174
296.7710, 34.81499
297.2531, 34.86770
297.7352, 34.99332
298.2173, 35.19039
298.6995, 35.45633
299.1816, 35.89188
299.6637, 36.38589
300.1458, 36.65939
300.6279, 36.59101
301.1100, 36.45016
301.5922, 36.61546
302.0743, 37.01709
302.5564, 37.37280
303.0385, 37.48286
303.5206, 37.45581
304.0027, 37.43392
304.4849, 37.42554
304.9670, 37.46147
305.4491, 37.49432
305.9312, 37.58764
306.4133, 37.89408
306.8954, 38.79082
307.3776, 39.77818
307.8597, 40.23073
308.3418, 40.06411
308.8239, 39.95510
309.3060, 40.58309
309.7881, 41.57623
310.2703, 42.32695
310.7524, 42.12403
311.2345, 41.94042
311.7166, 42.66547
312.1987, 44.27258
312.6808, 45.69785
313.1630, 46.13586
313.6451, 46.16485
314.1272, 46.41212
314.6093, 47.34995
315.0914, 48.29525
315.5735, 48.87914
316.0557, 49.15730
316.5378, 49.42677
317.0199, 49.82998
317.5020, 50.26200
317.9841, 50.63441
318.4662, 50.76049
318.9484, 51.06590
319.4305, 51.79780
319.9126, 52.82582
320.3947, 53.80724
320.8768, 54.74187
321.3589, 55.53041
321.8411, 56.08847
322.3232, 56.27373
322.8053, 56.53957
323.2874, 56.96858
323.7695, 57.53024
324.2516, 58.17631
324.7338, 58.68543
325.2159, 59.47390
325.6980, 60.77116
326.1801, 62.74626
326.6622, 64.52328
327.1443, 65.88276
327.6265, 67.09751
328.1086, 68.44582
328.5907, 69.88836
329.0728, 71.50230
329.5549, 73.46381
330.0370, 75.78802
330.5192, 77.61270
331.0013, 78.52203
331.4834, 79.29881
331.9655, 80.50622
332.4476, 82.44920
332.9297, 84.30716
333.4119, 85.97027
333.8940, 87.48524
334.3761, 89.05266
334.8582, 90.72562
335.3403, 92.31139
335.8224, 93.61584
336.3046, 94.36614
336.7867, 95.71947
337.2688, 97.96943
337.7509, 100.6332
338.2330, 102.6746
338.7151, 103.8000
339.1973, 105.1863
339.6794, 107.4509
340.1615, 110.6320
340.6436, 113.3430
341.1257, 115.3736
341.6078, 117.3359
342.0899, 120.1101
342.5721, 123.7091
343.0542, 127.3111
343.5363, 130.5920
344.0184, 133.6544
344.5005, 136.9829
344.9826, 140.5409
345.4648, 144.4389
345.9469, 148.6300
346.4290, 153.2045
346.9111, 158.4246
347.3932, 164.4887
347.8753, 171.0731
348.3575, 177.4500
348.8396, 183.6121
349.3217, 189.8672
349.8038, 196.1435
350.2859, 202.6182
350.7680, 209.8892
351.2502, 218.1898
351.7323, 226.6398
352.2144, 234.3253
352.6965, 241.3825
353.1786, 247.9969
353.6607, 254.4258
354.1429, 260.4087
354.6250, 265.9188
355.1071, 270.9869
355.5892, 274.6137
356.0713, 275.9209
356.5534, 275.3224
357.0356, 273.4258
357.5177, 270.5328
357.9998, 266.3429
358.4819, 260.5673
358.9640, 253.2852
359.4461, 245.0264
359.9283, 235.1550
360.4104, 224.9104
360.8925, 215.3317
361.3746, 206.8232
361.8567, 198.7014
362.3388, 190.5959
362.8210, 182.7030
363.3031, 175.2801
363.7852, 168.3300
364.2673, 161.9402
364.7494, 156.2165
365.2315, 151.2839
365.7137, 146.5736
366.1958, 141.7212
366.6779, 137.1730
367.1600, 133.4105
367.6421, 131.1569
368.1242, 129.0033
368.6064, 126.5862
369.0885, 123.8663
369.5706, 121.5527
370.0527, 119.9646
370.5348, 118.5235
371.0169, 116.8083
371.4991, 114.4833
371.9812, 112.5040
372.4633, 111.1174
372.9454, 110.1095
373.4275, 108.7674
373.9096, 107.0288
374.3918, 105.0360
374.8739, 102.8581
375.3560, 100.4269
375.8381, 97.99220
376.3202, 95.53459
376.8023, 93.13322
377.2845, 90.86253
377.7666, 88.70028
378.2487, 86.92006
378.7308, 85.90007
379.2129, 85.41959
379.6950, 83.93771
380.1772, 81.29199
380.6593, 78.41599
381.1414, 76.16243
381.6235, 74.48478
382.1056, 72.76340
382.5877, 70.88963
383.0699, 68.90833
383.5520, 66.83584
384.0341, 64.67529
384.5162, 62.65043
384.9983, 60.94542
385.4804, 59.45361
385.9626, 57.94057
386.4447, 56.38592
386.9268, 54.79447
387.4089, 53.15730
387.8910, 51.47945
388.3731, 49.81028
388.8553, 48.05494
389.3374, 46.38536
389.8195, 45.05447
390.3016, 44.05986
390.7837, 43.05816
391.2658, 41.82796
391.7480, 40.49926
392.2301, 39.19275
392.7122, 37.83010
393.1943, 36.65113
393.6764, 35.94410
394.1585, 35.54016
394.6407, 34.97336
395.1228, 33.83169
395.6049, 32.68335
396.0870, 31.83008
396.5691, 31.41514
397.0512, 30.95948
397.5334, 30.35181
398.0155, 29.65819
398.4976, 28.96995
398.9797, 28.23057
399.4618, 27.56033
399.9439, 26.96474
400.4261, 26.44367
400.9082, 26.05350
401.3903, 25.88226
401.8724, 25.75756
402.3545, 25.57693
402.8366, 25.35304
403.3188, 25.04069
403.8009, 24.58924
404.2830, 24.06892
404.7651, 23.65687
405.2472, 23.37337
405.7293, 23.15348
406.2115, 23.00487
406.6936, 22.93409
407.1757, 22.71815
407.6578, 22.30445
408.1399, 21.88716
408.6220, 21.76171
409.1042, 21.91845
409.5863, 21.88830
410.0684, 21.45211
410.5505, 20.82552
411.0326, 20.54340
411.5147, 20.59484
411.9969, 20.66883
412.4790, 20.56544
412.9611, 20.31680
413.4432, 19.96031
413.9253, 19.45614
414.4074, 19.00784
414.8896, 18.91605
415.3717, 19.05226
415.8538, 19.11529
416.3359, 18.86155
416.8180, 18.53431
417.3001, 18.38119
417.7823, 18.39902
418.2644, 18.39039
418.7465, 18.23751
419.2286, 18.00268
419.7107, 17.74209
420.1928, 17.40068
420.6750, 17.12553
421.1571, 17.00861
421.6392, 17.00193
422.1213, 16.98460
422.6034, 16.81664
423.0855, 16.72343
423.5677, 16.85472
424.0498, 17.34420
424.5319, 17.61114
425.0140, 17.42627
425.4961, 17.08820
425.9782, 16.90131
426.4604, 17.01387
426.9425, 17.05939
427.4246, 16.95807
427.9067, 16.73595
428.3888, 16.58238
428.8709, 16.51884
429.3531, 16.48604
429.8352, 16.43349
430.3173, 16.33496
430.7994, 16.37800
431.2815, 16.61921
431.7636, 16.91921
432.2458, 17.05525
432.7279, 17.02242
433.2100, 16.90006
433.6921, 16.68000
434.1742, 16.39611
434.6563, 16.16420
435.1385, 15.98024
435.6206, 15.86607
436.1027, 15.86089
436.5848, 15.94013
437.0669, 16.05135
437.5490, 16.20842
438.0312, 16.33568
438.5133, 16.30085
438.9954, 16.16093
439.4775, 16.07392
439.9596, 16.21714
440.4417, 16.38910
440.9239, 16.36405
441.4060, 16.12909
441.8881, 15.95217
442.3702, 16.05791
442.8523, 16.26454
443.3344, 16.39859
443.8166, 16.39772
444.2987, 16.33653
444.7808, 16.14445
445.2629, 15.89678
445.7450, 15.81401
446.2271, 16.14916
446.7093, 16.47702
447.1914, 16.62063
447.6735, 16.50218
448.1556, 16.43404
448.6377, 16.42408
449.1198, 16.45946
449.6020, 16.53496
450.0841, 16.67976
450.5662, 16.79922
451.0483, 16.87066
451.5304, 16.90662
452.0125, 16.95611
452.4947, 17.01453
452.9768, 17.10193
453.4589, 17.23222
453.9410, 17.40727
454.4231, 17.60928
454.9052, 17.84672
455.3874, 18.08996
455.8695, 18.32243
456.3516, 18.53901
456.8337, 18.68759
457.3158, 18.70182
457.7979, 18.68213
458.2801, 18.84881
458.7622, 19.17419
459.2443, 19.46933
459.7264, 19.56178
460.2085, 19.56169
460.6906, 19.60437
461.1728, 19.70830
461.6549, 19.86023
462.1370, 20.05051
462.6191, 20.28128
463.1012, 20.55191
463.5833, 20.90889
464.0655, 21.26244
464.5476, 21.60672
465.0297, 21.92765
465.5118, 22.13196
465.9939, 22.01235
466.4760, 21.89663
466.9582, 21.96579
467.4403, 22.31527
467.9224, 22.70777
468.4045, 23.13830
468.8866, 23.60478
469.3687, 24.11784
469.8509, 24.69717
470.3330, 25.27611
470.8151, 25.86609
471.2972, 26.45486
471.7793, 26.88715
472.2614, 27.11974
472.7436, 27.32601
473.2257, 27.59428
473.7078, 27.92506
474.1899, 28.42518
474.6720, 29.13485
475.1541, 29.93346
475.6363, 30.65802
476.1184, 31.31526
476.6005, 31.94529
477.0826, 32.52310
477.5647, 33.10666
478.0468, 33.87535
478.5290, 34.79996
479.0111, 35.61484
479.4932, 36.08556
479.9753, 36.36188
480.4574, 36.65487
480.9395, 37.06865
481.4217, 37.27837
481.9038, 37.03800
482.3859, 36.47577
482.8680, 35.77819
483.3501, 35.00209
483.8322, 34.10511
484.3144, 32.95706
484.7965, 31.59861
485.2786, 30.45490
485.7607, 29.61979
486.2428, 29.00719
486.7249, 28.57288
487.2071, 28.33999
487.6892, 28.25536
488.1713, 28.40384
488.6534, 28.64164
489.1355, 28.75464
489.6176, 28.69861
490.0998, 28.63803
490.5819, 28.55996
491.0640, 28.51261
491.5461, 28.76288
492.0282, 29.33443
492.5103, 30.03525
492.9925, 30.78674
493.4746, 31.57388
493.9567, 32.21150
494.4388, 32.65963
494.9209, 33.15131
495.4030, 33.92659
495.8852, 34.95545
496.3673, 36.19618
496.8494, 37.74907
497.3315, 39.38195
497.8136, 40.77993
498.2957, 42.03988
498.7779, 43.50291
499.2600, 45.54798
499.7421, 47.74207
500.2242, 49.78979
500.7063, 51.65625
501.1884, 53.46444
501.6706, 55.25320
502.1527, 56.99235
502.6348, 58.62051
503.1169, 60.39346
503.5990, 61.73824
504.0811, 62.59460
504.5633, 62.97778
505.0454, 62.95376
505.5275, 62.58878
506.0096, 61.69809
506.4917, 60.13092
506.9738, 57.82040
507.4560, 55.46471
507.9381, 53.06749
508.4202, 50.61435
508.9023, 47.96799
509.3844, 45.15833
509.8665, 42.71562
510.3487, 40.75413
510.8308, 39.17278
511.3129, 37.91509
511.7950, 36.92934
512.2772, 35.97391
512.7593, 34.71922
513.2414, 33.53445
513.7235, 32.95284
514.2056, 32.95851
514.6877, 32.99905
515.1699, 32.75116
515.6520, 32.36050
516.1341, 31.93572
516.6162, 31.39273
517.0983, 31.02830
517.5804, 31.09937
518.0626, 31.37569
518.5447, 31.47976
519.0268, 31.11687
519.5089, 30.82761
519.9910, 30.78459
520.4731, 30.96480
520.9553, 30.98630
521.4374, 30.68452
521.9195, 30.46910
522.4016, 30.64698
522.8837, 31.35302
523.3658, 31.70286
523.8480, 31.60968
524.3301, 31.33004
524.8122, 31.15790
525.2943, 31.09435
525.7764, 31.17240
526.2585, 31.46360
526.7407, 31.83007
527.2228, 32.04426
527.7049, 32.11486
528.1870, 32.08931
528.6691, 31.89784
529.1512, 31.67690
529.6334, 31.55654
530.1155, 31.54289
530.5976, 31.69054
531.0797, 32.22379
531.5618, 32.84447
532.0439, 33.23879
532.5261, 33.08591
533.0082, 33.05595
533.4903, 33.36978
533.9724, 33.91660
534.4545, 34.46680
534.9366, 34.85866
535.4188, 35.41447
535.9009, 36.26119
536.3830, 37.39016
536.8651, 38.38611
537.3472, 39.14836
537.8293, 39.97281
538.3115, 41.10656
538.7936, 42.57936
539.2757, 43.83030
539.7578, 44.74912
540.2399, 45.65691
540.7220, 47.04992
541.2042, 48.84597
541.6863, 50.65086
542.1684, 52.27356
542.6505, 53.95356
543.1326, 56.18567
543.6147, 58.81691
544.0969, 61.32598
544.5790, 63.16673
545.0611, 64.85861
545.5432, 66.79312
546.0253, 68.99721
546.5074, 71.38805
546.9896, 73.90485
547.4717, 76.58735
547.9538, 79.46915
548.4359, 82.63483
548.9180, 85.89787
549.4001, 89.24935
549.8823, 92.70691
550.3644, 96.31773
550.8465, 100.2730
551.3286, 104.0941
551.8107, 107.6567
552.2928, 110.9992
552.7750, 114.3290
553.2571, 117.7207
553.7392, 120.8253
554.2213, 123.5305
554.7034, 125.7742
555.1855, 127.3717
555.6677, 128.3302
556.1498, 128.5176
556.6319, 127.7391
557.1140, 126.0935
557.5961, 123.8019
558.0782, 121.0273
558.5604, 117.4400
559.0425, 112.4698
559.5246, 106.5102
560.0067, 100.4513
560.4888, 94.60159
560.9709, 88.83892
561.4531, 83.01543
561.9352, 77.10886
562.4173, 71.87342
562.8994, 67.83372
563.3815, 64.15923
563.8636, 60.36511
564.3458, 56.24977
564.8279, 52.64247
565.3100, 49.59684
565.7921, 46.94260
566.2742, 44.52594
566.7563, 42.34148
567.2385, 40.32737
567.7206, 38.50627
568.2027, 36.82099
568.6848, 35.21701
569.1669, 33.68049
569.6490, 32.27437
570.1312, 31.03941
570.6133, 29.93061
571.0954, 28.86369
571.5775, 27.83400
572.0596, 27.00130
572.5417, 26.59594
573.0239, 26.34185
573.5060, 26.00191
573.9881, 25.49210
574.4702, 25.00245
574.9523, 24.60735
575.4344, 24.25109
575.9166, 23.86963
576.3987, 23.50271
576.8808, 23.02870
577.3629, 22.28344
577.8450, 21.43493
578.3271, 21.09581
578.8093, 21.45968
579.2914, 21.75506
579.7735, 21.61080
580.2556, 21.09909
580.7377, 20.77770
581.2198, 20.66198
581.7020, 20.58625
582.1841, 20.38163
582.6662, 20.11601
583.1483, 19.97349
583.6304, 20.00306
584.1125, 20.03102
584.5947, 19.91035
585.0768, 19.68863
585.5589, 19.43140
586.0410, 18.99474
586.5231, 18.71462
587.0052, 18.89199
587.4873, 19.34613
587.9694, 19.58844
