##NAMES=Spessartine
##RRUFFID=R060177
##IDEAL CHEMISTRY=Mn^2+^_3_Al_2_(SiO_4_)_3_
##LOCALITY=Fujian Province, China
##OWNER=RRUFF
##SOURCE=Rock Currier
##DESCRIPTION=Orange trapezohedral crystals
##STATUS=The identification of this mineral has been confirmed by X-ray diffraction and chemical analysis
##URL=rruff.info/R060177
##MEASURED CHEMISTRY=(Mn_2.86_Fe^2+^_0.10_Ca_0.04_)_Î£=3_Al_2.00_(Si_1.00_O_4_)_3_
91.72394, 0.0000000E+00
92.20605, 94.07917
92.68817, 94.76416
93.17029, 95.71060
93.65240, 95.71992
94.13452, 95.44205
94.61664, 94.83801
95.09875, 93.95670
95.58087, 92.99979
96.06299, 92.33692
96.54510, 92.54295
97.02721, 92.17818
97.50933, 90.68141
97.99145, 88.64497
98.47356, 86.83425
98.95568, 85.71391
99.43780, 85.13750
99.91991, 84.77763
100.4020, 84.93934
100.8841, 85.00260
101.3663, 84.66122
101.8484, 83.94726
102.3305, 83.12280
102.8126, 82.43046
103.2947, 81.89077
103.7768, 81.43359
104.2590, 81.00256
104.7411, 80.66347
105.2232, 80.55412
105.7053, 80.74767
106.1874, 80.96529
106.6695, 80.70898
107.1517, 80.00476
107.6338, 79.47480
108.1159, 79.55334
108.5980, 80.10426
109.0801, 80.42624
109.5622, 80.23531
110.0444, 79.83330
110.5265, 79.42290
111.0086, 79.01566
111.4907, 78.69163
111.9728, 78.59511
112.4549, 78.83355
112.9371, 78.92410
113.4192, 78.73096
113.9013, 78.40099
114.3834, 78.00216
114.8655, 77.56287
115.3476, 77.11274
115.8298, 76.73975
116.3119, 76.52077
116.7940, 76.28689
117.2761, 75.89736
117.7582, 75.50764
118.2403, 75.33860
118.7225, 75.53479
119.2046, 76.05789
119.6867, 76.46273
120.1688, 76.75368
120.6509, 76.95311
121.1330, 77.04761
121.6152, 77.04907
122.0973, 76.99724
122.5794, 76.92338
123.0615, 76.81709
123.5436, 76.64772
124.0257, 76.26457
124.5079, 75.90168
124.9900, 75.85323
125.4721, 76.19089
125.9542, 76.52641
126.4363, 76.47980
126.9184, 76.15892
127.4006, 75.74758
127.8827, 75.07327
128.3648, 74.33298
128.8469, 74.22007
129.3290, 75.23624
129.8111, 76.28897
130.2932, 76.68845
130.7754, 76.54857
131.2575, 76.29047
131.7396, 76.21584
132.2217, 76.33192
132.7038, 76.57138
133.1859, 77.27982
133.6681, 77.84831
134.1502, 77.92742
134.6323, 77.52280
135.1144, 76.93699
135.5965, 76.57558
136.0786, 76.60200
136.5608, 76.52823
137.0429, 76.19373
137.5250, 75.87156
138.0071, 75.81065
138.4892, 76.07376
138.9713, 76.49342
139.4535, 76.71924
139.9356, 76.59943
140.4177, 76.48409
140.8998, 76.30400
141.3819, 76.15756
141.8640, 76.21740
142.3462, 76.58871
142.8283, 77.13558
143.3104, 77.44476
143.7925, 77.33224
144.2746, 77.34239
144.7567, 77.83122
145.2388, 78.68137
145.7210, 79.38536
146.2031, 79.63245
146.6852, 79.61172
147.1673, 79.73357
147.6494, 80.06682
148.1315, 80.46342
148.6137, 80.74873
149.0958, 80.89213
149.5779, 81.14593
150.0600, 81.79811
150.5421, 82.57363
151.0242, 83.20185
151.5064, 83.54642
151.9885, 83.75654
152.4706, 84.12307
152.9527, 84.68086
153.4348, 85.35753
153.9169, 86.13704
154.3991, 86.99331
154.8812, 87.91473
155.3633, 88.90248
155.8454, 89.93848
156.3275, 90.90313
156.8096, 91.76770
157.2918, 92.57305
157.7739, 93.48104
158.2560, 94.33189
158.7381, 94.82081
159.2202, 94.68135
159.7023, 93.88967
160.1845, 93.36130
160.6666, 93.34573
161.1487, 93.31373
161.6308, 93.06528
162.1129, 92.61973
162.5950, 92.10983
163.0772, 91.65596
163.5593, 91.26701
164.0414, 90.81450
164.5235, 90.06383
165.0056, 89.42620
165.4877, 89.25820
165.9698, 89.57529
166.4520, 90.02271
166.9341, 90.25358
167.4162, 90.26560
167.8983, 90.31344
168.3804, 90.56538
168.8625, 90.81141
169.3447, 90.70711
169.8268, 90.12220
170.3089, 89.52734
170.7910, 89.45052
171.2731, 89.77232
171.7552, 90.14397
172.2374, 90.43784
172.7195, 90.67901
173.2016, 90.96229
173.6837, 91.38758
174.1658, 91.70368
174.6479, 91.77673
175.1301, 91.62289
175.6122, 91.29707
176.0943, 90.74684
176.5764, 89.98539
177.0585, 89.37247
177.5406, 89.12648
178.0228, 88.85356
178.5049, 88.30843
178.9870, 87.53584
179.4691, 86.77424
179.9512, 86.33195
180.4333, 86.35217
180.9155, 86.01765
181.3976, 84.83293
181.8797, 83.69954
182.3618, 83.02573
182.8439, 82.84489
183.3260, 82.96499
183.8082, 83.20951
184.2903, 83.78658
184.7724, 83.90408
185.2545, 83.36349
185.7366, 82.61558
186.2187, 81.88194
186.7009, 81.23170
187.1830, 80.66513
187.6651, 80.18217
188.1472, 79.76292
188.6293, 79.50597
189.1114, 79.51071
189.5936, 79.61585
190.0757, 79.74377
190.5578, 79.86605
191.0399, 79.87659
191.5220, 79.54781
192.0041, 78.65759
192.4863, 78.05448
192.9684, 77.99178
193.4505, 78.21306
193.9326, 78.44646
194.4147, 78.63940
194.8968, 78.71722
195.3790, 78.43567
195.8611, 77.73534
196.3432, 77.24120
196.8253, 77.24480
197.3074, 77.58439
197.7895, 77.94038
198.2717, 78.28067
198.7538, 78.51176
199.2359, 78.48622
199.7180, 78.20292
200.2001, 77.91433
200.6822, 77.66231
201.1644, 77.48463
201.6465, 77.62778
202.1286, 78.47586
202.6107, 79.28282
203.0928, 79.19865
203.5749, 78.24117
204.0571, 77.45116
204.5392, 77.91219
205.0213, 79.60040
205.5034, 80.67549
205.9855, 80.34512
206.4676, 79.67524
206.9497, 79.22247
207.4319, 79.04390
207.9140, 79.04797
208.3961, 79.16022
208.8782, 79.38344
209.3603, 79.69893
209.8424, 80.31269
210.3246, 80.86585
210.8067, 81.13441
211.2888, 81.11816
211.7709, 81.01114
212.2530, 81.04235
212.7351, 81.25392
213.2173, 81.47303
213.6994, 81.66377
214.1815, 81.88315
214.6636, 82.21111
215.1457, 82.63184
215.6278, 83.02859
216.1100, 83.23486
216.5921, 83.14294
217.0742, 83.12255
217.5563, 83.33044
218.0384, 83.48290
218.5205, 83.37153
219.0027, 82.97964
219.4848, 82.45432
219.9669, 81.97031
220.4490, 81.44163
220.9311, 81.22557
221.4132, 81.53722
221.8954, 81.97798
222.3775, 82.35646
222.8596, 82.60194
223.3417, 82.59315
223.8238, 82.10245
224.3059, 80.72861
224.7881, 80.06063
225.2702, 80.85394
225.7523, 81.89072
226.2344, 82.06309
226.7165, 81.17995
227.1986, 79.89143
227.6807, 78.92403
228.1629, 78.32795
228.6450, 77.91789
229.1271, 77.84659
229.6092, 77.87708
230.0913, 77.78833
230.5734, 77.54195
231.0556, 77.17527
231.5377, 76.64445
232.0198, 75.95152
232.5019, 75.49077
232.9840, 75.66293
233.4661, 75.95914
233.9483, 75.64750
234.4304, 74.55130
234.9125, 73.35571
235.3946, 72.76374
235.8767, 72.65291
236.3588, 72.58554
236.8410, 72.42967
237.3231, 72.26176
237.8052, 72.30895
238.2873, 72.71961
238.7694, 72.87126
239.2515, 71.88670
239.7337, 70.23232
240.2158, 68.92717
240.6979, 68.39419
241.1800, 68.41038
241.6621, 68.68826
242.1442, 69.40210
242.6264, 69.88631
243.1085, 69.40539
243.5906, 68.45434
244.0727, 67.86213
244.5548, 68.23582
245.0369, 69.06316
245.5191, 69.14349
246.0012, 68.10391
246.4833, 67.20219
246.9654, 67.23955
247.4475, 67.72414
247.9296, 68.00948
248.4117, 67.78315
248.8939, 67.23190
249.3760, 66.73756
249.8581, 66.25471
250.3402, 65.94488
250.8223, 66.05356
251.3044, 66.27582
251.7866, 66.23695
252.2687, 65.73265
252.7508, 64.99522
253.2329, 64.55566
253.7150, 64.54721
254.1971, 64.58466
254.6793, 64.50969
255.1614, 64.45198
255.6435, 64.60256
256.1256, 65.05455
256.6077, 65.57798
257.0898, 65.65198
257.5720, 64.99217
258.0541, 64.42625
258.5362, 64.07864
259.0183, 63.86347
259.5004, 63.75387
259.9825, 63.73447
260.4647, 63.71332
260.9468, 63.47681
261.4289, 62.76117
261.9110, 62.36556
262.3931, 62.41685
262.8752, 62.69895
263.3574, 63.17690
263.8395, 63.79493
264.3216, 64.31019
264.8037, 64.24403
265.2858, 62.94053
265.7679, 62.40611
266.2501, 63.35381
266.7322, 64.45433
267.2143, 64.71050
267.6964, 63.99731
268.1785, 62.95420
268.6606, 62.42453
269.1428, 62.58371
269.6249, 62.85109
270.1070, 63.34133
270.5891, 63.82859
271.0712, 64.24473
271.5533, 64.54378
272.0355, 64.61545
272.5176, 64.26113
272.9997, 63.22615
273.4818, 62.91845
273.9639, 63.91420
274.4460, 64.98243
274.9282, 65.44213
275.4103, 65.33318
275.8924, 65.10315
276.3745, 65.15212
276.8566, 65.51189
277.3387, 65.86392
277.8208, 66.27510
278.3029, 66.62037
278.7851, 66.77137
279.2672, 66.79729
279.7493, 66.90379
280.2314, 67.25817
280.7135, 67.84834
281.1956, 68.31485
281.6778, 68.71703
282.1599, 68.96741
282.6420, 68.84774
283.1241, 68.54906
283.6062, 68.49068
284.0883, 68.94035
284.5705, 69.80933
285.0526, 70.56729
285.5347, 71.28091
286.0168, 71.83415
286.4989, 72.13976
286.9810, 72.27386
287.4632, 72.32629
287.9453, 72.32080
288.4274, 72.32755
288.9095, 72.56290
289.3916, 73.15187
289.8737, 73.76003
290.3559, 74.49545
290.8380, 75.17278
291.3201, 75.42673
291.8022, 75.10720
292.2843, 74.62024
292.7664, 74.75014
293.2486, 75.89026
293.7307, 76.69714
294.2128, 76.75907
294.6949, 76.55618
295.1770, 76.64160
295.6591, 77.14380
296.1413, 77.74390
296.6234, 78.03155
297.1055, 77.90903
297.5876, 77.83496
298.0697, 77.71912
298.5518, 77.72388
299.0340, 78.06564
299.5161, 78.74498
299.9982, 79.48343
300.4803, 80.04951
300.9624, 80.41959
301.4445, 80.62667
301.9267, 80.54971
302.4088, 80.41075
302.8909, 80.29797
303.3730, 80.23615
303.8551, 80.30665
304.3372, 80.60605
304.8194, 81.09825
305.3015, 81.44411
305.7836, 81.67961
306.2657, 81.75513
306.7478, 81.49629
307.2299, 81.03134
307.7121, 80.74849
308.1942, 80.87137
308.6763, 81.29346
309.1584, 81.64256
309.6405, 81.83871
310.1227, 82.09560
310.6048, 82.53299
311.0869, 83.07198
311.5690, 83.54247
312.0511, 83.86460
312.5332, 84.14474
313.0154, 84.65433
313.4975, 85.59856
313.9796, 86.14512
314.4617, 85.64670
314.9438, 84.83996
315.4259, 84.73942
315.9081, 85.60800
316.3902, 86.87215
316.8723, 87.86114
317.3544, 88.53179
317.8365, 89.19704
318.3186, 90.11101
318.8007, 90.88777
319.2828, 90.99186
319.7650, 90.42083
320.2471, 89.92277
320.7292, 90.18629
321.2113, 91.23976
321.6934, 92.11604
322.1755, 92.78226
322.6577, 93.31201
323.1398, 93.73558
323.6219, 94.05793
324.1040, 94.25737
324.5861, 94.24745
325.0682, 94.13745
325.5504, 94.46159
326.0325, 95.59020
326.5146, 96.66845
326.9967, 97.41728
327.4788, 97.89986
327.9609, 98.19656
328.4431, 98.29472
328.9252, 98.35467
329.4073, 98.80585
329.8894, 99.90367
330.3715, 100.7786
330.8536, 101.2196
331.3358, 101.3673
331.8179, 101.3539
332.3000, 101.2123
332.7821, 101.0215
333.2642, 100.8930
333.7463, 100.8656
334.2285, 100.7463
334.7106, 100.3367
335.1927, 99.96388
335.6748, 100.0055
336.1569, 100.4432
336.6390, 100.8085
337.1212, 100.6507
337.6033, 99.93993
338.0854, 99.49712
338.5675, 99.65041
339.0496, 99.72121
339.5317, 99.22466
340.0139, 98.34283
340.4960, 97.65228
340.9781, 97.52415
341.4602, 97.82202
341.9423, 97.86414
342.4244, 97.37314
342.9066, 96.99990
343.3887, 97.04729
343.8708, 97.24696
344.3529, 97.21268
344.8350, 96.79649
345.3171, 96.11453
345.7993, 95.37560
346.2814, 94.47988
346.7635, 93.70615
347.2456, 93.05228
347.7277, 92.52932
348.2098, 92.23510
348.6920, 92.14754
349.1741, 92.01453
349.6562, 91.50401
350.1383, 90.43702
350.6204, 89.93643
351.1025, 90.38557
351.5847, 90.94648
352.0668, 91.30595
352.5489, 91.42299
353.0310, 91.29129
353.5131, 90.87040
353.9952, 90.20776
354.4774, 89.79809
354.9595, 89.85854
355.4416, 89.91784
355.9237, 89.85069
356.4058, 89.74016
356.8879, 89.74720
357.3701, 89.94501
357.8522, 90.19109
358.3343, 90.14330
358.8164, 89.49736
359.2985, 89.01940
359.7806, 88.75078
360.2627, 88.62197
360.7448, 88.64970
361.2270, 88.79951
361.7091, 88.92306
362.1912, 88.82715
362.6733, 88.44173
363.1554, 88.14706
363.6375, 88.19876
364.1197, 88.09394
364.6018, 87.45494
365.0839, 86.47019
365.5660, 85.61845
366.0481, 85.24792
366.5302, 85.30974
367.0124, 85.44184
367.4945, 85.85424
367.9766, 86.05106
368.4587, 85.88645
368.9408, 85.48519
369.4229, 85.01054
369.9051, 84.53280
370.3872, 83.95661
370.8693, 82.99493
371.3514, 81.29508
371.8335, 80.14340
372.3156, 80.05324
372.7978, 80.24554
373.2799, 80.34565
373.7620, 80.26134
374.2441, 79.97955
374.7262, 79.46101
375.2083, 78.70060
375.6905, 77.84039
376.1726, 76.72240
376.6547, 75.68426
377.1368, 74.98234
377.6189, 74.45951
378.1010, 73.76830
378.5832, 72.60647
379.0653, 71.22729
379.5474, 70.36311
380.0295, 70.23324
380.5116, 70.04126
380.9937, 69.45766
381.4759, 68.68225
381.9580, 67.87001
382.4401, 67.04977
382.9222, 66.25144
383.4043, 65.50672
383.8864, 64.81400
384.3686, 64.16142
384.8507, 63.46377
385.3328, 62.91078
385.8149, 62.79116
386.2970, 63.03609
386.7791, 63.03617
387.2613, 62.25159
387.7434, 61.00659
388.2255, 60.06786
388.7076, 59.53145
389.1897, 59.14980
389.6718, 58.85264
390.1540, 58.57820
390.6361, 58.18797
391.1182, 57.59553
391.6003, 56.94044
392.0824, 56.28932
392.5645, 55.65524
393.0467, 55.19282
393.5288, 55.02398
394.0109, 55.00898
394.4930, 54.92774
394.9751, 54.83180
395.4572, 54.51000
395.9394, 53.57660
396.4215, 52.44330
396.9036, 51.85030
397.3857, 51.97010
397.8678, 52.39985
398.3499, 52.83822
398.8321, 53.28502
399.3142, 53.30467
399.7963, 52.55197
400.2784, 51.63147
400.7605, 50.90988
401.2426, 50.39091
401.7247, 49.97654
402.2068, 49.61188
402.6890, 49.30310
403.1711, 49.09297
403.6532, 49.08474
404.1353, 49.02983
404.6174, 48.85225
405.0995, 48.61720
405.5817, 48.43299
406.0638, 48.32627
406.5459, 48.18172
407.0280, 47.81094
407.5101, 47.06732
407.9922, 46.58207
408.4744, 46.45613
408.9565, 46.46386
409.4386, 46.57718
409.9207, 46.72547
410.4028, 46.75536
410.8849, 46.53721
411.3671, 46.11885
411.8492, 45.86631
412.3313, 45.99453
412.8134, 46.02625
413.2955, 45.82051
413.7776, 45.52430
414.2598, 45.32871
414.7419, 45.28783
415.2240, 45.24638
415.7061, 44.93380
416.1882, 44.23586
416.6703, 43.66063
417.1525, 43.16568
417.6346, 42.86308
418.1167, 42.93003
418.5988, 43.26408
419.0809, 43.57037
419.5630, 43.68648
420.0452, 43.60199
420.5273, 43.19116
421.0094, 42.17473
421.4915, 41.43465
421.9736, 41.56789
422.4557, 42.02602
422.9379, 42.20008
423.4200, 41.89629
423.9021, 41.47208
424.3842, 41.32954
424.8663, 41.45546
425.3484, 41.51350
425.8306, 41.44344
426.3127, 41.26755
426.7948, 40.94717
427.2769, 40.51571
427.7590, 40.19743
428.2411, 40.24202
428.7233, 40.39174
429.2054, 40.19110
429.6875, 39.59670
430.1696, 39.03351
430.6517, 38.75253
431.1339, 38.70579
431.6160, 38.69342
432.0981, 38.73493
432.5802, 38.77908
433.0623, 38.81252
433.5444, 38.82907
434.0266, 38.80317
434.5087, 38.72123
434.9908, 38.63991
435.4729, 38.67085
435.9550, 38.88554
436.4371, 38.84918
436.9193, 38.17493
437.4014, 37.54616
437.8835, 37.54579
438.3656, 38.06284
438.8477, 38.56030
439.3298, 38.68650
439.8120, 38.50481
440.2941, 38.35107
440.7762, 38.30117
441.2583, 38.18353
441.7404, 37.86613
442.2225, 37.53204
442.7046, 37.35582
443.1867, 37.38593
443.6689, 37.57892
444.1510, 37.91028
444.6331, 38.43539
445.1152, 38.82421
445.5973, 39.02052
446.0794, 39.13224
446.5616, 39.20603
447.0437, 39.21866
447.5258, 39.08326
448.0079, 38.71292
448.4900, 38.27174
448.9721, 38.20244
449.4543, 38.64567
449.9364, 39.05710
450.4185, 39.25707
450.9006, 39.41714
451.3827, 39.70034
451.8648, 40.10816
452.3470, 40.42994
452.8291, 40.41642
453.3112, 40.15870
453.7933, 40.06348
454.2754, 40.18559
454.7575, 40.39221
455.2397, 40.64917
455.7218, 40.92344
456.2039, 41.15315
456.6860, 41.29518
457.1681, 41.42969
457.6502, 41.63552
458.1324, 41.89597
458.6145, 42.12501
459.0966, 42.27040
459.5787, 42.42318
460.0608, 42.78899
460.5429, 43.40729
461.0251, 43.79939
461.5072, 43.65516
461.9893, 43.40342
462.4714, 43.50133
462.9535, 43.91127
463.4356, 44.19042
463.9178, 43.99048
464.3999, 43.45180
464.8820, 43.35332
465.3641, 44.24586
465.8462, 44.84396
466.3283, 44.69787
466.8105, 44.31195
467.2926, 44.27863
467.7747, 44.70862
468.2568, 45.22737
468.7389, 45.37543
469.2210, 45.08033
469.7032, 44.90017
470.1853, 44.89098
470.6674, 44.94180
471.1495, 45.02037
471.6316, 45.13878
472.1137, 45.34937
472.5959, 45.69017
473.0780, 46.04345
473.5601, 46.18554
474.0422, 46.09075
474.5243, 45.89335
475.0064, 45.48426
475.4886, 45.08594
475.9707, 44.82072
476.4528, 44.69151
476.9349, 44.65211
477.4170, 44.78888
477.8991, 44.97388
478.3813, 44.87083
478.8634, 44.43094
479.3455, 43.99503
479.8276, 43.73709
480.3097, 43.59338
480.7918, 43.44288
481.2740, 43.27114
481.7561, 43.12106
482.2382, 42.99256
482.7203, 42.90584
483.2024, 42.93259
483.6845, 43.09339
484.1666, 43.23338
484.6487, 43.18249
485.1309, 42.93307
485.6130, 42.80738
486.0951, 43.00553
486.5772, 43.10755
487.0593, 42.71566
487.5414, 42.14304
488.0236, 42.02028
488.5057, 42.59630
488.9878, 43.49099
489.4699, 44.03579
489.9520, 44.12292
490.4341, 44.11317
490.9163, 43.92255
491.3984, 43.72995
491.8805, 43.57959
492.3626, 43.50370
492.8447, 43.57781
493.3268, 43.88449
493.8090, 44.29716
494.2911, 44.39387
494.7732, 43.99088
495.2553, 43.77240
495.7374, 44.27177
496.2195, 44.75125
496.7017, 44.53996
497.1838, 43.65575
497.6659, 42.88020
498.1480, 42.92022
498.6301, 43.47798
499.1122, 43.71659
499.5944, 43.55774
500.0765, 43.30682
500.5586, 43.02287
501.0407, 42.80497
501.5228, 42.87064
502.0049, 43.38045
502.4871, 43.84563
502.9692, 43.99260
503.4513, 43.93976
503.9334, 43.90471
504.4155, 43.93486
504.8976, 43.94903
505.3798, 43.87478
505.8619, 43.70773
506.3440, 43.45321
506.8261, 42.90180
507.3082, 42.50405
507.7903, 42.54387
508.2725, 42.81055
508.7546, 42.97090
509.2367, 42.90198
509.7188, 42.73267
510.2009, 42.69196
510.6830, 42.88492
511.1652, 42.85009
511.6473, 42.13987
512.1294, 41.64578
512.6115, 41.87359
513.0936, 42.56226
513.5757, 43.18752
514.0579, 43.50071
514.5400, 43.56925
515.0221, 43.44610
515.5042, 43.08575
515.9863, 42.87653
516.4684, 42.93465
516.9506, 43.15631
517.4327, 43.50523
517.9148, 43.95382
518.3969, 44.31635
518.8790, 44.41569
519.3611, 44.44411
519.8433, 44.62852
520.3254, 44.97185
520.8075, 45.46472
521.2896, 46.16653
521.7717, 46.94221
522.2538, 47.42220
522.7360, 47.46138
523.2181, 47.67828
523.7002, 48.36316
524.1823, 49.13650
524.6644, 49.55305
525.1465, 49.67418
525.6287, 49.98505
526.1108, 50.85844
526.5929, 52.18122
527.0750, 53.39408
527.5571, 54.57862
528.0392, 55.49796
528.5214, 56.07836
529.0035, 56.44480
529.4856, 56.47823
529.9677, 56.30230
530.4498, 56.48020
530.9319, 57.68569
531.4141, 59.70343
531.8962, 61.20832
532.3783, 62.03286
532.8604, 62.71901
533.3425, 63.55882
533.8246, 64.34515
534.3068, 64.79366
534.7889, 64.80932
535.2710, 64.86953
535.7531, 65.27938
536.2352, 65.95729
536.7173, 66.80955
537.1995, 67.84493
537.6816, 68.78360
538.1637, 69.43518
538.6458, 69.80135
539.1279, 69.95547
539.6100, 69.88548
540.0922, 69.64304
540.5743, 69.06910
541.0564, 68.41030
541.5385, 67.96022
542.0206, 67.78223
542.5027, 67.80515
542.9849, 68.02808
543.4670, 68.46841
543.9491, 68.33748
544.4312, 67.28967
544.9133, 66.04391
545.3954, 64.63543
545.8775, 63.15432
546.3596, 61.68855
546.8417, 60.26175
547.3239, 58.85547
547.8060, 57.43734
548.2881, 56.01372
548.7702, 54.74971
549.2523, 53.73399
549.7344, 52.70889
550.2166, 51.36253
550.6987, 49.94441
551.1808, 48.87734
551.6629, 48.36822
552.1450, 47.90731
552.6271, 47.17079
553.1093, 46.25291
553.5914, 45.30873
554.0735, 44.36645
554.5556, 43.50780
555.0377, 42.81382
555.5198, 42.28168
556.0020, 41.80384
556.4841, 41.48820
556.9662, 41.08882
557.4483, 40.43850
557.9304, 39.71360
558.4125, 39.08527
558.8947, 38.61402
559.3768, 38.36068
559.8589, 38.47306
560.3410, 38.96656
560.8231, 39.08318
561.3052, 38.59858
561.7874, 38.04504
562.2695, 37.47994
562.7516, 36.99928
563.2337, 36.77782
563.7158, 36.87659
564.1979, 36.92896
564.6801, 36.47975
565.1622, 35.72315
565.6443, 35.37211
566.1264, 35.57673
566.6085, 35.76504
567.0906, 35.45132
567.5728, 34.82164
568.0549, 34.60619
568.5370, 35.18249
569.0191, 35.57710
569.5012, 35.30306
569.9833, 34.74330
570.4655, 34.33280
570.9476, 34.15491
571.4297, 34.11364
571.9118, 34.14573
572.3939, 34.23862
572.8760, 34.22932
573.3582, 34.03893
573.8403, 33.84839
574.3224, 33.67781
574.8045, 33.51982
575.2866, 33.29874
575.7687, 33.04222
576.2509, 32.96540
576.7330, 33.42388
577.2151, 34.20939
577.6972, 34.46622
578.1793, 34.09111
578.6614, 33.62556
579.1436, 33.21739
579.6257, 32.91278
580.1078, 32.79569
580.5899, 32.90405
581.0720, 32.98074
581.5541, 32.85163
582.0363, 32.68935
582.5184, 32.71330
583.0005, 32.91063
583.4826, 33.10006
583.9647, 33.16581
584.4468, 33.17097
584.9290, 33.30769
585.4111, 33.81345
585.8932, 34.07272
586.3753, 34.04652
586.8574, 33.82665
587.3395, 33.27746
587.8217, 32.57906
