##NAMES=Spessartine
##RRUFFID=R060177
##IDEAL CHEMISTRY=Mn^2+^_3_Al_2_(SiO_4_)_3_
##LOCALITY=Fujian Province, China
##OWNER=RRUFF
##SOURCE=Rock Currier
##DESCRIPTION=Orange trapezohedral crystals
##STATUS=The identification of this mineral has been confirmed by X-ray diffraction and chemical analysis
##URL=rruff.info/R060177
##MEASURED CHEMISTRY=(Mn_2.86_Fe^2+^_0.10_Ca_0.04_)_Î£=3_Al_2.00_(Si_1.00_O_4_)_3_
92.10938, 4.173716
92.59149, 3.970664
93.07361, 4.055634
93.55573, 4.404809
94.03784, 4.720156
94.51996, 4.673581
95.00208, 4.363814
95.48419, 4.144975
95.96631, 4.193853
96.44843, 4.397814
96.93054, 4.404150
97.41266, 4.184459
97.89478, 3.919212
98.37689, 3.849247
98.85901, 3.978388
99.34113, 4.087091
99.82324, 4.046559
100.3054, 3.857199
100.7875, 3.843741
101.2696, 4.078686
101.7517, 4.395904
102.2338, 4.465985
102.7159, 4.213193
103.1981, 3.927384
103.6802, 3.723564
104.1623, 3.583814
104.6444, 3.587559
105.1265, 3.783558
105.6086, 4.121329
106.0908, 4.419097
106.5729, 4.656173
107.0550, 4.874496
107.5371, 5.090731
108.0192, 5.248702
108.5013, 5.494254
108.9835, 5.914290
109.4656, 6.497308
109.9477, 6.909507
110.4298, 6.875264
110.9119, 6.823078
111.3940, 7.047297
111.8762, 7.832313
112.3583, 8.610691
112.8404, 9.249559
113.3225, 9.715558
113.8046, 10.32839
114.2867, 11.17517
114.7689, 12.18756
115.2510, 13.28128
115.7331, 14.59060
116.2152, 15.86069
116.6973, 16.96514
117.1794, 17.85684
117.6616, 18.74070
118.1437, 19.63429
118.6258, 20.58105
119.1079, 21.62144
119.5900, 22.87643
120.0721, 24.17666
120.5543, 25.45197
121.0364, 26.76578
121.5185, 27.86085
122.0006, 28.36133
122.4827, 28.47303
122.9648, 28.79338
123.4470, 29.78069
123.9291, 31.11399
124.4112, 32.42878
124.8933, 33.61195
125.3754, 34.79894
125.8575, 36.10106
126.3397, 37.51832
126.8218, 39.05757
127.3039, 40.67843
127.7860, 42.41517
128.2681, 44.35144
128.7502, 46.66631
129.2324, 49.08863
129.7145, 51.08265
130.1966, 52.65729
130.6787, 54.10670
131.1608, 55.72817
131.6429, 57.46663
132.1251, 59.13403
132.6072, 60.74700
133.0893, 62.23004
133.5714, 63.30295
134.0535, 63.90865
134.5356, 64.36628
135.0178, 65.02725
135.4999, 65.89079
135.9820, 66.90522
136.4641, 68.11346
136.9462, 69.51387
137.4283, 70.80696
137.9105, 71.94804
138.3926, 73.08167
138.8747, 74.46712
139.3568, 76.18244
139.8389, 77.88348
140.3210, 79.39135
140.8032, 80.65938
141.2853, 82.04401
141.7674, 83.59319
142.2495, 85.22500
142.7316, 86.59012
143.2137, 87.20308
143.6959, 87.48268
144.1780, 88.12790
144.6601, 89.16004
145.1422, 90.53179
145.6243, 92.53075
146.1064, 94.86903
146.5886, 96.45773
147.0707, 96.72605
147.5528, 96.90659
148.0349, 97.65727
148.5170, 99.34878
148.9991, 101.0067
149.4813, 102.5307
149.9634, 103.9536
150.4455, 105.4520
150.9276, 107.2085
151.4097, 108.9238
151.8918, 110.3726
152.3740, 110.6163
152.8561, 111.6696
153.3382, 114.0224
153.8203, 117.6227
154.3024, 120.9983
154.7845, 123.7380
155.2667, 126.3450
155.7488, 129.2423
156.2309, 132.8840
156.7130, 136.3544
157.1951, 139.5580
157.6772, 142.4929
158.1594, 144.8950
158.6415, 146.7114
159.1236, 147.9596
159.6057, 148.6590
160.0878, 148.6016
160.5699, 148.1911
161.0521, 147.6672
161.5342, 147.1039
162.0163, 145.9119
162.4984, 143.5198
162.9805, 140.4825
163.4626, 137.5005
163.9448, 134.6065
164.4269, 131.9931
164.9090, 129.7651
165.3911, 127.9625
165.8732, 126.3633
166.3553, 124.6638
166.8375, 123.1096
167.3196, 122.1091
167.8017, 122.1563
168.2838, 122.6243
168.7659, 123.1167
169.2480, 123.6213
169.7302, 124.0028
170.2123, 123.9796
170.6944, 123.7496
171.1765, 123.7579
171.6586, 124.3302
172.1407, 125.1992
172.6229, 126.1690
173.1050, 127.2847
173.5871, 128.2775
174.0692, 129.0333
174.5513, 129.5012
175.0334, 129.5096
175.5156, 128.6738
175.9977, 127.3911
176.4798, 126.2518
176.9619, 125.3694
177.4440, 124.5732
177.9261, 123.6891
178.4083, 122.7338
178.8904, 121.7893
179.3725, 120.8378
179.8546, 119.9460
180.3367, 119.3035
180.8188, 119.0465
181.3010, 118.8769
181.7831, 118.3072
182.2652, 117.3940
182.7473, 116.5401
183.2294, 116.1400
183.7115, 116.0403
184.1937, 115.8162
184.6758, 115.3312
185.1579, 114.7418
185.6400, 114.3088
186.1221, 114.0304
186.6042, 113.7739
187.0864, 113.4056
187.5685, 112.9602
188.0506, 112.6218
188.5327, 112.4757
189.0148, 112.4159
189.4969, 112.1816
189.9791, 111.7684
190.4612, 111.3176
190.9433, 110.9290
191.4254, 110.6033
191.9075, 110.3164
192.3896, 110.0861
192.8718, 109.8833
193.3539, 109.5748
193.8360, 109.1366
194.3181, 108.7592
194.8002, 108.6280
195.2823, 108.7370
195.7645, 108.9324
196.2466, 109.2594
196.7287, 109.6281
197.2108, 109.6161
197.6929, 109.1596
198.1750, 108.6053
198.6572, 108.2787
199.1393, 108.1883
199.6214, 108.1202
200.1035, 108.0290
200.5856, 107.9178
201.0677, 107.7804
201.5499, 107.5787
202.0320, 107.4680
202.5141, 107.6571
202.9962, 108.1910
203.4783, 108.6843
203.9604, 109.0991
204.4426, 109.4167
204.9247, 109.3824
205.4068, 108.8737
205.8889, 108.3273
206.3710, 108.2239
206.8531, 108.6553
207.3353, 109.0637
207.8174, 109.3082
208.2995, 109.4053
208.7816, 109.5439
209.2637, 109.6806
209.7458, 109.9372
210.2280, 110.5397
210.7101, 111.6625
211.1922, 112.4623
211.6743, 112.6045
212.1564, 112.1226
212.6385, 112.1434
213.1207, 112.8408
213.6028, 113.7554
214.0849, 114.4287
214.5670, 114.8147
215.0491, 115.0692
215.5313, 115.1551
216.0134, 115.0762
216.4955, 115.2724
216.9776, 115.8867
217.4597, 116.5818
217.9418, 116.9603
218.4239, 116.8080
218.9061, 116.9123
219.3882, 117.6292
219.8703, 118.9620
220.3524, 119.4793
220.8345, 118.7643
221.3166, 117.7425
221.7988, 117.4100
222.2809, 118.1879
222.7630, 118.6683
223.2451, 118.4603
223.7272, 117.5494
224.2093, 116.9421
224.6915, 116.8174
225.1736, 116.7854
225.6557, 116.4148
226.1378, 115.4263
226.6199, 114.6980
227.1020, 114.5085
227.5842, 114.8602
228.0663, 114.8725
228.5484, 114.3943
229.0305, 113.7398
229.5126, 113.1881
229.9947, 112.7466
230.4769, 112.4049
230.9590, 112.2544
231.4411, 112.2938
231.9232, 111.9052
232.4053, 110.7436
232.8874, 109.5161
233.3696, 108.8896
233.8517, 109.2442
234.3338, 109.4478
234.8159, 109.2521
235.2980, 108.6675
235.7801, 108.3157
236.2623, 108.3676
236.7444, 108.4691
237.2265, 108.3244
237.7086, 107.8423
238.1907, 107.2868
238.6728, 106.6413
239.1550, 105.9199
239.6371, 105.3693
240.1192, 105.0260
240.6013, 104.8110
241.0834, 104.6811
241.5655, 104.6991
242.0477, 104.6726
242.5298, 104.5417
243.0119, 104.3244
243.4940, 104.2232
243.9761, 104.2927
244.4582, 104.4116
244.9404, 104.5216
245.4225, 104.7411
245.9046, 104.6849
246.3867, 104.1321
246.8688, 103.2082
247.3509, 102.8416
247.8331, 103.4251
248.3152, 104.0634
248.7973, 104.1506
249.2794, 103.3731
249.7615, 102.6936
250.2436, 102.1300
250.7258, 101.7164
251.2079, 101.6650
251.6900, 102.1653
252.1721, 102.7598
252.6542, 103.2065
253.1363, 103.5170
253.6185, 103.6319
254.1006, 103.4721
254.5827, 103.1212
255.0648, 102.8739
255.5469, 102.7478
256.0291, 102.7018
256.5112, 102.7456
256.9933, 102.9825
257.4754, 103.0134
257.9575, 102.6461
258.4396, 102.1210
258.9218, 102.2064
259.4039, 103.2664
259.8860, 104.2732
260.3681, 104.6852
260.8502, 104.1871
261.3323, 104.0486
261.8145, 104.4384
262.2966, 105.0993
262.7787, 105.4749
263.2608, 105.4858
263.7429, 105.3715
264.2250, 105.1904
264.7072, 104.8887
265.1893, 104.7275
265.6714, 104.7001
266.1535, 104.8170
266.6356, 105.1446
267.1177, 105.7937
267.5999, 106.3622
268.0820, 106.6605
268.5641, 106.6384
269.0462, 106.7399
269.5283, 106.9707
270.0104, 107.3245
270.4926, 107.8466
270.9747, 108.6248
271.4568, 109.2902
271.9389, 109.7000
272.4210, 109.8521
272.9031, 110.0119
273.3853, 110.1515
273.8674, 110.3523
274.3495, 110.7226
274.8316, 111.2845
275.3137, 111.9015
275.7958, 112.5468
276.2780, 113.2170
276.7601, 113.9390
277.2422, 114.7457
277.7243, 115.5139
278.2064, 116.0190
278.6885, 116.1986
279.1707, 116.6807
279.6528, 117.7447
280.1349, 119.2295
280.6170, 120.2386
281.0991, 120.6839
281.5812, 121.0178
282.0634, 121.6441
282.5455, 122.5793
283.0276, 123.4983
283.5097, 124.3305
283.9918, 125.1150
284.4739, 125.9505
284.9561, 126.8313
285.4382, 127.8092
285.9203, 128.9625
286.4024, 130.2707
286.8845, 131.5750
287.3666, 132.8331
287.8488, 134.0750
288.3309, 135.4596
288.8130, 136.9953
289.2951, 138.2706
289.7772, 138.6689
290.2593, 138.4238
290.7415, 139.0668
291.2236, 140.9337
291.7057, 143.2628
292.1878, 144.8190
292.6699, 145.6537
293.1520, 146.3899
293.6342, 147.4124
294.1163, 148.6181
294.5984, 149.5814
295.0805, 150.2478
295.5626, 150.8586
296.0447, 151.7117
296.5269, 152.7822
297.0090, 153.9514
297.4911, 155.2534
297.9732, 156.5975
298.4553, 157.7322
298.9374, 158.6373
299.4196, 159.4660
299.9017, 160.3910
300.3838, 161.3565
300.8659, 162.2020
301.3480, 162.7884
301.8301, 163.2469
302.3123, 163.8066
302.7944, 164.4651
303.2765, 165.0254
303.7586, 165.3618
304.2407, 165.4899
304.7228, 165.4110
305.2050, 164.8744
305.6871, 164.3853
306.1692, 164.7197
306.6513, 165.7305
307.1334, 166.5422
307.6155, 166.2156
308.0977, 165.4760
308.5798, 165.3277
309.0619, 166.3521
309.5440, 167.3953
310.0261, 167.3679
310.5082, 166.5573
310.9904, 165.8404
311.4725, 165.6251
311.9546, 165.7439
312.4367, 166.1156
312.9188, 166.8268
313.4009, 167.4617
313.8831, 167.7024
314.3652, 167.6852
314.8473, 167.6736
315.3294, 167.5989
315.8115, 167.6961
316.2936, 168.1463
316.7758, 169.0005
317.2579, 169.9741
317.7400, 171.1488
318.2221, 172.3198
318.7042, 173.2512
319.1863, 173.6619
319.6685, 174.0031
320.1506, 174.4542
320.6327, 175.0251
321.1148, 175.5934
321.5969, 175.7450
322.0790, 176.0627
322.5612, 177.0395
323.0433, 179.8094
323.5254, 182.1647
324.0075, 183.4090
324.4896, 183.6796
324.9717, 184.0399
325.4539, 184.7905
325.9360, 185.5979
326.4181, 186.2599
326.9002, 186.2576
327.3823, 186.7529
327.8644, 188.0814
328.3466, 189.9959
328.8287, 191.7400
329.3108, 193.2529
329.7929, 194.6462
330.2750, 195.9748
330.7571, 197.4702
331.2393, 198.4037
331.7214, 198.4612
332.2035, 198.0710
332.6856, 197.9184
333.1677, 198.0999
333.6498, 198.3719
334.1320, 198.6560
334.6141, 198.9248
335.0962, 199.3883
335.5783, 200.1675
336.0604, 201.0163
336.5425, 201.7320
337.0247, 202.4090
337.5068, 202.7072
337.9889, 202.4878
338.4710, 201.8083
338.9531, 201.1107
339.4352, 200.3216
339.9173, 199.6714
340.3994, 199.4513
340.8816, 199.7744
341.3637, 199.7773
341.8458, 199.2745
342.3279, 198.4591
342.8100, 197.8130
343.2921, 197.3648
343.7743, 196.9334
344.2564, 196.4115
344.7385, 195.8000
345.2206, 195.2146
345.7027, 194.6534
346.1848, 194.1214
346.6670, 193.5883
347.1491, 193.0611
347.6312, 192.6625
348.1133, 192.7262
348.5954, 192.9698
349.0775, 192.1793
349.5597, 190.2401
350.0418, 188.3844
350.5239, 188.0582
351.0060, 188.8855
351.4881, 189.7423
351.9702, 190.3573
352.4524, 190.7380
352.9345, 190.8266
353.4166, 190.6434
353.8987, 190.3605
354.3808, 189.9762
354.8629, 189.6092
355.3451, 189.4462
355.8272, 189.5368
356.3093, 189.8207
356.7914, 190.3298
357.2735, 191.0044
357.7556, 191.6699
358.2378, 192.2396
358.7199, 192.7478
359.2020, 193.1694
359.6841, 193.4635
360.1662, 193.8935
360.6483, 194.8540
361.1305, 195.9856
361.6126, 196.7844
362.0947, 196.4050
362.5768, 196.2277
363.0589, 197.0819
363.5410, 198.9740
364.0232, 200.7001
364.5053, 201.8087
364.9874, 202.6252
365.4695, 203.4023
365.9516, 204.0598
366.4337, 204.8315
366.9159, 205.9301
367.3980, 207.2290
367.8801, 208.2261
368.3622, 208.8328
368.8443, 209.1308
369.3264, 209.1284
369.8086, 208.6450
370.2907, 208.1732
370.7728, 207.6871
371.2549, 207.2174
371.7370, 206.8348
372.2191, 206.7238
372.7013, 206.4406
373.1834, 205.8580
373.6655, 204.9534
374.1476, 203.9146
374.6297, 202.5938
375.1118, 201.3530
375.5940, 200.6505
376.0761, 200.7788
376.5582, 200.6063
377.0403, 200.1973
377.5224, 199.3223
378.0045, 196.5426
378.4867, 191.4256
378.9688, 186.2122
379.4509, 182.4200
379.9330, 180.1033
380.4151, 177.8698
380.8972, 175.6588
381.3794, 173.4441
381.8615, 171.1856
382.3436, 168.8581
382.8257, 166.6772
383.3078, 164.8212
383.7899, 163.1708
384.2721, 161.1850
384.7542, 158.8418
385.2363, 156.5024
385.7184, 154.5337
386.2005, 152.8586
386.6826, 151.1358
387.1648, 149.1872
387.6469, 147.2546
388.1290, 145.6268
388.6111, 144.2863
389.0932, 143.0872
389.5753, 142.0297
390.0575, 141.0133
390.5396, 139.9131
391.0217, 138.7070
391.5038, 137.3857
391.9859, 135.7502
392.4680, 134.0136
392.9502, 132.5409
393.4323, 131.6384
393.9144, 130.9429
394.3965, 130.3098
394.8786, 129.7291
395.3607, 129.0741
395.8429, 128.2326
396.3250, 127.3208
396.8071, 126.4395
397.2892, 125.6106
397.7713, 124.8111
398.2534, 123.9994
398.7356, 123.2010
399.2177, 122.5578
399.6998, 122.2745
400.1819, 121.9960
400.6640, 121.5664
401.1461, 120.9132
401.6283, 120.2684
402.1104, 119.7557
402.5925, 119.1958
403.0746, 118.2408
403.5567, 116.4839
404.0388, 115.0749
404.5210, 114.4037
405.0031, 114.4711
405.4852, 114.3711
405.9673, 114.1081
406.4494, 113.6648
406.9315, 112.9402
407.4137, 111.8662
407.8958, 111.0354
408.3779, 110.5848
408.8600, 110.3744
409.3421, 110.1145
409.8242, 109.8138
410.3064, 109.3431
410.7885, 108.4338
411.2706, 107.2339
411.7527, 106.5746
412.2348, 106.5547
412.7169, 106.6509
413.1991, 106.1981
413.6812, 105.3389
414.1633, 104.5634
414.6454, 104.1204
415.1275, 103.8014
415.6096, 103.4010
416.0918, 102.9089
416.5739, 102.2301
417.0560, 100.9366
417.5381, 99.56735
418.0202, 98.85365
418.5023, 99.21523
418.9845, 99.53084
419.4666, 98.97399
419.9487, 97.88037
420.4308, 96.89400
420.9129, 96.47820
421.3951, 96.04778
421.8772, 95.13338
422.3593, 93.66169
422.8414, 92.66222
423.3235, 92.85364
423.8056, 93.40224
424.2878, 93.63980
424.7699, 93.31280
425.2520, 92.85728
425.7341, 92.24939
426.2162, 91.54153
426.6983, 90.88165
427.1805, 90.19881
427.6626, 89.65578
428.1447, 89.36205
428.6268, 89.45423
429.1089, 89.27335
429.5910, 88.65691
430.0732, 87.93425
430.5553, 87.53788
431.0374, 87.56047
431.5195, 87.54926
432.0016, 87.43095
432.4837, 87.19260
432.9659, 86.66470
433.4480, 85.77312
433.9301, 85.05340
434.4122, 85.06710
434.8943, 85.68490
435.3764, 85.94652
435.8586, 85.70870
436.3407, 85.25237
436.8228, 84.94528
437.3049, 84.75407
437.7870, 84.54179
438.2691, 84.13747
438.7513, 83.72410
439.2334, 83.62299
439.7155, 83.81704
440.1976, 84.00384
440.6797, 83.90831
441.1618, 83.70261
441.6440, 83.61244
442.1261, 83.78652
442.6082, 83.91250
443.0903, 83.74920
443.5724, 83.40478
444.0545, 83.11292
444.5367, 83.03654
445.0188, 82.96778
445.5009, 82.72585
445.9830, 82.24418
446.4651, 82.05366
446.9472, 82.57394
447.4294, 83.25603
447.9115, 83.63286
448.3936, 83.34667
448.8757, 83.16479
449.3578, 83.19798
449.8399, 83.37395
450.3221, 83.42693
450.8042, 83.20901
451.2863, 83.10983
451.7684, 83.35064
452.2505, 84.02785
452.7326, 84.39446
453.2148, 84.32214
453.6969, 84.17226
454.1790, 84.42916
454.6611, 85.12276
455.1432, 85.72742
455.6253, 86.11816
456.1075, 86.33945
456.5896, 86.42744
457.0717, 86.38716
457.5538, 86.43223
458.0359, 86.80791
458.5180, 87.35886
459.0002, 87.68449
459.4823, 87.71362
459.9644, 87.75293
460.4465, 88.19258
460.9286, 88.85230
461.4107, 89.38206
461.8929, 89.65308
462.3750, 89.74035
462.8571, 89.50867
463.3392, 89.06856
463.8213, 88.94301
464.3034, 89.59483
464.7856, 90.50173
465.2677, 91.37731
465.7498, 92.29353
466.2319, 92.85267
466.7140, 92.59417
467.1961, 92.04224
467.6783, 91.86641
468.1604, 92.52869
468.6425, 93.15184
469.1246, 93.57755
469.6067, 93.82038
470.0888, 94.05914
470.5710, 94.28623
471.0531, 94.51785
471.5352, 94.75349
472.0173, 94.97843
472.4994, 95.31181
472.9815, 95.86668
473.4637, 96.37353
473.9458, 96.38895
474.4279, 95.89666
474.9100, 95.17526
475.3921, 94.12347
475.8742, 92.98781
476.3564, 92.68507
476.8385, 93.20654
477.3206, 93.71722
477.8027, 93.49822
478.2848, 92.82045
478.7669, 92.18260
479.2491, 91.60530
479.7312, 91.27468
480.2133, 91.68118
480.6954, 92.43107
481.1775, 92.79200
481.6596, 91.98128
482.1418, 91.07155
482.6239, 90.76662
483.1060, 90.99891
483.5881, 91.25000
484.0702, 91.36501
484.5523, 91.39985
485.0345, 91.37390
485.5166, 91.23488
485.9987, 91.16140
486.4808, 91.29208
486.9629, 91.46572
487.4450, 91.45434
487.9272, 91.02288
488.4093, 90.74684
488.8914, 90.79420
489.3735, 91.11702
489.8556, 91.25603
490.3377, 91.13853
490.8199, 91.00925
491.3020, 91.05502
491.7841, 91.30317
492.2662, 91.31468
492.7483, 90.97988
493.2304, 90.66429
493.7126, 90.96891
494.1947, 91.81471
494.6768, 92.59948
495.1589, 93.12714
495.6410, 93.47678
496.1231, 93.73424
496.6053, 93.91249
497.0874, 94.07898
497.5695, 94.32621
498.0516, 94.56445
498.5337, 94.70377
499.0158, 94.73354
499.4980, 94.64609
499.9801, 94.14929
500.4622, 93.63483
500.9443, 93.55924
501.4264, 94.77174
501.9085, 95.69998
502.3907, 95.64362
502.8728, 94.85870
503.3549, 94.42077
503.8370, 94.79268
504.3191, 95.24239
504.8012, 95.53983
505.2834, 95.69714
505.7655, 95.63645
506.2476, 95.25289
506.7297, 94.77169
507.2118, 94.36540
507.6939, 93.99398
508.1761, 93.91973
508.6582, 94.31374
509.1403, 94.89380
509.6224, 94.85216
510.1045, 94.16801
510.5866, 93.65560
511.0688, 94.00645
511.5509, 94.83791
512.0330, 94.82626
512.5151, 93.94751
512.9973, 93.15058
513.4794, 93.38340
513.9615, 94.18974
514.4436, 94.87080
514.9257, 95.28452
515.4078, 95.50058
515.8900, 95.41898
516.3721, 95.18420
516.8542, 95.07295
517.3363, 95.29195
517.8184, 95.55854
518.3005, 95.77743
518.7827, 95.94312
519.2648, 96.04328
519.7469, 95.76491
520.2290, 95.65961
520.7111, 96.05185
521.1932, 97.22513
521.6754, 98.31522
522.1575, 99.37769
522.6396, 100.3196
523.1217, 100.9468
523.6038, 101.1371
524.0859, 101.4567
524.5681, 102.0154
525.0502, 102.8055
525.5323, 103.8685
526.0144, 105.2204
526.4965, 106.6367
526.9786, 108.0340
527.4608, 109.4002
527.9429, 110.6578
528.4250, 111.8086
528.9071, 112.9222
529.3892, 113.9253
529.8713, 114.9737
530.3535, 116.2996
530.8356, 118.0099
531.3177, 119.9838
531.7998, 122.3496
532.2819, 124.9348
532.7640, 127.2173
533.2462, 128.9060
533.7283, 130.4066
534.2104, 131.8276
534.6925, 133.1415
535.1746, 134.6552
535.6567, 136.1735
536.1389, 138.0756
536.6210, 140.6716
537.1031, 144.8181
537.5852, 147.7224
538.0673, 148.8866
538.5494, 149.2434
539.0316, 150.3872
539.5137, 152.4642
539.9958, 154.4254
540.4779, 156.0400
540.9600, 157.2828
541.4421, 157.9771
541.9243, 158.1380
542.4064, 158.1398
542.8885, 158.3461
543.3706, 158.5334
543.8527, 158.2876
544.3348, 157.5652
544.8170, 156.5178
545.2991, 155.3390
545.7812, 153.8850
546.2633, 151.9529
546.7454, 149.4214
547.2275, 146.5001
547.7097, 142.8898
548.1918, 138.9406
548.6739, 135.5289
549.1560, 133.2017
549.6381, 131.0362
550.1202, 128.8275
550.6024, 126.5774
551.0845, 124.1785
551.5666, 121.4844
552.0487, 118.8285
552.5308, 116.4456
553.0129, 114.3431
553.4951, 112.4187
553.9772, 110.6971
554.4593, 109.0886
554.9414, 107.4763
555.4235, 105.8629
555.9056, 104.2445
556.3878, 102.5196
556.8699, 100.9277
557.3520, 100.0799
557.8341, 99.81258
558.3162, 99.43499
558.7983, 98.48106
559.2805, 97.26472
559.7626, 95.96725
560.2447, 94.60618
560.7268, 93.51724
561.2089, 92.94901
561.6910, 92.65505
562.1732, 92.46053
562.6553, 92.56898
563.1374, 92.41024
563.6195, 91.63644
564.1016, 90.63979
564.5837, 90.01907
565.0659, 90.02396
565.5480, 89.94069
566.0301, 89.63737
566.5122, 89.12983
566.9943, 88.37484
567.4764, 87.26344
567.9586, 86.45840
568.4407, 86.65639
568.9228, 87.60172
569.4049, 87.75211
569.8870, 87.02784
570.3691, 86.08123
570.8513, 85.47478
571.3334, 85.11286
571.8155, 84.85255
572.2976, 84.70056
572.7797, 84.52914
573.2618, 84.19746
573.7440, 83.78378
574.2261, 83.42185
574.7082, 83.07752
575.1903, 82.87947
575.6724, 83.01940
576.1545, 83.43467
576.6367, 83.57339
577.1188, 83.03948
577.6009, 82.57532
578.0830, 82.54733
578.5651, 83.12158
579.0472, 83.20499
579.5294, 82.57104
580.0115, 81.85265
580.4936, 81.74155
580.9757, 82.25330
581.4578, 82.56857
581.9399, 82.56956
582.4221, 82.33425
582.9042, 81.76122
583.3863, 80.99580
583.8684, 80.60494
584.3505, 81.22595
584.8326, 82.03707
585.3148, 82.08628
585.7969, 81.51203
586.2789, 80.94850
586.7610, 80.62560
587.2432, 80.49841
587.7253, 80.59480
588.2074, 80.95996
588.6895, 81.25553
