##NAMES=Spessartine
##RRUFFID=R080053
##IDEAL CHEMISTRY=Mn^2+^_3_Al_2_(SiO_4_)_3_
##LOCALITY=East Africa
##OWNER=RRUFF
##SOURCE=www.multicolour.com
##DESCRIPTION=Transparent orange fragments
##STATUS=The identification of this mineral has been confirmed by X-ray diffraction and chemical analysis
##URL=rruff.info/R080053
##MEASURED CHEMISTRY=(Mn^2+^_1.32_Mg_0.96_Fe^2+^_0.38_Fe^3+^_0.04_Ca_0.30_)Al_2.00_((Si_0.99_Al_0.01_)O_4_)_3_; Fe^2+^ and Fe^3+^ estimated by charge balance
93.74609, 24.36176
94.22821, 24.12069
94.71033, 24.05497
95.19244, 24.23557
95.67456, 24.92162
96.15668, 26.29652
96.63879, 28.26405
97.12091, 30.57232
97.60303, 33.27078
98.08514, 36.17548
98.56726, 38.95732
99.04938, 41.62111
99.53149, 44.43913
100.0136, 47.53040
100.4957, 50.88213
100.9778, 54.33556
101.4600, 57.73528
101.9421, 61.34864
102.4242, 65.82730
102.9063, 71.44187
103.3884, 77.27707
103.8705, 82.67161
104.3527, 87.45582
104.8348, 92.53181
105.3169, 98.20288
105.7990, 104.3069
106.2811, 110.0671
106.7632, 115.2958
107.2454, 120.3224
107.7275, 125.3200
108.2096, 130.4497
108.6917, 135.4050
109.1738, 139.9964
109.6559, 144.1692
110.1381, 148.8662
110.6202, 154.1470
111.1023, 159.9710
111.5844, 166.2991
112.0665, 173.0387
112.5486, 180.4478
113.0308, 188.8080
113.5129, 198.5406
113.9950, 207.9596
114.4771, 216.6739
114.9592, 224.9393
115.4413, 233.2532
115.9235, 241.8088
116.4056, 250.3337
116.8877, 258.6229
117.3698, 266.8702
117.8519, 274.7282
118.3340, 281.8179
118.8162, 288.4100
119.2983, 295.1213
119.7804, 303.1006
120.2625, 310.9358
120.7446, 317.3989
121.2267, 321.6904
121.7089, 325.3847
122.1910, 329.4619
122.6731, 333.7961
123.1552, 337.7989
123.6373, 340.9150
124.1194, 343.5314
124.6016, 346.1827
125.0837, 349.0388
125.5658, 351.9424
126.0479, 354.5274
126.5300, 356.8231
127.0121, 359.4899
127.4943, 363.0772
127.9764, 367.4416
128.4585, 372.3557
128.9406, 377.7238
129.4227, 383.5424
129.9048, 389.9264
130.3869, 396.9364
130.8691, 404.0280
131.3512, 410.6290
131.8333, 415.4128
132.3154, 417.7894
132.7975, 419.6031
133.2796, 421.3309
133.7618, 422.2974
134.2439, 422.3188
134.7260, 422.1819
135.2081, 423.1210
135.6902, 425.1517
136.1723, 427.5866
136.6545, 430.2982
137.1366, 433.2820
137.6187, 435.8526
138.1008, 438.0784
138.5829, 439.8036
139.0650, 440.6214
139.5472, 440.4096
140.0293, 439.7172
140.5114, 438.8042
140.9935, 437.6141
141.4756, 436.2948
141.9577, 434.6915
142.4399, 432.9296
142.9220, 431.6407
143.4041, 430.6876
143.8862, 430.3626
144.3683, 431.0602
144.8504, 433.5177
145.3326, 435.2890
145.8147, 435.8807
146.2968, 435.3733
146.7789, 434.9703
147.2610, 434.4361
147.7431, 434.2281
148.2253, 434.7608
148.7074, 436.4972
149.1895, 438.3358
149.6716, 439.9823
150.1537, 441.3553
150.6358, 443.2602
151.1180, 446.2285
151.6001, 449.4771
152.0822, 452.1459
152.5643, 453.1571
153.0464, 454.6414
153.5285, 457.2951
154.0107, 461.6067
154.4928, 464.9991
154.9749, 466.7360
155.4570, 467.6686
155.9391, 468.8872
156.4212, 470.6685
156.9034, 472.6398
157.3855, 474.7241
157.8676, 476.9443
158.3497, 479.1442
158.8318, 481.5269
159.3139, 483.8768
159.7961, 485.8376
160.2782, 486.5031
160.7603, 487.3853
161.2424, 489.3213
161.7245, 492.9436
162.2066, 496.4656
162.6888, 498.8660
163.1709, 500.7145
163.6530, 503.2715
164.1351, 507.2151
164.6172, 511.8853
165.0993, 516.9449
165.5815, 522.6887
166.0636, 528.1505
166.5457, 532.3016
167.0278, 535.6714
167.5099, 539.9288
167.9921, 545.9592
168.4742, 553.2054
168.9563, 561.1746
169.4384, 569.7366
169.9205, 579.0435
170.4026, 589.5404
170.8848, 601.0353
171.3669, 612.5263
171.8490, 624.1020
172.3311, 635.1394
172.8132, 645.0771
173.2953, 655.2090
173.7775, 662.7489
174.2596, 664.9985
174.7417, 662.2651
175.2238, 656.3087
175.7059, 647.3370
176.1880, 636.2040
176.6702, 624.2483
177.1523, 611.1259
177.6344, 597.9055
178.1165, 585.5916
178.5986, 574.0870
179.0807, 563.8661
179.5629, 555.2833
180.0450, 548.1307
180.5271, 542.0558
181.0092, 536.6364
181.4913, 532.2493
181.9734, 530.1172
182.4556, 530.2924
182.9377, 530.7836
183.4198, 529.2010
183.9019, 526.2001
184.3840, 524.1375
184.8661, 523.8669
185.3483, 525.1387
185.8304, 527.7251
186.3125, 531.7325
186.7946, 536.0673
187.2767, 539.6103
187.7588, 542.4669
188.2409, 545.0122
188.7231, 546.6701
189.2052, 548.0817
189.6873, 552.0652
190.1694, 559.0585
190.6515, 566.7371
191.1336, 571.9754
191.6158, 574.9521
192.0979, 578.0768
192.5800, 582.6139
193.0621, 588.3043
193.5442, 593.5413
194.0263, 598.3429
194.5085, 602.8203
194.9906, 607.0258
195.4727, 610.9570
195.9548, 614.8403
196.4369, 618.7872
196.9190, 622.7766
197.4012, 626.3286
197.8833, 629.1620
198.3654, 632.1650
198.8475, 637.0652
199.3296, 644.0914
199.8117, 650.6791
200.2939, 655.4688
200.7760, 658.4159
201.2581, 661.7161
201.7402, 665.5329
202.2223, 669.4343
202.7044, 672.5939
203.1866, 674.8708
203.6687, 677.0662
204.1508, 679.5497
204.6329, 682.3578
205.1150, 685.1533
205.5971, 688.0166
206.0793, 690.7789
206.5614, 693.1082
207.0435, 694.9476
207.5256, 696.5176
208.0077, 697.8831
208.4898, 699.0276
208.9720, 700.0714
209.4541, 701.0283
209.9362, 701.8604
210.4183, 702.4711
210.9004, 702.8007
211.3825, 703.0345
211.8647, 703.4411
212.3468, 704.2971
212.8289, 703.9164
213.3110, 701.8970
213.7931, 698.8849
214.2752, 696.3859
214.7574, 694.5322
215.2395, 692.8195
215.7216, 691.1068
216.2037, 689.5728
216.6858, 687.4648
217.1679, 684.7726
217.6501, 681.5046
218.1322, 677.6124
218.6143, 672.7339
219.0964, 667.9128
219.5785, 663.7062
220.0606, 660.1798
220.5428, 656.9040
221.0249, 653.9720
221.5070, 651.2563
221.9891, 648.6143
222.4712, 646.2631
222.9533, 643.5175
223.4355, 639.9618
223.9176, 634.9294
224.3997, 630.9109
224.8818, 628.3201
225.3639, 626.5334
225.8460, 623.8919
226.3282, 619.6367
226.8103, 615.8652
227.2924, 613.8231
227.7745, 614.6953
228.2566, 613.9405
228.7387, 610.9982
229.2209, 606.6686
229.7030, 602.7871
230.1851, 599.1327
230.6672, 596.2350
231.1493, 594.5146
231.6314, 594.7595
232.1136, 593.9890
232.5957, 591.6683
233.0778, 588.5650
233.5599, 586.4615
234.0420, 585.9464
234.5241, 585.4701
235.0063, 584.2568
235.4884, 581.6193
235.9705, 580.3612
236.4526, 581.2971
236.9347, 583.2353
237.4168, 583.6769
237.8990, 582.0021
238.3811, 579.8004
238.8632, 577.5430
239.3453, 574.9927
239.8274, 573.1196
240.3095, 572.2390
240.7917, 571.8588
241.2738, 571.0546
241.7559, 569.6878
242.2380, 568.1356
242.7201, 566.4551
243.2022, 564.4576
243.6844, 563.0538
244.1665, 562.7019
244.6486, 562.6771
245.1307, 561.5673
245.6128, 558.3724
246.0949, 555.7910
246.5771, 554.9552
247.0592, 556.5858
247.5413, 557.0106
248.0234, 555.6871
248.5055, 553.5115
248.9876, 551.8391
249.4697, 550.6518
249.9519, 549.9824
250.4340, 550.0809
250.9161, 551.2878
251.3982, 551.4489
251.8803, 550.3006
252.3624, 548.3243
252.8446, 545.9395
253.3267, 542.1679
253.8088, 539.9598
254.2909, 540.7357
254.7730, 545.1407
255.2551, 547.3278
255.7373, 546.3397
256.2194, 544.1085
256.7015, 542.9904
257.1836, 543.4168
257.6657, 543.9587
258.1479, 544.2413
258.6300, 544.2244
259.1121, 544.5104
259.5942, 545.3558
260.0763, 546.1874
260.5584, 546.2941
261.0406, 545.2505
261.5227, 544.5931
262.0048, 544.9128
262.4869, 546.1746
262.9690, 546.3890
263.4511, 545.1283
263.9333, 543.4614
264.4154, 542.4099
264.8975, 542.1644
265.3796, 541.9399
265.8617, 541.4666
266.3438, 540.8355
266.8260, 540.9813
267.3081, 542.1046
267.7902, 543.6588
268.2723, 545.3325
268.7544, 547.3934
269.2365, 548.5974
269.7187, 548.4777
270.2008, 547.3338
270.6829, 546.8256
271.1650, 547.0339
271.6471, 547.6736
272.1292, 548.6235
272.6114, 549.9605
273.0935, 551.1640
273.5756, 552.2305
274.0577, 553.0665
274.5398, 553.2686
275.0219, 552.6552
275.5041, 551.9280
275.9862, 551.6215
276.4683, 551.8184
276.9504, 551.5204
277.4325, 550.2777
277.9146, 548.8046
278.3968, 549.2745
278.8788, 552.1010
279.3610, 554.7711
279.8431, 555.6251
280.3252, 554.5994
280.8073, 553.7975
281.2894, 553.3387
281.7715, 553.1948
282.2537, 553.4075
282.7358, 554.0251
283.2179, 554.6086
283.7000, 554.7958
284.1821, 554.6245
284.6642, 554.9981
285.1464, 556.0497
285.6285, 557.3493
286.1106, 558.3250
286.5927, 558.9667
287.0748, 559.2634
287.5569, 558.7784
288.0391, 557.7498
288.5212, 557.9983
289.0033, 559.6844
289.4854, 561.9076
289.9675, 563.7495
290.4496, 565.2109
290.9318, 566.2071
291.4139, 566.4281
291.8960, 566.2006
292.3781, 566.7294
292.8602, 568.0943
293.3423, 569.5233
293.8245, 569.9074
294.3066, 569.5569
294.7887, 569.9989
295.2708, 572.2002
295.7529, 575.1917
296.2350, 576.9682
296.7172, 577.5215
297.1993, 577.4641
297.6814, 576.5403
298.1635, 575.3297
298.6456, 575.6223
299.1277, 578.3950
299.6099, 582.2444
300.0920, 585.2916
300.5741, 587.5761
301.0562, 589.0008
301.5383, 588.7308
302.0204, 587.6953
302.5026, 587.6774
302.9847, 589.1885
303.4668, 591.4474
303.9489, 593.7655
304.4310, 596.1107
304.9131, 598.5414
305.3953, 601.3613
305.8774, 604.1512
306.3595, 606.0929
306.8416, 606.7892
307.3237, 607.7071
307.8058, 610.1367
308.2880, 613.7476
308.7701, 617.7897
309.2522, 622.3334
309.7343, 626.9291
310.2164, 631.0758
310.6985, 634.7247
311.1807, 638.4525
311.6628, 642.5941
312.1449, 647.1370
312.6270, 651.9224
313.1091, 657.4372
313.5912, 662.8098
314.0734, 667.3992
314.5555, 671.1757
315.0376, 675.0167
315.5197, 679.2648
316.0018, 683.8829
316.4839, 688.7195
316.9661, 694.7083
317.4482, 700.0370
317.9303, 703.6093
318.4124, 705.6360
318.8945, 707.6301
319.3766, 709.8415
319.8588, 712.3857
320.3409, 715.3004
320.8230, 718.3612
321.3051, 722.1077
321.7872, 727.2257
322.2693, 733.2324
322.7515, 738.6541
323.2336, 742.0327
323.7157, 745.5778
324.1978, 750.3336
324.6799, 756.4406
325.1620, 763.6324
325.6442, 772.7069
326.1263, 782.7390
326.6084, 792.0872
327.0905, 799.4007
327.5726, 807.0994
328.0547, 815.8815
328.5369, 825.7401
329.0190, 836.5815
329.5011, 849.3671
329.9832, 862.6415
330.4653, 874.6927
330.9474, 884.2770
331.4296, 894.2037
331.9117, 905.2166
332.3938, 917.3495
332.8759, 928.9902
333.3580, 940.2416
333.8401, 951.0683
334.3223, 961.2360
334.8044, 970.3417
335.2865, 979.8005
335.7686, 989.8792
336.2507, 1000.470
336.7328, 1010.158
337.2150, 1017.933
337.6971, 1026.713
338.1792, 1038.839
338.6613, 1055.306
339.1434, 1070.451
339.6255, 1083.416
340.1077, 1095.277
340.5898, 1108.732
341.0719, 1123.530
341.5540, 1139.939
342.0361, 1158.027
342.5182, 1177.902
343.0004, 1198.649
343.4825, 1220.015
343.9646, 1242.493
344.4467, 1266.146
344.9288, 1290.665
345.4109, 1317.786
345.8931, 1347.912
346.3752, 1381.075
346.8573, 1416.003
347.3394, 1452.955
347.8215, 1492.156
348.3036, 1533.318
348.7858, 1576.795
349.2679, 1624.585
349.7500, 1677.836
350.2321, 1734.928
350.7142, 1792.651
351.1964, 1850.669
351.6785, 1908.696
352.1606, 1967.363
352.6427, 2024.969
353.1248, 2079.823
353.6069, 2132.982
354.0891, 2181.144
354.5712, 2223.493
355.0533, 2258.504
355.5354, 2282.375
356.0175, 2292.653
356.4996, 2290.538
356.9818, 2277.297
357.4639, 2253.019
357.9460, 2217.954
358.4281, 2169.272
358.9102, 2110.380
359.3923, 2047.000
359.8745, 1977.017
360.3566, 1906.342
360.8387, 1838.568
361.3208, 1773.489
361.8029, 1711.443
362.2850, 1651.801
362.7672, 1595.644
363.2493, 1543.899
363.7314, 1497.821
364.2135, 1454.761
364.6956, 1413.401
365.1777, 1374.474
365.6599, 1340.878
366.1420, 1316.501
366.6241, 1295.081
367.1062, 1273.903
367.5883, 1251.956
368.0704, 1231.534
368.5526, 1212.293
369.0347, 1194.901
369.5168, 1180.059
369.9989, 1169.324
370.4810, 1159.532
370.9631, 1150.373
371.4453, 1142.097
371.9274, 1132.324
372.4095, 1120.279
372.8916, 1107.499
373.3737, 1095.215
373.8558, 1083.744
374.3380, 1072.049
374.8201, 1059.716
375.3022, 1046.916
375.7843, 1035.128
376.2664, 1024.794
376.7485, 1014.319
377.2307, 1002.810
377.7128, 990.1526
378.1949, 976.8568
378.6770, 963.0068
379.1591, 948.6467
379.6412, 934.0559
380.1234, 919.0740
380.6055, 904.2751
381.0876, 889.8308
381.5697, 875.8058
382.0518, 862.1847
382.5339, 849.1190
383.0161, 836.2167
383.4982, 823.2249
383.9803, 810.0868
384.4624, 797.1542
384.9445, 784.3787
385.4266, 772.0025
385.9088, 760.2980
386.3909, 749.2859
386.8730, 738.7783
387.3551, 728.7608
387.8372, 719.0296
388.3193, 709.0599
388.8015, 698.5920
389.2836, 688.3940
389.7657, 679.1266
390.2478, 670.6432
390.7299, 662.8215
391.2120, 656.0508
391.6942, 649.6024
392.1763, 643.0131
392.6584, 636.3135
393.1405, 629.4305
393.6226, 621.5124
394.1047, 613.6990
394.5869, 607.3146
395.0690, 604.0967
395.5511, 601.0540
396.0332, 597.2130
396.5153, 592.6558
396.9974, 587.8641
397.4796, 582.4525
397.9617, 577.2098
398.4438, 572.5488
398.9259, 568.5598
399.4080, 565.0709
399.8901, 562.3842
400.3723, 560.1383
400.8544, 557.6727
401.3365, 554.1659
401.8186, 551.4074
402.3007, 550.2489
402.7828, 551.0315
403.2649, 550.2965
403.7470, 547.1191
404.2292, 543.4009
404.7113, 540.8558
405.1934, 539.6852
405.6755, 539.1169
406.1576, 539.3947
406.6397, 540.0862
407.1219, 539.3427
407.6040, 536.6992
408.0861, 534.3997
408.5682, 534.4335
409.0503, 536.7288
409.5324, 536.5226
410.0146, 533.0812
410.4967, 528.6414
410.9788, 526.4663
411.4609, 526.3710
411.9430, 526.3862
412.4251, 525.6834
412.9073, 524.6183
413.3894, 524.1017
413.8715, 524.1172
414.3536, 523.9107
414.8357, 522.7389
415.3178, 520.9285
415.8000, 519.0048
416.2821, 516.8050
416.7642, 515.0528
417.2463, 514.9542
417.7284, 515.9163
418.2105, 516.3602
418.6927, 515.0882
419.1748, 513.2559
419.6569, 511.5949
420.1390, 510.1411
420.6211, 509.1205
421.1032, 508.9602
421.5854, 509.1398
422.0675, 509.0939
422.5496, 508.5030
423.0317, 507.8485
423.5138, 507.0874
423.9959, 506.3030
424.4781, 505.9489
424.9602, 506.6665
425.4423, 507.3942
425.9244, 507.5523
426.4065, 506.4051
426.8886, 506.0744
427.3708, 507.3279
427.8529, 509.0616
428.3350, 509.4713
428.8171, 507.7348
429.2992, 506.1552
429.7813, 505.2691
430.2635, 505.0666
430.7456, 505.3952
431.2277, 506.5694
431.7098, 507.5828
432.1919, 507.4173
432.6740, 505.9501
433.1562, 504.8543
433.6383, 504.3177
434.1204, 504.2812
434.6025, 504.8014
435.0846, 505.8637
435.5667, 506.8522
436.0489, 507.6274
436.5310, 508.0887
437.0131, 507.7430
437.4952, 506.5308
437.9773, 505.2772
438.4594, 505.0309
438.9416, 505.3254
439.4237, 505.0852
439.9058, 503.3673
440.3879, 501.7613
440.8700, 502.1626
441.3521, 504.0704
441.8343, 505.7097
442.3164, 505.9865
442.7985, 505.6977
443.2806, 505.3522
443.7627, 504.9513
444.2448, 504.8143
444.7270, 505.0202
445.2091, 505.5734
445.6912, 506.4812
446.1733, 508.4875
446.6554, 510.0688
447.1375, 510.4487
447.6197, 509.7679
448.1018, 509.7387
448.5839, 511.0358
449.0660, 512.5380
449.5481, 513.7397
450.0302, 514.6411
450.5124, 515.2342
450.9945, 515.2741
451.4766, 515.1784
451.9587, 515.6691
452.4408, 516.9680
452.9229, 518.2526
453.4051, 519.1703
453.8872, 519.8399
454.3693, 521.4822
454.8514, 524.3260
455.3335, 527.1881
455.8156, 529.2196
456.2978, 530.4374
456.7799, 530.8809
457.2620, 530.2057
457.7441, 529.6380
458.2262, 531.4604
458.7083, 535.1713
459.1905, 538.5991
459.6726, 540.2222
460.1547, 541.0832
460.6368, 542.6971
461.1189, 545.0661
461.6010, 547.3995
462.0832, 548.9984
462.5653, 550.3143
463.0474, 551.8215
463.5295, 553.6483
464.0116, 555.7291
464.4937, 558.2647
464.9759, 561.0339
465.4580, 563.4962
465.9401, 565.0524
466.4222, 566.6728
466.9043, 568.7805
467.3864, 571.4681
467.8686, 574.1806
468.3507, 576.6945
468.8328, 579.3164
469.3149, 582.2718
469.7970, 585.7729
470.2791, 589.1902
470.7613, 592.1285
471.2434, 595.0167
471.7255, 599.2140
472.2076, 605.3338
472.6897, 611.1790
473.1718, 615.6160
473.6540, 618.6236
474.1361, 623.4418
474.6182, 630.3904
475.1003, 637.9972
475.5824, 644.6132
476.0645, 650.4324
476.5467, 656.9061
477.0288, 664.5314
477.5109, 672.6957
477.9930, 680.7487
478.4751, 688.5881
478.9572, 695.7115
479.4394, 702.1243
479.9215, 707.5391
480.4036, 711.6677
480.8857, 714.5235
481.3678, 715.6729
481.8499, 715.0880
482.3321, 712.5039
482.8142, 707.5397
483.2963, 698.3041
483.7784, 688.9433
484.2605, 681.2192
484.7426, 674.6276
485.2248, 667.9823
485.7069, 660.5204
486.1890, 653.4975
486.6711, 647.1389
487.1532, 641.2634
487.6353, 637.2418
488.1175, 636.0876
488.5996, 636.0082
489.0817, 635.5611
489.5638, 634.3061
490.0459, 633.7526
490.5280, 633.9633
491.0102, 635.0023
491.4923, 637.2203
491.9744, 640.8183
492.4565, 644.6383
492.9386, 648.1016
493.4207, 651.3640
493.9029, 655.0934
494.3850, 659.2405
494.8671, 664.6288
495.3492, 672.4168
495.8313, 682.1354
496.3134, 692.6403
496.7956, 703.8578
497.2777, 715.3541
497.7598, 725.8584
498.2419, 736.1453
498.7240, 747.8381
499.2061, 761.8941
499.6883, 777.7138
500.1704, 795.4161
500.6525, 814.9428
501.1346, 834.3958
501.6167, 854.3098
502.0988, 873.2695
502.5810, 890.3051
503.0631, 906.0516
503.5452, 918.9972
504.0273, 929.6409
504.5094, 937.1295
504.9915, 939.7101
505.4737, 937.0404
505.9558, 929.8939
506.4379, 917.8360
506.9200, 901.0439
507.4021, 882.7055
507.8842, 862.1847
508.3664, 841.0342
508.8485, 819.5564
509.3306, 797.7087
509.8127, 777.6078
510.2948, 759.4651
510.7769, 743.0342
511.2591, 728.3451
511.7412, 715.3087
512.2233, 703.8179
512.7054, 693.7513
513.1875, 685.1235
513.6696, 678.2528
514.1517, 672.9837
514.6339, 668.4448
515.1160, 664.1974
515.5981, 660.3717
516.0802, 656.9728
516.5623, 653.9523
517.0444, 651.6658
517.5266, 650.8947
518.0087, 650.6992
518.4908, 650.0538
518.9729, 648.2496
519.4550, 646.5029
519.9371, 644.7580
520.4193, 643.2042
520.9014, 642.6410
521.3835, 643.6162
521.8656, 644.8795
522.3477, 646.0859
522.8298, 647.2795
523.3120, 648.0277
523.7941, 648.1908
524.2762, 648.1650
524.7583, 648.1748
525.2404, 648.2032
525.7225, 648.9324
526.2047, 650.7443
526.6868, 652.7712
527.1689, 653.0539
527.6510, 651.9113
528.1331, 651.3851
528.6152, 653.1414
529.0974, 655.7678
529.5795, 657.3433
530.0616, 657.9000
530.5437, 657.9442
531.0258, 656.8680
531.5079, 655.9615
531.9901, 656.5864
532.4722, 659.5320
532.9543, 662.5570
533.4364, 664.4184
533.9185, 665.9796
534.4006, 668.4464
534.8828, 672.3788
535.3649, 676.8751
535.8470, 681.5005
536.3291, 686.4444
536.8112, 692.6261
537.2933, 700.7238
537.7755, 708.9639
538.2576, 716.2298
538.7397, 722.3029
539.2218, 729.7885
539.7039, 738.8089
540.1860, 748.6195
540.6682, 758.1378
541.1503, 767.4105
541.6324, 777.6552
542.1145, 789.3255
542.5966, 801.5253
543.0787, 812.4924
543.5609, 822.6776
544.0430, 833.7469
544.5251, 846.5457
545.0072, 860.6700
545.4893, 875.6486
545.9714, 891.4631
546.4536, 908.0510
546.9357, 925.2127
547.4178, 943.2326
547.8999, 962.3038
548.3820, 982.4153
548.8641, 1003.656
549.3463, 1026.100
549.8284, 1049.648
550.3105, 1074.169
550.7926, 1099.343
551.2747, 1125.897
551.7568, 1155.017
552.2390, 1185.840
552.7211, 1215.625
553.2032, 1244.946
553.6853, 1271.502
554.1674, 1294.211
554.6495, 1313.147
555.1317, 1329.856
555.6138, 1344.381
556.0959, 1354.374
556.5780, 1358.022
557.0601, 1355.285
557.5422, 1345.879
558.0244, 1329.525
558.5065, 1307.052
558.9886, 1277.517
559.4707, 1242.631
559.9528, 1206.556
560.4349, 1170.227
560.9171, 1133.510
561.3992, 1096.138
561.8813, 1058.041
562.3634, 1020.190
562.8455, 980.0541
563.3276, 942.1332
563.8098, 908.2664
564.2919, 879.0710
564.7740, 852.6676
565.2561, 829.7731
565.7382, 808.9532
566.2203, 788.3699
566.7025, 767.3334
567.1846, 749.0251
567.6667, 733.9587
568.1488, 721.1584
568.6309, 708.9329
569.1130, 697.2066
569.5952, 686.5290
570.0773, 677.3074
570.5594, 669.1462
571.0415, 660.7491
571.5236, 652.1928
572.0057, 644.4818
572.4879, 638.3366
572.9700, 633.2635
573.4521, 628.8574
573.9342, 625.1019
574.4163, 621.5549
574.8984, 617.9714
575.3806, 614.5165
575.8627, 611.3156
576.3448, 608.5158
576.8269, 605.8586
577.3090, 602.9554
577.7911, 600.1998
578.2733, 598.6299
578.7554, 599.2563
579.2375, 599.0334
579.7196, 596.6766
580.2017, 592.5032
580.6838, 589.6766
581.1660, 588.3165
581.6481, 587.5955
582.1302, 587.0753
582.6123, 586.7327
583.0944, 586.6014
583.5765, 586.7438
584.0587, 586.6198
584.5408, 585.4194
585.0229, 583.6400
585.5050, 582.1458
585.9871, 581.3641
586.4692, 580.6660
586.9514, 579.7365
587.4335, 578.6006
587.9156, 577.3254
588.3977, 574.9695
