##NAMES=Spessartine
##RRUFFID=R060447
##IDEAL CHEMISTRY=Mn^2+^_3_Al_2_(SiO_4_)_3_
##LOCALITY=unknown
##OWNER=RRUFF
##SOURCE=Gemological Institute of America
##DESCRIPTION=Orange fragment
##STATUS=The identification of this mineral has been confirmed by X-ray diffraction and chemical analysis
##URL=rruff.info/R060447
##MEASURED CHEMISTRY=(Mn^2+^_2.85_Fe^2+^_0.07_Mg_0.05_Ca_0.03_)_Î£=3_Al_2.00_(Si_1.00_O_4_)_3_
92.10938, 2.921191
92.59149, 2.774148
93.07361, 2.836632
93.55573, 3.091188
94.03784, 3.319260
94.51996, 3.285318
95.00208, 3.057983
95.48419, 2.885781
95.96631, 2.910699
96.44843, 3.032441
96.93054, 2.899550
97.41266, 2.467274
97.89478, 2.026825
98.37689, 2.001086
98.85901, 2.396252
99.34113, 2.735114
99.82324, 2.796101
100.3054, 2.578908
100.7875, 2.434351
101.2696, 2.380824
101.7517, 2.376193
102.2338, 2.334950
102.7159, 2.238828
103.1981, 2.159242
103.6802, 2.130925
104.1623, 2.164113
104.6444, 2.218566
105.1265, 2.310913
105.6086, 2.422611
106.0908, 2.484976
106.5729, 2.478352
107.0550, 2.444545
107.5371, 2.398257
108.0192, 2.247996
108.5013, 2.224573
108.9835, 2.429537
109.4656, 2.850887
109.9477, 3.102109
110.4298, 2.999817
110.9119, 2.828658
111.3940, 2.781855
111.8762, 3.017225
112.3583, 3.222409
112.8404, 3.337907
113.3225, 3.352618
113.8046, 3.366656
114.2867, 3.306251
114.7689, 3.282072
115.2510, 3.413500
115.7331, 3.870132
116.2152, 4.367375
116.6973, 4.833278
117.1794, 5.288976
117.6616, 5.585632
118.1437, 5.448950
118.6258, 5.136999
119.1079, 5.081061
119.5900, 5.796365
120.0721, 6.612426
120.5543, 7.050815
121.0364, 6.914735
121.5185, 6.695979
122.0006, 6.613080
122.4827, 6.673356
122.9648, 6.894662
123.4470, 7.469117
123.9291, 8.143063
124.4112, 8.616514
124.8933, 8.757695
125.3754, 8.774729
125.8575, 8.819218
126.3397, 8.899569
126.8218, 9.068285
127.3039, 9.365217
127.7860, 9.776869
128.2681, 10.28573
128.7502, 10.94941
129.2324, 11.66454
129.7145, 12.26181
130.1966, 12.74445
130.6787, 13.12444
131.1608, 13.41171
131.6429, 13.60383
132.1251, 13.69672
132.6072, 13.62866
133.0893, 13.46198
133.5714, 13.43642
134.0535, 13.57768
134.5356, 13.74212
135.0178, 13.67527
135.4999, 13.36897
135.9820, 13.23253
136.4641, 13.50558
136.9462, 14.17483
137.4283, 14.66650
137.9105, 14.93786
138.3926, 15.11537
138.8747, 15.43723
139.3568, 15.96225
139.8389, 16.40137
140.3210, 16.57166
140.8032, 16.38701
141.2853, 16.40020
141.7674, 16.65073
142.2495, 17.08022
142.7316, 17.52832
143.2137, 17.91368
143.6959, 18.26793
144.1780, 18.69613
144.6601, 19.17860
145.1422, 19.79574
145.6243, 20.60408
146.1064, 21.54501
146.5886, 22.44562
147.0707, 23.38921
147.5528, 24.20251
148.0349, 24.77168
148.5170, 24.97253
148.9991, 25.14091
149.4813, 25.23000
149.9634, 25.26483
150.4455, 25.48179
150.9276, 26.01627
151.4097, 26.63749
151.8918, 27.18986
152.3740, 27.58313
152.8561, 28.02380
153.3382, 28.44569
153.8203, 28.85149
154.3024, 29.57084
154.7845, 30.97057
155.2667, 32.49789
155.7488, 33.75996
156.2309, 34.31684
156.7130, 34.96636
157.1951, 35.88207
157.6772, 37.06968
158.1594, 38.38015
158.6415, 39.64967
159.1236, 41.06809
159.6057, 42.82874
160.0878, 44.56768
160.5699, 46.97480
161.0521, 50.18319
161.5342, 54.14434
162.0163, 59.28492
162.4984, 66.05274
162.9805, 73.99136
163.4626, 82.52634
163.9448, 94.14349
164.4269, 104.2769
164.9090, 111.2085
165.3911, 115.0662
165.8732, 114.2536
166.3553, 105.1461
166.8375, 91.16373
167.3196, 77.94841
167.8017, 67.09525
168.2838, 58.48278
168.7659, 52.03411
169.2480, 47.87558
169.7302, 45.27993
170.2123, 44.21958
170.6944, 44.38123
171.1765, 45.07272
171.6586, 46.17139
172.1407, 47.50778
172.6229, 48.95826
173.1050, 50.53878
173.5871, 52.13203
174.0692, 53.68775
174.5513, 55.17849
175.0334, 56.49950
175.5156, 58.18653
175.9977, 59.50756
176.4798, 59.30619
176.9619, 57.17231
177.4440, 54.02847
177.9261, 50.60109
178.4083, 46.95038
178.8904, 43.38609
179.3725, 40.00382
179.8546, 36.87255
180.3367, 34.19956
180.8188, 32.04251
181.3010, 30.32088
181.7831, 28.94491
182.2652, 27.92664
182.7473, 27.27400
183.2294, 27.25696
183.7115, 27.64240
184.1937, 27.74619
184.6758, 27.30704
185.1579, 26.67842
185.6400, 26.47982
186.1221, 26.69960
186.6042, 27.03229
187.0864, 27.25418
187.5685, 27.38865
188.0506, 27.52782
188.5327, 27.69579
189.0148, 27.87772
189.4969, 27.96072
189.9791, 27.93111
190.4612, 28.10224
190.9433, 28.83254
191.4254, 30.05812
191.9075, 31.30849
192.3896, 32.50186
192.8718, 33.62557
193.3539, 34.62752
193.8360, 35.49717
194.3181, 36.40244
194.8002, 37.64634
195.2823, 39.22288
195.7645, 40.38641
196.2466, 40.89454
196.7287, 40.87638
197.2108, 40.89734
197.6929, 41.01159
198.1750, 40.91436
198.6572, 40.20097
199.1393, 38.84147
199.6214, 37.54897
200.1035, 36.43966
200.5856, 35.53101
201.0677, 35.02964
201.5499, 35.02281
202.0320, 35.12535
202.5141, 34.89111
202.9962, 34.25293
203.4783, 33.82586
203.9604, 33.80324
204.4426, 34.13355
204.9247, 34.38091
205.4068, 34.52330
205.8889, 34.63450
206.3710, 34.72885
206.8531, 34.75417
207.3353, 35.03711
207.8174, 35.69962
208.2995, 36.71547
208.7816, 37.74363
209.2637, 38.77657
209.7458, 39.81572
210.2280, 40.79497
210.7101, 41.61496
211.1922, 42.75341
211.6743, 44.42169
212.1564, 46.58204
212.6385, 48.49723
213.1207, 49.98648
213.6028, 51.48714
214.0849, 53.48636
214.5670, 56.09971
215.0491, 58.78581
215.5313, 61.37666
216.0134, 63.88746
216.4955, 66.74126
216.9776, 70.04063
217.4597, 73.57395
217.9418, 77.27800
218.4239, 81.34315
218.9061, 84.98816
219.3882, 88.03358
219.8703, 90.45296
220.3524, 92.65895
220.8345, 94.93581
221.3166, 96.61931
221.7988, 97.08139
222.2809, 96.27780
222.7630, 94.30949
223.2451, 90.95458
223.7272, 86.16264
224.2093, 81.61593
224.6915, 77.39037
225.1736, 73.24612
225.6557, 68.99358
226.1378, 64.30875
226.6199, 60.05847
227.1020, 56.46346
227.5842, 53.49560
228.0663, 50.71198
228.5484, 48.00072
229.0305, 45.55766
229.5126, 43.58750
229.9947, 42.27583
230.4769, 41.06417
230.9590, 39.84483
231.4411, 38.62318
231.9232, 37.50123
232.4053, 36.45636
232.8874, 35.52055
233.3696, 34.72390
233.8517, 34.10258
234.3338, 33.54922
234.8159, 33.04429
235.2980, 32.58463
235.7801, 32.22647
236.2623, 32.02759
236.7444, 31.86802
237.2265, 31.65796
237.7086, 31.41872
238.1907, 31.08118
238.6728, 30.57965
239.1550, 29.93147
239.6371, 29.45185
240.1192, 29.24674
240.6013, 29.09076
241.0834, 28.79156
241.5655, 28.22062
242.0477, 27.77120
242.5298, 27.53180
243.0119, 27.47840
243.4940, 27.36441
243.9761, 27.16252
244.4582, 26.93173
244.9404, 26.70699
245.4225, 26.46307
245.9046, 26.28210
246.3867, 26.21948
246.8688, 26.24244
247.3509, 26.10292
247.8331, 25.67019
248.3152, 25.24286
248.7973, 25.01655
249.2794, 25.06455
249.7615, 25.17221
250.2436, 25.39515
250.7258, 25.67318
251.2079, 25.69274
251.6900, 25.31565
252.1721, 24.87707
252.6542, 24.56970
253.1363, 24.44692
253.6185, 24.32569
254.1006, 24.13716
254.5827, 23.94826
255.0648, 24.05896
255.5469, 24.71579
256.0291, 25.27400
256.5112, 25.35028
256.9933, 24.68307
257.4754, 24.19485
257.9575, 23.94515
258.4396, 23.88364
258.9218, 23.89270
259.4039, 24.02222
259.8860, 24.13147
260.3681, 24.15074
260.8502, 24.04932
261.3323, 23.93504
261.8145, 23.76600
262.2966, 23.61016
262.7787, 23.64010
263.2608, 23.94808
263.7429, 24.24568
264.2250, 24.41892
264.7072, 24.45000
265.1893, 24.40508
265.6714, 24.23685
266.1535, 24.03245
266.6356, 23.95517
267.1177, 24.03830
267.5999, 24.15802
268.0820, 24.26526
268.5641, 24.35339
269.0462, 24.51074
269.5283, 24.81017
270.0104, 25.09128
270.4926, 25.07433
270.9747, 24.65535
271.4568, 24.30272
271.9389, 24.15316
272.4210, 24.20744
272.9031, 24.44604
273.3853, 24.94348
273.8674, 25.49279
274.3495, 25.78526
274.8316, 25.76208
275.3137, 25.80471
275.7958, 26.06426
276.2780, 26.51289
276.7601, 26.74488
277.2422, 26.68429
277.7243, 26.60010
278.2064, 26.79014
278.6885, 27.28124
279.1707, 27.81592
279.6528, 28.36367
280.1349, 28.90665
280.6170, 29.33167
281.0991, 29.61635
281.5812, 29.87619
282.0634, 30.25120
282.5455, 30.75322
283.0276, 31.08692
283.5097, 31.12159
283.9918, 30.99590
284.4739, 31.16472
284.9561, 31.65373
285.4382, 32.24769
285.9203, 32.77896
286.4024, 33.25122
286.8845, 33.81021
287.3666, 34.47426
287.8488, 35.22764
288.3309, 36.11241
288.8130, 37.13487
289.2951, 38.01195
289.7772, 38.44572
290.2593, 38.52195
290.7415, 38.73954
291.2236, 39.11403
291.7057, 39.71394
292.1878, 40.82061
292.6699, 42.38453
293.1520, 43.80015
293.6342, 44.62644
294.1163, 45.02260
294.5984, 45.43431
295.0805, 45.86103
295.5626, 46.42889
296.0447, 47.37052
296.5269, 48.62901
297.0090, 49.93270
297.4911, 51.22954
297.9732, 52.46633
298.4553, 53.44427
298.9374, 54.13895
299.4196, 54.78773
299.9017, 55.72395
300.3838, 56.81301
300.8659, 57.67740
301.3480, 58.08373
301.8301, 58.21375
302.3123, 58.33270
302.7944, 58.43836
303.2765, 58.44322
303.7586, 58.14921
304.2407, 57.72091
304.7228, 57.45725
305.2050, 57.52795
305.6871, 57.73000
306.1692, 57.78162
306.6513, 57.73005
307.1334, 57.84452
307.6155, 58.24998
308.0977, 58.94653
308.5798, 59.96002
309.0619, 61.40963
309.5440, 62.99512
310.0261, 64.31781
310.5082, 65.54445
310.9904, 67.17510
311.4725, 69.93917
311.9546, 72.99910
312.4367, 75.51543
312.9188, 77.12256
313.4009, 78.89884
313.8831, 81.57030
314.3652, 84.84350
314.8473, 88.20116
315.3294, 91.45367
315.8115, 94.73674
316.2936, 98.17054
316.7758, 101.7912
317.2579, 105.3799
317.7400, 109.0818
318.2221, 112.6487
318.7042, 115.8432
319.1863, 119.1178
319.6685, 121.5316
320.1506, 122.6823
320.6327, 122.5483
321.1148, 121.5071
321.5969, 119.3651
322.0790, 116.5282
322.5612, 113.2850
323.0433, 109.7622
323.5254, 105.7944
324.0075, 100.9359
324.4896, 95.35188
324.9717, 90.48000
325.4539, 86.71790
325.9360, 83.55815
326.4181, 80.75847
326.9002, 78.36874
327.3823, 76.21023
327.8644, 74.04849
328.3466, 72.07799
328.8287, 70.89859
329.3108, 71.15198
329.7929, 71.64330
330.2750, 71.90627
330.7571, 71.59519
331.2393, 71.84091
331.7214, 72.70414
332.2035, 74.10800
332.6856, 75.95435
333.1677, 78.66662
333.6498, 81.21196
334.1320, 83.15002
334.6141, 84.25977
335.0962, 86.25822
335.5783, 89.48661
336.0604, 93.24942
336.5425, 96.83083
337.0247, 100.0325
337.5068, 103.5740
337.9889, 107.6187
338.4710, 112.1406
338.9531, 117.0492
339.4352, 122.4139
339.9173, 128.0953
340.3994, 133.8273
340.8816, 139.5640
341.3637, 145.9369
341.8458, 153.0710
342.3279, 160.8919
342.8100, 169.8549
343.2921, 180.0330
343.7743, 190.3675
344.2564, 199.8403
344.7385, 208.6186
345.2206, 218.4171
345.7027, 229.5534
346.1848, 241.4183
346.6670, 253.7629
347.1491, 266.4730
347.6312, 277.7504
348.1133, 287.2331
348.5954, 294.7314
349.0775, 299.6190
349.5597, 301.8769
350.0418, 302.1467
350.5239, 301.4650
351.0060, 299.4215
351.4881, 294.6803
351.9702, 286.4886
352.4524, 275.6582
352.9345, 262.8621
353.4166, 248.2710
353.8987, 233.3383
354.3808, 218.7487
354.8629, 204.6890
355.3451, 191.7957
355.8272, 180.2444
356.3093, 169.7717
356.7914, 160.3885
357.2735, 151.8832
357.7556, 143.9065
358.2378, 135.8919
358.7199, 128.6169
359.2020, 122.8706
359.6841, 118.8587
360.1662, 115.6812
360.6483, 112.8892
361.1305, 110.6017
361.6126, 108.9862
362.0947, 108.2070
362.5768, 108.0265
363.0589, 108.5169
363.5410, 109.6626
364.0232, 110.7811
364.5053, 111.0987
364.9874, 111.5959
365.4695, 113.0347
365.9516, 116.0390
366.4337, 119.4854
366.9159, 123.2164
367.3980, 127.2444
367.8801, 131.6399
368.3622, 136.6607
368.8443, 141.8023
369.3264, 146.8640
369.8086, 151.9667
370.2907, 156.7877
370.7728, 161.4712
371.2549, 165.8202
371.7370, 169.5524
372.2191, 173.3779
372.7013, 175.6105
373.1834, 175.7597
373.6655, 173.7669
374.1476, 170.2776
374.6297, 165.0793
375.1118, 158.7701
375.5940, 151.8127
376.0761, 144.1299
376.5582, 136.2481
377.0403, 128.1260
377.5224, 119.9211
378.0045, 111.8241
378.4867, 103.8605
378.9688, 96.46172
379.4509, 89.96600
379.9330, 84.43315
380.4151, 79.39934
380.8972, 74.90532
381.3794, 70.83766
381.8615, 67.18643
382.3436, 63.89987
382.8257, 60.77522
383.3078, 57.59380
383.7899, 54.46167
384.2721, 51.59306
384.7542, 48.99594
385.2363, 46.74866
385.7184, 44.95137
386.2005, 43.56936
386.6826, 42.42116
387.1648, 41.56445
387.6469, 40.82119
388.1290, 39.97847
388.6111, 39.04597
389.0932, 38.06286
389.5753, 36.93933
390.0575, 35.82045
390.5396, 34.87983
391.0217, 34.18151
391.5038, 33.53037
391.9859, 32.73356
392.4680, 31.89282
392.9502, 31.18242
393.4323, 30.80205
393.9144, 30.48342
394.3965, 30.06820
394.8786, 29.53938
395.3607, 29.02865
395.8429, 28.57551
396.3250, 28.16047
396.8071, 27.76422
397.2892, 27.30254
397.7713, 26.94439
398.2534, 26.80645
398.7356, 26.83296
399.2177, 26.75626
399.6998, 26.50348
400.1819, 26.17953
400.6640, 25.82242
401.1461, 25.40120
401.6283, 25.00924
402.1104, 24.61410
402.5925, 24.26386
403.0746, 24.04109
403.5567, 24.04274
404.0388, 23.99253
404.5210, 23.78776
405.0031, 23.42792
405.4852, 23.20337
405.9673, 23.15930
406.4494, 23.16486
406.9315, 23.10268
407.4137, 22.96054
407.8958, 22.84452
408.3779, 22.76976
408.8600, 22.72980
409.3421, 22.72819
409.8242, 22.76960
410.3064, 22.77612
410.7885, 22.68664
411.2706, 22.51990
411.7527, 22.36827
412.2348, 22.23574
412.7169, 22.11056
413.1991, 21.97349
413.6812, 21.83121
414.1633, 21.70855
414.6454, 21.59219
415.1275, 21.51645
415.6096, 21.60318
416.0918, 21.81825
416.5739, 21.91913
417.0560, 21.54715
417.5381, 21.04676
418.0202, 20.87153
418.5023, 21.24929
418.9845, 21.60085
419.4666, 21.51303
419.9487, 21.14333
420.4308, 20.78998
420.9129, 20.49766
421.3951, 20.30884
421.8772, 20.27035
422.3593, 20.39513
422.8414, 20.52633
423.3235, 20.66569
423.8056, 20.77080
424.2878, 20.80593
424.7699, 20.74763
425.2520, 20.64122
425.7341, 20.47559
426.2162, 20.26406
426.6983, 20.03549
427.1805, 19.66159
427.6626, 19.42222
428.1447, 19.46216
428.6268, 19.89757
429.1089, 20.18867
429.5910, 20.32113
430.0732, 20.32686
430.5553, 20.21731
431.0374, 19.94781
431.5195, 19.73977
432.0016, 19.64576
432.4837, 19.65152
432.9659, 19.69469
433.4480, 19.77798
433.9301, 19.88095
434.4122, 20.02063
434.8943, 20.18184
435.3764, 20.24119
435.8586, 20.16932
436.3407, 20.04861
436.8228, 19.98725
437.3049, 19.97540
437.7870, 19.97151
438.2691, 19.97074
438.7513, 19.96087
439.2334, 19.90859
439.7155, 19.81764
440.1976, 19.74789
440.6797, 19.75023
441.1618, 19.79582
441.6440, 19.84177
442.1261, 19.84098
442.6082, 19.90692
443.0903, 20.25697
443.5724, 20.72118
444.0545, 20.93274
444.5367, 20.39262
445.0188, 19.87135
445.5009, 19.79224
445.9830, 20.25352
446.4651, 20.61295
446.9472, 20.59072
447.4294, 20.50164
447.9115, 20.61026
448.3936, 21.22136
448.8757, 21.67282
449.3578, 21.86712
449.8399, 21.86648
450.3221, 21.89629
450.8042, 21.99516
451.2863, 22.06144
451.7684, 22.01783
452.2505, 21.81631
452.7326, 21.83245
453.2148, 22.12145
453.6969, 22.52959
454.1790, 22.87721
454.6611, 23.16582
455.1432, 23.43755
455.6253, 23.71261
456.1075, 23.96639
456.5896, 24.06397
457.0717, 24.01180
457.5538, 24.05992
458.0359, 24.44967
458.5180, 25.05097
459.0002, 25.58556
459.4823, 26.02635
459.9644, 26.38920
460.4465, 26.64469
460.9286, 26.83350
461.4107, 27.02680
461.8929, 27.20637
462.3750, 27.44121
462.8571, 27.76805
463.3392, 28.19164
463.8213, 28.71844
464.3034, 29.47507
464.7856, 30.25968
465.2677, 30.93022
465.7498, 31.42602
466.2319, 31.92005
466.7140, 32.35781
467.1961, 32.84571
467.6783, 33.52753
468.1604, 34.47509
468.6425, 35.55716
469.1246, 36.79879
469.6067, 38.18313
470.0888, 39.50992
470.5710, 40.75526
471.0531, 41.97491
471.5352, 43.23781
472.0173, 44.65783
472.4994, 45.74876
472.9815, 46.49135
473.4637, 46.92175
473.9458, 47.11673
474.4279, 47.08843
474.9100, 46.67491
475.3921, 45.77693
475.8742, 44.47837
476.3564, 42.92434
476.8385, 41.11821
477.3206, 39.36314
477.8027, 37.87463
478.2848, 36.61792
478.7669, 35.56491
479.2491, 34.73678
479.7312, 33.99825
480.2133, 33.24336
480.6954, 32.48336
481.1775, 31.73645
481.6596, 30.82652
482.1418, 30.09501
482.6239, 29.82001
483.1060, 29.95525
483.5881, 30.16950
484.0702, 30.48271
484.5523, 30.72763
485.0345, 30.75776
485.5166, 30.34564
485.9987, 30.18482
486.4808, 30.56202
486.9629, 31.18072
487.4450, 31.62870
487.9272, 31.70862
488.4093, 31.90100
488.8914, 32.33906
489.3735, 32.99065
489.8556, 33.50628
490.3377, 33.82333
490.8199, 34.16267
491.3020, 34.58872
491.7841, 35.08157
492.2662, 35.97538
492.7483, 37.33566
493.2304, 38.93750
493.7126, 40.40688
494.1947, 41.78672
494.6768, 43.33729
495.1589, 45.19983
495.6410, 47.21339
496.1231, 49.01825
496.6053, 50.67205
497.0874, 52.37871
497.5695, 54.40230
498.0516, 56.52172
498.5337, 58.54597
499.0158, 60.44984
499.4980, 62.17501
499.9801, 63.93538
500.4622, 65.41858
500.9443, 66.28775
501.4264, 66.30933
501.9085, 65.80962
502.3907, 64.86002
502.8728, 63.46090
503.3549, 61.61211
503.8370, 59.09625
504.3191, 56.29899
504.8012, 53.22670
505.2834, 49.66730
505.7655, 46.79901
506.2476, 44.84150
506.7297, 43.33236
507.2118, 41.81063
507.6939, 40.24176
508.1761, 38.81877
508.6582, 37.52840
509.1403, 36.43903
509.6224, 35.79380
510.1045, 35.60218
510.5866, 35.47058
511.0688, 35.27557
511.5509, 34.98574
512.0330, 34.37975
512.5151, 33.44432
512.9973, 32.68312
513.4794, 32.70500
513.9615, 33.12879
514.4436, 33.32473
514.9257, 33.04717
515.4078, 32.75457
515.8900, 32.78649
516.3721, 33.04332
516.8542, 33.33130
517.3363, 33.65472
517.8184, 33.92558
518.3005, 34.08077
518.7827, 34.12236
519.2648, 34.18733
519.7469, 34.28059
520.2290, 34.41763
520.7111, 34.61108
521.1932, 34.89485
521.6754, 35.17113
522.1575, 35.50104
522.6396, 35.77578
523.1217, 35.78957
523.6038, 35.43733
524.0859, 35.22463
524.5681, 35.32719
525.0502, 35.63528
525.5323, 35.76101
526.0144, 35.69707
526.4965, 35.58045
526.9786, 35.42820
527.4608, 35.29116
527.9429, 35.36152
528.4250, 35.66600
528.9071, 35.99606
529.3892, 36.16003
529.8713, 36.21896
530.3535, 36.24874
530.8356, 36.14441
531.3177, 36.20675
531.7998, 36.69752
532.2819, 37.51171
532.7640, 38.37218
533.2462, 39.24019
533.7283, 40.09621
534.2104, 40.95818
534.6925, 41.82548
535.1746, 42.61596
535.6567, 43.09192
536.1389, 43.67090
536.6210, 44.58708
537.1031, 45.94291
537.5852, 47.43539
538.0673, 49.08372
538.5494, 50.85954
539.0316, 52.75871
539.5137, 54.82620
539.9958, 56.80694
540.4779, 58.53658
540.9600, 60.17797
541.4421, 62.26347
541.9243, 64.77004
542.4064, 67.40952
542.8885, 69.82459
543.3706, 72.25626
543.8527, 75.18656
544.3348, 78.67580
544.8170, 82.40170
545.2991, 86.24414
545.7812, 90.11036
546.2633, 93.91471
546.7454, 97.32455
547.2275, 101.0331
547.7097, 105.8451
548.1918, 111.1822
548.6739, 115.6175
549.1560, 118.0201
549.6381, 120.3676
550.1202, 123.5206
550.6024, 127.5453
551.0845, 130.3753
551.5666, 131.7374
552.0487, 132.2751
552.5308, 132.5566
553.0129, 132.8422
553.4951, 131.3546
553.9772, 127.7605
554.4593, 122.9510
554.9414, 117.9851
555.4235, 112.8691
555.9056, 107.6497
556.3878, 102.3654
556.8699, 97.01769
557.3520, 91.59221
557.8341, 86.14317
558.3162, 81.00739
558.7983, 76.45256
559.2805, 72.26067
559.7626, 68.11369
560.2447, 64.00437
560.7268, 60.46043
561.2089, 58.04252
561.6910, 56.07630
562.1732, 54.00905
562.6553, 51.53453
563.1374, 49.31823
563.6195, 47.49676
564.1016, 45.96464
564.5837, 44.57833
565.0659, 43.38515
565.5480, 42.23020
566.0301, 41.09790
566.5122, 39.98378
566.9943, 38.84745
567.4764, 37.66146
567.9586, 36.62954
568.4407, 35.90792
568.9228, 35.46389
569.4049, 35.16213
569.8870, 35.02102
570.3691, 34.81200
570.8513, 34.26464
571.3334, 33.49590
571.8155, 32.71862
572.2976, 31.88607
572.7797, 31.25403
573.2618, 31.18692
573.7440, 31.42483
574.2261, 31.49813
574.7082, 31.07828
575.1903, 30.61264
575.6724, 30.28192
576.1545, 30.07384
576.6367, 29.83636
577.1188, 29.38920
577.6009, 29.08481
578.0830, 29.12785
578.5651, 29.64303
579.0472, 29.82310
579.5294, 29.54786
580.0115, 29.15496
580.4936, 28.97181
580.9757, 29.00121
581.4578, 29.03704
581.9399, 29.05985
582.4221, 29.05450
582.9042, 28.98400
583.3863, 28.86086
583.8684, 28.73162
584.3505, 28.58437
584.8326, 28.46506
585.3148, 28.42093
585.7969, 28.44740
586.2789, 28.52645
586.7610, 28.76900
587.2432, 28.97062
587.7253, 28.93689
588.2074, 28.58746
