##NAMES=Spessartine
##RRUFFID=R050063
##IDEAL CHEMISTRY=Mn^2+^_3_Al_2_(SiO_4_)_3_
##LOCALITY=Fujian Province, China
##OWNER=RRUFF
##SOURCE=Rock Currier
##DESCRIPTION=Reddish brown crystals
##STATUS=The identification of this mineral has been confirmed by X-ray diffraction and chemical analysis
##URL=rruff.info/R050063
##MEASURED CHEMISTRY=(Mn_2.72_Fe_0.24_Ca_0.04_)_Σ=3_(Al_1.95_Fe^3+^_0.05_)_Σ=2_(Si_1.00_O_4_)_2.75_(F_0.58_(OH)_0.42_)_Σ=1_; trace amounts of Mg; OH estimated by charge balance
128.2512, 365.8989
128.7333, 387.5712
129.2154, 419.7300
129.6975, 457.7639
130.1796, 504.6138
130.6617, 555.6703
131.1439, 604.5631
131.6260, 647.3633
132.1081, 684.8359
132.5902, 722.9363
133.0723, 767.8602
133.5544, 806.8796
134.0366, 843.3283
134.5187, 871.6561
135.0008, 881.3378
135.4829, 863.5836
135.9650, 820.0216
136.4471, 784.6899
136.9293, 760.1686
137.4114, 740.3249
137.8935, 725.3067
138.3756, 713.7125
138.8577, 702.5470
139.3398, 689.3288
139.8220, 673.9915
140.3041, 663.7733
140.7862, 660.0110
141.2683, 658.7347
141.7504, 656.7297
142.2325, 655.2357
142.7147, 658.7515
143.1968, 670.9236
143.6789, 692.2242
144.1610, 717.2886
144.6431, 744.2164
145.1252, 775.8005
145.6074, 814.2495
146.0895, 859.2554
146.5716, 908.9139
147.0537, 963.5054
147.5358, 1022.730
148.0179, 1074.891
148.5001, 1115.646
148.9822, 1152.674
149.4643, 1190.656
149.9464, 1230.218
150.4285, 1271.822
150.9106, 1320.723
151.3928, 1373.899
151.8749, 1408.449
152.3570, 1416.619
152.8391, 1409.432
153.3212, 1394.387
153.8033, 1371.821
154.2855, 1345.746
154.7676, 1314.747
155.2497, 1281.798
155.7318, 1260.100
156.2139, 1255.394
156.6960, 1261.181
157.1782, 1271.054
157.6603, 1284.885
158.1424, 1301.532
158.6245, 1319.513
159.1066, 1339.570
159.5887, 1364.510
160.0709, 1400.441
160.5530, 1439.607
161.0351, 1471.812
161.5172, 1497.176
161.9993, 1513.622
162.4814, 1515.341
162.9636, 1507.207
163.4457, 1496.648
163.9278, 1484.793
164.4099, 1472.460
164.8920, 1460.422
165.3741, 1447.517
165.8563, 1438.386
166.3384, 1438.236
166.8205, 1443.436
167.3026, 1447.835
167.7847, 1443.729
168.2668, 1438.911
168.7490, 1453.913
169.2311, 1499.314
169.7132, 1540.644
170.1953, 1555.421
170.6774, 1555.216
171.1595, 1557.576
171.6417, 1571.442
172.1238, 1592.612
172.6059, 1611.762
173.0880, 1631.320
173.5701, 1643.264
174.0522, 1640.610
174.5344, 1629.853
175.0165, 1620.431
175.4986, 1618.341
175.9807, 1619.665
176.4628, 1613.339
176.9449, 1596.911
177.4271, 1576.681
177.9092, 1553.644
178.3913, 1529.321
178.8734, 1505.672
179.3555, 1483.144
179.8376, 1462.052
180.3197, 1443.085
180.8019, 1426.558
181.2840, 1411.883
181.7661, 1399.415
182.2482, 1388.124
182.7303, 1376.556
183.2124, 1363.613
183.6946, 1350.548
184.1767, 1341.219
184.6588, 1337.790
185.1409, 1334.620
185.6230, 1330.111
186.1051, 1325.021
186.5873, 1320.208
187.0694, 1316.093
187.5515, 1312.429
188.0336, 1308.705
188.5157, 1306.110
188.9978, 1301.195
189.4800, 1287.922
189.9621, 1274.497
190.4442, 1271.640
190.9263, 1285.091
191.4084, 1305.646
191.8905, 1309.595
192.3727, 1283.832
192.8548, 1264.445
193.3369, 1259.279
193.8190, 1261.382
194.3011, 1265.002
194.7832, 1267.917
195.2654, 1269.767
195.7475, 1269.844
196.2296, 1268.344
196.7117, 1264.358
197.1938, 1252.707
197.6759, 1241.621
198.1581, 1238.934
198.6402, 1247.154
199.1223, 1261.827
199.6044, 1275.468
200.0865, 1290.047
200.5686, 1299.110
201.0508, 1302.141
201.5329, 1300.680
202.0150, 1293.123
202.4971, 1279.832
202.9792, 1267.040
203.4613, 1266.108
203.9435, 1285.232
204.4256, 1297.797
204.9077, 1296.675
205.3898, 1293.729
205.8719, 1296.563
206.3540, 1306.836
206.8362, 1321.649
207.3183, 1338.693
207.8004, 1362.171
208.2825, 1376.226
208.7646, 1369.626
209.2467, 1363.345
209.7289, 1370.762
210.2110, 1392.579
210.6931, 1419.622
211.1752, 1441.728
211.6573, 1457.977
212.1395, 1471.998
212.6216, 1482.189
213.1037, 1491.627
213.5858, 1501.480
214.0679, 1511.889
214.5500, 1522.409
215.0322, 1531.928
215.5143, 1539.462
215.9964, 1552.654
216.4785, 1578.295
216.9606, 1603.287
217.4427, 1622.925
217.9249, 1637.600
218.4070, 1650.209
218.8891, 1663.303
219.3712, 1676.977
219.8533, 1687.570
220.3354, 1695.090
220.8176, 1699.227
221.2997, 1696.445
221.7818, 1690.155
222.2639, 1687.789
222.7460, 1696.100
223.2281, 1713.046
223.7103, 1715.854
224.1924, 1689.424
224.6745, 1664.248
225.1566, 1646.203
225.6387, 1633.429
226.1208, 1622.675
226.6030, 1612.224
227.0851, 1602.171
227.5672, 1593.315
228.0493, 1590.839
228.5314, 1581.979
229.0135, 1559.693
229.4957, 1532.167
229.9778, 1509.062
230.4599, 1494.836
230.9420, 1485.844
231.4241, 1472.950
231.9062, 1453.982
232.3884, 1434.621
232.8705, 1414.105
233.3526, 1394.431
233.8347, 1377.659
234.3168, 1364.440
234.7989, 1352.677
235.2811, 1338.594
235.7632, 1320.367
236.2453, 1304.096
236.7274, 1289.818
237.2095, 1277.556
237.6916, 1267.578
238.1738, 1259.835
238.6559, 1253.537
239.1380, 1248.224
239.6201, 1244.710
240.1022, 1239.044
240.5843, 1225.945
241.0665, 1214.877
241.5486, 1213.391
242.0307, 1219.850
242.5128, 1224.739
242.9949, 1217.193
243.4770, 1195.700
243.9592, 1179.751
244.4413, 1171.028
244.9234, 1166.822
245.4055, 1171.514
245.8876, 1180.536
246.3697, 1182.908
246.8519, 1168.228
247.3340, 1138.923
247.8161, 1117.587
248.2982, 1106.047
248.7803, 1101.012
249.2624, 1105.268
249.7446, 1113.841
250.2267, 1118.735
250.7088, 1115.068
251.1909, 1105.637
251.6730, 1098.055
252.1551, 1091.669
252.6373, 1088.707
253.1194, 1093.373
253.6015, 1100.000
254.0836, 1102.127
254.5657, 1096.986
255.0478, 1088.248
255.5300, 1081.611
256.0121, 1077.643
256.4942, 1073.708
256.9763, 1069.023
257.4584, 1064.120
257.9406, 1058.686
258.4227, 1052.587
258.9048, 1048.034
259.3869, 1049.277
259.8690, 1056.772
260.3511, 1059.016
260.8333, 1048.939
261.3154, 1037.138
261.7975, 1031.067
262.2796, 1030.889
262.7617, 1032.738
263.2438, 1034.915
263.7260, 1037.145
264.2081, 1038.063
264.6902, 1038.405
265.1723, 1035.805
265.6544, 1025.936
266.1365, 1011.330
266.6187, 1000.760
267.1008, 999.6692
267.5829, 1005.162
268.0650, 1012.950
268.5471, 1024.988
269.0292, 1032.572
269.5114, 1021.770
269.9935, 1002.929
270.4756, 994.5798
270.9577, 1008.681
271.4398, 1029.325
271.9219, 1038.155
272.4041, 1034.862
272.8862, 1030.433
273.3683, 1029.225
273.8504, 1030.895
274.3325, 1034.312
274.8146, 1039.819
275.2968, 1046.397
275.7789, 1054.247
276.2610, 1062.849
276.7431, 1070.208
277.2252, 1075.765
277.7073, 1079.486
278.1895, 1080.874
278.6716, 1079.328
279.1537, 1078.702
279.6358, 1080.145
280.1179, 1083.464
280.6000, 1088.449
281.0822, 1095.129
281.5643, 1103.081
282.0464, 1112.370
282.5285, 1123.132
283.0106, 1132.855
283.4927, 1139.487
283.9749, 1146.075
284.4570, 1155.571
284.9391, 1168.124
285.4212, 1182.228
285.9033, 1197.563
286.3854, 1213.799
286.8676, 1224.667
287.3497, 1225.252
287.8318, 1225.773
288.3139, 1231.120
288.7960, 1240.442
289.2781, 1250.507
289.7603, 1259.231
290.2424, 1267.828
290.7245, 1281.451
291.2066, 1307.629
291.6887, 1329.227
292.1708, 1337.884
292.6530, 1342.625
293.1351, 1356.060
293.6172, 1382.460
294.0993, 1414.438
294.5814, 1438.924
295.0635, 1453.305
295.5457, 1464.237
296.0278, 1470.107
296.5099, 1473.923
296.9920, 1474.674
297.4741, 1474.100
297.9562, 1479.069
298.4384, 1498.657
298.9205, 1536.767
299.4026, 1562.293
299.8847, 1563.849
300.3668, 1564.602
300.8489, 1571.740
301.3311, 1584.367
301.8131, 1599.171
302.2953, 1614.333
302.7774, 1629.544
303.2595, 1642.906
303.7416, 1651.216
304.2237, 1662.573
304.7058, 1683.693
305.1880, 1706.192
305.6701, 1720.803
306.1522, 1724.006
306.6343, 1720.180
307.1164, 1714.265
307.5985, 1703.498
308.0807, 1701.104
308.5628, 1720.237
309.0449, 1741.055
309.5270, 1751.563
310.0091, 1750.846
310.4912, 1745.975
310.9734, 1744.009
311.4555, 1744.188
311.9376, 1736.222
312.4197, 1709.778
312.9018, 1689.526
313.3839, 1694.481
313.8661, 1717.093
314.3482, 1737.848
314.8303, 1746.576
315.3124, 1748.699
315.7945, 1754.496
316.2766, 1765.049
316.7588, 1772.681
317.2409, 1769.067
317.7230, 1761.262
318.2051, 1761.451
318.6872, 1774.479
319.1693, 1789.645
319.6515, 1798.908
320.1336, 1803.396
320.6157, 1808.020
321.0978, 1813.797
321.5799, 1821.368
322.0620, 1831.837
322.5442, 1844.815
323.0263, 1860.747
323.5084, 1880.872
323.9905, 1903.618
324.4726, 1927.519
324.9547, 1952.411
325.4369, 1976.794
325.9190, 1997.981
326.4011, 2015.436
326.8832, 2041.641
327.3653, 2084.593
327.8474, 2128.718
328.3296, 2165.183
328.8117, 2195.483
329.2938, 2225.335
329.7759, 2258.298
330.2580, 2293.407
330.7401, 2325.232
331.2223, 2344.909
331.7044, 2372.531
332.1865, 2413.803
332.6686, 2462.474
333.1507, 2514.800
333.6328, 2568.651
334.1150, 2618.727
334.5971, 2656.537
335.0792, 2676.649
335.5613, 2698.500
336.0434, 2722.081
336.5255, 2747.115
337.0077, 2773.904
337.4898, 2801.999
337.9719, 2830.896
338.4540, 2861.140
338.9361, 2891.865
339.4182, 2915.496
339.9004, 2932.334
340.3825, 2940.388
340.8646, 2935.574
341.3467, 2924.165
341.8288, 2914.500
342.3109, 2910.178
342.7931, 2906.258
343.2752, 2894.513
343.7573, 2873.738
344.2394, 2853.659
344.7215, 2839.056
345.2036, 2823.747
345.6858, 2800.169
346.1679, 2768.372
346.6500, 2741.010
347.1321, 2732.657
347.6142, 2734.765
348.0963, 2721.245
348.5785, 2685.288
349.0606, 2646.870
349.5427, 2623.112
350.0248, 2609.644
350.5069, 2594.046
350.9890, 2574.036
351.4712, 2551.125
351.9533, 2524.973
352.4354, 2496.313
352.9175, 2468.205
353.3996, 2440.897
353.8817, 2416.410
354.3639, 2401.732
354.8460, 2402.725
355.3281, 2399.144
355.8102, 2381.291
356.2923, 2358.874
356.7744, 2342.775
357.2566, 2335.401
357.7387, 2334.898
358.2208, 2340.533
358.7029, 2354.979
359.1850, 2359.987
359.6671, 2344.845
360.1493, 2332.309
360.6314, 2334.089
361.1135, 2346.425
361.5956, 2359.859
362.0777, 2368.894
362.5598, 2374.879
363.0420, 2383.389
363.5241, 2400.903
364.0062, 2409.982
364.4883, 2402.614
364.9704, 2390.729
365.4525, 2383.592
365.9347, 2383.422
366.4168, 2387.413
366.8989, 2393.233
367.3810, 2401.061
367.8631, 2408.360
368.3452, 2413.769
368.8274, 2420.282
369.3095, 2433.522
369.7916, 2449.080
370.2737, 2456.146
370.7558, 2446.601
371.2379, 2428.223
371.7201, 2414.299
372.2022, 2405.463
372.6843, 2395.662
373.1664, 2386.157
373.6485, 2371.403
374.1306, 2341.773
374.6128, 2291.867
375.0949, 2245.589
375.5770, 2221.385
376.0591, 2208.823
376.5412, 2186.916
377.0233, 2150.964
377.5055, 2109.002
377.9876, 2068.880
378.4697, 2031.017
378.9518, 1989.930
379.4339, 1940.501
379.9160, 1892.508
380.3982, 1852.834
380.8803, 1819.776
381.3624, 1788.784
381.8445, 1757.600
382.3266, 1726.037
382.8087, 1692.835
383.2909, 1653.887
383.7730, 1619.185
384.2551, 1593.024
384.7372, 1568.550
385.2193, 1538.220
385.7014, 1502.031
386.1836, 1467.557
386.6657, 1443.729
387.1478, 1431.385
387.6299, 1415.338
388.1120, 1393.037
388.5941, 1369.563
389.0763, 1344.616
389.5584, 1320.116
390.0405, 1299.355
390.5226, 1283.891
391.0047, 1271.611
391.4868, 1259.569
391.9690, 1247.953
392.4511, 1235.209
392.9332, 1220.732
393.4153, 1205.110
393.8974, 1188.118
394.3795, 1169.779
394.8617, 1153.896
395.3438, 1143.307
395.8259, 1136.025
396.3080, 1129.136
396.7901, 1122.469
397.2722, 1115.280
397.7544, 1106.954
398.2365, 1097.646
398.7186, 1088.299
399.2007, 1078.360
399.6828, 1069.088
400.1649, 1059.111
400.6471, 1050.566
401.1292, 1049.024
401.6113, 1056.370
402.0934, 1064.618
402.5755, 1061.375
403.0576, 1041.108
403.5398, 1026.000
404.0219, 1019.316
404.5040, 1013.855
404.9861, 1007.034
405.4682, 998.2932
405.9503, 987.1343
406.4325, 972.8996
406.9146, 956.8002
407.3967, 942.9719
407.8788, 930.3284
408.3609, 922.4858
408.8430, 924.5095
409.3252, 928.2716
409.8073, 926.9476
410.2894, 919.6734
410.7715, 911.3513
411.2536, 906.4156
411.7357, 904.1294
412.2179, 900.4805
412.7000, 894.2457
413.1821, 889.0170
413.6642, 889.1954
414.1463, 892.0447
414.6284, 891.9790
415.1106, 886.1608
415.5927, 879.3596
416.0748, 876.1115
416.5569, 874.8606
417.0390, 870.4888
417.5211, 860.9745
418.0033, 848.7850
418.4854, 837.3723
418.9675, 826.8664
419.4496, 816.9129
419.9317, 805.2679
420.4138, 796.1072
420.8960, 793.2028
421.3781, 795.4453
421.8602, 799.5564
422.3423, 803.9656
422.8244, 807.4069
423.3065, 804.0696
423.7887, 787.0909
424.2708, 773.9484
424.7529, 766.6937
425.2350, 763.4084
425.7171, 764.8741
426.1992, 769.9907
426.6814, 772.9646
427.1635, 766.7977
427.6456, 752.3693
428.1277, 740.4558
428.6098, 730.4486
429.0919, 724.2711
429.5741, 727.0953
430.0562, 733.1342
430.5383, 733.0008
431.0204, 721.9242
431.5025, 709.8285
431.9846, 703.8049
432.4668, 703.3959
432.9489, 708.7962
433.4310, 722.0097
433.9131, 734.3188
434.3952, 734.3318
434.8773, 720.6074
435.3595, 708.7665
435.8416, 697.3676
436.3237, 690.1208
436.8058, 691.3032
437.2879, 698.5197
437.7701, 706.0951
438.2522, 711.2311
438.7343, 714.2470
439.2164, 715.7495
439.6985, 714.1098
440.1806, 713.8730
440.6628, 719.2717
441.1449, 722.5735
441.6270, 716.5312
442.1091, 703.0531
442.5912, 690.5215
443.0733, 684.6189
443.5555, 684.8669
444.0376, 691.0769
444.5197, 706.9082
445.0018, 718.4261
445.4839, 716.2296
445.9660, 709.1431
446.4482, 705.5202
446.9303, 706.6828
447.4124, 708.9442
447.8945, 710.3857
448.3766, 711.2699
448.8587, 712.0378
449.3409, 712.7304
449.8230, 713.5850
450.3051, 714.8195
450.7872, 716.4107
451.2693, 718.0034
451.7514, 717.4877
452.2336, 719.3907
452.7157, 728.0721
453.1978, 739.0305
453.6799, 744.5404
454.1620, 742.8350
454.6441, 740.8911
455.1263, 749.0138
455.6084, 770.5706
456.0905, 783.0316
456.5726, 775.1213
457.0547, 769.2726
457.5368, 773.8027
458.0190, 784.5098
458.5011, 794.1796
458.9832, 799.7133
459.4653, 803.5275
459.9474, 808.5830
460.4295, 814.8506
460.9117, 823.0239
461.3938, 833.3223
461.8759, 845.5430
462.3580, 861.0466
462.8401, 878.8986
463.3222, 894.0052
463.8044, 903.3824
464.2865, 910.7794
464.7686, 918.6786
465.2507, 927.3003
465.7328, 937.4433
466.2149, 949.6775
466.6971, 962.7947
467.1792, 974.2474
467.6613, 983.2083
468.1434, 992.1713
468.6255, 997.6761
469.1076, 1006.160
469.5898, 1025.072
470.0719, 1050.733
470.5540, 1072.580
471.0361, 1083.962
471.5182, 1087.341
472.0003, 1089.721
472.4825, 1090.819
472.9646, 1091.643
473.4467, 1097.173
473.9288, 1098.859
474.4109, 1087.455
474.8930, 1064.313
475.3752, 1044.035
475.8573, 1036.314
476.3394, 1036.254
476.8215, 1038.451
477.3036, 1042.809
477.7857, 1038.841
478.2679, 1017.954
478.7500, 988.1857
479.2321, 969.0624
479.7142, 963.0437
480.1963, 959.5599
480.6784, 957.0162
481.1606, 955.8918
481.6427, 957.8404
482.1248, 962.1065
482.6069, 965.2629
483.0890, 964.7897
483.5711, 961.0363
484.0533, 955.6712
484.5354, 946.3847
485.0175, 939.3475
485.4996, 935.3179
485.9817, 933.6338
486.4638, 934.6365
486.9460, 937.9277
487.4281, 941.2188
487.9102, 940.4702
488.3923, 938.4447
488.8744, 945.7291
489.3565, 964.5482
489.8387, 979.9359
490.3208, 982.5187
490.8029, 977.6682
491.2850, 976.4589
491.7671, 978.5123
492.2492, 985.0764
492.7314, 1000.686
493.2135, 1018.698
493.6956, 1031.363
494.1777, 1038.142
494.6598, 1043.228
495.1419, 1049.764
495.6241, 1057.346
496.1062, 1063.510
496.5883, 1067.270
497.0704, 1070.872
497.5525, 1075.675
498.0346, 1079.667
498.5168, 1080.982
498.9989, 1079.552
499.4810, 1076.829
499.9631, 1073.573
500.4452, 1069.988
500.9273, 1067.063
501.4095, 1065.043
501.8916, 1062.571
502.3737, 1058.376
502.8558, 1053.790
503.3379, 1052.120
503.8200, 1055.404
504.3022, 1053.158
504.7843, 1034.877
505.2664, 1012.774
505.7485, 1003.541
506.2306, 1006.594
506.7127, 1007.235
507.1949, 994.7217
507.6770, 973.2064
508.1591, 961.1423
508.6412, 968.2693
509.1233, 970.7476
509.6054, 961.9996
510.0876, 952.4525
510.5697, 951.6620
511.0518, 958.3433
511.5339, 962.8383
512.0161, 957.4897
512.4982, 945.4531
512.9803, 934.2946
513.4624, 923.6490
513.9445, 916.7994
514.4266, 916.8735
514.9088, 919.7184
515.3909, 919.7341
515.8730, 916.6960
516.3551, 913.9258
516.8372, 911.8750
517.3193, 910.9288
517.8015, 912.5869
518.2836, 915.9390
518.7657, 916.8738
519.2478, 912.7701
519.7299, 906.9435
520.2120, 907.9651
520.6942, 923.8738
521.1763, 931.1089
521.6584, 921.6075
522.1405, 912.0237
522.6226, 911.6428
523.1047, 918.6293
523.5869, 926.2495
524.0690, 930.4814
524.5511, 934.7056
525.0332, 946.6102
525.5153, 966.1120
525.9974, 978.7884
526.4796, 977.3829
526.9617, 974.4022
527.4438, 985.1152
527.9259, 1007.698
528.4080, 1026.874
528.8901, 1034.423
529.3723, 1044.075
529.8544, 1067.232
530.3365, 1097.777
530.8186, 1122.760
531.3007, 1137.982
531.7828, 1149.805
532.2650, 1166.432
532.7471, 1187.843
533.2292, 1214.749
533.7113, 1253.820
534.1934, 1291.003
534.6755, 1319.035
535.1577, 1343.794
535.6398, 1373.764
536.1219, 1411.750
536.6040, 1452.650
537.0861, 1491.886
537.5682, 1530.150
538.0504, 1569.491
538.5325, 1609.934
539.0146, 1651.082
539.4967, 1690.810
539.9788, 1730.906
540.4609, 1779.094
540.9431, 1844.334
541.4252, 1905.067
541.9073, 1961.746
542.3894, 2008.887
542.8715, 2036.303
543.3536, 2046.850
543.8358, 2058.043
544.3179, 2085.829
544.8000, 2123.636
545.2821, 2141.703
545.7642, 2134.747
546.2463, 2122.589
546.7285, 2113.888
547.2106, 2098.494
547.6927, 2067.960
548.1748, 2022.579
548.6569, 1968.882
549.1390, 1900.862
549.6211, 1832.512
550.1032, 1783.227
550.5853, 1748.650
551.0674, 1710.313
551.5496, 1660.500
552.0317, 1602.981
552.5138, 1543.118
552.9959, 1479.283
553.4780, 1417.963
553.9601, 1343.994
554.4423, 1287.902
554.9244, 1280.913
555.4065, 1293.976
555.8886, 1278.637
556.3707, 1216.372
556.8528, 1141.581
557.3350, 1095.925
557.8171, 1076.011
558.2992, 1054.075
558.7813, 1026.831
559.2634, 1000.007
559.7455, 977.3411
560.2277, 958.0371
560.7098, 938.9878
561.1919, 917.7454
561.6740, 900.8885
562.1561, 892.4538
562.6382, 888.2276
563.1204, 885.5458
563.6025, 882.9373
564.0846, 877.1799
564.5667, 865.5497
565.0488, 849.4249
565.5309, 833.3143
566.0131, 814.9268
566.4952, 802.3774
566.9773, 801.2159
567.4594, 803.1263
567.9415, 805.1497
568.4236, 806.1924
568.9058, 802.9239
569.3879, 790.7478
569.8700, 776.4913
570.3521, 765.6937
570.8342, 758.4406
571.3163, 756.2061
571.7985, 759.8716
572.2806, 764.3439
572.7627, 763.3292
573.2448, 756.1456
573.7269, 749.8350
574.2090, 746.4973
574.6912, 741.3985
575.1733, 729.6912
575.6554, 717.5330
576.1375, 713.5708
576.6196, 718.9268
577.1017, 723.8616
577.5839, 715.8316
578.0660, 700.3461
578.5481, 698.8546
579.0302, 713.7338
579.5123, 723.5401
579.9944, 715.7174
580.4766, 699.5857
580.9587, 693.1691
581.4408, 697.5901
581.9229, 704.2163
582.4050, 717.0488
582.8871, 727.0538
583.3693, 726.7737
583.8514, 719.0404
584.3335, 710.0467
584.8156, 702.6261
585.2977, 696.9464
585.7798, 693.7150
586.2620, 693.1991
586.7441, 691.9971
587.2262, 689.2825
587.7083, 686.9510
588.1904, 686.8610
588.6725, 687.6530
589.1547, 686.6504
589.6368, 682.0212
590.1189, 679.5172
590.6010, 685.5033
591.0831, 693.2226
591.5652, 692.8748
592.0474, 684.7499
592.5295, 676.1174
593.0116, 671.5438
593.4937, 670.6434
593.9758, 672.6220
594.4579, 679.3830
594.9401, 684.4695
595.4222, 688.7614
595.9043, 689.8433
596.3864, 683.9063
596.8685, 673.7774
597.3506, 666.7513
597.8328, 667.0936
598.3149, 668.3223
598.7970, 663.2357
599.2791, 654.5682
599.7612, 650.0002
600.2433, 651.0076
600.7255, 652.3190
601.2076, 648.7314
601.6897, 641.5032
602.1718, 641.0662
602.6539, 659.8582
603.1360, 668.2416
603.6182, 653.5260
604.1003, 636.0509
604.5824, 632.0518
605.0645, 640.1960
605.5466, 648.4067
606.0287, 649.9230
606.5109, 647.5562
606.9930, 644.6519
607.4751, 641.3894
607.9572, 639.5353
608.4393, 639.8770
608.9214, 640.3495
609.4036, 638.9851
609.8857, 635.7628
610.3678, 631.6553
610.8499, 622.0822
611.3320, 617.4825
611.8141, 625.5019
612.2963, 636.3638
612.7784, 638.0807
613.2605, 631.0266
613.7426, 627.0367
614.2247, 636.5939
614.7068, 654.2630
615.1890, 667.0886
615.6711, 674.9517
616.1532, 680.1241
616.6353, 681.7943
617.1174, 683.6046
617.5995, 691.0231
618.0817, 704.2061
618.5638, 711.9695
619.0459, 707.5874
619.5280, 704.9916
620.0101, 711.3136
620.4922, 721.5768
620.9744, 729.4757
621.4565, 733.8303
621.9386, 737.3996
622.4207, 742.3364
