##NAMES=Sphalerite
##RRUFFID=R100145
##IDEAL CHEMISTRY=Zn^2+^S^2-^
##LOCALITY=Picos De Europa, Cantabria, Spain
##OWNER=RRUFF
##SOURCE=William W. Pinch
##DESCRIPTION=Brown cut gemstone
##STATUS=The identification of this mineral has been confirmed by single-crystal X-ray diffraction.
##URL=rruff.info/R100145
109.8901, 1311.363
110.3722, 1311.031
110.8544, 1315.302
111.3365, 1319.641
111.8186, 1320.393
112.3007, 1318.975
112.7828, 1318.166
113.2649, 1319.884
113.7471, 1323.934
114.2292, 1327.660
114.7113, 1330.501
115.1934, 1333.573
115.6755, 1337.719
116.1576, 1342.643
116.6397, 1347.319
117.1219, 1350.555
117.6040, 1351.699
118.0861, 1353.341
118.5682, 1356.470
119.0503, 1359.287
119.5324, 1360.542
120.0146, 1360.043
120.4967, 1358.620
120.9788, 1357.607
121.4609, 1356.422
121.9430, 1356.767
122.4251, 1359.513
122.9073, 1363.494
123.3894, 1367.479
123.8715, 1371.054
124.3536, 1374.200
124.8357, 1376.522
125.3178, 1376.946
125.8000, 1378.777
126.2821, 1384.173
126.7642, 1392.300
127.2463, 1399.940
127.7284, 1405.591
128.2105, 1409.894
128.6927, 1414.237
129.1748, 1418.553
129.6569, 1423.132
130.1390, 1428.213
130.6211, 1433.789
131.1032, 1439.924
131.5854, 1446.826
132.0675, 1454.285
132.5496, 1462.164
133.0317, 1470.443
133.5138, 1479.092
133.9959, 1488.039
134.4781, 1496.950
134.9602, 1506.931
135.4423, 1518.389
135.9244, 1530.906
136.4065, 1543.917
136.8886, 1557.150
137.3708, 1570.662
137.8529, 1584.069
138.3350, 1598.682
138.8171, 1611.929
139.2992, 1623.558
139.7813, 1633.369
140.2635, 1641.071
140.7456, 1646.258
141.2277, 1648.679
141.7098, 1650.471
142.1919, 1650.383
142.6740, 1650.810
143.1561, 1653.422
143.6383, 1658.171
144.1204, 1663.472
144.6025, 1667.875
145.0846, 1671.253
145.5667, 1673.755
146.0488, 1674.181
146.5310, 1674.271
147.0131, 1676.164
147.4952, 1680.476
147.9773, 1685.364
148.4594, 1688.482
148.9415, 1690.160
149.4237, 1692.245
149.9058, 1695.852
150.3879, 1700.412
150.8700, 1704.162
151.3521, 1706.270
151.8342, 1708.323
152.3164, 1711.900
152.7985, 1716.790
153.2806, 1721.538
153.7627, 1724.947
154.2448, 1726.997
154.7269, 1728.956
155.2091, 1730.370
155.6912, 1732.214
156.1733, 1734.884
156.6554, 1738.463
157.1375, 1742.903
157.6196, 1748.482
158.1018, 1755.969
158.5839, 1762.271
159.0660, 1766.241
159.5481, 1769.805
160.0302, 1774.353
160.5123, 1780.140
160.9945, 1786.195
161.4766, 1790.643
161.9587, 1791.255
162.4408, 1793.683
162.9229, 1799.006
163.4050, 1805.500
163.8871, 1811.464
164.3693, 1816.289
164.8514, 1820.676
165.3335, 1826.379
165.8156, 1834.709
166.2977, 1842.504
166.7798, 1848.936
167.2620, 1854.761
167.7441, 1861.223
168.2262, 1868.986
168.7083, 1877.420
169.1904, 1884.478
169.6725, 1888.927
170.1547, 1894.418
170.6368, 1903.037
171.1189, 1914.021
171.6010, 1924.683
172.0831, 1933.541
172.5652, 1941.573
173.0474, 1950.939
173.5295, 1961.936
174.0116, 1973.630
174.4937, 1985.549
174.9758, 1997.716
175.4579, 2009.558
175.9401, 2021.773
176.4222, 2032.965
176.9043, 2041.892
177.3864, 2048.744
177.8685, 2052.360
178.3506, 2051.040
178.8328, 2044.179
179.3149, 2034.267
179.7970, 2020.578
180.2791, 2005.096
180.7612, 1989.158
181.2433, 1972.991
181.7255, 1957.202
182.2076, 1943.068
182.6897, 1931.107
183.1718, 1920.042
183.6539, 1908.652
184.1360, 1898.137
184.6181, 1890.189
185.1003, 1885.738
185.5824, 1883.618
186.0645, 1879.680
186.5466, 1871.050
187.0287, 1864.066
187.5108, 1860.063
187.9930, 1858.031
188.4751, 1856.686
188.9572, 1855.314
189.4393, 1854.075
189.9214, 1853.911
190.4035, 1855.509
190.8857, 1857.432
191.3678, 1860.274
191.8499, 1863.209
192.3320, 1864.880
192.8141, 1864.428
193.2962, 1862.049
193.7784, 1859.078
194.2605, 1853.953
194.7426, 1849.990
195.2247, 1848.969
195.7068, 1850.140
196.1889, 1851.249
196.6711, 1850.775
197.1532, 1849.203
197.6353, 1849.020
198.1174, 1851.456
198.5995, 1853.984
199.0816, 1855.038
199.5638, 1854.818
200.0459, 1854.605
200.5280, 1854.801
201.0101, 1855.763
201.4922, 1857.970
201.9743, 1861.283
202.4565, 1866.028
202.9386, 1873.051
203.4207, 1882.436
203.9028, 1891.801
204.3849, 1899.383
204.8670, 1906.333
205.3492, 1914.133
205.8313, 1922.886
206.3134, 1932.810
206.7955, 1944.410
207.2776, 1957.995
207.7597, 1971.832
208.2419, 1984.244
208.7240, 1996.856
209.2061, 2011.195
209.6882, 2027.678
210.1703, 2046.230
210.6524, 2067.194
211.1346, 2091.415
211.6167, 2115.552
212.0988, 2137.309
212.5809, 2158.864
213.0630, 2183.129
213.5451, 2211.517
214.0273, 2241.545
214.5094, 2267.866
214.9915, 2291.106
215.4736, 2308.682
215.9557, 2321.290
216.4378, 2328.817
216.9200, 2331.195
217.4021, 2328.364
217.8842, 2320.454
218.3663, 2307.647
218.8484, 2287.502
219.3305, 2265.375
219.8127, 2241.164
220.2948, 2215.764
220.7769, 2189.739
221.2590, 2163.343
221.7411, 2136.935
222.2232, 2111.562
222.7054, 2087.752
223.1875, 2064.515
223.6696, 2041.355
224.1517, 2018.841
224.6338, 1997.578
225.1159, 1977.743
225.5980, 1959.529
226.0802, 1943.556
226.5623, 1930.979
227.0444, 1919.455
227.5265, 1908.406
228.0086, 1898.449
228.4907, 1890.854
228.9729, 1886.226
229.4550, 1883.510
229.9371, 1880.032
230.4192, 1874.144
230.9013, 1870.057
231.3834, 1868.758
231.8656, 1869.592
232.3477, 1872.080
232.8298, 1876.300
233.3119, 1881.057
233.7940, 1883.681
234.2761, 1884.089
234.7583, 1883.294
235.2404, 1882.594
235.7225, 1880.686
236.2046, 1875.013
236.6867, 1864.314
237.1688, 1850.426
237.6510, 1836.361
238.1331, 1822.680
238.6152, 1806.989
239.0973, 1787.515
239.5794, 1765.481
240.0615, 1743.201
240.5437, 1720.539
241.0258, 1699.179
241.5079, 1681.336
241.9900, 1666.721
242.4721, 1653.980
242.9542, 1642.971
243.4364, 1633.469
243.9185, 1624.985
244.4006, 1617.612
244.8827, 1610.983
245.3648, 1604.743
245.8469, 1598.872
246.3290, 1593.414
246.8112, 1588.256
247.2933, 1583.533
247.7754, 1579.680
248.2575, 1577.215
248.7396, 1574.883
249.2217, 1571.392
249.7039, 1567.120
250.1860, 1563.417
250.6681, 1561.287
251.1502, 1560.355
251.6323, 1559.263
252.1144, 1558.084
252.5966, 1556.493
253.0787, 1553.817
253.5608, 1550.615
254.0429, 1548.148
254.5250, 1547.386
255.0071, 1547.938
255.4893, 1548.291
255.9714, 1548.350
256.4535, 1548.357
256.9356, 1548.508
257.4177, 1548.685
257.8998, 1548.688
258.3820, 1548.386
258.8641, 1547.839
259.3462, 1547.171
259.8283, 1545.960
260.3104, 1545.377
260.7925, 1545.648
261.2747, 1546.680
261.7568, 1548.635
262.2389, 1551.934
262.7210, 1555.598
263.2031, 1556.680
263.6852, 1553.871
264.1674, 1550.509
264.6495, 1546.572
265.1316, 1542.922
265.6137, 1540.798
266.0958, 1540.818
266.5779, 1541.849
267.0601, 1541.039
267.5422, 1536.819
268.0243, 1533.582
268.5064, 1532.990
268.9885, 1532.974
269.4706, 1531.593
269.9528, 1528.184
270.4349, 1523.718
270.9170, 1520.037
271.3991, 1517.619
271.8812, 1515.126
272.3633, 1512.595
272.8455, 1509.890
273.3276, 1506.511
273.8097, 1502.494
274.2918, 1498.843
274.7739, 1497.289
275.2560, 1499.342
275.7382, 1500.307
276.2202, 1499.551
276.7024, 1498.416
277.1845, 1497.479
277.6666, 1496.958
278.1487, 1497.043
278.6308, 1498.078
279.1129, 1500.502
279.5951, 1502.330
280.0772, 1503.116
280.5593, 1503.802
281.0414, 1504.927
281.5235, 1506.458
282.0056, 1507.982
282.4878, 1509.061
282.9699, 1509.589
283.4520, 1510.534
283.9341, 1511.593
284.4162, 1513.295
284.8983, 1516.156
285.3805, 1519.901
285.8626, 1523.766
286.3447, 1527.119
286.8268, 1529.975
287.3089, 1533.747
287.7910, 1540.085
288.2732, 1545.510
288.7553, 1547.704
289.2374, 1548.307
289.7195, 1550.340
290.2016, 1555.629
290.6837, 1563.769
291.1659, 1572.857
291.6480, 1583.802
292.1301, 1594.539
292.6122, 1604.678
293.0943, 1614.414
293.5764, 1623.810
294.0586, 1632.904
294.5407, 1642.124
295.0228, 1652.686
295.5049, 1666.256
295.9870, 1679.207
296.4691, 1691.965
296.9513, 1703.812
297.4334, 1714.106
297.9155, 1722.583
298.3976, 1729.302
298.8797, 1734.401
299.3618, 1738.475
299.8440, 1739.113
300.3261, 1734.811
300.8082, 1728.115
301.2903, 1720.843
301.7724, 1713.417
302.2545, 1705.297
302.7367, 1695.587
303.2188, 1683.511
303.7009, 1673.088
304.1830, 1663.904
304.6651, 1656.439
305.1472, 1651.027
305.6294, 1647.636
306.1115, 1646.197
306.5936, 1647.008
307.0757, 1650.276
307.5578, 1651.464
308.0399, 1649.013
308.5221, 1646.435
309.0042, 1644.873
309.4863, 1644.405
309.9684, 1645.146
310.4505, 1647.372
310.9326, 1650.719
311.4148, 1652.506
311.8969, 1653.520
312.3790, 1652.404
312.8611, 1648.615
313.3432, 1642.520
313.8253, 1634.435
314.3075, 1624.452
314.7896, 1613.067
315.2717, 1601.362
315.7538, 1586.944
316.2359, 1575.679
316.7180, 1568.417
317.2001, 1564.373
317.6823, 1563.383
318.1644, 1565.288
318.6465, 1568.509
319.1286, 1570.576
319.6107, 1570.142
320.0928, 1571.981
320.5750, 1576.880
321.0571, 1583.408
321.5392, 1590.924
322.0213, 1599.112
322.5034, 1607.452
322.9855, 1615.347
323.4677, 1622.779
323.9498, 1630.201
324.4319, 1636.992
324.9140, 1644.337
325.3961, 1653.038
325.8782, 1662.854
326.3604, 1673.088
326.8425, 1683.287
327.3246, 1693.458
327.8067, 1703.840
328.2888, 1713.736
328.7709, 1724.622
329.2531, 1737.707
329.7352, 1751.875
330.2173, 1765.541
330.6994, 1778.000
331.1815, 1789.170
331.6636, 1798.866
332.1458, 1808.005
332.6279, 1814.291
333.1100, 1817.377
333.5921, 1817.694
334.0742, 1814.443
334.5563, 1807.767
335.0385, 1800.586
335.5206, 1797.182
336.0027, 1798.773
336.4848, 1801.507
336.9669, 1805.475
337.4490, 1810.373
337.9312, 1815.479
338.4133, 1821.107
338.8954, 1828.604
339.3775, 1839.309
339.8596, 1853.433
340.3417, 1868.486
340.8239, 1882.557
341.3060, 1899.272
341.7881, 1919.069
342.2702, 1942.575
342.7523, 1970.164
343.2344, 2001.728
343.7166, 2038.010
344.1987, 2082.442
344.6808, 2133.649
345.1629, 2196.226
345.6450, 2272.518
346.1271, 2359.338
346.6093, 2457.196
347.0914, 2564.846
347.5735, 2674.385
348.0556, 2771.638
348.5377, 2875.112
349.0198, 2928.290
349.5020, 2930.199
349.9841, 2891.311
350.4662, 2806.205
350.9483, 2682.009
351.4304, 2542.176
351.9125, 2409.372
352.3947, 2281.650
352.8768, 2175.866
353.3589, 2097.730
353.8410, 2035.672
354.3231, 1990.241
354.8052, 1958.056
355.2874, 1933.807
355.7695, 1914.491
356.2516, 1899.889
356.7337, 1888.445
357.2158, 1881.776
357.6979, 1876.397
358.1800, 1871.139
358.6621, 1866.939
359.1443, 1865.179
359.6264, 1866.369
360.1085, 1869.214
360.5906, 1871.503
361.0727, 1873.201
361.5548, 1874.415
362.0370, 1873.739
362.5191, 1873.677
363.0012, 1876.340
363.4833, 1881.614
363.9654, 1887.222
364.4475, 1890.564
364.9297, 1891.422
365.4118, 1893.667
365.8939, 1898.295
366.3760, 1903.309
366.8581, 1908.268
367.3402, 1912.962
367.8224, 1917.003
368.3045, 1919.881
368.7866, 1922.144
369.2687, 1925.584
369.7508, 1930.878
370.2329, 1935.847
370.7151, 1939.297
371.1972, 1942.324
371.6793, 1946.171
372.1614, 1951.244
372.6435, 1956.600
373.1256, 1961.391
373.6078, 1965.677
374.0899, 1968.508
374.5720, 1969.360
375.0541, 1968.820
375.5362, 1966.874
376.0183, 1963.719
376.5005, 1960.795
376.9826, 1959.038
377.4647, 1958.254
377.9468, 1957.583
378.4289, 1956.596
378.9110, 1956.570
379.3932, 1959.245
379.8753, 1963.377
380.3574, 1966.587
380.8395, 1967.607
381.3216, 1967.863
381.8037, 1969.042
382.2859, 1971.158
382.7680, 1973.528
383.2501, 1975.746
383.7322, 1978.178
384.2143, 1981.672
384.6964, 1986.812
385.1786, 1990.971
385.6607, 1991.949
386.1428, 1990.765
386.6249, 1989.748
387.1070, 1989.038
387.5891, 1989.776
388.0713, 1994.450
388.5534, 2002.643
389.0355, 2009.568
389.5176, 2013.154
389.9997, 2015.728
390.4818, 2019.497
390.9640, 2024.586
391.4461, 2030.137
391.9282, 2035.457
392.4103, 2040.809
392.8924, 2047.410
393.3745, 2057.090
393.8567, 2065.902
394.3388, 2072.081
394.8209, 2076.303
395.3030, 2079.752
395.7851, 2082.878
396.2672, 2085.517
396.7494, 2087.475
397.2315, 2088.982
397.7136, 2089.010
398.1957, 2087.962
398.6778, 2085.097
399.1599, 2079.355
399.6420, 2070.900
400.1241, 2061.174
400.6063, 2051.415
401.0884, 2041.601
401.5705, 2031.362
402.0526, 2019.511
402.5347, 2008.616
403.0168, 1999.454
403.4990, 1991.780
403.9811, 1985.363
404.4632, 1980.139
404.9453, 1975.721
405.4274, 1971.177
405.9095, 1966.303
406.3917, 1961.748
406.8738, 1957.514
407.3559, 1953.605
407.8380, 1949.587
408.3201, 1945.674
408.8022, 1942.915
409.2844, 1942.538
409.7665, 1944.699
410.2486, 1946.709
410.7307, 1948.132
411.2128, 1949.849
411.6949, 1950.924
412.1771, 1952.685
412.6592, 1957.452
413.1413, 1966.660
413.6234, 1978.480
414.1055, 1988.834
414.5876, 1996.960
415.0698, 2006.104
415.5519, 2017.240
416.0340, 2029.513
416.5161, 2043.271
416.9982, 2058.363
417.4803, 2072.155
417.9625, 2082.286
418.4446, 2089.092
418.9267, 2095.377
419.4088, 2102.245
419.8909, 2106.762
420.3730, 2106.795
420.8552, 2103.324
421.3373, 2097.884
421.8194, 2090.070
422.3015, 2081.469
422.7836, 2073.978
423.2657, 2067.598
423.7479, 2061.282
424.2300, 2054.369
424.7121, 2047.573
425.1942, 2041.983
425.6763, 2037.814
426.1584, 2033.771
426.6406, 2029.799
427.1227, 2025.452
427.6048, 2019.715
428.0869, 2012.296
428.5690, 2004.732
429.0511, 1998.798
429.5333, 1994.397
430.0154, 1988.065
430.4975, 1978.675
430.9796, 1968.384
431.4617, 1957.667
431.9438, 1947.017
432.4260, 1937.595
432.9081, 1930.101
433.3902, 1923.760
433.8723, 1916.772
434.3544, 1908.413
434.8365, 1900.605
435.3187, 1892.308
435.8008, 1885.295
436.2829, 1881.517
436.7650, 1880.885
437.2471, 1881.608
437.7292, 1882.174
438.2114, 1882.603
438.6935, 1882.217
439.1756, 1879.831
439.6577, 1877.957
440.1398, 1876.527
440.6219, 1876.174
441.1040, 1878.347
441.5862, 1883.631
442.0683, 1889.771
442.5504, 1892.295
443.0325, 1889.767
443.5146, 1888.084
443.9967, 1887.634
444.4789, 1888.266
444.9610, 1890.687
445.4431, 1894.338
445.9252, 1897.469
446.4073, 1898.604
446.8894, 1898.228
447.3716, 1898.399
447.8537, 1899.722
448.3358, 1900.039
448.8179, 1898.113
449.3000, 1894.783
449.7821, 1890.790
450.2643, 1886.274
450.7464, 1881.101
451.2285, 1875.972
451.7106, 1870.351
452.1927, 1861.399
452.6748, 1847.944
453.1570, 1832.389
453.6391, 1816.776
454.1212, 1801.070
454.6033, 1784.872
455.0854, 1767.393
455.5675, 1749.994
456.0497, 1733.087
456.5318, 1717.059
457.0139, 1703.483
457.4960, 1693.224
457.9781, 1685.878
458.4602, 1680.710
458.9424, 1678.759
459.4245, 1676.406
459.9066, 1672.744
460.3887, 1668.556
460.8708, 1664.262
461.3529, 1660.100
461.8351, 1656.772
462.3172, 1654.919
462.7993, 1654.569
463.2814, 1655.238
463.7635, 1658.007
464.2456, 1660.472
464.7278, 1662.344
465.2099, 1663.456
465.6920, 1663.518
466.1741, 1662.440
466.6562, 1660.677
467.1383, 1658.716
467.6205, 1655.904
468.1026, 1654.908
468.5847, 1657.879
469.0668, 1660.844
469.5489, 1662.021
470.0310, 1661.683
470.5132, 1660.891
470.9953, 1660.127
471.4774, 1659.519
471.9595, 1659.544
472.4416, 1660.466
472.9237, 1661.048
473.4059, 1660.366
473.8880, 1659.447
474.3701, 1659.367
474.8522, 1660.277
475.3343, 1661.049
475.8164, 1660.997
476.2986, 1660.257
476.7807, 1658.618
477.2628, 1655.642
477.7449, 1654.108
478.2270, 1657.260
478.7091, 1663.746
479.1913, 1667.665
479.6734, 1666.708
480.1555, 1665.360
480.6376, 1665.884
481.1197, 1667.686
481.6018, 1669.631
482.0839, 1671.370
482.5660, 1672.915
483.0482, 1674.389
483.5303, 1676.054
484.0124, 1676.414
484.4945, 1673.390
484.9766, 1671.087
485.4587, 1672.672
485.9409, 1676.778
486.4230, 1679.699
486.9051, 1679.271
487.3872, 1676.867
487.8693, 1676.609
488.3514, 1680.496
488.8336, 1682.763
489.3157, 1681.692
489.7978, 1680.166
490.2799, 1680.300
490.7620, 1681.985
491.2441, 1683.588
491.7263, 1683.613
492.2084, 1682.488
492.6905, 1682.297
493.1726, 1683.332
493.6547, 1684.622
494.1368, 1686.750
494.6190, 1688.454
495.1011, 1687.889
495.5832, 1684.422
496.0653, 1681.200
496.5474, 1680.812
497.0295, 1682.564
497.5117, 1684.589
497.9938, 1686.779
498.4759, 1688.489
498.9580, 1688.797
499.4401, 1688.056
499.9222, 1688.228
500.4044, 1690.487
500.8865, 1692.580
501.3686, 1692.577
501.8507, 1691.667
502.3328, 1692.729
502.8149, 1696.814
503.2971, 1701.643
503.7792, 1703.969
504.2613, 1703.092
504.7434, 1702.095
505.2255, 1699.521
505.7076, 1698.276
506.1898, 1700.601
506.6719, 1705.239
507.1540, 1709.730
507.6361, 1712.826
508.1182, 1714.699
508.6003, 1715.571
509.0825, 1714.968
509.5646, 1714.636
510.0467, 1714.138
510.5288, 1714.463
511.0109, 1716.601
511.4930, 1720.166
511.9752, 1723.737
512.4573, 1726.455
512.9394, 1728.574
513.4215, 1730.697
513.9036, 1732.867
514.3857, 1734.843
514.8679, 1736.873
515.3500, 1738.363
515.8321, 1738.319
516.3142, 1736.504
516.7963, 1735.186
517.2784, 1735.983
517.7606, 1737.549
518.2427, 1737.610
518.7248, 1736.081
519.2069, 1735.404
519.6890, 1737.726
520.1711, 1742.035
520.6533, 1743.121
521.1354, 1738.517
521.6175, 1734.534
522.0996, 1733.018
522.5817, 1732.140
523.0638, 1729.909
523.5460, 1726.135
524.0281, 1721.912
524.5102, 1717.922
524.9923, 1714.255
525.4744, 1714.505
525.9565, 1723.865
526.4387, 1730.346
526.9208, 1730.663
527.4029, 1727.549
527.8850, 1723.313
528.3671, 1718.680
528.8492, 1714.363
529.3314, 1710.663
529.8135, 1707.723
530.2956, 1707.402
530.7777, 1711.335
531.2598, 1714.727
531.7419, 1713.821
532.2241, 1710.570
532.7062, 1707.864
533.1883, 1706.052
533.6704, 1705.223
534.1525, 1706.467
534.6346, 1708.633
535.1168, 1708.641
535.5989, 1705.639
536.0810, 1702.063
536.5631, 1700.299
537.0452, 1700.440
537.5273, 1700.891
538.0095, 1701.527
538.4916, 1702.573
538.9737, 1704.501
539.4558, 1706.767
539.9379, 1708.703
540.4200, 1710.057
540.9022, 1710.770
541.3843, 1710.525
541.8664, 1708.954
542.3485, 1708.580
542.8306, 1711.286
543.3127, 1713.166
543.7948, 1712.545
544.2769, 1710.451
544.7590, 1708.263
545.2411, 1706.373
545.7233, 1705.263
546.2054, 1705.700
546.6875, 1707.611
547.1696, 1710.081
547.6517, 1713.336
548.1339, 1716.401
548.6160, 1718.424
549.0981, 1719.588
549.5802, 1720.279
550.0623, 1719.952
550.5444, 1719.806
551.0266, 1720.827
551.5087, 1722.592
551.9908, 1724.201
552.4729, 1725.390
552.9550, 1726.232
553.4371, 1726.775
553.9193, 1726.961
554.4014, 1727.253
554.8835, 1728.251
555.3656, 1728.702
555.8477, 1727.340
556.3298, 1725.420
556.8120, 1724.852
557.2941, 1726.314
557.7762, 1728.853
558.2583, 1731.553
558.7404, 1734.627
559.2225, 1735.874
559.7047, 1733.931
560.1868, 1731.788
560.6689, 1730.564
561.1510, 1730.154
561.6331, 1730.384
562.1152, 1731.241
562.5974, 1732.606
563.0795, 1734.668
563.5616, 1737.185
564.0437, 1739.374
564.5258, 1741.158
565.0079, 1742.230
565.4901, 1741.974
565.9722, 1740.503
566.4543, 1740.099
566.9364, 1741.471
567.4185, 1743.102
567.9006, 1744.406
568.3828, 1745.635
568.8649, 1747.427
569.3470, 1749.835
569.8291, 1751.935
570.3112, 1752.566
570.7933, 1751.648
571.2755, 1750.757
571.7576, 1749.017
572.2397, 1748.471
572.7218, 1750.430
573.2039, 1753.367
573.6860, 1755.494
574.1682, 1756.383
574.6503, 1757.113
575.1324, 1758.820
575.6145, 1761.251
576.0966, 1763.435
576.5787, 1765.450
577.0609, 1766.598
577.5430, 1765.801
578.0251, 1764.016
578.5072, 1763.605
578.9893, 1765.202
579.4714, 1766.850
579.9536, 1767.906
580.4357, 1768.558
580.9178, 1768.761
581.3999, 1768.664
581.8820, 1769.109
582.3641, 1770.850
582.8463, 1773.597
583.3284, 1775.613
583.8105, 1775.488
584.2926, 1776.754
584.7747, 1781.685
585.2568, 1786.535
585.7390, 1787.920
586.2211, 1786.183
586.7032, 1784.417
587.1853, 1784.822
587.6674, 1786.776
588.1495, 1788.466
588.6317, 1789.703
589.1138, 1791.990
589.5959, 1796.679
590.0780, 1801.824
590.5601, 1805.155
591.0422, 1806.706
591.5244, 1807.676
592.0065, 1807.618
592.4886, 1807.749
592.9707, 1809.287
593.4528, 1811.983
593.9349, 1814.824
594.4171, 1817.318
594.8992, 1819.963
595.3813, 1823.609
595.8634, 1828.253
596.3455, 1834.008
596.8276, 1843.081
597.3098, 1850.785
597.7919, 1854.517
598.2740, 1855.712
598.7561, 1856.710
599.2382, 1858.435
599.7203, 1860.876
600.2025, 1864.501
600.6846, 1869.264
601.1667, 1872.471
601.6488, 1872.723
602.1309, 1873.680
602.6130, 1878.644
603.0952, 1886.028
603.5773, 1892.615
604.0594, 1897.704
604.5415, 1902.588
605.0236, 1908.397
605.5057, 1914.283
605.9879, 1918.715
606.4700, 1921.533
606.9521, 1923.910
607.4342, 1926.716
607.9163, 1929.935
608.3984, 1933.562
608.8806, 1938.197
