##NAMES=Sphalerite
##RRUFFID=R100145
##IDEAL CHEMISTRY=Zn^2+^S^2-^
##LOCALITY=Picos De Europa, Cantabria, Spain
##OWNER=RRUFF
##SOURCE=William W. Pinch
##DESCRIPTION=Brown cut gemstone
##STATUS=The identification of this mineral has been confirmed by single-crystal X-ray diffraction.
##URL=rruff.info/R100145
127.1939, 63.61642
127.6761, 63.40067
128.1582, 63.07776
128.6403, 63.35545
129.1224, 64.09747
129.6045, 64.64656
130.0867, 64.19026
130.5688, 63.18183
131.0509, 63.27175
131.5330, 64.88632
132.0151, 67.04617
132.4972, 67.70583
132.9794, 66.86154
133.4615, 66.56194
133.9436, 68.69025
134.4257, 73.04800
134.9078, 76.55242
135.3899, 78.52898
135.8721, 79.62395
136.3542, 81.69946
136.8363, 84.83498
137.3184, 88.61600
137.8005, 92.60043
138.2826, 96.75063
138.7648, 101.6656
139.2469, 107.4219
139.7290, 114.0571
140.2111, 121.3998
140.6932, 129.4502
141.1753, 138.3276
141.6575, 148.1864
142.1396, 159.5041
142.6217, 170.7723
143.1038, 181.5697
143.5859, 191.9511
144.0681, 202.6572
144.5502, 213.8168
145.0323, 225.2671
145.5144, 237.1542
145.9965, 250.1581
146.4786, 262.4179
146.9608, 272.9755
147.4429, 281.4011
147.9250, 290.6972
148.4071, 301.7070
148.8892, 313.3014
149.3713, 323.5138
149.8535, 329.2026
150.3356, 336.7478
150.8177, 348.1737
151.2998, 365.5009
151.7819, 382.3284
152.2640, 397.4917
152.7462, 412.3310
153.2283, 428.9500
153.7104, 449.2681
154.1925, 469.9392
154.6746, 489.5893
155.1567, 506.6050
155.6389, 524.7794
156.1210, 545.9320
156.6031, 568.7321
157.0852, 590.1241
157.5673, 609.2125
158.0495, 626.8693
158.5316, 643.7125
159.0137, 659.8664
159.4958, 674.9770
159.9779, 688.9987
160.4600, 701.9904
160.9422, 714.1452
161.4243, 723.9474
161.9064, 733.8411
162.3885, 745.4705
162.8706, 760.6337
163.3527, 776.1473
163.8349, 790.7713
164.3170, 804.7078
164.7991, 818.9209
165.2812, 832.5805
165.7633, 847.2736
166.2454, 864.4936
166.7276, 887.0287
167.2097, 910.0872
167.6918, 930.7807
168.1739, 949.2499
168.6560, 968.2307
169.1381, 989.8342
169.6203, 1012.304
170.1024, 1027.090
170.5845, 1037.124
171.0666, 1046.681
171.5487, 1056.278
172.0309, 1065.885
172.5130, 1075.311
172.9951, 1084.474
173.4772, 1093.369
173.9593, 1102.008
174.4414, 1110.479
174.9236, 1118.617
175.4057, 1126.295
175.8878, 1133.593
176.3699, 1139.845
176.8520, 1145.058
177.3341, 1148.914
177.8163, 1150.697
178.2984, 1150.668
178.7805, 1148.230
179.2626, 1142.293
179.7447, 1132.925
180.2268, 1120.709
180.7090, 1105.215
181.1911, 1087.226
181.6732, 1069.270
182.1553, 1052.597
182.6374, 1036.776
183.1195, 1020.839
183.6017, 1004.240
184.0838, 989.3134
184.5659, 979.0264
185.0480, 972.7734
185.5301, 967.0538
186.0123, 959.6299
186.4944, 951.3701
186.9765, 945.6832
187.4586, 943.0256
187.9407, 941.3573
188.4228, 937.4616
188.9050, 931.5944
189.3871, 926.3477
189.8692, 923.3719
190.3513, 922.2759
190.8334, 921.0631
191.3155, 919.5992
191.7977, 918.1408
192.2798, 917.2830
192.7619, 917.0320
193.2440, 916.5098
193.7261, 915.0533
194.2082, 912.7798
194.6904, 910.9401
195.1725, 909.7050
195.6546, 908.7377
196.1367, 907.0857
196.6188, 904.6073
197.1009, 903.1182
197.5831, 904.0372
198.0652, 907.3537
198.5473, 909.9965
199.0294, 911.5270
199.5115, 912.6656
199.9937, 914.7484
200.4758, 917.7103
200.9579, 921.6896
201.4400, 926.7433
201.9221, 932.8693
202.4042, 939.9601
202.8864, 948.1155
203.3685, 957.0980
203.8506, 966.4600
204.3327, 976.1379
204.8148, 986.0546
205.2969, 995.9908
205.7791, 1005.816
206.2612, 1016.533
206.7433, 1028.130
207.2254, 1040.687
207.7075, 1054.461
208.1896, 1069.607
208.6718, 1085.628
209.1539, 1102.530
209.6360, 1120.227
210.1181, 1138.401
210.6002, 1156.894
211.0823, 1175.941
211.5645, 1196.355
212.0466, 1218.671
212.5287, 1241.386
213.0108, 1263.867
213.4929, 1286.470
213.9750, 1308.080
214.4572, 1328.786
214.9393, 1348.384
215.4214, 1367.383
215.9035, 1387.218
216.3856, 1403.671
216.8678, 1414.407
217.3499, 1419.621
217.8320, 1418.899
218.3141, 1411.443
218.7962, 1398.257
219.2783, 1382.447
219.7605, 1364.444
220.2426, 1343.205
220.7247, 1317.940
221.2068, 1287.519
221.6889, 1256.356
222.1710, 1224.263
222.6532, 1191.721
223.1353, 1161.362
223.6174, 1133.337
224.0995, 1106.729
224.5816, 1081.026
225.0637, 1055.522
225.5459, 1032.115
226.0280, 1011.180
226.5101, 992.2293
226.9922, 974.4469
227.4743, 957.4208
227.9564, 941.9473
228.4386, 928.3370
228.9207, 917.5495
229.4028, 906.7477
229.8849, 895.0927
230.3670, 883.5399
230.8492, 874.5727
231.3313, 869.1854
231.8134, 864.9935
232.2955, 860.8635
232.7776, 856.5530
233.2597, 853.1287
233.7419, 851.1140
234.2240, 849.8572
234.7061, 847.8958
235.1882, 846.0124
235.6703, 842.3132
236.1524, 835.9357
236.6346, 826.5422
237.1167, 815.2466
237.5988, 801.8967
238.0809, 786.7207
238.5630, 769.9061
239.0451, 751.3406
239.5273, 731.4393
240.0094, 710.1750
240.4915, 686.7869
240.9736, 663.7010
241.4557, 640.2639
241.9378, 617.2451
242.4200, 596.2381
242.9021, 576.8105
243.3842, 559.7006
243.8663, 545.2545
244.3484, 533.8516
244.8306, 523.9897
245.3127, 516.0502
245.7948, 509.5285
246.2769, 503.6060
246.7590, 498.4709
247.2411, 493.7282
247.7233, 489.2516
248.2054, 485.0140
248.6875, 481.0844
249.1696, 477.1870
249.6517, 473.8211
250.1338, 471.9763
250.6160, 472.4668
251.0981, 473.0134
251.5802, 472.8130
252.0623, 471.6081
252.5444, 470.9831
253.0265, 471.0049
253.5087, 471.5599
253.9908, 472.4519
254.4729, 473.5479
254.9550, 475.2788
255.4371, 477.9861
255.9192, 481.8368
256.4014, 485.0254
256.8835, 487.0892
257.3656, 488.9505
257.8477, 491.9011
258.3298, 496.4985
258.8120, 500.9413
259.2941, 504.7127
259.7762, 507.7627
260.2583, 511.2023
260.7404, 515.1039
261.2225, 519.3296
261.7047, 523.7614
262.1868, 528.2068
262.6689, 533.3857
263.1510, 539.6137
263.6331, 546.8080
264.1152, 554.1745
264.5974, 561.5940
265.0795, 569.2990
265.5616, 577.1497
266.0437, 584.9943
266.5258, 593.8809
267.0079, 603.9543
267.4901, 615.2881
267.9722, 627.8284
268.4543, 642.1615
268.9364, 656.8319
269.4185, 670.7069
269.9006, 683.6531
270.3828, 696.4548
270.8649, 709.6130
271.3470, 722.7568
271.8291, 734.5905
272.3112, 745.4952
272.7933, 754.3848
273.2755, 760.5399
273.7576, 764.0116
274.2397, 764.5294
274.7218, 761.8046
275.2039, 756.2111
275.6860, 748.6472
276.1682, 738.7918
276.6503, 727.9124
277.1324, 716.5615
277.6145, 704.8185
278.0966, 692.9648
278.5787, 680.8321
279.0609, 668.9218
279.5430, 658.0455
280.0251, 648.2704
280.5072, 639.5741
280.9893, 631.6840
281.4715, 624.6725
281.9536, 619.8049
282.4357, 617.4105
282.9178, 616.6256
283.3999, 616.0714
283.8820, 615.7224
284.3642, 615.8624
284.8463, 616.5882
285.3284, 617.8935
285.8105, 619.7442
286.2926, 622.1158
286.7747, 625.0628
287.2569, 628.7429
287.7390, 633.1346
288.2211, 637.8957
288.7032, 642.8195
289.1853, 647.9845
289.6674, 653.7097
290.1496, 659.9788
290.6317, 667.0810
291.1138, 675.6202
291.5959, 685.4846
292.0780, 695.4777
292.5602, 704.9687
293.0423, 714.5032
293.5244, 725.5038
294.0065, 737.9502
294.4886, 751.4072
294.9707, 766.4003
295.4529, 782.4242
295.9350, 797.2509
296.4171, 810.0980
296.8992, 821.8600
297.3813, 834.7142
297.8634, 848.3672
298.3456, 860.0598
298.8277, 868.3510
299.3098, 873.0095
299.7919, 873.1458
300.2740, 868.0063
300.7561, 859.2477
301.2383, 848.8708
301.7204, 836.7374
302.2025, 822.8565
302.6846, 806.0375
303.1667, 787.7361
303.6488, 769.5208
304.1310, 751.5307
304.6131, 734.5065
305.0952, 719.3683
305.5773, 705.9735
306.0594, 693.9897
306.5415, 682.9366
307.0237, 673.2614
307.5058, 665.5362
307.9879, 660.0320
308.4700, 655.3233
308.9521, 650.1218
309.4343, 644.9666
309.9164, 640.6799
310.3985, 637.8268
310.8806, 635.7910
311.3627, 634.4374
311.8448, 633.7547
312.3270, 632.6666
312.8091, 631.5712
313.2912, 629.3802
313.7733, 624.8082
314.2554, 616.4180
314.7375, 606.3858
315.2197, 594.9817
315.7018, 582.3913
316.1839, 570.8622
316.6660, 560.5632
317.1481, 552.1364
317.6302, 546.2313
318.1124, 543.5164
318.5945, 542.5898
319.0766, 542.9891
319.5587, 544.7970
320.0408, 548.2679
320.5229, 552.8683
321.0051, 559.5775
321.4872, 569.0328
321.9693, 581.6650
322.4514, 596.2189
322.9335, 612.9564
323.4156, 631.4012
323.8978, 650.6376
324.3799, 669.5714
324.8620, 690.0842
325.3441, 713.2243
325.8262, 739.6418
326.3083, 766.1365
326.7905, 792.0633
327.2726, 818.1754
327.7547, 845.0409
328.2368, 873.6326
328.7189, 902.2101
329.2010, 929.8682
329.6832, 956.0124
330.1653, 985.0703
330.6474, 1017.595
331.1295, 1052.600
331.6116, 1089.827
332.0938, 1130.844
332.5759, 1171.884
333.0580, 1213.247
333.5401, 1254.678
334.0222, 1291.172
334.5043, 1321.217
334.9865, 1348.838
335.4686, 1376.214
335.9507, 1402.423
336.4328, 1430.995
336.9149, 1461.977
337.3970, 1495.972
337.8792, 1532.991
338.3613, 1573.169
338.8434, 1617.367
339.3255, 1666.645
339.8076, 1721.583
340.2898, 1778.613
340.7719, 1837.826
341.2540, 1899.835
341.7361, 1966.781
342.2182, 2037.453
342.7003, 2113.654
343.1825, 2195.092
343.6646, 2282.403
344.1467, 2374.030
344.6288, 2470.479
345.1109, 2572.606
345.5930, 2683.253
346.0752, 2801.033
346.5573, 2926.626
347.0394, 3064.851
347.5215, 3207.805
348.0036, 3348.454
348.4857, 3485.643
348.9679, 3601.245
349.4500, 3705.655
349.9321, 3780.062
350.4142, 3771.362
350.8963, 3670.179
351.3784, 3489.466
351.8606, 3213.034
352.3427, 2863.408
352.8248, 2516.685
353.3069, 2198.703
353.7890, 1919.969
354.2711, 1693.138
354.7533, 1521.690
355.2354, 1385.524
355.7175, 1278.640
356.1996, 1195.995
356.6817, 1128.802
357.1638, 1077.326
357.6460, 1037.117
358.1281, 1005.868
358.6102, 983.3036
359.0923, 965.6032
359.5744, 951.9743
360.0565, 941.8193
360.5387, 934.6035
361.0208, 930.6956
361.5029, 929.0427
361.9850, 929.6518
362.4671, 932.2419
362.9492, 935.9752
363.4314, 941.4616
363.9135, 947.3607
364.3956, 953.0342
364.8777, 958.5952
365.3598, 963.5004
365.8419, 967.7343
366.3241, 971.2379
366.8062, 973.8829
367.2883, 975.8804
367.7704, 976.7969
368.2526, 976.1816
368.7347, 973.6822
369.2168, 971.6432
369.6989, 970.1644
370.1810, 969.1044
370.6631, 968.3168
371.1453, 967.5672
371.6274, 967.4130
372.1095, 967.6786
372.5916, 968.5132
373.0737, 970.9725
373.5558, 975.8602
374.0380, 981.1995
374.5201, 986.3932
375.0022, 992.2354
375.4843, 995.0627
375.9664, 994.3617
376.4485, 990.9310
376.9307, 985.7462
377.4128, 978.2968
377.8949, 971.4872
378.3770, 967.2851
378.8591, 965.4587
379.3412, 960.3696
379.8234, 951.4474
380.3055, 941.4221
380.7876, 932.9300
381.2697, 925.9261
381.7518, 921.1057
382.2339, 919.6071
382.7161, 919.6771
383.1982, 916.7475
383.6803, 910.9456
384.1624, 905.1387
384.6445, 901.2532
385.1266, 899.0362
385.6088, 898.0731
386.0909, 898.5518
386.5730, 899.4854
387.0551, 899.9225
387.5372, 899.9093
388.0193, 899.5751
388.5015, 898.1407
388.9836, 896.8663
389.4657, 897.2099
389.9478, 899.2719
390.4299, 902.0336
390.9120, 905.4777
391.3942, 909.0101
391.8763, 911.8297
392.3584, 912.0515
392.8405, 913.0397
393.3226, 917.3895
393.8047, 924.3168
394.2869, 930.2263
394.7690, 933.5103
395.2511, 935.4896
395.7332, 937.0194
396.2154, 938.5729
396.6975, 938.9818
397.1796, 937.7308
397.6617, 935.2217
398.1438, 932.1725
398.6259, 930.2175
399.1081, 926.2198
399.5902, 918.9291
400.0723, 907.9313
400.5544, 896.4739
401.0365, 884.6242
401.5186, 872.1893
402.0008, 859.0765
402.4829, 844.6234
402.9650, 830.5324
403.4471, 816.8307
403.9292, 803.5756
404.4113, 791.2361
404.8935, 779.5344
405.3756, 769.1989
405.8577, 760.9053
406.3398, 755.0372
406.8219, 748.8322
407.3040, 741.9990
407.7862, 735.3362
408.2683, 729.6278
408.7504, 724.8614
409.2325, 721.7255
409.7146, 720.8412
410.1967, 721.7051
410.6789, 722.4244
411.1610, 722.9708
411.6431, 724.3022
412.1252, 727.5362
412.6073, 732.2236
413.0894, 736.9647
413.5716, 741.1202
414.0537, 745.8235
414.5358, 752.3057
415.0179, 760.4063
415.5000, 769.8487
415.9821, 780.9942
416.4643, 792.9887
416.9464, 805.5715
417.4285, 818.7764
417.9106, 830.3342
418.3927, 838.5343
418.8748, 844.3451
419.3570, 848.7787
419.8391, 853.4449
420.3212, 855.6470
420.8033, 853.6390
421.2854, 847.9862
421.7675, 841.3608
422.2497, 834.5114
422.7318, 826.9764
423.2139, 818.5049
423.6960, 808.7625
424.1781, 798.8406
424.6602, 788.3032
425.1424, 777.8476
425.6245, 768.6384
426.1066, 762.0060
426.5887, 755.0803
427.0709, 747.2756
427.5530, 738.5867
428.0351, 729.9070
428.5172, 721.2783
428.9993, 712.4451
429.4814, 703.3598
429.9636, 694.2911
430.4457, 683.7247
430.9278, 670.9945
431.4099, 657.2324
431.8920, 645.0956
432.3741, 634.6752
432.8563, 624.3181
433.3384, 612.6763
433.8205, 600.1613
434.3026, 590.2774
434.7847, 583.1859
435.2668, 577.0148
435.7490, 569.3705
436.2311, 560.9094
436.7132, 554.3181
437.1953, 550.6870
437.6774, 548.6789
438.1595, 546.6857
438.6417, 544.7501
439.1238, 543.0469
439.6059, 541.7524
440.0880, 540.7119
440.5701, 539.7185
441.0522, 538.7154
441.5344, 538.0037
442.0165, 538.0708
442.4986, 538.4416
442.9807, 538.5331
443.4628, 537.8761
443.9449, 537.1739
444.4271, 536.9330
444.9092, 536.9879
445.3913, 536.3888
445.8734, 534.1721
446.3555, 531.8109
446.8376, 530.1839
447.3198, 530.4651
447.8019, 529.2337
448.2840, 526.0581
448.7661, 521.5201
449.2482, 516.4403
449.7303, 511.2205
450.2125, 504.8587
450.6946, 497.0709
451.1767, 487.8531
451.6588, 477.9645
452.1409, 467.8146
452.6230, 455.8890
453.1052, 440.8580
453.5873, 422.3756
454.0694, 403.6597
454.5515, 385.0870
455.0337, 366.1837
455.5158, 346.0918
455.9979, 324.7818
456.4800, 304.4415
456.9621, 285.2903
457.4442, 267.7635
457.9264, 252.8784
458.4085, 240.6496
458.8906, 230.0254
459.3727, 220.1807
459.8548, 211.4826
460.3369, 204.9319
460.8191, 201.2059
461.3012, 198.3635
461.7833, 194.6924
462.2654, 190.7405
462.7475, 187.6574
463.2296, 186.6482
463.7118, 186.0254
464.1939, 184.6538
464.6760, 182.4361
465.1581, 180.8860
465.6402, 181.3003
466.1223, 182.0618
466.6045, 182.0283
467.0866, 180.0390
467.5687, 178.4923
468.0508, 177.5816
468.5329, 177.1821
469.0150, 177.0524
469.4972, 177.4511
469.9793, 177.7363
470.4614, 177.7499
470.9435, 177.4967
471.4256, 176.7760
471.9077, 175.2884
472.3899, 173.9361
472.8720, 173.6025
473.3541, 174.3650
473.8362, 175.2857
474.3183, 176.3514
474.8004, 177.3385
475.2826, 177.7598
475.7647, 177.6406
476.2468, 177.3460
476.7289, 176.9768
477.2110, 176.5764
477.6931, 176.0691
478.1753, 175.4541
478.6574, 175.3459
479.1395, 176.7543
479.6216, 178.8520
480.1037, 180.4309
480.5858, 181.1419
481.0680, 181.3470
481.5501, 180.9911
482.0322, 180.3277
482.5143, 179.8870
482.9964, 180.0828
483.4786, 180.3740
483.9607, 180.5350
484.4428, 180.5467
484.9249, 180.4627
485.4070, 180.1289
485.8892, 179.8078
486.3713, 179.6849
486.8534, 179.7218
487.3355, 180.0245
487.8176, 180.7532
488.2997, 181.6945
488.7819, 182.4491
489.2640, 183.0942
489.7461, 183.3461
490.2282, 182.9236
490.7103, 181.8940
491.1924, 181.5761
491.6746, 182.0787
492.1567, 182.8250
492.6388, 183.4158
493.1209, 183.8450
493.6030, 183.9041
494.0851, 183.4243
494.5673, 182.9645
495.0494, 183.5908
495.5315, 184.9997
496.0136, 186.0735
496.4957, 186.1006
496.9778, 185.6420
497.4600, 185.1619
497.9421, 184.6973
498.4242, 184.5173
498.9063, 184.9761
499.3884, 185.6789
499.8705, 186.2177
500.3527, 186.2583
500.8348, 186.7654
501.3169, 188.6528
501.7990, 191.0466
502.2811, 192.7266
502.7632, 192.8263
503.2454, 192.8691
503.7275, 193.0926
504.2096, 193.5060
504.6917, 194.2380
505.1738, 195.4559
505.6559, 196.7553
506.1381, 197.8706
506.6202, 198.6762
507.1023, 199.8598
507.5844, 201.5278
508.0665, 203.3822
508.5486, 204.9661
509.0308, 206.2775
509.5129, 207.7190
509.9950, 209.5416
510.4771, 211.4181
510.9592, 212.4627
511.4413, 212.7646
511.9235, 213.2528
512.4056, 214.6013
512.8877, 216.4661
513.3698, 218.4959
513.8519, 220.6893
514.3340, 222.6066
514.8162, 223.9411
515.2983, 224.8098
515.7804, 225.3445
516.2625, 225.4439
516.7446, 225.4018
517.2267, 225.2807
517.7089, 225.1087
518.1910, 224.9512
518.6731, 225.1690
519.1552, 225.0838
519.6373, 224.3851
520.1194, 223.0238
520.6016, 221.6642
521.0837, 220.6328
521.5658, 219.2561
522.0479, 216.8608
522.5300, 212.9940
523.0121, 209.9223
523.4943, 208.0695
523.9764, 206.7073
524.4585, 204.4189
524.9406, 201.2199
525.4227, 198.1389
525.9048, 195.5849
526.3870, 193.3977
526.8691, 191.1924
527.3513, 188.9520
527.8334, 186.5771
528.3155, 183.6868
528.7976, 180.7001
529.2797, 178.2536
529.7618, 176.4588
530.2440, 174.8951
530.7261, 173.2638
531.2082, 171.6965
531.6903, 170.3915
532.1724, 169.8084
532.6545, 169.0603
533.1367, 167.6225
533.6188, 165.7395
534.1009, 164.2346
534.5830, 163.5565
535.0651, 162.9820
535.5472, 162.3789
536.0294, 161.8020
536.5115, 160.6813
536.9936, 158.6193
537.4757, 156.5705
537.9578, 155.4470
538.4399, 155.4291
538.9221, 155.0333
539.4042, 153.8822
539.8863, 152.6775
540.3684, 153.0474
540.8505, 154.8219
541.3326, 155.9470
541.8148, 155.1981
542.2969, 153.5209
542.7790, 152.3285
543.2611, 151.6487
543.7432, 151.6350
544.2253, 153.2331
544.7075, 155.1032
545.1896, 155.6978
545.6717, 154.5912
546.1538, 153.4473
546.6359, 152.9096
547.1180, 152.8300
547.6002, 153.0603
548.0823, 154.0735
548.5644, 154.8097
549.0465, 154.5992
549.5286, 153.9549
550.0107, 154.4686
550.4929, 157.4245
550.9750, 159.5723
551.4571, 159.5104
551.9392, 157.2200
552.4213, 156.3127
552.9034, 157.0839
553.3856, 158.2854
553.8677, 158.9155
554.3498, 159.0280
554.8319, 159.3030
555.3140, 159.8428
555.7961, 160.4263
556.2783, 160.7754
556.7604, 160.9330
557.2425, 160.9970
557.7246, 160.8310
558.2067, 160.7713
558.6888, 161.1871
559.1710, 161.9960
559.6531, 162.9178
560.1352, 164.1462
560.6173, 165.1812
561.0994, 165.5567
561.5815, 165.1293
562.0637, 165.0515
562.5458, 165.6351
563.0279, 166.5971
563.5100, 167.7532
563.9921, 169.4249
564.4742, 170.6990
564.9564, 171.3837
565.4385, 171.7908
565.9206, 172.4873
566.4027, 173.5541
566.8848, 174.4651
567.3669, 175.0625
567.8491, 175.3932
568.3312, 175.3849
568.8133, 175.0625
569.2954, 175.1369
569.7775, 176.4238
570.2596, 178.3198
570.7418, 179.6507
571.2239, 180.3459
571.7060, 180.9624
572.1881, 181.9439
572.6702, 183.0691
573.1523, 184.0928
573.6345, 184.8472
574.1166, 185.6703
574.5987, 186.6938
575.0808, 187.8550
575.5629, 189.0706
576.0450, 190.4974
576.5272, 191.7452
577.0093, 192.5695
577.4914, 193.0822
577.9735, 194.1538
578.4556, 196.1557
578.9377, 197.9322
579.4199, 198.7755
579.9020, 198.6524
580.3841, 199.0343
580.8662, 199.9668
581.3483, 201.1554
581.8304, 202.1423
582.3126, 203.1109
582.7947, 204.8727
583.2768, 207.8571
583.7589, 210.8149
584.2410, 212.0468
584.7231, 212.3024
585.2053, 213.0659
585.6874, 215.1548
586.1696, 217.7349
586.6517, 220.8853
587.1338, 224.3039
587.6159, 226.7089
588.0980, 226.0693
588.5801, 225.8477
589.0623, 227.8806
589.5444, 232.6531
590.0265, 236.3130
590.5086, 238.1779
590.9907, 239.8035
591.4728, 242.4529
591.9550, 246.2677
592.4371, 250.1411
592.9192, 254.0488
593.4013, 257.7860
593.8834, 260.7267
594.3655, 263.0647
594.8477, 266.0691
595.3298, 270.4016
595.8119, 275.2307
596.2940, 279.2696
596.7761, 282.7771
597.2582, 286.7460
597.7404, 291.9910
598.2225, 297.6463
598.7046, 303.0555
599.1867, 308.1629
599.6688, 313.6454
600.1509, 320.0208
600.6331, 326.6642
601.1152, 333.1442
601.5973, 339.5117
602.0794, 345.6528
602.5615, 351.3177
603.0436, 356.9443
603.5258, 363.0240
604.0079, 369.6614
604.4900, 376.0938
604.9721, 382.1421
605.4542, 387.9069
605.9363, 393.6440
606.4185, 399.2712
606.9006, 404.4858
607.3827, 408.9453
607.8648, 412.9390
608.3469, 416.9431
608.8290, 420.8719
609.3112, 424.0171
609.7933, 425.5633
610.2754, 426.4805
610.7575, 427.4376
611.2396, 428.4759
611.7217, 429.6589
612.2039, 431.1595
612.6860, 432.6862
613.1681, 434.0539
613.6502, 435.5385
614.1323, 436.4017
614.6144, 436.8710
615.0966, 436.4958
615.5787, 434.4640
616.0608, 430.6045
616.5429, 426.3593
617.0250, 422.4778
617.5071, 417.9535
617.9893, 410.3981
618.4714, 399.9770
618.9535, 388.3784
619.4356, 375.3504
619.9177, 362.0429
620.3998, 349.6510
620.8820, 338.2088
621.3641, 327.8467
621.8462, 318.5164
622.3283, 310.2133
622.8104, 302.9425
623.2925, 296.5709
623.7747, 291.5326
624.2568, 287.6152
624.7389, 285.2852
625.2210, 285.0309
625.7031, 287.8344
626.1852, 290.5162
