##NAMES=Sphalerite
##RRUFFID=R040136
##IDEAL CHEMISTRY=Zn^2+^S^2-^
##LOCALITY=Hilltop mine, Paradise, Cochise County, Arizona, USA
##OWNER=RRUFF
##SOURCE=University of Arizona Mineral Museum
##DESCRIPTION=Olive green fragments
##STATUS=The identification of this mineral has been confirmed by X-ray diffraction and chemical analysis
##URL=rruff.info/R040136
##MEASURED CHEMISTRY=Zn_0.98_S
163.6432, 8032.250
164.1253, 8123.104
164.6075, 8225.610
165.0896, 8339.913
165.5717, 8451.083
166.0538, 8547.446
166.5359, 8636.068
167.0180, 8727.268
167.5002, 8831.063
167.9823, 8936.258
168.4644, 9031.638
168.9465, 9114.458
169.4286, 9200.878
169.9107, 9309.537
170.3929, 9430.363
170.8750, 9545.018
171.3571, 9637.330
171.8392, 9720.308
172.3213, 9805.799
172.8034, 9892.872
173.2856, 9987.479
173.7677, 10099.30
174.2498, 10224.94
174.7319, 10350.52
175.2140, 10475.73
175.6961, 10594.00
176.1783, 10695.47
176.6604, 10778.51
177.1425, 10841.88
177.6246, 10894.51
178.1067, 10931.57
178.5888, 10924.66
179.0710, 10845.80
179.5531, 10708.13
180.0352, 10536.95
180.5173, 10329.65
180.9994, 10102.17
181.4815, 9874.150
181.9637, 9644.378
182.4458, 9437.122
182.9279, 9276.542
183.4100, 9155.524
183.8921, 9044.227
184.3742, 8933.419
184.8564, 8826.887
185.3385, 8741.036
185.8206, 8676.573
186.3027, 8615.253
186.7848, 8524.958
187.2669, 8412.794
187.7491, 8330.122
188.2312, 8309.404
188.7133, 8332.763
189.1954, 8332.098
189.6775, 8303.979
190.1596, 8267.060
190.6418, 8243.555
191.1239, 8233.279
191.6060, 8223.709
192.0881, 8211.466
192.5702, 8196.278
193.0524, 8174.736
193.5345, 8145.701
194.0166, 8113.450
194.4987, 8084.431
194.9808, 8058.719
195.4629, 8035.004
195.9451, 8012.056
196.4272, 7989.655
196.9093, 7972.286
197.3914, 7959.312
197.8735, 7952.592
198.3556, 7954.671
198.8378, 7965.069
199.3199, 7986.813
199.8020, 8026.648
200.2841, 8086.017
200.7662, 8134.669
201.2483, 8165.740
201.7305, 8189.834
202.2126, 8232.167
202.6947, 8293.754
203.1768, 8369.809
203.6589, 8460.129
204.1410, 8565.387
204.6232, 8672.978
205.1053, 8777.998
205.5874, 8886.255
206.0695, 9018.674
206.5516, 9179.465
207.0337, 9353.378
207.5159, 9529.842
207.9980, 9702.327
208.4801, 9892.741
208.9622, 10105.20
209.4443, 10337.47
209.9264, 10578.55
210.4086, 10827.68
210.8907, 11088.33
211.3728, 11364.28
211.8549, 11666.12
212.3370, 11954.57
212.8191, 12223.59
213.3013, 12473.55
213.7834, 12733.90
214.2655, 13022.51
214.7476, 13293.72
215.2297, 13506.55
215.7118, 13658.26
216.1940, 13765.31
216.6761, 13835.00
217.1582, 13866.63
217.6403, 13829.75
218.1224, 13719.49
218.6045, 13548.21
219.0867, 13322.77
219.5688, 13035.40
220.0509, 12713.55
220.5330, 12358.34
221.0151, 11963.94
221.4972, 11596.19
221.9794, 11256.28
222.4615, 10938.11
222.9436, 10629.64
223.4257, 10323.89
223.9078, 10039.05
224.3899, 9784.658
224.8721, 9558.796
225.3542, 9343.385
225.8363, 9133.041
226.3184, 8936.429
226.8005, 8760.774
227.2827, 8611.050
227.7648, 8475.129
228.2469, 8349.134
228.7290, 8232.335
229.2111, 8134.528
229.6932, 8060.274
230.1754, 8002.445
230.6575, 7951.660
231.1396, 7909.701
231.6217, 7872.379
232.1038, 7839.234
232.5859, 7810.982
233.0681, 7782.998
233.5502, 7754.582
234.0323, 7727.044
234.5144, 7705.210
234.9965, 7706.020
235.4786, 7684.217
235.9608, 7628.131
236.4429, 7539.757
236.9250, 7412.158
237.4071, 7240.503
237.8892, 7033.243
238.3713, 6801.360
238.8535, 6535.496
239.3356, 6260.302
239.8177, 5979.270
240.2998, 5684.158
240.7819, 5412.048
241.2640, 5156.626
241.7462, 4923.479
242.2283, 4721.461
242.7104, 4558.537
243.1925, 4413.658
243.6746, 4279.690
244.1567, 4153.946
244.6389, 4047.801
245.1210, 3966.970
245.6031, 3902.440
246.0852, 3839.493
246.5673, 3777.653
247.0494, 3718.191
247.5316, 3661.264
248.0137, 3606.267
248.4958, 3556.063
248.9779, 3513.339
249.4600, 3474.151
249.9421, 3430.781
250.4243, 3375.995
250.9064, 3329.517
251.3885, 3301.551
251.8706, 3301.245
252.3527, 3286.863
252.8348, 3248.887
253.3170, 3202.788
253.7991, 3179.513
254.2812, 3188.552
254.7633, 3202.703
255.2454, 3212.741
255.7275, 3218.187
256.2097, 3219.628
256.6918, 3211.459
257.1739, 3203.105
257.6560, 3214.146
258.1381, 3253.672
258.6202, 3293.908
259.1024, 3322.642
259.5845, 3333.856
260.0666, 3357.735
260.5487, 3397.300
261.0308, 3447.225
261.5129, 3499.272
261.9951, 3551.221
262.4772, 3609.607
262.9593, 3677.726
263.4414, 3758.752
263.9235, 3835.555
264.4056, 3903.473
264.8878, 3972.490
265.3699, 4061.434
265.8520, 4173.136
266.3341, 4298.896
266.8162, 4438.342
267.2983, 4591.432
267.7805, 4750.874
268.2626, 4915.778
268.7447, 5086.662
269.2268, 5267.728
269.7089, 5463.756
270.1910, 5652.277
270.6732, 5831.248
271.1553, 6001.999
271.6374, 6142.047
272.1195, 6253.377
272.6016, 6331.251
273.0837, 6364.114
273.5659, 6350.475
274.0480, 6301.493
274.5301, 6215.270
275.0122, 6091.102
275.4943, 5956.447
275.9764, 5810.007
276.4586, 5655.518
276.9407, 5493.811
277.4228, 5325.142
277.9049, 5164.327
278.3870, 5017.809
278.8691, 4885.503
279.3513, 4766.909
279.8334, 4663.781
280.3155, 4569.854
280.7976, 4475.369
281.2798, 4380.763
281.7619, 4294.283
282.2440, 4220.241
282.7261, 4157.644
283.2082, 4095.851
283.6903, 4031.916
284.1725, 3979.644
284.6546, 3964.227
285.1367, 3984.259
285.6188, 3998.878
286.1009, 3986.940
286.5830, 3957.261
287.0652, 3950.202
287.5473, 3968.232
288.0294, 3994.486
288.5115, 4007.031
288.9936, 4008.626
289.4757, 4021.449
289.9579, 4057.422
290.4400, 4108.844
290.9221, 4150.684
291.4042, 4181.305
291.8863, 4222.802
292.3684, 4308.119
292.8506, 4427.001
293.3327, 4534.652
293.8148, 4604.878
294.2969, 4662.802
294.7790, 4762.877
295.2611, 4905.701
295.7433, 5060.772
296.2254, 5217.095
296.7075, 5368.677
297.1896, 5493.126
297.6717, 5583.530
298.1538, 5647.588
298.6360, 5700.660
299.1181, 5741.580
299.6002, 5750.979
300.0823, 5710.945
300.5644, 5629.323
301.0465, 5520.053
301.5287, 5383.539
302.0108, 5225.167
302.4929, 5039.277
302.9750, 4830.582
303.4571, 4636.651
303.9392, 4479.214
304.4214, 4351.298
304.9035, 4242.301
305.3856, 4159.471
305.8677, 4083.374
306.3498, 3994.558
306.8319, 3898.559
307.3141, 3813.026
307.7962, 3761.342
308.2783, 3720.406
308.7604, 3664.733
309.2425, 3583.179
309.7246, 3502.171
310.2068, 3440.880
310.6889, 3393.406
311.1710, 3343.692
311.6531, 3294.638
312.1352, 3233.810
312.6173, 3150.278
313.0995, 3038.411
313.5816, 2918.145
314.0637, 2783.632
314.5458, 2647.525
315.0279, 2532.420
315.5100, 2452.579
315.9922, 2391.797
316.4743, 2341.445
316.9564, 2299.532
317.4385, 2272.173
317.9206, 2268.787
318.4027, 2279.489
318.8849, 2290.466
319.3670, 2291.250
319.8491, 2297.632
320.3312, 2317.061
320.8133, 2352.169
321.2954, 2388.040
321.7776, 2415.676
322.2597, 2445.189
322.7418, 2487.358
323.2239, 2541.745
323.7060, 2610.912
324.1881, 2696.727
324.6703, 2799.744
325.1524, 2913.252
325.6345, 3041.979
326.1166, 3177.057
326.5987, 3312.632
327.0808, 3456.144
327.5630, 3591.032
328.0451, 3708.748
328.5272, 3810.731
329.0093, 3930.847
329.4914, 4089.002
329.9735, 4244.420
330.4557, 4371.370
330.9378, 4472.815
331.4199, 4540.494
331.9020, 4572.402
332.3841, 4570.203
332.8662, 4539.076
333.3484, 4467.498
333.8305, 4384.928
334.3126, 4303.484
334.7947, 4218.963
335.2768, 4151.371
335.7589, 4104.005
336.2411, 4072.987
336.7232, 4047.742
337.2053, 4028.237
337.6874, 4015.180
338.1695, 4005.234
338.6516, 3996.118
339.1338, 4013.999
339.6159, 4066.022
340.0980, 4134.309
340.5801, 4180.848
341.0622, 4201.692
341.5443, 4243.519
342.0265, 4330.501
342.5086, 4458.228
342.9907, 4588.515
343.4728, 4715.340
343.9549, 4864.160
344.4370, 5050.797
344.9192, 5277.139
345.4013, 5573.897
345.8834, 5922.559
346.3655, 6353.917
346.8476, 6939.335
347.3297, 7676.374
347.8119, 8545.761
348.2940, 9733.909
348.7761, 11065.12
349.2582, 12001.52
349.7403, 12427.51
350.2225, 12378.70
350.7046, 11745.63
351.1867, 10584.33
351.6688, 9370.446
352.1509, 8361.654
352.6331, 7538.360
353.1152, 6878.828
353.5973, 6399.190
354.0794, 6042.653
354.5615, 5786.970
355.0436, 5618.817
355.5258, 5497.622
356.0079, 5414.052
356.4900, 5360.514
356.9721, 5333.783
357.4542, 5338.048
357.9363, 5353.263
358.4185, 5372.759
358.9006, 5395.128
359.3827, 5417.929
359.8648, 5431.461
360.3469, 5452.119
360.8290, 5492.352
361.3112, 5556.544
361.7933, 5616.587
362.2754, 5663.360
362.7575, 5701.925
363.2396, 5737.933
363.7217, 5762.583
364.2039, 5794.361
364.6860, 5841.971
365.1681, 5905.874
365.6502, 5964.063
366.1323, 6016.219
366.6144, 6061.054
367.0966, 6097.627
367.5787, 6109.735
368.0608, 6133.105
368.5429, 6174.204
369.0250, 6229.867
369.5071, 6283.033
369.9893, 6334.234
370.4714, 6382.110
370.9535, 6426.978
371.4356, 6472.716
371.9177, 6504.628
372.3998, 6516.788
372.8820, 6517.988
373.3641, 6525.333
373.8462, 6535.691
374.3283, 6560.421
374.8104, 6610.044
375.2925, 6688.725
375.7747, 6746.482
376.2568, 6779.439
376.7389, 6800.154
377.2210, 6822.021
377.7031, 6844.628
378.1852, 6874.867
378.6674, 6919.304
379.1495, 6972.863
379.6316, 7013.024
380.1137, 7037.979
380.5958, 7062.880
381.0779, 7101.905
381.5601, 7153.424
382.0422, 7206.632
382.5243, 7261.386
383.0064, 7315.277
383.4885, 7361.541
383.9706, 7401.969
384.4528, 7446.481
384.9349, 7508.880
385.4170, 7578.388
385.8991, 7635.478
386.3812, 7673.077
386.8633, 7713.538
387.3455, 7784.437
387.8276, 7874.347
388.3097, 7958.405
388.7918, 8013.068
389.2739, 8062.990
389.7560, 8130.044
390.2382, 8217.301
390.7203, 8304.715
391.2024, 8379.492
391.6845, 8448.826
392.1666, 8521.995
392.6487, 8608.837
393.1309, 8693.200
393.6130, 8769.724
394.0951, 8838.486
394.5772, 8897.976
395.0593, 8946.020
395.5414, 8985.911
396.0236, 9019.212
396.5057, 9048.252
396.9878, 9068.310
397.4699, 9093.026
397.9520, 9110.062
398.4341, 9080.780
398.9163, 8975.654
399.3984, 8854.731
399.8805, 8739.110
400.3626, 8633.542
400.8447, 8518.113
401.3268, 8384.441
401.8090, 8247.236
402.2911, 8124.742
402.7732, 8020.798
403.2553, 7923.871
403.7374, 7826.182
404.2195, 7729.482
404.7017, 7671.565
405.1838, 7662.615
405.6659, 7664.630
406.1480, 7640.937
406.6301, 7590.999
407.1122, 7544.652
407.5944, 7502.619
408.0765, 7471.983
408.5586, 7478.994
409.0407, 7522.903
409.5228, 7564.704
410.0049, 7564.162
410.4871, 7540.947
410.9692, 7553.297
411.4513, 7611.207
411.9334, 7688.664
412.4155, 7757.149
412.8976, 7822.269
413.3798, 7897.088
413.8619, 7982.957
414.3440, 8085.441
414.8261, 8215.783
415.3082, 8374.640
415.7903, 8541.788
416.2725, 8721.899
416.7546, 8897.523
417.2367, 9053.168
417.7188, 9189.639
418.2009, 9294.373
418.6830, 9360.198
419.1652, 9388.650
419.6473, 9382.685
420.1294, 9329.614
420.6115, 9252.840
421.0937, 9162.888
421.5758, 9060.328
422.0579, 8949.872
422.5400, 8822.567
423.0221, 8689.524
423.5042, 8566.409
423.9864, 8466.935
424.4685, 8363.855
424.9506, 8246.266
425.4327, 8113.626
425.9148, 7994.552
426.3969, 7898.145
426.8791, 7804.986
427.3612, 7700.320
427.8433, 7584.005
428.3254, 7456.873
428.8075, 7316.421
429.2896, 7166.464
429.7718, 7023.236
430.2539, 6887.512
430.7360, 6753.035
431.2181, 6618.943
431.7002, 6484.920
432.1823, 6343.647
432.6645, 6191.910
433.1466, 6041.874
433.6287, 5911.354
434.1108, 5798.831
434.5929, 5696.540
435.0750, 5602.386
435.5572, 5517.122
436.0393, 5439.722
436.5214, 5370.534
437.0035, 5316.683
437.4856, 5290.394
437.9677, 5281.428
438.4499, 5275.618
438.9320, 5267.451
439.4141, 5264.881
439.8962, 5277.826
440.3783, 5301.166
440.8604, 5322.091
441.3426, 5330.206
441.8247, 5337.627
442.3068, 5354.944
442.7889, 5388.302
443.2710, 5407.269
443.7531, 5391.652
444.2353, 5362.199
444.7174, 5341.578
445.1995, 5345.271
445.6816, 5344.783
446.1637, 5333.826
446.6458, 5313.500
447.1280, 5294.708
447.6101, 5283.548
448.0922, 5267.078
448.5743, 5239.825
449.0564, 5204.781
449.5385, 5149.202
450.0207, 5069.688
450.5028, 4972.723
450.9849, 4872.792
451.4670, 4773.904
451.9491, 4656.541
452.4312, 4512.340
452.9134, 4342.890
453.3955, 4154.961
453.8776, 3948.660
454.3597, 3728.487
454.8418, 3492.264
455.3239, 3244.508
455.8061, 3011.234
456.2882, 2788.841
456.7703, 2593.604
457.2524, 2455.945
457.7345, 2368.019
458.2166, 2295.013
458.6988, 2214.921
459.1809, 2140.572
459.6630, 2090.413
460.1451, 2068.380
460.6272, 2051.101
461.1093, 2022.290
461.5915, 1990.131
462.0736, 1965.404
462.5557, 1957.130
463.0378, 1951.481
463.5199, 1943.434
464.0020, 1933.461
464.4842, 1925.475
464.9663, 1924.899
465.4484, 1923.181
465.9305, 1915.310
466.4126, 1894.162
466.8947, 1878.844
467.3769, 1869.608
467.8590, 1866.091
468.3411, 1868.708
468.8232, 1881.961
469.3053, 1892.135
469.7874, 1893.879
470.2696, 1887.969
470.7517, 1890.282
471.2338, 1903.425
471.7159, 1916.736
472.1980, 1919.407
472.6801, 1911.743
473.1623, 1907.737
473.6444, 1910.805
474.1265, 1915.490
474.6086, 1908.668
475.0907, 1892.818
475.5728, 1883.975
476.0550, 1896.603
476.5371, 1919.615
477.0192, 1933.723
477.5013, 1938.222
477.9834, 1943.781
478.4655, 1965.246
478.9477, 1990.709
479.4298, 2003.854
479.9119, 1991.513
480.3940, 1976.524
480.8761, 1968.604
481.3582, 1967.131
481.8404, 1970.525
482.3225, 1988.273
482.8046, 2002.523
483.2867, 2002.365
483.7688, 1979.712
484.2509, 1967.613
484.7331, 1975.897
485.2152, 1992.391
485.6973, 2006.527
486.1794, 2019.701
486.6615, 2027.961
487.1436, 2029.600
487.6258, 2025.899
488.1079, 2022.168
488.5900, 2017.400
489.0721, 2015.499
489.5542, 2019.646
490.0363, 2029.909
490.5185, 2039.014
491.0006, 2046.588
491.4827, 2053.383
491.9648, 2061.390
492.4470, 2069.893
492.9291, 2074.534
493.4112, 2072.249
493.8933, 2066.571
494.3754, 2061.801
494.8575, 2058.076
495.3397, 2056.541
495.8218, 2061.705
496.3039, 2067.607
496.7860, 2065.857
497.2681, 2052.195
497.7502, 2042.846
498.2324, 2049.928
498.7145, 2065.470
499.1966, 2078.777
499.6787, 2082.211
500.1608, 2087.370
500.6429, 2100.472
501.1251, 2120.699
501.6072, 2134.023
502.0893, 2128.530
502.5714, 2125.805
503.0535, 2137.669
503.5356, 2175.959
504.0178, 2199.548
504.4999, 2202.141
504.9820, 2195.522
505.4641, 2196.389
505.9462, 2204.762
506.4283, 2221.213
506.9105, 2250.353
507.3926, 2286.619
507.8747, 2303.893
508.3568, 2301.098
508.8389, 2300.276
509.3210, 2322.895
509.8032, 2360.238
510.2853, 2388.745
510.7674, 2405.149
511.2495, 2414.083
511.7316, 2413.103
512.2137, 2408.541
512.6959, 2413.202
513.1780, 2441.791
513.6601, 2473.596
514.1422, 2496.563
514.6243, 2511.054
515.1064, 2520.784
515.5886, 2520.493
516.0707, 2520.619
516.5528, 2529.334
517.0349, 2558.924
517.5170, 2573.694
517.9991, 2560.511
518.4813, 2534.392
518.9634, 2513.832
519.4455, 2501.787
519.9276, 2490.376
520.4097, 2478.728
520.8918, 2466.693
521.3740, 2452.276
521.8561, 2435.972
522.3382, 2415.646
522.8203, 2389.135
523.3024, 2356.897
523.7845, 2321.009
524.2667, 2279.592
524.7488, 2241.438
525.2309, 2219.474
525.7130, 2209.492
526.1951, 2197.154
526.6772, 2175.000
527.1594, 2150.186
527.6415, 2133.234
528.1236, 2122.016
528.6057, 2106.673
529.0878, 2075.718
529.5699, 2042.491
530.0521, 2018.187
530.5342, 2005.939
531.0163, 1993.782
531.4984, 1974.069
531.9805, 1954.000
532.4626, 1941.127
532.9448, 1944.241
533.4269, 1945.398
533.9090, 1943.465
534.3911, 1938.221
534.8732, 1927.979
535.3553, 1908.367
535.8375, 1891.717
536.3196, 1883.998
536.8017, 1885.472
537.2838, 1888.588
537.7659, 1893.984
538.2480, 1899.008
538.7302, 1901.519
539.2123, 1901.416
539.6944, 1896.645
540.1765, 1883.808
540.6586, 1871.543
541.1407, 1875.052
541.6229, 1890.250
542.1050, 1902.478
542.5871, 1903.247
543.0692, 1897.944
543.5513, 1887.913
544.0334, 1873.490
544.5156, 1865.933
544.9977, 1876.901
545.4798, 1893.247
545.9619, 1904.377
546.4440, 1903.424
546.9261, 1904.465
547.4083, 1912.223
547.8904, 1922.613
548.3725, 1927.874
548.8546, 1923.748
549.3367, 1921.289
549.8188, 1921.599
550.3010, 1925.202
550.7831, 1941.709
551.2652, 1976.319
551.7473, 2006.550
552.2294, 2011.116
552.7115, 1993.288
553.1937, 1986.903
553.6758, 1996.421
554.1579, 2009.978
554.6400, 2013.644
555.1221, 2009.494
555.6042, 2002.998
556.0864, 1990.507
556.5685, 1982.123
557.0506, 1990.563
557.5327, 2012.241
558.0148, 2033.804
558.4969, 2051.726
558.9791, 2065.326
559.4612, 2073.465
559.9433, 2075.302
560.4254, 2075.474
560.9075, 2069.809
561.3896, 2065.720
561.8718, 2069.667
562.3539, 2086.320
562.8360, 2103.371
563.3181, 2120.792
563.8002, 2137.496
564.2823, 2151.299
564.7645, 2162.136
565.2466, 2169.561
565.7287, 2170.512
566.2108, 2167.627
566.6929, 2176.174
567.1750, 2196.570
567.6572, 2217.438
568.1393, 2229.740
568.6214, 2235.319
569.1035, 2235.192
569.5856, 2227.116
570.0677, 2223.360
570.5499, 2238.192
571.0320, 2263.212
571.5141, 2285.190
571.9962, 2294.961
572.4783, 2305.072
572.9604, 2321.597
573.4426, 2343.101
573.9247, 2362.348
574.4068, 2383.022
574.8889, 2396.316
575.3710, 2396.094
575.8531, 2377.854
576.3353, 2369.967
576.8174, 2374.810
577.2995, 2386.597
577.7816, 2401.079
578.2637, 2418.489
578.7458, 2435.641
579.2280, 2452.411
579.7101, 2468.115
580.1922, 2479.911
580.6743, 2488.795
581.1564, 2500.377
581.6385, 2519.091
582.1207, 2541.015
582.6028, 2561.474
583.0849, 2580.333
583.5670, 2597.935
584.0491, 2609.743
584.5313, 2623.360
585.0134, 2645.847
585.4955, 2681.250
585.9776, 2715.432
586.4597, 2746.358
586.9418, 2773.408
587.4240, 2795.063
587.9061, 2803.088
588.3882, 2819.099
588.8703, 2848.086
589.3524, 2885.808
589.8345, 2920.627
590.3167, 2952.907
590.7988, 2980.698
591.2809, 2997.751
591.7630, 3008.600
592.2451, 3039.379
592.7272, 3090.786
593.2094, 3145.047
593.6915, 3187.420
594.1736, 3222.117
594.6557, 3256.208
595.1378, 3289.117
595.6199, 3325.981
596.1021, 3371.773
596.5842, 3423.485
597.0663, 3477.043
597.5485, 3528.762
598.0306, 3583.809
598.5127, 3644.450
598.9948, 3709.872
599.4769, 3777.323
599.9590, 3849.301
600.4412, 3921.003
600.9233, 3990.518
601.4054, 4058.168
601.8875, 4121.837
602.3696, 4177.219
602.8517, 4238.248
603.3339, 4320.517
603.8160, 4422.284
604.2981, 4511.000
604.7802, 4580.636
605.2623, 4642.425
605.7444, 4711.338
606.2266, 4783.767
606.7087, 4846.725
607.1908, 4893.993
607.6729, 4933.186
608.1550, 4968.847
608.6371, 5001.369
609.1193, 5033.269
609.6014, 5071.478
610.0835, 5103.931
610.5656, 5122.719
611.0477, 5125.718
611.5298, 5128.210
612.0120, 5128.224
612.4941, 5130.384
612.9762, 5139.131
613.4583, 5158.296
613.9404, 5171.788
614.4225, 5182.129
614.9047, 5180.774
615.3868, 5151.585
615.8689, 5096.031
616.3510, 5039.136
616.8331, 4997.229
617.3152, 4946.181
617.7974, 4839.603
618.2795, 4688.700
618.7616, 4532.038
619.2437, 4382.439
619.7258, 4242.282
620.2079, 4111.717
620.6901, 3991.421
621.1722, 3880.774
621.6543, 3762.030
622.1364, 3664.837
622.6185, 3612.665
623.1006, 3626.128
623.5828, 3639.413
624.0649, 3651.733
624.5470, 3664.596
625.0291, 3676.429
625.5112, 3683.445
625.9933, 3711.994
626.4755, 3771.931
626.9576, 3848.445
627.4397, 3906.934
627.9218, 3950.735
628.4039, 4005.308
628.8860, 4089.788
629.3682, 4189.157
629.8503, 4280.447
630.3324, 4365.718
630.8145, 4458.949
631.2966, 4573.227
631.7787, 4693.774
632.2609, 4811.032
632.7430, 4924.396
633.2251, 5032.292
633.7072, 5122.569
634.1893, 5213.354
634.6714, 5324.532
635.1536, 5485.685
635.6357, 5600.688
636.1178, 5653.643
636.5999, 5665.602
637.0820, 5671.936
637.5641, 5672.787
638.0463, 5663.508
638.5284, 5647.288
639.0105, 5615.898
639.4926, 5547.468
639.9747, 5445.474
640.4568, 5332.894
640.9390, 5224.148
641.4211, 5109.419
641.9032, 4979.991
642.3853, 4835.821
642.8674, 4678.194
643.3495, 4499.729
643.8317, 4313.666
644.3138, 4124.625
644.7959, 3917.469
645.2780, 3740.534
645.7601, 3597.498
646.2422, 3481.892
646.7244, 3386.789
647.2065, 3314.765
647.6886, 3252.806
648.1707, 3196.278
648.6528, 3153.148
649.1349, 3144.295
649.6171, 3166.317
650.0992, 3194.391
650.5813, 3211.435
651.0634, 3231.627
651.5455, 3273.746
652.0276, 3335.739
652.5098, 3404.636
652.9919, 3472.251
653.4740, 3545.696
653.9561, 3628.713
654.4382, 3721.465
654.9203, 3825.368
655.4025, 3946.318
655.8846, 4073.950
656.3667, 4199.575
656.8488, 4319.443
657.3309, 4450.192
657.8130, 4594.432
658.2952, 4747.453
658.7773, 4899.931
659.2594, 5054.113
659.7415, 5221.788
660.2236, 5408.032
660.7057, 5606.964
