##NAMES=Sphalerite
##RRUFFID=R060005
##IDEAL CHEMISTRY=Zn^2+^S^2-^
##LOCALITY=Trinacria mine, Lake Poopo, Oruro, Bolivia
##OWNER=RRUFF
##SOURCE=University of Arizona Mineral Museum
##DESCRIPTION=Steel gray crystal associated with franckeite R050431
##STATUS=The identification of this mineral has been confirmed by X-ray diffraction and chemical analysis
##URL=rruff.info/R060005
##MEASURED CHEMISTRY=Zn_0.82_Fe_0.18_S
129.5650, 81.51031
130.0471, 82.04335
130.5292, 82.33681
131.0113, 82.28560
131.4935, 81.97239
131.9756, 81.73804
132.4577, 81.67144
132.9398, 81.74344
133.4219, 81.90568
133.9040, 82.16605
134.3862, 82.44660
134.8683, 82.60842
135.3504, 82.65502
135.8325, 82.84637
136.3146, 83.29525
136.7967, 83.97616
137.2789, 84.72387
137.7610, 85.62226
138.2431, 86.41192
138.7252, 86.73643
139.2073, 86.54975
139.6894, 86.13862
140.1716, 85.49090
140.6537, 84.51656
141.1358, 83.98473
141.6179, 83.99979
142.1000, 84.33459
142.5821, 84.57304
143.0643, 84.69472
143.5464, 84.77222
144.0285, 84.80758
144.5106, 84.70827
144.9927, 84.82362
145.4748, 85.27455
145.9570, 85.91691
146.4391, 86.31225
146.9212, 86.37090
147.4033, 86.29984
147.8854, 86.18238
148.3675, 85.91835
148.8497, 85.76228
149.3318, 85.71175
149.8139, 85.76883
150.2960, 85.96304
150.7781, 86.46826
151.2602, 86.98054
151.7424, 87.33112
152.2245, 87.33253
152.7066, 87.38763
153.1887, 87.56483
153.6708, 87.84734
154.1529, 88.04860
154.6351, 88.21003
155.1172, 88.25832
155.5993, 88.14634
156.0814, 87.66964
156.5635, 87.23560
157.0456, 86.91584
157.5278, 86.71538
158.0099, 86.59064
158.4920, 86.48105
158.9741, 86.46535
159.4562, 86.61234
159.9383, 87.21517
160.4205, 87.73319
160.9026, 87.93986
161.3847, 87.80912
161.8668, 87.67992
162.3489, 87.67824
162.8310, 87.73923
163.3132, 87.78709
163.7953, 87.73856
164.2774, 87.71409
164.7595, 87.81035
165.2416, 88.05905
165.7237, 88.24165
166.2059, 88.17162
166.6880, 87.97833
167.1701, 87.85911
167.6522, 87.88203
168.1343, 88.01720
168.6164, 88.31390
169.0985, 88.84109
169.5807, 89.23191
170.0628, 89.14487
170.5449, 88.74889
171.0270, 88.37305
171.5091, 88.16481
171.9912, 88.06345
172.4734, 88.03803
172.9555, 88.11565
173.4376, 88.16708
173.9197, 88.04887
174.4018, 87.81047
174.8839, 87.58611
175.3661, 87.47150
175.8482, 87.41084
176.3303, 87.33266
176.8124, 87.22088
177.2945, 87.09879
177.7766, 86.98048
178.2588, 86.86801
178.7409, 86.77691
179.2230, 86.76406
179.7051, 86.77110
180.1872, 86.67794
180.6693, 86.43225
181.1515, 86.13620
181.6336, 85.92429
182.1157, 85.79034
182.5978, 85.69108
183.0799, 85.60306
183.5620, 85.52596
184.0442, 85.46213
184.5263, 85.41563
185.0084, 85.37642
185.4905, 85.35570
185.9726, 85.35007
186.4547, 85.27502
186.9369, 85.04129
187.4190, 84.67506
187.9011, 84.27943
188.3832, 83.82983
188.8653, 83.40180
189.3474, 83.20009
189.8296, 83.23068
190.3117, 83.29040
190.7938, 83.19597
191.2759, 82.96774
191.7580, 82.76126
192.2401, 82.60796
192.7223, 82.49913
193.2044, 82.39288
193.6865, 82.28096
194.1686, 82.22478
194.6507, 82.37210
195.1328, 82.70511
195.6150, 82.80545
196.0971, 82.48838
196.5792, 81.88189
197.0613, 81.47721
197.5434, 81.28492
198.0255, 81.23933
198.5077, 81.32997
198.9898, 81.56386
199.4719, 81.75307
199.9540, 81.85777
200.4361, 81.88228
200.9182, 81.83452
201.4004, 81.69861
201.8825, 81.54167
202.3646, 81.43567
202.8467, 81.38932
203.3288, 81.33106
203.8109, 81.22468
204.2931, 81.08507
204.7752, 81.01608
205.2573, 80.99169
205.7394, 81.09966
206.2215, 81.55588
206.7036, 82.48600
207.1858, 83.06442
207.6679, 82.97830
208.1500, 82.28404
208.6321, 81.87045
209.1142, 81.81249
209.5963, 81.89359
210.0785, 81.86425
210.5606, 81.66901
211.0427, 81.57868
211.5248, 81.70021
212.0069, 82.02640
212.4890, 82.21352
212.9712, 82.22102
213.4533, 82.15350
213.9354, 82.13159
214.4175, 82.18217
214.8996, 82.19500
215.3817, 82.12873
215.8639, 81.98346
216.3460, 81.88533
216.8281, 81.84776
217.3102, 81.83814
217.7923, 81.82087
218.2744, 81.79028
218.7565, 81.76791
219.2387, 81.78181
219.7208, 81.83570
220.2029, 81.75356
220.6850, 81.45661
221.1671, 81.11744
221.6492, 80.94027
222.1314, 80.99129
222.6135, 81.05116
223.0956, 81.08091
223.5777, 81.08191
224.0598, 81.02878
224.5419, 80.89199
225.0241, 80.73367
225.5062, 80.61577
225.9883, 80.54481
226.4704, 80.50777
226.9525, 80.54391
227.4346, 80.66427
227.9168, 80.56598
228.3989, 80.09184
228.8810, 79.56666
229.3631, 79.35167
229.8452, 79.60319
230.3273, 79.85623
230.8095, 80.03993
231.2916, 80.15603
231.7737, 80.15080
232.2558, 79.96329
232.7379, 79.71825
233.2200, 79.54874
233.7022, 79.51044
234.1843, 79.43658
234.6664, 79.26884
235.1485, 79.00623
235.6306, 78.84647
236.1127, 78.85155
236.5949, 78.89371
237.0770, 78.84306
237.5591, 78.62495
238.0412, 78.46046
238.5233, 78.41114
239.0054, 78.47693
239.4876, 78.48302
239.9697, 78.37639
240.4518, 78.26823
240.9339, 78.26823
241.4160, 78.45866
241.8981, 78.59451
242.3803, 78.62022
242.8624, 78.53925
243.3445, 78.47222
243.8266, 78.38905
244.3087, 78.35206
244.7908, 78.43182
245.2730, 78.73431
245.7551, 78.93157
246.2372, 78.91550
246.7193, 78.71192
247.2014, 78.70738
247.6835, 79.03957
248.1657, 79.40245
248.6478, 79.54960
249.1299, 79.37305
249.6120, 79.21364
250.0941, 79.09382
250.5762, 79.01904
251.0584, 79.04671
251.5405, 79.24364
252.0226, 79.45484
252.5047, 79.56780
252.9868, 79.54484
253.4689, 79.51624
253.9511, 79.48626
254.4332, 79.46114
254.9153, 79.47694
255.3974, 79.55842
255.8795, 79.64590
256.3616, 79.70564
256.8438, 79.74299
257.3259, 79.73723
257.8080, 79.65780
258.2901, 79.53633
258.7722, 79.48612
259.2543, 79.49219
259.7365, 79.59425
260.2186, 79.85403
260.7007, 80.37324
261.1828, 80.72372
261.6649, 80.83024
262.1470, 80.76714
262.6292, 80.75416
263.1113, 80.78969
263.5934, 80.87570
264.0755, 81.02880
264.5576, 81.28421
265.0397, 81.47092
265.5219, 81.54185
266.0040, 81.57108
266.4861, 81.75923
266.9682, 82.18121
267.4503, 82.57507
267.9324, 82.78941
268.4146, 82.76936
268.8967, 82.84875
269.3788, 83.04574
269.8609, 83.32628
270.3430, 83.61945
270.8251, 83.91337
271.3073, 84.25855
271.7894, 84.67651
272.2715, 85.17193
272.7536, 85.68304
273.2357, 86.20636
273.7178, 86.74055
274.2000, 87.29768
274.6821, 87.88097
275.1642, 88.45124
275.6463, 88.96208
276.1284, 89.41242
276.6105, 90.02946
277.0927, 90.85856
277.5748, 91.75489
278.0569, 92.50943
278.5390, 93.09362
279.0211, 93.75861
279.5032, 94.62986
279.9854, 95.66486
280.4675, 96.50021
280.9496, 97.07959
281.4317, 97.65114
281.9138, 98.50275
282.3959, 99.64442
282.8781, 100.8127
283.3602, 101.9493
283.8423, 103.0646
284.3244, 104.1370
284.8065, 105.1519
285.2886, 106.2463
285.7708, 107.6324
286.2529, 109.2868
286.7350, 110.7490
287.2171, 111.8235
287.6992, 112.7170
288.1813, 114.0116
288.6635, 115.7264
289.1456, 117.5533
289.6277, 119.2840
290.1098, 120.9317
290.5919, 122.5191
291.0740, 124.0412
291.5562, 125.5436
292.0383, 127.1440
292.5204, 128.8455
293.0025, 130.4230
293.4846, 131.7857
293.9667, 132.9277
294.4489, 133.8151
294.9310, 134.4195
295.4131, 134.8154
295.8952, 135.1093
296.3773, 135.2913
296.8594, 135.3023
297.3416, 135.1211
297.8237, 134.7453
298.3058, 134.1540
298.7879, 133.3308
299.2700, 132.3562
299.7521, 131.2956
300.2343, 130.1599
300.7164, 129.0368
301.1985, 127.9294
301.6806, 126.8565
302.1627, 125.8581
302.6448, 124.9249
303.1270, 124.0735
303.6091, 123.3915
304.0912, 122.7975
304.5733, 122.0908
305.0554, 121.0409
305.5375, 119.9236
306.0197, 119.0831
306.5018, 118.5103
306.9839, 117.9888
307.4660, 117.3745
307.9481, 116.7141
308.4302, 116.0740
308.9124, 115.4433
309.3945, 114.8638
309.8766, 114.3915
310.3587, 114.0077
310.8408, 113.6359
311.3229, 113.1484
311.8051, 112.6830
312.2872, 112.3964
312.7693, 112.3637
313.2514, 112.4444
313.7335, 112.5593
314.2156, 112.7227
314.6978, 112.9755
315.1799, 113.2786
315.6620, 113.7163
316.1441, 114.3823
316.6262, 115.3947
317.1083, 116.3600
317.5905, 117.1400
318.0726, 117.7537
318.5547, 118.2453
319.0368, 118.5989
319.5189, 118.8512
320.0010, 118.9828
320.4832, 118.9615
320.9653, 118.9903
321.4474, 119.2276
321.9295, 119.5128
322.4116, 119.6582
322.8937, 119.4825
323.3759, 119.3004
323.8580, 119.2426
324.3401, 119.3260
324.8222, 119.2866
325.3043, 119.1234
325.7864, 118.8049
326.2686, 118.3070
326.7507, 117.4936
327.2328, 116.6487
327.7149, 115.7901
328.1970, 114.9267
328.6791, 114.0704
329.1613, 113.2160
329.6434, 112.3793
330.1255, 111.5671
330.6076, 110.7259
331.0897, 109.9893
331.5718, 109.4394
332.0540, 108.9930
332.5361, 108.4037
333.0182, 107.5908
333.5003, 106.7314
333.9824, 105.8654
334.4645, 104.8919
334.9467, 104.2309
335.4288, 104.0532
335.9109, 104.0717
336.3930, 103.7939
336.8751, 103.0624
337.3572, 102.3985
337.8394, 101.9605
338.3215, 101.7606
338.8036, 101.6053
339.2857, 101.5260
339.7678, 101.4365
340.2499, 101.1923
340.7320, 100.7469
341.2141, 100.4539
341.6963, 100.4234
342.1784, 100.6049
342.6605, 100.7444
343.1426, 100.8111
343.6247, 100.9706
344.1068, 101.4218
344.5890, 102.1423
345.0711, 102.7543
345.5532, 103.1632
346.0353, 103.4803
346.5174, 103.9932
346.9995, 104.7008
347.4817, 105.2628
347.9638, 105.4509
348.4459, 105.3227
348.9280, 105.0977
349.4101, 104.8081
349.8922, 104.3639
350.3744, 103.6199
350.8565, 102.6197
351.3386, 101.5074
351.8207, 100.4061
352.3028, 99.22982
352.7849, 97.62854
353.2671, 95.57613
353.7492, 93.81900
354.2313, 93.39259
354.7134, 93.65292
355.1955, 93.43987
355.6776, 91.99026
356.1598, 90.26765
356.6419, 89.12574
357.1240, 88.49776
357.6061, 88.02522
358.0882, 87.59904
358.5703, 87.16982
359.0525, 86.69275
359.5346, 86.14854
360.0167, 85.57049
360.4988, 84.90779
360.9809, 84.22555
361.4630, 83.67490
361.9452, 83.45377
362.4273, 83.27767
362.9094, 82.94389
363.3915, 82.36530
363.8736, 81.93021
364.3557, 81.92780
364.8379, 82.08524
365.3200, 82.08427
365.8021, 81.61539
366.2842, 81.21282
366.7663, 81.10670
367.2484, 81.30463
367.7306, 81.33932
368.2127, 81.05354
368.6948, 80.65433
369.1769, 80.27670
369.6590, 79.84637
370.1411, 79.53876
370.6233, 79.41024
371.1054, 79.41754
371.5875, 79.39864
372.0696, 79.36131
372.5517, 79.28829
373.0338, 79.15692
373.5160, 78.91347
373.9981, 78.77503
374.4802, 78.80453
374.9623, 78.88670
375.4444, 78.80886
375.9265, 78.47865
376.4087, 78.24780
376.8908, 78.26507
377.3729, 78.51793
377.8550, 78.60898
378.3371, 78.50190
378.8192, 78.32758
379.3014, 78.21450
379.7835, 78.16488
380.2656, 78.09500
380.7477, 77.95953
381.2298, 77.82023
381.7119, 77.88142
382.1941, 78.14700
382.6762, 78.37918
383.1583, 78.37138
383.6404, 78.18676
384.1225, 78.07578
384.6046, 78.07050
385.0868, 78.11177
385.5689, 78.13890
386.0510, 78.15244
386.5331, 78.15495
387.0152, 78.18465
387.4973, 78.18971
387.9795, 78.06874
388.4616, 77.82211
388.9437, 77.57366
389.4258, 77.35845
389.9079, 77.21794
390.3900, 77.22932
390.8722, 77.55802
391.3543, 77.87679
391.8364, 77.91960
392.3185, 77.74284
392.8006, 77.55647
393.2827, 77.39888
393.7649, 77.30759
394.2470, 77.34148
394.7291, 77.58485
395.2112, 77.73705
395.6933, 77.64724
396.1754, 77.40823
396.6576, 77.15961
397.1397, 76.85956
397.6218, 76.62459
398.1039, 76.50454
398.5860, 76.50873
399.0681, 76.53582
399.5503, 76.65931
400.0324, 76.75269
400.5145, 76.72027
400.9966, 76.41760
401.4787, 76.19201
401.9608, 76.06600
402.4430, 76.03460
402.9251, 76.09228
403.4072, 76.32349
403.8893, 76.51684
404.3714, 76.56050
404.8535, 76.40580
405.3357, 76.30505
405.8178, 76.26722
406.2999, 76.27147
406.7820, 76.30304
407.2641, 76.37245
407.7462, 76.40430
408.2284, 76.36129
408.7105, 76.26259
409.1926, 76.21236
409.6747, 76.21921
410.1568, 76.21359
410.6389, 76.08640
411.1211, 75.87511
411.6032, 75.81154
412.0853, 75.98530
412.5674, 76.22025
413.0495, 76.19966
413.5316, 75.97890
414.0138, 75.83850
414.4959, 76.05626
414.9780, 76.40568
415.4601, 76.52007
415.9422, 76.36983
416.4243, 76.16041
416.9065, 76.04164
417.3886, 75.97436
417.8707, 75.90229
418.3528, 75.76809
418.8349, 75.65672
419.3170, 75.65940
419.7992, 75.74505
420.2813, 75.77055
420.7634, 75.62576
421.2455, 75.43080
421.7276, 75.26942
422.2097, 75.17777
422.6919, 75.06037
423.1740, 74.83925
423.6561, 74.58958
424.1382, 74.42139
424.6203, 74.44080
425.1024, 74.45855
425.5846, 74.40443
426.0667, 74.26964
426.5488, 74.23309
427.0309, 74.41198
427.5130, 74.58559
427.9951, 74.58942
428.4773, 74.31660
428.9594, 74.10860
429.4415, 74.00322
429.9236, 73.97078
430.4057, 73.93259
430.8878, 73.88025
431.3700, 73.85326
431.8521, 73.91084
432.3342, 74.05365
432.8163, 73.98400
433.2984, 73.65168
433.7805, 73.28407
434.2627, 73.14653
434.7448, 73.22123
435.2269, 73.33488
435.7090, 73.46466
436.1911, 73.58666
436.6732, 73.66174
437.1554, 73.68899
437.6375, 73.65970
438.1196, 73.52895
438.6017, 73.34776
439.0838, 73.18265
439.5659, 73.03051
440.0480, 72.94994
440.5302, 73.09762
441.0123, 73.33350
441.4944, 73.42283
441.9765, 73.07838
442.4586, 72.71738
442.9407, 72.61297
443.4229, 72.74390
443.9050, 72.89168
444.3871, 73.06263
444.8692, 73.15769
445.3513, 73.09494
445.8334, 72.73908
446.3156, 72.44636
446.7977, 72.31049
447.2798, 72.27396
447.7619, 72.23772
448.2440, 72.18219
448.7261, 72.14104
449.2083, 72.13553
449.6904, 72.16988
450.1725, 72.14649
450.6546, 72.02483
451.1367, 71.89651
451.6188, 71.84001
452.1010, 71.88721
452.5831, 71.89334
453.0652, 71.82864
453.5473, 71.73299
454.0294, 71.69987
454.5115, 71.73611
454.9937, 71.78153
455.4758, 71.83448
455.9579, 71.88001
456.4400, 71.81544
456.9221, 71.62999
457.4042, 71.42627
457.8864, 71.27645
458.3685, 71.18544
458.8506, 71.17793
459.3327, 71.30177
459.8148, 71.44080
460.2969, 71.44558
460.7791, 71.34648
461.2612, 71.24390
461.7433, 71.19966
462.2254, 71.17323
462.7075, 71.12980
463.1896, 71.06499
463.6718, 71.00084
464.1539, 70.94108
464.6360, 70.89243
465.1181, 70.86269
465.6002, 70.79831
466.0823, 70.81416
466.5645, 71.05509
467.0466, 71.42868
467.5287, 71.58050
468.0108, 71.20292
468.4929, 70.83869
468.9750, 70.69019
469.4572, 70.82132
469.9393, 70.92729
470.4214, 70.98319
470.9035, 71.03433
471.3856, 71.14398
471.8677, 71.35216
472.3499, 71.49472
472.8320, 71.55746
473.3141, 71.53096
473.7962, 71.32835
474.2783, 70.91529
474.7604, 70.57840
475.2426, 70.54729
475.7247, 70.76401
476.2068, 70.87814
476.6889, 70.87392
477.1710, 70.79740
477.6531, 70.64405
478.1353, 70.45474
478.6174, 70.34373
479.0995, 70.36789
479.5816, 70.46331
480.0637, 70.59068
480.5458, 70.73622
481.0280, 70.84783
481.5101, 70.88243
481.9922, 70.87817
482.4743, 70.85771
482.9564, 70.81897
483.4385, 70.78801
483.9207, 70.78169
484.4028, 70.78597
484.8849, 70.78650
485.3670, 70.82355
485.8491, 70.80977
486.3312, 70.68067
486.8134, 70.47208
487.2955, 70.36372
487.7776, 70.44323
488.2597, 70.52335
488.7418, 70.52198
489.2239, 70.41251
489.7061, 70.35828
490.1882, 70.37801
490.6703, 70.42599
491.1524, 70.44451
491.6345, 70.42526
492.1166, 70.44359
492.5988, 70.53137
493.0809, 70.64681
493.5630, 70.66562
494.0451, 70.59045
494.5272, 70.52884
495.0093, 70.57133
495.4915, 70.66813
495.9736, 70.70776
496.4557, 70.68373
496.9378, 70.62399
497.4199, 70.55323
497.9020, 70.46343
498.3842, 70.33260
498.8663, 70.07118
499.3484, 69.88582
499.8305, 70.01941
500.3126, 70.33910
500.7947, 70.50585
501.2769, 70.14297
501.7590, 69.81863
502.2411, 69.85826
502.7232, 70.35378
503.2053, 70.70484
503.6874, 70.75123
504.1696, 70.67162
504.6517, 70.58609
505.1338, 70.45035
505.6159, 70.38831
506.0980, 70.43637
506.5801, 70.54801
507.0623, 70.63634
507.5444, 70.72964
508.0265, 70.69894
508.5086, 70.41891
508.9907, 69.94527
509.4728, 69.78371
509.9550, 69.96617
510.4371, 70.21144
510.9192, 70.27744
511.4013, 70.19964
511.8834, 70.10180
512.3655, 69.99285
512.8477, 69.90254
513.3298, 69.87660
513.8119, 69.89767
514.2940, 69.92337
514.7761, 69.93295
515.2582, 69.94218
515.7404, 69.97787
516.2225, 70.03278
516.7046, 70.05278
517.1867, 69.99389
517.6688, 69.90549
518.1509, 69.81630
518.6331, 69.72553
519.1152, 69.64343
519.5973, 69.53935
520.0794, 69.45648
520.5615, 69.45505
521.0436, 69.64186
521.5258, 69.73709
522.0079, 69.66225
522.4900, 69.45718
522.9721, 69.30940
523.4542, 69.21470
523.9363, 69.19534
524.4185, 69.31593
524.9006, 69.57533
525.3827, 69.65681
525.8648, 69.53606
526.3469, 69.36929
526.8290, 69.33507
527.3112, 69.40299
527.7933, 69.44901
528.2754, 69.43150
528.7575, 69.40574
529.2396, 69.46253
529.7217, 69.56995
530.2039, 69.63251
530.6860, 69.58199
531.1681, 69.48290
531.6502, 69.33405
532.1323, 69.13953
532.6144, 69.06198
533.0966, 69.33154
533.5787, 69.63148
534.0608, 69.72723
534.5429, 69.34869
535.0250, 69.14505
535.5071, 69.30678
535.9893, 69.61967
536.4714, 69.77026
536.9535, 69.67379
537.4356, 69.57997
537.9177, 69.54977
538.3998, 69.56901
538.8820, 69.54972
539.3641, 69.48964
539.8462, 69.40596
540.3283, 69.29633
540.8104, 69.16776
541.2925, 69.06435
541.7747, 68.98822
542.2568, 68.93938
542.7389, 68.90853
543.2210, 68.90528
543.7031, 68.96429
544.1852, 69.14747
544.6674, 69.31152
545.1495, 69.30283
545.6316, 69.16984
546.1137, 69.03303
546.5958, 68.90739
547.0779, 68.82641
547.5601, 68.82581
548.0422, 68.90903
548.5243, 68.97902
549.0064, 69.02402
549.4885, 69.04243
549.9706, 69.02641
550.4528, 68.90703
550.9349, 68.88873
551.4170, 69.03120
551.8991, 69.22572
552.3812, 69.31347
552.8633, 69.27839
553.3455, 69.19478
553.8276, 69.06200
554.3097, 68.90313
554.7918, 68.77422
555.2739, 68.67761
555.7560, 68.65636
556.2382, 68.81046
556.7203, 69.04651
557.2024, 69.13139
557.6845, 69.05113
558.1666, 68.97197
558.6487, 69.07740
559.1309, 69.24989
559.6130, 69.32249
560.0951, 69.17588
560.5772, 69.07881
561.0593, 69.21681
561.5414, 69.48267
562.0236, 69.68480
562.5057, 69.76897
562.9878, 69.79401
563.4699, 69.71957
563.9520, 69.56556
564.4341, 69.55755
564.9163, 69.80434
565.3984, 70.04350
565.8805, 70.15314
566.3626, 70.12202
566.8447, 69.99434
567.3268, 69.72522
567.8090, 69.47838
568.2911, 69.48712
568.7732, 69.71935
569.2553, 69.88490
569.7374, 69.91845
570.2195, 69.87604
570.7017, 69.80419
571.1838, 69.71782
571.6659, 69.66481
572.1480, 69.68024
572.6301, 69.73014
573.1122, 69.80417
573.5944, 69.89653
574.0765, 69.95985
574.5586, 69.92833
575.0407, 69.67500
575.5228, 69.88504
576.0049, 70.00432
576.4871, 70.03771
576.9692, 69.72798
577.4513, 69.86132
577.9334, 69.81710
578.4155, 69.76559
578.8976, 69.96130
579.3798, 69.70147
579.8619, 69.89325
580.3440, 69.90475
580.8261, 69.99877
581.3082, 69.91412
581.7903, 69.88466
582.2725, 70.03391
582.7546, 70.08421
583.2367, 69.97899
583.7188, 70.07825
584.2009, 69.81218
584.6830, 69.86668
585.1652, 70.05951
585.6473, 69.96327
586.1294, 70.06580
586.6115, 70.15556
587.0936, 70.53871
587.5757, 70.85004
588.0578, 70.95534
588.5399, 71.06207
589.0220, 71.25824
589.5042, 71.47475
589.9863, 71.55043
590.4684, 71.39449
590.9505, 71.24292
591.4326, 71.15919
591.9147, 71.13439
592.3969, 71.09242
592.8790, 71.03490
593.3611, 70.95606
593.8432, 70.79356
594.3253, 70.59063
594.8074, 70.61092
595.2896, 70.88470
595.7717, 71.18797
596.2538, 71.30466
596.7359, 71.29619
597.2180, 71.26922
597.7001, 71.24868
598.1823, 71.22271
598.6644, 71.17995
599.1465, 71.12720
599.6286, 71.07571
600.1107, 70.98470
600.5928, 70.94164
601.0750, 71.02087
601.5571, 71.19727
602.0392, 71.26347
602.5213, 71.14746
603.0034, 71.01289
603.4855, 70.90405
603.9677, 70.81320
604.4498, 70.86614
604.9319, 71.10287
605.4140, 71.35713
605.8961, 71.46457
606.3782, 71.44520
606.8604, 71.42007
607.3425, 71.40202
607.8246, 71.38898
608.3067, 71.38721
608.7888, 71.38818
609.2709, 71.37312
609.7531, 71.32590
610.2352, 71.27216
610.7173, 71.21763
611.1994, 71.16933
611.6815, 71.14507
612.1636, 71.18377
612.6458, 71.21669
613.1279, 71.21249
613.6100, 71.16930
614.0921, 71.14436
614.5742, 71.16047
615.0563, 71.16565
615.5385, 71.11676
616.0206, 70.99100
616.5027, 70.96493
616.9848, 71.07059
617.4669, 71.18060
617.9490, 71.07736
618.4312, 70.82365
618.9133, 70.77668
619.3954, 71.06762
619.8775, 71.42924
620.3596, 71.55321
620.8417, 71.50255
621.3239, 71.41772
621.8060, 71.30590
622.2881, 71.22372
622.7702, 71.23830
623.2523, 71.31896
623.7344, 71.34123
624.2166, 71.23341
624.6987, 71.09515
625.1808, 70.91758
625.6629, 70.68116
