##NAMES=Spherocobaltite
##RRUFFID=R140338
##IDEAL CHEMISTRY=Co^2+^CO_3_
##LOCALITY=Kakanda, Shaba, Zaire
##OWNER=RRUFF
##SOURCE=William Pinch
##DESCRIPTION=Reddish purple rhombohedral crystals
##STATUS=The identification of this mineral has been confirmed only by single crystal X-ray diffraction.
##URL=rruff.info/R140338
95.05651, 314.8593
95.53863, 314.1751
96.02074, 313.1024
96.50286, 312.4611
96.98498, 312.3710
97.46709, 312.0257
97.94921, 311.7982
98.43133, 312.0289
98.91344, 312.1187
99.39556, 311.6866
99.87768, 310.8804
100.3598, 310.1781
100.8419, 309.8029
101.3240, 309.7766
101.8061, 309.9587
102.2883, 310.4315
102.7704, 311.0093
103.2525, 311.4955
103.7346, 311.8497
104.2167, 312.2487
104.6988, 312.8231
105.1810, 313.4278
105.6631, 313.8426
106.1452, 313.8798
106.6273, 313.6248
107.1094, 313.4534
107.5915, 313.3846
108.0737, 313.3535
108.5558, 313.3340
109.0379, 313.3185
109.5200, 313.2912
110.0021, 313.1591
110.4842, 312.8036
110.9664, 312.9748
111.4485, 314.2788
111.9306, 315.5735
112.4127, 316.2279
112.8948, 316.2027
113.3769, 315.9632
113.8591, 316.1938
114.3412, 317.4039
114.8233, 318.1659
115.3054, 318.2306
115.7875, 317.9854
116.2696, 317.7573
116.7517, 317.6538
117.2339, 317.6758
117.7160, 317.8572
118.1981, 318.2220
118.6802, 318.6325
119.1623, 319.0245
119.6444, 319.4239
120.1266, 319.9428
120.6087, 320.7386
121.0908, 321.5813
121.5729, 322.1141
122.0550, 322.4144
122.5371, 322.2782
123.0193, 321.1308
123.5014, 318.7718
123.9835, 317.0826
124.4656, 317.6525
124.9477, 319.1367
125.4298, 320.4346
125.9120, 321.1455
126.3941, 321.4823
126.8762, 321.9384
127.3583, 322.7332
127.8404, 323.2584
128.3225, 323.1073
128.8047, 322.6713
129.2868, 322.4851
129.7689, 322.9218
130.2510, 323.9302
130.7331, 324.7501
131.2152, 325.6540
131.6974, 326.0900
132.1795, 325.4501
132.6616, 324.1426
133.1437, 323.1261
133.6258, 323.2949
134.1079, 324.9166
134.5901, 326.0143
135.0722, 326.2159
135.5543, 326.3023
136.0364, 326.7025
136.5185, 327.4608
137.0006, 328.3874
137.4828, 329.3079
137.9649, 330.2553
138.4470, 330.9491
138.9291, 331.1227
139.4112, 331.1327
139.8933, 331.4257
140.3755, 332.1332
140.8576, 332.9854
141.3397, 333.6841
141.8218, 334.2508
142.3039, 334.6567
142.7860, 334.6852
143.2681, 334.4933
143.7503, 334.7087
144.2324, 335.7836
144.7145, 336.9474
145.1966, 337.4297
145.6787, 337.2284
146.1608, 337.0111
146.6430, 337.5069
147.1251, 338.8336
147.6072, 339.7278
148.0893, 339.3795
148.5714, 338.8826
149.0535, 338.8078
149.5357, 339.2780
150.0178, 340.0677
150.4999, 340.8701
150.9820, 341.7374
151.4641, 342.5118
151.9462, 343.0469
152.4284, 343.5765
152.9105, 344.3003
153.3926, 345.2872
153.8747, 346.4541
154.3568, 347.5942
154.8389, 348.6757
155.3211, 349.7562
155.8032, 350.8227
156.2853, 351.8918
156.7674, 352.9817
157.2495, 354.1034
157.7316, 355.2413
158.2138, 356.3331
158.6959, 357.5319
159.1780, 358.5233
159.6601, 358.9779
160.1422, 359.1389
160.6243, 359.5890
161.1065, 360.7069
161.5886, 362.3553
162.0707, 363.8084
162.5528, 365.0405
163.0349, 366.1251
163.5170, 367.0597
163.9991, 367.8568
164.4813, 368.6050
164.9634, 369.3384
165.4455, 370.0683
165.9276, 370.8114
166.4097, 371.5230
166.8918, 372.2949
167.3740, 373.1897
167.8561, 374.1833
168.3382, 375.4199
168.8203, 377.2076
169.3024, 379.2323
169.7845, 381.1411
170.2667, 382.8176
170.7488, 384.2804
171.2309, 385.4600
171.7130, 385.9449
172.1951, 386.9472
172.6772, 389.5996
173.1594, 392.8687
173.6415, 395.2072
174.1236, 395.4589
174.6057, 394.0598
175.0878, 393.6819
175.5699, 395.2295
176.0521, 396.8841
176.5342, 398.1610
177.0163, 399.1885
177.4984, 400.2035
177.9805, 401.3446
178.4626, 402.6122
178.9448, 404.3431
179.4269, 407.1417
179.9090, 409.8081
180.3911, 411.9519
180.8732, 413.6469
181.3553, 415.1158
181.8375, 416.5059
182.3196, 417.7690
182.8017, 419.4782
183.2838, 421.7514
183.7659, 424.2462
184.2480, 426.8673
184.7301, 429.5725
185.2123, 432.2873
185.6944, 434.9200
186.1765, 437.4547
186.6586, 440.0814
187.1407, 443.0264
187.6228, 445.8856
188.1050, 448.2558
188.5871, 450.1057
189.0692, 451.9169
189.5513, 454.2283
190.0334, 457.0136
190.5155, 459.5285
190.9977, 461.0989
191.4798, 462.6223
191.9619, 465.3243
192.4440, 469.5255
192.9261, 473.9701
193.4082, 477.1940
193.8904, 479.5992
194.3725, 482.4380
194.8546, 486.4398
195.3367, 491.0835
195.8188, 495.2823
196.3009, 498.7181
196.7831, 502.2199
197.2652, 506.5216
197.7473, 511.3947
198.2294, 516.1965
198.7115, 520.4766
199.1936, 524.4046
199.6758, 528.7454
200.1579, 534.0424
200.6400, 539.0139
201.1221, 543.0038
201.6042, 546.1733
202.0863, 548.8948
202.5685, 551.5625
203.0506, 554.1337
203.5327, 555.7446
204.0148, 556.5237
204.4969, 555.9990
204.9790, 553.9988
205.4612, 550.6074
205.9433, 546.0177
206.4254, 540.4006
206.9075, 533.7640
207.3896, 525.9323
207.8717, 515.9202
208.3539, 505.5163
208.8360, 495.2155
209.3181, 485.0104
209.8002, 474.6371
210.2823, 463.7289
210.7644, 452.1784
211.2466, 441.6461
211.7287, 432.4489
212.2108, 423.8749
212.6929, 415.5800
213.1750, 407.6368
213.6571, 400.2737
214.1393, 393.7448
214.6214, 388.1361
215.1035, 382.8198
215.5856, 377.7914
216.0677, 372.9710
216.5498, 368.0646
217.0320, 363.2287
217.5141, 359.0105
217.9962, 356.0125
218.4783, 354.4204
218.9604, 352.6601
219.4425, 350.6348
219.9247, 348.5359
220.4068, 346.3332
220.8889, 344.0880
221.3710, 342.1192
221.8531, 340.7665
222.3352, 340.0839
222.8174, 339.2059
223.2995, 337.9081
223.7816, 336.5772
224.2637, 335.4092
224.7458, 334.4301
225.2279, 333.8213
225.7100, 334.0216
226.1922, 334.8314
226.6743, 334.7787
227.1564, 332.7499
227.6385, 330.4567
228.1206, 329.7364
228.6027, 330.7213
229.0849, 331.7032
229.5670, 331.3506
230.0491, 330.0227
230.5312, 328.7290
231.0133, 327.5092
231.4954, 326.4654
231.9776, 325.7605
232.4597, 325.4283
232.9418, 325.2065
233.4239, 324.9517
233.9060, 324.6996
234.3881, 324.5073
234.8703, 324.3879
235.3524, 324.3370
235.8345, 324.4258
236.3166, 324.7384
236.7987, 324.8387
237.2808, 324.2003
237.7630, 323.3148
238.2451, 322.7303
238.7272, 322.6728
239.2093, 322.9009
239.6914, 323.0166
240.1735, 322.9468
240.6557, 323.0002
241.1378, 323.5752
241.6199, 324.2095
242.1020, 324.4096
242.5841, 323.9521
243.0662, 323.1676
243.5484, 322.5574
244.0305, 322.0620
244.5126, 321.9332
244.9947, 322.6793
245.4768, 323.5694
245.9589, 323.8790
246.4410, 323.3365
246.9232, 322.4857
247.4053, 322.3463
247.8874, 323.3710
248.3695, 324.0250
248.8516, 323.6471
249.3337, 323.0709
249.8159, 323.0412
250.2980, 323.7663
250.7801, 324.7075
251.2622, 324.8549
251.7443, 323.5724
252.2264, 322.9472
252.7086, 323.6894
253.1907, 324.7012
253.6728, 325.1862
254.1549, 324.9522
254.6370, 324.3872
255.1191, 324.0789
255.6013, 324.1630
256.0834, 324.2213
256.5655, 323.9154
257.0476, 323.8096
257.5297, 324.5474
258.0118, 326.1077
258.4940, 327.6869
258.9761, 328.1099
259.4582, 326.6587
259.9403, 325.8658
260.4224, 325.9566
260.9045, 326.3773
261.3867, 326.9249
261.8688, 327.5054
262.3509, 327.9834
262.8330, 328.1679
263.3151, 327.8865
263.7972, 327.9657
264.2794, 328.5792
264.7615, 329.3295
265.2436, 330.0190
265.7257, 330.6288
266.2078, 331.2323
266.6899, 331.8947
267.1721, 332.6103
267.6542, 333.4180
268.1363, 334.2553
268.6184, 335.2125
269.1005, 336.4925
269.5826, 337.9747
270.0648, 339.2393
270.5469, 339.8828
271.0290, 339.8630
271.5111, 340.3815
271.9932, 341.6534
272.4753, 343.1217
272.9575, 344.7495
273.4396, 346.4051
273.9217, 347.7433
274.4038, 348.4544
274.8859, 348.6343
275.3680, 349.4711
275.8501, 351.2247
276.3322, 353.1791
276.8144, 355.0285
277.2965, 356.9042
277.7786, 359.1703
278.2607, 362.0936
278.7428, 365.4575
279.2249, 368.3350
279.7071, 370.0546
280.1892, 372.1807
280.6713, 375.3404
281.1534, 379.1429
281.6355, 382.8678
282.1176, 386.1738
282.5998, 389.3234
283.0819, 392.9299
283.5640, 397.0087
284.0461, 401.4232
284.5282, 406.1268
285.0103, 411.1545
285.4925, 416.5733
285.9746, 422.4230
286.4567, 428.6138
286.9388, 435.0950
287.4209, 441.8412
287.9030, 448.8107
288.3852, 455.9236
288.8673, 463.2502
289.3494, 470.8859
289.8315, 478.8634
290.3136, 486.9486
290.7957, 494.9842
291.2779, 502.9469
291.7600, 510.8032
292.2421, 517.9838
292.7242, 525.3808
293.2063, 534.0904
293.6884, 544.2657
294.1706, 554.6743
294.6527, 564.0347
295.1348, 572.3759
295.6169, 581.7338
296.0990, 592.5362
296.5811, 604.1246
297.0633, 616.2493
297.5454, 628.7869
298.0275, 641.3209
298.5096, 653.5117
298.9917, 665.4229
299.4738, 677.5695
299.9560, 689.9236
300.4381, 702.4231
300.9202, 715.0135
301.4023, 727.7336
301.8844, 741.1537
302.3665, 756.1452
302.8487, 771.6619
303.3308, 784.7701
303.8129, 794.7111
304.2950, 803.8936
304.7771, 814.0129
305.2592, 824.2458
305.7414, 832.5243
306.2235, 838.1209
306.7056, 841.2649
307.1877, 842.2137
307.6698, 841.2128
308.1519, 838.2858
308.6341, 833.8317
309.1162, 827.3903
309.5983, 817.9901
310.0804, 805.2759
310.5625, 790.2167
311.0446, 773.8027
311.5268, 756.0576
312.0089, 737.4701
312.4910, 717.5875
312.9731, 697.1747
313.4552, 677.0155
313.9373, 657.2831
314.4195, 637.4903
314.9016, 616.8948
315.3837, 595.5438
315.8658, 574.9993
316.3479, 554.8875
316.8300, 535.9738
317.3121, 519.1461
317.7943, 504.2797
318.2764, 490.3636
318.7585, 476.6701
319.2406, 463.4938
319.7227, 451.4674
320.2048, 440.7456
320.6870, 430.9052
321.1691, 421.7445
321.6512, 413.2968
322.1333, 405.5649
322.6154, 398.6903
323.0975, 392.4642
323.5797, 386.4899
324.0618, 380.6694
324.5439, 375.1961
325.0260, 370.0609
325.5081, 365.3223
325.9902, 361.0464
326.4724, 357.2568
326.9545, 353.9258
327.4366, 351.1897
327.9187, 349.2011
328.4008, 346.8379
328.8829, 343.4556
329.3651, 339.8010
329.8472, 336.7028
330.3293, 334.3021
330.8114, 332.3789
331.2935, 330.7971
331.7756, 329.5901
332.2578, 328.3102
332.7399, 327.0151
333.2220, 325.5938
333.7041, 323.7630
334.1862, 321.6209
334.6683, 319.7792
335.1505, 318.7539
335.6326, 318.4140
336.1147, 317.7365
336.5968, 316.3903
337.0789, 315.0938
337.5610, 314.2696
338.0432, 313.7295
338.5253, 313.0041
339.0074, 311.8520
339.4895, 310.4476
339.9716, 309.2639
340.4537, 308.3765
340.9359, 307.5388
341.4180, 306.7133
341.9001, 305.9094
342.3822, 305.1060
342.8643, 304.2996
343.3464, 303.6017
343.8286, 303.1994
344.3107, 303.2609
344.7928, 303.1294
345.2749, 302.7887
345.7570, 302.2609
346.2391, 301.4081
346.7213, 300.3020
347.2034, 299.3532
347.6855, 299.0040
348.1676, 299.2998
348.6497, 299.1030
349.1318, 297.9571
349.6140, 296.8629
350.0961, 296.2723
350.5782, 296.0767
351.0603, 295.9867
351.5424, 295.8483
352.0245, 295.6591
352.5067, 295.4023
352.9888, 295.0345
353.4709, 294.6555
353.9530, 294.2047
354.4351, 293.7793
354.9172, 293.5338
355.3994, 293.5159
355.8815, 293.5695
356.3636, 293.4305
356.8457, 293.0307
357.3278, 292.5526
357.8099, 291.8597
358.2920, 291.1969
358.7741, 290.6802
359.2563, 290.3487
359.7384, 290.2836
360.2205, 290.6541
360.7026, 291.5827
361.1847, 291.7259
361.6668, 290.3019
362.1490, 288.9593
362.6311, 288.1840
363.1132, 287.8970
363.5953, 287.9416
364.0774, 288.2592
364.5595, 288.7191
365.0417, 288.7372
365.5238, 287.7386
366.0059, 287.0892
366.4880, 287.0372
366.9701, 287.3448
367.4522, 287.9915
367.9344, 288.9084
368.4165, 289.6142
368.8986, 289.1784
369.3807, 286.9022
369.8628, 285.4042
370.3449, 285.1584
370.8271, 285.3260
371.3092, 285.7007
371.7913, 286.1327
372.2734, 286.3448
372.7555, 285.9914
373.2376, 285.0986
373.7198, 284.5843
374.2019, 284.8511
374.6840, 285.0077
375.1661, 284.7328
375.6482, 284.1682
376.1303, 283.5141
376.6125, 282.8312
377.0946, 282.1916
377.5767, 281.7246
378.0588, 281.3870
378.5409, 281.3569
379.0230, 282.0669
379.5052, 282.8683
379.9873, 283.2843
380.4694, 283.2188
380.9515, 282.8275
381.4336, 282.1198
381.9157, 281.1056
382.3979, 280.3523
382.8800, 279.9696
383.3621, 279.8489
383.8442, 279.9781
384.3263, 280.2928
384.8084, 280.5708
385.2906, 280.6670
385.7727, 280.6462
386.2548, 280.6831
386.7369, 280.8216
387.2190, 280.8574
387.7011, 280.6383
388.1833, 280.2467
388.6654, 279.7510
389.1475, 279.0605
389.6296, 278.4568
390.1117, 278.2520
390.5938, 278.3975
391.0760, 278.5208
391.5581, 278.4928
392.0402, 278.3994
392.5223, 278.3637
393.0044, 278.3896
393.4865, 278.4082
393.9687, 278.5534
394.4508, 278.6241
394.9329, 278.1657
395.4150, 277.0576
395.8971, 275.9807
396.3792, 275.5387
396.8614, 275.7114
397.3435, 275.9331
397.8256, 276.3678
398.3077, 276.6841
398.7898, 276.5070
399.2719, 275.9886
399.7540, 275.7278
400.2361, 276.0933
400.7183, 276.7978
401.2004, 276.9758
401.6825, 276.3263
402.1646, 275.7703
402.6467, 275.6054
403.1288, 275.5511
403.6110, 275.2089
404.0931, 274.5114
404.5752, 273.8239
405.0573, 273.6053
405.5394, 273.9961
406.0215, 274.1675
406.5037, 274.0252
406.9858, 273.7848
407.4679, 273.5002
407.9500, 273.2036
408.4321, 272.9331
408.9142, 272.7068
409.3964, 272.5323
409.8785, 272.4379
410.3606, 272.3867
410.8427, 272.4802
411.3248, 273.0482
411.8069, 273.5869
412.2891, 273.4954
412.7712, 272.6723
413.2533, 271.6572
413.7354, 271.2142
414.2175, 271.5431
414.6996, 271.6316
415.1818, 271.1283
415.6639, 270.7057
416.1460, 270.8135
416.6281, 271.2226
417.1102, 271.3223
417.5923, 270.6053
418.0745, 269.4050
418.5566, 268.9078
419.0387, 269.4242
419.5208, 269.9717
420.0029, 270.2505
420.4850, 270.4203
420.9672, 270.6841
421.4493, 271.1003
421.9314, 271.3588
422.4135, 271.0105
422.8956, 270.0944
423.3777, 269.4132
423.8599, 269.1817
424.3420, 269.0865
424.8241, 268.8617
425.3062, 268.5528
425.7883, 268.3256
426.2704, 268.3021
426.7526, 268.3762
427.2347, 268.4469
427.7168, 268.5239
428.1989, 268.3957
428.6810, 267.7718
429.1631, 266.9621
429.6453, 266.6482
430.1274, 267.0074
430.6095, 267.4634
431.0916, 267.8604
431.5737, 268.1331
432.0558, 268.0681
432.5380, 267.5717
433.0201, 267.0260
433.5022, 266.9220
433.9843, 267.3423
434.4664, 267.5186
434.9485, 267.2536
435.4307, 266.8812
435.9128, 266.5561
436.3949, 266.3057
436.8770, 266.1765
437.3591, 266.2108
437.8412, 266.3545
438.3234, 266.4023
438.8055, 266.4765
439.2876, 266.2895
439.7697, 265.3736
440.2518, 264.4434
440.7339, 264.3617
441.2160, 265.2021
441.6982, 266.1596
442.1803, 266.2691
442.6624, 265.3784
443.1445, 264.7702
443.6266, 264.7855
444.1087, 264.7390
444.5909, 264.2730
445.0730, 263.6359
445.5551, 263.2623
446.0372, 263.3936
446.5193, 263.8276
447.0014, 264.1663
447.4836, 264.4719
447.9657, 264.4891
448.4478, 263.6781
448.9299, 262.9205
449.4120, 262.9117
449.8941, 263.6160
450.3763, 264.3097
450.8584, 264.3806
451.3405, 263.9686
451.8226, 263.6973
452.3047, 263.6718
452.7868, 263.5506
453.2690, 262.9937
453.7511, 262.2453
454.2332, 261.6208
454.7153, 261.1227
455.1974, 260.8915
455.6795, 261.2008
456.1617, 261.9223
456.6438, 262.5456
457.1259, 263.0002
457.6080, 263.1516
458.0901, 262.5727
458.5722, 261.2561
459.0544, 260.4535
459.5365, 260.8875
460.0186, 261.5698
460.5007, 261.5333
460.9828, 260.8647
461.4649, 260.3693
461.9471, 260.5940
462.4292, 261.3126
462.9113, 261.5837
463.3934, 261.1317
463.8755, 260.6272
464.3576, 259.9904
464.8398, 259.4147
465.3219, 259.1989
465.8040, 259.3475
466.2861, 259.4629
466.7682, 259.0212
467.2503, 257.8800
467.7325, 257.5456
468.2146, 259.2158
468.6967, 260.4173
469.1788, 260.1353
469.6609, 259.0578
470.1430, 258.2298
470.6252, 258.1130
471.1073, 258.3806
471.5894, 258.4727
472.0715, 258.3506
472.5536, 258.2243
473.0357, 258.0670
473.5179, 257.9654
474.0000, 258.0708
474.4821, 258.3061
474.9642, 258.3657
475.4463, 257.9158
475.9284, 257.2202
476.4106, 256.8051
476.8927, 256.6637
477.3748, 256.8786
477.8569, 257.8106
478.3390, 258.9505
478.8211, 259.5059
479.3033, 259.3633
479.7854, 258.9325
480.2675, 258.1431
480.7496, 257.2700
481.2317, 256.8985
481.7138, 257.1488
482.1959, 257.4955
482.6780, 257.4824
483.1602, 257.1048
483.6423, 256.7286
484.1244, 256.1754
484.6065, 255.8172
485.0886, 256.0908
485.5707, 256.6027
486.0529, 256.5392
486.5350, 255.6058
487.0171, 254.4481
487.4992, 254.1738
487.9813, 255.2446
488.4634, 255.9438
488.9456, 256.1859
489.4277, 256.2082
489.9098, 256.0201
490.3919, 255.7083
490.8740, 255.4184
491.3561, 255.2400
491.8383, 255.1368
492.3204, 255.0082
492.8025, 254.8369
493.2846, 254.6848
493.7667, 254.6841
494.2488, 254.6179
494.7310, 254.2421
495.2131, 253.5912
495.6952, 253.0435
496.1773, 252.9114
496.6594, 253.0797
497.1415, 253.2955
497.6237, 253.6011
498.1058, 253.7222
498.5879, 253.3635
499.0700, 252.7755
499.5521, 252.4504
500.0342, 252.4960
500.5164, 252.6016
500.9985, 252.6930
501.4806, 252.7211
501.9627, 252.5275
502.4448, 252.0768
502.9269, 251.6864
503.4091, 251.7185
503.8912, 252.1933
504.3733, 252.2765
504.8554, 251.6979
505.3375, 251.0772
505.8196, 250.5623
506.3018, 250.1671
506.7839, 249.8827
507.2660, 249.7083
507.7481, 249.6922
508.2302, 249.9849
508.7123, 250.8164
509.1945, 251.1201
509.6766, 250.2216
510.1587, 249.4667
510.6408, 249.5740
511.1229, 250.1719
511.6050, 250.4942
512.0872, 250.1306
512.5693, 249.4058
513.0514, 248.8488
513.5335, 248.4527
514.0156, 248.2756
514.4977, 248.4685
514.9799, 248.7534
515.4620, 248.9547
515.9441, 249.0587
516.4262, 249.0001
516.9083, 248.5367
517.3904, 248.0185
517.8726, 248.0046
518.3547, 248.4549
518.8368, 248.7556
519.3189, 248.6114
519.8010, 248.1513
520.2831, 247.6180
520.7653, 246.9269
521.2474, 246.4096
521.7295, 246.2112
522.2116, 246.1479
522.6937, 246.0956
523.1758, 246.0288
523.6580, 245.9344
524.1401, 245.7972
524.6222, 245.6333
525.1043, 245.5313
525.5864, 245.6785
526.0685, 245.6107
526.5507, 245.1412
527.0328, 244.5568
527.5149, 243.9918
527.9970, 243.5227
528.4791, 243.3172
528.9612, 243.6979
529.4434, 244.4993
529.9255, 244.6077
530.4076, 243.6565
530.8897, 242.8636
531.3718, 242.9828
531.8539, 243.4194
532.3361, 243.5817
532.8182, 243.3640
533.3003, 242.9989
533.7824, 242.6044
534.2645, 242.1764
534.7466, 241.6137
535.2288, 240.8760
535.7109, 240.3857
536.1930, 240.5722
536.6751, 241.2952
537.1572, 241.6463
537.6393, 241.4128
538.1215, 241.1060
538.6036, 240.8126
539.0857, 240.5513
539.5678, 240.3204
540.0499, 240.1308
540.5320, 240.0542
541.0142, 240.1933
541.4963, 240.5593
541.9784, 240.7823
542.4604, 241.0293
542.9426, 240.9061
543.4247, 239.9463
543.9068, 238.7652
544.3889, 238.1095
544.8710, 238.1604
545.3531, 238.4004
545.8353, 238.2078
546.3174, 237.6363
546.7995, 237.3702
547.2816, 237.5755
547.7637, 237.8080
548.2458, 237.7270
548.7280, 237.5025
549.2101, 237.4377
549.6922, 237.7106
550.1743, 237.8716
550.6564, 237.4613
551.1385, 236.7668
551.6207, 236.4832
552.1028, 236.7670
552.5849, 236.9972
553.0670, 236.4908
553.5491, 235.2439
554.0313, 234.7301
554.5134, 235.5859
554.9955, 236.2991
555.4776, 236.3871
555.9597, 236.1384
556.4418, 235.9329
556.9240, 235.8622
557.4061, 235.7299
557.8882, 235.2308
558.3703, 234.3399
558.8524, 233.8789
559.3345, 234.1788
559.8167, 234.4477
560.2988, 234.2905
560.7809, 234.0113
561.2630, 234.0365
561.7451, 234.5011
562.2272, 234.9514
562.7094, 234.8919
563.1915, 234.4912
563.6736, 234.3937
564.1557, 234.7551
564.6378, 234.9736
565.1199, 234.4373
565.6021, 233.4043
566.0842, 233.0174
566.5663, 233.6896
567.0484, 234.4124
567.5305, 234.9668
568.0126, 235.3231
568.4948, 235.4371
568.9769, 235.3069
569.4590, 234.9531
569.9411, 234.3512
570.4232, 233.5255
570.9053, 232.9951
571.3875, 232.9498
571.8696, 232.9599
572.3517, 233.0535
572.8338, 233.1115
573.3159, 232.9266
573.7980, 232.5181
574.2802, 232.2564
574.7623, 232.6535
575.2444, 233.4903
575.7265, 233.8218
576.2086, 233.5691
576.6907, 233.1301
577.1729, 232.4901
577.6550, 231.8976
578.1371, 231.7478
578.6192, 232.1169
579.1013, 232.6136
579.5834, 233.4333
580.0656, 234.1003
580.5477, 233.8602
581.0298, 232.8098
581.5119, 231.8554
581.9940, 231.5761
582.4761, 231.8000
582.9583, 231.9504
583.4404, 232.1523
583.9225, 232.0689
584.4046, 231.4406
584.8867, 230.7563
585.3688, 230.2915
585.8510, 230.0619
586.3331, 229.9706
586.8152, 229.9386
587.2973, 230.0427
587.7794, 230.6236
588.2615, 231.8303
588.7437, 232.4665
589.2258, 231.9623
589.7079, 231.0928
590.1900, 230.5464
590.6721, 230.2876
591.1542, 230.1031
591.6364, 230.0233
592.1185, 229.9131
592.6006, 229.4957
593.0827, 228.9423
593.5648, 228.8259
