##NAMES=Spherocobaltite
##RRUFFID=R140338
##IDEAL CHEMISTRY=Co^2+^CO_3_
##LOCALITY=Kakanda, Shaba, Zaire
##OWNER=RRUFF
##SOURCE=William Pinch
##DESCRIPTION=Reddish purple rhombohedral crystals
##STATUS=The identification of this mineral has been confirmed only by single crystal X-ray diffraction.
##URL=rruff.info/R140338
90.80798, 61.20488
91.29010, 60.62616
91.77222, 59.71089
92.25433, 58.88300
92.73645, 58.13332
93.21857, 57.40045
93.70068, 56.60052
94.18280, 55.77103
94.66492, 55.05005
95.14703, 54.52972
95.62915, 54.14309
96.11127, 53.64416
96.59338, 53.00447
97.07550, 52.41208
97.55762, 52.22618
98.03973, 52.45740
98.52185, 52.45071
99.00397, 51.75817
99.48608, 50.35305
99.96820, 49.44450
100.4503, 49.20110
100.9324, 49.25352
101.4146, 48.72358
101.8967, 47.34619
102.3788, 46.12989
102.8609, 45.74738
103.3430, 46.63853
103.8251, 46.92653
104.3073, 46.28056
104.7894, 44.90057
105.2715, 43.83464
105.7536, 43.21050
106.2357, 42.74898
106.7178, 42.23968
107.2000, 41.52739
107.6821, 41.00318
108.1642, 40.80793
108.6463, 40.97812
109.1284, 40.96938
109.6105, 40.60168
110.0927, 40.13240
110.5748, 39.80469
111.0569, 39.95548
111.5390, 39.93490
112.0211, 39.51304
112.5032, 38.51987
112.9854, 37.73073
113.4675, 37.48878
113.9496, 37.47010
114.4317, 37.20134
114.9138, 36.17750
115.3959, 35.17512
115.8781, 34.59855
116.3602, 34.74342
116.8423, 34.80653
117.3244, 34.39593
117.8065, 33.67516
118.2886, 33.06046
118.7708, 32.66076
119.2529, 32.46919
119.7350, 32.51909
120.2171, 33.09009
120.6992, 33.57758
121.1813, 33.54119
121.6635, 33.04799
122.1456, 32.46190
122.6277, 31.96399
123.1098, 31.51890
123.5919, 31.07966
124.0740, 30.61262
124.5562, 30.15254
125.0383, 29.71130
125.5204, 29.28694
126.0025, 28.96216
126.4846, 28.88373
126.9667, 28.97021
127.4489, 29.01806
127.9310, 28.97669
128.4131, 28.83133
128.8952, 28.51092
129.3773, 27.98385
129.8594, 27.41980
130.3416, 27.03071
130.8237, 26.80047
131.3058, 26.58571
131.7879, 26.27049
132.2700, 25.89269
132.7521, 25.66820
133.2343, 25.66334
133.7164, 25.72790
134.1985, 25.51747
134.6806, 25.00620
135.1627, 24.56067
135.6448, 24.47735
136.1270, 24.76161
136.6091, 24.99714
137.0912, 25.19328
137.5733, 25.27800
138.0554, 24.94091
138.5375, 24.05956
139.0197, 23.10865
139.5018, 22.42460
139.9839, 22.03589
140.4660, 21.83265
140.9481, 21.87388
141.4302, 22.12817
141.9124, 22.15389
142.3945, 21.83077
142.8766, 21.44566
143.3587, 21.31299
143.8408, 21.61407
144.3229, 21.79383
144.8051, 21.68131
145.2872, 21.21148
145.7693, 20.94307
146.2514, 21.01478
146.7335, 21.19721
147.2156, 21.19065
147.6978, 20.83311
148.1799, 20.48637
148.6620, 20.23636
149.1441, 20.10842
149.6262, 20.01503
150.1083, 19.99893
150.5905, 20.01183
151.0726, 19.96828
151.5547, 19.98342
152.0368, 19.84521
152.5189, 19.43678
153.0010, 18.38360
153.4832, 17.71895
153.9653, 17.81378
154.4474, 18.35935
154.9295, 18.61455
155.4116, 18.12845
155.8937, 17.59205
156.3759, 17.32761
156.8580, 17.59797
157.3401, 17.84749
157.8222, 17.98633
158.3043, 18.02571
158.7864, 18.00701
159.2686, 17.82877
159.7507, 17.66152
160.2328, 17.61642
160.7149, 17.95780
161.1970, 18.18492
161.6791, 18.09707
162.1613, 17.73050
162.6434, 17.31438
163.1255, 16.78363
163.6076, 16.31376
164.0897, 16.06113
164.5718, 16.22646
165.0540, 16.49650
165.5361, 16.76558
166.0182, 17.02926
166.5003, 17.20713
166.9824, 17.30044
167.4645, 17.27378
167.9467, 17.08414
168.4288, 16.47171
168.9109, 15.85639
169.3930, 15.55472
169.8751, 15.58501
170.3572, 15.72639
170.8394, 15.90053
171.3215, 16.07716
171.8036, 16.20301
172.2857, 16.23505
172.7678, 16.21711
173.2499, 16.18015
173.7321, 16.12156
174.2142, 16.07653
174.6963, 16.17358
175.1784, 16.31697
175.6605, 16.27937
176.1426, 15.67528
176.6248, 14.91273
177.1069, 14.58432
177.5890, 14.79318
178.0711, 15.21943
178.5532, 15.54800
179.0353, 15.81142
179.5175, 16.11324
179.9996, 16.61898
180.4817, 17.18983
180.9638, 17.51911
181.4459, 17.50295
181.9280, 17.42458
182.4102, 17.60846
182.8923, 18.04605
183.3744, 18.70712
183.8565, 19.77026
184.3386, 21.06208
184.8207, 21.98790
185.3029, 22.35683
185.7850, 22.55280
186.2671, 23.23078
186.7492, 24.37411
187.2313, 25.66474
187.7134, 26.88934
188.1956, 28.08090
188.6777, 29.35319
189.1598, 30.77859
189.6419, 32.25120
190.1240, 33.55415
190.6061, 34.70008
191.0883, 35.74682
191.5704, 36.73277
192.0525, 37.66925
192.5346, 38.58306
193.0167, 39.48310
193.4988, 40.33291
193.9810, 40.94429
194.4631, 41.27108
194.9452, 41.55918
195.4273, 41.82994
195.9094, 42.08372
196.3915, 42.35152
196.8737, 42.62255
197.3558, 42.91538
197.8379, 43.30935
198.3200, 43.80677
198.8021, 44.38127
199.2842, 45.01368
199.7664, 45.70839
200.2485, 46.41531
200.7306, 47.09662
201.2127, 47.78345
201.6948, 48.71419
202.1769, 49.95255
202.6591, 51.23940
203.1412, 52.37310
203.6233, 53.38529
204.1054, 54.10586
204.5875, 54.46831
205.0696, 54.50110
205.5518, 54.44273
206.0339, 54.32447
206.5160, 54.05280
206.9981, 53.53062
207.4802, 52.75801
207.9623, 51.76680
208.4445, 50.50931
208.9266, 48.99334
209.4087, 47.58642
209.8908, 46.33534
210.3729, 45.08818
210.8550, 43.65535
211.3372, 41.99814
211.8193, 40.33461
212.3014, 38.66188
212.7835, 36.99141
213.2656, 35.58820
213.7477, 34.49834
214.2299, 33.59927
214.7120, 32.76968
215.1941, 32.00383
215.6762, 31.29923
216.1583, 30.64871
216.6404, 30.05732
217.1226, 29.52138
217.6047, 29.06777
218.0868, 28.63652
218.5689, 28.11712
219.0510, 27.39930
219.5331, 26.85456
220.0153, 26.63446
220.4974, 26.78753
220.9795, 26.68900
221.4616, 26.18583
221.9437, 25.59253
222.4258, 25.31257
222.9080, 25.48394
223.3901, 25.67624
223.8722, 25.77398
224.3543, 25.76596
224.8364, 25.79090
225.3185, 25.92972
225.8007, 26.02632
226.2828, 25.84618
226.7649, 25.20787
227.2470, 24.65203
227.7291, 24.34897
228.2112, 24.32936
228.6934, 24.28119
229.1755, 24.17612
229.6576, 24.06668
230.1397, 24.03756
230.6218, 24.17332
231.1039, 24.22820
231.5861, 24.08412
232.0682, 23.67359
232.5503, 23.55367
233.0324, 23.92236
233.5145, 24.41481
233.9966, 24.54023
234.4788, 24.03247
234.9609, 23.63621
235.4430, 23.58883
235.9251, 23.96276
236.4072, 24.16362
236.8893, 24.09116
237.3715, 23.92842
237.8536, 23.91558
238.3357, 24.16873
238.8178, 24.36572
239.2999, 24.40487
239.7820, 24.25718
240.2642, 24.16449
240.7463, 24.12306
241.2284, 24.13843
241.7105, 24.23378
242.1926, 24.48956
242.6747, 24.67729
243.1569, 24.73249
243.6390, 24.64174
244.1211, 24.51677
244.6032, 24.30791
245.0853, 24.10748
245.5674, 24.03728
246.0496, 24.19303
246.5317, 24.29884
247.0138, 24.25637
247.4959, 24.03926
247.9780, 23.99301
248.4601, 24.19934
248.9423, 24.49511
249.4244, 24.70546
249.9065, 24.81115
250.3886, 24.86839
250.8707, 24.86303
251.3528, 24.78845
251.8350, 24.82586
252.3171, 25.08153
252.7992, 25.33355
253.2813, 25.30544
253.7634, 24.76813
254.2455, 24.45976
254.7277, 24.63601
255.2098, 25.31058
255.6919, 25.60108
256.1740, 25.32538
256.6561, 24.89338
257.1382, 24.70028
257.6204, 24.83039
258.1025, 24.98934
258.5846, 25.11650
259.0667, 25.21621
259.5488, 25.39578
260.0309, 25.71945
260.5131, 26.02456
260.9952, 26.14739
261.4773, 26.02018
261.9594, 25.90065
262.4415, 25.81196
262.9236, 25.75965
263.4058, 25.82182
263.8879, 26.04921
264.3700, 26.30667
264.8521, 26.48068
265.3342, 26.52990
265.8163, 26.63169
266.2985, 26.81911
266.7806, 27.07897
267.2627, 27.34180
267.7448, 27.59614
268.2269, 27.87379
268.7090, 28.22887
269.1912, 28.71451
269.6733, 29.04782
270.1554, 29.13809
270.6375, 29.06461
271.1196, 29.15988
271.6017, 29.47467
272.0839, 29.81594
272.5660, 29.99817
273.0481, 29.96466
273.5302, 30.16777
274.0123, 30.72277
274.4944, 31.49810
274.9766, 32.10854
275.4587, 32.51939
275.9408, 32.89830
276.4229, 33.32796
276.9050, 33.81143
277.3871, 34.33360
277.8693, 34.90015
278.3514, 35.49770
278.8335, 36.08476
279.3156, 36.65850
279.7977, 37.27179
280.2798, 37.94439
280.7620, 38.67016
281.2441, 39.50256
281.7262, 40.45914
282.2083, 41.49489
282.6904, 42.52320
283.1725, 43.53938
283.6547, 44.60975
284.1368, 45.76753
284.6189, 47.00190
285.1010, 48.30246
285.5831, 49.66171
286.0652, 51.10620
286.5474, 52.61860
287.0295, 54.20240
287.5116, 56.04626
287.9937, 58.34770
288.4758, 61.04194
288.9579, 63.60587
289.4401, 66.05856
289.9222, 68.42503
290.4043, 70.64315
290.8864, 72.74805
291.3685, 75.03425
291.8506, 77.62361
292.3328, 80.47139
292.8149, 83.36882
293.2970, 86.32680
293.7791, 89.36862
294.2612, 92.47477
294.7433, 95.65929
295.2255, 98.94357
295.7076, 102.3134
296.1897, 105.7787
296.6718, 109.3446
297.1539, 112.9918
297.6360, 116.5680
298.1182, 119.8629
298.6003, 122.9581
299.0824, 126.1286
299.5645, 129.4095
300.0466, 132.8538
300.5287, 136.6624
301.0109, 140.7701
301.4930, 144.8621
301.9751, 148.6213
302.4572, 152.2016
302.9393, 155.8382
303.4214, 159.7886
303.9036, 163.5171
304.3857, 166.4902
304.8678, 168.7627
305.3499, 170.5870
305.8320, 172.0826
306.3141, 173.2105
306.7963, 173.9205
307.2784, 174.2436
307.7605, 174.0584
308.2426, 173.4297
308.7247, 172.2305
309.2068, 170.1575
309.6890, 166.6953
310.1711, 162.4905
310.6532, 158.1488
311.1353, 153.7997
311.6174, 149.0530
312.0995, 143.5071
312.5817, 137.4773
313.0638, 131.4029
313.5459, 125.3897
314.0280, 119.3808
314.5101, 113.2380
314.9922, 106.9574
315.4744, 100.9150
315.9565, 95.32604
316.4386, 90.09818
316.9207, 85.19587
317.4028, 80.59663
317.8849, 76.27255
318.3671, 72.21151
318.8492, 68.38156
319.3313, 64.87369
319.8134, 61.79749
320.2955, 58.99498
320.7776, 56.37428
321.2598, 53.91287
321.7419, 51.59900
322.2240, 49.41737
322.7061, 47.37458
323.1882, 45.50837
323.6703, 43.91423
324.1525, 42.43023
324.6346, 40.98072
325.1167, 39.43283
325.5988, 38.07180
326.0809, 36.99172
326.5630, 36.12300
327.0452, 35.27088
327.5273, 34.27809
328.0094, 33.43873
328.4915, 32.89986
328.9736, 32.92716
329.4557, 32.67320
329.9379, 31.94424
330.4200, 30.99235
330.9021, 30.23352
331.3842, 29.78630
331.8663, 29.36659
332.3484, 28.89866
332.8306, 28.38348
333.3127, 27.86451
333.7948, 27.32187
334.2769, 26.79101
334.7590, 26.31724
335.2411, 25.90533
335.7233, 25.53040
336.2054, 25.18294
336.6875, 24.86352
337.1696, 24.64121
337.6517, 24.55931
338.1339, 24.49286
338.6160, 24.34117
339.0981, 24.09194
339.5802, 23.80530
340.0623, 23.45942
340.5444, 23.09583
341.0266, 22.89518
341.5087, 22.88310
341.9908, 22.89422
342.4729, 22.83331
342.9550, 22.70081
343.4371, 22.51799
343.9193, 22.27584
344.4014, 22.00632
344.8835, 21.77660
345.3656, 21.58638
345.8477, 21.38812
346.3298, 21.14016
346.8120, 20.85939
347.2941, 20.62416
347.7762, 20.43307
348.2583, 20.29467
348.7404, 20.26760
349.2225, 20.31795
349.7047, 20.29803
350.1868, 20.08616
350.6689, 19.79863
351.1510, 19.66298
351.6331, 19.67680
352.1152, 19.68993
352.5974, 19.52164
353.0795, 19.27072
353.5616, 19.12641
354.0437, 19.18146
354.5258, 19.31062
355.0079, 19.46985
355.4901, 19.62345
355.9722, 19.61715
356.4543, 19.17900
356.9364, 18.61683
357.4185, 18.25207
357.9006, 18.18805
358.3828, 18.20346
358.8649, 18.14837
359.3470, 18.07241
359.8291, 18.07508
360.3112, 18.35196
360.7933, 18.60627
361.2755, 18.63212
361.7576, 18.37845
362.2397, 18.13486
362.7218, 18.01725
363.2039, 17.96539
363.6860, 17.91205
364.1682, 17.79022
364.6503, 17.71214
365.1324, 17.75796
365.6145, 17.92003
366.0966, 17.99446
366.5787, 17.81293
367.0609, 17.61777
367.5430, 17.56427
368.0251, 17.92572
368.5072, 18.12076
368.9893, 17.99816
369.4714, 17.66379
369.9536, 17.46748
370.4357, 17.52331
370.9178, 17.59669
371.3999, 17.58466
371.8820, 17.41721
372.3641, 17.35169
372.8463, 17.44750
373.3284, 17.60655
373.8105, 17.67223
374.2926, 17.60380
374.7747, 17.53330
375.2568, 17.50098
375.7390, 17.50718
376.2211, 17.52529
376.7032, 17.61433
377.1853, 17.59130
377.6674, 17.13200
378.1495, 16.13914
378.6317, 15.61113
379.1138, 15.87234
379.5959, 16.63790
380.0780, 17.05163
380.5601, 17.09398
381.0422, 16.97131
381.5244, 16.72739
382.0065, 16.40530
382.4886, 16.28530
382.9707, 16.43478
383.4528, 16.67423
383.9349, 16.74400
384.4171, 16.67093
384.8992, 16.60256
385.3813, 16.62366
385.8634, 16.69180
386.3455, 16.72965
386.8276, 16.73327
387.3098, 16.74290
387.7919, 16.80157
388.2740, 16.88947
388.7561, 16.97109
389.2382, 17.03704
389.7203, 17.09020
390.2025, 17.15519
390.6846, 17.21809
391.1667, 17.21390
391.6488, 16.99164
392.1309, 16.74902
392.6130, 16.69180
393.0952, 17.00841
393.5773, 17.18267
394.0594, 16.79291
394.5415, 16.12821
395.0236, 15.72508
395.5057, 15.99823
395.9879, 16.34296
396.4700, 16.53193
396.9521, 16.53549
397.4342, 16.46683
397.9163, 16.20540
398.3984, 15.94558
398.8806, 15.86471
399.3627, 16.19174
399.8448, 16.44856
400.3269, 16.52864
400.8090, 16.46738
401.2911, 16.54724
401.7733, 16.97951
402.2554, 17.30458
402.7375, 17.23662
403.2196, 16.51326
403.7017, 16.06521
404.1838, 15.98660
404.6660, 16.12697
405.1481, 16.20887
405.6302, 16.21671
406.1123, 16.22721
406.5944, 16.28355
407.0765, 16.38043
407.5587, 16.39145
408.0408, 16.30396
408.5229, 16.17962
409.0050, 16.05255
409.4871, 15.92865
409.9692, 15.88300
410.4514, 15.93227
410.9335, 16.06720
411.4156, 16.33563
411.8977, 16.71791
412.3798, 17.01374
412.8619, 17.04773
413.3441, 16.90624
413.8262, 16.74649
414.3083, 16.58202
414.7904, 16.41648
415.2725, 16.23389
415.7546, 16.05237
416.2368, 15.90486
416.7189, 15.81686
417.2010, 15.76350
417.6831, 15.73304
418.1652, 15.72395
418.6473, 15.71614
419.1295, 15.74302
419.6116, 15.74408
420.0937, 15.65142
420.5758, 15.29132
421.0579, 15.06339
421.5400, 15.19946
422.0222, 15.56414
422.5043, 15.82704
422.9864, 15.85809
423.4685, 15.81993
423.9506, 15.76606
424.4327, 15.69474
424.9149, 15.62543
425.3970, 15.50033
425.8791, 15.40909
426.3612, 15.45467
426.8433, 15.80525
427.3254, 16.02010
427.8076, 15.99564
428.2897, 15.76724
428.7718, 15.58395
429.2539, 15.45080
429.7360, 15.35565
430.2181, 15.28102
430.7003, 15.21502
431.1824, 15.26239
431.6645, 15.45657
432.1466, 15.71500
432.6287, 15.90698
433.1108, 16.03071
433.5930, 16.10901
434.0751, 16.15264
434.5572, 16.15735
435.0393, 16.10457
435.5214, 15.99454
436.0035, 15.84460
436.4857, 15.57777
436.9678, 15.28615
437.4499, 15.21973
437.9320, 15.52226
438.4141, 15.88848
438.8962, 15.98715
439.3784, 15.87396
439.8605, 15.71241
440.3426, 15.50323
440.8247, 15.33863
441.3068, 15.30389
441.7889, 15.41247
442.2711, 15.57521
442.7532, 15.87094
443.2353, 16.14709
443.7174, 16.24523
444.1995, 15.92316
444.6816, 15.62530
445.1638, 15.48293
445.6459, 15.47162
446.1280, 15.46708
446.6101, 15.38250
447.0922, 15.35820
447.5743, 15.49145
448.0565, 15.93958
448.5386, 16.13411
449.0207, 15.88571
449.5028, 15.50169
449.9849, 15.40493
450.4670, 15.75853
450.9492, 16.02867
451.4313, 16.07806
451.9134, 15.93972
452.3955, 15.84899
452.8776, 15.81942
453.3597, 15.79686
453.8419, 15.74899
454.3240, 15.67642
454.8061, 15.57912
455.2882, 15.45455
455.7703, 15.31413
456.2524, 15.17778
456.7346, 15.04225
457.2167, 14.89795
457.6988, 14.65731
458.1809, 14.43881
458.6630, 14.47993
459.1451, 14.76828
459.6273, 15.11443
460.1094, 15.46831
460.5915, 15.75822
461.0736, 15.86725
461.5557, 15.69508
462.0378, 15.50736
462.5200, 15.48463
463.0021, 15.56893
463.4842, 15.64808
463.9663, 15.74351
464.4484, 15.76846
464.9305, 15.61531
465.4127, 15.26350
465.8948, 15.06687
466.3769, 15.29428
466.8590, 15.58626
467.3411, 15.68128
467.8232, 15.25482
468.3054, 15.04644
468.7875, 15.21173
469.2696, 15.58696
469.7517, 15.75372
470.2338, 15.58288
470.7159, 15.44116
471.1981, 15.47138
471.6802, 15.68164
472.1623, 15.86196
472.6444, 16.01840
473.1265, 16.12338
473.6086, 16.14760
474.0908, 16.09123
474.5729, 15.94980
475.0550, 15.68091
475.5371, 15.39144
476.0192, 15.28701
476.5013, 15.35421
476.9835, 15.48802
477.4656, 15.69416
477.9477, 15.90796
478.4298, 16.00978
478.9119, 15.99233
479.3940, 15.94810
479.8762, 15.94078
480.3583, 15.95334
480.8404, 15.96316
481.3225, 15.96085
481.8046, 15.95866
482.2867, 15.96352
482.7689, 15.97376
483.2510, 15.98486
483.7331, 15.98248
484.2152, 15.99231
484.6973, 16.04910
485.1794, 16.18390
485.6616, 16.21865
486.1437, 16.06275
486.6258, 15.84636
487.1079, 15.65610
487.5900, 15.41972
488.0721, 15.34582
488.5543, 15.51291
489.0364, 15.83410
489.5185, 16.05113
490.0006, 16.12665
490.4827, 16.21081
490.9648, 16.39059
491.4470, 16.65791
491.9291, 16.83763
492.4112, 16.92894
492.8933, 16.92988
493.3754, 16.79118
493.8575, 16.54708
494.3397, 16.35539
494.8218, 16.26916
495.3039, 16.21809
495.7860, 16.08375
496.2681, 15.89818
496.7502, 15.77094
497.2324, 15.77817
497.7145, 15.85873
498.1966, 15.96554
498.6787, 16.09646
499.1608, 16.23514
499.6429, 16.39576
500.1251, 16.54872
500.6072, 16.67598
501.0893, 16.83232
501.5714, 16.87716
502.0535, 16.72462
502.5356, 16.44135
503.0178, 16.17897
503.4999, 15.84855
503.9820, 15.64885
504.4641, 15.67798
504.9462, 15.94856
505.4283, 16.09707
505.9105, 16.04964
506.3926, 15.99361
506.8747, 16.11687
507.3568, 16.47418
507.8389, 16.61136
508.3210, 16.42834
508.8032, 16.10795
509.2853, 15.95627
509.7674, 15.96682
510.2495, 16.03580
510.7316, 16.14161
511.2137, 16.26853
511.6959, 16.40643
512.1780, 16.54922
512.6601, 16.63562
513.1422, 16.60134
513.6243, 16.49123
514.1064, 16.34367
514.5886, 16.14141
515.0707, 15.99086
515.5528, 16.04584
516.0349, 16.17256
516.5170, 16.17848
516.9991, 15.81290
517.4813, 15.50979
517.9634, 15.44564
518.4455, 15.59425
518.9276, 15.71794
519.4097, 15.79773
519.8918, 15.83878
520.3740, 15.83870
520.8561, 15.78798
521.3382, 15.71979
521.8203, 15.60147
522.3024, 15.50301
522.7845, 15.52086
523.2667, 15.67940
523.7488, 15.82328
524.2309, 15.93985
524.7130, 16.00526
525.1951, 15.91782
525.6772, 15.68103
526.1594, 15.47849
526.6415, 15.46509
527.1236, 15.54945
527.6057, 15.48498
528.0878, 15.26161
528.5699, 15.10056
529.0521, 15.29827
529.5342, 15.63167
530.0163, 15.80066
530.4984, 15.67445
530.9805, 15.46391
531.4626, 15.20909
531.9448, 14.95912
532.4269, 14.80972
532.9090, 14.81446
533.3911, 14.89659
533.8732, 15.07367
534.3553, 15.34856
534.8375, 15.52882
535.3196, 15.58887
535.8017, 15.57323
536.2838, 15.49212
536.7659, 15.29754
537.2480, 15.16043
537.7302, 15.06252
538.2123, 15.04858
538.6944, 15.26151
539.1765, 15.73175
539.6586, 16.00321
540.1407, 15.88363
540.6229, 15.54677
541.1050, 15.38382
541.5871, 15.38637
542.0692, 15.46886
542.5513, 15.71705
543.0334, 15.95972
543.5156, 15.84297
543.9977, 15.32721
544.4798, 14.90800
544.9619, 15.04528
545.4440, 15.42351
545.9261, 15.70166
546.4083, 15.77966
546.8904, 15.75878
547.3725, 15.58361
547.8546, 15.33740
548.3367, 15.19451
548.8188, 15.25093
549.3010, 15.34022
549.7831, 15.42825
550.2652, 15.51494
550.7473, 15.61015
551.2294, 15.74120
551.7115, 15.83467
552.1937, 15.84954
552.6758, 15.78506
553.1579, 15.62165
553.6400, 15.31819
554.1221, 15.02820
554.6042, 15.01673
555.0864, 15.23364
555.5685, 15.35579
556.0506, 15.23700
556.5327, 15.03914
557.0148, 14.99669
557.4969, 15.07676
557.9791, 15.15632
558.4612, 15.13648
558.9433, 15.10612
559.4254, 15.11278
559.9075, 15.15879
560.3896, 15.31298
560.8718, 15.91276
561.3539, 16.44019
561.8360, 16.48771
562.3181, 15.44525
562.8002, 14.76065
563.2823, 14.64133
563.7645, 14.85945
564.2466, 15.09676
564.7287, 15.39234
565.2108, 15.61389
565.6929, 15.72369
566.1750, 15.73676
566.6572, 15.72015
567.1393, 15.67344
567.6214, 15.59917
568.1035, 15.44587
568.5856, 15.25961
569.0677, 15.23634
569.5499, 15.38980
570.0320, 15.59131
570.5141, 15.71091
570.9962, 15.79910
571.4783, 15.96210
571.9604, 16.31663
572.4426, 16.56420
572.9247, 16.43688
573.4068, 16.08300
573.8889, 15.76514
574.3710, 15.46741
574.8531, 15.32420
575.3353, 15.47380
575.8174, 15.88655
576.2995, 16.13558
576.7816, 16.07195
577.2637, 16.00609
577.7458, 16.09801
578.2280, 16.40406
578.7101, 16.54821
579.1922, 16.48326
579.6743, 16.36014
580.1564, 16.36560
580.6385, 16.48808
581.1207, 16.49690
581.6028, 16.32087
582.0849, 16.08493
582.5670, 15.95022
583.0491, 15.91057
583.5313, 15.94093
584.0134, 16.13822
584.4955, 16.32303
584.9776, 16.26036
585.4597, 16.00383
585.9418, 15.85745
586.4240, 16.08295
586.9061, 16.36933
587.3882, 16.53775
587.8703, 16.54328
588.3524, 16.52469
588.8345, 16.50036
589.3167, 16.45638
