##NAMES=Spherocobaltite
##RRUFFID=R060497
##IDEAL CHEMISTRY=Co^2+^CO_3_
##LOCALITY=Bou Azzer, Anti Atlas Mountains, Morocco
##OWNER=RRUFF
##SOURCE=Michael Scott
##DESCRIPTION=Group of red rhombohedral crystals
##STATUS=The identification of this mineral is confirmed by single-crystal X-ray diffraction and chemical analysis.
##URL=rruff.info/R060497
##MEASURED CHEMISTRY=(Co_0.68_Mg_0.15_Ni_0.07_Ca_0.05_Fe_0.04_Mn_0.01_)_Î£=1_CO_3_ ; C not measured but estimated by difference and stoichiometry
91.00781, 2.722955
91.48993, 2.871033
91.97205, 2.930327
92.45416, 2.858987
92.93628, 2.701126
93.41840, 2.544332
93.90051, 2.390831
94.38263, 2.264054
94.86475, 2.217768
95.34686, 2.251255
95.82898, 2.295471
96.31110, 2.293545
96.79321, 2.249649
97.27533, 2.204960
97.75745, 2.161544
98.23956, 2.125385
98.72168, 2.134674
99.20380, 2.201570
99.68591, 2.275525
100.1680, 2.294530
100.6501, 2.245693
101.1323, 2.204021
101.6144, 2.191480
102.0965, 2.209797
102.5786, 2.234220
103.0607, 2.257804
103.5428, 2.293678
104.0250, 2.364450
104.5071, 2.473004
104.9892, 2.610788
105.4713, 2.775893
105.9534, 2.977070
106.4355, 3.188661
106.9177, 3.448330
107.3998, 3.720265
107.8819, 3.898033
108.3640, 3.906317
108.8461, 3.878873
109.3282, 3.877077
109.8104, 3.865618
110.2925, 3.919417
110.7746, 4.037819
111.2567, 4.221297
111.7388, 4.481112
112.2209, 4.946821
112.7031, 5.417627
113.1852, 5.759699
113.6673, 5.817047
114.1494, 5.863658
114.6315, 5.940568
115.1136, 6.048629
115.5958, 6.260890
116.0779, 6.675275
116.5600, 7.183657
117.0421, 7.662732
117.5242, 8.179306
118.0063, 8.580499
118.4885, 8.713227
118.9706, 8.498460
119.4527, 8.383267
119.9348, 8.669798
120.4169, 9.223707
120.8990, 9.805143
121.3812, 10.34013
121.8633, 10.82413
122.3454, 11.25609
122.8275, 11.65438
123.3096, 11.96311
123.7917, 12.17753
124.2739, 12.27621
124.7560, 12.18056
125.2381, 11.50147
125.7202, 10.64316
126.2023, 10.35573
126.6844, 11.01449
127.1666, 12.03084
127.6487, 12.58354
128.1308, 12.69675
128.6129, 12.73310
129.0950, 13.11416
129.5771, 13.69918
130.0593, 13.94963
130.5414, 13.49089
131.0235, 12.67967
131.5056, 12.50753
131.9877, 12.99123
132.4698, 13.54244
132.9520, 13.44302
133.4341, 12.74384
133.9162, 12.43733
134.3983, 13.04918
134.8804, 14.41760
135.3625, 15.32712
135.8447, 15.70729
136.3268, 15.84135
136.8089, 16.11368
137.2910, 16.54522
137.7731, 16.99149
138.2552, 17.45736
138.7374, 17.97707
139.2195, 18.21011
139.7016, 18.09269
140.1837, 17.76000
140.6658, 17.48171
141.1479, 17.25882
141.6301, 17.07716
142.1122, 16.91251
142.5943, 16.71481
143.0764, 16.67493
143.5585, 16.85787
144.0406, 17.19215
144.5228, 17.42469
145.0049, 17.46483
145.4870, 17.51427
145.9691, 17.69890
146.4512, 18.22814
146.9333, 18.54606
147.4155, 18.47602
147.8976, 18.08590
148.3797, 18.03139
148.8618, 18.61801
149.3439, 19.31855
149.8260, 19.79341
150.3082, 19.80303
150.7903, 19.85985
151.2724, 20.05062
151.7545, 20.37967
152.2366, 20.61777
152.7188, 20.52368
153.2009, 20.44881
153.6830, 20.67681
154.1651, 21.69988
154.6472, 22.57241
155.1293, 23.01989
155.6115, 22.98942
156.0936, 22.95487
156.5757, 23.02322
157.0578, 23.11877
157.5399, 23.15781
158.0220, 22.97983
158.5042, 22.86419
158.9863, 22.93334
159.4684, 23.22689
159.9505, 23.54919
160.4326, 23.78947
160.9147, 24.02873
161.3969, 24.38749
161.8790, 25.16018
162.3611, 25.88182
162.8432, 26.27225
163.3253, 26.20468
163.8074, 26.07661
164.2896, 25.98215
164.7717, 25.95335
165.2538, 26.05508
165.7359, 26.40564
166.2180, 26.84518
166.7001, 27.27673
167.1823, 27.71910
167.6644, 28.05709
168.1465, 28.07777
168.6286, 27.90680
169.1107, 27.89850
169.5928, 28.34892
170.0750, 29.01719
170.5571, 29.68274
171.0392, 30.34120
171.5213, 30.89892
172.0034, 31.21135
172.4855, 31.32676
172.9677, 31.44982
173.4498, 31.80221
173.9319, 32.22445
174.4140, 32.46333
174.8961, 32.30253
175.3782, 32.10610
175.8604, 32.33412
176.3425, 32.94478
176.8246, 33.57614
177.3067, 33.89326
177.7888, 34.04387
178.2709, 34.33744
178.7531, 34.98904
179.2352, 35.73693
179.7173, 36.10445
180.1994, 36.11012
180.6815, 36.17639
181.1636, 36.77077
181.6458, 37.74415
182.1279, 38.63042
182.6100, 39.24138
183.0921, 39.69186
183.5742, 40.22503
184.0563, 40.83344
184.5385, 41.48626
185.0206, 42.16706
185.5027, 42.87011
185.9848, 43.53021
186.4669, 44.06576
186.9490, 44.54925
187.4312, 45.27041
187.9133, 46.24632
188.3954, 47.25793
188.8775, 47.97121
189.3596, 48.42140
189.8417, 48.98629
190.3239, 49.90739
190.8060, 51.09042
191.2881, 51.99415
191.7702, 52.57638
192.2523, 53.01306
192.7344, 53.46546
193.2166, 53.93261
193.6987, 54.53825
194.1808, 55.37788
194.6629, 56.43065
195.1450, 57.52282
195.6271, 58.69491
196.1093, 59.80521
196.5914, 60.60098
197.0735, 61.05925
197.5556, 61.48827
198.0377, 61.99947
198.5198, 62.59706
199.0020, 63.23473
199.4841, 63.89425
199.9662, 64.62654
200.4483, 65.64710
200.9304, 67.04716
201.4125, 68.18033
201.8947, 68.66005
202.3768, 68.42494
202.8589, 68.36046
203.3410, 68.57154
203.8231, 68.82293
204.3052, 68.70821
204.7874, 68.22672
205.2695, 67.39719
205.7516, 66.15584
206.2337, 64.44120
206.7158, 62.72969
207.1979, 61.01643
207.6801, 59.31021
208.1622, 57.70623
208.6443, 56.27847
209.1264, 54.69959
209.6085, 52.73239
210.0906, 50.22674
210.5728, 48.05156
211.0549, 46.38568
211.5370, 44.94953
212.0191, 43.08749
212.5012, 40.57160
212.9833, 38.15598
213.4655, 36.21849
213.9476, 34.82156
214.4297, 33.64544
214.9118, 32.76113
215.3939, 32.05659
215.8760, 31.21411
216.3581, 30.17117
216.8403, 29.13299
217.3224, 28.20401
217.8045, 27.38829
218.2866, 26.65331
218.7687, 26.03269
219.2508, 25.48150
219.7330, 24.89783
220.2151, 24.27534
220.6972, 23.63300
221.1793, 22.94642
221.6614, 22.08103
222.1435, 21.54559
222.6257, 21.49598
223.1078, 21.73440
223.5899, 21.69461
224.0720, 21.23741
224.5541, 20.72405
225.0362, 20.29348
225.5184, 19.91908
226.0005, 19.71621
226.4826, 19.76569
226.9647, 19.96662
227.4468, 20.03582
227.9289, 19.92701
228.4111, 19.75753
228.8932, 19.56037
229.3753, 19.26536
229.8574, 19.12356
230.3395, 19.23140
230.8216, 19.47396
231.3038, 19.51515
231.7859, 19.20400
232.2680, 18.91266
232.7501, 18.83148
233.2322, 19.12355
233.7143, 19.25086
234.1965, 19.14371
234.6786, 18.88428
235.1607, 18.68639
235.6428, 18.50393
236.1249, 18.44941
236.6070, 18.60690
237.0892, 19.16349
237.5713, 19.51238
238.0534, 19.59090
238.5355, 19.47774
239.0176, 19.36586
239.4997, 19.23085
239.9819, 19.13043
240.4640, 19.09974
240.9461, 19.19105
241.4282, 19.22216
241.9103, 19.14802
242.3924, 19.02810
242.8746, 19.01056
243.3567, 19.14958
243.8388, 19.30907
244.3209, 19.43765
244.8030, 19.52707
245.2851, 19.60657
245.7673, 19.68540
246.2494, 19.75095
246.7315, 19.77260
247.2136, 19.73021
247.6957, 19.67598
248.1778, 19.62572
248.6600, 19.57314
249.1421, 19.53493
249.6242, 19.45821
250.1063, 19.42282
250.5884, 19.61108
251.0705, 20.17245
251.5527, 20.70428
252.0348, 21.05034
252.5169, 21.16662
252.9990, 21.26677
253.4811, 21.35840
253.9632, 21.42975
254.4454, 21.44174
254.9275, 21.32232
255.4096, 21.28265
255.8917, 21.43046
256.3738, 21.83816
256.8560, 22.07761
257.3381, 22.05486
257.8202, 21.94480
258.3023, 22.04384
258.7844, 22.48395
259.2665, 22.84023
259.7487, 22.93869
260.2308, 22.71749
260.7129, 22.68460
261.1950, 22.92932
261.6771, 23.26428
262.1592, 23.40083
262.6414, 23.21134
263.1235, 23.15015
263.6056, 23.40509
264.0877, 24.01331
264.5698, 24.37706
265.0519, 24.37449
265.5341, 24.29317
266.0162, 24.47988
266.4983, 24.99753
266.9804, 25.59763
267.4625, 26.29198
267.9446, 27.06985
268.4268, 27.52583
268.9089, 27.51479
269.3910, 27.42267
269.8731, 27.67321
270.3552, 28.35136
270.8373, 29.02985
271.3195, 29.64627
271.8016, 30.19292
272.2837, 30.59081
272.7658, 30.78768
273.2479, 30.96402
273.7300, 31.28523
274.2122, 31.76048
274.6943, 32.32153
275.1764, 32.98814
275.6585, 33.72761
276.1406, 34.32064
276.6227, 34.70277
277.1049, 35.15232
277.5870, 35.96352
278.0691, 37.17829
278.5512, 38.25599
279.0333, 39.05574
279.5154, 39.68817
279.9976, 40.53391
280.4797, 41.62384
280.9618, 42.78108
281.4439, 43.86057
281.9260, 44.85537
282.4081, 46.07096
282.8903, 47.59295
283.3724, 49.30498
283.8545, 50.88826
284.3366, 52.31896
284.8187, 53.88008
285.3008, 55.76772
285.7830, 57.97603
286.2651, 60.25946
286.7472, 62.64993
287.2293, 65.03515
287.7114, 67.07030
288.1935, 68.76011
288.6757, 70.71407
289.1578, 73.37473
289.6399, 76.63416
290.1220, 79.80682
290.6041, 82.85316
291.0862, 85.86872
291.5684, 88.87068
292.0505, 91.90572
292.5326, 95.25526
293.0147, 99.25313
293.4968, 103.6839
293.9789, 108.0124
294.4611, 112.1617
294.9432, 116.3460
295.4253, 120.8391
295.9074, 125.6019
296.3895, 130.3425
296.8716, 135.0163
297.3538, 139.6122
297.8359, 144.0137
298.3180, 148.2407
298.8001, 152.6590
299.2822, 157.8792
299.7643, 163.6493
300.2465, 169.2418
300.7286, 174.4877
301.2107, 179.3497
301.6928, 183.6564
302.1749, 187.4110
302.6570, 191.2446
303.1392, 195.9217
303.6213, 200.9541
304.1034, 205.4133
304.5855, 209.1295
305.0676, 212.1229
305.5497, 214.3786
306.0319, 215.9447
306.5140, 217.1861
306.9961, 218.8070
307.4782, 220.0441
307.9603, 219.9494
308.4424, 218.0764
308.9246, 215.2337
309.4067, 211.9256
309.8888, 208.1481
310.3709, 203.8142
310.8530, 198.5566
311.3351, 192.9387
311.8173, 187.5710
312.2994, 182.7229
312.7815, 177.3909
313.2636, 170.7841
313.7457, 163.3547
314.2278, 155.8478
314.7100, 148.3702
315.1921, 141.1476
315.6742, 134.4112
316.1563, 128.2914
316.6384, 122.0969
317.1205, 115.2971
317.6027, 108.4206
318.0848, 102.1762
318.5669, 97.12895
319.0490, 92.44624
319.5311, 87.74743
320.0132, 82.99782
320.4954, 78.64726
320.9775, 75.11218
321.4596, 71.92007
321.9417, 68.72621
322.4238, 65.32226
322.9059, 62.04948
323.3881, 58.90733
323.8702, 55.93922
324.3523, 53.29893
324.8344, 51.09595
325.3165, 49.17604
325.7986, 47.42620
326.2808, 46.05240
326.7629, 44.59701
327.2450, 42.89717
327.7271, 41.05984
328.2092, 39.50200
328.6913, 38.36190
329.1735, 37.38551
329.6556, 36.47860
330.1377, 35.77312
330.6198, 34.87841
331.1019, 33.65722
331.5840, 32.29024
332.0662, 31.08541
332.5483, 30.02808
333.0304, 29.15047
333.5125, 28.52072
333.9946, 28.19582
334.4767, 27.77455
334.9589, 27.22392
335.4410, 26.61471
335.9231, 26.04764
336.4052, 25.57224
336.8873, 25.01136
337.3694, 24.26016
337.8516, 23.34554
338.3336, 22.71241
338.8158, 22.41541
339.2979, 22.28317
339.7800, 22.19471
340.2621, 22.16745
340.7442, 22.07234
341.2263, 21.89432
341.7085, 21.63175
342.1906, 21.24607
342.6727, 20.70768
343.1548, 20.21078
343.6369, 19.91333
344.1190, 19.80398
344.6012, 19.65108
345.0833, 19.41812
345.5654, 19.15711
346.0475, 18.97842
346.5296, 18.87606
347.0117, 18.74315
347.4939, 18.49047
347.9760, 18.16155
348.4581, 17.89954
348.9402, 17.72036
349.4223, 17.55811
349.9044, 17.28538
350.3866, 16.95201
350.8687, 16.72547
351.3508, 16.74961
351.8329, 16.88637
352.3150, 16.96966
352.7971, 16.99655
353.2793, 16.88058
353.7614, 16.34976
354.2435, 15.66917
354.7256, 15.28182
355.2077, 15.45999
355.6898, 15.79415
356.1720, 16.00997
356.6541, 16.09924
357.1362, 16.03357
357.6183, 15.63632
358.1004, 15.16288
358.5826, 14.84880
359.0647, 14.77349
359.5468, 14.76868
360.0289, 14.82950
360.5110, 14.89223
360.9931, 14.83510
361.4753, 14.42020
361.9574, 14.02606
362.4395, 13.87169
362.9216, 14.01378
363.4037, 14.15573
363.8858, 14.22690
364.3680, 14.24692
364.8501, 14.23639
365.3322, 14.20587
365.8143, 14.13934
366.2964, 13.98887
366.7785, 13.75883
367.2607, 13.63836
367.7428, 13.83324
368.2249, 14.01724
368.7070, 13.98838
369.1891, 13.46101
369.6712, 13.10085
370.1534, 12.98342
370.6355, 13.04636
371.1176, 13.08933
371.5997, 13.02812
372.0818, 13.05709
372.5639, 13.29951
373.0461, 13.90194
373.5282, 14.23214
374.0103, 14.23550
374.4924, 14.02484
374.9745, 13.73108
375.4566, 13.28822
375.9388, 12.96911
376.4209, 12.89883
376.9030, 13.05598
377.3851, 13.09480
377.8672, 12.99705
378.3493, 12.84350
378.8315, 12.69030
379.3136, 12.53542
379.7957, 12.44312
380.2778, 12.44283
380.7599, 12.49369
381.2420, 12.48004
381.7242, 12.40214
382.2063, 12.35470
382.6884, 12.45892
383.1705, 12.65247
383.6526, 12.70072
384.1347, 12.56217
384.6169, 12.35470
385.0990, 12.22062
385.5811, 12.14114
386.0632, 12.06221
386.5453, 11.90517
387.0274, 11.75769
387.5096, 11.78159
387.9917, 11.97580
388.4738, 12.14598
388.9559, 12.13441
389.4380, 12.00800
389.9201, 11.84385
390.4023, 11.56867
390.8844, 11.37815
391.3665, 11.48412
391.8486, 11.80829
392.3307, 12.05932
392.8128, 12.03550
393.2950, 11.93103
393.7771, 11.88962
394.2592, 11.98271
394.7413, 12.00781
395.2234, 11.79669
395.7055, 11.49701
396.1877, 11.33725
396.6698, 11.47563
397.1519, 11.65818
397.6340, 11.84901
398.1161, 12.06133
398.5982, 12.13355
399.0804, 11.94937
399.5625, 11.68544
400.0446, 11.46563
400.5267, 11.27536
401.0088, 11.15186
401.4909, 11.11465
401.9731, 11.14844
402.4552, 11.20169
402.9373, 11.30966
403.4194, 11.37957
403.9015, 11.33289
404.3836, 11.09395
404.8658, 11.07906
405.3479, 11.40505
405.8300, 11.79648
406.3121, 11.79400
406.7942, 11.33593
407.2763, 10.91230
407.7585, 10.67667
408.2406, 10.60487
408.7227, 10.58019
409.2048, 10.60600
409.6869, 10.64933
410.1690, 10.68493
410.6512, 10.71360
411.1333, 10.74579
411.6154, 10.79342
412.0975, 10.82694
412.5796, 10.76638
413.0617, 10.63646
413.5439, 10.55811
414.0260, 10.68003
414.5081, 10.86448
414.9902, 10.90473
415.4723, 10.77780
415.9544, 10.60038
416.4366, 10.43311
416.9187, 10.28432
417.4008, 10.16691
417.8829, 10.05038
418.3650, 9.995472
418.8471, 10.11161
419.3293, 10.35583
419.8114, 10.48011
420.2935, 10.21418
420.7756, 9.895415
421.2577, 9.765566
421.7398, 9.961817
422.2220, 10.15059
422.7041, 10.28938
423.1862, 10.37170
423.6683, 10.38768
424.1504, 10.25856
424.6325, 10.13984
425.1147, 10.06538
425.5968, 10.03334
426.0789, 10.05792
426.5610, 10.20495
427.0431, 10.34898
427.5252, 10.38314
428.0074, 10.26708
428.4895, 10.12758
428.9716, 9.948027
429.4537, 9.765523
429.9358, 9.727283
430.4179, 9.879910
430.9001, 10.01190
431.3822, 9.982242
431.8643, 9.787018
432.3464, 9.710137
432.8285, 9.772473
433.3106, 9.887239
433.7928, 9.944707
434.2749, 9.952415
434.7570, 9.978657
435.2391, 10.07206
435.7212, 10.17510
436.2033, 10.15757
436.6855, 10.02950
437.1676, 9.889537
437.6497, 9.781703
438.1318, 9.714962
438.6139, 9.709961
439.0960, 9.779111
439.5782, 9.876254
440.0603, 9.971454
440.5424, 10.06740
441.0245, 10.16752
441.5066, 10.36855
441.9887, 10.49730
442.4709, 10.37310
442.9530, 10.00707
443.4351, 9.766085
443.9172, 9.964155
444.3993, 10.23824
444.8814, 10.31727
445.3636, 9.930996
445.8457, 9.651546
446.3278, 9.622845
446.8099, 9.756093
447.2920, 9.830007
447.7741, 9.814137
448.2563, 9.765462
448.7384, 9.682298
449.2205, 9.549391
449.7026, 9.504651
450.1847, 9.598704
450.6668, 9.717975
451.1490, 9.753177
451.6311, 9.682342
452.1132, 9.611278
452.5953, 9.551283
453.0774, 9.503296
453.5595, 9.464618
454.0417, 9.434204
454.5238, 9.421987
455.0059, 9.423691
455.4880, 9.445022
455.9701, 9.547498
456.4522, 9.749265
456.9344, 9.918452
457.4165, 9.888003
457.8986, 9.708335
458.3807, 9.514079
458.8628, 9.305370
459.3449, 9.147781
459.8271, 9.129601
460.3092, 9.232743
460.7913, 9.377317
461.2734, 9.594392
461.7555, 9.785234
462.2376, 9.840677
462.7198, 9.710125
463.2019, 9.611059
463.6840, 9.730874
464.1661, 9.910525
464.6482, 9.957576
465.1303, 9.662496
465.6125, 9.395606
466.0946, 9.266674
466.5767, 9.262693
467.0588, 9.257898
467.5409, 9.226649
468.0230, 9.207270
468.5052, 9.218677
468.9873, 9.275842
469.4694, 9.324354
469.9515, 9.348480
470.4336, 9.377377
470.9157, 9.471052
471.3979, 9.667568
471.8800, 9.794223
472.3621, 9.793430
472.8442, 9.689429
473.3263, 9.600114
473.8084, 9.530017
474.2906, 9.439338
474.7727, 9.245460
475.2548, 8.990175
475.7369, 8.903118
476.2190, 9.036485
476.7011, 9.222877
477.1833, 9.249346
477.6654, 9.164548
478.1475, 9.102447
478.6296, 9.153356
479.1117, 9.229755
479.5938, 9.227683
480.0760, 9.160357
480.5581, 9.116230
481.0402, 9.177630
481.5223, 9.264073
482.0044, 9.308015
482.4865, 9.282751
482.9687, 9.253627
483.4508, 9.215958
483.9329, 9.194549
484.4150, 9.224872
484.8971, 9.419867
485.3792, 9.554643
485.8614, 9.561802
486.3435, 9.450068
486.8256, 9.330340
487.3077, 9.183033
487.7898, 9.052328
488.2719, 8.961094
488.7541, 8.914559
489.2362, 8.898865
489.7183, 8.923370
490.2004, 8.966248
490.6825, 9.006821
491.1646, 9.049212
491.6468, 9.041700
492.1289, 8.944365
492.6110, 8.799405
493.0931, 8.732535
493.5752, 8.742778
494.0573, 8.765989
494.5395, 8.762949
495.0216, 8.738455
495.5037, 8.679013
495.9858, 8.567907
496.4679, 8.515422
496.9500, 8.731694
497.4322, 9.058472
497.9143, 9.229190
498.3964, 8.983831
498.8785, 8.693160
499.3606, 8.572089
499.8427, 8.589204
500.3249, 8.602564
500.8070, 8.502007
501.2891, 8.431604
501.7712, 8.487137
502.2533, 8.749492
502.7354, 8.932053
503.2176, 8.945106
503.6997, 8.902776
504.1818, 8.923109
504.6639, 9.058561
505.1460, 9.160289
505.6281, 9.210542
506.1103, 9.211061
506.5924, 9.149959
507.0745, 9.001789
507.5566, 8.881393
508.0387, 8.865636
508.5208, 8.947782
509.0030, 8.992932
509.4851, 8.998747
509.9672, 8.980296
510.4493, 8.948702
510.9314, 8.905519
511.4135, 8.850901
511.8957, 8.771389
512.3778, 8.705489
512.8599, 8.713871
513.3420, 8.775934
513.8242, 8.830994
514.3063, 8.805182
514.7884, 8.791121
515.2705, 8.910197
515.7526, 9.171140
516.2347, 9.315858
516.7169, 9.142255
517.1990, 8.870129
517.6811, 8.663480
518.1632, 8.519709
518.6453, 8.482668
519.1274, 8.646880
519.6096, 8.904720
520.0917, 9.063245
520.5738, 9.122517
521.0559, 9.076656
521.5380, 8.876095
522.0201, 8.536901
522.5023, 8.349791
522.9844, 8.340863
523.4665, 8.410159
523.9486, 8.491466
524.4307, 8.585924
524.9128, 8.734097
525.3950, 8.959451
525.8771, 9.161791
526.3592, 9.192498
526.8413, 9.082209
527.3234, 8.939469
527.8055, 8.773875
528.2877, 8.625630
528.7698, 8.512166
529.2519, 8.446977
529.7340, 8.482707
530.2161, 8.784536
530.6982, 9.107127
531.1804, 9.263289
531.6625, 9.208558
532.1446, 9.103811
532.6267, 8.949800
533.1088, 8.795282
533.5909, 8.687585
534.0731, 8.699192
534.5552, 8.671846
535.0373, 8.526106
535.5194, 8.343766
536.0015, 8.351489
536.4836, 8.677432
536.9658, 8.929034
537.4479, 8.933234
537.9300, 8.705565
538.4121, 8.603071
538.8942, 8.642542
539.3763, 8.740063
539.8585, 8.869289
540.3406, 9.010233
540.8227, 9.023716
541.3048, 8.863852
541.7869, 8.677457
542.2690, 8.670409
542.7512, 8.781611
543.2333, 8.856634
543.7154, 8.738452
544.1975, 8.635779
544.6796, 8.824845
545.1617, 9.216649
545.6439, 9.410855
546.1260, 8.973690
546.6081, 8.476571
547.0902, 8.291081
547.5723, 8.558426
548.0544, 8.715801
548.5366, 8.561246
549.0187, 8.334609
549.5008, 8.242336
549.9829, 8.310963
550.4650, 8.484231
550.9471, 8.859661
551.4293, 9.281981
551.9114, 9.338592
552.3935, 8.944437
552.8756, 8.595210
553.3577, 8.485467
553.8398, 8.573364
554.3220, 8.703513
554.8041, 8.879516
555.2862, 9.000174
555.7683, 8.933039
556.2504, 8.765165
556.7325, 8.667374
557.2147, 8.664179
557.6968, 8.720325
558.1789, 8.865342
558.6610, 9.036579
559.1431, 9.140244
559.6252, 9.042277
560.1074, 8.973505
560.5895, 9.088530
561.0716, 9.317312
561.5537, 9.423841
562.0358, 9.212167
562.5179, 9.015975
563.0001, 8.965408
563.4822, 9.077174
563.9643, 9.154268
564.4464, 9.187220
564.9285, 9.198928
565.4106, 9.213772
565.8928, 9.240022
566.3749, 9.202391
566.8570, 9.074122
567.3391, 8.925745
567.8212, 8.874567
568.3033, 8.907912
568.7855, 8.929948
569.2676, 8.869572
569.7497, 8.819253
570.2318, 8.974091
570.7139, 9.281063
571.1960, 9.520996
571.6782, 9.541876
572.1603, 9.455092
572.6424, 9.302359
573.1245, 9.076382
573.6066, 8.964397
574.0887, 9.136006
574.5709, 9.390623
575.0530, 9.574203
575.5351, 9.679485
576.0172, 9.691046
576.4993, 9.526752
576.9814, 9.308843
577.4636, 9.264791
577.9457, 9.508491
578.4278, 9.604252
578.9099, 9.358121
579.3920, 8.915235
579.8741, 8.908534
580.3563, 9.374064
580.8384, 9.789485
581.3205, 9.762729
581.8026, 9.449082
582.2847, 9.306483
582.7668, 9.350387
583.2490, 9.422698
583.7311, 9.383761
584.2132, 9.296807
584.6953, 9.233917
585.1774, 9.191325
