##NAMES=Spherocobaltite
##RRUFFID=R060497
##IDEAL CHEMISTRY=Co^2+^CO_3_
##LOCALITY=Bou Azzer, Anti Atlas Mountains, Morocco
##OWNER=RRUFF
##SOURCE=Michael Scott
##DESCRIPTION=Group of red rhombohedral crystals
##STATUS=The identification of this mineral is confirmed by single-crystal X-ray diffraction and chemical analysis.
##URL=rruff.info/R060497
##MEASURED CHEMISTRY=(Co_0.68_Mg_0.15_Ni_0.07_Ca_0.05_Fe_0.04_Mn_0.01_)_Î£=1_CO_3_ ; C not measured but estimated by difference and stoichiometry
95.22955, 37.57179
95.71167, 36.86542
96.19379, 35.92473
96.67590, 34.70492
97.15803, 33.69355
97.64014, 33.02050
98.12226, 32.57702
98.60438, 32.20802
99.08649, 31.92637
99.56861, 31.62114
100.0507, 31.09471
100.5328, 30.23473
101.0150, 29.40810
101.4971, 28.96765
101.9792, 28.93160
102.4613, 28.77851
102.9434, 28.00383
103.4255, 27.16549
103.9077, 26.71616
104.3898, 26.83487
104.8719, 27.25491
105.3540, 27.43950
105.8361, 27.25938
106.3182, 27.04803
106.8004, 26.89141
107.2825, 26.75002
107.7646, 26.56052
108.2467, 26.27403
108.7288, 25.90431
109.2109, 25.65505
109.6931, 25.64477
110.1752, 25.63008
110.6573, 25.55419
111.1394, 25.41919
111.6215, 25.24493
112.1037, 25.03965
112.5858, 24.79145
113.0679, 24.63024
113.5500, 24.52314
114.0321, 24.51224
114.5142, 24.69705
114.9964, 25.09200
115.4785, 25.48010
115.9606, 25.55261
116.4427, 25.32969
116.9248, 25.17116
117.4069, 25.22651
117.8891, 25.39812
118.3712, 25.47208
118.8533, 25.35922
119.3354, 25.21369
119.8175, 25.20346
120.2996, 25.31517
120.7818, 25.40935
121.2639, 25.31955
121.7460, 25.03276
122.2281, 24.92129
122.7102, 25.28300
123.1923, 25.69181
123.6745, 25.94624
124.1566, 26.00690
124.6387, 25.93380
125.1208, 25.77712
125.6029, 25.40775
126.0850, 25.24495
126.5672, 25.52305
127.0493, 25.87139
127.5314, 25.94979
128.0135, 25.62902
128.4956, 25.07770
128.9778, 24.76424
129.4599, 24.91894
129.9420, 25.08146
130.4241, 25.22408
130.9062, 25.35472
131.3883, 25.50083
131.8705, 25.68715
132.3526, 25.88931
132.8347, 25.97040
133.3168, 25.85356
133.7989, 25.72379
134.2810, 25.65423
134.7632, 25.63879
135.2453, 25.62725
135.7274, 25.53540
136.2095, 25.44146
136.6916, 25.57061
137.1737, 26.17944
137.6559, 26.86880
138.1380, 27.20208
138.6201, 27.11922
139.1022, 26.96215
139.5843, 26.85733
140.0664, 26.83283
140.5486, 26.97441
141.0307, 27.46919
141.5128, 28.13498
141.9949, 28.36609
142.4770, 27.76275
142.9591, 27.32090
143.4413, 27.56472
143.9234, 28.24876
144.4055, 28.91619
144.8876, 29.20608
145.3697, 29.11463
145.8518, 29.20173
146.3340, 29.74602
146.8161, 30.23232
147.2982, 30.47396
147.7803, 30.50617
148.2624, 30.47582
148.7445, 30.52182
149.2267, 30.65117
149.7088, 30.83896
150.1909, 30.97662
150.6730, 31.23682
151.1551, 31.81980
151.6372, 32.70522
152.1194, 33.61074
152.6015, 34.19215
153.0836, 34.30763
153.5657, 34.39703
154.0478, 34.34063
154.5300, 34.31412
155.0121, 34.52761
155.4942, 35.04384
155.9763, 35.68650
156.4584, 36.18167
156.9405, 36.51309
157.4227, 36.89582
157.9048, 37.40060
158.3869, 37.99635
158.8690, 38.63949
159.3511, 39.37178
159.8332, 40.06274
160.3154, 40.52772
160.7975, 40.76050
161.2796, 41.01561
161.7617, 41.46960
162.2438, 42.11107
162.7259, 42.75902
163.2081, 43.46073
163.6902, 44.07671
164.1723, 44.41048
164.6544, 44.45238
165.1365, 44.54270
165.6186, 45.12663
166.1008, 46.34539
166.5829, 47.41053
167.0650, 48.20730
167.5471, 48.80544
168.0292, 49.11721
168.5113, 49.14843
168.9935, 49.14332
169.4756, 49.55382
169.9577, 50.74589
170.4398, 51.65653
170.9219, 52.04323
171.4040, 52.25110
171.8862, 52.50453
172.3683, 52.89790
172.8504, 53.45966
173.3325, 54.27396
173.8146, 55.85893
174.2967, 57.06220
174.7789, 57.60494
175.2610, 57.83472
175.7431, 58.11176
176.2252, 58.59551
176.7073, 59.27645
177.1894, 60.13916
177.6716, 61.42043
178.1537, 62.57723
178.6358, 63.43084
179.1179, 64.09573
179.6000, 64.79754
180.0822, 65.63741
180.5643, 66.59477
181.0464, 67.59720
181.5285, 68.67155
182.0106, 69.75616
182.4927, 70.75850
182.9749, 71.72147
183.4570, 72.86552
183.9391, 74.40685
184.4212, 76.13201
184.9033, 77.55929
185.3854, 78.55679
185.8676, 79.46305
186.3497, 80.50306
186.8318, 81.67625
187.3139, 83.01368
187.7960, 84.74403
188.2781, 86.55489
188.7603, 88.06149
189.2424, 89.12025
189.7245, 90.02680
190.2066, 91.17038
190.6887, 92.61423
191.1708, 94.07686
191.6530, 95.45911
192.1351, 96.81412
192.6172, 98.16106
193.0993, 99.48497
193.5814, 100.8636
194.0635, 102.4617
194.5457, 104.3956
195.0278, 106.3222
195.5099, 108.1192
195.9920, 109.8879
196.4741, 111.7365
196.9562, 113.7160
197.4384, 115.7745
197.9205, 117.7882
198.4026, 119.7951
198.8847, 121.6761
199.3668, 123.3620
199.8489, 124.9426
200.3311, 126.5563
200.8132, 128.2790
201.2953, 130.0221
201.7774, 131.4140
202.2595, 132.4583
202.7417, 133.1035
203.2238, 133.2293
203.7059, 132.9771
204.1880, 132.5520
204.6701, 132.0681
205.1522, 131.4741
205.6344, 130.5164
206.1165, 129.4406
206.5986, 127.7687
207.0807, 125.3251
207.5628, 122.2141
208.0449, 118.5504
208.5271, 114.3285
209.0092, 109.6903
209.4913, 105.2874
209.9734, 101.2333
210.4555, 97.22229
210.9376, 93.07473
211.4198, 88.88194
211.9019, 84.87004
212.3840, 81.22945
212.8661, 77.84151
213.3482, 74.34380
213.8303, 70.65842
214.3125, 67.02153
214.7946, 63.47272
215.2767, 60.04842
215.7588, 57.06911
216.2409, 54.82215
216.7230, 53.02705
217.2052, 51.02881
217.6873, 48.70668
218.1694, 46.45227
218.6515, 44.58992
219.1336, 43.10158
219.6157, 41.70641
220.0979, 40.26794
220.5800, 38.89761
221.0621, 37.70766
221.5442, 36.72099
222.0263, 35.87358
222.5084, 35.15346
222.9906, 34.57388
223.4727, 33.93950
223.9548, 33.07058
224.4369, 32.19978
224.9190, 31.53492
225.4011, 31.11813
225.8833, 30.76261
226.3654, 30.20133
226.8475, 29.36471
227.3296, 28.67060
227.8117, 28.28642
228.2939, 28.02359
228.7760, 27.80564
229.2581, 27.60954
229.7402, 27.41619
230.2223, 27.19464
230.7044, 26.92833
231.1866, 26.68534
231.6687, 26.44658
232.1508, 26.24935
232.6329, 26.15152
233.1150, 26.14968
233.5971, 26.15606
234.0793, 26.05024
234.5614, 25.81038
235.0435, 25.50179
235.5256, 24.94979
236.0077, 24.46546
236.4898, 24.30691
236.9720, 24.48627
237.4541, 24.76814
237.9362, 24.82554
238.4183, 24.53579
238.9004, 24.31105
239.3825, 24.11641
239.8647, 23.99823
240.3468, 24.04948
240.8289, 24.24987
241.3110, 24.43982
241.7931, 24.40699
242.2752, 24.02451
242.7574, 23.78331
243.2395, 23.74580
243.7216, 23.77914
244.2037, 23.84166
244.6858, 23.90758
245.1679, 23.91570
245.6501, 23.78119
246.1322, 23.43747
246.6143, 23.23350
247.0964, 23.21401
247.5785, 23.28260
248.0606, 23.40554
248.5428, 23.56619
249.0249, 23.72598
249.5070, 23.84891
249.9891, 23.93019
250.4712, 23.98944
250.9533, 24.01084
251.4355, 24.02438
251.9176, 24.03382
252.3997, 24.04592
252.8818, 24.09671
253.3639, 24.22575
253.8461, 24.43637
254.3282, 24.61807
254.8103, 24.75954
255.2924, 24.88224
255.7745, 25.00850
256.2566, 25.13505
256.7387, 25.22207
257.2209, 25.21881
257.7030, 25.14733
258.1851, 25.15402
258.6672, 25.26113
259.1493, 25.42761
259.6314, 25.66561
260.1136, 25.96243
260.5957, 26.20232
261.0778, 26.27617
261.5599, 26.25531
262.0420, 26.36463
262.5241, 26.67626
263.0063, 27.03482
263.4884, 27.34861
263.9705, 27.61947
264.4526, 27.85919
264.9348, 28.04687
265.4169, 28.22290
265.8990, 28.46036
266.3811, 28.78626
266.8632, 29.12199
267.3453, 29.37335
267.8275, 29.56054
268.3096, 29.86506
268.7917, 30.43455
269.2738, 31.07950
269.7559, 31.52036
270.2380, 31.71373
270.7202, 31.91882
271.2023, 32.32252
271.6844, 32.90127
272.1665, 33.50272
272.6486, 34.08252
273.1307, 34.68172
273.6129, 35.34036
274.0950, 36.06197
274.5771, 36.80156
275.0592, 37.55919
275.5413, 38.32491
276.0234, 39.00747
276.5056, 39.48426
276.9877, 40.03143
277.4698, 40.85468
277.9519, 41.92161
278.4340, 43.07442
278.9161, 44.21147
279.3983, 45.35292
279.8804, 46.63774
280.3625, 48.17360
280.8446, 49.68809
281.3267, 50.86987
281.8088, 51.88865
282.2910, 53.16724
282.7731, 55.04700
283.2552, 57.35131
283.7373, 59.48520
284.2194, 61.35480
284.7015, 63.22518
285.1837, 65.15063
285.6658, 67.18136
286.1479, 69.42152
286.6300, 71.93669
287.1121, 74.65489
287.5942, 77.36787
288.0764, 79.95621
288.5585, 82.84457
289.0406, 86.36240
289.5227, 90.15491
290.0048, 93.84830
290.4869, 97.35287
290.9691, 100.7017
291.4512, 103.9049
291.9333, 106.8336
292.4154, 110.0226
292.8975, 113.4595
293.3796, 117.2811
293.8618, 121.8030
294.3439, 127.1039
294.8260, 132.5033
295.3081, 136.9937
295.7902, 140.3083
296.2723, 143.9542
296.7545, 148.3677
297.2366, 153.0526
297.7187, 157.6900
298.2008, 162.2683
298.6829, 167.0568
299.1650, 172.3587
299.6472, 178.2490
300.1293, 184.0581
300.6114, 190.0755
301.0935, 195.6436
301.5756, 200.1270
302.0577, 203.7905
302.5399, 207.6055
303.0220, 212.5334
303.5041, 218.4847
303.9862, 223.6232
304.4683, 227.4982
304.9504, 231.0054
305.4326, 234.7042
305.9147, 238.2836
306.3968, 241.1912
306.8789, 243.1369
307.3610, 244.1336
307.8431, 244.1170
308.3253, 242.5586
308.8074, 240.7442
309.2895, 239.5046
309.7716, 238.1001
310.2537, 235.6749
310.7358, 231.8392
311.2180, 226.8241
311.7001, 221.0860
312.1822, 214.2713
312.6643, 207.3704
313.1465, 200.7215
313.6286, 193.9682
314.1107, 186.7141
314.5928, 178.8672
315.0749, 170.7429
315.5570, 162.7449
316.0392, 154.7967
316.5213, 147.2859
317.0034, 140.5517
317.4855, 133.9868
317.9676, 127.1605
318.4497, 120.1142
318.9319, 113.3403
319.4140, 107.4043
319.8961, 102.3957
320.3782, 97.43168
320.8603, 92.39982
321.3424, 87.55770
321.8246, 82.91991
322.3067, 78.54230
322.7888, 74.49634
323.2709, 70.91480
323.7530, 67.74126
324.2351, 64.66361
324.7173, 61.56040
325.1994, 58.74430
325.6815, 56.29601
326.1636, 54.14619
326.6457, 52.18090
327.1278, 50.36448
327.6100, 48.68121
328.0921, 47.10016
328.5742, 45.67777
329.0563, 44.23088
329.5384, 42.64214
330.0205, 41.05139
330.5027, 39.56974
330.9848, 38.22315
331.4669, 37.00208
331.9490, 35.90490
332.4311, 34.95088
332.9132, 34.03750
333.3954, 33.14476
333.8775, 32.29305
334.3596, 31.48067
334.8417, 30.71752
335.3238, 30.05429
335.8059, 29.64233
336.2881, 29.48880
336.7702, 29.02451
337.2523, 27.94513
337.7344, 26.86943
338.2165, 26.04529
338.6986, 25.44182
339.1808, 24.94999
339.6629, 24.50150
340.1450, 24.11541
340.6271, 23.90141
341.1092, 24.02982
341.5913, 23.99431
342.0735, 23.50476
342.5556, 22.79699
343.0377, 22.14186
343.5198, 21.63752
344.0019, 21.23033
344.4840, 20.83881
344.9662, 20.45251
345.4483, 20.11606
345.9304, 19.81182
346.4125, 19.58563
346.8946, 19.52777
347.3767, 19.64895
347.8589, 19.76082
348.3410, 19.67429
348.8231, 19.39338
349.3052, 19.08515
349.7873, 18.71823
350.2694, 18.39165
350.7516, 18.21197
351.2337, 18.14145
351.7158, 18.02433
352.1979, 17.71576
352.6800, 17.28407
353.1621, 16.95302
353.6443, 16.73381
354.1264, 16.60121
354.6085, 16.63272
355.0906, 16.72116
355.5727, 16.67595
356.0548, 16.34604
356.5370, 15.96262
357.0191, 15.87039
357.5012, 16.09716
357.9833, 16.31386
358.4654, 16.42914
358.9475, 16.43200
359.4297, 16.27548
359.9118, 15.91462
360.3939, 15.58702
360.8760, 15.49764
361.3581, 15.60489
361.8402, 15.72105
362.3224, 15.87490
362.8045, 15.90588
363.2866, 15.54392
363.7687, 14.83933
364.2509, 14.29645
364.7330, 14.19467
365.2151, 14.35290
365.6972, 14.48825
366.1793, 14.58034
366.6614, 14.63169
367.1436, 14.61716
367.6257, 14.56142
368.1078, 14.54239
368.5899, 14.66240
369.0720, 14.74560
369.5541, 14.59833
370.0363, 14.25650
370.5184, 13.96790
371.0005, 13.87396
371.4826, 13.88106
371.9647, 13.74748
372.4468, 13.36395
372.9290, 13.12580
373.4111, 13.32859
373.8932, 13.75512
374.3753, 14.00270
374.8574, 13.95957
375.3395, 13.76703
375.8217, 13.57983
376.3038, 13.39646
376.7859, 13.23532
377.2680, 13.05810
377.7501, 12.93117
378.2322, 12.98136
378.7144, 13.18182
379.1965, 13.28640
379.6786, 13.07895
380.1607, 12.59796
380.6428, 12.30035
381.1249, 12.28504
381.6071, 12.31541
382.0892, 12.33868
382.5713, 12.34532
383.0534, 12.31165
383.5355, 12.22340
384.0176, 12.11908
384.4998, 12.08259
384.9819, 12.16826
385.4640, 12.23734
385.9461, 12.31112
386.4282, 12.35219
386.9103, 12.29809
387.3925, 12.15610
387.8746, 12.02008
388.3567, 11.99789
388.8388, 12.11220
389.3209, 12.17657
389.8030, 12.18409
390.2852, 12.15844
390.7673, 12.11291
391.2494, 12.04067
391.7315, 11.91481
392.2136, 11.71430
392.6957, 11.47057
393.1779, 11.30734
393.6600, 11.25425
394.1421, 11.24998
394.6242, 11.33468
395.1063, 11.43569
395.5884, 11.50622
396.0706, 11.52753
396.5527, 11.47918
397.0348, 11.28041
397.5169, 10.82812
397.9990, 10.64262
398.4811, 11.03091
398.9633, 11.41450
399.4454, 11.58164
399.9275, 11.55204
400.4096, 11.42358
400.8917, 11.23204
401.3738, 11.00940
401.8560, 10.90430
402.3381, 10.98294
402.8202, 11.05600
403.3023, 11.04926
403.7844, 11.01674
404.2665, 11.03425
404.7487, 11.13048
405.2308, 11.20066
405.7129, 11.09377
406.1950, 10.79874
406.6771, 10.51560
407.1592, 10.21398
407.6414, 10.01094
408.1235, 10.04702
408.6056, 10.27658
409.0877, 10.45270
409.5698, 10.33326
410.0519, 10.07446
410.5341, 10.10695
411.0162, 10.53590
411.4983, 10.88492
411.9804, 10.74467
412.4626, 10.35883
412.9447, 10.13546
413.4268, 10.20488
413.9089, 10.33669
414.3910, 10.35373
414.8731, 10.27526
415.3553, 10.18968
415.8374, 10.11702
416.3195, 10.06250
416.8016, 10.04846
417.2837, 10.07961
417.7658, 10.07726
418.2480, 9.984548
418.7301, 9.866574
419.2122, 9.803077
419.6943, 9.800823
420.1764, 9.803386
420.6585, 9.750421
421.1407, 9.658068
421.6228, 9.684109
422.1049, 9.975392
422.5870, 10.21294
423.0691, 10.22940
423.5512, 10.11217
424.0334, 10.02250
424.5155, 10.02540
424.9976, 10.07589
425.4797, 10.09428
425.9618, 10.09295
426.4439, 10.02365
426.9261, 9.814703
427.4082, 9.595455
427.8903, 9.442048
428.3724, 9.365083
428.8545, 9.356294
429.3366, 9.419725
429.8188, 9.549535
430.3009, 9.608135
430.7830, 9.535310
431.2651, 9.452525
431.7472, 9.334715
432.2293, 9.234020
432.7115, 9.233071
433.1936, 9.358805
433.6757, 9.523478
434.1578, 9.580271
434.6399, 9.502977
435.1220, 9.410252
435.6042, 9.214252
436.0863, 9.087950
436.5684, 9.151359
437.0505, 9.367910
437.5326, 9.609726
438.0147, 9.819712
438.4969, 9.978634
438.9790, 9.998348
439.4611, 9.822631
439.9432, 9.649400
440.4253, 9.575278
440.9074, 9.538762
441.3896, 9.472585
441.8717, 9.356562
442.3538, 9.245605
442.8359, 9.186719
443.3180, 9.175445
443.8001, 9.192251
444.2823, 9.244162
444.7644, 9.303985
445.2465, 9.363797
445.7286, 9.417314
446.2107, 9.416276
446.6928, 9.288540
447.1750, 9.140059
447.6571, 9.082042
448.1392, 9.110235
448.6213, 9.165043
449.1034, 9.227092
449.5855, 9.284460
450.0677, 9.302668
450.5498, 9.277356
451.0319, 9.232191
451.5140, 9.165571
451.9961, 9.085567
452.4782, 8.980807
452.9604, 8.855524
453.4425, 8.778683
453.9246, 8.840131
454.4067, 9.065836
454.8888, 9.147333
455.3709, 8.955539
455.8531, 8.786409
456.3352, 8.777358
456.8173, 8.857766
457.2994, 8.889438
457.7815, 8.807881
458.2636, 8.682851
458.7458, 8.668074
459.2279, 8.836028
459.7100, 8.964803
460.1921, 9.053339
460.6742, 9.102344
461.1564, 9.099882
461.6385, 9.055187
462.1206, 8.989996
462.6027, 8.898943
463.0848, 8.805480
463.5670, 8.852779
464.0491, 9.135014
464.5312, 9.365248
465.0133, 9.470991
465.4954, 9.468341
465.9775, 9.334729
466.4597, 9.054342
466.9418, 8.773860
467.4239, 8.630014
467.9060, 8.609167
468.3881, 8.623077
468.8702, 8.674429
469.3524, 8.728993
469.8345, 8.766277
470.3166, 8.785491
470.7987, 8.776893
471.2808, 8.656360
471.7629, 8.570743
472.2451, 8.718445
472.7272, 9.045259
473.2093, 9.270956
473.6914, 9.271516
474.1735, 9.123296
474.6556, 8.944299
475.1378, 8.695969
475.6199, 8.546660
476.1020, 8.597355
476.5841, 8.705151
477.0662, 8.747739
477.5483, 8.717365
478.0305, 8.663932
478.5126, 8.618975
478.9947, 8.586700
479.4768, 8.606472
479.9589, 8.712847
480.4410, 8.830812
480.9232, 9.004544
481.4053, 9.157567
481.8874, 9.172814
482.3695, 9.040570
482.8516, 8.906780
483.3337, 8.981052
483.8159, 9.307224
484.2980, 9.464347
484.7801, 9.314692
485.2622, 9.142710
485.7443, 9.047643
486.2264, 8.996059
486.7086, 8.930004
487.1907, 8.825815
487.6728, 8.695910
488.1549, 8.510556
488.6370, 8.256880
489.1191, 8.190581
489.6013, 8.518903
490.0834, 8.883055
490.5655, 8.946074
491.0476, 8.745966
491.5297, 8.542241
492.0118, 8.385718
492.4940, 8.311447
492.9761, 8.440490
493.4582, 8.757448
493.9403, 8.945462
494.4224, 8.799427
494.9045, 8.460447
495.3867, 8.295890
495.8688, 8.364722
496.3509, 8.420910
496.8330, 8.360278
497.3151, 8.286152
497.7972, 8.340335
498.2794, 8.520592
498.7615, 8.678774
499.2436, 8.678523
499.7257, 8.531734
500.2078, 8.456991
500.6899, 8.497464
501.1721, 8.558497
501.6542, 8.667636
502.1363, 8.769058
502.6184, 8.793306
503.1005, 8.727473
503.5826, 8.631021
504.0648, 8.579411
504.5469, 8.578800
505.0290, 8.557155
505.5111, 8.449238
505.9932, 8.405416
506.4753, 8.551902
506.9575, 8.778788
507.4396, 8.901805
507.9217, 8.835147
508.4038, 8.706579
508.8859, 8.668076
509.3680, 8.715552
509.8502, 8.786061
510.3323, 8.901081
510.8144, 8.978987
511.2965, 8.915450
511.7787, 8.735159
512.2607, 8.559230
512.7429, 8.404658
513.2250, 8.276788
513.7071, 8.187810
514.1892, 8.131115
514.6713, 8.067989
515.1534, 7.971204
515.6356, 7.888633
516.1177, 7.924823
516.5998, 8.177149
517.0819, 8.329498
517.5640, 8.287658
518.0461, 8.214118
518.5283, 8.215054
519.0104, 8.286393
519.4925, 8.385988
519.9746, 8.493837
520.4567, 8.587330
520.9388, 8.574999
521.4210, 8.392261
521.9031, 8.221646
522.3852, 8.055875
522.8673, 7.928758
523.3494, 7.847670
523.8315, 7.823420
524.3137, 7.895866
524.7958, 8.180056
525.2779, 8.574387
525.7600, 8.686677
526.2421, 8.447605
526.7242, 8.183252
527.2064, 7.964127
527.6885, 7.841393
528.1706, 7.913644
528.6527, 8.228942
529.1348, 8.508188
529.6169, 8.597792
530.0991, 8.564617
530.5812, 8.505629
531.0633, 8.433621
531.5454, 8.356645
532.0275, 8.279924
532.5096, 8.203219
532.9918, 8.126498
533.4739, 8.029387
533.9560, 7.958331
534.4381, 7.945322
534.9202, 7.951125
535.4024, 7.927202
535.8845, 7.868318
536.3666, 7.809837
536.8488, 7.786486
537.3309, 7.798095
537.8130, 7.830719
538.2951, 7.926072
538.7772, 7.986350
539.2593, 7.958241
539.7415, 7.901939
540.2236, 7.877040
540.7057, 7.899587
541.1878, 7.955499
541.6699, 8.060445
542.1520, 8.198773
542.6342, 8.250781
543.1163, 8.179667
543.5984, 8.091017
544.0805, 8.030478
544.5626, 8.004299
545.0447, 8.042875
545.5269, 8.218669
546.0090, 8.328430
546.4911, 8.188984
546.9732, 7.915625
547.4553, 7.726137
547.9374, 7.666196
548.4196, 7.683710
548.9017, 7.743840
549.3838, 7.849026
549.8659, 7.885562
550.3480, 7.743033
550.8301, 7.675602
551.3123, 7.832748
551.7944, 8.068059
552.2765, 8.203360
552.7586, 8.191164
553.2407, 8.100954
553.7228, 7.995951
554.2050, 7.871161
554.6871, 7.829171
555.1692, 7.937685
555.6513, 8.034537
556.1334, 8.055452
556.6155, 8.034450
557.0977, 8.015545
557.5798, 8.011097
558.0619, 8.003268
558.5440, 7.983209
559.0261, 7.947404
559.5082, 7.850019
559.9904, 7.652303
560.4725, 7.546048
560.9546, 7.742349
561.4367, 8.167121
561.9188, 8.423335
562.4009, 8.411830
562.8831, 8.350698
563.3652, 8.292173
563.8473, 8.243978
564.3294, 8.211841
564.8115, 8.198870
565.2936, 8.223203
565.7758, 8.319310
566.2579, 8.488178
566.7400, 8.519046
567.2221, 8.244521
567.7042, 8.029548
568.1863, 7.922372
568.6685, 7.910301
569.1506, 8.032188
569.6327, 8.273466
570.1148, 8.471190
570.5969, 8.410501
571.0790, 8.144901
571.5612, 8.038137
572.0433, 8.162212
572.5254, 8.245901
573.0075, 8.059867
573.4896, 7.790043
573.9717, 7.729814
574.4539, 7.956475
574.9360, 8.194840
575.4181, 8.295354
575.9002, 8.339211
576.3823, 8.468234
576.8644, 8.685941
577.3466, 8.844312
577.8287, 8.832758
578.3108, 8.680552
578.7929, 8.531264
579.2750, 8.320566
579.7571, 8.200567
580.2393, 8.259635
580.7214, 8.353305
581.2035, 8.353786
581.6856, 8.269490
582.1677, 8.205485
582.6498, 8.245652
583.1320, 8.360799
583.6141, 8.451006
584.0962, 8.511317
584.5783, 8.566317
585.0604, 8.661448
585.5425, 8.720808
586.0247, 8.637889
586.5068, 8.427838
586.9889, 8.292889
587.4710, 8.355959
587.9531, 8.516468
588.4352, 8.710947
588.9174, 8.914486
589.3995, 8.985515
