##NAMES=Spinel
##RRUFFID=R100133
##IDEAL CHEMISTRY=MgAl_2_O_4_
##LOCALITY=Sri Lanka
##OWNER=RRUFF
##SOURCE=William W. Pinch
##DESCRIPTION=Blue and red cut gemstones. The bottom red stone is the one that was studied.
##STATUS=The identification of this mineral has been confirmed only by single crystal X-ray diffraction.
##URL=rruff.info/R100133
175.4918, 253.8130
175.9739, 254.6222
176.4561, 254.6118
176.9382, 253.4173
177.4203, 252.6367
177.9024, 252.5959
178.3845, 252.6633
178.8666, 252.8055
179.3488, 252.8616
179.8309, 252.3586
180.3130, 250.4958
180.7951, 246.0180
181.2772, 243.0945
181.7593, 242.3089
182.2415, 242.4685
182.7236, 242.8572
183.2057, 243.2596
183.6878, 243.7388
184.1699, 244.4654
184.6520, 246.1261
185.1342, 246.4870
185.6163, 244.5206
186.0984, 241.6532
186.5805, 239.2397
187.0626, 237.6590
187.5447, 236.8304
188.0269, 236.8839
188.5090, 238.0889
188.9911, 238.9229
189.4732, 238.8904
189.9553, 238.2921
190.4374, 237.5350
190.9196, 236.5856
191.4017, 235.8359
191.8838, 235.9859
192.3659, 237.0779
192.8480, 238.0798
193.3301, 238.5802
193.8123, 238.6199
194.2944, 238.2386
194.7765, 236.9765
195.2586, 235.9022
195.7407, 236.3913
196.2228, 238.4755
196.7050, 240.2070
197.1871, 239.5671
197.6692, 236.7108
198.1513, 235.2337
198.6334, 237.3120
199.1155, 239.7656
199.5977, 240.4704
200.0798, 239.3127
200.5619, 237.4020
201.0440, 235.7035
201.5261, 234.2339
202.0082, 232.8092
202.4904, 231.3085
202.9725, 229.9195
203.4546, 228.7314
203.9367, 227.7579
204.4188, 226.9637
204.9009, 226.3027
205.3831, 225.7516
205.8652, 225.4256
206.3473, 225.7901
206.8294, 226.0210
207.3115, 225.1226
207.7936, 223.1974
208.2758, 221.5948
208.7579, 222.4210
209.2400, 227.3930
209.7221, 231.0699
210.2042, 233.6546
210.6863, 235.0748
211.1685, 234.7308
211.6506, 232.7527
212.1327, 230.4241
212.6148, 229.6561
213.0969, 231.6203
213.5790, 232.7690
214.0612, 232.5777
214.5433, 231.9624
215.0254, 231.5928
215.5075, 231.6396
215.9896, 231.9391
216.4717, 232.3420
216.9539, 233.2203
217.4360, 233.1313
217.9181, 231.0827
218.4002, 228.5377
218.8823, 226.8712
219.3644, 226.4215
219.8466, 226.7446
220.3287, 227.3910
220.8108, 228.4434
221.2929, 229.3559
221.7750, 230.8056
222.2571, 231.7929
222.7393, 230.5924
223.2214, 226.5827
223.7035, 221.9920
224.1856, 219.8193
224.6677, 219.8496
225.1498, 219.8457
225.6320, 219.1014
226.1141, 218.0076
226.5962, 217.2697
227.0783, 217.1105
227.5604, 216.9814
228.0425, 215.8845
228.5247, 214.1413
229.0068, 213.3289
229.4889, 215.0647
229.9710, 218.0738
230.4531, 219.3814
230.9352, 218.2044
231.4174, 216.3055
231.8995, 214.7021
232.3816, 213.4308
232.8637, 212.6925
233.3458, 212.8173
233.8279, 213.5714
234.3101, 214.2852
234.7922, 215.1898
235.2743, 215.5721
235.7564, 214.7930
236.2385, 213.2806
236.7206, 211.8776
237.2028, 211.0282
237.6849, 210.6703
238.1670, 210.5285
238.6491, 210.6069
239.1312, 210.9343
239.6133, 211.8644
240.0955, 212.9758
240.5776, 213.5196
241.0597, 212.8685
241.5418, 211.3445
242.0239, 210.5507
242.5060, 211.0432
242.9882, 211.5481
243.4703, 211.9573
243.9524, 212.0874
244.4345, 211.5801
244.9166, 210.0948
245.3987, 207.9689
245.8809, 206.8406
246.3630, 207.3397
246.8451, 208.1355
247.3272, 209.7557
247.8093, 211.2796
248.2914, 211.2174
248.7736, 208.6137
249.2557, 204.4329
249.7378, 202.6860
250.2199, 206.2304
250.7020, 208.7822
251.1841, 208.9055
251.6663, 207.8178
252.1484, 207.0544
252.6305, 207.3648
253.1126, 208.2764
253.5947, 208.2866
254.0768, 206.2678
254.5590, 204.6487
255.0411, 203.5356
255.5232, 202.9044
256.0053, 202.9063
256.4874, 203.5981
256.9695, 204.5377
257.4517, 204.6531
257.9338, 202.3249
258.4159, 201.1184
258.8980, 202.0473
259.3801, 203.6779
259.8622, 204.4584
260.3444, 203.8600
260.8265, 202.5437
261.3086, 201.7685
261.7907, 202.3232
262.2728, 202.1359
262.7549, 200.1328
263.2371, 197.8822
263.7192, 197.2353
264.2013, 198.6374
264.6834, 200.6690
265.1655, 201.1418
265.6476, 198.9635
266.1298, 197.8674
266.6119, 198.8496
267.0940, 200.4304
267.5761, 201.3730
268.0582, 201.4175
268.5403, 200.7365
269.0225, 199.2945
269.5046, 196.7186
269.9867, 195.3980
270.4688, 195.9336
270.9509, 197.4117
271.4330, 199.3711
271.9152, 201.6838
272.3973, 203.8372
272.8794, 205.4753
273.3615, 206.5088
273.8436, 206.4439
274.3257, 204.0981
274.8079, 201.4781
275.2900, 200.2137
275.7721, 200.3472
276.2542, 200.9158
276.7363, 201.1945
277.2184, 201.2866
277.7006, 201.8999
278.1827, 203.7873
278.6648, 205.5929
279.1469, 206.1174
279.6290, 205.5106
280.1111, 205.1013
280.5933, 205.8546
281.0754, 207.3487
281.5575, 208.0308
282.0396, 206.9641
282.5217, 206.2240
283.0038, 207.7491
283.4860, 211.0157
283.9681, 213.1517
284.4502, 212.3605
284.9323, 210.0464
285.4144, 209.2053
285.8965, 210.1294
286.3787, 211.6885
286.8608, 213.7924
287.3429, 216.1470
287.8250, 217.5478
288.3071, 217.1383
288.7892, 216.2370
289.2714, 217.0715
289.7535, 219.9270
290.2356, 222.0527
290.7177, 221.2417
291.1998, 218.6953
291.6819, 217.5728
292.1641, 218.6301
292.6462, 221.2018
293.1283, 225.2116
293.6104, 230.4375
294.0925, 234.8028
294.5746, 237.1513
295.0568, 238.1254
295.5389, 238.9000
296.0210, 239.5357
296.5031, 240.1885
296.9852, 240.8125
297.4673, 241.5167
297.9495, 242.7426
298.4316, 244.6463
298.9137, 247.1418
299.3958, 250.4520
299.8779, 254.8647
300.3600, 258.6870
300.8422, 260.0244
301.3243, 260.0921
301.8064, 260.9311
302.2885, 263.2707
302.7706, 266.2977
303.2527, 268.9195
303.7349, 271.0682
304.2170, 273.9825
304.6991, 278.8839
305.1812, 284.6133
305.6633, 289.3518
306.1454, 292.2863
306.6276, 295.6739
307.1097, 302.1068
307.5918, 311.3649
308.0739, 319.7804
308.5560, 325.5226
309.0381, 330.3574
309.5203, 336.6237
310.0024, 344.6044
310.4845, 351.9112
310.9666, 357.5796
311.4487, 361.4198
311.9308, 362.3402
312.4130, 359.8779
312.8951, 354.5168
313.3772, 346.6470
313.8593, 336.4946
314.3414, 325.4684
314.8235, 313.3294
315.3057, 300.8520
315.7878, 289.9008
316.2699, 280.8345
316.7520, 272.9588
317.2341, 265.7220
317.7162, 259.2483
318.1984, 254.0135
318.6805, 250.9704
319.1626, 248.9344
319.6447, 245.9011
320.1268, 241.6248
320.6089, 237.6023
321.0911, 235.0115
321.5732, 233.1001
322.0553, 230.7562
322.5374, 227.3028
323.0195, 224.0878
323.5016, 222.9927
323.9838, 224.0329
324.4659, 224.3594
324.9480, 222.4444
325.4301, 219.5440
325.9122, 217.2136
326.3943, 215.5670
326.8765, 214.2125
327.3586, 212.9789
327.8407, 211.8295
328.3228, 210.5003
328.8049, 208.6145
329.2870, 207.0041
329.7692, 206.6627
330.2513, 207.4769
330.7334, 208.2558
331.2155, 208.5830
331.6976, 208.4500
332.1797, 207.5923
332.6619, 205.6100
333.1440, 203.9523
333.6261, 204.5547
334.1082, 206.4701
334.5903, 207.3944
335.0724, 205.9118
335.5546, 203.4303
336.0367, 201.7745
336.5188, 201.0283
337.0009, 200.3250
337.4830, 198.7427
337.9651, 197.0484
338.4473, 196.7648
338.9294, 198.7897
339.4115, 201.0921
339.8936, 202.0786
340.3757, 201.8755
340.8578, 201.3416
341.3400, 200.5971
341.8221, 199.8695
342.3042, 199.5142
342.7863, 199.5845
343.2684, 199.6815
343.7505, 199.4341
344.2327, 199.0740
344.7148, 199.2527
345.1969, 200.2458
345.6790, 201.4245
346.1611, 202.0344
346.6432, 202.1667
347.1254, 202.2755
347.6075, 202.3539
348.0896, 202.5311
348.5717, 203.1170
349.0538, 204.1624
349.5359, 204.9787
350.0181, 204.8393
350.5002, 204.0204
350.9823, 203.8098
351.4644, 204.6852
351.9465, 205.8382
352.4286, 206.8621
352.9108, 207.7374
353.3929, 208.3697
353.8750, 208.6489
354.3571, 208.7102
354.8392, 208.9729
355.3214, 209.7852
355.8035, 210.0347
356.2856, 208.8613
356.7677, 206.9400
357.2498, 205.3433
357.7319, 204.3185
358.2141, 204.0043
358.6962, 204.8710
359.1783, 207.1983
359.6604, 208.9068
360.1425, 209.3891
360.6246, 209.3909
361.1068, 209.3125
361.5889, 209.2834
362.0710, 209.9365
362.5531, 212.0882
363.0352, 215.6763
363.5173, 217.7325
363.9995, 216.8753
364.4816, 216.0195
364.9637, 216.6450
365.4458, 218.3869
365.9279, 220.3560
366.4100, 222.2135
366.8922, 223.6982
367.3743, 223.8450
367.8564, 221.4365
368.3385, 219.5107
368.8206, 218.2662
369.3027, 217.7787
369.7849, 218.4771
370.2670, 220.4072
370.7491, 222.5844
371.2312, 223.5522
371.7133, 222.5578
372.1954, 222.6657
372.6776, 225.0157
373.1597, 227.4257
373.6418, 228.5132
374.1239, 228.3543
374.6060, 227.7596
375.0881, 227.2492
375.5703, 226.8570
376.0524, 227.6199
376.5345, 230.6481
377.0166, 233.5357
377.4987, 235.7157
377.9808, 237.4376
378.4630, 238.9558
378.9451, 240.3815
379.4272, 242.0273
379.9093, 244.7063
380.3914, 249.4339
380.8735, 253.5401
381.3557, 256.3063
381.8378, 258.9161
382.3199, 262.0899
382.8020, 266.0257
383.2841, 270.6406
383.7662, 275.6829
384.2484, 280.9956
384.7305, 287.9915
385.2126, 298.0760
385.6947, 308.6155
386.1768, 318.5328
386.6589, 328.3056
387.1411, 338.9447
387.6232, 351.0493
388.1053, 364.5751
388.5874, 379.4449
389.0695, 396.6344
389.5516, 413.2947
390.0338, 428.4845
390.5159, 443.1782
390.9980, 458.4673
391.4801, 474.6697
391.9622, 490.4887
392.4443, 504.0396
392.9265, 514.9842
393.4086, 526.6700
393.8907, 538.6791
394.3728, 552.4554
394.8549, 568.2609
395.3370, 586.3204
395.8192, 607.1757
396.3013, 631.4772
396.7834, 658.8874
397.2655, 687.9652
397.7476, 718.3270
398.2297, 751.2326
398.7119, 786.9916
399.1940, 825.8260
399.6761, 868.3253
400.1582, 914.6641
400.6403, 964.6743
401.1224, 1018.786
401.6046, 1077.230
402.0867, 1137.079
402.5688, 1199.161
403.0509, 1260.369
403.5330, 1319.939
404.0151, 1378.270
404.4973, 1425.968
404.9794, 1463.074
405.4615, 1485.740
405.9436, 1487.269
406.4257, 1466.830
406.9078, 1426.181
407.3900, 1362.193
407.8721, 1277.152
408.3542, 1186.333
408.8363, 1083.937
409.3184, 982.3800
409.8005, 889.0756
410.2827, 803.5797
410.7648, 725.2260
411.2469, 653.4324
411.7290, 589.1747
412.2111, 536.3712
412.6932, 496.8911
413.1754, 461.8618
413.6575, 430.6219
414.1396, 402.7255
414.6217, 377.3719
415.1038, 354.5641
415.5859, 335.1756
416.0681, 320.4265
416.5502, 310.7813
417.0323, 301.2719
417.5144, 291.2635
417.9965, 282.0156
418.4786, 274.4143
418.9608, 267.9216
419.4429, 261.2918
419.9250, 253.8572
420.4071, 246.1967
420.8892, 239.9432
421.3713, 236.2690
421.8535, 232.3532
422.3356, 227.4436
422.8177, 222.7139
423.2998, 219.0832
423.7819, 216.6470
424.2640, 214.9999
424.7462, 213.9339
425.2283, 213.5489
425.7104, 212.1645
426.1925, 208.4482
426.6746, 205.1462
427.1567, 203.3497
427.6389, 202.4040
428.1210, 201.2151
428.6031, 199.2059
429.0852, 196.9074
429.5673, 195.4398
430.0494, 194.9937
430.5316, 194.6751
431.0137, 195.1114
431.4958, 195.0205
431.9779, 192.8978
432.4600, 188.9015
432.9421, 185.5240
433.4243, 185.4141
433.9064, 187.6593
434.3885, 188.1604
434.8706, 186.2234
435.3527, 183.7146
435.8348, 181.2206
436.3170, 179.0553
436.7991, 177.8814
437.2812, 178.1620
437.7633, 179.0686
438.2454, 180.0900
438.7275, 181.1653
439.2097, 181.8641
439.6918, 182.0802
440.1739, 181.7819
440.6560, 180.5026
441.1381, 178.0403
441.6202, 176.7510
442.1024, 178.5921
442.5845, 181.2335
443.0666, 181.7781
443.5487, 180.0609
444.0308, 178.0626
444.5129, 177.2086
444.9951, 177.4092
445.4772, 177.6508
445.9593, 177.9455
446.4414, 178.2588
446.9235, 178.8968
447.4056, 179.4558
447.8878, 179.0967
448.3699, 177.5620
448.8520, 175.7998
449.3341, 175.3235
449.8162, 176.8097
450.2983, 177.6922
450.7805, 177.9101
451.2626, 177.6836
451.7447, 176.7963
452.2268, 175.5445
452.7089, 174.6887
453.1910, 174.8491
453.6732, 175.5830
454.1553, 174.8178
454.6374, 170.6404
455.1195, 168.2944
455.6016, 169.9482
456.0837, 172.6569
456.5659, 173.9032
457.0480, 173.2626
457.5301, 172.1003
458.0122, 171.6348
458.4943, 171.8632
458.9764, 172.9043
459.4586, 175.8945
459.9407, 177.9426
460.4228, 176.8344
460.9049, 173.9897
461.3870, 171.9870
461.8691, 172.0328
462.3513, 172.7699
462.8334, 172.4591
463.3155, 171.1510
463.7976, 170.1853
464.2797, 170.1037
464.7618, 170.3949
465.2440, 170.3965
465.7261, 170.1050
466.2082, 169.8670
466.6903, 169.7790
467.1724, 169.8164
467.6545, 170.1187
468.1367, 170.6524
468.6188, 170.7471
469.1009, 169.6819
469.5830, 167.8885
470.0651, 167.5390
470.5472, 170.1253
471.0294, 172.0621
471.5115, 171.7543
471.9936, 170.5832
472.4757, 170.3892
472.9578, 171.6064
473.4399, 173.2620
473.9221, 174.2175
474.4042, 174.3875
474.8863, 174.3167
475.3684, 173.9826
475.8505, 173.4641
476.3326, 172.5853
476.8148, 171.5835
477.2969, 170.8544
477.7790, 170.5990
478.2611, 170.6269
478.7432, 170.5080
479.2253, 170.0904
479.7075, 169.9648
480.1896, 170.3611
480.6717, 170.9322
481.1538, 171.5584
481.6359, 172.2052
482.1180, 172.8389
482.6002, 173.5197
483.0823, 174.1448
483.5644, 174.2952
484.0465, 173.7568
484.5286, 173.5613
485.0107, 174.9787
485.4929, 176.5450
485.9750, 176.2992
486.4571, 173.7210
486.9392, 171.0194
487.4213, 169.5678
487.9034, 168.9482
488.3856, 168.2177
488.8677, 167.1922
489.3498, 166.3054
489.8319, 166.0089
490.3140, 166.2563
490.7961, 166.2542
491.2783, 165.7808
491.7604, 165.2959
492.2425, 165.1436
492.7246, 165.1017
493.2067, 164.6624
493.6888, 163.6493
494.1710, 162.4910
494.6531, 161.8809
495.1352, 162.0522
495.6173, 162.0543
496.0994, 161.9238
496.5815, 161.6176
497.0637, 160.8501
497.5458, 159.9094
498.0279, 159.3936
498.5100, 159.6601
498.9921, 160.4473
499.4742, 161.2394
499.9564, 162.4077
500.4385, 162.5996
500.9206, 160.2753
501.4027, 157.9908
501.8848, 157.4382
502.3669, 158.5233
502.8491, 159.9886
503.3312, 161.1706
503.8133, 162.0629
504.2954, 162.6332
504.7775, 162.8715
505.2596, 162.7876
505.7418, 161.8372
506.2239, 160.8863
506.7060, 161.4754
507.1881, 164.2433
507.6702, 166.1581
508.1523, 164.5224
508.6345, 161.4327
509.1166, 160.8192
509.5987, 163.2696
510.0808, 165.7448
510.5629, 165.5958
511.0450, 163.1148
511.5272, 161.8896
512.0093, 162.5821
512.4914, 163.5512
512.9735, 164.7556
513.4556, 165.7849
513.9377, 165.9280
514.4199, 165.0707
514.9020, 164.0192
515.3841, 163.8079
515.8662, 164.5651
516.3483, 165.2790
516.8304, 166.5343
517.3126, 167.1000
517.7947, 166.0899
518.2768, 164.3255
518.7589, 162.9442
519.2410, 162.3923
519.7231, 162.4055
520.2053, 162.9423
520.6874, 164.1092
521.1695, 163.9922
521.6516, 160.7673
522.1337, 158.2662
522.6158, 159.9953
523.0980, 164.5018
523.5801, 167.5600
524.0622, 166.6316
524.5443, 164.6553
525.0264, 164.7676
525.5085, 166.6575
525.9907, 168.5898
526.4728, 170.1206
526.9549, 171.1012
527.4370, 171.1327
527.9191, 170.0355
528.4012, 169.2189
528.8834, 169.1474
529.3655, 169.1196
529.8476, 168.4017
530.3297, 167.2885
530.8118, 166.7912
531.2939, 167.5014
531.7761, 168.8366
532.2582, 169.2549
532.7403, 167.8430
533.2224, 167.1969
533.7045, 167.5468
534.1866, 168.3958
534.6688, 170.0077
535.1509, 171.9084
535.6330, 172.8941
536.1151, 171.9885
536.5972, 169.8889
537.0793, 168.3810
537.5615, 167.5087
538.0436, 167.0957
538.5257, 167.5168
539.0078, 168.0701
539.4899, 168.1467
539.9720, 167.7420
540.4542, 167.2052
540.9363, 166.5553
541.4184, 165.9500
541.9005, 165.5871
542.3826, 165.4766
542.8647, 165.6691
543.3469, 166.3008
543.8290, 167.1426
544.3111, 167.6325
544.7932, 167.8870
545.2753, 167.6001
545.7574, 165.8303
546.2396, 164.1370
546.7217, 164.1543
547.2038, 165.6673
547.6859, 167.1650
548.1680, 167.5662
548.6501, 167.1499
549.1323, 167.1633
549.6144, 167.8727
550.0965, 168.5645
550.5786, 169.5905
551.0607, 170.2542
551.5428, 169.6564
552.0250, 168.0271
552.5071, 166.7768
552.9892, 167.2709
553.4713, 168.7876
553.9534, 169.1372
554.4355, 168.1080
554.9177, 166.9267
555.3998, 165.7275
555.8819, 164.9002
556.3640, 165.1346
556.8461, 166.6290
557.3282, 167.6186
557.8104, 166.8931
558.2925, 165.6123
558.7746, 165.2474
559.2567, 165.7849
559.7388, 166.2312
560.2209, 165.9430
560.7031, 165.2133
561.1852, 164.9827
561.6673, 166.2740
562.1494, 166.5951
562.6315, 165.0380
563.1136, 163.1866
563.5958, 162.1705
564.0779, 161.9638
564.5600, 161.9584
565.0421, 161.7198
565.5242, 161.3690
566.0063, 161.2712
566.4885, 161.3606
566.9706, 161.8949
567.4527, 163.5098
567.9348, 165.1658
568.4169, 166.3530
568.8990, 166.9740
569.3812, 166.8025
569.8633, 165.0449
570.3454, 162.7767
570.8275, 161.6413
571.3096, 161.5841
571.7917, 161.5869
572.2739, 161.2104
572.7560, 160.6859
573.2381, 160.4655
573.7202, 160.6764
574.2023, 160.6695
574.6844, 160.0339
575.1666, 159.4671
575.6487, 159.5914
576.1308, 160.1887
576.6129, 160.5821
577.0950, 160.4063
577.5771, 159.9892
578.0593, 160.1550
578.5414, 161.3646
579.0235, 161.8916
579.5056, 161.1124
579.9877, 160.1248
580.4698, 159.2422
580.9520, 158.5434
581.4341, 158.0356
581.9162, 157.5726
582.3983, 157.6212
582.8804, 159.4243
583.3625, 162.7195
583.8447, 164.6519
584.3268, 164.5672
584.8089, 162.8995
585.2910, 158.6957
585.7731, 152.4915
586.2552, 150.1118
586.7374, 155.3790
587.2195, 161.1145
587.7016, 163.5543
588.1837, 163.9360
588.6658, 164.3706
589.1479, 165.5344
589.6301, 167.1869
590.1122, 169.1708
590.5943, 171.6111
591.0764, 173.1520
591.5585, 173.7302
592.0406, 173.3979
592.5228, 171.3211
593.0049, 168.7440
593.4870, 167.0032
593.9691, 166.4474
594.4512, 166.7962
594.9333, 168.1742
595.4155, 170.3014
595.8976, 171.9582
596.3797, 173.0556
596.8618, 173.7588
597.3439, 173.9474
597.8260, 173.8763
598.3082, 174.2602
598.7903, 175.5283
599.2724, 176.1707
599.7545, 175.5115
600.2366, 174.1077
600.7188, 172.0086
601.2009, 169.5717
601.6830, 168.2620
602.1651, 169.2280
602.6472, 171.6637
603.1293, 172.4717
603.6115, 170.1110
604.0936, 168.9698
604.5757, 170.6720
605.0578, 172.3843
605.5399, 172.1654
606.0220, 170.3795
606.5042, 168.6242
606.9863, 167.7565
607.4684, 167.4480
607.9505, 167.1136
608.4326, 166.7660
608.9147, 167.0609
609.3969, 168.6108
609.8790, 170.0364
610.3611, 169.4772
610.8432, 167.1316
611.3253, 165.4825
611.8074, 165.1251
612.2896, 165.1722
612.7717, 165.4447
613.2538, 165.7240
613.7359, 165.6935
614.2180, 165.2539
614.7001, 164.4318
615.1823, 163.0901
615.6644, 161.1463
616.1465, 160.4646
616.6286, 162.5423
617.1107, 163.8133
617.5928, 162.5452
618.0750, 160.5529
618.5571, 159.9341
619.0392, 161.0272
619.5213, 161.9893
620.0034, 160.7798
620.4855, 158.6022
620.9677, 158.5513
621.4498, 160.8323
621.9319, 162.6526
622.4140, 162.5317
622.8961, 161.2331
623.3782, 160.2388
623.8604, 159.3923
624.3425, 159.2766
624.8246, 160.8438
625.3067, 162.3788
625.7888, 162.4297
626.2709, 161.5025
626.7531, 161.1916
627.2352, 162.3055
627.7173, 163.7094
628.1994, 162.9758
628.6815, 159.4500
629.1636, 157.4505
629.6458, 158.1164
630.1279, 159.2006
630.6100, 159.5185
631.0921, 159.4575
631.5742, 159.8092
632.0563, 161.0218
632.5385, 161.9023
633.0206, 161.0675
633.5027, 159.4256
633.9848, 158.8095
634.4669, 159.4813
634.9490, 160.7012
635.4312, 162.0313
635.9133, 163.4113
636.3954, 164.5669
636.8775, 164.9380
637.3596, 165.8434
637.8417, 168.2658
638.3239, 170.4627
638.8060, 170.7924
639.2881, 169.7124
639.7702, 168.9571
640.2523, 169.5633
640.7344, 171.0699
641.2166, 172.7847
641.6987, 174.7412
642.1808, 176.1824
642.6629, 176.6386
643.1450, 177.0756
643.6271, 178.1367
644.1093, 179.8491
644.5914, 182.5175
645.0735, 187.4856
645.5556, 191.9129
646.0377, 193.7304
646.5198, 194.5077
647.0020, 196.5569
647.4841, 200.2406
647.9662, 204.3614
648.4483, 207.8535
648.9304, 210.8256
649.4125, 214.1275
649.8947, 217.2510
650.3768, 221.6679
650.8589, 229.0934
651.3410, 236.6458
651.8231, 241.9162
652.3052, 245.2457
652.7874, 249.0970
653.2695, 254.6520
653.7516, 261.3815
654.2337, 269.0499
654.7158, 277.4088
655.1979, 285.1312
655.6801, 291.7086
656.1622, 298.3017
656.6443, 306.1963
657.1264, 315.4145
657.6085, 325.2355
658.0906, 336.7231
658.5728, 347.3813
659.0549, 355.8599
659.5370, 363.7561
660.0191, 373.2751
660.5012, 384.4158
660.9833, 394.8351
661.4655, 402.4492
661.9476, 408.0154
662.4297, 414.3213
662.9118, 421.8929
663.3939, 425.8517
663.8760, 423.6570
664.3582, 418.4334
664.8403, 413.9064
665.3224, 409.9675
665.8045, 404.2986
666.2866, 395.6764
666.7687, 386.1352
667.2509, 376.8597
667.7330, 367.4376
668.2151, 356.9019
668.6972, 345.0882
669.1793, 333.1081
669.6614, 321.9286
670.1436, 311.5351
670.6257, 301.8063
671.1078, 293.1934
671.5899, 284.2581
672.0720, 273.5219
672.5541, 262.9832
673.0363, 254.1679
673.5184, 247.1125
