##NAMES=Spinel
##RRUFFID=R070013
##IDEAL CHEMISTRY=MgAl_2_O_4_
##LOCALITY=Bo Phloi, Kanchoutabori Province, Thailand
##OWNER=RRUFF
##SOURCE=Michael Scott
##DESCRIPTION=Black glassy fragment with conchoidal fracture
##STATUS=The identification of this mineral has been made only by X-ray diffraction.
##URL=rruff.info/R070013
##MEASURED CHEMISTRY=(Mg_0.69_Fe^2+^_0.31_)_Σ=1_(Al_1.90_Fe^3+^_0.10_)_Σ=2_O_4_ ; trace of Mn, Ti and Cr
143.4313, 1169.545
143.9134, 1185.852
144.3955, 1203.928
144.8776, 1221.010
145.3597, 1236.162
145.8419, 1249.270
146.3240, 1265.784
146.8061, 1293.613
147.2882, 1319.217
147.7703, 1330.131
148.2524, 1306.258
148.7346, 1290.791
149.2167, 1295.575
149.6988, 1328.824
150.1809, 1346.542
150.6630, 1331.526
151.1452, 1306.094
151.6273, 1297.874
152.1094, 1329.751
152.5915, 1359.898
153.0736, 1375.589
153.5557, 1369.232
154.0379, 1363.486
154.5200, 1360.335
155.0021, 1359.360
155.4842, 1359.633
155.9663, 1365.971
156.4484, 1369.993
156.9306, 1367.039
157.4127, 1347.856
157.8948, 1333.463
158.3769, 1332.117
158.8590, 1340.568
159.3411, 1346.626
159.8233, 1342.710
160.3054, 1337.018
160.7875, 1335.428
161.2696, 1345.088
161.7517, 1354.105
162.2338, 1354.949
162.7160, 1348.657
163.1981, 1348.126
163.6802, 1368.415
164.1623, 1394.508
164.6444, 1410.415
165.1265, 1404.076
165.6087, 1390.360
166.0908, 1375.042
166.5729, 1357.819
167.0550, 1347.181
167.5371, 1353.138
168.0192, 1368.639
168.5014, 1382.334
168.9835, 1388.755
169.4656, 1391.165
169.9477, 1391.783
170.4298, 1390.554
170.9119, 1388.885
171.3941, 1386.338
171.8762, 1384.000
172.3583, 1384.538
172.8404, 1395.152
173.3225, 1407.596
173.8046, 1409.741
174.2868, 1396.156
174.7689, 1380.047
175.2510, 1376.413
175.7331, 1382.940
176.2152, 1388.865
176.6973, 1385.862
177.1795, 1377.489
177.6616, 1370.203
178.1437, 1364.950
178.6258, 1362.013
179.1079, 1364.362
179.5900, 1371.428
180.0722, 1375.662
180.5543, 1365.598
181.0364, 1347.073
181.5185, 1337.672
182.0006, 1347.498
182.4827, 1366.627
182.9649, 1376.378
183.4470, 1376.426
183.9291, 1372.291
184.4112, 1365.888
184.8933, 1358.561
185.3754, 1357.445
185.8576, 1370.827
186.3397, 1392.342
186.8218, 1400.648
187.3039, 1394.393
187.7860, 1382.044
188.2681, 1371.801
188.7503, 1363.795
189.2324, 1358.549
189.7145, 1356.988
190.1966, 1358.709
190.6787, 1362.505
191.1608, 1369.606
191.6430, 1375.436
192.1251, 1370.484
192.6072, 1354.370
193.0893, 1340.410
193.5714, 1337.063
194.0535, 1343.635
194.5357, 1348.402
195.0178, 1351.140
195.4999, 1351.151
195.9820, 1344.485
196.4641, 1329.811
196.9462, 1318.497
197.4284, 1320.371
197.9105, 1336.001
198.3926, 1345.373
198.8747, 1345.168
199.3568, 1338.592
199.8389, 1334.376
200.3211, 1332.776
200.8032, 1332.489
201.2853, 1333.617
201.7674, 1336.675
202.2495, 1336.718
202.7316, 1333.227
203.2138, 1326.206
203.6959, 1313.726
204.1780, 1293.040
204.6601, 1274.464
205.1422, 1268.374
205.6243, 1277.752
206.1065, 1284.309
206.5886, 1283.577
207.0707, 1276.719
207.5528, 1274.454
208.0349, 1278.661
208.5170, 1283.842
208.9992, 1284.383
209.4813, 1279.078
209.9634, 1273.314
210.4455, 1268.533
210.9276, 1264.727
211.4097, 1257.703
211.8919, 1244.418
212.3740, 1232.258
212.8561, 1231.250
213.3382, 1246.636
213.8203, 1258.636
214.3024, 1261.484
214.7846, 1254.413
215.2667, 1246.881
215.7488, 1238.940
216.2309, 1230.417
216.7130, 1219.993
217.1951, 1204.814
217.6773, 1194.264
218.1594, 1192.430
218.6415, 1201.512
219.1236, 1207.091
219.6057, 1208.145
220.0878, 1206.642
220.5700, 1206.035
221.0521, 1207.612
221.5342, 1207.549
222.0163, 1203.949
222.4984, 1195.311
222.9805, 1188.543
223.4627, 1183.470
223.9448, 1180.466
224.4269, 1180.865
224.9090, 1186.738
225.3911, 1192.465
225.8732, 1196.166
226.3554, 1198.036
226.8375, 1197.027
227.3196, 1191.949
227.8017, 1184.468
228.2838, 1178.041
228.7659, 1171.603
229.2481, 1167.968
229.7302, 1168.966
230.2123, 1177.461
230.6944, 1184.165
231.1765, 1189.445
231.6587, 1192.719
232.1408, 1191.886
232.6229, 1184.827
233.1050, 1176.642
233.5871, 1169.731
234.0692, 1164.307
234.5514, 1159.565
235.0335, 1155.473
235.5156, 1152.063
235.9977, 1149.107
236.4798, 1145.388
236.9619, 1143.722
237.4441, 1146.055
237.9262, 1155.127
238.4083, 1162.504
238.8904, 1167.768
239.3725, 1171.014
239.8546, 1172.767
240.3368, 1173.589
240.8189, 1172.194
241.3010, 1167.158
241.7831, 1154.888
242.2652, 1146.491
242.7473, 1144.062
243.2295, 1146.510
243.7116, 1147.305
244.1937, 1144.823
244.6758, 1142.780
245.1579, 1144.219
245.6400, 1153.035
246.1222, 1157.020
246.6043, 1153.349
247.0864, 1143.312
247.5685, 1135.759
248.0506, 1130.389
248.5327, 1127.889
249.0149, 1128.975
249.4970, 1134.757
249.9791, 1142.005
250.4612, 1152.017
250.9433, 1163.946
251.4254, 1169.791
251.9076, 1167.066
252.3897, 1161.631
252.8718, 1157.473
253.3539, 1154.967
253.8360, 1153.087
254.3181, 1152.432
254.8003, 1152.604
255.2824, 1149.488
255.7645, 1140.295
256.2466, 1131.780
256.7287, 1130.574
257.2108, 1142.296
257.6930, 1146.675
258.1751, 1138.000
258.6572, 1118.319
259.1393, 1106.419
259.6214, 1104.521
260.1035, 1107.326
260.5857, 1111.318
261.0678, 1117.200
261.5499, 1122.356
262.0320, 1126.250
262.5141, 1129.054
262.9962, 1132.651
263.4784, 1138.647
263.9605, 1142.801
264.4426, 1140.715
264.9247, 1129.575
265.4068, 1121.531
265.8889, 1118.813
266.3711, 1120.837
266.8532, 1123.736
267.3353, 1128.569
267.8174, 1132.163
268.2995, 1130.424
268.7816, 1120.748
269.2638, 1117.124
269.7459, 1124.086
270.2280, 1139.227
270.7101, 1147.784
271.1922, 1147.442
271.6743, 1145.772
272.1565, 1150.762
272.6386, 1164.844
273.1207, 1171.410
273.6028, 1165.333
274.0849, 1149.831
274.5670, 1140.179
275.0492, 1137.502
275.5313, 1137.573
276.0134, 1136.318
276.4955, 1133.215
276.9776, 1134.536
277.4597, 1143.141
277.9419, 1156.418
278.4240, 1163.962
278.9061, 1164.985
279.3882, 1163.599
279.8703, 1162.757
280.3524, 1162.467
280.8346, 1161.788
281.3167, 1159.633
281.7988, 1157.557
282.2809, 1161.855
282.7630, 1173.544
283.2451, 1184.593
283.7273, 1187.582
284.2094, 1182.959
284.6915, 1179.826
285.1736, 1179.902
285.6557, 1182.156
286.1378, 1183.940
286.6200, 1185.177
287.1021, 1187.136
287.5842, 1191.507
288.0663, 1197.816
288.5484, 1202.815
289.0305, 1205.663
289.5127, 1207.364
289.9948, 1211.159
290.4769, 1216.975
290.9590, 1220.031
291.4411, 1212.996
291.9232, 1199.299
292.4054, 1193.711
292.8875, 1200.183
293.3696, 1212.402
293.8517, 1221.810
294.3338, 1228.316
294.8159, 1230.419
295.2981, 1223.299
295.7802, 1210.853
296.2623, 1204.161
296.7444, 1206.212
297.2265, 1211.073
297.7086, 1209.263
298.1908, 1202.372
298.6729, 1198.508
299.1550, 1205.878
299.6371, 1219.148
300.1192, 1228.225
300.6013, 1231.110
301.0835, 1231.814
301.5656, 1234.928
302.0477, 1239.607
302.5298, 1242.938
303.0119, 1240.580
303.4940, 1236.936
303.9762, 1238.704
304.4583, 1247.683
304.9404, 1257.542
305.4225, 1265.053
305.9046, 1269.214
306.3867, 1267.738
306.8689, 1250.986
307.3510, 1232.360
307.8331, 1226.571
308.3152, 1236.225
308.7973, 1249.538
309.2794, 1263.153
309.7616, 1274.175
310.2437, 1277.721
310.7258, 1262.822
311.2079, 1245.537
311.6900, 1236.554
312.1721, 1237.147
312.6543, 1243.216
313.1364, 1259.832
313.6185, 1278.945
314.1006, 1289.500
314.5827, 1277.341
315.0648, 1263.705
315.5470, 1260.160
316.0291, 1267.711
316.5112, 1276.098
316.9933, 1281.886
317.4754, 1286.193
317.9576, 1290.173
318.4397, 1292.264
318.9218, 1295.857
319.4039, 1303.831
319.8860, 1316.153
320.3681, 1324.948
320.8503, 1328.984
321.3324, 1328.374
321.8145, 1323.209
322.2966, 1300.837
322.7787, 1287.276
323.2608, 1292.819
323.7430, 1315.518
324.2251, 1332.160
324.7072, 1335.613
325.1893, 1335.089
325.6714, 1336.158
326.1535, 1342.631
326.6357, 1346.722
327.1178, 1345.733
327.5999, 1341.006
328.0820, 1340.229
328.5641, 1349.570
329.0462, 1357.461
329.5284, 1357.828
330.0105, 1339.107
330.4926, 1331.226
330.9747, 1340.456
331.4568, 1360.445
331.9389, 1371.659
332.4211, 1367.788
332.9032, 1363.692
333.3853, 1365.850
333.8674, 1376.793
334.3495, 1387.765
334.8316, 1401.053
335.3138, 1413.048
335.7959, 1414.795
336.2780, 1401.369
336.7601, 1390.094
337.2422, 1389.168
337.7243, 1400.517
338.2065, 1405.911
338.6886, 1403.675
339.1707, 1398.165
339.6528, 1395.552
340.1349, 1396.146
340.6170, 1397.795
341.0992, 1400.349
341.5813, 1403.591
342.0634, 1405.516
342.5455, 1406.169
343.0276, 1405.278
343.5097, 1401.359
343.9919, 1394.506
344.4740, 1389.558
344.9561, 1387.068
345.4382, 1387.701
345.9203, 1396.227
346.4024, 1413.332
346.8846, 1428.350
347.3667, 1429.329
347.8488, 1419.533
348.3309, 1411.598
348.8130, 1408.875
349.2951, 1409.258
349.7773, 1409.597
350.2594, 1410.002
350.7415, 1411.432
351.2236, 1416.486
351.7057, 1422.754
352.1878, 1425.195
352.6700, 1421.511
353.1521, 1416.929
353.6342, 1419.100
354.1163, 1425.457
354.5984, 1427.777
355.0806, 1413.194
355.5627, 1396.318
356.0448, 1394.846
356.5269, 1415.294
357.0090, 1434.055
357.4911, 1429.913
357.9733, 1413.566
358.4554, 1404.152
358.9375, 1416.880
359.4196, 1433.854
359.9017, 1445.087
360.3839, 1449.438
360.8660, 1450.037
361.3481, 1447.228
361.8302, 1441.641
362.3123, 1433.983
362.7944, 1418.821
363.2766, 1406.977
363.7587, 1402.503
364.2408, 1405.566
364.7229, 1411.033
365.2050, 1422.967
365.6871, 1434.045
366.1693, 1439.123
366.6514, 1429.904
367.1335, 1423.420
367.6156, 1423.292
368.0977, 1428.409
368.5798, 1430.651
369.0620, 1424.837
369.5441, 1420.848
370.0262, 1424.211
370.5083, 1446.148
370.9904, 1455.551
371.4725, 1445.674
371.9547, 1424.756
372.4368, 1413.851
372.9189, 1416.093
373.4010, 1422.487
373.8831, 1430.541
374.3652, 1440.990
374.8474, 1448.763
375.3295, 1453.838
375.8116, 1456.257
376.2937, 1454.404
376.7758, 1446.773
377.2579, 1443.859
377.7401, 1452.331
378.2222, 1469.918
378.7043, 1475.535
379.1864, 1467.502
379.6685, 1454.533
380.1506, 1443.603
380.6328, 1434.937
381.1149, 1431.490
381.5970, 1436.030
382.0791, 1444.518
382.5612, 1446.826
383.0433, 1443.283
383.5255, 1441.140
384.0076, 1449.584
384.4897, 1463.250
384.9718, 1469.243
385.4539, 1463.076
385.9360, 1453.549
386.4182, 1449.100
386.9003, 1449.346
387.3824, 1452.819
387.8645, 1461.762
388.3466, 1472.011
388.8287, 1478.122
389.3109, 1478.525
389.7930, 1480.948
390.2751, 1496.292
390.7572, 1516.062
391.2393, 1527.115
391.7214, 1512.734
392.2036, 1497.873
392.6857, 1499.095
393.1678, 1517.099
393.6499, 1529.568
394.1320, 1522.732
394.6141, 1509.742
395.0963, 1501.783
395.5784, 1506.541
396.0605, 1510.926
396.5426, 1510.234
397.0247, 1505.953
397.5068, 1506.611
397.9890, 1522.756
398.4711, 1536.538
398.9532, 1538.978
399.4353, 1518.185
399.9174, 1505.797
400.3995, 1505.978
400.8817, 1513.454
401.3638, 1517.349
401.8459, 1515.172
402.3280, 1513.571
402.8101, 1515.088
403.2922, 1520.339
403.7744, 1524.065
404.2565, 1525.597
404.7386, 1526.600
405.2207, 1530.238
405.7028, 1537.673
406.1849, 1540.259
406.6671, 1534.106
407.1492, 1521.559
407.6313, 1512.299
408.1134, 1505.866
408.5955, 1505.585
409.0776, 1520.381
409.5598, 1546.155
410.0419, 1559.111
410.5240, 1553.025
411.0061, 1537.052
411.4882, 1522.522
411.9703, 1510.005
412.4525, 1502.270
412.9346, 1503.751
413.4167, 1510.218
413.8988, 1516.591
414.3809, 1522.914
414.8630, 1525.255
415.3452, 1515.529
415.8273, 1499.959
416.3094, 1489.473
416.7915, 1490.435
417.2736, 1496.556
417.7557, 1506.919
418.2379, 1520.849
418.7200, 1529.183
419.2021, 1521.263
419.6842, 1509.416
420.1663, 1503.990
420.6484, 1514.582
421.1306, 1522.849
421.6127, 1524.025
422.0948, 1519.354
422.5769, 1512.616
423.0590, 1497.685
423.5411, 1486.453
424.0233, 1485.348
424.5054, 1501.470
424.9875, 1509.551
425.4696, 1502.110
425.9517, 1490.397
426.4338, 1490.241
426.9160, 1510.354
427.3981, 1526.351
427.8802, 1532.134
428.3623, 1528.051
428.8444, 1522.513
429.3265, 1513.936
429.8087, 1507.368
430.2908, 1508.289
430.7729, 1517.682
431.2550, 1524.285
431.7371, 1525.696
432.2192, 1524.445
432.7014, 1527.638
433.1835, 1535.212
433.6656, 1539.815
434.1477, 1534.195
434.6298, 1521.935
435.1119, 1514.668
435.5941, 1513.379
436.0762, 1514.958
436.5583, 1517.585
437.0404, 1520.543
437.5225, 1522.085
438.0046, 1520.048
438.4868, 1517.216
438.9689, 1516.823
439.4510, 1518.574
439.9331, 1519.777
440.4152, 1517.473
440.8973, 1514.515
441.3795, 1513.669
441.8616, 1516.489
442.3437, 1519.943
442.8258, 1523.318
443.3079, 1526.404
443.7900, 1528.705
444.2722, 1528.443
444.7543, 1528.774
445.2364, 1531.811
445.7185, 1539.264
446.2006, 1542.935
446.6827, 1537.288
447.1649, 1530.223
447.6470, 1529.614
448.1291, 1541.408
448.6112, 1549.898
449.0933, 1551.680
449.5754, 1547.967
450.0576, 1546.046
450.5397, 1545.660
451.0218, 1547.612
451.5039, 1553.891
451.9860, 1565.746
452.4681, 1571.367
452.9503, 1568.094
453.4324, 1562.490
453.9145, 1568.240
454.3966, 1585.063
454.8787, 1596.124
455.3608, 1591.534
455.8430, 1576.535
456.3251, 1565.006
456.8072, 1556.980
457.2893, 1552.059
457.7714, 1550.798
458.2535, 1552.364
458.7357, 1555.288
459.2178, 1559.560
459.6999, 1564.511
460.1820, 1571.100
460.6641, 1578.212
461.1462, 1582.627
461.6284, 1578.852
462.1105, 1574.590
462.5926, 1575.890
463.0747, 1584.519
463.5568, 1592.405
464.0389, 1599.016
464.5211, 1602.467
465.0032, 1600.555
465.4853, 1584.444
465.9674, 1572.047
466.4495, 1567.815
466.9316, 1571.169
467.4138, 1575.700
467.8959, 1583.522
468.3780, 1590.265
468.8601, 1593.530
469.3422, 1591.722
469.8243, 1590.424
470.3065, 1589.370
470.7886, 1589.092
471.2707, 1591.212
471.7528, 1596.534
472.2349, 1599.989
472.7170, 1598.958
473.1992, 1594.663
473.6813, 1592.371
474.1634, 1591.850
474.6455, 1595.714
475.1276, 1611.296
475.6097, 1633.960
476.0919, 1646.723
476.5740, 1644.454
477.0561, 1636.340
477.5382, 1631.928
478.0203, 1630.604
478.5024, 1630.514
478.9846, 1632.202
479.4667, 1633.732
479.9488, 1634.001
480.4309, 1633.004
480.9130, 1628.900
481.3951, 1611.915
481.8773, 1595.466
482.3594, 1592.328
482.8415, 1622.228
483.3236, 1647.853
483.8057, 1660.145
484.2878, 1661.148
484.7700, 1658.390
485.2521, 1645.626
485.7342, 1635.603
486.2163, 1633.589
486.6984, 1642.592
487.1805, 1647.596
487.6627, 1645.329
488.1448, 1642.433
488.6269, 1647.706
489.1090, 1664.388
489.5911, 1676.080
490.0732, 1677.533
490.5554, 1672.674
491.0375, 1676.202
491.5196, 1688.978
492.0017, 1701.303
492.4838, 1706.286
492.9659, 1705.773
493.4481, 1706.732
493.9302, 1709.890
494.4123, 1713.406
494.8944, 1713.333
495.3765, 1712.060
495.8586, 1715.125
496.3408, 1730.468
496.8229, 1746.322
497.3050, 1752.063
497.7871, 1749.126
498.2692, 1745.616
498.7513, 1744.687
499.2335, 1745.276
499.7156, 1746.399
500.1977, 1746.999
500.6798, 1750.379
501.1619, 1757.598
501.6440, 1767.907
502.1262, 1780.497
502.6083, 1807.681
503.0904, 1822.215
503.5725, 1812.649
504.0546, 1781.440
504.5367, 1768.272
505.0189, 1779.929
505.5010, 1798.025
505.9831, 1812.472
506.4652, 1823.191
506.9473, 1829.433
507.4294, 1829.856
507.9116, 1828.342
508.3937, 1830.690
508.8758, 1836.778
509.3579, 1844.467
509.8400, 1853.804
510.3221, 1863.793
510.8043, 1871.212
511.2864, 1876.367
511.7685, 1883.835
512.2506, 1900.510
512.7327, 1920.083
513.2148, 1934.590
513.6970, 1942.347
514.1791, 1945.645
514.6612, 1943.891
515.1433, 1938.985
515.6254, 1933.955
516.1075, 1922.523
516.5897, 1918.167
517.0718, 1930.358
517.5539, 1958.630
518.0360, 1979.122
518.5181, 1981.323
519.0002, 1981.208
519.4824, 1986.610
519.9645, 1999.225
520.4466, 2014.615
520.9287, 2036.780
521.4108, 2058.296
521.8929, 2064.386
522.3751, 2050.612
522.8572, 2043.015
523.3393, 2052.827
523.8214, 2074.216
524.3035, 2080.362
524.7856, 2070.715
525.2678, 2062.139
525.7499, 2068.441
526.2320, 2085.512
526.7141, 2105.660
527.1962, 2129.356
527.6783, 2147.643
528.1605, 2144.851
528.6426, 2131.196
529.1247, 2125.271
529.6068, 2142.948
530.0889, 2163.411
530.5710, 2175.050
531.0532, 2178.596
531.5353, 2181.137
532.0174, 2183.346
532.4995, 2186.339
532.9816, 2191.052
533.4637, 2199.548
533.9459, 2205.275
534.4280, 2205.886
534.9101, 2204.998
535.3922, 2208.113
535.8743, 2220.792
536.3564, 2223.403
536.8386, 2207.546
537.3207, 2179.909
537.8028, 2169.287
538.2849, 2178.066
538.7670, 2189.960
539.2491, 2195.906
539.7313, 2196.820
540.2134, 2197.073
540.6955, 2196.874
541.1776, 2195.793
541.6597, 2190.264
542.1418, 2183.756
542.6240, 2184.305
543.1061, 2199.994
543.5882, 2216.035
544.0703, 2218.665
544.5524, 2211.850
545.0345, 2206.946
545.5167, 2212.143
545.9988, 2217.920
546.4809, 2219.052
546.9630, 2214.430
547.4451, 2209.621
547.9272, 2201.970
548.4094, 2196.632
548.8915, 2198.192
549.3736, 2214.091
549.8557, 2222.887
550.3378, 2220.424
550.8199, 2211.671
551.3021, 2208.464
551.7842, 2212.420
552.2663, 2214.163
552.7484, 2209.042
553.2305, 2198.666
553.7126, 2190.077
554.1948, 2183.164
554.6769, 2179.926
555.1590, 2185.427
555.6411, 2195.265
556.1232, 2199.964
556.6053, 2197.197
557.0875, 2191.909
557.5696, 2189.291
558.0517, 2186.958
558.5338, 2180.853
559.0159, 2161.234
559.4980, 2145.220
559.9802, 2144.772
560.4623, 2157.270
560.9444, 2162.143
561.4265, 2148.469
561.9086, 2131.861
562.3907, 2119.002
562.8729, 2108.822
563.3550, 2106.235
563.8371, 2116.725
564.3192, 2128.849
564.8013, 2127.587
565.2834, 2109.028
565.7656, 2098.679
566.2477, 2103.042
566.7298, 2116.266
567.2119, 2126.969
567.6940, 2135.052
568.1761, 2138.524
568.6583, 2132.536
569.1404, 2122.540
569.6225, 2120.354
570.1046, 2126.142
570.5867, 2128.040
571.0688, 2108.296
571.5510, 2084.291
572.0331, 2076.616
572.5152, 2100.082
572.9973, 2119.800
573.4794, 2118.548
573.9615, 2105.883
574.4437, 2097.758
574.9258, 2102.729
575.4079, 2105.561
575.8900, 2103.642
576.3721, 2097.066
576.8542, 2085.727
577.3364, 2064.995
577.8185, 2048.555
578.3006, 2046.204
578.7827, 2058.781
579.2648, 2069.091
579.7469, 2077.285
580.2291, 2082.209
580.7112, 2079.446
581.1933, 2071.567
581.6754, 2069.316
582.1575, 2078.237
582.6396, 2089.744
583.1218, 2094.991
583.6039, 2094.851
584.0860, 2091.794
584.5681, 2081.901
585.0502, 2073.572
585.5323, 2074.808
586.0145, 2085.931
586.4966, 2091.596
586.9787, 2080.354
587.4608, 2067.535
587.9429, 2063.700
588.4250, 2079.196
588.9072, 2083.072
589.3893, 2067.932
589.8714, 2047.248
590.3535, 2041.046
590.8356, 2052.686
591.3177, 2062.430
591.7999, 2065.504
592.2820, 2063.737
592.7641, 2060.077
593.2462, 2054.779
593.7283, 2053.639
594.2104, 2066.927
594.6926, 2084.128
595.1747, 2085.152
595.6568, 2069.013
596.1389, 2052.912
596.6210, 2051.144
597.1031, 2054.694
597.5853, 2054.265
598.0674, 2045.449
598.5495, 2036.814
599.0316, 2030.302
599.5137, 2025.592
599.9958, 2022.128
600.4780, 2018.523
600.9601, 2017.947
601.4423, 2021.349
601.9244, 2028.292
602.4065, 2038.104
602.8886, 2053.130
603.3707, 2063.821
603.8528, 2063.282
604.3350, 2052.616
604.8171, 2043.548
605.2992, 2036.170
605.7813, 2030.047
606.2634, 2023.717
606.7455, 2018.312
607.2277, 2016.465
607.7098, 2019.916
608.1919, 2024.322
608.6740, 2026.429
609.1561, 2027.085
609.6382, 2027.743
610.1204, 2029.511
610.6025, 2030.793
611.0846, 2032.150
611.5667, 2033.144
612.0488, 2029.644
612.5309, 2016.359
613.0131, 2004.618
613.4952, 1998.988
613.9773, 1999.760
614.4594, 2004.734
614.9415, 2015.429
615.4236, 2026.334
615.9058, 2032.693
616.3879, 2034.503
616.8700, 2030.386
617.3521, 2018.113
617.8342, 2005.530
618.3163, 2005.367
618.7985, 2013.090
619.2806, 2017.512
619.7627, 2008.164
620.2448, 1998.618
620.7269, 1999.046
621.2090, 2007.769
621.6912, 2016.911
622.1733, 2027.722
622.6554, 2035.035
623.1375, 2036.076
623.6196, 2029.946
624.1017, 2021.104
624.5839, 2005.603
625.0660, 1992.010
625.5481, 1986.968
626.0302, 1991.412
626.5123, 2000.636
626.9944, 2017.240
627.4766, 2031.891
627.9587, 2023.229
628.4408, 1996.553
628.9229, 1984.802
629.4050, 2008.741
629.8871, 2041.475
630.3693, 2048.898
630.8514, 2036.903
631.3335, 2025.154
631.8156, 2022.473
632.2977, 2024.151
632.7798, 2029.729
633.2620, 2039.430
633.7441, 2043.461
634.2262, 2034.777
634.7083, 2023.776
635.1904, 2015.513
635.6725, 2007.179
636.1547, 2011.045
636.6368, 2034.826
637.1189, 2059.496
637.6010, 2056.296
638.0831, 2024.524
638.5652, 2006.252
639.0474, 2013.781
639.5295, 2032.275
