##NAMES=Spinel
##RRUFFID=R070013
##IDEAL CHEMISTRY=MgAl_2_O_4_
##LOCALITY=Bo Phloi, Kanchoutabori Province, Thailand
##OWNER=RRUFF
##SOURCE=Michael Scott
##DESCRIPTION=Black glassy fragment with conchoidal fracture
##STATUS=The identification of this mineral has been made only by X-ray diffraction.
##URL=rruff.info/R070013
##MEASURED CHEMISTRY=(Mg_0.69_Fe^2+^_0.31_)_Σ=1_(Al_1.90_Fe^3+^_0.10_)_Σ=2_O_4_ ; trace of Mn, Ti and Cr
157.9508, 2144.728
158.4330, 2159.413
158.9151, 2172.137
159.3972, 2186.531
159.8793, 2203.979
160.3614, 2222.494
160.8435, 2240.217
161.3257, 2256.495
161.8078, 2271.413
162.2899, 2285.306
162.7720, 2297.519
163.2541, 2309.365
163.7362, 2319.525
164.2184, 2329.809
164.7005, 2344.878
165.1826, 2366.653
165.6647, 2387.710
166.1468, 2391.458
166.6289, 2359.767
167.1111, 2340.312
167.5932, 2345.107
168.0753, 2361.883
168.5574, 2376.497
169.0395, 2384.268
169.5216, 2387.142
170.0038, 2388.662
170.4859, 2388.313
170.9680, 2387.803
171.4501, 2385.803
171.9322, 2384.221
172.4143, 2386.578
172.8965, 2394.484
173.3786, 2404.270
173.8607, 2409.010
174.3428, 2407.649
174.8249, 2405.347
175.3070, 2401.221
175.7892, 2397.211
176.2713, 2396.335
176.7534, 2399.582
177.2355, 2405.797
177.7176, 2414.117
178.1997, 2425.732
178.6819, 2434.418
179.1640, 2437.576
179.6461, 2437.109
180.1282, 2435.480
180.6103, 2432.981
181.0924, 2430.731
181.5745, 2430.518
182.0567, 2432.158
182.5388, 2435.065
183.0209, 2439.976
183.5030, 2445.873
183.9851, 2451.251
184.4672, 2455.894
184.9494, 2459.471
185.4315, 2461.998
185.9136, 2463.841
186.3957, 2462.265
186.8778, 2453.590
187.3599, 2441.591
187.8421, 2432.452
188.3242, 2427.369
188.8063, 2425.197
189.2884, 2426.557
189.7705, 2430.949
190.2526, 2432.810
190.7348, 2429.276
191.2169, 2422.368
191.6990, 2414.844
192.1811, 2406.417
192.6632, 2399.580
193.1453, 2396.887
193.6275, 2397.733
194.1096, 2401.762
194.5917, 2414.371
195.0738, 2428.592
195.5559, 2431.471
196.0380, 2419.449
196.5202, 2403.941
197.0023, 2395.586
197.4844, 2392.098
197.9665, 2386.904
198.4486, 2376.814
198.9307, 2364.169
199.4129, 2351.842
199.8950, 2339.310
200.3771, 2329.556
200.8592, 2327.413
201.3413, 2329.938
201.8234, 2331.166
202.3056, 2329.403
202.7877, 2325.388
203.2698, 2319.805
203.7519, 2312.480
204.2340, 2304.573
204.7161, 2296.668
205.1983, 2288.759
205.6804, 2280.845
206.1625, 2272.890
206.6446, 2264.949
207.1267, 2256.380
207.6088, 2246.742
208.0910, 2239.712
208.5731, 2242.044
209.0552, 2247.142
209.5373, 2243.930
210.0194, 2224.679
210.5015, 2202.653
210.9837, 2194.031
211.4658, 2199.881
211.9479, 2204.837
212.4300, 2198.384
212.9121, 2188.304
213.3942, 2185.689
213.8764, 2194.375
214.3585, 2206.395
214.8406, 2216.599
215.3227, 2225.076
215.8048, 2226.052
216.2869, 2209.587
216.7691, 2189.332
217.2512, 2184.192
217.7333, 2199.842
218.2154, 2215.779
218.6975, 2212.195
219.1796, 2190.857
219.6618, 2174.461
220.1439, 2169.516
220.6260, 2173.310
221.1081, 2183.434
221.5902, 2200.923
222.0723, 2216.327
222.5545, 2223.900
223.0366, 2224.105
223.5187, 2218.144
224.0008, 2202.365
224.4829, 2185.363
224.9650, 2175.070
225.4472, 2171.288
225.9293, 2172.206
226.4114, 2180.902
226.8935, 2194.079
227.3756, 2200.630
227.8577, 2197.573
228.3399, 2189.715
228.8220, 2179.790
229.3041, 2168.375
229.7862, 2158.718
230.2683, 2150.849
230.7504, 2145.888
231.2325, 2148.503
231.7147, 2162.710
232.1968, 2174.446
232.6789, 2166.046
233.1610, 2145.087
233.6431, 2132.130
234.1252, 2138.853
234.6074, 2155.230
235.0895, 2167.073
235.5716, 2173.765
236.0537, 2177.351
236.5358, 2177.038
237.0179, 2174.719
237.5001, 2174.512
237.9822, 2179.552
238.4643, 2185.277
238.9464, 2186.229
239.4285, 2182.297
239.9106, 2178.715
240.3928, 2179.258
240.8749, 2181.670
241.3570, 2180.992
241.8391, 2174.226
242.3212, 2168.125
242.8033, 2169.949
243.2855, 2178.344
243.7676, 2182.997
244.2497, 2178.562
244.7318, 2168.687
245.2139, 2160.430
245.6960, 2153.702
246.1782, 2148.667
246.6603, 2145.183
247.1424, 2143.406
247.6245, 2144.817
248.1066, 2151.789
248.5887, 2158.777
249.0709, 2155.282
249.5530, 2139.597
250.0351, 2128.932
250.5172, 2131.452
250.9993, 2142.547
251.4814, 2155.591
251.9636, 2170.046
252.4457, 2182.547
252.9278, 2188.217
253.4099, 2187.236
253.8920, 2185.666
254.3741, 2182.724
254.8563, 2180.696
255.3384, 2184.518
255.8205, 2194.789
256.3026, 2201.706
256.7847, 2194.949
257.2668, 2174.610
257.7490, 2159.923
258.2311, 2153.831
258.7132, 2151.513
259.1953, 2148.270
259.6774, 2144.847
260.1595, 2147.395
260.6417, 2161.663
261.1238, 2185.227
261.6059, 2202.006
262.0880, 2210.300
262.5701, 2214.453
263.0522, 2215.082
263.5344, 2212.864
264.0165, 2209.005
264.4986, 2203.905
264.9807, 2197.920
265.4628, 2191.918
265.9449, 2183.139
266.4271, 2178.360
266.9092, 2180.436
267.3913, 2186.733
267.8734, 2194.658
268.3555, 2203.411
268.8376, 2211.554
269.3198, 2216.866
269.8019, 2218.833
270.2840, 2218.098
270.7661, 2208.172
271.2482, 2199.598
271.7303, 2203.889
272.2125, 2221.492
272.6946, 2240.690
273.1767, 2248.168
273.6588, 2240.106
274.1409, 2239.262
274.6230, 2252.578
275.1052, 2265.658
275.5873, 2273.023
276.0694, 2273.933
276.5515, 2268.033
277.0336, 2253.804
277.5157, 2232.030
277.9979, 2219.417
278.4800, 2217.985
278.9621, 2223.383
279.4442, 2242.644
279.9263, 2266.588
280.4084, 2281.008
280.8906, 2278.288
281.3727, 2264.039
281.8548, 2255.598
282.3369, 2258.136
282.8190, 2259.231
283.3011, 2253.462
283.7833, 2248.238
284.2654, 2252.129
284.7475, 2266.932
285.2296, 2285.001
285.7117, 2293.620
286.1938, 2287.880
286.6760, 2286.346
287.1581, 2292.661
287.6402, 2300.553
288.1223, 2308.280
288.6044, 2314.807
289.0865, 2318.223
289.5687, 2315.445
290.0508, 2306.220
290.5329, 2300.754
291.0150, 2302.958
291.4971, 2304.800
291.9792, 2303.726
292.4614, 2300.079
292.9435, 2294.100
293.4256, 2283.912
293.9077, 2272.952
294.3898, 2273.462
294.8719, 2291.849
295.3541, 2307.329
295.8362, 2307.322
296.3183, 2302.707
296.8004, 2306.387
297.2825, 2323.922
297.7646, 2344.414
298.2468, 2354.813
298.7289, 2354.665
299.2110, 2349.243
299.6931, 2332.168
300.1752, 2316.588
300.6573, 2316.792
301.1395, 2334.033
301.6216, 2350.145
302.1037, 2348.966
302.5858, 2335.867
303.0679, 2332.080
303.5500, 2343.629
304.0321, 2359.102
304.5143, 2368.900
304.9964, 2374.002
305.4785, 2377.473
305.9606, 2380.513
306.4427, 2382.327
306.9248, 2379.945
307.4070, 2372.936
307.8891, 2369.885
308.3712, 2380.273
308.8533, 2398.890
309.3354, 2406.014
309.8175, 2390.865
310.2997, 2374.810
310.7818, 2370.725
311.2639, 2375.841
311.7460, 2382.513
312.2281, 2388.855
312.7102, 2392.573
313.1924, 2386.108
313.6745, 2361.525
314.1566, 2346.801
314.6387, 2349.856
315.1208, 2364.726
315.6029, 2390.143
316.0851, 2424.913
316.5672, 2453.844
317.0493, 2457.909
317.5314, 2429.071
318.0135, 2407.703
318.4956, 2393.640
318.9778, 2386.543
319.4599, 2391.427
319.9420, 2404.144
320.4241, 2412.494
320.9062, 2406.969
321.3883, 2389.371
321.8705, 2377.812
322.3526, 2375.687
322.8347, 2375.954
323.3168, 2377.753
323.7989, 2381.306
324.2810, 2387.527
324.7632, 2396.716
325.2453, 2407.380
325.7274, 2416.389
326.2095, 2422.569
326.6916, 2429.689
327.1737, 2445.452
327.6559, 2456.514
328.1380, 2449.600
328.6201, 2426.603
329.1022, 2404.198
329.5843, 2400.576
330.0664, 2415.939
330.5486, 2422.567
331.0307, 2409.675
331.5128, 2401.563
331.9949, 2414.458
332.4770, 2438.193
332.9591, 2453.255
333.4413, 2447.370
333.9234, 2430.774
334.4055, 2424.373
334.8876, 2430.828
335.3697, 2435.559
335.8518, 2431.027
336.3340, 2422.975
336.8161, 2417.029
337.2982, 2414.166
337.7803, 2412.107
338.2624, 2408.954
338.7445, 2405.088
339.2267, 2402.297
339.7088, 2401.283
340.1909, 2400.811
340.6730, 2398.728
341.1551, 2395.317
341.6372, 2394.459
342.1194, 2400.912
342.6015, 2408.306
343.0836, 2408.340
343.5657, 2400.896
344.0478, 2393.545
344.5299, 2392.054
345.0121, 2395.018
345.4942, 2393.620
345.9763, 2377.596
346.4584, 2368.891
346.9405, 2383.712
347.4226, 2410.059
347.9048, 2424.572
348.3869, 2417.885
348.8690, 2402.012
349.3511, 2399.135
349.8332, 2423.395
350.3153, 2433.603
350.7975, 2417.031
351.2796, 2396.481
351.7617, 2389.851
352.2438, 2396.810
352.7259, 2404.158
353.2080, 2399.263
353.6902, 2382.091
354.1723, 2372.001
354.6544, 2378.035
355.1365, 2382.056
355.6186, 2378.428
356.1007, 2371.074
356.5829, 2365.329
357.0650, 2363.609
357.5471, 2365.042
358.0292, 2368.748
358.5113, 2376.233
358.9934, 2381.136
359.4756, 2378.914
359.9577, 2376.270
360.4398, 2379.164
360.9219, 2387.152
361.4040, 2392.310
361.8861, 2386.559
362.3683, 2372.160
362.8504, 2360.546
363.3325, 2353.083
363.8146, 2346.559
364.2967, 2339.325
364.7788, 2331.515
365.2610, 2322.884
365.7431, 2308.915
366.2252, 2299.056
366.7073, 2306.138
367.1894, 2327.800
367.6715, 2346.780
368.1537, 2356.242
368.6358, 2359.294
369.1179, 2360.901
369.6000, 2360.527
370.0821, 2361.057
370.5642, 2365.665
371.0464, 2370.441
371.5285, 2369.577
372.0106, 2362.547
372.4927, 2354.769
372.9748, 2350.870
373.4569, 2350.987
373.9391, 2354.432
374.4212, 2367.579
374.9033, 2376.726
375.3854, 2374.348
375.8675, 2364.908
376.3496, 2356.023
376.8318, 2351.231
377.3139, 2349.678
377.7960, 2349.700
378.2781, 2353.482
378.7602, 2354.688
379.2423, 2354.610
379.7245, 2351.191
380.2066, 2339.349
380.6887, 2321.250
381.1708, 2307.251
381.6529, 2308.306
382.1350, 2322.911
382.6172, 2332.115
383.0993, 2333.194
383.5814, 2333.085
384.0635, 2332.663
384.5456, 2333.469
385.0277, 2338.793
385.5099, 2351.512
385.9920, 2363.814
386.4741, 2364.406
386.9562, 2354.002
387.4383, 2346.727
387.9204, 2346.790
388.4026, 2350.708
388.8847, 2356.868
389.3668, 2365.256
389.8489, 2366.755
390.3310, 2350.744
390.8131, 2330.194
391.2953, 2321.817
391.7774, 2326.344
392.2595, 2334.338
392.7416, 2341.131
393.2237, 2345.848
393.7058, 2343.408
394.1880, 2322.835
394.6701, 2309.353
395.1522, 2316.004
395.6343, 2331.203
396.1164, 2338.169
396.5985, 2332.131
397.0807, 2322.821
397.5628, 2324.832
398.0449, 2344.355
398.5270, 2353.167
399.0091, 2341.006
399.4912, 2329.559
399.9734, 2329.754
400.4555, 2338.087
400.9376, 2345.412
401.4197, 2346.225
401.9018, 2342.671
402.3839, 2341.491
402.8660, 2345.295
403.3481, 2344.618
403.8303, 2330.667
404.3124, 2315.619
404.7945, 2308.557
405.2766, 2310.630
405.7587, 2317.097
406.2408, 2329.232
406.7230, 2343.364
407.2051, 2344.406
407.6872, 2327.012
408.1693, 2309.768
408.6514, 2307.631
409.1335, 2315.867
409.6157, 2321.562
410.0978, 2319.909
410.5799, 2318.902
411.0620, 2327.171
411.5441, 2340.148
412.0262, 2344.541
412.5084, 2334.770
412.9905, 2319.649
413.4726, 2313.047
413.9547, 2319.626
414.4368, 2322.504
414.9189, 2316.781
415.4011, 2311.503
415.8832, 2315.022
416.3653, 2324.558
416.8474, 2329.937
417.3295, 2323.851
417.8116, 2309.602
418.2938, 2302.436
418.7759, 2309.530
419.2580, 2312.041
419.7401, 2302.452
420.2222, 2291.147
420.7043, 2287.518
421.1865, 2292.664
421.6686, 2299.611
422.1507, 2300.101
422.6328, 2295.299
423.1149, 2298.547
423.5970, 2315.877
424.0792, 2330.211
424.5613, 2327.834
425.0434, 2316.791
425.5255, 2310.401
426.0076, 2314.648
426.4897, 2319.474
426.9719, 2314.932
427.4540, 2303.651
427.9361, 2295.632
428.4182, 2294.300
428.9003, 2295.475
429.3824, 2293.462
429.8646, 2287.470
430.3467, 2283.760
430.8288, 2281.953
431.3109, 2283.223
431.7930, 2290.803
432.2751, 2302.359
432.7573, 2311.798
433.2394, 2315.768
433.7215, 2315.021
434.2036, 2311.581
434.6857, 2301.594
435.1678, 2295.312
435.6500, 2293.583
436.1321, 2294.961
436.6142, 2300.074
437.0963, 2307.841
437.5784, 2314.222
438.0605, 2314.013
438.5427, 2309.459
439.0248, 2315.848
439.5069, 2342.141
439.9890, 2358.765
440.4711, 2340.386
440.9532, 2310.988
441.4354, 2298.438
441.9175, 2310.693
442.3996, 2324.748
442.8817, 2320.222
443.3638, 2305.256
443.8459, 2302.669
444.3281, 2317.987
444.8102, 2336.490
445.2923, 2346.599
445.7744, 2347.673
446.2565, 2342.511
446.7386, 2318.926
447.2208, 2302.090
447.7029, 2309.854
448.1850, 2330.443
448.6671, 2343.028
449.1492, 2339.966
449.6313, 2329.099
450.1135, 2322.737
450.5956, 2322.156
451.0777, 2322.212
451.5598, 2325.995
452.0419, 2327.356
452.5240, 2321.491
453.0062, 2311.387
453.4883, 2302.344
453.9704, 2296.038
454.4525, 2295.048
454.9346, 2309.543
455.4167, 2343.740
455.8989, 2361.401
456.3810, 2340.740
456.8631, 2312.548
457.3452, 2308.536
457.8273, 2327.403
458.3094, 2343.109
458.7916, 2342.702
459.2737, 2335.449
459.7558, 2332.338
460.2379, 2333.340
460.7200, 2332.500
461.2021, 2325.256
461.6843, 2315.799
462.1664, 2316.641
462.6485, 2335.775
463.1306, 2351.239
463.6127, 2361.308
464.0948, 2366.897
464.5770, 2367.649
465.0591, 2364.289
465.5412, 2358.347
466.0233, 2349.796
466.5054, 2340.328
466.9875, 2341.978
467.4697, 2361.222
467.9518, 2380.596
468.4339, 2405.202
468.9160, 2422.732
469.3981, 2417.239
469.8802, 2387.076
470.3624, 2356.189
470.8445, 2344.243
471.3266, 2346.697
471.8087, 2350.768
472.2908, 2356.379
472.7729, 2359.866
473.2551, 2357.334
473.7372, 2351.145
474.2193, 2348.980
474.7014, 2351.402
475.1835, 2356.961
475.6656, 2367.679
476.1478, 2380.181
476.6299, 2391.893
477.1120, 2401.567
477.5941, 2403.787
478.0762, 2390.791
478.5583, 2361.783
479.0405, 2348.241
479.5226, 2366.562
480.0047, 2382.181
480.4868, 2386.911
480.9689, 2386.370
481.4510, 2387.233
481.9332, 2391.393
482.4153, 2396.116
482.8974, 2399.516
483.3795, 2401.378
483.8616, 2397.220
484.3438, 2382.168
484.8259, 2370.405
485.3080, 2375.892
485.7901, 2390.295
486.2722, 2398.793
486.7543, 2397.831
487.2365, 2392.475
487.7186, 2380.614
488.2007, 2367.503
488.6828, 2365.510
489.1649, 2377.668
489.6470, 2394.684
490.1292, 2407.984
490.6113, 2417.916
491.0934, 2419.624
491.5755, 2406.781
492.0576, 2394.259
492.5397, 2381.260
493.0219, 2373.090
493.5040, 2380.275
493.9861, 2404.929
494.4682, 2430.902
494.9503, 2434.635
495.4324, 2414.937
495.9146, 2403.729
496.3967, 2406.825
496.8788, 2410.749
497.3609, 2405.672
497.8430, 2397.224
498.3251, 2395.576
498.8073, 2405.958
499.2894, 2417.228
499.7715, 2421.300
500.2536, 2419.910
500.7357, 2416.667
501.2178, 2412.232
501.6999, 2407.949
502.1820, 2405.761
502.6642, 2405.807
503.1463, 2400.971
503.6284, 2379.532
504.1105, 2367.662
504.5926, 2380.700
505.0747, 2404.021
505.5569, 2419.388
506.0390, 2421.846
506.5211, 2420.043
507.0032, 2425.720
507.4853, 2439.196
507.9674, 2442.142
508.4496, 2427.729
508.9317, 2413.916
509.4138, 2409.567
509.8959, 2410.190
510.3780, 2409.793
510.8601, 2406.644
511.3423, 2404.375
511.8244, 2407.385
512.3065, 2412.738
512.7886, 2413.262
513.2708, 2407.780
513.7529, 2402.489
514.2350, 2403.245
514.7171, 2409.030
515.1992, 2408.582
515.6813, 2390.966
516.1635, 2381.786
516.6456, 2394.623
517.1277, 2412.879
517.6098, 2419.152
518.0919, 2411.367
518.5740, 2399.788
519.0562, 2393.617
519.5383, 2392.118
520.0204, 2389.638
520.5025, 2385.574
520.9846, 2381.961
521.4667, 2379.145
521.9489, 2377.403
522.4310, 2378.184
522.9131, 2382.056
523.3952, 2383.073
523.8773, 2374.765
524.3594, 2363.521
524.8416, 2359.364
525.3237, 2362.312
525.8058, 2364.287
526.2879, 2359.773
526.7700, 2352.059
527.2521, 2351.595
527.7343, 2366.387
528.2164, 2377.172
528.6985, 2383.450
529.1806, 2386.256
529.6627, 2385.379
530.1448, 2381.571
530.6270, 2376.290
531.1091, 2369.877
531.5912, 2363.619
532.0733, 2360.650
532.5554, 2361.338
533.0375, 2362.776
533.5197, 2364.250
534.0018, 2366.296
534.4839, 2371.437
534.9660, 2378.851
535.4481, 2380.382
535.9302, 2372.531
536.4124, 2359.218
536.8945, 2336.977
537.3766, 2311.796
537.8587, 2301.039
538.3408, 2311.573
538.8229, 2329.192
539.3051, 2331.674
539.7872, 2312.795
540.2693, 2305.493
540.7514, 2326.600
541.2335, 2340.937
541.7156, 2333.477
542.1978, 2313.683
542.6799, 2294.715
543.1620, 2280.723
543.6441, 2271.616
544.1262, 2269.756
544.6083, 2273.333
545.0905, 2271.625
545.5726, 2261.313
546.0547, 2255.448
546.5368, 2267.114
547.0189, 2290.335
547.5010, 2299.442
547.9832, 2283.213
548.4653, 2270.113
548.9474, 2272.526
549.4295, 2278.938
549.9116, 2275.080
550.3937, 2261.282
550.8758, 2250.451
551.3579, 2254.074
551.8400, 2267.721
552.3221, 2270.383
552.8043, 2256.718
553.2864, 2244.685
553.7685, 2240.096
554.2506, 2237.128
554.7327, 2230.554
555.2148, 2221.029
555.6970, 2215.259
556.1791, 2221.056
556.6612, 2228.876
557.1433, 2224.314
557.6254, 2210.974
558.1075, 2208.640
558.5897, 2226.939
559.0718, 2247.675
559.5539, 2241.585
560.0360, 2196.399
560.5181, 2174.528
561.0002, 2192.321
561.4824, 2211.995
561.9645, 2223.482
562.4466, 2226.541
562.9287, 2219.716
563.4108, 2202.770
563.8929, 2184.961
564.3751, 2178.285
564.8572, 2180.921
565.3393, 2180.139
565.8214, 2174.373
566.3035, 2167.810
566.7856, 2161.989
567.2678, 2157.473
567.7499, 2155.070
568.2320, 2154.028
568.7141, 2156.740
569.1962, 2171.768
569.6783, 2185.431
570.1605, 2180.692
570.6426, 2160.609
571.1247, 2142.509
571.6068, 2137.480
572.0889, 2142.952
572.5710, 2154.115
573.0532, 2176.798
573.5353, 2186.966
574.0174, 2172.557
574.4995, 2153.201
574.9816, 2137.900
575.4637, 2127.151
575.9459, 2121.154
576.4280, 2121.921
576.9101, 2124.912
577.3922, 2126.365
577.8743, 2127.055
578.3564, 2130.250
578.8386, 2136.772
579.3207, 2140.494
579.8028, 2134.307
580.2849, 2118.437
580.7670, 2108.096
581.2491, 2101.968
581.7313, 2103.644
582.2134, 2122.603
582.6955, 2143.713
583.1776, 2152.677
583.6597, 2148.441
584.1418, 2140.662
584.6240, 2136.915
585.1061, 2134.145
585.5882, 2122.689
586.0703, 2102.748
586.5524, 2092.785
587.0345, 2102.848
587.5167, 2119.797
587.9988, 2125.404
588.4809, 2117.685
588.9630, 2107.527
589.4451, 2090.212
589.9272, 2075.754
590.4094, 2070.033
590.8915, 2069.771
591.3736, 2069.998
591.8557, 2069.013
592.3378, 2067.582
592.8199, 2065.414
593.3021, 2062.881
593.7842, 2067.101
594.2663, 2082.428
594.7484, 2091.490
595.2305, 2082.997
595.7126, 2064.984
596.1948, 2050.125
596.6769, 2038.088
597.1590, 2031.493
597.6411, 2032.035
598.1232, 2037.528
598.6053, 2050.179
599.0875, 2066.223
599.5696, 2075.677
600.0517, 2073.636
600.5338, 2065.458
601.0159, 2060.397
601.4980, 2058.950
601.9802, 2058.038
602.4623, 2056.113
602.9444, 2056.892
603.4265, 2068.275
603.9086, 2081.462
604.3907, 2079.814
604.8729, 2055.152
605.3550, 2034.098
605.8371, 2035.393
606.3192, 2047.333
606.8013, 2055.766
607.2834, 2058.687
607.7656, 2055.195
608.2477, 2043.850
608.7298, 2028.752
609.2119, 2021.516
609.6940, 2026.261
610.1761, 2029.438
610.6583, 2030.484
611.1404, 2029.900
611.6225, 2027.580
612.1046, 2023.801
612.5867, 2018.861
613.0688, 2012.394
613.5510, 2006.114
614.0331, 1997.673
614.5152, 1991.235
614.9973, 2000.303
615.4794, 2025.960
615.9615, 2048.679
616.4437, 2054.116
616.9258, 2045.707
617.4079, 2037.333
617.8900, 2029.396
618.3721, 2020.778
618.8542, 2006.738
619.3364, 1996.302
619.8185, 1998.304
620.3006, 2008.236
620.7827, 2014.198
621.2648, 2009.821
621.7469, 2002.173
622.2291, 1998.694
622.7112, 1998.636
623.1933, 1999.256
623.6754, 2000.055
624.1575, 2002.585
624.6396, 2009.548
625.1218, 2018.952
625.6039, 2019.427
626.0860, 1999.596
626.5681, 1986.205
627.0502, 1982.541
627.5323, 1983.940
628.0145, 1989.140
628.4966, 1996.578
628.9787, 2003.526
629.4608, 2009.117
629.9429, 2012.333
630.4250, 2011.218
630.9072, 2006.328
631.3893, 1999.499
631.8714, 1990.268
632.3535, 1984.505
632.8356, 1988.701
633.3177, 2000.440
633.7999, 2003.973
634.2820, 1990.634
634.7641, 1981.516
635.2462, 1980.406
635.7283, 1982.507
636.2104, 1986.450
636.6926, 1990.468
637.1747, 1990.477
637.6568, 1983.009
638.1389, 1974.132
638.6210, 1975.112
639.1031, 1983.870
639.5853, 1984.353
640.0674, 1972.070
640.5495, 1960.518
641.0316, 1960.753
641.5137, 1970.628
641.9958, 1977.493
642.4780, 1983.308
642.9601, 1983.620
643.4422, 1971.527
643.9243, 1959.204
644.4064, 1956.865
644.8885, 1962.352
645.3707, 1967.321
645.8528, 1967.634
646.3349, 1964.949
646.8170, 1959.261
647.2991, 1951.846
647.7813, 1952.210
648.2634, 1963.275
648.7455, 1972.801
649.2276, 1970.769
649.7097, 1960.420
650.1918, 1955.735
650.6740, 1963.063
651.1561, 1966.472
651.6382, 1961.813
652.1203, 1955.962
652.6024, 1953.021
653.0845, 1952.733
653.5667, 1953.822
654.0488, 1956.110
