##NAMES=Spinel
##RRUFFID=R060799
##IDEAL CHEMISTRY=MgAl_2_O_4_
##LOCALITY=Aliabad, Hunza Valley, Pakistan
##OWNER=RRUFF
##SOURCE=Marcus Origlieri
##DESCRIPTION=A group of blue distorted octahedra
##STATUS=The identification of this mineral is confirmed by single-crystal X-ray diffraction and chemical analysis.
##URL=rruff.info/R060799
##MEASURED CHEMISTRY=(Mg_0.97_Fe^2+^_0.03_)_1.00_Al_2.00_O_4_
91.72394, 0.0000000E+00
92.20605, 128.2808
92.68817, 126.3766
93.17029, 126.3962
93.65240, 128.5996
94.13452, 131.2937
94.61664, 132.5143
95.09875, 131.6492
95.58087, 129.3526
96.06299, 126.8998
96.54510, 123.7798
97.02721, 121.2602
97.50933, 119.9336
97.99145, 119.2778
98.47356, 118.5822
98.95568, 117.2701
99.43780, 115.1539
99.91991, 113.4022
100.4020, 112.5768
100.8841, 111.5243
101.3663, 109.4937
101.8484, 106.6438
102.3305, 103.8750
102.8126, 102.1030
103.2947, 101.6047
103.7768, 101.0506
104.2590, 100.5013
104.7411, 99.85811
105.2232, 98.97324
105.7053, 97.77224
106.1874, 96.47630
106.6695, 95.17880
107.1517, 93.83729
107.6338, 93.02076
108.1159, 93.47277
108.5980, 94.86570
109.0801, 95.48251
109.5622, 94.47605
110.0444, 92.86495
110.5265, 91.46706
111.0086, 90.34454
111.4907, 89.31626
111.9728, 88.12404
112.4549, 86.65281
112.9371, 85.44314
113.4192, 84.46075
113.9013, 83.80968
114.3834, 83.77437
114.8655, 84.46079
115.3476, 85.44682
115.8298, 85.58006
116.3119, 83.88903
116.7940, 82.47035
117.2761, 81.72506
117.7582, 81.32458
118.2403, 80.77512
118.7225, 79.75080
119.2046, 78.33356
119.6867, 77.54161
120.1688, 77.57110
120.6509, 77.87019
121.1330, 78.46583
121.6152, 79.23493
122.0973, 79.79833
122.5794, 79.80468
123.0615, 79.24349
123.5436, 78.84338
124.0257, 78.66544
124.5079, 78.61130
124.9900, 78.64967
125.4721, 78.80328
125.9542, 78.88737
126.4363, 78.62868
126.9184, 78.15285
127.4006, 77.74464
127.8827, 77.60953
128.3648, 77.63674
128.8469, 77.47196
129.3290, 76.97082
129.8111, 76.42835
130.2932, 76.07391
130.7754, 75.85281
131.2575, 75.57210
131.7396, 74.98691
132.2217, 74.03464
132.7038, 73.35195
133.1859, 73.28098
133.6681, 73.24485
134.1502, 72.97153
134.6323, 72.44848
135.1144, 71.86561
135.5965, 71.49452
136.0786, 71.53862
136.5608, 71.37443
137.0429, 70.82605
137.5250, 70.21389
138.0071, 69.78662
138.4892, 69.61635
138.9713, 69.59641
139.4535, 69.51356
139.9356, 69.36662
140.4177, 69.14895
140.8998, 68.85751
141.3819, 68.49496
141.8640, 68.03112
142.3462, 67.43057
142.8283, 66.78157
143.3104, 66.34704
143.7925, 66.16009
144.2746, 66.06244
144.7567, 66.06251
145.2388, 66.12558
145.7210, 66.08446
146.2031, 65.76591
146.6852, 65.35394
147.1673, 65.23241
147.6494, 65.62863
148.1315, 66.00251
148.6137, 65.70219
149.0958, 64.60418
149.5779, 63.70576
150.0600, 63.74852
150.5421, 64.15376
151.0242, 64.41463
151.5064, 64.36605
151.9885, 64.08177
152.4706, 63.67236
152.9527, 63.00251
153.4348, 62.46355
153.9169, 62.24615
154.3991, 62.18339
154.8812, 62.05883
155.3633, 61.73448
155.8454, 61.26057
156.3275, 60.95005
156.8096, 60.99592
157.2918, 61.01965
157.7739, 60.86466
158.2560, 60.63507
158.7381, 60.52691
159.2202, 60.70009
159.7023, 61.16475
160.1845, 61.52776
160.6666, 61.88424
161.1487, 62.07111
161.6308, 61.94360
162.1129, 61.56283
162.5950, 61.13146
163.0772, 60.83213
163.5593, 60.68658
164.0414, 60.47264
164.5235, 60.07149
165.0056, 59.69625
165.4877, 59.47610
165.9698, 59.42614
166.4520, 59.52677
166.9341, 59.84894
167.4162, 60.38824
167.8983, 60.68215
168.3804, 60.44670
168.8625, 60.03448
169.3447, 59.95960
169.8268, 60.37949
170.3089, 60.77791
170.7910, 60.48502
171.2731, 59.68379
171.7552, 59.01001
172.2374, 58.73112
172.7195, 58.76870
173.2016, 58.92516
173.6837, 59.24885
174.1658, 59.58802
174.6479, 59.88847
175.1301, 60.13234
175.6122, 60.24901
176.0943, 60.11352
176.5764, 59.74020
177.0585, 59.49497
177.5406, 59.59095
178.0228, 59.64222
178.5049, 59.40950
178.9870, 58.93650
179.4691, 58.45124
179.9512, 58.18186
180.4333, 58.17623
180.9155, 58.17004
181.3976, 58.28212
181.8797, 58.29981
182.3618, 57.99972
182.8439, 57.43365
183.3260, 56.91223
183.8082, 56.86237
184.2903, 57.58720
184.7724, 57.99144
185.2545, 57.86057
185.7366, 57.63689
186.2187, 57.64141
186.7009, 57.91433
187.1830, 58.22797
187.6651, 58.24627
188.1472, 57.76054
188.6293, 57.39312
189.1114, 57.22235
189.5936, 57.12292
190.0757, 56.91149
190.5578, 56.54880
191.0399, 56.27955
191.5220, 56.57602
192.0041, 57.78788
192.4863, 58.58234
192.9684, 58.59792
193.4505, 58.18999
193.9326, 57.77182
194.4147, 57.44855
194.8968, 57.19824
195.3790, 56.95869
195.8611, 56.68648
196.3432, 56.61218
196.8253, 56.99406
197.3074, 57.61718
197.7895, 57.99199
198.2717, 57.92422
198.7538, 57.67506
199.2359, 57.59352
199.7180, 57.68176
200.2001, 57.74846
200.6822, 57.70885
201.1644, 57.56685
201.6465, 57.28424
202.1286, 56.55300
202.6107, 56.04834
203.0928, 56.46143
203.5749, 57.78022
204.0571, 59.17588
204.5392, 60.18745
205.0213, 60.81579
205.5034, 60.77098
205.9855, 59.32867
206.4676, 57.72485
206.9497, 56.50902
207.4319, 55.77648
207.9140, 55.66060
208.3961, 56.69085
208.8782, 59.21091
209.3603, 60.69314
209.8424, 59.94090
210.3246, 58.76367
210.8067, 57.86528
211.2888, 57.38160
211.7709, 57.17812
212.2530, 57.14452
212.7351, 57.36058
213.2173, 57.49389
213.6994, 57.55922
214.1815, 57.53470
214.6636, 57.34833
215.1457, 57.02177
215.6278, 56.67902
216.1100, 56.44202
216.5921, 56.17012
217.0742, 56.41788
217.5563, 58.06020
218.0384, 59.48212
218.5205, 59.41989
219.0027, 57.80241
219.4848, 55.68754
219.9669, 54.50118
220.4490, 54.70076
220.9311, 54.78716
221.4132, 54.56966
221.8954, 54.37849
222.3775, 54.54544
222.8596, 55.09473
223.3417, 55.68370
223.8238, 55.85402
224.3059, 55.36218
224.7881, 55.09877
225.2702, 55.31931
225.7523, 55.61211
226.2344, 55.60521
226.7165, 55.23393
227.1986, 54.70702
227.6807, 54.22993
228.1629, 53.78257
228.6450, 53.56956
229.1271, 53.78181
229.6092, 54.14639
230.0913, 54.43732
230.5734, 54.61866
231.0556, 54.63208
231.5377, 54.31164
232.0198, 53.66185
232.5019, 53.18723
232.9840, 53.13320
233.4661, 53.22654
233.9483, 53.04269
234.4304, 52.46577
234.9125, 51.99174
235.3946, 52.31155
235.8767, 53.22749
236.3588, 53.90741
236.8410, 54.09409
237.3231, 53.93878
237.8052, 53.56150
238.2873, 52.86608
238.7694, 52.31736
239.2515, 52.43684
239.7337, 52.99313
240.2158, 53.51965
240.6979, 53.91002
241.1800, 54.15935
241.6621, 54.20538
242.1442, 53.95859
242.6264, 53.75253
243.1085, 53.88027
243.5906, 54.18080
244.0727, 54.39986
244.5548, 54.44647
245.0369, 54.34171
245.5191, 54.10289
246.0012, 53.67139
246.4833, 53.24440
246.9654, 52.83593
247.4475, 52.50637
247.9296, 52.35321
248.4117, 52.43456
248.8939, 52.69990
249.3760, 53.09208
249.8581, 53.76244
250.3402, 54.22063
250.8223, 54.21258
251.3044, 53.95939
251.7866, 53.68137
252.2687, 53.46141
252.7508, 53.28991
253.2329, 53.15051
253.7150, 53.07009
254.1971, 52.96756
254.6793, 52.81288
255.1614, 52.63532
255.6435, 52.44454
256.1256, 52.24105
256.6077, 52.06547
257.0898, 52.03272
257.5720, 52.30374
258.0541, 52.39177
258.5362, 52.04422
259.0183, 51.61353
259.5004, 51.43598
259.9825, 51.62200
260.4647, 51.96291
260.9468, 52.03857
261.4289, 51.59661
261.9110, 51.39128
262.3931, 51.63881
262.8752, 51.99862
263.3574, 52.24443
263.8395, 52.30452
264.3216, 52.20319
264.8037, 51.93828
265.2858, 51.28579
265.7679, 50.93719
266.2501, 51.10224
266.7322, 51.37494
267.2143, 51.46244
267.6964, 51.32282
268.1785, 51.12881
268.6606, 51.12111
269.1428, 51.40864
269.6249, 51.60124
270.1070, 51.66674
270.5891, 51.68291
271.0712, 51.74052
271.5533, 51.82094
272.0355, 51.78107
272.5176, 51.41425
272.9997, 50.54641
273.4818, 50.13702
273.9639, 50.22486
274.4460, 50.62969
274.9282, 51.53478
275.4103, 52.75590
275.8924, 53.72400
276.3745, 53.88326
276.8566, 53.12656
277.3387, 52.56386
277.8208, 52.16909
278.3029, 51.93804
278.7851, 51.97625
279.2672, 52.19518
279.7493, 52.34548
280.2314, 52.21743
280.7135, 51.82834
281.1956, 51.72537
281.6778, 52.16695
282.1599, 52.56149
282.6420, 52.68401
283.1241, 52.60366
283.6062, 52.47829
284.0883, 52.38951
284.5705, 52.34589
285.0526, 52.40839
285.5347, 52.65269
286.0168, 52.89672
286.4989, 53.06981
286.9810, 53.21801
287.4632, 53.45246
287.9453, 53.84230
288.4274, 54.28334
288.9095, 54.46302
289.3916, 54.05538
289.8737, 53.88425
290.3559, 54.20598
290.8380, 54.79923
291.3201, 55.34340
291.8022, 55.72152
292.2843, 56.09161
292.7664, 56.80724
293.2486, 58.21398
293.7307, 59.11818
294.2128, 58.96204
294.6949, 58.45153
295.1770, 58.34089
295.6591, 58.80738
296.1413, 59.57163
296.6234, 60.33812
297.1055, 61.15653
297.5876, 61.70709
298.0697, 61.68879
298.5518, 61.57995
299.0340, 61.82985
299.5161, 62.47628
299.9982, 63.20018
300.4803, 63.67622
300.9624, 63.87388
301.4445, 64.33888
301.9267, 65.21154
302.4088, 66.22511
302.8909, 67.22001
303.3730, 68.19436
303.8551, 69.23277
304.3372, 70.40442
304.8194, 71.70255
305.3015, 73.03216
305.7836, 74.09789
306.2657, 75.48135
306.7478, 77.48889
307.2299, 80.04554
307.7121, 82.93921
308.1942, 86.09042
308.6763, 89.47252
309.1584, 92.98429
309.6405, 96.95979
310.1227, 100.5581
310.6048, 103.9132
311.0869, 106.6637
311.5690, 108.0436
312.0511, 107.7300
312.5332, 106.0477
313.0154, 103.4526
313.4975, 99.89249
313.9796, 95.82226
314.4617, 90.77012
314.9438, 85.46559
315.4259, 80.82777
315.9081, 77.10188
316.3902, 73.87904
316.8723, 70.61716
317.3544, 67.22807
317.8365, 64.43017
318.3186, 62.50467
318.8007, 61.05677
319.2828, 59.79631
319.7650, 58.67397
320.2471, 57.67867
320.7292, 56.79963
321.2113, 56.05462
321.6934, 55.42414
322.1755, 54.97286
322.6577, 54.57255
323.1398, 54.18575
323.6219, 53.79358
324.1040, 53.29673
324.5861, 52.57540
325.0682, 51.73006
325.5504, 51.28501
326.0325, 51.60128
326.5146, 51.84806
326.9967, 51.60644
327.4788, 51.09031
327.9609, 50.76838
328.4431, 50.86617
328.9252, 51.19053
329.4073, 51.28230
329.8894, 51.04248
330.3715, 50.82659
330.8536, 50.75547
331.3358, 50.72276
331.8179, 50.57001
332.3000, 50.25414
332.7821, 49.90047
333.2642, 49.67405
333.7463, 49.61372
334.2285, 49.56078
334.7106, 49.45119
335.1927, 49.38776
335.6748, 49.51018
336.1569, 49.80522
336.6390, 50.06419
337.1212, 50.07558
337.6033, 49.82613
338.0854, 49.78067
338.5675, 50.15464
339.0496, 50.50072
339.5317, 50.62184
340.0139, 50.53414
340.4960, 50.29539
340.9781, 49.91630
341.4602, 49.44094
341.9423, 49.09957
342.4244, 48.77035
342.9066, 48.69400
343.3887, 49.15944
343.8708, 49.84475
344.3529, 50.28545
344.8350, 50.30139
345.3171, 50.03915
345.7993, 49.76348
346.2814, 49.39968
346.7635, 49.16494
347.2456, 49.08507
347.7277, 49.12189
348.2098, 49.29623
348.6920, 49.58673
349.1741, 49.87539
349.6562, 50.02457
350.1383, 50.00521
350.6204, 49.98071
351.1025, 49.84072
351.5847, 49.79549
352.0668, 50.02492
352.5489, 50.45263
353.0310, 50.84826
353.5131, 51.03659
353.9952, 51.04443
354.4774, 51.15717
354.9595, 51.44634
355.4416, 51.75547
355.9237, 52.13016
356.4058, 52.48527
356.8879, 52.70018
357.3701, 52.71940
357.8522, 52.60902
358.3343, 52.52530
358.8164, 52.55458
359.2985, 52.46916
359.7806, 51.93259
360.2627, 51.50461
360.7448, 51.79298
361.2270, 52.80828
361.7091, 53.91572
362.1912, 54.35547
362.6733, 53.98185
363.1554, 53.56840
363.6375, 52.80396
364.1197, 52.29621
364.6018, 52.43526
365.0839, 53.05365
365.5660, 53.73511
366.0481, 54.20060
366.5302, 54.45753
367.0124, 54.54513
367.4945, 54.16398
367.9766, 54.00896
368.4587, 54.38294
368.9408, 54.98090
369.4229, 55.43558
369.9051, 55.59363
370.3872, 55.60953
370.8693, 55.77334
371.3514, 56.13714
371.8335, 56.52034
372.3156, 56.87065
372.7978, 57.25518
373.2799, 57.77504
373.7620, 58.40977
374.2441, 59.00023
374.7262, 59.26450
375.2083, 59.16893
375.6905, 59.53160
376.1726, 60.81592
376.6547, 62.05276
377.1368, 62.78711
377.6189, 63.16479
378.1010, 63.49106
378.5832, 63.88864
379.0653, 64.38765
379.5474, 65.03326
380.0295, 65.74953
380.5116, 66.82587
380.9937, 68.70252
381.4759, 70.82594
381.9580, 72.57692
382.4401, 73.73364
382.9222, 74.96548
383.4043, 76.98515
383.8864, 79.79096
384.3686, 82.87959
384.8507, 86.04379
385.3328, 89.62158
385.8149, 93.90235
386.2970, 98.82054
386.7791, 104.0394
387.2613, 109.2977
387.7434, 114.6857
388.2255, 120.6622
388.7076, 127.5098
389.1897, 134.0107
389.6718, 139.2083
390.1540, 143.4533
390.6361, 147.3064
391.1182, 150.4457
391.6003, 153.6832
392.0824, 157.7437
392.5645, 162.5970
393.0467, 167.7851
393.5288, 172.9823
394.0109, 178.5960
394.4930, 185.2695
394.9751, 192.9970
395.4572, 201.5571
395.9394, 210.8438
396.4215, 220.9036
396.9036, 231.4460
397.3857, 242.4187
397.8678, 254.7203
398.3499, 269.4385
398.8321, 286.7446
399.3142, 305.6136
399.7963, 324.8236
400.2784, 346.7443
400.7605, 372.9477
401.2426, 403.3805
401.7247, 437.6547
402.2068, 475.8119
402.6890, 517.3660
403.1711, 559.5726
403.6532, 608.1477
404.1353, 650.2688
404.6174, 687.9273
405.0995, 716.2977
405.5817, 730.0063
406.0638, 727.3035
406.5459, 707.8608
407.0280, 669.7430
407.5101, 606.8295
407.9922, 543.9406
408.4744, 477.0783
408.9565, 414.0004
409.4386, 357.5802
409.9207, 308.4009
410.4028, 266.4709
410.8849, 231.5741
411.3671, 203.5467
411.8492, 179.9620
412.3313, 163.0357
412.8134, 148.3278
413.2955, 135.6137
413.7776, 124.5861
414.2598, 115.0206
414.7419, 106.8221
415.2240, 99.86514
415.7061, 94.05976
416.1882, 89.54512
416.6703, 85.62119
417.1525, 82.73567
417.6346, 80.05161
418.1167, 77.15414
418.5988, 74.10897
419.0809, 71.28967
419.5630, 68.96793
420.0452, 67.06458
420.5273, 65.18799
421.0094, 63.28223
421.4915, 61.55007
421.9736, 60.02179
422.4557, 58.72306
422.9379, 57.77113
423.4200, 57.24250
423.9021, 56.80639
424.3842, 56.10608
424.8663, 55.15236
425.3484, 54.16143
425.8306, 53.03033
426.3127, 52.07715
426.7948, 51.71679
427.2769, 51.84409
427.7590, 51.75684
428.2411, 50.90959
428.7233, 49.77302
429.2054, 49.13540
429.6875, 49.05576
430.1696, 48.97059
430.6517, 48.50331
431.1339, 47.78780
431.6160, 47.25407
432.0981, 46.96038
432.5802, 46.75788
433.0623, 46.57891
433.5444, 46.43842
434.0266, 46.41067
434.5087, 46.53953
434.9908, 46.64351
435.4729, 46.44244
435.9550, 45.83271
436.4371, 45.38208
436.9193, 45.16649
437.4014, 45.06895
437.8835, 45.09759
438.3656, 45.19192
438.8477, 45.15521
439.3298, 44.83348
439.8120, 44.30604
440.2941, 44.00920
440.7762, 44.16097
441.2583, 44.27636
441.7404, 44.29921
442.2225, 44.26719
442.7046, 44.16975
443.1867, 44.02676
443.6689, 43.96456
444.1510, 44.20008
444.6331, 44.86459
445.1152, 45.16823
445.5973, 44.72533
446.0794, 44.29962
446.5616, 44.20886
447.0437, 44.32487
447.5258, 44.36634
448.0079, 44.16643
448.4900, 43.82600
448.9721, 43.59399
449.4543, 43.50071
449.9364, 43.43020
450.4185, 43.27279
450.9006, 43.18534
451.3827, 43.38070
451.8648, 43.84761
452.3470, 44.20280
452.8291, 44.04870
453.3112, 43.50798
453.7933, 43.12183
454.2754, 42.94690
454.7575, 42.86543
455.2397, 42.89335
455.7218, 42.94895
456.2039, 42.87669
456.6860, 42.58653
457.1681, 42.24020
457.6502, 41.90363
458.1324, 41.60667
458.6145, 41.50400
459.0966, 41.69061
459.5787, 42.00540
460.0608, 42.24580
460.5429, 42.42815
461.0251, 42.46641
461.5072, 42.29098
461.9893, 42.00175
462.4714, 41.61296
462.9535, 41.16607
463.4356, 40.82644
463.9178, 40.70255
464.3999, 40.77655
464.8820, 40.95387
465.3641, 41.49786
465.8462, 41.80321
466.3283, 41.58225
466.8105, 41.18634
467.2926, 41.00486
467.7747, 41.11929
468.2568, 41.33379
468.7389, 41.41420
469.2210, 41.33337
469.7032, 41.30146
470.1853, 41.48803
470.6674, 41.54490
471.1495, 41.22824
471.6316, 40.74101
472.1137, 40.42122
472.5959, 40.43575
473.0780, 40.63563
473.5601, 40.76899
474.0422, 40.84905
474.5243, 40.80386
475.0064, 40.46154
475.4886, 40.11807
475.9707, 39.99723
476.4528, 40.06549
476.9349, 40.08976
477.4170, 39.83398
477.8991, 39.45426
478.3813, 39.32554
478.8634, 39.48179
479.3455, 39.69548
479.8276, 39.88977
480.3097, 40.05199
480.7918, 40.18842
481.2740, 40.34954
481.7561, 40.34166
482.2382, 39.84327
482.7203, 39.16048
483.2024, 38.89887
483.6845, 39.18852
484.1666, 39.68704
484.6487, 40.13400
485.1309, 40.52041
485.6130, 40.66682
486.0951, 40.35522
486.5772, 40.05117
487.0593, 40.06166
487.5414, 40.19667
488.0236, 40.05315
488.5057, 39.47114
488.9878, 38.72367
489.4699, 38.31054
489.9520, 38.42328
490.4341, 38.39724
490.9163, 38.04057
491.3984, 37.74678
491.8805, 37.81115
492.3626, 38.10756
492.8447, 38.29702
493.3268, 38.15115
493.8090, 37.78804
494.2911, 37.55706
494.7732, 37.50999
495.2553, 37.45655
495.7374, 37.31666
496.2195, 37.18121
496.7017, 37.11687
497.1838, 37.12698
497.6659, 37.16704
498.1480, 37.21100
498.6301, 37.26080
499.1122, 37.34726
499.5944, 37.49736
500.0765, 37.55420
500.5586, 37.33569
501.0407, 36.99219
501.5228, 36.83987
502.0049, 36.95616
502.4871, 37.12798
502.9692, 37.31398
503.4513, 37.46798
503.9334, 37.47935
504.4155, 37.32194
504.8976, 37.13450
505.3798, 37.04520
505.8619, 37.05883
506.3440, 37.13544
506.8261, 37.39518
507.3082, 37.57887
507.7903, 37.52822
508.2725, 37.35846
508.7546, 37.24553
509.2367, 37.25564
509.7188, 37.34009
510.2009, 37.42646
510.6830, 37.51858
511.1652, 37.60048
511.6473, 37.54228
512.1294, 37.60293
512.6115, 38.00682
513.0936, 38.59322
513.5757, 39.04919
514.0579, 39.21404
514.5400, 39.17596
515.0221, 39.08350
515.5042, 38.93547
515.9863, 38.73032
516.4684, 38.38353
516.9506, 38.06386
517.4327, 37.89589
517.9148, 37.87566
518.3969, 37.96018
518.8790, 38.27598
519.3611, 38.60471
519.8433, 38.60904
520.3254, 38.30862
520.8075, 38.03622
521.2896, 37.94167
521.7717, 37.98224
522.2538, 38.10481
522.7360, 38.42181
523.2181, 38.50314
523.7002, 38.04100
524.1823, 37.47732
524.6644, 37.19847
525.1465, 37.21690
525.6287, 37.36414
526.1108, 37.54325
526.5929, 37.71642
527.0750, 37.66971
527.5571, 37.09336
528.0392, 36.74340
528.5214, 36.86393
529.0035, 37.10108
529.4856, 37.13317
529.9677, 36.94814
530.4498, 36.80604
530.9319, 37.05119
531.4141, 37.55771
531.8962, 37.43511
532.3783, 36.28062
532.8604, 35.43381
533.3425, 35.87252
533.8246, 36.72408
534.3068, 37.07237
534.7889, 36.72745
535.2710, 36.28368
535.7531, 36.13468
536.2352, 36.16223
536.7173, 36.08097
537.1995, 35.84248
537.6816, 35.67061
538.1637, 35.76357
538.6458, 36.07134
539.1279, 36.26998
539.6100, 36.28927
540.0922, 36.29769
540.5743, 36.40456
541.0564, 36.49844
541.5385, 36.40464
542.0206, 36.10613
542.5027, 35.77020
542.9849, 35.57328
543.4670, 35.51871
543.9491, 35.45138
544.4312, 35.24077
544.9133, 35.18206
545.3954, 35.51804
545.8775, 35.94370
546.3596, 36.06261
546.8417, 35.78967
547.3239, 35.47724
547.8060, 35.53345
548.2881, 35.92595
548.7702, 36.28211
549.2523, 36.59315
549.7344, 36.84845
550.2166, 37.04027
550.6987, 37.17101
551.1808, 37.24285
551.6629, 37.27416
552.1450, 37.20404
552.6271, 36.86867
553.1093, 36.42767
553.5914, 36.27020
554.0735, 36.48069
554.5556, 36.69957
555.0377, 36.58247
555.5198, 36.13493
556.0020, 35.80083
556.4841, 35.68358
556.9662, 35.53680
557.4483, 35.10696
557.9304, 34.69844
558.4125, 34.81347
558.8947, 35.50695
559.3768, 36.20634
559.8589, 36.18319
560.3410, 35.41123
560.8231, 35.16199
561.3052, 35.98124
561.7874, 36.52949
562.2695, 36.16695
562.7516, 35.44043
563.2337, 34.93245
563.7158, 34.78176
564.1979, 34.91614
564.6801, 35.49963
565.1622, 36.33003
565.6443, 36.64933
566.1264, 36.28601
566.6085, 35.91368
567.0906, 36.02986
567.5728, 36.50398
568.0549, 36.79980
568.5370, 36.90306
569.0191, 36.85433
569.5012, 36.47853
569.9833, 36.05090
570.4655, 36.00336
570.9476, 36.35052
571.4297, 36.63811
571.9118, 36.42279
572.3939, 35.76300
572.8760, 35.42784
573.3582, 35.71229
573.8403, 35.92937
574.3224, 35.97889
574.8045, 35.92958
575.2866, 35.78786
575.7687, 35.58583
576.2509, 35.46583
576.7330, 35.67031
577.2151, 36.05446
577.6972, 35.93947
578.1793, 35.14712
578.6614, 34.64593
579.1436, 35.11434
579.6257, 35.95858
580.1078, 36.27448
580.5899, 35.96360
581.0720, 35.63180
581.5541, 35.45649
582.0363, 35.40781
582.5184, 35.52771
583.0005, 35.77175
583.4826, 35.91467
583.9647, 35.81184
584.4468, 35.54206
584.9290, 35.32593
585.4111, 34.98853
585.8932, 35.00167
586.3753, 35.66152
586.8574, 36.39120
587.3395, 36.87127
587.8217, 37.10160
588.3038, 37.19248
