##NAMES=Spinel
##RRUFFID=R100133
##IDEAL CHEMISTRY=MgAl_2_O_4_
##LOCALITY=Sri Lanka
##OWNER=RRUFF
##SOURCE=William W. Pinch
##DESCRIPTION=Blue and red cut gemstones. The bottom red stone is the one that was studied.
##STATUS=The identification of this mineral has been confirmed only by single crystal X-ray diffraction.
##URL=rruff.info/R100133
178.2374, 890.2653
178.7195, 889.8195
179.2017, 886.8416
179.6838, 882.8562
180.1659, 880.3951
180.6480, 879.5462
181.1301, 879.0344
181.6122, 877.5067
182.0944, 875.2546
182.5765, 873.2292
183.0586, 872.5380
183.5407, 872.2703
184.0228, 869.9316
184.5049, 865.1877
184.9871, 860.2484
185.4692, 858.1312
185.9513, 858.3476
186.4334, 858.4813
186.9155, 856.9269
187.3976, 854.3154
187.8798, 852.8185
188.3619, 852.5953
188.8440, 853.0610
189.3261, 853.9222
189.8082, 855.0933
190.2903, 855.3212
190.7725, 853.2103
191.2546, 849.2855
191.7367, 846.9100
192.2188, 846.4440
192.7009, 846.9401
193.1830, 846.7197
193.6652, 845.7722
194.1473, 845.3415
194.6294, 846.7845
195.1115, 849.8453
195.5936, 850.8490
196.0757, 848.9600
196.5579, 846.0250
197.0400, 846.1953
197.5221, 849.8252
198.0042, 852.7519
198.4863, 852.1105
198.9684, 847.8582
199.4506, 844.5793
199.9327, 842.7111
200.4148, 841.8427
200.8969, 841.3759
201.3790, 841.4597
201.8611, 841.1685
202.3433, 839.7425
202.8254, 837.0540
203.3075, 834.7729
203.7896, 832.9884
204.2717, 831.7178
204.7538, 831.1771
205.2360, 831.5187
205.7181, 831.9622
206.2002, 832.0175
206.6823, 831.6059
207.1644, 831.1653
207.6465, 830.5510
208.1287, 830.0034
208.6108, 830.5129
209.0929, 832.5736
209.5750, 834.3109
210.0571, 834.4685
210.5392, 832.7639
211.0214, 830.7780
211.5035, 828.3479
211.9856, 825.8414
212.4677, 824.5425
212.9498, 824.7764
213.4319, 825.5303
213.9140, 826.2719
214.3962, 827.0506
214.8783, 827.8355
215.3604, 829.1149
215.8425, 830.3448
216.3246, 828.8038
216.8067, 822.9387
217.2889, 817.2566
217.7710, 814.7656
218.2531, 816.7659
218.7352, 817.9988
219.2173, 817.7109
219.6994, 816.2943
220.1816, 815.7009
220.6637, 816.2512
221.1458, 817.0032
221.6279, 817.5132
222.1100, 818.1140
222.5921, 817.5168
223.0743, 815.1878
223.5564, 811.5736
224.0385, 808.5732
224.5206, 806.2228
225.0027, 804.5496
225.4848, 803.6944
225.9670, 804.0612
226.4491, 804.3213
226.9312, 804.2941
227.4133, 804.0894
227.8954, 804.3361
228.3775, 805.6175
228.8597, 806.5091
229.3418, 805.9306
229.8239, 802.8251
230.3060, 800.7447
230.7881, 800.3909
231.2702, 801.2984
231.7524, 801.1995
232.2345, 799.3044
232.7166, 797.4816
233.1987, 797.0531
233.6808, 799.3200
234.1629, 799.9656
234.6451, 797.9568
235.1272, 794.0529
235.6093, 791.6644
236.0914, 791.6429
236.5735, 791.9678
237.0556, 791.4825
237.5378, 789.6843
238.0199, 788.1971
238.5020, 787.1100
238.9841, 786.4122
239.4662, 786.1523
239.9483, 786.7957
240.4305, 787.2895
240.9126, 787.0047
241.3947, 785.3950
241.8768, 784.2925
242.3589, 784.0995
242.8410, 784.4627
243.3232, 784.0004
243.8053, 781.9838
244.2874, 780.1362
244.7695, 779.4976
245.2516, 781.0925
245.7337, 781.4871
246.2159, 780.0475
246.6980, 777.3761
247.1801, 775.3828
247.6622, 773.9105
248.1443, 773.2880
248.6264, 773.8997
249.1086, 776.7452
249.5907, 778.3695
250.0728, 778.2589
250.5549, 777.0344
251.0370, 776.3986
251.5191, 776.8406
252.0013, 777.1256
252.4834, 776.6727
252.9655, 775.1915
253.4476, 773.7509
253.9297, 772.1975
254.4118, 770.7681
254.8940, 770.0026
255.3761, 770.1641
255.8582, 770.5201
256.3403, 770.8481
256.8224, 771.2871
257.3046, 771.1523
257.7867, 770.1992
258.2688, 768.8056
258.7509, 767.7252
259.2330, 767.0934
259.7151, 766.4925
260.1973, 765.8193
260.6794, 765.1613
261.1615, 763.9642
261.6436, 761.7682
262.1257, 759.4526
262.6078, 758.7249
263.0900, 760.3589
263.5721, 761.7881
264.0542, 762.0323
264.5363, 760.8809
265.0184, 760.0911
265.5005, 759.7765
265.9827, 759.7045
266.4648, 759.4853
266.9469, 758.9907
267.4290, 758.7421
267.9111, 758.9371
268.3932, 759.5952
268.8754, 760.3401
269.3575, 761.3217
269.8396, 762.1277
270.3217, 762.0380
270.8038, 760.7146
271.2859, 759.7549
271.7681, 759.7256
272.2502, 760.5753
272.7323, 760.9923
273.2144, 760.7903
273.6965, 760.5071
274.1786, 760.9683
274.6608, 762.4777
275.1429, 763.0402
275.6250, 761.7691
276.1071, 759.0302
276.5892, 757.6823
277.0714, 758.0656
277.5535, 758.9357
278.0356, 759.1916
278.5177, 758.7921
278.9998, 758.0893
279.4819, 756.8798
279.9641, 755.4642
280.4462, 755.5125
280.9283, 757.3626
281.4104, 759.2132
281.8925, 759.4571
282.3746, 758.0757
282.8568, 756.7595
283.3389, 755.7118
283.8210, 754.9895
284.3031, 755.0519
284.7852, 756.0612
285.2673, 756.6458
285.7495, 755.2204
286.2316, 752.0378
286.7137, 750.4476
287.1958, 751.2276
287.6779, 753.2881
288.1600, 754.4934
288.6422, 754.8333
289.1243, 754.8660
289.6064, 754.6192
290.0885, 754.2353
290.5706, 754.5967
291.0527, 755.8762
291.5349, 757.6393
292.0170, 759.4411
292.4991, 761.2173
292.9812, 762.5515
293.4633, 762.8519
293.9454, 762.4833
294.4276, 762.6037
294.9097, 763.2995
295.3918, 764.3781
295.8739, 765.7712
296.3560, 767.4001
296.8381, 768.9456
297.3203, 769.9861
297.8024, 770.8749
298.2845, 772.6341
298.7666, 775.4013
299.2487, 777.9222
299.7308, 778.7830
300.2130, 778.3744
300.6951, 777.7932
301.1772, 776.9745
301.6593, 776.4778
302.1414, 777.3764
302.6235, 779.6324
303.1057, 782.0906
303.5878, 783.8319
304.0699, 785.0820
304.5520, 786.2210
305.0341, 787.3873
305.5162, 788.4872
305.9984, 789.1976
306.4805, 789.6201
306.9626, 790.4926
307.4447, 792.3506
307.9268, 794.9460
308.4089, 798.0273
308.8911, 801.9212
309.3732, 805.6825
309.8553, 808.4436
310.3374, 810.3984
310.8195, 812.2539
311.3016, 815.3431
311.7838, 817.9975
312.2659, 818.5960
312.7480, 816.3047
313.2301, 813.1318
313.7122, 810.5677
314.1943, 807.9764
314.6765, 804.0706
315.1586, 796.6367
315.6407, 788.8771
316.1228, 782.6817
316.6049, 778.4594
317.0870, 775.2654
317.5692, 773.5959
318.0513, 772.5297
318.5334, 770.7880
319.0155, 767.3000
319.4976, 763.6169
319.9797, 760.2277
320.4619, 757.1314
320.9440, 754.7942
321.4261, 753.7365
321.9082, 753.3472
322.3903, 753.0548
322.8724, 753.1321
323.3546, 752.8786
323.8367, 752.0457
324.3188, 750.6427
324.8009, 749.0806
325.2830, 747.0731
325.7651, 745.1690
326.2473, 743.7338
326.7294, 743.3199
327.2115, 742.8094
327.6936, 742.0825
328.1757, 741.1951
328.6578, 740.3359
329.1400, 738.4860
329.6221, 737.5437
330.1042, 738.4659
330.5863, 743.6105
331.0684, 746.7219
331.5505, 747.0392
332.0327, 745.4400
332.5148, 743.7782
332.9969, 741.6569
333.4790, 739.9501
333.9611, 738.9412
334.4432, 738.7277
334.9254, 738.7330
335.4075, 738.9991
335.8896, 739.4075
336.3717, 739.8422
336.8538, 740.3846
337.3359, 740.7137
337.8180, 740.6969
338.3001, 740.3444
338.7823, 740.0654
339.2644, 739.9604
339.7465, 739.7755
340.2286, 739.2043
340.7107, 738.1882
341.1928, 737.2438
341.6750, 736.4369
342.1571, 735.8149
342.6392, 735.5693
343.1213, 735.7011
343.6034, 736.2292
344.0855, 737.5507
344.5677, 739.5929
345.0498, 740.5925
345.5319, 740.0648
346.0140, 738.8463
346.4961, 738.3894
346.9782, 738.6833
347.4604, 739.5341
347.9425, 741.0771
348.4246, 743.1295
348.9067, 745.0940
349.3888, 747.0078
349.8709, 748.5009
350.3531, 748.8040
350.8352, 748.2091
351.3173, 747.8040
351.7994, 748.0912
352.2815, 748.8393
352.7636, 749.7361
353.2458, 750.7731
353.7279, 751.8090
354.2100, 752.2875
354.6921, 752.7359
355.1742, 754.1920
355.6563, 758.1502
356.1385, 761.9958
356.6206, 762.8011
357.1027, 761.0781
357.5848, 759.3839
358.0669, 759.2098
358.5490, 759.8025
359.0312, 760.3906
359.5133, 760.6161
359.9954, 761.3280
360.4775, 763.4450
360.9596, 766.4260
361.4417, 769.0782
361.9239, 771.1760
362.4060, 772.6623
362.8881, 773.2228
363.3702, 772.5577
363.8523, 772.4576
364.3344, 773.8337
364.8166, 775.9675
365.2987, 778.0560
365.7808, 780.1579
366.2629, 781.8979
366.7450, 783.0609
367.2271, 783.6477
367.7093, 784.2193
368.1914, 784.0876
368.6735, 784.4199
369.1556, 786.0049
369.6377, 790.8665
370.1198, 794.3908
370.6020, 795.5552
371.0841, 795.1260
371.5662, 795.9539
372.0483, 798.9826
372.5304, 802.0919
373.0125, 804.4817
373.4947, 806.1276
373.9768, 806.8322
374.4589, 805.5245
374.9410, 804.1398
375.4231, 806.2777
375.9052, 813.5490
376.3874, 819.8494
376.8695, 822.8272
377.3516, 822.6473
377.8337, 824.3067
378.3158, 828.0694
378.7979, 833.0158
379.2801, 838.3720
379.7622, 844.2079
380.2443, 850.0973
380.7264, 855.9990
381.2085, 861.9524
381.6906, 867.7355
382.1728, 873.2836
382.6549, 880.0401
383.1370, 889.1856
383.6191, 900.3815
384.1012, 911.8538
384.5833, 923.3864
385.0655, 935.6778
385.5476, 948.6651
386.0297, 962.9413
386.5118, 980.0303
386.9939, 1001.067
387.4760, 1025.384
387.9582, 1051.898
388.4403, 1080.806
388.9224, 1112.809
389.4045, 1147.892
389.8866, 1186.185
390.3687, 1228.398
390.8509, 1276.471
391.3330, 1326.034
391.8151, 1375.386
392.2972, 1424.197
392.7793, 1471.938
393.2614, 1516.644
393.7436, 1561.008
394.2257, 1607.885
394.7078, 1657.688
395.1899, 1709.326
395.6720, 1761.450
396.1541, 1815.308
396.6363, 1872.912
397.1184, 1932.884
397.6005, 1998.389
398.0826, 2069.456
398.5647, 2145.599
399.0468, 2231.713
399.5290, 2330.848
400.0111, 2438.710
400.4932, 2551.917
400.9753, 2670.278
401.4574, 2794.849
401.9395, 2928.354
402.4217, 3068.407
402.9038, 3201.502
403.3859, 3328.573
403.8680, 3447.401
404.3501, 3560.925
404.8322, 3676.474
405.3144, 3759.806
405.7965, 3814.635
406.2786, 3831.951
406.7607, 3795.224
407.2428, 3701.956
407.7249, 3566.453
408.2071, 3387.022
408.6892, 3168.488
409.1713, 2939.387
409.6534, 2695.800
410.1355, 2459.089
410.6176, 2245.474
411.0998, 2053.854
411.5819, 1884.318
412.0640, 1737.454
412.5461, 1611.389
413.0282, 1502.556
413.5103, 1410.624
413.9925, 1330.809
414.4746, 1261.062
414.9567, 1200.454
415.4388, 1149.650
415.9209, 1108.716
416.4030, 1073.011
416.8852, 1038.523
417.3673, 1006.221
417.8494, 977.5335
418.3315, 953.4622
418.8136, 932.5439
419.2957, 914.2239
419.7779, 898.4222
420.2600, 883.4756
420.7421, 868.5413
421.2242, 854.3367
421.7063, 841.8065
422.1884, 831.3383
422.6706, 821.6728
423.1527, 812.2347
423.6348, 803.3541
424.1169, 795.5967
424.5990, 790.5296
425.0811, 785.0580
425.5633, 777.5514
426.0454, 767.3137
426.5275, 759.8583
427.0096, 756.6621
427.4917, 754.9824
427.9738, 752.6322
428.4560, 749.4885
428.9381, 745.8806
429.4202, 741.6500
429.9023, 737.0602
430.3844, 732.7743
430.8665, 728.8323
431.3487, 725.1557
431.8308, 721.5646
432.3129, 718.0330
432.7950, 715.6537
433.2771, 714.7941
433.7592, 714.1776
434.2414, 711.8803
434.7235, 708.0612
435.2056, 704.5746
435.6877, 702.0342
436.1698, 700.1934
436.6519, 698.5992
437.1341, 697.2479
437.6162, 695.9900
438.0983, 694.7350
438.5804, 693.4830
439.0625, 692.2187
439.5446, 690.9229
440.0268, 689.6757
440.5089, 688.4027
440.9910, 687.2288
441.4731, 686.4276
441.9552, 686.7932
442.4373, 687.0220
442.9195, 685.9051
443.4016, 683.4593
443.8837, 681.6224
444.3658, 681.7311
444.8479, 682.4530
445.3300, 682.7407
445.8122, 681.9960
446.2943, 681.3014
446.7764, 680.9800
447.2585, 680.8367
447.7406, 680.3754
448.2227, 678.8847
448.7049, 677.7618
449.1870, 677.6902
449.6691, 679.0635
450.1512, 679.1003
450.6333, 677.2256
451.1154, 674.6645
451.5976, 672.4976
452.0797, 670.7611
452.5618, 669.4402
453.0439, 668.6652
453.5260, 668.2585
454.0081, 667.4861
454.4903, 666.2421
454.9724, 665.3363
455.4545, 665.4487
455.9366, 666.3978
456.4187, 666.8370
456.9008, 666.6474
457.3830, 666.3190
457.8651, 666.5646
458.3472, 667.1613
458.8293, 667.4244
459.3114, 667.2883
459.7935, 666.5303
460.2757, 664.1700
460.7578, 660.6234
461.2399, 657.9662
461.7220, 658.1493
462.2041, 659.4569
462.6862, 660.4120
463.1684, 660.8552
463.6505, 660.7147
464.1326, 659.2899
464.6147, 657.4695
465.0968, 656.3824
465.5789, 657.2272
466.0611, 658.0262
466.5432, 658.2920
467.0253, 658.0256
467.5074, 657.3903
467.9895, 655.9556
468.4716, 654.5254
468.9538, 653.4584
469.4359, 652.7352
469.9180, 652.4467
470.4001, 652.7315
470.8822, 653.3401
471.3643, 653.9499
471.8465, 654.6268
472.3286, 655.0508
472.8107, 654.9561
473.2928, 654.5143
473.7749, 655.0129
474.2570, 656.6842
474.7392, 658.0338
475.2213, 657.7488
475.7034, 656.0496
476.1855, 654.2820
476.6676, 652.4453
477.1497, 651.0615
477.6319, 651.1332
478.1140, 652.3182
478.5961, 653.5005
479.0782, 654.4005
479.5603, 654.9244
480.0424, 654.8894
480.5246, 654.3275
481.0067, 653.5158
481.4888, 652.1713
481.9709, 650.9022
482.4530, 650.3188
482.9352, 650.7845
483.4173, 651.3060
483.8994, 651.2936
484.3815, 651.1262
484.8636, 651.3844
485.3457, 653.4261
485.8279, 654.6409
486.3100, 653.4705
486.7921, 649.9287
487.2742, 648.8586
487.7563, 652.4999
488.2384, 656.3525
488.7206, 657.8869
489.2027, 656.3917
489.6848, 654.3952
490.1669, 651.4573
490.6490, 648.5485
491.1311, 647.5017
491.6133, 648.6721
492.0954, 649.2947
492.5775, 648.3544
493.0596, 646.2534
493.5417, 644.4557
494.0238, 642.9647
494.5060, 641.4982
494.9881, 639.5653
495.4702, 637.5076
495.9523, 636.1790
496.4344, 635.7465
496.9165, 635.7919
497.3987, 636.2595
497.8808, 636.8729
498.3629, 637.1038
498.8450, 636.3494
499.3271, 635.4734
499.8092, 635.2219
500.2914, 635.4388
500.7735, 635.2552
501.2556, 633.7228
501.7377, 632.1503
502.2198, 631.4025
502.7019, 632.0247
503.1841, 632.3086
503.6662, 631.7867
504.1483, 630.9339
504.6304, 630.2891
505.1125, 629.8449
505.5946, 629.6302
506.0768, 629.6451
506.5589, 629.8874
507.0410, 630.4803
507.5231, 631.6723
508.0052, 632.4973
508.4873, 632.0656
508.9695, 630.3597
509.4516, 630.1175
509.9337, 631.6345
510.4158, 633.4190
510.8979, 633.6407
511.3800, 632.5966
511.8622, 631.5971
512.3443, 630.9503
512.8264, 630.5659
513.3085, 630.3954
513.7906, 630.3984
514.2728, 630.4255
514.7549, 630.6506
515.2370, 630.7045
515.7191, 629.8594
516.2012, 627.9796
516.6833, 627.1472
517.1655, 629.9587
517.6476, 633.3745
518.1297, 634.7729
518.6118, 631.3772
519.0939, 628.7306
519.5760, 627.8291
520.0582, 628.2604
520.5403, 629.0101
521.0224, 630.7581
521.5045, 631.8226
521.9866, 631.3690
522.4688, 629.3968
522.9509, 628.9115
523.4330, 630.3939
523.9151, 632.2113
524.3972, 632.9627
524.8793, 632.6070
525.3615, 632.9092
525.8436, 634.1953
526.3257, 635.6979
526.8078, 636.0792
527.2899, 635.5804
527.7720, 635.3846
528.2542, 636.4462
528.7363, 637.6744
529.2184, 637.2922
529.7005, 635.5923
530.1826, 634.1537
530.6647, 634.2875
531.1469, 634.9069
531.6290, 635.0507
532.1111, 634.4933
532.5932, 633.9536
533.0753, 633.8134
533.5574, 633.8030
534.0396, 633.6444
534.5217, 632.8684
535.0038, 632.4539
535.4859, 632.8824
535.9680, 633.7961
536.4501, 634.0430
536.9323, 633.3869
537.4144, 632.4418
537.8965, 631.1467
538.3786, 629.4605
538.8607, 629.3923
539.3428, 631.3961
539.8250, 633.5934
540.3071, 634.0795
540.7892, 633.0245
541.2713, 632.0320
541.7534, 631.2396
542.2355, 630.8624
542.7177, 631.4418
543.1998, 632.7354
543.6819, 633.9595
544.1640, 634.6944
544.6461, 635.2244
545.1282, 636.1600
545.6104, 637.3052
546.0925, 637.4799
546.5746, 634.4846
547.0567, 631.4345
547.5388, 630.7238
548.0209, 633.6089
548.5031, 635.7073
548.9852, 635.2578
549.4673, 633.9968
549.9494, 633.8012
550.4315, 635.9157
550.9136, 637.1687
551.3958, 636.9598
551.8779, 635.7385
552.3600, 634.8343
552.8421, 634.2921
553.3242, 633.8790
553.8063, 633.5494
554.2885, 633.2817
554.7706, 632.8857
555.2527, 632.3534
555.7348, 631.7968
556.2169, 631.2472
556.6990, 630.7578
557.1812, 630.5052
557.6633, 630.5921
558.1454, 630.6509
558.6275, 630.1191
559.1096, 629.3475
559.5917, 628.9392
560.0739, 629.6320
560.5560, 630.2899
561.0381, 630.0523
561.5202, 629.2017
562.0023, 628.9852
562.4844, 630.7901
562.9666, 632.3682
563.4487, 632.6143
563.9308, 631.2648
564.4129, 629.8480
564.8950, 628.1520
565.3771, 626.6092
565.8593, 625.5447
566.3414, 624.9754
566.8235, 624.8596
567.3056, 625.3486
567.7877, 626.0446
568.2698, 626.2317
568.7520, 625.9332
569.2341, 625.4511
569.7162, 624.7333
570.1983, 624.0277
570.6804, 623.8795
571.1625, 624.2249
571.6447, 624.5654
572.1268, 624.8292
572.6089, 624.7966
573.0910, 623.9357
573.5731, 621.9872
574.0552, 620.8268
574.5374, 622.2892
575.0195, 624.4421
575.5016, 625.4816
575.9837, 623.7430
576.4658, 622.4938
576.9479, 622.3516
577.4301, 622.7802
577.9122, 622.6339
578.3943, 621.2117
578.8764, 620.6143
579.3585, 621.7147
579.8406, 624.1789
580.3228, 625.7938
580.8049, 626.5508
581.2870, 626.5033
581.7691, 625.1407
582.2512, 622.9249
582.7333, 621.7923
583.2155, 621.9271
583.6975, 622.5000
584.1796, 623.0870
584.6617, 623.5136
585.1439, 623.4515
585.6260, 622.6202
586.1081, 621.6525
586.5902, 620.4616
587.0723, 619.4577
587.5544, 619.4365
588.0366, 621.5760
588.5187, 623.7463
589.0008, 625.1935
589.4829, 625.9341
589.9650, 626.8741
590.4471, 628.0760
590.9293, 629.3733
591.4114, 630.8562
591.8935, 632.7090
592.3756, 633.2941
592.8577, 632.3422
593.3398, 630.8329
593.8220, 629.5714
594.3041, 628.5863
594.7862, 628.0828
595.2683, 628.1038
595.7504, 628.6270
596.2325, 630.1071
596.7147, 632.1115
597.1968, 633.4805
597.6789, 633.2502
598.1610, 632.6123
598.6431, 632.3785
599.1252, 632.4798
599.6074, 632.5488
600.0895, 632.5787
600.5716, 632.4374
601.0537, 632.1438
601.5358, 631.7930
602.0179, 630.7000
602.5001, 627.9316
602.9822, 625.3389
603.4643, 624.5115
603.9464, 626.1213
604.4285, 626.6801
604.9106, 625.6068
605.3928, 624.1158
605.8749, 624.2260
606.3570, 625.8149
606.8391, 627.2666
607.3212, 628.0856
607.8033, 628.5087
608.2855, 628.8450
608.7676, 629.0844
609.2497, 629.2156
609.7318, 629.0100
610.2139, 628.8422
610.6960, 629.3016
611.1782, 630.3558
611.6603, 630.6247
612.1424, 628.8050
612.6245, 626.6464
613.1066, 625.2386
613.5887, 624.9418
614.0709, 624.7935
614.5530, 625.1067
615.0351, 625.3025
615.5172, 624.5721
615.9993, 622.5298
616.4814, 621.3477
616.9636, 621.4617
617.4457, 622.3870
617.9278, 623.5016
618.4099, 624.7335
618.8920, 625.4037
619.3741, 625.0759
619.8563, 624.1368
620.3384, 622.7620
620.8205, 621.1300
621.3026, 620.1597
621.7847, 621.0180
622.2668, 622.2769
622.7490, 622.9687
623.2311, 623.0028
623.7132, 622.5389
624.1953, 620.9266
624.6774, 619.3207
625.1595, 618.5421
625.6417, 619.0038
626.1238, 619.6125
626.6059, 620.7172
627.0880, 621.6083
627.5701, 620.9518
628.0522, 618.4858
628.5344, 617.1815
629.0165, 618.0087
629.4986, 619.8076
629.9807, 620.3464
630.4628, 619.7977
630.9449, 619.1095
631.4271, 618.5153
631.9092, 618.1545
632.3913, 618.1357
632.8734, 618.4628
633.3555, 619.1818
633.8376, 620.9680
634.3198, 622.6306
634.8019, 623.3777
635.2840, 622.9512
635.7661, 622.5425
636.2482, 622.0277
636.7303, 621.7738
637.2125, 622.0803
637.6946, 623.1663
638.1767, 624.1854
638.6588, 625.0394
639.1409, 625.9500
639.6230, 627.4753
640.1052, 629.5452
640.5873, 630.8508
641.0694, 630.8971
641.5515, 630.2996
642.0336, 629.4797
642.5157, 628.7140
642.9979, 628.8085
643.4800, 630.8243
643.9621, 633.2890
644.4442, 635.1886
644.9263, 636.5995
645.4084, 638.0583
645.8906, 639.2727
646.3727, 640.9662
646.8548, 643.7822
647.3369, 647.9678
647.8190, 651.1211
648.3011, 652.5985
648.7833, 653.9727
649.2654, 656.4682
649.7475, 660.2236
650.2296, 663.6964
650.7117, 666.6924
651.1938, 669.8459
651.6760, 673.8536
652.1581, 678.6374
652.6402, 683.9355
653.1223, 689.9691
653.6044, 695.8820
654.0865, 700.5955
654.5687, 704.7686
655.0508, 709.6871
655.5329, 716.5173
656.0150, 723.5414
656.4971, 730.3392
656.9792, 736.8533
657.4614, 742.8942
657.9435, 748.3145
658.4256, 753.4633
658.9077, 758.3903
659.3898, 763.1042
659.8719, 767.9061
660.3541, 772.8289
660.8362, 777.6553
661.3183, 782.3719
661.8004, 786.8857
662.2825, 791.3341
662.7646, 795.7803
663.2468, 799.1735
663.7289, 800.2487
664.2110, 799.8525
664.6931, 799.3754
665.1752, 799.9770
665.6573, 798.2305
666.1395, 790.8318
666.6216, 780.9479
667.1037, 772.4728
667.5858, 767.2100
668.0679, 761.8254
668.5500, 756.3222
669.0322, 750.4680
669.5143, 743.7889
669.9964, 736.0812
670.4785, 728.2913
670.9606, 720.3759
671.4427, 712.7686
671.9249, 707.1196
672.4070, 703.2101
672.8891, 699.4950
673.3712, 695.5145
673.8533, 690.9979
674.3354, 685.0731
674.8176, 677.9452
675.2997, 671.9643
675.7818, 669.4415
676.2639, 667.6492
