##NAMES=Spinel
##RRUFFID=R060798
##IDEAL CHEMISTRY=MgAl_2_O_4_
##LOCALITY=Onentura mine, Camaguey Province, Cuba
##OWNER=RRUFF
##SOURCE=George Rossman
##DESCRIPTION=Black granular massive
##STATUS=The identification of this mineral is confirmed by single-crystal X-ray diffraction and chemical analysis.
##URL=rruff.info/R060798
##MEASURED CHEMISTRY=(Mg_0.77_Fe^2+^_0.23_)_Σ=1_(Al_1.09_Cr_0.82_Fe^3+^_0.09_)_Σ=2_O_4_
176.007, 1157.544
176.489, 1155.801
176.971, 1163.719
177.453, 1165.486
177.935, 1153.450
178.417, 1139.807
178.900, 1137.961
179.382, 1147.838
179.864, 1157.515
180.346, 1160.816
180.828, 1158.126
181.310, 1150.641
181.792, 1135.483
182.274, 1119.213
182.757, 1107.351
183.239, 1099.818
183.721, 1094.972
184.203, 1092.824
184.685, 1092.904
185.167, 1092.621
185.649, 1092.160
186.131, 1090.336
186.613, 1085.311
187.096, 1077.509
187.578, 1071.129
188.060, 1071.238
188.542, 1076.319
189.024, 1075.501
189.506, 1061.559
189.988, 1048.717
190.470, 1051.791
190.952, 1067.914
191.435, 1077.261
191.917, 1059.135
192.399, 1019.154
192.881, 994.367
193.363, 994.391
193.845, 1003.752
194.327, 1013.090
194.809, 1022.053
195.292, 1029.635
195.774, 1036.894
196.256, 1042.950
196.738, 1041.456
197.220, 1026.733
197.702, 1011.194
198.184, 1002.004
198.666, 998.377
199.148, 997.417
199.631, 999.148
200.113, 1002.655
200.595, 1002.347
201.077, 994.121
201.559, 987.906
202.041, 991.236
202.523, 1001.095
203.005, 1009.344
203.488, 1011.585
203.970, 1008.382
204.452, 1001.133
204.934, 985.846
205.416, 972.973
205.898, 969.495
206.380, 972.140
206.862, 974.187
207.344, 971.709
207.827, 965.878
208.309, 959.950
208.791, 952.269
209.273, 947.804
209.755, 953.096
210.237, 962.507
210.719, 965.872
211.201, 955.792
211.684, 937.562
212.166, 923.943
212.648, 914.579
213.130, 911.097
213.612, 920.334
214.094, 933.918
214.576, 939.343
215.058, 927.308
215.540, 907.971
216.023, 903.394
216.505, 919.256
216.987, 934.253
217.469, 938.932
217.951, 938.060
218.433, 936.265
218.915, 934.647
219.397, 933.653
219.880, 934.120
220.362, 936.317
220.844, 939.017
221.326, 944.119
221.808, 948.464
222.290, 947.976
222.772, 940.261
223.254, 931.262
223.736, 930.373
224.219, 939.598
224.701, 943.967
225.183, 932.031
225.665, 916.288
226.147, 907.923
226.629, 909.930
227.111, 914.407
227.593, 911.898
228.076, 901.919
228.558, 896.624
229.040, 903.685
229.522, 913.725
230.004, 917.963
230.486, 915.207
230.968, 912.328
231.450, 918.296
231.932, 931.961
232.415, 935.428
232.897, 916.584
233.379, 894.832
233.861, 888.276
234.343, 897.037
234.825, 906.709
235.307, 908.456
235.789, 903.324
236.271, 895.499
236.754, 882.674
237.236, 871.594
237.718, 867.419
238.200, 869.556
238.682, 875.078
239.164, 888.286
239.646, 903.726
240.128, 905.078
240.611, 885.675
241.093, 863.763
241.575, 851.780
242.057, 848.426
242.539, 852.529
243.021, 873.245
243.503, 898.052
243.985, 902.674
244.467, 881.599
244.950, 861.751
245.432, 869.238
245.914, 892.804
246.396, 906.881
246.878, 898.427
247.360, 882.357
247.842, 874.440
248.324, 874.929
248.807, 878.066
249.289, 882.074
249.771, 886.015
250.253, 887.779
250.735, 885.655
251.217, 882.949
251.699, 881.600
252.181, 881.621
252.663, 883.701
253.146, 890.105
253.628, 897.240
254.110, 896.352
254.592, 881.384
255.074, 869.999
255.556, 875.478
256.038, 891.910
256.520, 902.047
257.003, 898.331
257.485, 887.959
257.967, 884.956
258.449, 891.087
258.931, 896.307
259.413, 898.349
259.895, 897.497
260.377, 892.938
260.859, 883.928
261.341, 874.876
261.824, 872.585
262.306, 878.813
262.788, 883.231
263.270, 883.234
263.752, 881.813
264.234, 882.730
264.716, 886.351
265.198, 888.721
265.681, 885.113
266.163, 873.970
266.645, 868.164
267.127, 870.306
267.609, 875.349
268.091, 882.558
268.573, 890.536
269.055, 894.775
269.538, 890.993
270.020, 879.450
270.502, 873.169
270.984, 873.915
271.466, 876.807
271.948, 882.978
272.430, 889.919
272.912, 892.334
273.394, 886.786
273.877, 875.739
274.359, 869.737
274.841, 873.717
275.323, 877.064
275.805, 879.646
276.287, 880.641
276.769, 877.608
277.251, 869.761
277.733, 861.330
278.216, 861.429
278.698, 879.625
279.180, 890.727
279.662, 889.959
280.144, 885.755
280.626, 884.535
281.108, 887.416
281.590, 891.223
282.073, 892.308
282.555, 890.622
283.037, 886.181
283.519, 874.856
284.001, 864.573
284.483, 858.286
284.965, 856.228
285.447, 858.020
285.930, 864.503
286.412, 875.357
286.894, 882.134
287.376, 882.588
287.858, 881.196
288.340, 879.168
288.822, 876.411
289.304, 872.358
289.786, 866.222
290.268, 859.269
290.751, 854.542
291.233, 851.055
291.715, 852.375
292.197, 864.495
292.679, 879.324
293.161, 888.081
293.643, 887.372
294.125, 884.066
294.608, 889.241
295.090, 904.553
295.572, 911.603
296.054, 896.477
296.536, 878.231
297.018, 873.808
297.500, 884.662
297.982, 897.440
298.465, 904.811
298.947, 906.625
299.429, 900.189
299.911, 879.854
300.393, 860.536
300.875, 857.400
301.357, 867.646
301.839, 878.173
302.321, 882.659
302.804, 885.316
303.286, 894.577
303.768, 911.996
304.250, 925.211
304.732, 922.510
305.214, 907.726
305.696, 898.323
306.178, 899.684
306.660, 903.102
307.143, 903.420
307.625, 900.873
308.107, 895.721
308.589, 886.546
309.071, 876.452
309.553, 876.090
310.035, 892.621
310.517, 905.140
311.000, 906.920
311.482, 901.727
311.964, 893.674
312.446, 883.965
312.928, 874.705
313.410, 869.289
313.892, 869.773
314.374, 869.687
314.857, 867.926
315.339, 866.422
315.821, 867.000
316.303, 869.509
316.785, 872.062
317.267, 872.718
317.749, 871.193
318.231, 872.014
318.713, 880.899
319.195, 886.008
319.678, 877.120
320.160, 862.502
320.642, 859.142
321.124, 878.156
321.606, 910.286
322.088, 922.575
322.570, 901.434
323.052, 881.127
323.535, 863.206
324.017, 850.284
324.499, 845.508
324.981, 849.569
325.463, 858.929
325.945, 870.195
326.427, 884.312
326.909, 894.898
327.392, 901.632
327.874, 903.904
328.356, 896.172
328.838, 881.500
329.320, 873.734
329.802, 891.076
330.284, 924.898
330.766, 937.252
331.248, 918.349
331.731, 897.509
332.213, 891.906
332.695, 896.594
333.177, 904.362
333.659, 918.063
334.141, 928.980
334.623, 922.156
335.105, 898.552
335.587, 883.807
336.070, 892.930
336.552, 914.780
337.034, 927.881
337.516, 931.591
337.998, 929.188
338.480, 916.927
338.962, 900.384
339.444, 890.086
339.927, 888.838
340.409, 892.977
340.891, 898.976
341.373, 907.667
341.855, 913.936
342.337, 917.288
342.819, 918.366
343.301, 915.636
343.784, 910.358
344.266, 907.796
344.748, 912.524
345.230, 923.664
345.712, 929.548
346.194, 927.491
346.676, 923.657
347.158, 916.469
347.640, 909.136
348.122, 906.397
348.605, 910.116
349.087, 917.069
349.569, 920.773
350.051, 918.785
350.533, 918.771
351.015, 922.730
351.497, 927.228
351.979, 931.989
352.462, 935.870
352.944, 935.211
353.426, 922.736
353.908, 899.533
354.390, 891.135
354.872, 908.753
355.354, 925.415
355.836, 925.560
356.319, 917.563
356.801, 916.589
357.283, 932.940
357.765, 953.004
358.247, 953.939
358.729, 933.967
359.211, 918.004
359.693, 916.214
360.175, 922.417
360.658, 928.515
361.140, 934.642
361.622, 939.004
362.104, 939.482
362.586, 937.727
363.068, 938.075
363.550, 941.921
364.032, 944.164
364.514, 937.760
364.997, 922.208
365.479, 913.759
365.961, 917.560
366.443, 925.000
366.925, 931.843
367.407, 937.576
367.889, 941.894
368.371, 944.637
368.853, 945.790
369.336, 945.302
369.818, 939.955
370.300, 936.990
370.782, 939.099
371.264, 942.758
371.746, 942.621
372.228, 938.182
372.711, 936.038
373.193, 947.360
373.675, 978.766
374.157, 994.435
374.639, 976.940
375.121, 959.823
375.603, 956.785
376.085, 964.148
376.567, 971.397
377.049, 972.524
377.532, 968.954
378.014, 964.415
378.496, 958.704
378.978, 952.508
379.460, 940.301
379.942, 930.744
380.424, 935.029
380.906, 957.013
381.389, 978.342
381.871, 982.049
382.353, 972.500
382.835, 967.557
383.317, 971.891
383.799, 977.829
384.281, 978.110
384.763, 973.304
385.246, 965.365
385.728, 951.184
386.210, 936.611
386.692, 925.572
387.174, 918.358
387.656, 915.425
388.138, 917.402
388.620, 923.343
389.102, 929.803
389.585, 937.055
390.067, 944.395
390.549, 954.232
391.031, 962.821
391.513, 964.254
391.995, 958.186
392.477, 952.083
392.959, 955.732
393.441, 971.595
393.924, 981.931
394.406, 980.704
394.888, 979.760
395.370, 983.951
395.852, 991.078
396.334, 997.479
396.816, 1002.016
397.298, 1002.656
397.780, 991.342
398.263, 962.044
398.745, 944.369
399.227, 956.250
399.709, 976.874
400.191, 990.646
400.673, 996.073
401.155, 998.751
401.638, 1001.856
402.120, 1004.876
402.602, 1006.489
403.084, 1006.487
403.566, 1005.379
404.048, 1002.471
404.530, 998.565
405.012, 997.776
405.494, 1007.424
405.977, 1013.226
406.459, 1002.458
406.941, 982.312
407.423, 970.125
407.905, 973.141
408.387, 983.720
408.869, 987.824
409.351, 979.800
409.833, 977.076
410.316, 984.027
410.798, 992.412
411.280, 997.110
411.762, 998.197
412.244, 998.787
412.726, 1001.846
413.208, 1006.129
413.690, 1002.720
414.172, 984.227
414.655, 970.343
415.137, 965.385
415.619, 966.664
416.101, 972.938
416.583, 983.999
417.065, 995.297
417.547, 1003.041
418.029, 1007.262
418.512, 1007.228
418.994, 999.913
419.476, 993.789
419.958, 999.336
420.440, 1012.620
420.922, 1020.266
421.404, 1014.785
421.886, 1005.979
422.368, 1001.309
422.851, 1000.321
423.333, 1001.143
423.815, 1003.468
424.297, 1005.890
424.779, 1005.011
425.261, 997.051
425.743, 993.345
426.225, 999.536
426.708, 1006.666
427.190, 1005.946
427.672, 998.219
428.154, 991.891
428.636, 994.511
429.118, 1004.933
429.600, 1009.706
430.082, 1003.654
430.565, 999.136
431.047, 1001.000
431.529, 1004.408
432.011, 1003.215
432.493, 995.744
432.975, 988.130
433.457, 988.807
433.939, 996.924
434.421, 1000.364
434.904, 995.683
435.386, 989.718
435.868, 987.024
436.350, 987.110
436.832, 989.029
437.314, 993.135
437.796, 998.494
438.278, 1006.476
438.760, 1015.606
439.243, 1019.396
439.725, 1014.506
440.207, 1005.195
440.689, 999.347
441.171, 998.882
441.653, 997.630
442.135, 993.604
442.617, 990.170
443.099, 990.451
443.582, 993.726
444.064, 996.970
444.546, 998.168
445.028, 997.368
445.510, 994.182
445.992, 983.720
446.474, 979.788
446.957, 990.127
447.439, 1003.888
447.921, 1012.102
448.403, 1013.262
448.885, 1011.626
449.367, 1008.331
449.849, 1004.807
450.331, 1009.149
450.813, 1025.286
451.296, 1038.355
451.778, 1036.471
452.260, 1024.301
452.742, 1013.815
453.224, 1004.841
453.706, 999.464
454.188, 998.849
454.670, 1002.638
455.152, 1012.291
455.635, 1028.387
456.117, 1043.374
456.599, 1047.346
457.081, 1037.700
457.563, 1029.090
458.045, 1020.502
458.527, 1013.771
459.009, 1009.431
459.491, 1007.516
459.974, 1008.513
460.456, 1012.775
460.938, 1018.616
461.420, 1022.741
461.902, 1024.730
462.384, 1027.010
462.866, 1031.042
463.348, 1034.330
463.831, 1034.876
464.313, 1033.151
464.795, 1031.410
465.277, 1031.309
465.759, 1031.475
466.241, 1029.309
466.723, 1025.047
467.205, 1022.318
467.687, 1022.734
468.170, 1025.569
468.652, 1030.007
469.134, 1038.029
469.616, 1042.161
470.098, 1037.938
470.580, 1031.839
471.062, 1028.592
471.544, 1028.721
472.026, 1031.309
472.509, 1035.921
472.991, 1042.142
473.473, 1047.527
473.955, 1051.651
474.437, 1055.628
474.919, 1061.019
475.401, 1065.430
475.883, 1067.584
476.366, 1067.022
476.848, 1062.654
477.330, 1048.828
477.812, 1030.242
478.294, 1024.812
478.776, 1035.513
479.258, 1048.819
479.740, 1060.654
480.223, 1068.432
480.705, 1066.091
481.187, 1046.720
481.669, 1030.269
482.151, 1025.235
482.633, 1027.473
483.115, 1034.422
483.597, 1044.537
484.079, 1050.419
484.561, 1043.734
485.044, 1024.638
485.526, 1013.909
486.008, 1019.448
486.490, 1024.769
486.972, 1026.549
487.454, 1026.977
487.936, 1028.683
488.418, 1032.353
488.901, 1036.634
489.383, 1041.459
489.865, 1046.359
490.347, 1044.610
490.829, 1031.223
491.311, 1021.141
491.793, 1028.728
492.275, 1045.861
492.758, 1056.670
493.240, 1056.851
493.722, 1053.807
494.204, 1051.283
494.686, 1048.599
495.168, 1043.901
495.650, 1036.836
496.132, 1029.619
496.614, 1024.242
497.097, 1020.429
497.579, 1021.877
498.061, 1035.306
498.543, 1045.928
499.025, 1048.541
499.507, 1046.631
499.989, 1045.195
500.471, 1045.784
500.953, 1045.140
501.436, 1034.772
501.918, 1015.193
502.400, 1014.819
502.882, 1047.447
503.364, 1077.132
503.846, 1074.024
504.328, 1052.176
504.810, 1039.141
505.293, 1045.184
505.775, 1052.582
506.257, 1047.965
506.739, 1037.483
507.221, 1033.172
507.703, 1037.985
508.185, 1048.767
508.667, 1063.892
509.150, 1084.725
509.632, 1092.588
510.114, 1075.178
510.596, 1059.857
511.078, 1057.830
511.560, 1059.971
512.042, 1051.274
512.524, 1027.968
513.006, 1007.151
513.489, 1011.663
513.971, 1039.672
514.453, 1064.555
514.935, 1087.231
515.417, 1101.451
515.899, 1096.328
516.381, 1080.961
516.863, 1073.004
517.346, 1076.249
517.828, 1084.405
518.310, 1097.879
518.792, 1112.955
519.274, 1123.221
519.756, 1127.602
520.238, 1129.466
520.720, 1131.528
521.202, 1133.819
521.685, 1138.833
522.167, 1155.580
522.649, 1163.922
523.131, 1153.339
523.613, 1137.087
524.095, 1127.054
524.577, 1126.206
525.059, 1132.526
525.541, 1150.314
526.024, 1174.702
526.506, 1182.556
526.988, 1169.645
527.470, 1155.923
527.952, 1152.643
528.434, 1155.753
528.916, 1154.515
529.398, 1144.919
529.880, 1140.325
530.363, 1148.818
530.845, 1161.901
531.327, 1173.933
531.809, 1182.413
532.291, 1180.690
532.773, 1161.592
533.255, 1131.098
533.737, 1119.566
534.219, 1139.773
534.702, 1154.908
535.184, 1157.302
535.666, 1154.695
536.148, 1150.120
536.630, 1144.978
537.112, 1143.281
537.594, 1150.016
538.076, 1160.567
538.559, 1168.156
539.041, 1172.749
539.523, 1173.394
540.005, 1168.430
540.487, 1161.488
540.969, 1159.141
541.451, 1163.459
541.933, 1165.843
542.416, 1166.272
542.898, 1164.409
543.380, 1158.179
543.862, 1149.723
544.344, 1143.248
544.826, 1140.875
545.308, 1141.368
545.790, 1144.143
546.273, 1150.516
546.755, 1149.329
547.237, 1134.235
547.719, 1118.017
548.201, 1106.643
548.683, 1100.561
549.165, 1101.850
549.647, 1117.372
550.129, 1132.050
550.612, 1131.854
551.094, 1123.680
551.576, 1122.168
552.058, 1130.879
552.540, 1144.363
553.022, 1157.982
553.504, 1171.884
553.986, 1179.215
554.468, 1174.027
554.951, 1168.857
555.433, 1165.499
555.915, 1163.313
556.397, 1161.016
556.879, 1158.533
557.361, 1158.008
557.843, 1163.384
558.325, 1172.020
558.807, 1174.085
559.290, 1168.193
559.772, 1166.757
560.254, 1177.900
560.736, 1196.116
561.218, 1208.995
561.700, 1217.529
562.182, 1219.355
562.664, 1205.078
563.146, 1191.208
563.629, 1193.021
564.111, 1206.806
564.593, 1219.123
565.075, 1222.384
565.557, 1219.109
566.039, 1213.861
566.521, 1205.818
567.003, 1200.179
567.486, 1199.968
567.968, 1199.567
568.450, 1192.428
568.932, 1181.708
569.414, 1177.480
569.896, 1182.615
570.378, 1194.829
570.860, 1220.558
571.343, 1250.637
571.825, 1264.125
572.307, 1256.309
572.789, 1242.102
573.271, 1236.401
573.753, 1239.275
574.235, 1243.159
574.717, 1247.996
575.200, 1254.001
575.682, 1265.091
576.164, 1274.989
576.646, 1276.010
577.128, 1267.740
577.610, 1259.708
578.092, 1258.912
578.574, 1262.893
579.056, 1268.077
579.539, 1274.234
580.021, 1276.784
580.503, 1271.967
580.985, 1265.440
581.467, 1268.280
581.949, 1285.830
582.431, 1299.487
582.913, 1306.645
583.395, 1312.436
583.878, 1319.902
584.360, 1327.936
584.842, 1334.186
585.324, 1337.605
585.806, 1339.109
586.288, 1339.314
586.770, 1338.335
587.252, 1338.068
587.734, 1338.067
588.217, 1340.619
588.699, 1350.231
589.181, 1363.313
589.663, 1368.524
590.145, 1359.361
590.627, 1352.892
591.109, 1356.786
591.591, 1364.288
592.073, 1368.307
592.556, 1368.603
593.038, 1368.842
593.520, 1371.375
594.002, 1376.224
594.484, 1384.042
594.966, 1396.195
595.448, 1406.578
595.930, 1416.940
596.413, 1422.046
596.895, 1414.184
597.377, 1396.913
597.859, 1386.391
598.341, 1390.418
598.823, 1399.312
599.305, 1410.920
599.787, 1421.663
600.269, 1423.140
600.752, 1413.710
601.234, 1401.156
601.716, 1392.398
602.198, 1387.638
602.680, 1392.768
603.162, 1418.190
603.644, 1436.163
604.127, 1436.312
604.609, 1429.935
605.091, 1426.135
605.573, 1425.798
606.055, 1425.731
606.537, 1425.411
607.019, 1423.694
607.501, 1416.632
607.983, 1406.220
608.466, 1402.829
608.948, 1411.137
609.430, 1421.648
609.912, 1418.876
610.394, 1397.691
610.876, 1390.431
611.358, 1409.989
611.840, 1429.044
612.322, 1443.780
612.805, 1452.346
613.287, 1451.217
613.769, 1439.696
614.251, 1426.455
614.733, 1418.000
615.215, 1412.575
615.697, 1406.492
616.179, 1399.705
616.661, 1393.829
617.144, 1389.398
617.626, 1387.115
618.108, 1388.826
618.590, 1397.619
619.072, 1402.597
619.554, 1401.747
620.036, 1399.528
620.518, 1398.182
621.000, 1396.773
621.483, 1393.565
621.965, 1387.924
622.447, 1380.627
622.929, 1369.836
623.411, 1358.020
623.893, 1355.619
624.375, 1364.313
624.857, 1369.458
625.340, 1360.661
625.822, 1343.953
626.304, 1336.607
626.786, 1348.910
627.268, 1352.208
627.750, 1334.419
628.232, 1318.495
628.714, 1321.716
629.196, 1336.866
629.679, 1347.744
630.161, 1347.465
630.643, 1338.823
631.125, 1319.812
631.607, 1294.076
632.089, 1282.293
632.571, 1289.152
633.054, 1295.060
633.536, 1285.614
634.018, 1265.753
634.500, 1253.800
634.982, 1250.792
635.464, 1253.655
635.946, 1277.933
636.428, 1294.295
636.910, 1273.215
637.393, 1227.784
637.875, 1194.321
638.357, 1192.208
638.839, 1203.539
639.321, 1204.701
639.803, 1197.226
640.285, 1191.245
640.767, 1188.343
641.250, 1185.958
641.732, 1182.683
642.214, 1178.349
642.696, 1172.173
643.178, 1163.242
643.660, 1153.955
644.142, 1140.668
644.624, 1130.352
645.106, 1130.845
645.589, 1138.729
646.071, 1143.756
646.553, 1140.192
647.035, 1133.523
647.517, 1132.467
647.999, 1135.623
648.481, 1133.341
648.963, 1123.227
649.445, 1113.326
649.928, 1109.154
650.410, 1110.083
650.892, 1113.172
651.374, 1121.809
651.856, 1127.760
652.338, 1127.205
652.820, 1126.679
653.302, 1130.769
653.784, 1138.756
654.267, 1147.427
654.749, 1154.907
655.231, 1163.582
655.713, 1179.039
656.195, 1198.802
656.677, 1211.718
657.159, 1215.894
657.641, 1215.568
658.123, 1211.574
658.606, 1206.629
659.088, 1211.757
659.570, 1235.696
660.052, 1257.582
660.534, 1280.359
661.016, 1298.333
661.498, 1304.050
661.981, 1302.578
662.463, 1306.563
662.945, 1323.338
663.427, 1339.471
663.909, 1338.431
664.391, 1326.078
664.873, 1317.761
665.355, 1315.477
665.837, 1316.334
666.320, 1318.387
666.802, 1322.315
667.284, 1330.737
667.766, 1349.575
668.248, 1361.710
668.730, 1363.565
669.212, 1362.648
669.694, 1364.806
670.177, 1366.243
670.659, 1357.259
671.141, 1331.686
671.623, 1309.475
672.105, 1308.361
672.587, 1319.477
673.069, 1327.657
673.551, 1331.938
674.033, 1339.053
674.516, 1353.770
674.998, 1369.103
675.480, 1366.554
675.962, 1334.693
676.444, 1320.986
676.926, 1343.670
677.408, 1362.220
677.890, 1356.026
678.372, 1336.852
678.855, 1320.898
679.337, 1310.345
679.819, 1306.151
680.301, 1312.130
680.783, 1322.432
681.265, 1332.794
681.747, 1341.837
682.229, 1347.331
682.711, 1348.297
683.194, 1344.709
683.676, 1333.101
684.158, 1311.927
684.640, 1309.623
685.122, 1337.365
685.604, 1359.041
686.086, 1354.451
686.568, 1338.320
687.050, 1329.647
687.533, 1328.367
688.015, 1336.663
688.497, 1371.146
688.979, 1399.365
689.461, 1391.906
689.943, 1366.860
690.425, 1356.682
690.907, 1370.130
691.390, 1390.162
691.872, 1400.768
692.354, 1403.369
692.836, 1399.619
693.318, 1387.481
693.800, 1393.371
694.282, 1434.369
694.764, 1481.533
695.247, 1496.980
695.729, 1476.839
696.211, 1467.021
696.693, 1471.618
697.175, 1480.967
697.657, 1496.233
698.139, 1512.579
698.621, 1527.365
699.104, 1538.986
699.586, 1543.406
700.068, 1533.753
700.550, 1520.526
701.032, 1517.210
701.514, 1523.262
701.996, 1538.789
702.478, 1564.221
702.960, 1590.219
703.443, 1610.204
703.925, 1623.105
704.407, 1620.287
704.889, 1579.618
705.371, 1564.389
705.853, 1604.811
706.335, 1649.589
706.817, 1667.537
707.299, 1666.353
707.782, 1669.375
708.264, 1685.270
708.746, 1702.179
709.228, 1713.022
709.710, 1720.490
710.192, 1728.169
710.674, 1736.059
711.156, 1741.503
711.638, 1742.711
712.121, 1743.074
712.603, 1748.775
