##NAMES=Spinel
##RRUFFID=R050184
##IDEAL CHEMISTRY=MgAl_2_O_4_
##LOCALITY=Pein Pyit, Mogok, Burma
##OWNER=RRUFF
##SOURCE=Marcus Origlieri
##DESCRIPTION=Red crystal in calcite, associated with yellowish-green clinohumite, R050183
##STATUS=The identification of this mineral has been confirmed by X-ray diffraction and chemical analysis
##URL=rruff.info/R050184
##MEASURED CHEMISTRY=Mg_1.00_(Al_1.99_Cr_0.01_)_Î£=2_O_4_; trace amounts of V
92.96582, 124.8314
93.44794, 122.9334
93.93005, 123.0650
94.41217, 126.0289
94.89429, 127.8991
95.37640, 128.6028
95.85852, 128.6457
96.34064, 128.6024
96.82275, 128.7973
97.30487, 129.0924
97.78699, 129.2152
98.26910, 129.2078
98.75122, 129.1358
99.23334, 129.0338
99.71545, 128.8410
100.1976, 128.3899
100.6797, 127.9923
101.1618, 127.6672
101.6439, 127.3378
102.1260, 126.9032
102.6081, 126.4382
103.0903, 126.1300
103.5724, 126.0231
104.0545, 125.9704
104.5366, 125.8826
105.0187, 125.7726
105.5008, 125.6677
105.9830, 125.5586
106.4651, 125.4316
106.9472, 125.4446
107.4293, 125.8530
107.9114, 126.1440
108.3935, 126.1062
108.8757, 125.7433
109.3578, 125.2000
109.8399, 124.6647
110.3220, 124.2275
110.8041, 123.5541
111.2862, 122.5499
111.7684, 121.3945
112.2505, 120.2700
112.7326, 119.2276
113.2147, 118.1355
113.6968, 116.5897
114.1789, 113.6193
114.6611, 111.9621
115.1432, 113.0429
115.6253, 115.7956
116.1074, 118.0866
116.5895, 118.9381
117.0716, 118.7312
117.5538, 118.5362
118.0359, 118.3709
118.5180, 118.1873
119.0001, 117.9254
119.4822, 117.5819
119.9643, 117.2751
120.4465, 117.0232
120.9286, 116.8615
121.4107, 116.8683
121.8928, 117.1444
122.3749, 117.5194
122.8570, 117.6621
123.3392, 117.4830
123.8213, 117.2130
124.3034, 116.8967
124.7855, 116.5681
125.2676, 116.2642
125.7497, 116.0042
126.2319, 115.7889
126.7140, 115.6423
127.1961, 115.6124
127.6782, 115.6142
128.1603, 115.7003
128.6424, 115.8139
129.1246, 115.8310
129.6067, 115.6216
130.0888, 115.1227
130.5709, 114.7224
131.0530, 114.3815
131.5351, 114.1392
132.0173, 114.0837
132.4994, 114.2004
132.9815, 114.3215
133.4636, 114.2131
133.9457, 113.7552
134.4278, 113.4708
134.9100, 113.4847
135.3921, 113.6496
135.8742, 113.8108
136.3563, 113.9372
136.8384, 114.0151
137.3205, 114.0061
137.8027, 113.9104
138.2848, 113.8041
138.7669, 113.7148
139.2490, 113.6394
139.7311, 113.5727
140.2132, 113.5501
140.6954, 113.4938
141.1775, 113.3351
141.6596, 113.0671
142.1417, 112.7335
142.6238, 112.3423
143.1059, 111.8721
143.5881, 111.4805
144.0702, 111.1116
144.5523, 110.8948
145.0344, 111.0397
145.5165, 111.6219
145.9986, 112.3139
146.4807, 112.4620
146.9629, 111.6281
147.4450, 111.0499
147.9271, 111.0419
148.4092, 111.2803
148.8913, 111.4600
149.3734, 111.4343
149.8556, 111.2486
150.3377, 111.0855
150.8198, 111.0189
151.3019, 110.8931
151.7840, 110.5552
152.2661, 110.1591
152.7483, 109.9909
153.2304, 110.2633
153.7125, 110.9204
154.1946, 111.1122
154.6767, 110.4950
155.1588, 109.8770
155.6410, 109.5545
156.1231, 109.5017
156.6052, 109.5727
157.0873, 109.6968
157.5694, 109.8600
158.0515, 109.9215
158.5337, 109.8671
159.0158, 109.7251
159.4979, 109.4688
159.9800, 109.0916
160.4621, 108.7508
160.9442, 108.6104
161.4264, 108.6145
161.9085, 108.6084
162.3906, 108.5528
162.8727, 108.4669
163.3548, 108.3801
163.8369, 108.2937
164.3191, 108.2065
164.8012, 108.0781
165.2833, 107.9435
165.7654, 107.8893
166.2475, 108.0287
166.7296, 108.3141
167.2118, 108.4789
167.6939, 108.4724
168.1760, 108.3856
168.6581, 108.2505
169.1402, 108.0770
169.6223, 107.8792
170.1045, 107.6577
170.5866, 107.4071
171.0687, 107.1985
171.5508, 107.0189
172.0329, 106.8961
172.5150, 106.9012
172.9972, 106.9963
173.4793, 107.0554
173.9614, 106.9252
174.4435, 106.5185
174.9256, 106.2248
175.4077, 106.0584
175.8899, 105.9643
176.3720, 105.9525
176.8541, 106.0038
177.3362, 106.0471
177.8183, 105.9868
178.3004, 105.7637
178.7826, 105.5626
179.2647, 105.3525
179.7468, 105.1794
180.2289, 105.1156
180.7110, 105.1744
181.1931, 105.2483
181.6752, 105.1541
182.1574, 104.8057
182.6395, 104.5483
183.1216, 104.4805
183.6037, 104.5054
184.0858, 104.5152
184.5679, 104.4889
185.0501, 104.4033
185.5322, 104.1528
186.0143, 103.7012
186.4964, 103.3905
186.9785, 103.4548
187.4606, 103.7556
187.9428, 103.9321
188.4249, 103.8373
188.9070, 103.6491
189.3891, 103.6239
189.8712, 103.7763
190.3533, 103.8723
190.8355, 103.7027
191.3176, 103.3051
191.7997, 103.0061
192.2818, 102.9264
192.7639, 102.9431
193.2460, 102.9749
193.7282, 103.0167
194.2103, 103.0155
194.6924, 102.9211
195.1745, 102.7277
195.6566, 102.4870
196.1387, 102.0495
196.6209, 101.6744
197.1030, 101.5649
197.5851, 101.7407
198.0672, 101.9914
198.5493, 102.0400
199.0314, 101.8137
199.5136, 101.6184
199.9957, 101.5576
200.4778, 101.4900
200.9599, 101.2747
201.4420, 100.8955
201.9241, 100.5109
202.4063, 100.3974
202.8884, 100.7799
203.3705, 100.9972
203.8526, 100.9499
204.3347, 100.8037
204.8168, 100.6651
205.2990, 100.5717
205.7811, 100.5135
206.2632, 100.4741
206.7453, 100.4659
207.2274, 100.4598
207.7095, 100.4574
208.1917, 100.4548
208.6738, 100.4614
209.1559, 100.4785
209.6380, 100.4751
210.1201, 100.3866
210.6022, 100.1207
211.0844, 99.90121
211.5665, 99.75255
212.0486, 99.64914
212.5307, 99.58360
213.0128, 99.55728
213.4949, 99.52193
213.9771, 99.36301
214.4592, 99.02808
214.9413, 98.70426
215.4234, 98.32720
215.9055, 98.00224
216.3876, 97.94238
216.8698, 98.26981
217.3519, 98.75184
217.8340, 98.90978
218.3161, 98.68006
218.7982, 98.50237
219.2803, 98.59050
219.7625, 98.83454
220.2446, 98.98718
220.7267, 98.96763
221.2088, 98.83244
221.6909, 98.64320
222.1730, 98.38587
222.6552, 98.17453
223.1373, 98.13280
223.6194, 98.19736
224.1015, 98.13621
224.5836, 97.86210
225.0657, 97.46526
225.5479, 97.03681
226.0300, 96.57312
226.5121, 96.15308
226.9942, 95.83530
227.4763, 95.61096
227.9584, 95.40663
228.4406, 95.21582
228.9227, 95.03625
229.4048, 94.88187
229.8869, 94.74864
230.3690, 94.58526
230.8511, 94.34608
231.3333, 94.03303
231.8154, 93.69010
232.2975, 93.19118
232.7796, 92.79912
233.2617, 92.74506
233.7438, 92.98935
234.2260, 93.23282
234.7081, 93.16881
235.1902, 92.76987
235.6723, 92.47807
236.1544, 92.42610
236.6365, 92.40193
237.1187, 92.30750
237.6008, 92.14824
238.0829, 91.98660
238.5650, 91.87624
239.0471, 91.81910
239.5292, 91.79678
240.0114, 91.80299
240.4935, 91.85215
240.9756, 92.02434
241.4577, 92.26788
241.9398, 92.42165
242.4219, 92.29396
242.9041, 91.82312
243.3862, 91.54426
243.8683, 91.64492
244.3504, 91.76763
244.8325, 91.79047
245.3146, 91.71791
245.7968, 91.60911
246.2789, 91.51120
246.7610, 91.42074
247.2431, 91.37678
247.7252, 91.44824
248.2073, 91.49808
248.6895, 91.44731
249.1716, 91.32488
249.6537, 91.22458
250.1358, 91.23646
250.6179, 91.37504
251.1000, 91.38182
251.5822, 91.07072
252.0643, 90.82753
252.5464, 90.87912
253.0285, 91.12907
253.5106, 91.29668
253.9927, 91.15025
254.4748, 90.69262
254.9570, 90.45146
255.4391, 90.60278
255.9212, 90.74458
256.4033, 90.76246
256.8854, 90.65764
257.3676, 90.43680
257.8497, 90.07692
258.3318, 89.60538
258.8139, 89.36461
259.2960, 89.57004
259.7781, 89.72083
260.2603, 89.55361
260.7424, 89.19657
261.2245, 88.98016
261.7066, 89.12235
262.1887, 89.53124
262.6708, 89.71021
263.1530, 89.55531
263.6351, 89.35017
264.1172, 89.12992
264.5993, 88.92395
265.0814, 88.80143
265.5635, 88.80901
266.0457, 88.90231
266.5278, 88.93625
267.0099, 88.87106
267.4920, 88.82229
267.9741, 88.88036
268.4562, 88.97720
268.9384, 88.95904
269.4204, 88.74456
269.9026, 88.42527
270.3847, 88.20195
270.8668, 88.09417
271.3489, 87.99385
271.8310, 87.81351
272.3131, 87.62489
272.7953, 87.59841
273.2774, 87.82655
273.7595, 88.12688
274.2416, 88.16087
274.7237, 87.89909
275.2058, 87.71674
275.6880, 87.80639
276.1701, 88.03330
276.6522, 88.14132
277.1343, 88.04646
277.6164, 87.91450
278.0985, 88.00095
278.5807, 88.28186
279.0628, 88.48935
279.5449, 88.48045
280.0270, 88.37278
280.5091, 88.35588
280.9912, 88.47042
281.4734, 88.61662
281.9555, 88.68279
282.4376, 88.69173
282.9197, 88.74161
283.4018, 88.96465
283.8839, 89.19645
284.3661, 89.14762
284.8482, 88.74957
285.3303, 88.39876
285.8124, 88.50659
286.2945, 88.90000
286.7766, 89.15799
287.2588, 89.03726
287.7409, 88.82658
288.2230, 88.88181
288.7051, 89.22474
289.1872, 89.59633
289.6693, 89.83754
290.1515, 90.00832
290.6336, 90.20596
291.1157, 90.43233
291.5978, 90.70757
292.0799, 91.09343
292.5620, 91.59237
293.0442, 92.02321
293.5263, 92.28493
294.0084, 92.43647
294.4905, 92.56591
294.9726, 92.68235
295.4547, 92.77193
295.9369, 92.75581
296.4190, 92.65274
296.9011, 92.73523
297.3832, 93.21021
297.8653, 93.80110
298.3474, 94.16468
298.8296, 94.26697
299.3117, 94.39074
299.7938, 94.73469
300.2759, 95.26888
300.7580, 95.84209
301.2401, 96.46065
301.7223, 97.06178
302.2044, 97.54893
302.6865, 97.94205
303.1686, 98.40578
303.6507, 99.04930
304.1328, 99.83743
304.6150, 100.6179
305.0971, 101.2801
305.5792, 102.1327
306.0613, 103.4313
306.5434, 105.0843
307.0255, 106.8732
307.5077, 108.6734
307.9898, 110.5540
308.4719, 112.7117
308.9540, 115.2384
309.4361, 117.7553
309.9182, 120.4842
310.4004, 122.9691
310.8825, 124.4264
311.3646, 124.5894
311.8467, 123.6453
312.3288, 121.6979
312.8109, 118.6572
313.2931, 115.1735
313.7752, 111.1403
314.2573, 107.0075
314.7394, 103.2634
315.2215, 99.99002
315.7036, 97.16991
316.1858, 94.86314
316.6679, 93.07104
317.1500, 91.55843
317.6321, 90.30083
318.1142, 89.28856
318.5963, 88.52238
319.0785, 88.01608
319.5606, 87.58302
320.0427, 87.08911
320.5248, 86.54939
321.0069, 86.07060
321.4890, 85.69460
321.9712, 85.35679
322.4533, 85.01554
322.9354, 84.66529
323.4175, 84.27914
323.8996, 83.75160
324.3817, 83.17733
324.8639, 82.84399
325.3460, 82.84893
325.8281, 82.91032
326.3102, 82.81475
326.7923, 82.61893
327.2744, 82.43930
327.7566, 82.34311
328.2387, 82.27274
328.7208, 82.11062
329.2029, 81.82859
329.6850, 81.62289
330.1671, 81.69773
330.6493, 81.88943
331.1314, 81.94930
331.6135, 81.77618
332.0956, 81.55602
332.5777, 81.50266
333.0598, 81.60706
333.5420, 81.60876
334.0241, 81.32460
334.5062, 80.95518
334.9883, 80.77811
335.4704, 80.82945
335.9525, 80.91384
336.4347, 80.88657
336.9168, 80.78541
337.3989, 80.77274
337.8810, 80.93269
338.3631, 81.10815
338.8452, 81.09458
339.3274, 80.91359
339.8094, 80.79623
340.2916, 80.93442
340.7737, 81.16862
341.2558, 81.17941
341.7379, 80.88647
342.2200, 80.58526
342.7021, 80.53225
343.1843, 80.66924
343.6664, 80.83412
344.1485, 81.04500
344.6306, 81.24001
345.1127, 81.33714
345.5948, 81.33846
346.0770, 81.34145
346.5591, 81.35515
347.0412, 81.43588
347.5233, 81.71143
348.0054, 82.37430
348.4875, 82.92659
348.9697, 82.98689
349.4518, 82.67791
349.9339, 82.38467
350.4160, 82.20446
350.8981, 82.17027
351.3802, 82.38527
351.8624, 82.88528
352.3445, 83.35384
352.8266, 83.71241
353.3087, 83.97322
353.7908, 84.13680
354.2729, 84.19691
354.7551, 84.22478
355.2372, 84.32582
355.7193, 84.50314
356.2014, 84.52127
356.6835, 84.12141
357.1656, 83.72401
357.6478, 83.73779
358.1299, 84.14299
358.6120, 84.55356
359.0941, 84.68079
359.5762, 84.58175
360.0583, 84.66786
360.5405, 85.12704
361.0226, 85.55043
361.5047, 85.72289
361.9868, 85.73610
362.4689, 85.79688
362.9510, 85.99596
363.4332, 86.28748
363.9153, 86.57161
364.3974, 86.92271
364.8795, 87.12667
365.3616, 86.97911
365.8438, 86.75487
366.3259, 86.75925
366.8080, 87.05817
367.2901, 87.51376
367.7722, 87.98561
368.2543, 88.50652
368.7365, 88.86738
369.2186, 88.96151
369.7007, 89.00101
370.1828, 89.08504
370.6649, 89.22451
371.1470, 89.40504
371.6292, 89.61700
372.1113, 89.86069
372.5934, 90.14017
373.0755, 90.45061
373.5576, 90.79947
374.0397, 91.15369
374.5219, 91.55655
375.0040, 92.10892
375.4861, 92.85636
375.9682, 93.66041
376.4503, 94.20832
376.9324, 94.16735
377.4146, 94.40343
377.8967, 95.05631
378.3788, 95.86327
378.8609, 96.62829
379.3430, 97.32993
379.8251, 98.08723
380.3073, 99.03523
380.7894, 100.1958
381.2715, 101.3895
381.7536, 102.5814
382.2357, 103.8490
382.7178, 105.1809
383.2000, 106.6105
383.6821, 108.2114
384.1642, 110.0359
384.6463, 112.0488
385.1284, 114.1074
385.6105, 116.1601
386.0927, 118.3620
386.5748, 120.8414
387.0569, 123.4158
387.5390, 125.8756
388.0211, 128.1759
388.5032, 130.4646
388.9854, 132.9809
389.4675, 135.7710
389.9496, 138.4877
390.4317, 140.9006
390.9138, 143.3772
391.3959, 146.0934
391.8781, 149.0354
392.3602, 152.1172
392.8423, 155.2022
393.3244, 158.3527
393.8065, 161.8876
394.2886, 165.8467
394.7708, 170.0884
395.2529, 174.4799
395.7350, 179.1252
396.2171, 184.1227
396.6992, 189.4270
397.1813, 195.3140
397.6635, 202.4272
398.1456, 210.8250
398.6277, 219.0200
399.1098, 226.0062
399.5919, 233.0587
400.0740, 241.4028
400.5562, 251.1327
401.0383, 261.4937
401.5204, 272.2818
402.0025, 283.4081
402.4846, 294.8964
402.9667, 306.9561
403.4489, 318.6320
403.9310, 329.5186
404.4131, 339.3901
404.8952, 346.9521
405.3773, 352.3761
405.8594, 355.1028
406.3416, 354.7689
406.8237, 351.3398
407.3058, 344.3464
407.7879, 333.1289
408.2700, 318.5909
408.7521, 302.8283
409.2343, 285.3734
409.7164, 268.1492
410.1985, 251.5107
410.6806, 235.5760
411.1627, 220.5727
411.6448, 206.5073
412.1269, 193.5816
412.6090, 182.1196
413.0912, 172.3406
413.5733, 163.5246
414.0554, 155.8053
414.5375, 148.8495
415.0196, 142.4628
415.5017, 136.6455
415.9839, 131.4531
416.4660, 126.9452
416.9481, 123.0462
417.4302, 119.4065
417.9123, 116.0183
418.3944, 112.9153
418.8766, 110.1256
419.3587, 107.6121
419.8408, 105.3699
420.3229, 103.3927
420.8050, 101.5947
421.2871, 99.86694
421.7693, 98.18710
422.2514, 96.66175
422.7335, 95.33944
423.2156, 94.10786
423.6977, 92.94488
424.1798, 91.83029
424.6620, 90.73141
425.1441, 89.61279
425.6262, 88.51096
426.1083, 87.58228
426.5904, 86.92567
427.0725, 86.25036
427.5547, 85.41939
428.0368, 84.58218
428.5189, 83.89148
429.0010, 83.37823
429.4831, 82.92368
429.9652, 82.41483
430.4474, 81.85057
430.9295, 81.25157
431.4116, 80.53538
431.8937, 79.89751
432.3758, 79.51809
432.8579, 79.30828
433.3401, 79.01624
433.8222, 78.40263
434.3043, 77.72071
434.7864, 77.44231
435.2685, 77.60670
435.7506, 77.70840
436.2328, 77.50473
436.7149, 77.10809
437.1970, 76.70775
437.6791, 76.29722
438.1612, 75.91656
438.6433, 75.58974
439.1255, 75.30728
439.6076, 75.05083
440.0897, 74.81795
440.5718, 74.60612
441.0539, 74.40641
441.5360, 74.22253
442.0182, 74.10194
442.5003, 74.13979
442.9824, 74.16013
443.4645, 74.02891
443.9466, 73.78120
444.4287, 73.53076
444.9109, 73.32874
445.3930, 73.17564
445.8751, 73.07226
446.3572, 73.06090
446.8393, 73.03655
447.3214, 73.02003
447.8036, 72.97190
448.2857, 72.84097
448.7678, 72.63103
449.2499, 72.39922
449.7320, 72.20017
450.2141, 72.03438
450.6963, 71.89123
451.1784, 71.80669
451.6605, 71.70462
452.1426, 71.55655
452.6247, 71.38359
453.1068, 71.21087
453.5890, 71.04910
454.0711, 70.90370
454.5532, 70.77614
455.0353, 70.64603
455.5174, 70.60397
455.9995, 70.79279
456.4817, 70.96705
456.9638, 70.99136
457.4459, 70.87985
457.9280, 70.72808
458.4101, 70.56249
458.8922, 70.41045
459.3744, 70.39138
459.8565, 70.56638
460.3386, 70.67397
460.8207, 70.45892
461.3028, 70.16359
461.7849, 70.10889
462.2671, 70.40427
462.7492, 70.69798
463.2313, 70.73589
463.7134, 70.56999
464.1955, 70.33506
464.6776, 70.03170
465.1598, 69.75248
465.6419, 69.58394
466.1240, 69.52425
466.6061, 69.55599
467.0882, 69.80191
467.5703, 70.03280
468.0525, 70.07718
468.5346, 69.96696
469.0167, 69.81804
469.4988, 69.68031
469.9809, 69.55012
470.4630, 69.41384
470.9452, 69.21952
471.4273, 69.11648
471.9094, 69.20692
472.3915, 69.32226
472.8736, 69.31053
473.3557, 69.17573
473.8379, 69.04236
474.3200, 69.02949
474.8021, 69.12012
475.2842, 69.04466
475.7663, 68.54100
476.2484, 68.19603
476.7306, 68.21098
477.2127, 68.37453
477.6948, 68.46001
478.1769, 68.40142
478.6590, 68.29929
479.1411, 68.25829
479.6233, 68.27377
480.1054, 68.42442
480.5875, 69.00459
481.0696, 69.35696
481.5517, 68.98701
482.0338, 68.18291
482.5159, 67.55534
482.9980, 67.39561
483.4802, 67.48724
483.9623, 67.58290
484.4444, 67.68295
484.9265, 67.70020
485.4086, 67.58173
485.8907, 67.39165
486.3729, 67.22235
486.8550, 67.07737
487.3371, 66.88761
487.8192, 66.54088
488.3013, 66.18543
488.7834, 66.02396
489.2656, 66.05789
489.7477, 66.11333
490.2298, 66.08280
490.7119, 65.98203
491.1940, 65.88913
491.6761, 65.86694
492.1583, 65.76823
492.6404, 65.46771
493.1225, 65.12565
493.6046, 64.94401
494.0867, 64.95029
494.5688, 64.99966
495.0510, 64.93559
495.5331, 64.74795
496.0152, 64.58567
496.4973, 64.45874
496.9794, 64.34775
497.4615, 64.25614
497.9437, 64.17502
498.4258, 64.09155
498.9079, 64.00083
499.3900, 63.91567
499.8721, 63.86525
500.3542, 63.85902
500.8364, 63.81504
501.3185, 63.70150
501.8006, 63.57335
502.2827, 63.43686
502.7648, 63.31017
503.2469, 63.24090
503.7291, 63.29660
504.2112, 63.37314
504.6933, 63.31056
505.1754, 63.11383
505.6575, 62.91848
506.1396, 62.75704
506.6218, 62.63885
507.1039, 62.57504
507.5860, 62.56243
508.0681, 62.59951
508.5502, 62.76217
509.0323, 62.92560
509.5145, 62.95971
509.9966, 62.86651
510.4787, 62.70534
510.9608, 62.49389
511.4429, 62.26622
511.9250, 62.16588
512.4072, 62.25814
512.8893, 62.39247
513.3714, 62.64159
513.8535, 62.87543
514.3356, 62.96430
514.8177, 62.90639
515.2999, 62.80687
515.7820, 62.76594
516.2641, 62.77484
516.7462, 62.70093
517.2283, 62.41683
517.7104, 62.24675
518.1926, 62.34486
518.6747, 62.53901
519.1568, 62.65100
519.6389, 62.63921
520.1210, 62.60879
520.6031, 62.71460
521.0853, 62.91478
521.5674, 62.89221
522.0495, 62.51429
522.5316, 62.17149
523.0137, 62.22361
523.4958, 62.48812
523.9780, 62.61587
524.4601, 62.51670
524.9422, 62.33192
525.4243, 62.07659
525.9064, 61.81083
526.3885, 61.71165
526.8707, 61.83611
527.3528, 62.00140
527.8349, 61.99594
528.3170, 61.79340
528.7991, 61.64247
529.2813, 61.56829
529.7634, 61.51428
530.2455, 61.45152
530.7276, 61.39452
531.2097, 61.37234
531.6918, 61.39589
532.1740, 61.44592
532.6561, 61.50270
533.1382, 61.59058
533.6203, 61.60012
534.1024, 61.49816
534.5845, 61.34550
535.0667, 61.07621
535.5488, 60.78375
536.0309, 60.64619
536.5130, 60.76823
536.9951, 61.00988
537.4772, 61.20619
537.9594, 61.35938
538.4415, 61.33758
538.9236, 60.98584
539.4057, 60.62181
539.8878, 60.58227
540.3699, 60.80954
540.8521, 60.98911
541.3342, 61.03371
541.8163, 60.99570
542.2984, 60.86968
542.7805, 60.68977
543.2626, 60.57957
543.7448, 60.59281
544.2269, 60.68943
544.7090, 60.81574
545.1911, 61.03516
545.6732, 61.10003
546.1553, 60.86818
546.6375, 60.61694
547.1196, 60.45295
547.6017, 60.40016
548.0838, 60.49400
548.5659, 60.76031
549.0480, 61.12216
549.5302, 61.42022
550.0123, 61.66450
550.4944, 61.81038
550.9765, 61.79916
551.4586, 61.72833
551.9407, 61.57439
552.4229, 61.39263
552.9050, 61.34488
553.3871, 61.61924
553.8692, 61.95666
554.3513, 61.87604
554.8334, 61.38839
555.3156, 61.05753
555.7977, 61.12017
556.2798, 61.33497
556.7619, 61.37618
557.2440, 61.25005
557.7261, 61.13068
558.2083, 61.06224
558.6904, 61.00294
559.1725, 60.91554
559.6546, 60.80893
560.1367, 60.71430
560.6188, 60.64773
561.1010, 60.59585
561.5831, 60.53221
562.0652, 60.44781
562.5473, 60.37166
563.0294, 60.30562
563.5115, 60.24495
563.9937, 60.14389
564.4758, 60.05044
564.9579, 60.09228
565.4400, 60.36267
565.9221, 60.68448
566.4042, 60.67246
566.8864, 60.26571
567.3685, 60.03591
567.8506, 60.20006
568.3327, 60.43158
568.8148, 60.43300
569.2969, 60.27657
569.7791, 60.23920
570.2612, 60.59279
570.7433, 60.93879
571.2254, 60.84246
571.7075, 60.42054
572.1896, 60.09815
572.6718, 60.02367
573.1539, 60.04608
573.6360, 59.95183
574.1181, 59.68658
574.6002, 59.58747
575.0823, 59.76945
575.5645, 59.98452
576.0466, 60.16598
576.5287, 60.29738
577.0108, 60.34052
577.4929, 60.28547
577.9750, 60.22041
578.4572, 60.32628
578.9393, 60.66270
579.4214, 60.74465
579.9035, 60.29934
580.3856, 59.94096
580.8677, 60.07393
581.3499, 60.42675
581.8320, 60.53274
582.3141, 60.19001
582.7962, 59.80602
583.2783, 59.81780
583.7604, 60.08549
584.2426, 60.13586
584.7247, 59.86181
585.2068, 59.53946
585.6889, 59.38043
586.1710, 59.37941
586.6531, 59.43784
587.1352, 59.57801
587.6173, 59.74535
588.0994, 59.99743
588.5815, 60.23022
