##NAMES=Spinel
##RRUFFID=R050392
##IDEAL CHEMISTRY=MgAl_2_O_4_
##LOCALITY=Mogok, Burma
##OWNER=RRUFF
##SOURCE=Eric Van Valkenburg
##DESCRIPTION=Pink octahedron
##STATUS=The identification of this mineral has been confirmed by X-ray diffraction and chemical analysis
##URL=rruff.info/R050392
##MEASURED CHEMISTRY=Mg_1.00_Al_1.96_Cr_0.04_O_4_
91.00781, 14856.47
91.48993, 14875.43
91.97205, 14883.47
92.45416, 14870.16
92.93628, 14846.38
93.41840, 14837.84
93.90051, 14852.79
94.38263, 14877.17
94.86475, 14890.60
95.34686, 14893.10
95.82898, 14886.72
96.31110, 14867.60
96.79321, 14837.39
97.27533, 14814.29
97.75745, 14802.98
98.23956, 14801.95
98.72168, 14807.88
99.20380, 14822.71
99.68591, 14838.23
100.1680, 14844.71
100.6501, 14840.31
101.1323, 14835.48
101.6144, 14832.88
102.0965, 14832.55
102.5786, 14834.17
103.0607, 14838.66
103.5428, 14844.30
104.0250, 14848.56
104.5071, 14851.89
104.9892, 14852.97
105.4713, 14851.02
105.9534, 14844.45
106.4355, 14838.14
106.9177, 14830.14
107.3998, 14822.29
107.8819, 14820.29
108.3640, 14826.92
108.8461, 14837.16
109.3282, 14848.90
109.8104, 14866.77
110.2925, 14880.58
110.7746, 14888.43
111.2567, 14890.93
111.7388, 14893.19
112.2209, 14896.80
112.7031, 14899.74
113.1852, 14900.65
113.6673, 14893.41
114.1494, 14889.69
114.6315, 14892.68
115.1136, 14902.60
115.5958, 14916.21
116.0779, 14940.45
116.5600, 14965.47
117.0421, 14980.18
117.5242, 14971.25
118.0063, 14958.27
118.4885, 14950.46
118.9706, 14948.58
119.4527, 14952.37
119.9348, 14967.55
120.4169, 14988.14
120.8990, 15003.43
121.3812, 15000.76
121.8633, 14993.58
122.3454, 14995.64
122.8275, 15011.65
123.3096, 15030.36
123.7917, 15042.68
124.2739, 15049.56
124.7560, 15054.47
125.2381, 15058.84
125.7202, 15062.83
126.2023, 15066.51
126.6844, 15069.34
127.1666, 15072.59
127.6487, 15078.33
128.1308, 15086.49
128.6129, 15095.38
129.0950, 15106.77
129.5771, 15118.63
130.0593, 15123.05
130.5414, 15113.47
131.0235, 15096.59
131.5056, 15032.30
131.9877, 14999.39
132.4698, 14858.83
132.9520, 14725.46
133.4341, 14599.10
133.9162, 14472.01
134.3983, 14338.78
134.8804, 14202.47
135.3625, 14083.29
135.8447, 13983.73
136.3268, 13894.14
136.8089, 13797.84
137.2910, 13692.06
137.7731, 13593.80
138.2552, 13510.77
138.7374, 13445.34
139.2195, 13374.95
139.7016, 13295.23
140.1837, 13212.95
140.6658, 13144.47
141.1479, 13092.24
141.6301, 13044.89
142.1122, 12996.29
142.5943, 12943.52
143.0764, 12895.96
143.5585, 12856.31
144.0406, 12821.09
144.5228, 12776.09
145.0049, 12715.29
145.4870, 12652.70
145.9691, 12596.84
146.4512, 12550.91
146.9333, 12505.54
147.4155, 12459.10
147.8976, 12411.85
148.3797, 12369.81
148.8618, 12338.83
149.3439, 12308.55
149.8260, 12272.29
150.3082, 12216.79
150.7903, 12169.54
151.2724, 12136.01
151.7545, 12116.68
152.2366, 12090.88
152.7188, 12048.62
153.2009, 12003.61
153.6830, 11967.31
154.1651, 11948.29
154.6472, 11930.00
155.1293, 11910.62
155.6115, 11890.43
156.0936, 11864.34
156.5757, 11827.37
157.0578, 11785.55
157.5399, 11746.04
158.0220, 11714.03
158.5042, 11681.80
158.9863, 11645.12
159.4684, 11601.57
159.9505, 11564.71
160.4326, 11544.14
160.9147, 11532.45
161.3969, 11518.50
161.8790, 11497.34
162.3611, 11473.89
162.8432, 11450.28
163.3253, 11426.67
163.8074, 11403.85
164.2896, 11380.81
164.7717, 11358.57
165.2538, 11339.33
165.7359, 11328.37
166.2180, 11317.90
166.7001, 11300.62
167.1823, 11271.41
167.6644, 11243.78
168.1465, 11229.19
168.6286, 11223.48
169.1107, 11215.09
169.5928, 11195.17
170.0750, 11170.46
170.5571, 11147.09
171.0392, 11125.66
171.5213, 11107.90
172.0034, 11098.40
172.4855, 11095.28
172.9677, 11090.14
173.4498, 11076.15
173.9319, 11057.26
174.4140, 11039.12
174.8961, 11023.55
175.3782, 11008.91
175.8604, 10991.13
176.3425, 10970.85
176.8246, 10954.17
177.3067, 10949.47
177.7888, 10951.28
178.2709, 10948.64
178.7531, 10938.40
179.2352, 10921.98
179.7173, 10897.27
180.1994, 10864.63
180.6815, 10836.30
181.1636, 10827.47
181.6458, 10832.51
182.1279, 10834.89
182.6100, 10827.70
183.0921, 10815.15
183.5742, 10806.09
184.0563, 10800.85
184.5385, 10795.23
185.0206, 10783.39
185.5027, 10766.74
185.9848, 10752.87
186.4669, 10746.05
186.9490, 10743.61
187.4312, 10737.66
187.9133, 10728.17
188.3954, 10715.78
188.8775, 10698.79
189.3596, 10678.06
189.8417, 10661.54
190.3239, 10655.75
190.8060, 10657.70
191.2881, 10650.81
191.7702, 10633.55
192.2523, 10614.17
192.7344, 10605.08
193.2166, 10606.39
193.6987, 10604.54
194.1808, 10591.79
194.6629, 10569.49
195.1450, 10553.04
195.6271, 10543.59
196.1093, 10537.09
196.5914, 10527.08
197.0735, 10513.10
197.5556, 10500.61
198.0377, 10492.71
198.5198, 10489.33
199.0020, 10483.76
199.4841, 10475.06
199.9662, 10465.58
200.4483, 10460.00
200.9304, 10459.13
201.4125, 10456.65
201.8947, 10448.36
202.3768, 10433.50
202.8589, 10423.18
203.3410, 10418.94
203.8231, 10417.34
204.3052, 10411.17
204.7874, 10398.99
205.2695, 10388.56
205.7516, 10385.86
206.2337, 10393.43
206.7158, 10390.51
207.1979, 10373.56
207.6801, 10349.32
208.1622, 10332.04
208.6443, 10323.15
209.1264, 10316.46
209.6085, 10308.87
210.0906, 10299.56
210.5728, 10293.29
211.0549, 10290.99
211.5370, 10291.21
212.0191, 10291.34
212.5012, 10292.44
212.9833, 10291.14
213.4655, 10284.50
213.9476, 10269.48
214.4297, 10260.93
214.9118, 10261.17
215.3939, 10267.09
215.8760, 10271.00
216.3581, 10272.16
216.8403, 10272.64
217.3224, 10273.99
217.8045, 10277.88
218.2866, 10276.23
218.7687, 10265.01
219.2508, 10249.32
219.7330, 10243.88
220.2151, 10251.97
220.6972, 10263.59
221.1793, 10274.63
221.6614, 10286.55
222.1435, 10293.35
222.6257, 10293.90
223.1078, 10289.52
223.5899, 10283.91
224.0720, 10277.50
224.5541, 10269.31
225.0362, 10258.21
225.5184, 10242.12
226.0005, 10229.28
226.4826, 10221.64
226.9647, 10217.14
227.4468, 10209.09
227.9289, 10195.09
228.4111, 10181.81
228.8932, 10172.68
229.3753, 10170.01
229.8574, 10166.46
230.3395, 10161.69
230.8216, 10156.17
231.3038, 10151.24
231.7859, 10147.87
232.2680, 10143.55
232.7501, 10136.42
233.2322, 10122.83
233.7143, 10114.31
234.1965, 10110.82
234.6786, 10112.29
235.1607, 10119.21
235.6428, 10135.36
236.1249, 10151.15
236.6070, 10162.75
237.0892, 10170.67
237.5713, 10172.38
238.0534, 10165.09
238.5355, 10152.18
239.0176, 10142.41
239.4997, 10136.67
239.9819, 10132.57
240.4640, 10129.33
240.9461, 10127.52
241.4282, 10125.16
241.9103, 10121.58
242.3924, 10117.77
242.8746, 10116.80
243.3567, 10123.07
243.8388, 10125.70
244.3209, 10118.95
244.8030, 10096.79
245.2851, 10082.33
245.7673, 10078.90
246.2494, 10081.95
246.7315, 10081.37
247.2136, 10074.47
247.6957, 10068.34
248.1778, 10066.03
248.6600, 10069.11
249.1421, 10071.33
249.6242, 10072.33
250.1063, 10072.65
250.5884, 10073.46
251.0705, 10075.03
251.5527, 10076.45
252.0348, 10077.48
252.5169, 10078.29
252.9990, 10077.46
253.4811, 10072.85
253.9632, 10067.82
254.4454, 10069.40
254.9275, 10082.72
255.4096, 10092.66
255.8917, 10093.05
256.3738, 10081.11
256.8560, 10072.34
257.3381, 10067.09
257.8202, 10064.66
258.3023, 10064.37
258.7844, 10067.70
259.2665, 10070.06
259.7487, 10069.43
260.2308, 10064.99
260.7129, 10064.18
261.1950, 10070.29
261.6771, 10076.45
262.1592, 10071.54
262.6414, 10049.88
263.1235, 10031.81
263.6056, 10024.71
264.0877, 10029.56
264.5698, 10028.56
265.0519, 10017.48
265.5341, 10006.31
266.0162, 10008.58
266.4983, 10029.62
266.9804, 10047.70
267.4625, 10057.69
267.9446, 10059.63
268.4268, 10057.71
268.9089, 10051.11
269.3910, 10042.24
269.8731, 10033.17
270.3552, 10023.72
270.8373, 10014.51
271.3195, 10003.92
271.8016, 9992.818
272.2837, 9992.168
272.7658, 10006.18
273.2479, 10021.02
273.7300, 10021.92
274.2122, 10005.88
274.6943, 9995.194
275.1764, 9996.306
275.6585, 10006.39
276.1406, 10009.98
276.6227, 10005.96
277.1049, 9999.486
277.5870, 9993.195
278.0691, 9986.678
278.5512, 9986.392
279.0333, 9995.837
279.5154, 10010.99
279.9976, 10018.52
280.4797, 10017.85
280.9618, 10012.42
281.4439, 10001.23
281.9260, 9984.146
282.4081, 9976.062
282.8903, 9981.209
283.3724, 9993.669
283.8545, 9999.158
284.3366, 9997.123
284.8187, 9993.794
285.3008, 9991.791
285.7830, 9991.346
286.2651, 9996.533
286.7472, 10009.75
287.2293, 10024.88
287.7114, 10029.98
288.1935, 10025.07
288.6757, 10018.05
289.1578, 10013.36
289.6399, 10010.32
290.1220, 10004.87
290.6041, 9995.654
291.0862, 9987.327
291.5684, 9988.111
292.0505, 9997.093
292.5326, 10005.70
293.0147, 10009.49
293.4968, 10009.70
293.9789, 10010.21
294.4611, 10011.31
294.9432, 10011.97
295.4253, 10011.03
295.9074, 10008.68
296.3895, 10005.61
296.8716, 10001.09
297.3538, 9996.322
297.8359, 9994.931
298.3180, 9997.138
298.8001, 9997.936
299.2822, 9988.329
299.7643, 9973.182
300.2465, 9965.532
300.7286, 9974.572
301.2107, 9990.516
301.6928, 10000.90
302.1749, 10005.84
302.6570, 10008.24
303.1392, 10010.72
303.6213, 10012.15
304.1034, 10009.90
304.5855, 9999.430
305.0676, 9989.560
305.5497, 9989.670
306.0319, 9998.607
306.5140, 10010.36
306.9961, 10023.14
307.4782, 10035.54
307.9603, 10045.58
308.4424, 10051.22
308.9246, 10057.02
309.4067, 10066.79
309.8888, 10079.49
310.3709, 10092.49
310.8530, 10107.87
311.3351, 10120.80
311.8173, 10126.93
312.2994, 10124.92
312.7815, 10118.33
313.2636, 10108.21
313.7457, 10095.25
314.2278, 10080.50
314.7100, 10065.77
315.1921, 10048.72
315.6742, 10026.50
316.1563, 9997.830
316.6384, 9971.482
317.1205, 9951.699
317.6027, 9936.759
318.0848, 9924.600
318.5669, 9916.445
319.0490, 9909.243
319.5311, 9901.383
320.0132, 9892.659
320.4954, 9885.534
320.9775, 9882.594
321.4596, 9880.571
321.9417, 9876.740
322.4238, 9865.033
322.9059, 9857.088
323.3881, 9859.173
323.8702, 9869.999
324.3523, 9874.021
324.8344, 9863.451
325.3165, 9849.213
325.7986, 9837.709
326.2808, 9829.166
326.7629, 9823.872
327.2450, 9823.699
327.7271, 9827.353
328.2092, 9829.596
328.6913, 9828.383
329.1735, 9827.541
329.6556, 9828.427
330.1377, 9830.701
330.6198, 9835.400
331.1019, 9845.635
331.5840, 9857.188
332.0662, 9861.975
332.5483, 9855.795
333.0304, 9848.530
333.5125, 9843.458
333.9946, 9841.135
334.4767, 9836.786
334.9589, 9828.239
335.4410, 9819.751
335.9231, 9817.219
336.4052, 9822.784
336.8873, 9829.018
337.3694, 9834.932
337.8516, 9840.443
338.3336, 9842.525
338.8158, 9840.178
339.2979, 9836.942
339.7800, 9837.935
340.2621, 9845.013
340.7442, 9843.416
341.2263, 9827.574
341.7085, 9803.007
342.1906, 9789.353
342.6727, 9787.692
343.1548, 9789.526
343.6369, 9788.485
344.1190, 9784.896
344.6012, 9785.618
345.0833, 9792.510
345.5654, 9801.485
346.0475, 9803.957
346.5296, 9800.344
347.0117, 9798.718
347.4939, 9805.339
347.9760, 9817.389
348.4581, 9825.893
348.9402, 9830.020
349.4223, 9832.731
349.9044, 9838.069
350.3866, 9845.057
350.8687, 9850.372
351.3508, 9852.338
351.8329, 9852.057
352.3150, 9850.756
352.7971, 9848.473
353.2793, 9846.304
353.7614, 9844.455
354.2435, 9843.387
354.7256, 9843.657
355.2077, 9844.500
355.6898, 9847.828
356.1720, 9859.072
356.6541, 9875.678
357.1362, 9886.788
357.6183, 9882.010
358.1004, 9871.256
358.5826, 9863.604
359.0647, 9861.967
359.5468, 9860.357
360.0289, 9854.466
360.5110, 9846.390
360.9931, 9840.101
361.4753, 9841.680
361.9574, 9841.912
362.4395, 9833.404
362.9216, 9813.042
363.4037, 9800.194
363.8858, 9809.309
364.3680, 9825.541
364.8501, 9833.307
365.3322, 9820.193
365.8143, 9807.828
366.2964, 9801.092
366.7785, 9800.127
367.2607, 9801.853
367.7428, 9809.670
368.2249, 9817.822
368.7070, 9822.718
369.1891, 9815.706
369.6712, 9817.152
370.1534, 9834.865
370.6355, 9861.574
371.1176, 9874.091
371.5997, 9862.973
372.0818, 9849.248
372.5639, 9840.597
373.0461, 9837.475
373.5282, 9837.510
374.0103, 9842.245
374.4924, 9848.346
374.9745, 9850.182
375.4566, 9845.922
375.9388, 9843.391
376.4209, 9846.449
376.9030, 9854.529
377.3851, 9855.172
377.8672, 9846.670
378.3493, 9837.055
378.8315, 9833.732
379.3136, 9836.906
379.7957, 9843.829
380.2778, 9855.175
380.7599, 9869.107
381.2420, 9883.077
381.7242, 9896.854
382.2063, 9905.983
382.6884, 9902.350
383.1705, 9890.672
383.6526, 9888.036
384.1347, 9896.577
384.6169, 9911.106
385.0990, 9927.474
385.5811, 9944.740
386.0632, 9959.444
386.5453, 9968.021
387.0274, 9973.988
387.5096, 9980.071
387.9917, 9986.411
388.4738, 9997.904
388.9559, 10023.51
389.4380, 10054.96
389.9201, 10081.48
390.4023, 10097.37
390.8844, 10109.91
391.3665, 10120.01
391.8486, 10129.84
392.3307, 10146.86
392.8128, 10179.67
393.2950, 10217.50
393.7771, 10252.88
394.2592, 10282.41
394.7413, 10314.67
395.2234, 10356.37
395.7055, 10401.30
396.1877, 10439.91
396.6698, 10455.39
397.1519, 10478.20
397.6340, 10520.97
398.1161, 10586.75
398.5982, 10648.55
399.0804, 10700.32
399.5625, 10750.38
400.0446, 10804.59
400.5267, 10863.17
401.0088, 10926.54
401.4909, 10995.74
401.9731, 11069.90
402.4552, 11144.24
402.9373, 11219.69
403.4194, 11294.06
403.9015, 11365.95
404.3836, 11434.43
404.8658, 11507.12
405.3479, 11591.51
405.8300, 11668.62
406.3121, 11710.85
406.7942, 11716.31
407.2763, 11698.55
407.7585, 11660.29
408.2406, 11601.69
408.7227, 11523.71
409.2048, 11425.71
409.6869, 11316.29
410.1690, 11198.52
410.6512, 11075.28
411.1333, 10954.75
411.6154, 10836.74
412.0975, 10725.34
412.5796, 10621.87
413.0617, 10527.85
413.5439, 10448.39
414.0260, 10394.80
414.5081, 10353.51
414.9902, 10305.20
415.4723, 10247.53
415.9544, 10190.80
416.4366, 10142.28
416.9187, 10100.81
417.4008, 10064.73
417.8829, 10035.17
418.3650, 10008.94
418.8471, 9981.956
419.3293, 9955.554
419.8114, 9936.362
420.2935, 9935.283
420.7756, 9937.369
421.2577, 9932.216
421.7398, 9913.476
422.2220, 9896.507
422.7041, 9885.249
423.1862, 9877.739
423.6683, 9870.322
424.1504, 9862.088
424.6325, 9854.286
425.1147, 9848.370
425.5968, 9844.975
426.0789, 9836.768
426.5610, 9818.547
427.0431, 9800.240
427.5252, 9790.783
428.0074, 9795.184
428.4895, 9796.177
428.9716, 9789.430
429.4537, 9778.752
429.9358, 9778.357
430.4179, 9791.778
430.9001, 9802.705
431.3822, 9800.838
431.8643, 9785.916
432.3464, 9776.003
432.8285, 9771.959
433.3106, 9770.339
433.7928, 9767.033
434.2749, 9762.242
434.7570, 9757.552
435.2391, 9753.174
435.7212, 9749.464
436.2033, 9748.144
436.6855, 9748.926
437.1676, 9748.305
437.6497, 9740.981
438.1318, 9731.571
438.6139, 9727.900
439.0960, 9732.506
439.5782, 9738.229
440.0603, 9740.166
440.5424, 9738.918
441.0245, 9735.635
441.5066, 9726.705
441.9887, 9719.184
442.4709, 9718.466
442.9530, 9724.364
443.4351, 9729.247
443.9172, 9729.556
444.3993, 9727.951
444.8814, 9726.260
445.3636, 9723.479
445.8457, 9722.194
446.3278, 9725.463
446.8099, 9730.459
447.2920, 9730.149
447.7741, 9717.528
448.2563, 9707.434
448.7384, 9705.301
449.2205, 9712.518
449.7026, 9717.201
450.1847, 9719.476
450.6668, 9719.266
451.1490, 9715.420
451.6311, 9706.127
452.1132, 9700.959
452.5953, 9702.584
453.0774, 9708.300
453.5595, 9710.348
454.0417, 9708.256
454.5238, 9706.581
455.0059, 9707.678
455.4880, 9711.182
455.9701, 9715.636
456.4522, 9720.928
456.9344, 9727.076
457.4165, 9737.412
457.8986, 9748.955
458.3807, 9752.377
458.8628, 9739.338
459.3449, 9723.002
459.8271, 9719.209
460.3092, 9725.703
460.7913, 9732.605
461.2734, 9734.862
461.7555, 9734.619
462.2376, 9733.247
462.7198, 9730.591
463.2019, 9728.529
463.6840, 9727.681
464.1661, 9727.931
464.6482, 9729.142
465.1303, 9731.454
465.6125, 9734.308
466.0946, 9737.080
466.5767, 9739.932
467.0588, 9744.544
467.5409, 9757.041
468.0230, 9766.083
468.5052, 9765.863
468.9873, 9750.815
469.4694, 9740.510
469.9515, 9735.643
470.4336, 9735.082
470.9157, 9737.829
471.3979, 9744.893
471.8800, 9752.448
472.3621, 9760.755
472.8442, 9768.756
473.3263, 9770.358
473.8084, 9764.821
474.2906, 9758.533
474.7727, 9755.423
475.2548, 9755.248
475.7369, 9757.494
476.2190, 9762.378
476.7011, 9768.240
477.1833, 9774.479
477.6654, 9780.265
478.1475, 9783.354
478.6296, 9780.742
479.1117, 9776.460
479.5938, 9774.293
480.0760, 9774.111
480.5581, 9774.975
481.0402, 9777.178
481.5223, 9779.748
482.0044, 9782.269
482.4865, 9785.467
482.9687, 9786.545
483.4508, 9781.379
483.9329, 9774.375
484.4150, 9771.849
484.8971, 9779.057
485.3792, 9786.396
485.8614, 9792.421
486.3435, 9797.068
486.8256, 9798.916
487.3077, 9794.919
487.7898, 9791.679
488.2719, 9793.107
488.7541, 9800.946
489.2362, 9808.147
489.7183, 9815.523
490.2004, 9821.114
490.6825, 9821.487
491.1646, 9816.182
491.6468, 9809.438
492.1289, 9800.380
492.6110, 9791.790
493.0931, 9793.917
493.5752, 9806.609
494.0573, 9818.098
494.5395, 9816.593
495.0216, 9808.369
495.5037, 9807.578
495.9858, 9816.967
496.4679, 9827.592
496.9500, 9830.357
497.4322, 9829.012
497.9143, 9829.697
498.3964, 9839.910
498.8785, 9848.402
499.3606, 9846.284
499.8427, 9836.007
500.3249, 9829.025
500.8070, 9832.570
501.2891, 9837.885
501.7712, 9840.099
502.2533, 9836.943
502.7354, 9835.822
503.2176, 9840.443
503.6997, 9845.646
504.1818, 9845.713
504.6639, 9835.744
505.1460, 9829.279
505.6281, 9827.764
506.1103, 9831.023
506.5924, 9840.362
507.0745, 9858.158
507.5566, 9873.192
508.0387, 9878.459
508.5208, 9874.455
509.0030, 9871.408
509.4851, 9869.302
509.9672, 9868.396
510.4493, 9871.573
510.9314, 9876.732
511.4135, 9875.521
511.8957, 9862.666
512.3778, 9848.656
512.8599, 9846.296
513.3420, 9853.154
513.8242, 9861.820
514.3063, 9873.285
514.7884, 9881.936
515.2705, 9881.934
515.7526, 9872.887
516.2347, 9863.709
516.7169, 9853.271
517.1990, 9846.698
517.6811, 9848.156
518.1632, 9868.183
518.6453, 9882.467
519.1274, 9884.636
519.6096, 9880.057
520.0917, 9878.465
520.5738, 9881.343
521.0559, 9884.451
521.5380, 9885.955
522.0201, 9886.182
522.5023, 9891.990
522.9844, 9905.858
523.4665, 9918.545
523.9486, 9920.596
524.4307, 9912.911
524.9128, 9915.205
525.3950, 9931.224
525.8771, 9949.566
526.3592, 9953.900
526.8413, 9947.271
527.3234, 9941.074
527.8055, 9940.627
528.2877, 9941.422
528.7698, 9936.326
529.2519, 9927.170
529.7340, 9921.692
530.2161, 9928.203
530.6982, 9937.437
531.1804, 9942.646
531.6625, 9942.562
532.1446, 9941.104
532.6267, 9937.688
533.1088, 9934.607
533.5909, 9934.033
534.0731, 9939.248
534.5552, 9943.531
535.0373, 9945.589
535.5194, 9946.612
536.0015, 9949.734
536.4836, 9955.562
536.9658, 9962.157
537.4479, 9969.191
537.9300, 9976.474
538.4121, 9981.890
538.8942, 9985.178
539.3763, 9986.960
539.8585, 9986.814
540.3406, 9985.189
540.8227, 9985.066
541.3048, 9986.862
541.7869, 9989.848
542.2690, 9994.382
542.7512, 9999.454
543.2333, 10002.53
543.7154, 10000.62
544.1975, 9997.955
544.6796, 9997.749
545.1617, 9999.752
545.6439, 10002.76
546.1260, 10008.16
546.6081, 10012.98
547.0902, 10015.79
547.5723, 10016.68
548.0544, 10014.68
548.5366, 10004.99
549.0187, 9995.104
549.5008, 9991.633
549.9829, 9997.577
550.4650, 10004.97
550.9471, 10015.12
551.4293, 10025.34
551.9114, 10028.25
552.3935, 10022.10
552.8756, 10017.39
553.3577, 10018.77
553.8398, 10024.86
554.3220, 10029.58
554.8041, 10032.96
555.2862, 10034.87
555.7683, 10034.02
556.2504, 10031.89
556.7325, 10030.80
557.2147, 10030.63
557.6968, 10033.88
558.1789, 10046.56
558.6610, 10063.04
559.1431, 10074.93
559.6252, 10078.00
560.1074, 10077.04
560.5895, 10070.72
561.0716, 10061.18
561.5537, 10055.84
562.0358, 10058.55
562.5179, 10063.31
563.0001, 10068.50
563.4822, 10074.24
563.9643, 10078.79
564.4464, 10081.68
564.9285, 10084.15
565.4106, 10088.04
565.8928, 10094.33
566.3749, 10094.89
566.8570, 10087.19
567.3391, 10077.94
567.8212, 10078.06
568.3033, 10086.50
568.7855, 10095.86
569.2676, 10105.81
569.7497, 10113.15
570.2318, 10109.85
570.7139, 10098.61
571.1960, 10091.09
571.6782, 10098.71
572.1603, 10109.84
572.6424, 10113.25
573.1245, 10107.30
573.6066, 10105.92
574.0887, 10119.53
574.5709, 10136.85
575.0530, 10149.27
575.5351, 10155.90
576.0172, 10157.22
576.4993, 10149.17
576.9814, 10137.94
577.4636, 10134.31
577.9457, 10141.83
578.4278, 10147.47
578.9099, 10147.22
579.3920, 10143.03
579.8741, 10140.85
580.3563, 10140.40
580.8384, 10145.76
581.3205, 10166.74
581.8026, 10195.11
582.2847, 10202.02
582.7668, 10186.25
583.2490, 10171.57
583.7311, 10183.35
584.2132, 10206.04
584.6953, 10219.02
585.1774, 10214.08
585.6595, 10206.79
586.1416, 10201.34
586.6237, 10199.71
587.1058, 10204.77
587.5880, 10230.56
588.0701, 10248.56
588.5522, 10247.08
589.0343, 10231.08
