##NAMES=Spinel
##RRUFFID=R050392
##IDEAL CHEMISTRY=MgAl_2_O_4_
##LOCALITY=Mogok, Burma
##OWNER=RRUFF
##SOURCE=Eric Van Valkenburg
##DESCRIPTION=Pink octahedron
##STATUS=The identification of this mineral has been confirmed by X-ray diffraction and chemical analysis
##URL=rruff.info/R050392
##MEASURED CHEMISTRY=Mg_1.00_Al_1.96_Cr_0.04_O_4_
93.30109, 0.0000000E+00
93.78320, 1580.092
94.26532, 1569.707
94.74744, 1575.611
95.22955, 1593.979
95.71167, 1620.130
96.19379, 1638.314
96.67590, 1651.381
97.15802, 1660.642
97.64014, 1665.614
98.12225, 1667.161
98.60437, 1666.864
99.08649, 1665.619
99.56860, 1663.432
100.0507, 1660.088
100.5328, 1652.700
101.0150, 1644.478
101.4971, 1638.611
101.9792, 1635.335
102.4613, 1630.914
102.9434, 1621.163
103.4255, 1610.555
103.9077, 1602.281
104.3898, 1597.266
104.8719, 1594.748
105.3540, 1593.357
105.8361, 1593.391
106.3182, 1593.895
106.8004, 1595.230
107.2825, 1596.592
107.7646, 1596.921
108.2467, 1595.502
108.7288, 1592.381
109.2109, 1588.554
109.6931, 1583.045
110.1752, 1577.689
110.6573, 1572.533
111.1394, 1567.815
111.6215, 1564.041
112.1036, 1561.795
112.5858, 1561.327
113.0679, 1560.349
113.5500, 1558.113
114.0321, 1555.902
114.5142, 1555.026
114.9964, 1555.679
115.4785, 1556.251
115.9606, 1554.452
116.4427, 1550.424
116.9248, 1546.837
117.4069, 1544.464
117.8891, 1542.931
118.3712, 1541.487
118.8533, 1540.042
119.3354, 1538.568
119.8175, 1537.141
120.2996, 1535.731
120.7818, 1534.067
121.2639, 1531.640
121.7460, 1528.393
122.2281, 1525.844
122.7102, 1524.566
123.1923, 1523.917
123.6745, 1524.152
124.1566, 1525.165
124.6387, 1525.827
125.1208, 1524.103
125.6029, 1517.839
126.0850, 1513.809
126.5672, 1514.568
127.0493, 1516.245
127.5314, 1515.309
128.0135, 1510.408
128.4956, 1503.289
128.9777, 1498.769
129.4599, 1499.589
129.9420, 1500.252
130.4241, 1500.577
130.9062, 1500.489
131.3883, 1500.005
131.8704, 1499.183
132.3526, 1497.901
132.8347, 1495.437
133.3168, 1490.428
133.7989, 1485.874
134.2810, 1483.238
134.7632, 1482.277
135.2453, 1481.603
135.7274, 1480.242
136.2095, 1478.516
136.6916, 1477.511
137.1737, 1477.848
137.6559, 1478.578
138.1380, 1478.946
138.6201, 1479.051
139.1022, 1478.293
139.5843, 1475.696
140.0664, 1472.055
140.5486, 1468.382
141.0307, 1464.649
141.5128, 1461.221
141.9949, 1459.444
142.4770, 1460.595
142.9591, 1461.545
143.4413, 1460.840
143.9234, 1459.011
144.4055, 1457.064
144.8876, 1455.828
145.3697, 1455.314
145.8518, 1454.061
146.3340, 1450.507
146.8161, 1447.572
147.2982, 1446.623
147.7803, 1447.235
148.2624, 1448.019
148.7445, 1447.609
149.2267, 1445.786
149.7088, 1443.555
150.1909, 1440.543
150.6730, 1437.510
151.1551, 1434.668
151.6372, 1432.134
152.1194, 1430.181
152.6015, 1429.194
153.0836, 1429.656
153.5657, 1429.930
154.0478, 1430.026
154.5299, 1429.929
155.0121, 1429.703
155.4942, 1429.383
155.9763, 1428.742
156.4584, 1427.322
156.9405, 1425.147
157.4226, 1422.647
157.9048, 1419.535
158.3869, 1416.186
158.8690, 1413.409
159.3511, 1411.450
159.8332, 1410.099
160.3153, 1408.943
160.7975, 1407.946
161.2796, 1407.440
161.7617, 1408.465
162.2438, 1410.784
162.7259, 1411.065
163.2081, 1406.497
163.6902, 1401.203
164.1723, 1398.410
164.6544, 1398.396
165.1365, 1399.256
165.6186, 1399.223
166.1008, 1398.366
166.5829, 1396.273
167.0650, 1391.178
167.5471, 1385.961
168.0292, 1382.536
168.5113, 1381.357
168.9935, 1381.417
169.4756, 1381.071
169.9577, 1380.019
170.4398, 1379.128
170.9219, 1378.465
171.4040, 1377.959
171.8862, 1377.592
172.3683, 1377.348
172.8504, 1377.158
173.3325, 1376.885
173.8146, 1377.835
174.2967, 1376.946
174.7789, 1372.102
175.2610, 1366.040
175.7431, 1362.160
176.2252, 1362.028
176.7073, 1364.480
177.1894, 1365.706
177.6716, 1365.731
178.1537, 1364.717
178.6358, 1361.785
179.1179, 1357.855
179.6000, 1354.663
180.0821, 1353.125
180.5643, 1352.858
181.0464, 1352.635
181.5285, 1352.719
182.0106, 1352.485
182.4927, 1351.722
182.9748, 1350.424
183.4570, 1348.471
183.9391, 1345.458
184.4212, 1341.948
184.9033, 1339.124
185.3854, 1337.040
185.8675, 1335.580
186.3497, 1335.116
186.8318, 1335.698
187.3139, 1335.495
187.7960, 1332.503
188.2781, 1328.816
188.7602, 1326.914
189.2424, 1327.714
189.7245, 1329.399
190.2066, 1329.509
190.6887, 1327.580
191.1708, 1325.744
191.6530, 1324.622
192.1351, 1323.983
192.6172, 1323.840
193.0993, 1324.299
193.5814, 1324.861
194.0635, 1324.420
194.5457, 1322.347
195.0278, 1320.496
195.5099, 1319.404
195.9920, 1318.630
196.4741, 1317.808
196.9562, 1316.782
197.4384, 1315.534
197.9205, 1313.927
198.4026, 1311.074
198.8847, 1309.155
199.3668, 1309.083
199.8489, 1309.807
200.3311, 1310.203
200.8132, 1309.709
201.2953, 1308.469
201.7774, 1307.057
202.2595, 1305.135
202.7416, 1303.414
203.2238, 1302.225
203.7059, 1301.220
204.1880, 1299.818
204.6701, 1297.683
205.1522, 1295.049
205.6343, 1292.983
206.1165, 1291.545
206.5986, 1290.491
207.0807, 1289.909
207.5628, 1289.669
208.0449, 1289.625
208.5270, 1289.773
209.0092, 1289.956
209.4913, 1289.500
209.9734, 1288.129
210.4555, 1286.615
210.9376, 1285.352
211.4197, 1284.182
211.9019, 1282.502
212.3840, 1279.715
212.8661, 1276.535
213.3482, 1274.991
213.8303, 1276.280
214.3124, 1277.191
214.7946, 1275.391
215.2767, 1271.388
215.7588, 1268.046
216.2409, 1266.992
216.7230, 1267.104
217.2052, 1266.151
217.6873, 1263.762
218.1694, 1261.057
218.6515, 1258.765
219.1336, 1256.874
219.6157, 1255.276
220.0979, 1253.859
220.5800, 1252.806
221.0621, 1252.371
221.5442, 1252.689
222.0263, 1253.202
222.5084, 1253.615
222.9906, 1253.996
223.4727, 1253.506
223.9548, 1251.217
224.4369, 1248.294
224.9190, 1245.375
225.4011, 1242.535
225.8833, 1240.090
226.3654, 1238.621
226.8475, 1238.427
227.3296, 1237.768
227.8117, 1235.631
228.2938, 1233.324
228.7760, 1231.884
229.2581, 1231.464
229.7402, 1231.103
230.2223, 1229.248
230.7044, 1225.080
231.1865, 1222.044
231.6687, 1221.986
232.1508, 1222.055
232.6329, 1220.126
233.1150, 1215.960
233.5971, 1211.285
234.0792, 1208.574
234.5614, 1208.660
235.0435, 1208.759
235.5256, 1209.539
236.0077, 1209.798
236.4898, 1208.338
236.9719, 1205.187
237.4541, 1201.685
237.9362, 1199.720
238.4183, 1200.096
238.9004, 1200.143
239.3825, 1199.809
239.8646, 1199.249
240.3468, 1198.599
240.8289, 1197.852
241.3110, 1196.859
241.7931, 1195.373
242.2752, 1193.117
242.7573, 1191.174
243.2395, 1189.482
243.7216, 1188.085
244.2037, 1187.113
244.6858, 1186.531
245.1679, 1186.059
245.6501, 1185.345
246.1322, 1184.202
246.6143, 1183.686
247.0964, 1184.639
247.5785, 1185.524
248.0606, 1185.269
248.5428, 1183.826
249.0249, 1181.819
249.5070, 1179.695
249.9891, 1177.367
250.4712, 1176.049
250.9533, 1176.616
251.4355, 1177.453
251.9176, 1177.467
252.3997, 1176.629
252.8818, 1175.614
253.3639, 1175.119
253.8460, 1175.096
254.3282, 1174.006
254.8103, 1170.406
255.2924, 1166.896
255.7745, 1165.736
256.2566, 1166.752
256.7387, 1167.518
257.2209, 1165.886
257.7030, 1162.455
258.1851, 1161.147
258.6672, 1164.277
259.1493, 1167.648
259.6314, 1168.275
260.1136, 1166.340
260.5957, 1163.766
261.0778, 1161.412
261.5599, 1159.303
262.0420, 1157.375
262.5241, 1155.760
263.0063, 1154.162
263.4884, 1152.170
263.9705, 1149.870
264.4526, 1148.073
264.9347, 1147.416
265.4168, 1147.367
265.8990, 1146.865
266.3811, 1145.771
266.8632, 1144.496
267.3453, 1143.148
267.8274, 1141.785
268.3095, 1140.895
268.7917, 1141.080
269.2738, 1141.454
269.7559, 1140.755
270.2380, 1138.770
270.7201, 1136.805
271.2022, 1136.065
271.6844, 1136.314
272.1665, 1135.803
272.6486, 1133.529
273.1307, 1130.962
273.6128, 1129.750
274.0949, 1129.873
274.5771, 1129.807
275.0592, 1128.123
275.5413, 1125.194
276.0234, 1123.281
276.5055, 1123.144
276.9876, 1123.576
277.4698, 1123.742
277.9519, 1123.638
278.4340, 1123.258
278.9161, 1122.479
279.3982, 1121.386
279.8803, 1120.289
280.3625, 1118.946
280.8446, 1118.048
281.3267, 1118.524
281.8088, 1119.738
282.2909, 1120.156
282.7730, 1118.382
283.2552, 1115.199
283.7373, 1113.247
284.2194, 1112.934
284.7015, 1113.151
285.1836, 1113.747
285.6658, 1114.387
286.1479, 1114.553
286.6300, 1113.971
287.1121, 1112.811
287.5942, 1111.337
288.0764, 1109.274
288.5585, 1107.561
289.0406, 1106.787
289.5227, 1106.412
290.0048, 1105.998
290.4869, 1105.462
290.9691, 1104.571
291.4512, 1102.562
291.9333, 1098.702
292.4154, 1096.130
292.8975, 1096.959
293.3796, 1098.625
293.8618, 1099.029
294.3439, 1097.643
294.8260, 1095.920
295.3081, 1095.967
295.7902, 1098.287
296.2723, 1099.982
296.7545, 1100.489
297.2366, 1100.262
297.7187, 1098.978
298.2008, 1096.832
298.6829, 1095.050
299.1650, 1095.242
299.6472, 1097.693
300.1293, 1099.366
300.6114, 1099.428
301.0935, 1099.207
301.5756, 1099.469
302.0577, 1100.012
302.5399, 1100.001
303.0220, 1098.176
303.5041, 1094.710
303.9862, 1093.681
304.4683, 1097.291
304.9504, 1100.960
305.4326, 1103.014
305.9147, 1103.939
306.3968, 1104.663
306.8789, 1105.576
307.3610, 1106.833
307.8431, 1109.079
308.3253, 1112.455
308.8074, 1116.762
309.2895, 1121.701
309.7716, 1127.469
310.2537, 1134.682
310.7358, 1143.876
311.2180, 1153.534
311.7001, 1160.270
312.1822, 1163.648
312.6643, 1164.918
313.1464, 1165.699
313.6285, 1164.037
314.1107, 1157.449
314.5928, 1145.409
315.0749, 1130.976
315.5570, 1118.437
316.0391, 1108.227
316.5212, 1098.370
317.0034, 1087.845
317.4855, 1078.183
317.9676, 1070.346
318.4497, 1064.374
318.9318, 1059.666
319.4139, 1055.665
319.8961, 1052.359
320.3782, 1050.002
320.8603, 1050.302
321.3424, 1049.966
321.8245, 1047.135
322.3066, 1042.585
322.7888, 1038.259
323.2709, 1035.471
323.7530, 1034.135
324.2351, 1033.869
324.7172, 1036.032
325.1993, 1037.336
325.6815, 1036.593
326.1636, 1034.517
326.6457, 1031.997
327.1278, 1029.370
327.6099, 1026.808
328.0920, 1024.688
328.5742, 1022.976
329.0563, 1021.817
329.5384, 1021.943
330.0205, 1022.179
330.5026, 1021.250
330.9847, 1018.797
331.4669, 1016.085
331.9490, 1015.149
332.4311, 1016.594
332.9132, 1017.162
333.3953, 1015.430
333.8774, 1013.379
334.3596, 1012.113
334.8417, 1011.665
335.3238, 1011.340
335.8059, 1010.452
336.2880, 1008.989
336.7701, 1007.711
337.2523, 1006.664
337.7344, 1005.795
338.2165, 1005.076
338.6986, 1004.499
339.1807, 1004.046
339.6628, 1003.716
340.1450, 1003.495
340.6271, 1003.384
341.1092, 1003.548
341.5913, 1003.479
342.0735, 1002.854
342.5556, 1001.958
343.0377, 1001.149
343.5198, 1000.589
344.0019, 1000.080
344.4840, 999.2120
344.9662, 997.8271
345.4483, 996.7618
345.9304, 996.3618
346.4125, 996.3456
346.8946, 996.8873
347.3767, 997.9973
347.8589, 998.5837
348.3410, 997.0983
348.8231, 993.6106
349.3052, 991.2009
349.7873, 990.8682
350.2694, 991.1050
350.7516, 990.8959
351.2337, 990.3112
351.7158, 989.7500
352.1979, 989.5999
352.6800, 989.6639
353.1621, 989.2100
353.6443, 987.9658
354.1264, 986.8015
354.6085, 986.3254
355.0906, 986.2440
355.5727, 986.1526
356.0548, 986.0165
356.5370, 985.7047
357.0191, 984.9225
357.5012, 983.6238
357.9833, 982.4562
358.4654, 981.6373
358.9475, 981.1506
359.4297, 981.0909
359.9118, 981.5936
360.3939, 981.9265
360.8760, 981.4573
361.3581, 980.3152
361.8402, 979.1310
362.3224, 978.0117
362.8045, 976.9469
363.2866, 975.7786
363.7687, 974.5390
364.2508, 973.7468
364.7329, 973.7243
365.2151, 974.2336
365.6972, 975.0538
366.1793, 976.2679
366.6614, 977.1761
367.1435, 977.1008
367.6256, 976.2794
368.1078, 975.4474
368.5899, 974.2014
369.0720, 973.3905
369.5541, 974.1028
370.0362, 976.0966
370.5183, 977.8320
371.0005, 978.8349
371.4826, 978.8718
371.9647, 977.2410
372.4468, 972.9057
372.9289, 969.6913
373.4110, 969.9559
373.8932, 972.1855
374.3753, 973.5964
374.8574, 973.4117
375.3395, 972.6174
375.8216, 972.4422
376.3037, 972.9653
376.7859, 973.3372
377.2680, 973.4689
377.7501, 973.4176
378.2322, 973.0561
378.7143, 972.4557
379.1964, 972.0951
379.6786, 972.3337
380.1607, 973.1492
380.6428, 974.1513
381.1249, 975.0997
381.6070, 976.4504
382.0891, 979.0150
382.5713, 982.0301
383.0534, 983.8572
383.5355, 983.7239
384.0176, 982.6314
384.4997, 982.7120
384.9818, 984.1927
385.4640, 986.6750
385.9461, 991.0135
386.4282, 995.8200
386.9103, 999.6188
387.3924, 1002.334
387.8745, 1005.304
388.3567, 1010.040
388.8388, 1016.914
389.3209, 1022.862
389.8030, 1027.516
390.2851, 1031.829
390.7672, 1035.772
391.2494, 1039.679
391.7315, 1043.960
392.2136, 1048.795
392.6957, 1054.392
393.1778, 1061.548
393.6599, 1071.841
394.1421, 1081.522
394.6242, 1089.749
395.1063, 1097.588
395.5884, 1105.510
396.0706, 1113.837
396.5527, 1123.186
397.0348, 1134.529
397.5169, 1148.063
397.9990, 1162.556
398.4811, 1177.077
398.9633, 1193.348
399.4454, 1212.369
399.9275, 1233.792
400.4096, 1256.763
400.8917, 1280.347
401.3738, 1305.074
401.8560, 1333.450
402.3381, 1366.785
402.8202, 1401.393
403.3023, 1436.553
403.7844, 1472.224
404.2665, 1509.332
404.7487, 1548.397
405.2308, 1586.036
405.7129, 1619.360
406.1950, 1648.839
406.6771, 1669.618
407.1592, 1681.902
407.6414, 1682.810
408.1235, 1671.153
408.6056, 1647.362
409.0877, 1613.841
409.5698, 1568.243
410.0519, 1514.574
410.5341, 1460.916
411.0162, 1407.027
411.4983, 1355.539
411.9804, 1307.893
412.4625, 1264.061
412.9446, 1224.913
413.4268, 1191.100
413.9089, 1161.155
414.3910, 1134.746
414.8731, 1111.581
415.3552, 1090.260
415.8373, 1070.320
416.3195, 1052.116
416.8016, 1036.392
417.2837, 1023.020
417.7658, 1011.004
418.2479, 1000.188
418.7300, 990.5491
419.2122, 982.2801
419.6943, 975.3418
420.1764, 968.7339
420.6585, 961.5506
421.1406, 953.9660
421.6227, 947.8961
422.1049, 944.1903
422.5870, 940.8246
423.0691, 936.7504
423.5512, 932.5011
424.0333, 929.4135
424.5154, 928.1132
424.9976, 927.1483
425.4797, 923.6971
425.9618, 915.4821
426.4439, 909.3639
426.9260, 906.6628
427.4081, 904.9371
427.8903, 902.5184
428.3724, 899.3533
428.8545, 896.3984
429.3366, 894.5474
429.8187, 893.6974
430.3008, 891.7491
430.7830, 886.5950
431.2651, 882.6698
431.7472, 881.5003
432.2293, 881.6271
432.7114, 881.3743
433.1935, 880.1086
433.6757, 878.2572
434.1578, 876.5108
434.6399, 874.9384
435.1220, 873.2078
435.6041, 871.0176
436.0862, 868.8879
436.5684, 866.8124
437.0505, 864.9700
437.5326, 863.8388
438.0147, 864.0543
438.4968, 865.1478
438.9789, 865.4636
439.4611, 864.8461
439.9432, 863.8347
440.4253, 862.3718
440.9074, 860.7598
441.3895, 859.4159
441.8716, 858.5146
442.3538, 857.3858
442.8359, 855.0554
443.3180, 851.8075
443.8001, 849.5131
444.2822, 848.7828
444.7643, 848.6161
445.2465, 847.9952
445.7286, 847.0538
446.2107, 846.4734
446.6928, 846.9526
447.1749, 847.5307
447.6570, 847.2050
448.1392, 846.0140
448.6213, 844.4721
449.1034, 842.7146
449.5855, 840.9066
450.0677, 839.5248
450.5498, 838.6425
451.0319, 837.9209
451.5140, 837.4765
451.9961, 837.0553
452.4782, 836.1348
452.9604, 834.6819
453.4425, 833.5547
453.9246, 833.8108
454.4067, 835.7102
454.8888, 836.1720
455.3709, 834.4865
455.8531, 832.4218
456.3352, 830.4116
456.8173, 828.5051
457.2994, 826.5071
457.7815, 824.3290
458.2636, 822.4531
458.7458, 822.0788
459.2279, 824.5387
459.7100, 825.6976
460.1921, 824.4007
460.6742, 822.8240
461.1563, 822.2237
461.6385, 822.5472
462.1206, 823.0310
462.6027, 823.0324
463.0848, 822.7118
463.5669, 823.0564
464.0490, 824.6918
464.5312, 825.6778
465.0133, 825.4817
465.4954, 824.2931
465.9775, 821.8266
466.4596, 817.8773
466.9417, 814.2878
467.4239, 812.7134
467.9060, 813.0154
468.3881, 814.6586
468.8702, 818.7156
469.3523, 821.8606
469.8344, 820.2149
470.3166, 815.2828
470.7987, 811.2730
471.2808, 809.8764
471.7629, 809.3406
472.2450, 808.1512
472.7271, 806.4531
473.2093, 804.9655
473.6914, 803.9863
474.1735, 803.3876
474.6556, 802.9730
475.1377, 802.8011
475.6198, 802.5862
476.1020, 802.3311
476.5841, 801.9808
477.0662, 801.4714
477.5483, 800.8059
478.0304, 800.0358
478.5125, 799.2072
478.9947, 798.3029
479.4768, 797.2383
479.9589, 795.6194
480.4410, 794.2958
480.9231, 793.4431
481.4052, 792.8967
481.8874, 792.6169
482.3695, 792.5334
482.8516, 792.3455
483.3337, 791.4183
483.8158, 789.4796
484.2979, 789.1765
484.7801, 791.9595
485.2622, 794.8170
485.7443, 797.7582
486.2264, 799.8353
486.7085, 799.2889
487.1906, 794.9608
487.6728, 789.2800
488.1549, 785.7770
488.6370, 784.5870
489.1191, 783.4279
489.6012, 781.5605
490.0833, 779.8652
490.5655, 779.2833
491.0476, 779.6473
491.5297, 779.7973
492.0118, 779.3992
492.4939, 778.4680
492.9760, 776.7466
493.4582, 774.2899
493.9403, 772.0742
494.4224, 770.4426
494.9045, 769.5135
495.3866, 769.8092
495.8687, 772.0114
496.3509, 773.5201
496.8330, 773.7806
497.3151, 773.0234
497.7972, 770.9225
498.2793, 767.7401
498.7614, 765.1102
499.2436, 764.6535
499.7257, 766.1691
500.2078, 765.9636
500.6899, 761.6533
501.1720, 758.4980
501.6541, 757.9626
502.1363, 758.6899
502.6184, 759.3729
503.1005, 759.5928
503.5826, 759.4347
504.0647, 758.9403
504.5468, 758.0768
505.0290, 757.2487
505.5111, 756.5507
505.9932, 755.7714
506.4753, 754.4503
506.9575, 753.1002
507.4396, 752.7045
507.9217, 753.8803
508.4038, 755.2542
508.8859, 754.9937
509.3680, 753.1857
509.8502, 751.3959
510.3323, 749.7920
510.8144, 748.5612
511.2965, 748.0612
511.7786, 748.1570
512.2607, 748.1371
512.7429, 747.6567
513.2250, 747.1230
513.7071, 747.1514
514.1892, 747.5109
514.6713, 747.1160
515.1534, 745.3625
515.6356, 742.9537
516.1177, 741.2510
516.5998, 740.4211
517.0819, 739.9852
517.5640, 740.2331
518.0461, 740.6323
518.5283, 741.1292
519.0104, 741.4853
519.4925, 741.0352
519.9746, 739.2342
520.4567, 736.5992
520.9388, 735.0980
521.4210, 735.3358
521.9031, 735.6052
522.3852, 736.0121
522.8673, 736.1376
523.3494, 735.4851
523.8315, 734.1611
524.3137, 732.8755
524.7958, 732.3625
525.2779, 732.2941
525.7600, 731.3226
526.2421, 729.0625
526.7242, 727.3512
527.2064, 727.2499
527.6885, 728.0408
528.1706, 728.9638
528.6527, 730.0678
529.1348, 730.7443
529.6169, 730.6644
530.0991, 729.9709
530.5812, 728.8784
531.0633, 727.4164
531.5454, 725.4880
532.0275, 722.7734
532.5096, 719.5279
532.9918, 717.6019
533.4739, 717.7335
533.9560, 718.0137
534.4381, 718.2960
534.9202, 718.4050
535.4023, 717.9835
535.8845, 717.0632
536.3666, 716.2534
536.8487, 716.2933
537.3308, 717.1774
537.8129, 717.0828
538.2950, 715.0420
538.7772, 713.2553
539.2593, 712.6133
539.7414, 712.2670
540.2235, 711.0848
540.7056, 708.8171
541.1877, 706.6926
541.6699, 706.1075
542.1520, 706.8512
542.6341, 707.4650
543.1162, 707.8332
543.5983, 708.1204
544.0804, 708.8643
544.5626, 709.5040
545.0447, 708.7816
545.5268, 705.7465
546.0089, 702.8350
546.4910, 701.7087
546.9731, 701.6281
547.4553, 701.1439
547.9374, 699.9366
548.4195, 698.6239
548.9016, 697.7663
549.3837, 697.3665
549.8658, 697.2374
550.3480, 697.7520
550.8301, 698.0453
551.3122, 697.5687
551.7943, 696.8787
552.2764, 696.7826
552.7585, 697.4369
553.2407, 698.1796
553.7228, 698.1931
554.2049, 697.4373
554.6870, 696.6907
555.1691, 696.1177
555.6512, 695.3038
556.1334, 693.5533
556.6155, 691.7273
557.0976, 691.1332
557.5797, 692.2599
558.0618, 693.5200
558.5439, 693.4156
559.0261, 692.2455
559.5082, 691.0563
559.9903, 689.9509
560.4724, 689.0162
560.9545, 688.4120
561.4366, 688.0546
561.9188, 687.4923
562.4009, 686.7571
562.8830, 685.7769
563.3651, 683.9888
563.8472, 682.1561
564.3293, 681.5010
564.8115, 682.2042
565.2936, 683.3421
565.7757, 684.0798
566.2578, 684.4211
566.7399, 684.0641
567.2220, 681.9646
567.7042, 680.4208
568.1863, 680.2865
568.6684, 680.6283
569.1505, 680.4887
569.6326, 679.6710
570.1147, 678.6605
570.5969, 677.8469
571.0790, 677.2279
571.5611, 676.8914
572.0432, 676.9989
572.5253, 676.8945
573.0074, 675.7972
573.4896, 674.4854
573.9717, 674.3485
574.4538, 676.0089
574.9359, 676.9792
575.4180, 675.3273
575.9001, 672.6369
576.3823, 671.1427
576.8644, 671.0504
577.3465, 671.4176
577.8286, 671.6682
578.3107, 671.7607
578.7928, 671.4802
579.2750, 670.2548
579.7571, 669.4048
580.2392, 669.0480
580.7213, 669.0506
581.2034, 669.5995
581.6855, 670.4747
582.1677, 670.9803
582.6498, 670.5748
583.1319, 669.4149
583.6140, 667.8584
584.0961, 665.5517
584.5782, 664.0449
585.0604, 664.1882
585.5425, 664.9972
586.0246, 665.9360
586.5067, 666.9130
586.9889, 667.2500
587.4710, 666.1026
587.9531, 664.5325
588.4352, 663.8312
588.9174, 663.8959
589.3995, 663.9294
589.8816, 663.5713
590.3637, 663.0806
590.8458, 662.9596
591.3279, 663.5627
