##NAMES=Spinel
##RRUFFID=R050411
##IDEAL CHEMISTRY=MgAl_2_O_4_
##LOCALITY=Mogok, Burma
##OWNER=RRUFF
##SOURCE=Marcus Origlieri
##DESCRIPTION=Pale pink gemstone
##STATUS=The identification of this mineral has been confirmed by X-ray diffraction and chemical analysis
##URL=rruff.info/R050411
##MEASURED CHEMISTRY=Mg_0.93_Al_2.04_O_4_
93.00555, 136.0273
93.48767, 136.2511
93.96979, 140.8366
94.45190, 145.3440
94.93402, 149.3000
95.41614, 150.7565
95.89825, 150.3181
96.38037, 149.1937
96.86249, 147.6095
97.34460, 146.3811
97.82672, 146.0290
98.30884, 145.6162
98.79095, 145.1530
99.27307, 144.3622
99.75519, 142.9233
100.2373, 140.9858
100.7194, 138.8315
101.2015, 137.2610
101.6837, 136.4450
102.1658, 135.9244
102.6479, 135.3389
103.1300, 134.6506
103.6121, 134.1021
104.0942, 134.0205
104.5764, 134.1758
105.0585, 134.2370
105.5406, 133.9501
106.0227, 133.4608
106.5048, 133.2658
106.9869, 133.6258
107.4691, 133.8270
107.9512, 133.4992
108.4333, 132.7526
108.9154, 131.8748
109.3975, 131.0594
109.8796, 130.2888
110.3618, 129.6613
110.8439, 129.1371
111.3260, 128.7682
111.8081, 128.6211
112.2902, 128.6845
112.7723, 128.8748
113.2544, 129.0842
113.7366, 129.3461
114.2187, 129.5617
114.7008, 129.7428
115.1829, 129.8763
115.6650, 129.9782
116.1471, 130.0562
116.6293, 130.0465
117.1114, 129.7324
117.5935, 128.7769
118.0756, 128.1674
118.5577, 128.5065
119.0398, 129.3972
119.5220, 129.8546
120.0041, 129.3129
120.4862, 128.1363
120.9683, 127.2085
121.4504, 126.5081
121.9325, 126.0709
122.4147, 126.0672
122.8968, 126.5410
123.3789, 126.9037
123.8610, 126.7335
124.3431, 126.3325
124.8252, 125.9790
125.3074, 125.7967
125.7895, 125.6603
126.2716, 125.2345
126.7537, 124.1593
127.2358, 123.4720
127.7179, 123.7473
128.2001, 124.4772
128.6822, 124.9736
129.1643, 124.7599
129.6464, 123.9123
130.1285, 123.4145
130.6107, 123.7578
131.0928, 124.0037
131.5749, 123.9362
132.0570, 123.5880
132.5391, 123.0541
133.0212, 122.3720
133.5033, 121.4528
133.9855, 121.0858
134.4676, 121.7110
134.9497, 122.4150
135.4318, 122.5709
135.9139, 122.1685
136.3960, 121.7854
136.8782, 122.1820
137.3603, 123.6049
137.8424, 124.4158
138.3245, 124.0551
138.8066, 123.2140
139.2887, 122.7509
139.7709, 122.9209
140.2530, 123.2037
140.7351, 122.8019
141.2172, 121.7856
141.6993, 120.9801
142.1814, 120.8695
142.6636, 121.2886
143.1457, 121.6342
143.6278, 121.7748
144.1099, 121.8007
144.5920, 121.8206
145.0741, 121.8340
145.5563, 121.7734
146.0384, 121.5464
146.5205, 121.1306
147.0026, 120.7488
147.4847, 120.2456
147.9668, 119.9201
148.4490, 120.1289
148.9311, 120.8960
149.4132, 121.7218
149.8953, 121.7530
150.3774, 120.3417
150.8595, 119.4608
151.3417, 119.5146
151.8238, 119.9138
152.3059, 120.2529
152.7880, 120.3674
153.2701, 120.2884
153.7522, 120.0896
154.2344, 119.5731
154.7165, 119.1566
155.1986, 118.9462
155.6807, 118.8181
156.1628, 118.6083
156.6449, 118.2304
157.1271, 117.7322
157.6092, 117.3092
158.0913, 116.7793
158.5734, 116.4946
159.0555, 116.7155
159.5376, 117.2859
160.0198, 117.8097
160.5019, 118.0867
160.9840, 118.1283
161.4661, 118.0550
161.9482, 117.6808
162.4303, 117.3858
162.9125, 117.5274
163.3946, 118.0848
163.8767, 118.5621
164.3588, 118.6461
164.8409, 118.4533
165.3230, 118.1692
165.8052, 117.7291
166.2873, 117.2958
166.7694, 117.1317
167.2515, 117.3220
167.7336, 117.4895
168.2157, 117.4972
168.6979, 117.3674
169.1800, 117.0799
169.6621, 116.5537
170.1442, 115.9172
170.6263, 115.5425
171.1084, 115.5744
171.5906, 115.6613
172.0727, 115.7495
172.5548, 115.8009
173.0369, 115.7509
173.5190, 115.5359
174.0011, 115.1876
174.4833, 114.9755
174.9654, 115.1289
175.4475, 115.1941
175.9296, 114.9511
176.4117, 114.5511
176.8938, 114.2909
177.3760, 114.4200
177.8581, 114.9550
178.3402, 115.2257
178.8223, 115.0298
179.3044, 114.8022
179.7865, 114.7004
180.2687, 114.7035
180.7508, 114.7036
181.2329, 114.6062
181.7150, 114.3994
182.1971, 114.2327
182.6792, 114.0935
183.1614, 113.9977
183.6435, 113.8715
184.1256, 113.7453
184.6077, 113.8710
185.0898, 114.6548
185.5719, 116.1177
186.0541, 116.7210
186.5362, 115.4459
187.0183, 113.8642
187.5004, 113.7476
187.9825, 115.3644
188.4646, 116.8946
188.9468, 116.2693
189.4289, 114.0212
189.9110, 112.2659
190.3931, 111.6996
190.8752, 111.8355
191.3573, 111.9133
191.8395, 111.8188
192.3216, 111.8511
192.8037, 112.5442
193.2858, 113.5709
193.7679, 114.1332
194.2500, 113.4548
194.7322, 111.9921
195.2143, 111.2548
195.6964, 111.6149
196.1785, 112.2173
196.6606, 112.7353
197.1427, 113.1139
197.6249, 113.2126
198.1070, 112.8059
198.5891, 111.9639
199.0712, 111.3999
199.5533, 111.2324
200.0354, 111.2512
200.5176, 111.5749
200.9997, 112.0290
201.4818, 112.2288
201.9639, 111.7233
202.4460, 110.4746
202.9281, 109.9808
203.4103, 111.2360
203.8924, 112.3882
204.3745, 112.8621
204.8566, 112.7544
205.3387, 112.4308
205.8208, 112.1864
206.3030, 112.0165
206.7851, 111.9767
207.2672, 112.4433
207.7493, 112.6828
208.2314, 112.2350
208.7135, 111.2423
209.1957, 110.1972
209.6778, 109.5231
210.1599, 109.2411
210.6420, 109.2738
211.1241, 109.8651
211.6062, 110.4910
212.0884, 110.9325
212.5705, 111.1616
213.0526, 111.2146
213.5347, 111.1001
214.0168, 110.7919
214.4989, 110.5254
214.9811, 110.1862
215.4632, 109.9685
215.9453, 110.0937
216.4274, 110.5412
216.9095, 110.9736
217.3916, 111.0624
217.8737, 110.8042
218.3559, 110.7510
218.8380, 111.1770
219.3201, 111.6416
219.8022, 111.6937
220.2843, 111.3009
220.7664, 110.9091
221.2486, 110.9417
221.7307, 111.2917
222.2128, 111.4874
222.6949, 111.3867
223.1770, 111.1402
223.6591, 110.8914
224.1413, 110.6389
224.6234, 110.4189
225.1055, 110.2614
225.5876, 110.1558
226.0697, 110.0988
226.5518, 110.1818
227.0340, 110.2649
227.5161, 110.0583
227.9982, 109.4345
228.4803, 108.9662
228.9624, 109.1803
229.4445, 109.7082
229.9267, 110.0873
230.4088, 110.1371
230.8909, 109.9551
231.3730, 109.7111
231.8551, 109.3971
232.3372, 109.0402
232.8194, 108.5413
233.3015, 108.0411
233.7836, 107.7245
234.2657, 107.7016
234.7478, 107.8517
235.2299, 107.8944
235.7121, 107.7541
236.1942, 107.6597
236.6763, 107.8008
237.1584, 107.9696
237.6405, 107.8949
238.1227, 107.4254
238.6048, 106.7776
239.0869, 106.5404
239.5690, 107.0498
240.0511, 107.3850
240.5332, 107.3006
241.0154, 107.0171
241.4975, 106.7307
241.9796, 106.5240
242.4617, 106.3858
242.9438, 106.2918
243.4259, 106.2468
243.9081, 106.2465
244.3902, 106.3692
244.8723, 106.4942
245.3544, 106.5013
245.8365, 106.3448
246.3186, 106.0772
246.8008, 105.8032
247.2829, 105.3836
247.7650, 105.1839
248.2471, 105.3999
248.7292, 105.7333
249.2113, 105.9071
249.6935, 105.8276
250.1756, 105.6014
250.6577, 105.4302
251.1398, 105.2655
251.6219, 105.2481
252.1040, 105.5720
252.5862, 105.9330
253.0683, 106.0220
253.5504, 105.7600
254.0325, 105.3480
254.5146, 105.1165
254.9967, 105.2175
255.4789, 105.2311
255.9610, 105.0291
256.4431, 104.8145
256.9252, 104.7954
257.4073, 105.0128
257.8894, 105.3067
258.3716, 105.4556
258.8537, 105.3652
259.3358, 105.3796
259.8179, 105.6516
260.3000, 105.9379
260.7821, 106.0057
261.2643, 105.8205
261.7464, 105.5435
262.2285, 105.3455
262.7106, 105.2468
263.1927, 105.1365
263.6748, 104.8757
264.1570, 104.6894
264.6391, 104.8817
265.1212, 105.4561
265.6033, 105.9768
266.0854, 106.0015
266.5675, 105.4944
267.0497, 105.0897
267.5318, 104.8189
268.0139, 104.6431
268.4960, 104.5735
268.9781, 104.6019
269.4602, 104.6109
269.9424, 104.4869
270.4245, 104.2583
270.9066, 104.1344
271.3887, 104.1788
271.8708, 104.2853
272.3529, 104.4182
272.8351, 104.5675
273.3172, 104.6313
273.7993, 104.5212
274.2814, 104.2775
274.7635, 104.0551
275.2456, 103.7931
275.7278, 103.6255
276.2099, 103.7426
276.6920, 104.1006
277.1741, 104.3008
277.6562, 103.9834
278.1383, 103.5155
278.6205, 103.6587
279.1026, 104.7023
279.5847, 105.7343
280.0668, 106.1382
280.5489, 105.9885
281.0310, 105.6743
281.5132, 105.1727
281.9953, 104.7380
282.4774, 104.7279
282.9595, 105.1995
283.4416, 105.7390
283.9237, 106.1661
284.4059, 106.4734
284.8880, 106.6015
285.3701, 106.4327
285.8522, 106.2179
286.3343, 106.2520
286.8164, 106.5210
287.2986, 106.7598
287.7807, 106.7545
288.2628, 106.5988
288.7449, 106.6100
289.2270, 106.8804
289.7091, 107.2389
290.1913, 107.5800
290.6734, 107.8962
291.1555, 108.1600
291.6376, 108.2325
292.1197, 108.2522
292.6018, 108.6474
293.0840, 109.6559
293.5661, 110.5080
294.0482, 110.5533
294.5303, 110.1071
295.0124, 109.7060
295.4945, 109.5029
295.9767, 109.4957
296.4588, 109.7349
296.9409, 110.2965
297.4230, 110.8452
297.9051, 111.1646
298.3872, 111.3868
298.8694, 111.6699
299.3515, 112.0838
299.8336, 112.5321
300.3157, 112.8785
300.7978, 113.1063
301.2799, 113.3402
301.7621, 113.4265
302.2442, 113.6585
302.7263, 114.4289
303.2084, 115.8913
303.6905, 117.4022
304.1726, 118.2021
304.6548, 118.2505
305.1369, 118.5246
305.6190, 119.4730
306.1011, 120.5660
306.5832, 121.2583
307.0653, 121.5416
307.5475, 122.0735
308.0296, 123.6583
308.5117, 126.1703
308.9938, 128.0325
309.4759, 128.3344
309.9580, 128.8036
310.4402, 130.8917
310.9223, 134.2044
311.4044, 137.2108
311.8865, 139.1221
312.3686, 139.9617
312.8507, 139.7790
313.3329, 138.2431
313.8150, 136.1901
314.2971, 134.1148
314.7792, 131.8988
315.2613, 129.2592
315.7434, 125.8350
316.2256, 122.0452
316.7077, 118.7741
317.1898, 116.0571
317.6719, 113.6992
318.1540, 111.4796
318.6361, 109.5995
319.1183, 108.3876
319.6004, 108.0251
320.0825, 108.1058
320.5646, 108.2150
321.0467, 108.4118
321.5288, 108.2504
322.0110, 107.0543
322.4931, 105.7679
322.9752, 105.2476
323.4573, 105.6429
323.9394, 106.1591
324.4215, 105.9428
324.9037, 105.0157
325.3858, 104.4398
325.8679, 104.6832
326.3500, 105.0516
326.8321, 104.9437
327.3142, 104.4410
327.7964, 104.1087
328.2785, 104.5900
328.7606, 105.6398
329.2427, 105.9930
329.7248, 105.2218
330.2069, 104.3670
330.6891, 104.0963
331.1712, 104.2126
331.6533, 104.3087
332.1354, 104.1925
332.6175, 103.9463
333.0996, 103.6969
333.5818, 103.3970
334.0639, 103.2461
334.5460, 103.6269
335.0281, 104.1166
335.5102, 104.1643
335.9923, 103.4847
336.4745, 102.6597
336.9566, 102.3953
337.4387, 102.7230
337.9208, 103.0907
338.4029, 103.3430
338.8850, 103.5421
339.3671, 103.7607
339.8492, 104.0098
340.3314, 104.2122
340.8135, 104.1864
341.2956, 104.0073
341.7777, 104.2093
342.2598, 105.1541
342.7419, 106.1139
343.2241, 106.3813
343.7062, 106.0834
344.1883, 105.8377
344.6704, 105.9131
345.1525, 106.2482
345.6346, 106.8068
346.1168, 107.7093
346.5989, 108.4371
347.0810, 108.3637
347.5631, 107.8699
348.0452, 107.6123
348.5273, 107.8369
349.0095, 108.2961
349.4916, 108.7229
349.9737, 109.1136
350.4558, 109.5796
350.9379, 110.2309
351.4200, 110.9528
351.9022, 111.5556
352.3843, 112.0018
352.8664, 112.4043
353.3485, 112.7954
353.8306, 113.1929
354.3127, 113.6742
354.7949, 114.2840
355.2770, 114.9506
355.7591, 115.6487
356.2412, 116.3842
356.7233, 116.9311
357.2054, 116.9695
357.6876, 116.8442
358.1697, 117.1535
358.6518, 118.0153
359.1339, 119.0173
359.6160, 119.8761
360.0981, 120.5843
360.5803, 121.0818
361.0624, 120.9982
361.5445, 120.9721
362.0266, 121.6655
362.5087, 122.9940
362.9908, 124.2237
363.4730, 124.9113
363.9551, 125.2338
364.4372, 125.7872
364.9193, 126.7566
365.4014, 127.6267
365.8835, 128.0217
366.3657, 128.1800
366.8478, 128.5936
367.3299, 129.4331
367.8120, 130.5388
368.2941, 131.7594
368.7762, 133.2100
369.2584, 134.2697
369.7405, 134.4895
370.2226, 134.4870
370.7047, 134.7457
371.1868, 135.3612
371.6689, 136.4477
372.1511, 138.2730
372.6332, 140.8782
373.1153, 142.6468
373.5974, 143.0460
374.0795, 143.2412
374.5616, 143.5993
375.0438, 144.1985
375.5259, 145.2052
376.0080, 146.7518
376.4901, 148.6550
376.9722, 150.2561
377.4543, 150.7120
377.9365, 151.9443
378.4186, 154.7173
378.9007, 158.1086
379.3828, 161.1022
379.8649, 163.4181
380.3470, 165.4173
380.8292, 167.5497
381.3113, 169.6976
381.7934, 172.4441
382.2755, 175.7953
382.7576, 179.6494
383.2397, 183.9099
383.7219, 188.6131
384.2040, 193.8114
384.6861, 199.5071
385.1682, 205.7211
385.6503, 212.6528
386.1324, 220.2102
386.6146, 228.6478
387.0967, 238.1048
387.5788, 248.3887
388.0609, 259.4385
388.5430, 271.1875
389.0251, 283.3596
389.5073, 295.4578
389.9894, 307.3556
390.4715, 319.5037
390.9536, 332.3044
391.4357, 345.0233
391.9178, 357.0346
392.4000, 368.4035
392.8821, 379.8993
393.3642, 392.1487
393.8463, 405.1703
394.3284, 419.0737
394.8105, 433.5716
395.2927, 449.6073
395.7748, 467.6355
396.2569, 487.2744
396.7390, 507.9133
397.2211, 529.0764
397.7032, 551.4403
398.1854, 576.3553
398.6675, 604.1578
399.1496, 633.8243
399.6317, 664.5829
400.1138, 697.6317
400.5959, 733.8055
401.0781, 773.1967
401.5602, 816.0311
402.0423, 863.1403
402.5244, 914.1223
403.0065, 965.7472
403.4886, 1017.402
403.9708, 1069.807
404.4529, 1126.524
404.9350, 1184.689
405.4171, 1236.575
405.8992, 1282.258
406.3813, 1317.718
406.8635, 1338.344
407.3456, 1344.507
407.8277, 1332.041
408.3098, 1295.330
408.7919, 1238.439
409.2740, 1169.435
409.7562, 1085.430
410.2383, 997.5915
410.7204, 908.1365
411.2025, 819.4048
411.6846, 736.8950
412.1667, 661.2401
412.6489, 593.1406
413.1310, 534.6011
413.6131, 484.7909
414.0952, 441.0463
414.5773, 404.2868
415.0594, 372.4399
415.5416, 344.3277
416.0237, 319.7185
416.5058, 298.0818
416.9879, 279.3087
417.4700, 263.2096
417.9521, 248.6100
418.4343, 235.4776
418.9164, 223.5762
419.3985, 212.8612
419.8806, 203.3144
420.3627, 195.1641
420.8448, 188.4422
421.3270, 182.5714
421.8091, 176.6999
422.2912, 170.7450
422.7733, 165.1475
423.2554, 159.7520
423.7375, 154.8271
424.2197, 150.6775
424.7018, 147.2046
425.1839, 144.0996
425.6660, 141.1631
426.1481, 138.3916
426.6302, 135.6673
427.1124, 133.0305
427.5945, 130.4227
428.0766, 127.8119
428.5587, 125.2482
429.0408, 122.6696
429.5229, 120.0940
430.0051, 117.7379
430.4872, 115.9691
430.9693, 114.9457
431.4514, 113.8793
431.9335, 112.9883
432.4156, 111.8199
432.8978, 109.7610
433.3799, 107.2442
433.8620, 105.3519
434.3441, 104.9926
434.8262, 105.5423
435.3083, 105.0857
435.7905, 103.1767
436.2726, 101.5018
436.7547, 100.8458
437.2368, 100.5957
437.7189, 100.2930
438.2010, 99.85830
438.6832, 99.29719
439.1653, 98.51323
439.6474, 97.57170
440.1295, 96.84637
440.6116, 96.48097
441.0938, 96.17680
441.5759, 95.67568
442.0580, 95.02887
442.5401, 94.37489
443.0222, 93.54282
443.5043, 92.86803
443.9865, 92.88405
444.4686, 93.49648
444.9507, 93.83706
445.4328, 93.43732
445.9149, 92.57695
446.3970, 91.88799
446.8792, 91.40254
447.3613, 90.95721
447.8434, 90.48187
448.3255, 90.03503
448.8076, 89.67992
449.2897, 89.42770
449.7719, 89.29964
450.2540, 89.38178
450.7361, 89.70022
451.2182, 89.51614
451.7003, 88.11150
452.1824, 87.06480
452.6646, 87.26131
453.1467, 88.13432
453.6288, 88.71515
454.1109, 88.57954
454.5930, 88.01664
455.0751, 87.59193
455.5573, 87.36317
456.0394, 87.16858
456.5215, 87.09722
457.0036, 86.97902
457.4857, 86.68044
457.9678, 86.23409
458.4500, 85.75717
458.9321, 85.30394
459.4142, 84.90903
459.8963, 84.81178
460.3784, 85.28234
460.8605, 85.56565
461.3427, 85.32065
461.8248, 84.89520
462.3069, 84.66788
462.7890, 84.73244
463.2711, 84.77863
463.7532, 84.32682
464.2354, 83.43840
464.7175, 83.07686
465.1996, 83.60690
465.6817, 84.27641
466.1638, 84.63714
466.6459, 84.72468
467.1281, 84.59073
467.6102, 84.12739
468.0923, 83.56165
468.5744, 83.12376
469.0565, 82.80444
469.5386, 82.54617
470.0208, 82.32199
470.5029, 82.15279
470.9850, 82.08476
471.4671, 82.11993
471.9492, 82.19757
472.4313, 82.38345
472.9135, 82.55746
473.3956, 82.54987
473.8777, 82.36638
474.3598, 82.19371
474.8419, 82.17574
475.3240, 82.29770
475.8062, 82.41238
476.2883, 82.66583
476.7704, 82.73794
477.2525, 82.34946
477.7346, 81.83943
478.2167, 81.68492
478.6989, 81.98348
479.1810, 82.34660
479.6631, 82.22598
480.1452, 81.45533
480.6273, 81.06054
481.1094, 81.60360
481.5916, 81.94750
482.0737, 81.55895
482.5558, 80.74137
483.0379, 80.01963
483.5200, 79.63297
484.0021, 79.51398
484.4843, 79.63361
484.9664, 80.11523
485.4485, 80.25467
485.9306, 79.51540
486.4127, 78.73138
486.8948, 78.55608
487.3770, 78.89842
487.8591, 79.12435
488.3412, 78.71914
488.8233, 78.00398
489.3054, 77.63929
489.7875, 77.66737
490.2697, 77.68683
490.7518, 77.45189
491.2339, 77.10828
491.7160, 76.96358
492.1981, 77.09906
492.6802, 77.19731
493.1624, 77.18323
493.6445, 77.02816
494.1266, 76.61493
494.6087, 75.93163
495.0908, 75.24586
495.5729, 74.74799
496.0551, 74.44704
496.5372, 74.51553
497.0193, 75.48887
497.5014, 76.15372
497.9835, 75.98859
498.4656, 75.34428
498.9478, 74.66740
499.4299, 74.11958
499.9120, 73.68782
500.3941, 73.37935
500.8762, 73.25117
501.3583, 73.00890
501.8405, 72.33672
502.3226, 71.87283
502.8047, 72.04689
503.2868, 72.56639
503.7689, 72.86449
504.2510, 72.63537
504.7331, 72.18221
505.2152, 72.10955
505.6974, 72.50507
506.1795, 72.73422
506.6616, 72.58811
507.1437, 72.30418
507.6258, 72.01799
508.1079, 71.74263
508.5901, 71.52808
509.0722, 71.40508
509.5543, 71.35343
510.0364, 71.33677
510.5185, 71.35535
511.0006, 71.46178
511.4828, 71.73854
511.9649, 72.06522
512.4470, 72.14864
512.9291, 71.88568
513.4113, 71.76973
513.8934, 72.06536
514.3755, 72.48497
514.8576, 72.77638
515.3397, 72.89807
515.8218, 72.83366
516.3040, 72.54068
516.7861, 72.06527
517.2682, 71.74677
517.7503, 71.53127
518.2324, 71.55397
518.7145, 72.08126
519.1967, 72.70093
519.6788, 73.04839
520.1609, 73.05433
520.6430, 72.84469
521.1251, 72.47639
521.6072, 71.95959
522.0894, 71.74274
522.5715, 72.07826
523.0536, 72.31239
523.5357, 72.13595
524.0178, 71.78947
524.4999, 71.53053
524.9821, 71.42164
525.4642, 71.42686
525.9463, 71.64876
526.4284, 71.98933
526.9105, 71.93428
527.3926, 71.28626
527.8748, 70.62575
528.3569, 70.49770
528.8390, 70.73531
529.3211, 70.74903
529.8032, 70.22174
530.2853, 69.75624
530.7675, 69.74908
531.2496, 70.02488
531.7317, 70.30933
532.2138, 70.52660
532.6959, 70.51977
533.1780, 70.01194
533.6602, 68.82008
534.1423, 68.28958
534.6244, 69.06183
535.1065, 69.68371
535.5886, 69.49091
536.0707, 68.82628
536.5529, 68.21793
537.0350, 67.88338
537.5171, 67.73973
537.9992, 67.64585
538.4813, 67.56734
538.9634, 67.73828
539.4456, 68.66200
539.9277, 69.27872
540.4098, 68.80107
540.8919, 67.71180
541.3740, 67.01479
541.8561, 67.21954
542.3383, 67.71867
542.8204, 67.77126
543.3025, 67.42210
543.7846, 67.09290
544.2667, 66.86964
544.7488, 66.72983
545.2310, 66.69428
545.7131, 66.74730
546.1952, 66.72960
546.6773, 66.44437
547.1594, 66.24178
547.6415, 66.48335
548.1237, 66.98727
548.6058, 67.29927
549.0879, 67.23496
549.5700, 66.92603
550.0521, 66.55620
550.5342, 66.01924
551.0164, 65.76670
551.4985, 66.05441
551.9806, 66.32167
552.4627, 66.22791
552.9448, 65.94939
553.4269, 65.88274
553.9091, 66.23157
554.3912, 66.71000
554.8733, 66.79820
555.3554, 66.44026
555.8375, 66.06477
556.3196, 65.63799
556.8018, 65.31100
557.2839, 65.16172
557.7660, 65.17410
558.2481, 65.32180
558.7302, 65.73949
559.2123, 66.11593
559.6945, 66.06139
560.1766, 65.66624
560.6587, 65.31343
561.1408, 65.10021
561.6229, 65.03515
562.1050, 65.17401
562.5872, 65.56508
563.0693, 65.80183
563.5514, 65.78403
564.0335, 65.70679
564.5156, 65.62212
564.9977, 65.55823
565.4799, 65.56700
565.9620, 65.66718
566.4441, 65.79492
566.9262, 65.82732
567.4083, 65.70161
567.8904, 65.73750
568.3726, 66.29191
568.8547, 66.63291
569.3368, 66.28117
569.8189, 65.60591
570.3010, 65.24485
570.7831, 65.46532
571.2653, 65.87209
571.7474, 65.98663
572.2295, 65.85033
572.7116, 65.84785
573.1937, 66.13645
573.6758, 66.32309
574.1580, 65.93851
574.6401, 65.15273
575.1222, 64.63404
575.6043, 64.50044
576.0864, 64.58272
576.5685, 65.00412
577.0507, 65.52933
577.5328, 65.72695
578.0149, 65.50117
578.4970, 65.13304
578.9791, 64.92149
579.4612, 64.87474
579.9434, 64.78058
580.4255, 64.47816
580.9076, 64.32116
581.3897, 64.60166
581.8718, 64.94080
582.3539, 64.78973
582.8361, 64.08624
583.3182, 63.47752
583.8003, 63.76489
584.2824, 64.79543
584.7645, 65.39468
585.2466, 65.42855
585.7288, 65.40974
586.2108, 65.69026
586.6929, 66.01497
587.1750, 65.96053
587.6572, 65.39324
588.1393, 64.90499
588.6214, 64.88966
589.1035, 65.04424
589.5856, 64.89183
590.0677, 64.43475
590.5499, 64.13708
591.0320, 64.33878
591.5141, 64.86808
