##NAMES=Spinel
##RRUFFID=R060798
##IDEAL CHEMISTRY=MgAl_2_O_4_
##LOCALITY=Onentura mine, Camaguey Province, Cuba
##OWNER=RRUFF
##SOURCE=George Rossman
##DESCRIPTION=Black granular massive
##STATUS=The identification of this mineral is confirmed by single-crystal X-ray diffraction and chemical analysis.
##URL=rruff.info/R060798
##MEASURED CHEMISTRY=(Mg_0.77_Fe^2+^_0.23_)_Σ=1_(Al_1.09_Cr_0.82_Fe^3+^_0.09_)_Σ=2_O_4_
160.574, 561.323
161.057, 570.484
161.539, 580.708
162.021, 584.570
162.503, 576.142
162.985, 569.277
163.467, 572.611
163.949, 582.815
164.431, 589.705
164.913, 586.532
165.396, 579.161
165.878, 572.032
166.360, 563.314
166.842, 558.596
167.324, 566.216
167.806, 583.619
168.288, 594.669
168.770, 581.843
169.253, 560.086
169.735, 546.762
170.217, 554.904
170.699, 568.812
171.181, 578.462
171.663, 583.813
172.145, 582.587
172.627, 564.813
173.109, 540.191
173.592, 524.835
174.074, 532.417
174.556, 549.500
175.038, 562.026
175.520, 569.770
176.002, 572.727
176.484, 566.902
176.966, 555.729
177.449, 547.745
177.931, 549.611
178.413, 556.604
178.895, 560.977
179.377, 561.835
179.859, 561.890
180.341, 566.108
180.823, 573.042
181.305, 576.235
181.788, 568.740
182.270, 554.980
182.752, 545.418
183.234, 541.794
183.716, 541.279
184.198, 539.281
184.680, 536.160
185.162, 535.445
185.645, 543.353
186.127, 556.438
186.609, 560.681
187.091, 550.927
187.573, 535.622
188.055, 532.659
188.537, 542.193
189.019, 552.561
189.501, 554.925
189.984, 550.213
190.466, 544.630
190.948, 538.552
191.430, 532.886
191.912, 531.313
192.394, 534.333
192.876, 536.989
193.358, 534.325
193.840, 526.598
194.323, 518.950
194.805, 511.581
195.287, 505.380
195.769, 504.468
196.251, 509.403
196.733, 517.335
197.215, 527.013
197.697, 538.785
198.180, 546.541
198.662, 548.469
199.144, 544.891
199.626, 537.457
200.108, 525.070
200.590, 511.602
201.072, 500.305
201.554, 490.471
202.036, 487.748
202.519, 497.929
203.001, 520.599
203.483, 529.297
203.965, 520.110
204.447, 503.720
204.929, 495.765
205.411, 498.181
205.893, 500.060
206.376, 497.228
206.858, 489.205
207.340, 481.536
207.822, 472.901
208.304, 466.259
208.786, 468.462
209.268, 483.320
209.750, 495.052
210.232, 495.875
210.714, 483.010
211.197, 475.009
211.679, 472.645
212.161, 474.513
212.643, 478.982
213.125, 488.338
213.607, 494.730
214.089, 492.968
214.572, 478.426
215.054, 473.104
215.536, 481.364
216.018, 496.644
216.500, 502.548
216.982, 495.849
217.464, 485.979
217.946, 475.818
218.428, 462.663
218.911, 458.404
219.393, 467.482
219.875, 484.447
220.357, 493.127
220.839, 489.811
221.321, 484.368
221.803, 482.243
222.285, 486.205
222.767, 485.864
223.250, 478.126
223.732, 465.980
224.214, 461.209
224.696, 467.705
225.178, 475.689
225.660, 479.843
226.142, 478.639
226.624, 476.990
227.107, 474.548
227.589, 471.811
228.071, 471.317
228.553, 473.683
229.035, 477.467
229.517, 482.567
229.999, 492.571
230.481, 495.909
230.963, 489.006
231.445, 473.931
231.928, 463.559
232.410, 459.904
232.892, 458.417
233.374, 455.527
233.856, 447.284
234.338, 446.447
234.820, 459.241
235.303, 482.486
235.785, 491.089
236.267, 476.303
236.749, 457.335
237.231, 447.900
237.713, 452.989
238.195, 457.871
238.677, 461.253
239.159, 463.191
239.641, 464.262
240.124, 464.999
240.606, 464.284
241.088, 460.657
241.570, 450.694
242.052, 444.765
242.534, 445.207
243.016, 451.464
243.498, 457.312
243.981, 465.016
244.463, 469.716
244.945, 466.858
245.427, 450.830
245.909, 438.067
246.391, 430.823
246.873, 428.860
247.355, 429.149
247.837, 433.463
248.320, 437.977
248.802, 439.859
249.284, 439.023
249.766, 435.405
250.248, 427.004
250.730, 414.578
251.212, 409.174
251.694, 414.991
252.176, 422.777
252.659, 424.954
253.141, 418.136
253.623, 412.980
254.105, 410.367
254.587, 410.417
255.069, 415.332
255.551, 428.998
256.033, 442.516
256.516, 448.226
256.998, 441.971
257.480, 437.699
257.962, 438.401
258.444, 443.418
258.926, 444.833
259.408, 440.681
259.890, 435.720
260.372, 434.123
260.855, 437.406
261.337, 439.791
261.819, 439.212
262.301, 436.471
262.783, 439.339
263.265, 450.006
263.747, 462.756
264.229, 474.736
264.711, 488.467
265.194, 492.622
265.676, 482.082
266.158, 459.843
266.640, 443.940
267.122, 435.039
267.604, 431.474
268.086, 433.217
268.569, 442.106
269.051, 449.432
269.533, 453.795
270.015, 455.608
270.497, 457.000
270.979, 457.975
271.461, 458.548
271.943, 459.302
272.425, 460.877
272.908, 458.709
273.390, 449.797
273.872, 437.145
274.354, 434.535
274.836, 445.041
275.318, 456.173
275.800, 456.826
276.282, 445.092
276.764, 439.370
277.247, 444.373
277.729, 456.130
278.211, 460.262
278.693, 455.702
279.175, 448.380
279.657, 441.184
280.139, 433.964
280.621, 430.479
281.103, 431.753
281.586, 436.566
282.068, 443.128
282.550, 452.088
283.032, 458.160
283.514, 454.978
283.996, 442.997
284.478, 438.405
284.960, 446.179
285.443, 458.330
285.925, 454.123
286.407, 432.857
286.889, 412.745
287.371, 406.572
287.853, 412.705
288.335, 418.685
288.817, 423.260
289.299, 427.140
289.782, 432.207
290.264, 438.283
290.746, 442.945
291.228, 445.483
291.710, 445.578
292.192, 440.894
292.674, 430.086
293.156, 417.703
293.638, 409.726
294.121, 406.075
294.603, 405.692
295.085, 411.720
295.567, 420.569
296.049, 421.229
296.531, 411.405
297.013, 399.547
297.496, 396.442
297.978, 400.628
298.460, 405.801
298.942, 408.031
299.424, 409.284
299.906, 414.294
300.388, 423.985
300.870, 432.602
301.352, 431.655
301.835, 424.375
302.317, 419.551
302.799, 424.270
303.281, 432.417
303.763, 435.106
304.245, 431.619
304.727, 428.523
305.209, 434.236
305.691, 444.304
306.174, 450.008
306.656, 441.609
307.138, 431.012
307.620, 432.101
308.102, 444.954
308.584, 455.707
309.066, 452.849
309.548, 442.302
310.030, 432.336
310.513, 423.217
310.995, 417.723
311.477, 419.385
311.959, 427.595
312.441, 436.438
312.923, 446.180
313.405, 453.381
313.887, 454.278
314.370, 440.508
314.852, 427.518
315.334, 425.558
315.816, 432.280
316.298, 435.140
316.780, 421.339
317.262, 405.687
317.744, 399.865
318.226, 414.859
318.709, 429.550
319.191, 437.238
319.673, 439.161
320.155, 439.548
320.637, 436.829
321.119, 434.884
321.601, 436.170
322.083, 443.967
322.565, 450.132
323.048, 453.904
323.530, 454.993
324.012, 452.727
324.494, 445.724
324.976, 436.372
325.458, 423.656
325.940, 399.057
326.422, 389.276
326.905, 412.892
327.387, 449.493
327.869, 464.746
328.351, 431.833
328.833, 402.854
329.315, 392.305
329.797, 406.165
330.279, 417.304
330.762, 426.914
331.244, 433.290
331.726, 433.749
332.208, 423.063
332.690, 414.318
333.172, 410.356
333.654, 411.431
334.136, 415.310
334.618, 426.082
335.100, 435.214
335.583, 432.937
336.065, 412.702
336.547, 397.747
337.029, 393.507
337.511, 398.705
337.993, 400.426
338.475, 396.179
338.957, 393.880
339.440, 402.490
339.922, 425.349
340.404, 438.366
340.886, 434.905
341.368, 421.212
341.850, 419.243
342.332, 431.370
342.814, 441.991
343.297, 437.451
343.779, 418.537
344.261, 407.876
344.743, 409.173
345.225, 416.809
345.707, 421.480
346.189, 423.244
346.671, 422.453
347.153, 416.770
347.635, 408.287
348.118, 404.806
348.600, 406.946
349.082, 413.076
349.564, 425.275
350.046, 441.251
350.528, 450.466
351.010, 440.283
351.492, 422.833
351.975, 422.097
352.457, 439.403
352.939, 454.725
353.421, 442.301
353.903, 415.640
354.385, 400.797
354.867, 419.118
355.349, 445.074
355.832, 453.108
356.314, 444.976
356.796, 435.574
357.278, 434.056
357.760, 436.753
358.242, 439.657
358.724, 442.306
359.206, 444.099
359.688, 442.741
360.171, 439.724
360.653, 440.252
361.135, 455.131
361.617, 468.949
362.099, 469.717
362.581, 448.351
363.063, 429.261
363.545, 419.941
364.027, 418.099
364.510, 419.306
364.992, 422.857
365.474, 428.924
365.956, 439.238
366.438, 456.806
366.920, 468.023
367.402, 469.103
367.884, 464.001
368.366, 457.357
368.849, 443.706
369.331, 434.538
369.813, 432.210
370.295, 436.872
370.777, 445.323
371.259, 464.424
371.741, 481.340
372.224, 484.912
372.706, 464.787
373.188, 452.165
373.670, 454.864
374.152, 468.392
374.634, 469.239
375.116, 451.838
375.598, 433.230
376.080, 424.559
376.562, 428.201
377.045, 428.065
377.527, 420.509
378.009, 411.726
378.491, 418.263
378.973, 442.420
379.455, 462.412
379.937, 465.069
380.419, 452.155
380.902, 442.592
381.384, 436.663
381.866, 433.413
382.348, 432.589
382.830, 433.806
383.312, 434.553
383.794, 433.332
384.276, 431.243
384.759, 431.543
385.241, 434.176
385.723, 435.156
386.205, 426.183
386.687, 413.610
387.169, 410.605
387.651, 425.923
388.133, 444.928
388.615, 451.946
389.098, 449.357
389.580, 447.311
390.062, 454.168
390.544, 463.227
391.026, 468.109
391.508, 467.138
391.990, 463.863
392.472, 456.478
392.954, 448.504
393.437, 446.190
393.919, 455.598
394.401, 468.098
394.883, 482.418
395.365, 499.491
395.847, 508.082
396.329, 499.796
396.811, 484.118
397.293, 470.033
397.776, 452.544
398.258, 443.615
398.740, 450.088
399.222, 470.698
399.704, 483.886
400.186, 483.802
400.668, 481.135
401.151, 482.044
401.633, 492.692
402.115, 495.204
402.597, 483.936
403.079, 465.986
403.561, 460.410
404.043, 473.893
404.525, 485.363
405.007, 484.742
405.490, 469.880
405.972, 460.826
406.454, 457.915
406.936, 460.100
407.418, 468.899
407.900, 485.140
408.382, 495.533
408.864, 494.882
409.346, 485.933
409.828, 476.730
410.311, 467.069
410.793, 461.154
411.275, 466.936
411.757, 480.119
412.239, 484.293
412.721, 473.179
413.203, 458.377
413.685, 456.079
414.168, 464.165
414.650, 474.328
415.132, 483.868
415.614, 491.769
416.096, 495.841
416.578, 495.374
417.060, 494.933
417.542, 502.021
418.025, 510.369
418.507, 510.727
418.989, 490.065
419.471, 468.843
419.953, 456.994
420.435, 454.473
420.917, 455.373
421.399, 460.583
421.881, 466.727
422.364, 471.472
422.846, 474.682
423.328, 476.161
423.810, 475.584
424.292, 473.221
424.774, 469.731
425.256, 458.454
425.738, 452.728
426.220, 458.868
426.703, 482.048
427.185, 497.876
427.667, 504.719
428.149, 505.403
428.631, 502.671
429.113, 495.124
429.595, 487.552
430.077, 480.079
430.560, 473.319
431.042, 472.947
431.524, 480.944
432.006, 488.151
432.488, 485.495
432.970, 473.535
433.452, 467.082
433.934, 469.268
434.417, 474.888
434.899, 474.994
435.381, 470.126
435.863, 464.616
436.345, 456.969
436.827, 451.098
437.309, 457.702
437.791, 477.862
438.273, 497.491
438.755, 504.455
439.238, 502.478
439.720, 497.497
440.202, 488.398
440.684, 480.116
441.166, 477.176
441.648, 478.575
442.130, 479.669
442.612, 475.140
443.095, 471.523
443.577, 474.693
444.059, 490.671
444.541, 501.182
445.023, 496.250
445.505, 483.841
445.987, 476.496
446.469, 479.596
446.952, 484.474
447.434, 489.159
447.916, 493.552
448.398, 499.051
448.880, 507.649
449.362, 515.469
449.844, 519.756
450.326, 520.702
450.808, 517.192
451.290, 506.964
451.773, 493.250
452.255, 484.073
452.737, 479.164
453.219, 479.843
453.701, 490.775
454.183, 511.225
454.665, 519.383
455.147, 513.282
455.630, 502.975
456.112, 500.388
456.594, 504.185
457.076, 507.623
457.558, 509.609
458.040, 509.108
458.522, 501.867
459.004, 489.107
459.487, 479.428
459.969, 480.093
460.451, 486.369
460.933, 493.379
461.415, 501.020
461.897, 506.492
462.379, 506.329
462.861, 503.123
463.343, 501.095
463.826, 503.400
464.308, 505.806
464.790, 506.756
465.272, 506.146
465.754, 504.312
466.236, 498.746
466.718, 493.596
467.200, 491.723
467.682, 498.867
468.165, 501.811
468.647, 497.424
469.129, 489.128
469.611, 485.307
470.093, 487.070
470.575, 491.201
471.057, 497.480
471.539, 506.189
472.022, 511.923
472.504, 514.029
472.986, 514.698
473.468, 515.321
473.950, 515.910
474.432, 520.250
474.914, 531.894
475.396, 544.318
475.878, 541.979
476.361, 526.192
476.843, 509.541
477.325, 498.263
477.807, 491.886
478.289, 490.247
478.771, 493.535
479.253, 499.730
479.735, 511.715
480.217, 524.566
480.700, 530.848
481.182, 520.226
481.664, 508.998
482.146, 506.877
482.628, 512.089
483.110, 515.912
483.592, 513.602
484.074, 510.327
484.556, 508.720
485.039, 508.864
485.521, 511.191
486.003, 519.032
486.485, 527.836
486.967, 531.568
487.449, 525.832
487.931, 522.096
488.414, 523.766
488.896, 530.030
489.378, 532.454
489.860, 530.426
490.342, 526.212
490.824, 519.497
491.306, 509.929
491.788, 507.538
492.270, 514.697
492.753, 525.107
493.235, 529.955
493.717, 529.557
494.199, 526.511
494.681, 519.970
495.163, 512.383
495.645, 507.632
496.127, 505.668
496.609, 505.521
497.092, 507.066
497.574, 509.801
498.056, 513.723
498.538, 520.108
499.020, 524.404
499.502, 521.461
499.984, 515.086
500.466, 511.766
500.948, 516.515
501.431, 521.886
501.913, 525.494
502.395, 527.197
502.877, 528.131
503.359, 528.503
503.841, 528.021
504.323, 526.310
504.805, 521.903
505.288, 519.551
505.770, 521.395
506.252, 523.856
506.734, 517.735
507.216, 499.578
507.698, 487.819
508.180, 490.919
508.662, 506.108
509.145, 519.274
509.627, 530.835
510.109, 535.928
510.591, 523.054
511.073, 499.907
511.555, 492.006
512.037, 507.890
512.519, 527.105
513.001, 524.223
513.484, 507.210
513.966, 494.019
514.448, 493.061
514.930, 498.830
515.412, 511.484
515.894, 530.137
516.376, 542.334
516.858, 537.140
517.341, 527.289
517.823, 521.045
518.305, 517.467
518.787, 521.043
519.269, 539.380
519.751, 563.442
520.233, 578.588
520.715, 581.434
521.197, 580.078
521.680, 573.308
522.162, 562.275
522.644, 566.010
523.126, 590.320
523.608, 612.265
524.090, 610.002
524.572, 584.539
525.054, 573.609
525.536, 582.026
526.019, 599.750
526.501, 617.611
526.983, 633.884
527.465, 642.115
527.947, 630.895
528.429, 616.419
528.911, 621.354
529.393, 642.550
529.875, 660.660
530.358, 664.083
530.840, 659.622
531.322, 650.774
531.804, 634.549
532.286, 625.548
532.768, 638.423
533.250, 658.010
533.732, 665.619
534.214, 641.641
534.697, 625.375
535.179, 625.312
535.661, 638.640
536.143, 649.855
536.625, 660.375
537.107, 665.932
537.589, 661.844
538.071, 646.146
538.554, 639.436
539.036, 643.396
539.518, 651.839
540.000, 658.327
540.482, 662.937
540.964, 667.279
541.446, 672.632
541.928, 676.727
542.411, 673.997
542.893, 666.222
543.375, 660.627
543.857, 664.301
544.339, 670.445
544.821, 670.923
545.303, 664.741
545.785, 663.135
546.268, 675.969
546.750, 693.662
547.232, 707.905
547.714, 720.815
548.196, 725.301
548.678, 714.073
549.160, 694.342
549.642, 682.113
550.124, 678.321
550.606, 680.986
551.089, 692.579
551.571, 712.687
552.053, 720.896
552.535, 713.075
553.017, 705.680
553.499, 714.196
553.981, 737.109
554.463, 753.121
554.945, 759.352
555.428, 760.751
555.910, 762.420
556.392, 764.519
556.874, 767.599
557.356, 772.913
557.838, 778.466
558.320, 783.111
558.802, 786.594
559.284, 787.580
559.767, 782.799
560.249, 777.225
560.731, 772.757
561.213, 767.981
561.695, 770.794
562.177, 791.610
562.659, 816.206
563.141, 830.573
563.624, 828.729
564.106, 825.687
564.588, 820.731
565.070, 816.216
565.552, 819.644
566.034, 832.908
566.516, 846.982
566.998, 859.923
567.481, 870.868
567.963, 872.843
568.445, 865.310
568.927, 857.161
569.409, 857.542
569.891, 862.776
570.373, 863.931
570.855, 857.620
571.338, 852.960
571.820, 859.987
572.302, 873.837
572.784, 886.101
573.266, 891.734
573.748, 896.995
574.230, 907.109
574.712, 920.605
575.194, 926.973
575.677, 914.465
576.159, 903.376
576.641, 902.206
577.123, 913.176
577.605, 926.653
578.087, 946.827
578.569, 963.736
579.051, 963.074
579.533, 942.185
580.016, 930.902
580.498, 936.521
580.980, 949.867
581.462, 954.825
581.944, 952.061
582.426, 945.685
582.908, 931.519
583.390, 918.125
583.872, 918.720
584.355, 932.265
584.837, 947.585
585.319, 964.769
585.801, 976.848
586.283, 975.682
586.765, 952.815
587.247, 936.806
587.729, 938.330
588.211, 949.244
588.694, 959.906
589.176, 969.370
589.658, 979.542
590.140, 992.635
590.622, 1006.270
591.104, 1012.003
591.586, 1008.525
592.068, 1001.784
592.551, 992.127
593.033, 980.834
593.515, 977.986
593.997, 984.107
594.479, 990.940
594.961, 990.050
595.443, 985.062
595.925, 983.460
596.407, 987.482
596.890, 991.568
597.372, 990.139
597.854, 986.195
598.336, 984.186
598.818, 988.713
599.300, 992.268
599.782, 991.453
600.265, 987.208
600.747, 984.358
601.229, 988.221
601.711, 987.813
602.193, 977.594
602.675, 956.182
603.157, 940.308
603.639, 930.143
604.121, 924.801
604.604, 924.448
605.086, 928.897
605.568, 935.094
606.050, 944.096
606.532, 950.372
607.014, 941.185
607.496, 922.976
607.978, 913.353
608.460, 929.359
608.943, 946.999
609.425, 944.435
609.907, 926.253
610.389, 908.658
610.871, 896.067
611.353, 887.616
611.835, 883.830
612.317, 885.495
612.799, 886.537
613.282, 884.288
613.764, 883.605
614.246, 888.319
614.728, 900.507
615.210, 911.994
615.692, 924.421
616.174, 932.620
616.656, 925.718
617.138, 904.689
617.621, 884.534
618.103, 868.535
618.585, 856.918
619.067, 851.955
619.549, 852.010
620.031, 850.661
620.513, 841.527
620.995, 831.497
621.477, 826.192
621.960, 825.929
622.442, 826.664
622.924, 828.848
623.406, 830.224
623.888, 829.631
624.370, 828.828
624.852, 821.662
625.334, 803.438
625.817, 782.787
626.299, 771.716
626.781, 772.533
627.263, 770.468
627.745, 761.992
628.227, 750.120
628.709, 741.278
629.191, 735.210
629.674, 729.598
630.156, 725.485
630.638, 720.123
631.120, 706.675
631.602, 686.669
632.084, 672.107
632.566, 675.813
633.048, 683.589
633.531, 684.873
634.013, 676.697
634.495, 667.994
634.977, 660.059
635.459, 652.454
635.941, 644.895
636.423, 637.271
636.905, 629.831
637.387, 622.631
637.870, 615.536
638.352, 607.179
638.834, 597.247
639.316, 592.009
639.798, 596.905
640.280, 604.900
640.762, 597.838
641.244, 578.478
641.726, 563.196
642.209, 568.380
642.691, 578.164
643.173, 575.321
643.655, 558.582
644.137, 546.603
644.619, 551.839
645.101, 561.317
645.583, 565.730
646.065, 560.463
646.548, 557.045
647.030, 556.072
647.512, 556.472
647.994, 556.278
648.476, 554.386
648.958, 557.841
649.440, 570.059
649.922, 585.353
650.404, 590.883
650.887, 588.057
651.369, 586.722
651.851, 594.416
652.333, 604.318
652.815, 606.133
653.297, 601.503
653.779, 599.116
654.261, 603.148
654.744, 611.298
655.226, 624.237
655.708, 644.017
656.190, 656.778
656.672, 652.901
657.154, 647.424
657.636, 650.389
658.118, 664.978
658.601, 677.973
659.083, 688.206
659.565, 697.856
660.047, 712.087
660.529, 730.120
661.011, 741.471
661.493, 742.461
661.975, 737.168
662.458, 726.854
662.940, 714.413
663.422, 708.008
663.904, 713.553
664.386, 724.780
664.868, 740.070
665.350, 758.554
665.832, 774.554
666.314, 787.765
666.797, 797.073
667.279, 802.149
667.761, 802.826
668.243, 799.758
668.725, 791.663
669.207, 782.038
669.689, 772.539
670.171, 763.239
670.653, 758.083
671.135, 757.498
671.618, 760.645
672.100, 769.576
672.582, 781.158
673.064, 788.622
673.546, 788.594
674.028, 786.365
674.510, 788.214
674.992, 790.119
675.474, 784.315
675.957, 754.689
676.439, 732.221
676.921, 729.777
677.403, 742.512
677.885, 747.878
678.367, 741.548
678.849, 737.484
679.331, 743.080
679.814, 756.854
680.296, 766.294
680.778, 771.267
681.260, 771.063
681.742, 759.647
682.224, 744.008
682.706, 738.502
683.188, 745.371
683.670, 753.612
684.153, 754.191
684.635, 753.145
685.117, 756.840
685.599, 772.221
686.081, 783.137
686.563, 782.670
687.045, 778.484
687.528, 780.337
688.010, 791.403
688.492, 800.278
688.974, 804.734
689.456, 806.563
689.938, 810.183
690.420, 815.430
690.902, 819.913
691.384, 820.761
691.867, 821.452
692.349, 828.686
692.831, 841.025
693.313, 851.599
693.795, 854.965
694.277, 856.680
694.759, 860.447
695.241, 866.761
695.723, 871.695
696.206, 872.907
696.688, 874.159
697.170, 877.734
697.652, 884.733
698.134, 887.559
698.616, 883.372
699.098, 882.625
699.580, 901.653
700.062, 935.450
700.545, 958.167
701.027, 964.612
701.509, 963.907
701.991, 960.369
702.473, 957.340
702.955, 960.536
703.437, 980.304
703.919, 996.211
704.402, 996.953
704.884, 988.704
705.366, 985.266
705.848, 989.747
706.330, 996.018
706.812, 1003.529
707.294, 1011.884
707.776, 1019.836
708.258, 1027.705
708.741, 1032.930
709.223, 1033.681
709.705, 1031.043
710.187, 1025.865
710.669, 1018.637
711.151, 1014.836
711.633, 1018.977
712.115, 1027.440
712.597, 1037.037
713.080, 1047.390
713.562, 1060.164
714.044, 1081.404
714.526, 1100.881
