##NAMES=Spinel
##RRUFFID=R050184
##IDEAL CHEMISTRY=MgAl_2_O_4_
##LOCALITY=Pein Pyit, Mogok, Burma
##OWNER=RRUFF
##SOURCE=Marcus Origlieri
##DESCRIPTION=Red crystal in calcite, associated with yellowish-green clinohumite, R050183
##STATUS=The identification of this mineral has been confirmed by X-ray diffraction and chemical analysis
##URL=rruff.info/R050184
##MEASURED CHEMISTRY=Mg_1.00_(Al_1.99_Cr_0.01_)_Î£=2_O_4_; trace amounts of V
93.77539, 1771.442
94.25751, 1772.574
94.73962, 1771.720
95.22174, 1769.433
95.70386, 1767.732
96.18597, 1767.842
96.66809, 1769.170
97.15021, 1769.578
97.63232, 1768.885
98.11444, 1768.028
98.59656, 1768.357
99.07867, 1769.893
99.56079, 1771.666
100.0429, 1773.404
100.5250, 1775.110
101.0071, 1776.129
101.4893, 1776.141
101.9714, 1775.758
102.4535, 1776.535
102.9356, 1778.894
103.4177, 1781.247
103.8998, 1782.391
104.3820, 1781.491
104.8641, 1782.150
105.3462, 1785.394
105.8283, 1790.532
106.3104, 1793.778
106.7925, 1793.969
107.2747, 1793.500
107.7568, 1794.079
108.2389, 1796.878
108.7210, 1799.034
109.2031, 1799.864
109.6852, 1799.262
110.1674, 1799.509
110.6495, 1800.884
111.1316, 1802.993
111.6137, 1805.491
112.0958, 1808.582
112.5779, 1811.891
113.0601, 1815.584
113.5422, 1819.920
114.0243, 1823.481
114.5064, 1825.351
114.9885, 1826.522
115.4706, 1828.252
115.9528, 1831.303
116.4349, 1834.592
116.9170, 1837.562
117.3991, 1839.991
117.8812, 1842.725
118.3633, 1847.202
118.8455, 1852.196
119.3276, 1855.287
119.8097, 1853.206
120.2918, 1850.196
120.7739, 1849.547
121.2560, 1852.959
121.7382, 1856.754
122.2203, 1858.499
122.7024, 1858.703
123.1845, 1859.064
123.6666, 1860.800
124.1487, 1863.154
124.6309, 1865.325
125.1130, 1867.267
125.5951, 1868.694
126.0772, 1868.682
126.5593, 1867.441
127.0414, 1866.880
127.5236, 1868.873
128.0057, 1872.641
128.4878, 1876.632
128.9699, 1880.900
129.4520, 1884.765
129.9341, 1886.729
130.4162, 1886.733
130.8984, 1886.158
131.3805, 1886.038
131.8626, 1886.412
132.3447, 1887.508
132.8268, 1889.758
133.3089, 1892.858
133.7911, 1892.555
134.2732, 1883.451
134.7553, 1867.965
135.2374, 1852.371
135.7195, 1836.580
136.2016, 1821.915
136.6838, 1809.303
137.1659, 1798.746
137.6480, 1787.587
138.1301, 1775.373
138.6122, 1763.099
139.0943, 1752.735
139.5765, 1744.801
140.0586, 1736.352
140.5407, 1725.293
141.0228, 1710.570
141.5049, 1698.266
141.9870, 1688.739
142.4692, 1681.318
142.9513, 1674.535
143.4334, 1668.714
143.9155, 1662.709
144.3976, 1655.582
144.8797, 1646.385
145.3619, 1638.421
145.8440, 1632.424
146.3261, 1627.892
146.8082, 1622.755
147.2903, 1616.374
147.7724, 1610.010
148.2546, 1604.388
148.7367, 1600.288
149.2188, 1595.830
149.7009, 1590.989
150.1830, 1585.783
150.6651, 1580.061
151.1473, 1572.697
151.6294, 1565.577
152.1115, 1560.117
152.5936, 1558.634
153.0757, 1556.282
153.5578, 1551.816
154.0400, 1545.072
154.5221, 1539.894
155.0042, 1537.692
155.4863, 1536.482
155.9684, 1534.535
156.4505, 1531.615
156.9327, 1527.881
157.4148, 1522.755
157.8969, 1515.949
158.3790, 1510.464
158.8611, 1507.498
159.3432, 1505.874
159.8254, 1504.272
160.3075, 1503.228
160.7896, 1501.458
161.2717, 1498.287
161.7538, 1493.464
162.2359, 1488.563
162.7181, 1483.734
163.2002, 1479.267
163.6823, 1475.556
164.1644, 1473.401
164.6465, 1471.580
165.1286, 1469.351
165.6108, 1466.464
166.0929, 1463.781
166.5750, 1461.741
167.0571, 1460.140
167.5392, 1458.625
168.0213, 1456.845
168.5035, 1455.148
168.9856, 1454.001
169.4677, 1453.801
169.9498, 1453.033
170.4319, 1449.959
170.9140, 1445.453
171.3962, 1441.616
171.8783, 1440.126
172.3604, 1439.610
172.8425, 1438.670
173.3246, 1436.951
173.8067, 1435.071
174.2889, 1433.808
174.7710, 1432.921
175.2531, 1431.603
175.7352, 1428.705
176.2173, 1425.299
176.6994, 1422.977
177.1816, 1422.424
177.6637, 1422.343
178.1458, 1421.290
178.6279, 1419.396
179.1100, 1417.386
179.5921, 1415.433
180.0743, 1413.695
180.5564, 1412.667
181.0385, 1412.895
181.5206, 1413.180
182.0027, 1411.497
182.4848, 1408.021
182.9670, 1404.410
183.4491, 1401.603
183.9312, 1399.553
184.4133, 1398.338
184.8954, 1398.416
185.3775, 1398.824
185.8597, 1397.566
186.3418, 1394.671
186.8239, 1391.648
187.3060, 1389.875
187.7881, 1389.074
188.2702, 1388.087
188.7523, 1386.553
189.2345, 1384.738
189.7166, 1383.378
190.1987, 1382.509
190.6808, 1381.521
191.1629, 1379.719
191.6451, 1377.229
192.1272, 1374.938
192.6093, 1373.024
193.0914, 1371.495
193.5735, 1370.338
194.0556, 1369.569
194.5378, 1369.103
195.0199, 1368.906
195.5020, 1368.968
195.9841, 1369.133
196.4662, 1369.273
196.9483, 1369.465
197.4305, 1370.384
197.9126, 1372.241
198.3947, 1373.687
198.8768, 1372.884
199.3589, 1369.679
199.8410, 1366.898
200.3232, 1365.181
200.8053, 1364.425
201.2874, 1364.359
201.7695, 1365.256
202.2516, 1365.984
202.7337, 1365.145
203.2159, 1362.536
203.6980, 1360.161
204.1801, 1358.510
204.6622, 1357.557
205.1443, 1357.038
205.6264, 1357.156
206.1086, 1357.299
206.5907, 1356.717
207.0728, 1355.265
207.5549, 1354.004
208.0370, 1353.396
208.5191, 1353.361
209.0013, 1352.273
209.4834, 1349.686
209.9655, 1346.890
210.4476, 1345.444
210.9297, 1345.806
211.4118, 1345.833
211.8940, 1344.956
212.3761, 1343.208
212.8582, 1341.521
213.3403, 1339.724
213.8224, 1338.280
214.3045, 1337.828
214.7867, 1338.714
215.2688, 1339.542
215.7509, 1339.938
216.2330, 1339.898
216.7151, 1340.208
217.1972, 1341.090
217.6794, 1341.986
218.1615, 1342.184
218.6436, 1341.294
219.1257, 1340.676
219.6078, 1340.757
220.0899, 1341.529
220.5721, 1341.793
221.0542, 1341.442
221.5363, 1340.681
222.0184, 1339.589
222.5005, 1337.724
222.9826, 1336.583
223.4648, 1336.879
223.9469, 1338.654
224.4290, 1339.046
224.9111, 1337.507
225.3932, 1335.251
225.8753, 1333.402
226.3575, 1331.992
226.8396, 1330.997
227.3217, 1330.586
227.8038, 1330.771
228.2859, 1330.547
228.7680, 1329.615
229.2502, 1328.627
229.7323, 1328.301
230.2144, 1329.153
230.6965, 1329.630
231.1786, 1329.427
231.6607, 1328.549
232.1429, 1327.371
232.6250, 1325.426
233.1071, 1323.708
233.5892, 1323.325
234.0713, 1325.366
234.5534, 1326.521
235.0356, 1325.889
235.5177, 1323.549
235.9998, 1321.921
236.4819, 1321.116
236.9640, 1320.861
237.4461, 1320.902
237.9283, 1321.094
238.4104, 1321.895
238.8925, 1323.813
239.3746, 1326.730
239.8567, 1328.099
240.3388, 1327.328
240.8210, 1325.706
241.3031, 1324.007
241.7852, 1321.416
242.2673, 1320.484
242.7494, 1322.358
243.2315, 1326.664
243.7137, 1328.872
244.1958, 1327.980
244.6779, 1326.260
245.1600, 1325.372
245.6421, 1325.948
246.1242, 1326.003
246.6064, 1324.927
247.0885, 1323.022
247.5706, 1322.523
248.0527, 1324.478
248.5348, 1326.488
249.0169, 1326.857
249.4990, 1324.574
249.9812, 1323.009
250.4633, 1322.694
250.9454, 1323.350
251.4275, 1323.572
251.9096, 1322.974
252.3917, 1322.515
252.8739, 1322.843
253.3560, 1324.451
253.8381, 1325.622
254.3202, 1326.115
254.8023, 1326.103
255.2844, 1326.218
255.7666, 1326.481
256.2487, 1326.802
256.7308, 1327.112
257.2129, 1327.362
257.6950, 1327.729
258.1772, 1328.397
258.6593, 1329.106
259.1414, 1329.088
259.6235, 1327.906
260.1056, 1326.780
260.5877, 1326.315
261.0699, 1326.821
261.5520, 1327.007
262.0341, 1326.743
262.5162, 1326.235
262.9983, 1325.917
263.4804, 1325.854
263.9626, 1325.861
264.4447, 1325.852
264.9268, 1325.796
265.4089, 1325.994
265.8910, 1326.748
266.3731, 1327.498
266.8553, 1326.965
267.3374, 1324.404
267.8195, 1322.693
268.3016, 1323.285
268.7837, 1326.594
269.2658, 1328.581
269.7480, 1328.913
270.2301, 1328.393
270.7122, 1328.105
271.1943, 1328.091
271.6764, 1328.114
272.1585, 1328.024
272.6407, 1327.805
273.1228, 1327.987
273.6049, 1328.695
274.0870, 1329.499
274.5691, 1329.800
275.0512, 1329.426
275.5334, 1329.323
276.0155, 1329.871
276.4976, 1330.970
276.9797, 1331.567
277.4618, 1331.583
277.9439, 1331.323
278.4261, 1330.982
278.9081, 1330.537
279.3903, 1330.425
279.8724, 1330.898
280.3545, 1331.799
280.8366, 1332.339
281.3187, 1332.504
281.8008, 1332.478
282.2830, 1332.336
282.7651, 1332.082
283.2472, 1332.027
283.7293, 1332.281
284.2114, 1332.738
284.6935, 1333.003
285.1757, 1333.036
285.6578, 1333.231
286.1399, 1334.058
286.6220, 1335.438
287.1041, 1336.383
287.5862, 1336.683
288.0684, 1336.581
288.5505, 1336.428
289.0326, 1336.211
289.5147, 1336.299
289.9968, 1337.057
290.4789, 1338.373
290.9611, 1339.635
291.4432, 1340.851
291.9253, 1341.853
292.4074, 1342.294
292.8895, 1342.211
293.3716, 1341.975
293.8538, 1341.460
294.3359, 1340.920
294.8180, 1341.571
295.3001, 1343.752
295.7822, 1345.677
296.2643, 1344.247
296.7465, 1340.292
297.2286, 1337.561
297.7107, 1338.497
298.1928, 1341.645
298.6749, 1344.079
299.1570, 1345.801
299.6392, 1347.005
300.1213, 1347.301
300.6034, 1347.167
301.0855, 1347.846
301.5676, 1350.512
302.0497, 1353.799
302.5319, 1355.399
303.0140, 1355.429
303.4961, 1355.603
303.9782, 1357.783
304.4603, 1360.944
304.9424, 1363.303
305.4246, 1363.707
305.9067, 1363.814
306.3888, 1365.121
306.8709, 1367.564
307.3530, 1370.949
307.8351, 1375.614
308.3173, 1380.943
308.7994, 1386.217
309.2815, 1391.397
309.7636, 1396.387
310.2457, 1401.441
310.7278, 1406.341
311.2100, 1410.357
311.6921, 1413.874
312.1742, 1415.954
312.6563, 1415.734
313.1384, 1413.076
313.6205, 1408.382
314.1027, 1400.512
314.5848, 1390.893
315.0669, 1381.941
315.5490, 1374.710
316.0311, 1368.380
316.5132, 1362.452
316.9954, 1356.758
317.4775, 1352.299
317.9596, 1349.788
318.4417, 1348.623
318.9238, 1348.108
319.4059, 1349.169
319.8881, 1349.757
320.3702, 1348.679
320.8523, 1345.970
321.3344, 1343.668
321.8165, 1342.627
322.2986, 1342.056
322.7808, 1341.354
323.2629, 1339.616
323.7450, 1338.593
324.2271, 1339.301
324.7092, 1341.301
325.1913, 1342.316
325.6735, 1341.336
326.1556, 1339.825
326.6377, 1338.522
327.1198, 1337.656
327.6019, 1336.810
328.0840, 1335.618
328.5662, 1334.447
329.0483, 1334.190
329.5304, 1335.767
330.0125, 1337.389
330.4946, 1338.513
330.9767, 1339.037
331.4589, 1339.313
331.9410, 1338.996
332.4231, 1338.570
332.9052, 1338.719
333.3873, 1339.708
333.8694, 1340.851
334.3516, 1342.147
334.8337, 1343.656
335.3158, 1344.214
335.7979, 1343.234
336.2800, 1341.937
336.7621, 1341.500
337.2443, 1342.197
337.7264, 1343.018
338.2085, 1343.967
338.6906, 1344.934
339.1727, 1345.172
339.6548, 1344.431
340.1370, 1343.593
340.6191, 1343.367
341.1012, 1343.896
341.5833, 1343.962
342.0654, 1343.185
342.5475, 1342.187
343.0297, 1342.720
343.5118, 1345.034
343.9939, 1347.033
344.4760, 1347.224
344.9581, 1345.789
345.4402, 1345.266
345.9224, 1345.863
346.4045, 1346.912
346.8866, 1347.507
347.3687, 1347.680
347.8508, 1347.815
348.3329, 1348.119
348.8151, 1348.486
349.2972, 1348.363
349.7793, 1347.712
350.2614, 1347.498
350.7435, 1349.200
351.2256, 1352.139
351.7078, 1354.326
352.1899, 1354.871
352.6720, 1354.755
353.1541, 1355.385
353.6362, 1356.652
354.1183, 1357.852
354.6005, 1358.340
355.0826, 1358.514
355.5647, 1358.978
356.0468, 1359.939
356.5289, 1360.915
357.0110, 1361.450
357.4932, 1361.676
357.9753, 1361.907
358.4574, 1362.561
358.9395, 1363.115
359.4216, 1362.732
359.9037, 1361.167
360.3859, 1360.564
360.8680, 1363.230
361.3501, 1367.218
361.8322, 1370.155
362.3143, 1370.129
362.7964, 1369.871
363.2786, 1370.783
363.7607, 1372.737
364.2428, 1374.147
364.7249, 1373.815
365.2070, 1373.140
365.6891, 1373.099
366.1713, 1374.889
366.6534, 1376.047
367.1355, 1375.342
367.6176, 1373.598
368.0997, 1373.141
368.5818, 1376.096
369.0640, 1378.826
369.5461, 1379.763
370.0282, 1377.557
370.5103, 1376.838
370.9924, 1378.786
371.4745, 1381.734
371.9567, 1383.438
372.4388, 1382.896
372.9209, 1382.557
373.4030, 1382.793
373.8851, 1383.598
374.3672, 1385.389
374.8494, 1388.662
375.3315, 1392.237
375.8136, 1395.104
376.2957, 1397.104
376.7778, 1398.861
377.2599, 1400.274
377.7421, 1401.525
378.2242, 1403.275
378.7063, 1405.561
379.1884, 1408.021
379.6705, 1410.549
380.1526, 1413.163
380.6348, 1415.239
381.1169, 1416.633
381.5990, 1417.810
382.0811, 1419.684
382.5632, 1422.182
383.0453, 1424.175
383.5275, 1424.814
384.0096, 1424.709
384.4917, 1425.338
384.9738, 1426.709
385.4559, 1429.174
385.9380, 1433.753
386.4202, 1439.726
386.9023, 1445.181
387.3844, 1449.378
387.8665, 1453.378
388.3486, 1458.581
388.8307, 1464.772
389.3129, 1471.103
389.7950, 1476.433
390.2771, 1481.930
390.7592, 1489.068
391.2413, 1498.311
391.7234, 1507.664
392.2056, 1515.175
392.6877, 1521.881
393.1698, 1529.539
393.6519, 1539.262
394.1340, 1549.738
394.6161, 1560.111
395.0983, 1570.385
395.5804, 1581.396
396.0625, 1592.973
396.5446, 1605.678
397.0267, 1619.942
397.5089, 1636.545
397.9910, 1653.881
398.4731, 1670.859
398.9552, 1688.251
399.4373, 1708.383
399.9194, 1733.002
400.4016, 1759.163
400.8837, 1785.457
401.3658, 1811.368
401.8479, 1839.394
402.3300, 1870.789
402.8121, 1903.511
403.2942, 1935.321
403.7763, 1966.777
404.2585, 1996.555
404.7406, 2025.157
405.2227, 2052.238
405.7048, 2072.863
406.1869, 2087.130
406.6690, 2094.366
407.1512, 2094.396
407.6333, 2087.433
408.1154, 2071.048
408.5975, 2043.670
409.0796, 2008.502
409.5617, 1968.701
410.0439, 1924.116
410.5260, 1880.493
411.0081, 1840.654
411.4902, 1804.227
411.9723, 1767.509
412.4544, 1729.889
412.9366, 1694.857
413.4187, 1665.160
413.9008, 1639.971
414.3829, 1617.504
414.8650, 1597.348
415.3471, 1579.127
415.8293, 1562.917
416.3114, 1548.445
416.7935, 1535.131
417.2756, 1522.522
417.7577, 1510.877
418.2398, 1500.787
418.7220, 1492.394
419.2041, 1484.966
419.6862, 1478.378
420.1683, 1472.305
420.6504, 1466.422
421.1325, 1459.901
421.6147, 1454.055
422.0968, 1449.497
422.5789, 1446.187
423.0610, 1443.645
423.5431, 1442.727
424.0252, 1441.863
424.5074, 1439.965
424.9895, 1435.016
425.4716, 1431.486
425.9537, 1430.787
426.4358, 1431.583
426.9179, 1430.846
427.4001, 1426.855
427.8822, 1423.400
428.3643, 1421.734
428.8464, 1422.127
429.3285, 1422.394
429.8106, 1422.589
430.2928, 1422.591
430.7749, 1422.274
431.2570, 1421.615
431.7391, 1420.727
432.2212, 1419.539
432.7033, 1418.195
433.1855, 1417.171
433.6676, 1416.505
434.1497, 1415.877
434.6318, 1415.009
435.1139, 1413.980
435.5960, 1413.222
436.0782, 1412.729
436.5603, 1412.601
437.0424, 1413.243
437.5245, 1414.410
438.0066, 1415.264
438.4887, 1415.537
438.9709, 1415.307
439.4530, 1414.288
439.9351, 1412.644
440.4172, 1411.536
440.8993, 1412.441
441.3814, 1413.939
441.8636, 1414.405
442.3457, 1413.217
442.8278, 1411.988
443.3099, 1411.173
443.7920, 1411.016
444.2741, 1411.898
444.7563, 1415.688
445.2384, 1418.927
445.7205, 1419.982
446.2026, 1418.796
446.6847, 1417.570
447.1668, 1416.328
447.6490, 1415.447
448.1311, 1415.170
448.6132, 1416.069
449.0953, 1416.830
449.5774, 1417.408
450.0595, 1417.847
450.5417, 1418.268
451.0238, 1418.842
451.5059, 1419.073
451.9880, 1418.652
452.4701, 1417.522
452.9522, 1416.975
453.4344, 1417.133
453.9165, 1417.555
454.3986, 1417.865
454.8807, 1418.057
455.3628, 1418.141
455.8449, 1417.982
456.3271, 1417.910
456.8092, 1418.788
457.2913, 1420.550
457.7734, 1422.215
458.2555, 1423.398
458.7376, 1424.093
459.2198, 1424.001
459.7019, 1423.061
460.1840, 1422.506
460.6661, 1423.996
461.1482, 1426.500
461.6303, 1428.286
462.1125, 1428.509
462.5946, 1428.328
463.0767, 1428.301
463.5588, 1428.510
464.0409, 1429.182
464.5230, 1430.973
465.0052, 1432.817
465.4873, 1433.966
465.9694, 1434.173
466.4515, 1434.612
466.9336, 1435.781
467.4157, 1437.179
467.8979, 1438.333
468.3800, 1439.224
468.8621, 1439.777
469.3442, 1439.748
469.8263, 1439.332
470.3084, 1439.328
470.7906, 1439.899
471.2727, 1440.675
471.7548, 1441.605
472.2369, 1442.795
472.7190, 1443.550
473.2011, 1443.771
473.6833, 1443.818
474.1654, 1444.070
474.6475, 1444.529
475.1296, 1445.143
475.6117, 1445.814
476.0938, 1446.701
476.5760, 1448.461
477.0581, 1450.998
477.5402, 1453.158
478.0223, 1454.137
478.5044, 1454.235
478.9865, 1453.857
479.4687, 1452.969
479.9508, 1452.215
480.4329, 1452.189
480.9150, 1452.670
481.3971, 1453.366
481.8792, 1454.743
482.3614, 1455.724
482.8435, 1455.270
483.3256, 1453.840
483.8077, 1452.828
484.2898, 1452.840
484.7719, 1453.383
485.2541, 1454.386
485.7362, 1456.036
486.2183, 1457.279
486.7004, 1457.656
487.1825, 1457.714
487.6646, 1457.984
488.1468, 1458.873
488.6289, 1459.229
489.1110, 1458.419
489.5931, 1457.023
490.0752, 1457.186
490.5573, 1459.454
491.0395, 1461.933
491.5216, 1463.984
492.0037, 1465.625
492.4858, 1466.146
492.9679, 1465.262
493.4500, 1464.447
493.9322, 1465.825
494.4143, 1468.970
494.8964, 1470.931
495.3785, 1470.723
495.8606, 1469.688
496.3427, 1469.736
496.8249, 1470.684
497.3070, 1471.877
497.7891, 1472.984
498.2712, 1474.102
498.7533, 1475.431
499.2354, 1476.985
499.7176, 1478.248
500.1997, 1478.764
500.6818, 1478.928
501.1639, 1479.116
501.6460, 1479.547
502.1281, 1479.856
502.6103, 1479.825
503.0924, 1479.636
503.5745, 1479.659
504.0566, 1480.355
504.5387, 1480.869
505.0208, 1480.797
505.5030, 1480.088
505.9851, 1480.207
506.4672, 1481.556
506.9493, 1483.201
507.4314, 1484.474
507.9135, 1485.283
508.3957, 1486.195
508.8778, 1487.332
509.3599, 1488.419
509.8420, 1488.869
510.3241, 1488.687
510.8062, 1488.575
511.2884, 1488.525
511.7705, 1488.849
512.2526, 1490.758
512.7347, 1494.109
513.2168, 1497.121
513.6989, 1498.178
514.1810, 1498.229
514.6631, 1498.644
515.1453, 1499.724
515.6274, 1500.688
516.1095, 1500.771
516.5916, 1500.501
517.0737, 1500.582
517.5558, 1501.891
518.0380, 1502.943
518.5201, 1502.869
519.0022, 1501.970
519.4843, 1501.706
519.9664, 1502.551
520.4485, 1503.881
520.9307, 1505.414
521.4128, 1507.087
521.8949, 1509.357
522.3770, 1513.081
522.8591, 1516.448
523.3412, 1517.266
523.8234, 1514.701
524.3055, 1513.396
524.7876, 1514.214
525.2697, 1516.416
525.7518, 1518.627
526.2339, 1520.859
526.7161, 1522.379
527.1982, 1522.340
527.6803, 1521.396
528.1624, 1521.202
528.6445, 1521.750
529.1266, 1522.774
529.6088, 1524.421
530.0909, 1526.298
530.5730, 1527.862
531.0551, 1529.046
531.5372, 1529.808
532.0193, 1529.857
532.5015, 1529.535
532.9836, 1529.381
533.4657, 1529.539
533.9478, 1529.902
534.4299, 1530.500
534.9120, 1531.304
535.3942, 1532.108
535.8763, 1532.914
536.3584, 1533.693
536.8405, 1534.427
537.3226, 1535.119
537.8047, 1535.800
538.2869, 1536.466
538.7690, 1537.160
539.2511, 1537.943
539.7332, 1538.831
540.2153, 1539.743
540.6974, 1540.757
541.1796, 1541.661
541.6617, 1541.807
542.1438, 1541.283
542.6259, 1540.996
543.1080, 1541.235
543.5901, 1542.076
544.0723, 1544.166
544.5544, 1547.383
545.0365, 1549.882
545.5186, 1549.424
546.0007, 1547.988
546.4828, 1547.711
546.9650, 1549.470
547.4471, 1551.215
547.9292, 1551.925
548.4113, 1552.176
548.8934, 1552.763
549.3755, 1554.218
549.8577, 1555.611
550.3398, 1556.706
550.8219, 1557.579
551.3040, 1558.542
551.7861, 1559.365
552.2682, 1560.695
552.7504, 1563.184
553.2325, 1567.063
553.7146, 1569.036
554.1967, 1568.658
554.6788, 1567.699
555.1609, 1568.025
555.6431, 1569.470
556.1252, 1570.861
556.6073, 1572.059
557.0894, 1572.977
557.5715, 1573.064
558.0536, 1572.718
558.5358, 1573.081
559.0179, 1575.368
559.5000, 1578.115
559.9821, 1580.089
560.4642, 1581.369
560.9464, 1582.515
561.4285, 1583.731
561.9106, 1584.906
562.3927, 1585.857
562.8748, 1586.319
563.3569, 1587.265
563.8391, 1589.670
564.3212, 1592.075
564.8033, 1593.104
565.2854, 1591.734
565.7675, 1590.999
566.2496, 1591.254
566.7318, 1592.315
567.2139, 1593.998
567.6960, 1596.534
568.1781, 1598.289
568.6602, 1598.143
569.1423, 1596.813
569.6245, 1597.088
570.1066, 1598.971
570.5887, 1600.901
571.0708, 1601.717
571.5529, 1601.849
572.0350, 1601.768
572.5172, 1601.397
572.9993, 1601.643
573.4814, 1603.658
573.9635, 1606.470
574.4456, 1608.866
574.9277, 1610.190
575.4099, 1611.320
575.8920, 1612.538
576.3741, 1613.736
576.8562, 1614.634
577.3383, 1614.959
577.8204, 1615.287
578.3026, 1615.725
578.7847, 1616.283
579.2668, 1617.231
579.7489, 1618.827
580.2310, 1620.241
580.7131, 1620.562
581.1953, 1619.822
581.6774, 1620.312
582.1595, 1622.307
582.6416, 1624.858
583.1237, 1627.099
583.6058, 1628.958
584.0880, 1630.161
584.5701, 1630.291
585.0522, 1630.262
585.5343, 1630.902
586.0164, 1632.091
586.4985, 1633.535
586.9807, 1635.484
587.4628, 1637.325
587.9449, 1638.683
588.4270, 1639.572
588.9091, 1640.439
589.3912, 1641.546
