##NAMES=Spiroffite
##RRUFFID=R070744
##IDEAL CHEMISTRY=Mn^2+^_2_Te^4+^_3_O_8_
##LOCALITY=Bambollita mine (Oriental mine), Moctezuma, Municipio de Moctezuma, Sonora, Mexico
##OWNER=RRUFF
##SOURCE=Michael Scott
##DESCRIPTION=Massive red-orange/purple crystals; associated with yellow tellurite and quartz
##STATUS=The identification of this mineral has been confirmed by single-crystal X-ray diffraction.
##URL=rruff.info/R070744
119.6452, 14528.12
120.1273, 13226.10
120.6094, 12095.23
121.0915, 11182.37
121.5737, 10488.19
122.0558, 9948.329
122.5379, 9551.424
123.0200, 9277.628
123.5021, 9091.114
123.9842, 9019.029
124.4664, 9008.528
124.9485, 9008.430
125.4306, 9023.759
125.9127, 9018.065
126.3948, 8967.807
126.8769, 8869.199
127.3591, 8703.236
127.8412, 8434.142
128.3233, 8088.264
128.8054, 7724.907
129.2875, 7338.488
129.7696, 6948.469
130.2518, 6586.002
130.7339, 6258.134
131.2160, 5991.203
131.6981, 5800.474
132.1802, 5680.405
132.6623, 5580.020
133.1445, 5487.565
133.6266, 5401.096
134.1087, 5314.578
134.5908, 5229.684
135.0729, 5139.129
135.5550, 5031.716
136.0372, 4907.719
136.5193, 4769.129
137.0014, 4614.276
137.4835, 4444.153
137.9656, 4261.158
138.4477, 4056.381
138.9299, 3842.750
139.4120, 3658.419
139.8941, 3503.167
140.3762, 3375.255
140.8583, 3268.641
141.3404, 3181.525
141.8225, 3124.101
142.3047, 3105.670
142.7868, 3127.690
143.2689, 3137.531
143.7510, 3126.453
144.2331, 3110.839
144.7152, 3110.150
145.1974, 3120.755
145.6795, 3151.299
146.1616, 3205.675
146.6437, 3288.331
147.1258, 3382.165
147.6079, 3489.236
148.0901, 3607.896
148.5722, 3729.299
149.0543, 3872.492
149.5364, 4002.988
150.0185, 4105.038
150.5006, 4195.261
150.9828, 4237.829
151.4649, 4227.016
151.9470, 4164.589
152.4291, 4069.032
152.9112, 3915.747
153.3933, 3744.005
153.8755, 3579.709
154.3576, 3420.575
154.8397, 3274.954
155.3218, 3145.979
155.8039, 3033.350
156.2860, 2930.347
156.7682, 2824.189
157.2503, 2730.760
157.7324, 2669.481
158.2145, 2669.010
158.6966, 2683.371
159.1787, 2694.975
159.6609, 2702.135
160.1430, 2705.156
160.6251, 2698.024
161.1072, 2686.373
161.5893, 2683.300
162.0714, 2695.629
162.5536, 2717.119
163.0357, 2744.224
163.5178, 2785.595
163.9999, 2822.037
164.4820, 2842.234
164.9641, 2848.282
165.4463, 2852.327
165.9284, 2869.880
166.4105, 2885.545
166.8926, 2882.711
167.3747, 2830.683
167.8568, 2775.424
168.3390, 2755.269
168.8211, 2774.252
169.3032, 2785.168
169.7853, 2749.569
170.2674, 2685.364
170.7495, 2623.854
171.2317, 2578.596
171.7138, 2543.389
172.1959, 2512.989
172.6780, 2487.194
173.1601, 2465.259
173.6422, 2443.545
174.1244, 2424.336
174.6065, 2415.319
175.0886, 2422.335
175.5707, 2441.845
176.0528, 2469.218
176.5349, 2504.434
177.0171, 2545.395
177.4992, 2588.766
177.9813, 2634.720
178.4634, 2688.417
178.9455, 2758.411
179.4276, 2838.834
179.9098, 2917.899
180.3919, 2991.121
180.8740, 3060.749
181.3561, 3135.783
181.8382, 3215.960
182.3203, 3292.732
182.8025, 3356.131
183.2846, 3407.800
183.7667, 3456.994
184.2488, 3505.745
184.7309, 3555.107
185.2130, 3603.626
185.6951, 3650.726
186.1773, 3702.348
186.6594, 3764.225
187.1415, 3836.713
187.6236, 3924.844
188.1057, 4034.994
188.5878, 4164.034
189.0700, 4303.911
189.5521, 4453.064
190.0342, 4608.961
190.5163, 4767.014
190.9984, 4925.506
191.4805, 5092.618
191.9627, 5275.536
192.4448, 5472.875
192.9269, 5671.925
193.4090, 5877.393
193.8911, 6079.033
194.3732, 6251.326
194.8554, 6397.739
195.3375, 6504.555
195.8196, 6561.831
196.3017, 6569.873
196.7838, 6528.006
197.2659, 6430.965
197.7481, 6283.025
198.2302, 6105.408
198.7123, 5893.064
199.1944, 5666.221
199.6765, 5449.203
200.1586, 5241.282
200.6408, 5033.079
201.1229, 4813.559
201.6050, 4583.903
202.0871, 4383.132
202.5692, 4214.009
203.0513, 4069.037
203.5335, 3936.044
204.0156, 3814.077
204.4977, 3707.445
204.9798, 3623.907
205.4619, 3569.119
205.9440, 3498.152
206.4262, 3400.187
206.9083, 3292.056
207.3904, 3218.295
207.8725, 3185.956
208.3546, 3168.426
208.8367, 3151.100
209.3189, 3132.841
209.8010, 3118.995
210.2831, 3109.368
210.7652, 3104.374
211.2473, 3104.369
211.7294, 3106.096
212.2116, 3119.357
212.6937, 3154.412
213.1758, 3219.023
213.6579, 3281.204
214.1400, 3335.546
214.6221, 3383.104
215.1043, 3434.867
215.5864, 3493.585
216.0685, 3553.617
216.5506, 3611.958
217.0327, 3676.912
217.5148, 3720.416
217.9970, 3734.251
218.4791, 3717.077
218.9612, 3690.586
219.4433, 3653.610
219.9254, 3608.636
220.4075, 3555.854
220.8897, 3486.276
221.3718, 3428.106
221.8539, 3394.609
222.3360, 3392.933
222.8181, 3377.536
223.3002, 3339.212
223.7824, 3292.950
224.2645, 3267.002
224.7466, 3267.781
225.2287, 3277.520
225.7108, 3290.466
226.1929, 3307.876
226.6750, 3324.984
227.1572, 3341.157
227.6393, 3357.131
228.1214, 3375.556
228.6035, 3398.787
229.0856, 3420.781
229.5677, 3436.771
230.0499, 3438.331
230.5320, 3453.388
231.0141, 3489.146
231.4962, 3539.303
231.9783, 3578.161
232.4604, 3598.422
232.9426, 3616.182
233.4247, 3641.408
233.9068, 3676.542
234.3889, 3713.162
234.8710, 3749.654
235.3531, 3786.805
235.8353, 3829.812
236.3174, 3885.872
236.7995, 3939.766
237.2816, 3978.551
237.7637, 3991.327
238.2458, 4010.787
238.7280, 4047.253
239.2101, 4100.195
239.6922, 4131.064
240.1743, 4129.264
240.6564, 4115.905
241.1385, 4110.291
241.6207, 4116.095
242.1028, 4122.917
242.5849, 4128.521
243.0670, 4132.591
243.5491, 4137.909
244.0313, 4137.493
244.5134, 4144.130
244.9955, 4174.654
245.4776, 4243.197
245.9597, 4311.155
246.4418, 4367.006
246.9240, 4406.166
247.4061, 4460.105
247.8882, 4529.340
248.3703, 4612.385
248.8524, 4709.106
249.3345, 4830.695
249.8167, 4946.857
250.2988, 5046.805
250.7809, 5123.590
251.2630, 5213.925
251.7451, 5328.724
252.2272, 5449.706
252.7094, 5542.399
253.1915, 5597.675
253.6736, 5640.453
254.1557, 5682.269
254.6378, 5732.587
255.1199, 5753.188
255.6021, 5741.656
256.0842, 5701.591
256.5663, 5639.416
257.0484, 5551.162
257.5305, 5447.021
258.0126, 5329.643
258.4948, 5192.449
258.9769, 5058.581
259.4590, 4930.523
259.9411, 4804.856
260.4232, 4665.329
260.9053, 4499.396
261.3875, 4342.181
261.8696, 4210.932
262.3517, 4115.436
262.8338, 4021.793
263.3159, 3926.717
263.7980, 3833.019
264.2802, 3754.334
264.7623, 3692.869
265.2444, 3640.480
265.7265, 3589.402
266.2086, 3535.985
266.6907, 3501.803
267.1729, 3495.337
267.6550, 3508.364
268.1371, 3507.629
268.6192, 3486.722
269.1013, 3466.196
269.5834, 3458.889
270.0656, 3464.948
270.5477, 3484.808
271.0298, 3523.855
271.5119, 3575.803
271.9940, 3612.330
272.4761, 3627.584
272.9583, 3641.750
273.4404, 3670.306
273.9225, 3715.131
274.4046, 3764.993
274.8867, 3820.252
275.3688, 3879.094
275.8510, 3935.986
276.3331, 3991.970
276.8152, 4041.957
277.2973, 4080.060
277.7794, 4105.179
278.2615, 4130.355
278.7437, 4162.937
279.2258, 4196.933
279.7079, 4201.603
280.1900, 4172.423
280.6721, 4131.631
281.1542, 4096.657
281.6364, 4067.440
282.1185, 4042.809
282.6006, 4020.824
283.0827, 4003.361
283.5648, 3998.425
284.0469, 4006.634
284.5291, 4024.243
285.0112, 4044.888
285.4933, 4068.962
285.9754, 4110.600
286.4575, 4175.938
286.9396, 4260.377
287.4217, 4347.577
287.9038, 4437.012
288.3860, 4532.360
288.8681, 4635.790
289.3502, 4746.785
289.8323, 4871.405
290.3144, 5016.420
290.7965, 5173.208
291.2787, 5314.055
291.7608, 5438.221
292.2429, 5559.748
292.7250, 5699.792
293.2071, 5853.073
293.6892, 5992.432
294.1714, 6095.456
294.6535, 6183.476
295.1356, 6313.504
295.6177, 6488.247
296.0998, 6661.100
296.5819, 6785.208
297.0641, 6872.583
297.5462, 6960.469
298.0283, 7060.659
298.5104, 7169.040
298.9925, 7277.164
299.4746, 7385.464
299.9568, 7504.052
300.4389, 7638.956
300.9210, 7791.146
301.4031, 7967.409
301.8852, 8181.520
302.3673, 8411.662
302.8495, 8635.371
303.3316, 8850.618
303.8137, 9060.513
304.2958, 9273.239
304.7779, 9480.296
305.2600, 9662.597
305.7422, 9819.470
306.2243, 9944.514
306.7064, 10038.12
307.1885, 10100.14
307.6706, 10109.98
308.1527, 10055.93
308.6349, 9940.609
309.1170, 9769.006
309.5991, 9520.789
310.0812, 9231.439
310.5633, 8917.570
311.0454, 8577.622
311.5276, 8227.570
312.0097, 7854.828
312.4918, 7485.476
312.9739, 7143.941
313.4560, 6846.970
313.9381, 6576.169
314.4203, 6322.162
314.9024, 6082.689
315.3845, 5875.578
315.8666, 5719.741
316.3487, 5595.129
316.8308, 5482.800
317.3130, 5368.958
317.7951, 5273.307
318.2772, 5209.256
318.7593, 5174.699
319.2414, 5150.375
319.7235, 5132.032
320.2057, 5120.275
320.6878, 5115.597
321.1699, 5115.386
321.6520, 5125.165
322.1341, 5141.674
322.6162, 5166.419
323.0984, 5214.423
323.5805, 5296.989
324.0626, 5398.954
324.5447, 5510.113
325.0268, 5646.495
325.5089, 5773.167
325.9911, 5870.831
326.4732, 5944.226
326.9553, 6052.445
327.4374, 6237.742
327.9195, 6432.509
328.4016, 6598.914
328.8838, 6685.214
329.3659, 6807.469
329.8480, 6985.072
330.3301, 7209.002
330.8122, 7427.453
331.2943, 7643.893
331.7765, 7852.945
332.2586, 8048.975
332.7407, 8211.742
333.2228, 8399.671
333.7049, 8627.469
334.1870, 8884.394
334.6692, 9127.941
335.1513, 9352.124
335.6334, 9576.655
336.1155, 9812.327
336.5976, 10068.17
337.0797, 10312.27
337.5619, 10540.88
338.0440, 10756.45
338.5261, 10956.64
339.0082, 11135.87
339.4903, 11314.33
339.9724, 11511.17
340.4546, 11735.53
340.9367, 11907.03
341.4188, 12011.04
341.9009, 12075.41
342.3830, 12167.78
342.8651, 12293.87
343.3473, 12394.42
343.8294, 12437.79
344.3115, 12426.36
344.7936, 12378.10
345.2757, 12288.81
345.7578, 12175.67
346.2400, 12064.53
346.7221, 11955.75
347.2042, 11831.47
347.6863, 11680.72
348.1684, 11506.38
348.6505, 11315.39
349.1327, 11104.87
349.6148, 10881.85
350.0969, 10652.18
350.5790, 10415.61
351.0611, 10172.17
351.5432, 9920.749
352.0254, 9663.521
352.5075, 9397.892
352.9896, 9124.173
353.4717, 8849.919
353.9538, 8584.446
354.4359, 8324.511
354.9181, 8071.443
355.4002, 7826.939
355.8823, 7588.807
356.3644, 7355.409
356.8465, 7126.878
357.3286, 6903.884
357.8108, 6678.273
358.2929, 6459.667
358.7750, 6255.792
359.2571, 6084.051
359.7392, 5916.009
360.2213, 5729.138
360.7035, 5525.551
361.1856, 5338.667
361.6677, 5189.751
362.1498, 5061.117
362.6319, 4935.637
363.1140, 4808.031
363.5962, 4683.848
364.0783, 4564.447
364.5604, 4449.739
365.0425, 4339.189
365.5246, 4234.026
366.0067, 4131.866
366.4889, 4031.387
366.9710, 3925.028
367.4531, 3827.991
367.9352, 3744.959
368.4173, 3673.382
368.8994, 3601.764
369.3815, 3531.821
369.8636, 3460.539
370.3458, 3386.910
370.8279, 3303.555
371.3100, 3229.386
371.7921, 3165.098
372.2742, 3109.383
372.7563, 3059.220
373.2385, 3016.311
373.7206, 2976.817
374.2027, 2940.996
374.6848, 2911.477
375.1669, 2874.399
375.6490, 2826.036
376.1312, 2773.976
376.6133, 2729.762
377.0954, 2694.116
377.5775, 2662.998
378.0596, 2634.018
378.5417, 2607.764
379.0239, 2588.015
379.5060, 2575.564
379.9881, 2567.808
380.4702, 2562.055
380.9523, 2558.275
381.4344, 2557.184
381.9166, 2561.713
382.3987, 2568.541
382.8808, 2566.411
383.3629, 2554.866
383.8450, 2541.300
384.3271, 2527.557
384.8093, 2516.668
385.2914, 2519.339
385.7735, 2544.245
386.2556, 2578.785
386.7377, 2608.000
387.2198, 2631.740
387.7020, 2649.738
388.1841, 2654.457
388.6662, 2655.324
389.1483, 2665.188
389.6304, 2688.722
390.1125, 2719.608
390.5947, 2757.002
391.0768, 2799.090
391.5589, 2838.939
392.0410, 2872.662
392.5231, 2903.123
393.0052, 2930.634
393.4874, 2949.877
393.9695, 2979.510
394.4516, 3038.412
394.9337, 3111.637
395.4158, 3171.831
395.8979, 3196.575
396.3801, 3219.362
396.8622, 3255.245
397.3443, 3311.190
397.8264, 3359.310
398.3085, 3395.127
398.7906, 3421.123
399.2728, 3440.021
399.7549, 3459.395
400.2370, 3463.333
400.7191, 3444.113
401.2012, 3399.778
401.6833, 3362.527
402.1655, 3336.683
402.6476, 3314.229
403.1297, 3290.050
403.6118, 3268.514
404.0939, 3234.111
404.5760, 3182.238
405.0582, 3115.668
405.5403, 3049.532
406.0224, 2984.505
406.5045, 2919.727
406.9866, 2851.852
407.4688, 2779.763
407.9509, 2721.505
408.4330, 2682.068
408.9151, 2652.260
409.3972, 2611.386
409.8793, 2559.588
410.3615, 2510.188
410.8436, 2474.212
411.3257, 2446.708
411.8078, 2409.560
412.2899, 2359.394
412.7720, 2308.643
413.2542, 2273.104
413.7363, 2249.759
414.2184, 2229.010
414.7005, 2208.544
415.1826, 2187.535
415.6647, 2162.212
416.1469, 2132.547
416.6290, 2109.180
417.1111, 2107.987
417.5932, 2115.606
418.0753, 2114.651
418.5574, 2091.168
419.0396, 2064.724
419.5217, 2044.988
420.0038, 2031.250
420.4859, 2017.437
420.9680, 2000.291
421.4501, 1982.896
421.9323, 1967.671
422.4144, 1953.226
422.8965, 1943.120
423.3786, 1941.599
423.8607, 1945.292
424.3428, 1944.405
424.8250, 1931.536
425.3071, 1919.961
425.7892, 1914.637
426.2713, 1918.022
426.7534, 1921.060
427.2355, 1924.337
427.7177, 1926.883
428.1998, 1926.083
428.6819, 1917.693
429.1640, 1915.413
429.6461, 1924.532
430.1282, 1944.635
430.6104, 1963.534
431.0925, 1982.002
431.5746, 1996.945
432.0567, 2002.712
432.5388, 1998.922
433.0209, 1998.958
433.5031, 2006.511
433.9852, 2018.909
434.4673, 2029.150
434.9494, 2037.309
435.4315, 2047.784
435.9136, 2065.752
436.3958, 2088.424
436.8779, 2108.005
437.3600, 2122.055
437.8421, 2136.257
438.3242, 2155.935
438.8063, 2180.693
439.2885, 2209.378
439.7706, 2245.542
440.2527, 2282.894
440.7348, 2313.492
441.2169, 2335.789
441.6990, 2362.698
442.1812, 2402.360
442.6633, 2450.525
443.1454, 2502.650
443.6275, 2555.813
444.1096, 2614.007
444.5917, 2682.068
445.0739, 2759.236
445.5560, 2831.256
446.0381, 2886.047
446.5202, 2940.911
447.0023, 3005.907
447.4844, 3100.102
447.9666, 3180.462
448.4487, 3235.004
448.9308, 3276.738
449.4129, 3342.903
449.8950, 3444.909
450.3771, 3550.101
450.8592, 3644.528
451.3413, 3723.825
451.8235, 3814.994
452.3056, 3923.933
452.7877, 4035.698
453.2698, 4128.295
453.7519, 4198.959
454.2340, 4277.701
454.7162, 4378.637
455.1983, 4493.422
455.6804, 4596.857
456.1625, 4689.151
456.6446, 4772.289
457.1267, 4849.887
457.6089, 4919.900
458.0910, 4982.420
458.5731, 5039.993
459.0552, 5083.982
459.5373, 5101.373
460.0194, 5095.383
460.5016, 5076.599
460.9837, 5048.879
461.4658, 5012.348
461.9479, 4967.307
462.4300, 4914.210
462.9121, 4851.525
463.3943, 4773.402
463.8764, 4686.940
464.3585, 4602.452
464.8406, 4528.128
465.3227, 4451.117
465.8048, 4365.758
466.2870, 4271.978
466.7691, 4180.216
467.2512, 4087.256
467.7333, 3998.727
468.2154, 3917.719
468.6975, 3844.917
469.1797, 3778.226
469.6618, 3717.546
470.1439, 3663.691
470.6260, 3622.167
471.1081, 3600.006
471.5902, 3572.989
472.0724, 3527.847
472.5545, 3462.494
473.0366, 3407.729
473.5187, 3365.175
474.0008, 3330.099
474.4829, 3297.012
474.9651, 3266.180
475.4472, 3241.123
475.9293, 3225.885
476.4114, 3215.115
476.8935, 3195.672
477.3756, 3168.631
477.8578, 3144.745
478.3399, 3133.084
478.8220, 3129.351
479.3041, 3127.112
479.7862, 3124.692
480.2683, 3124.774
480.7505, 3130.226
481.2326, 3139.658
481.7147, 3150.106
482.1968, 3159.877
482.6789, 3170.693
483.1610, 3183.908
483.6432, 3199.885
484.1253, 3215.202
484.6074, 3233.761
485.0895, 3248.571
485.5716, 3253.694
486.0537, 3226.848
486.5359, 3216.563
487.0180, 3234.899
487.5001, 3274.526
487.9822, 3300.880
488.4643, 3306.956
488.9464, 3310.912
489.4286, 3320.847
489.9107, 3336.823
490.3928, 3359.306
490.8749, 3390.842
491.3570, 3424.613
491.8391, 3448.681
492.3213, 3462.975
492.8034, 3482.966
493.2855, 3513.635
493.7676, 3553.723
494.2497, 3602.870
494.7318, 3660.584
495.2140, 3721.005
495.6961, 3780.688
496.1782, 3839.444
496.6603, 3892.538
497.1424, 3934.073
497.6245, 3982.735
498.1067, 4057.688
498.5888, 4151.562
499.0709, 4247.450
499.5530, 4341.663
500.0351, 4433.471
500.5172, 4521.088
500.9994, 4601.353
501.4815, 4690.435
501.9636, 4801.071
502.4457, 4918.107
502.9278, 5027.652
503.4099, 5106.780
503.8921, 5208.181
504.3742, 5343.855
504.8563, 5506.113
505.3384, 5663.319
505.8205, 5814.702
506.3026, 5963.164
506.7848, 6103.706
507.2669, 6232.657
507.7490, 6394.563
508.2311, 6596.039
508.7132, 6816.993
509.1953, 7035.832
509.6775, 7252.125
510.1596, 7472.365
510.6417, 7695.486
511.1238, 7923.514
511.6059, 8159.565
512.0880, 8404.577
512.5701, 8657.650
513.0522, 8927.189
513.5344, 9203.209
514.0165, 9471.439
514.4986, 9725.194
514.9807, 9982.582
515.4628, 10249.05
515.9449, 10528.72
516.4271, 10824.36
516.9092, 11172.86
517.3913, 11507.10
517.8734, 11806.64
518.3555, 12070.72
518.8376, 12298.81
519.3198, 12474.25
519.8019, 12625.40
520.2840, 12774.89
520.7661, 12955.04
521.2482, 13066.00
521.7303, 13090.72
522.2125, 13051.00
522.6946, 12996.29
523.1767, 12930.08
523.6588, 12832.82
524.1409, 12690.28
524.6230, 12508.83
525.1052, 12318.80
525.5873, 12121.38
526.0694, 11905.34
526.5515, 11655.64
527.0336, 11379.74
527.5157, 11098.64
527.9979, 10821.11
528.4800, 10545.22
528.9621, 10274.93
529.4442, 10008.50
529.9263, 9731.963
530.4084, 9423.397
530.8906, 9115.375
531.3727, 8835.891
531.8548, 8586.917
532.3369, 8346.097
532.8190, 8101.785
533.3011, 7863.200
533.7833, 7642.572
534.2654, 7456.942
534.7475, 7268.317
535.2296, 7073.846
535.7117, 6872.322
536.1938, 6659.757
536.6760, 6421.902
537.1581, 6194.153
537.6402, 5988.379
538.1223, 5806.240
538.6044, 5639.496
539.0865, 5487.125
539.5687, 5348.227
540.0508, 5226.950
540.5329, 5120.066
541.0150, 5015.289
541.4971, 4909.323
541.9792, 4804.105
542.4614, 4700.783
542.9435, 4601.129
543.4256, 4513.418
543.9077, 4451.410
544.3898, 4398.639
544.8719, 4338.122
545.3541, 4266.717
545.8362, 4198.380
546.3183, 4137.860
546.8004, 4084.054
547.2825, 4035.245
547.7646, 3994.798
548.2468, 3955.734
548.7289, 3916.714
549.2110, 3877.985
549.6931, 3840.078
550.1752, 3795.752
550.6573, 3762.413
551.1395, 3752.747
551.6216, 3775.076
552.1037, 3765.537
552.5858, 3711.187
553.0679, 3653.101
553.5500, 3647.994
554.0322, 3693.262
554.5143, 3721.238
554.9964, 3709.078
555.4785, 3679.964
555.9606, 3678.435
556.4427, 3699.817
556.9249, 3718.838
557.4070, 3708.774
557.8891, 3693.939
558.3712, 3705.187
558.8533, 3747.761
559.3354, 3791.260
559.8176, 3818.689
560.2997, 3838.719
560.7818, 3860.340
561.2639, 3881.662
561.7460, 3909.002
562.2281, 3942.765
562.7103, 3983.610
563.1924, 4033.561
563.6745, 4104.349
564.1566, 4168.224
564.6387, 4211.928
565.1208, 4232.651
565.6030, 4265.129
566.0851, 4313.410
566.5672, 4363.545
567.0493, 4397.981
567.5314, 4417.319
568.0135, 4448.310
568.4957, 4499.580
568.9778, 4557.713
569.4599, 4604.804
569.9420, 4640.495
570.4241, 4661.154
570.9063, 4657.681
571.3884, 4642.922
571.8705, 4631.547
572.3526, 4624.168
572.8347, 4607.514
573.3168, 4565.702
573.7990, 4516.457
574.2811, 4476.111
574.7632, 4466.234
575.2453, 4438.543
575.7274, 4374.167
576.2095, 4288.506
576.6917, 4213.939
577.1738, 4161.057
577.6559, 4101.537
578.1380, 4023.801
578.6201, 3929.857
579.1022, 3854.729
579.5844, 3801.817
580.0665, 3754.997
580.5486, 3704.053
581.0307, 3648.650
581.5128, 3587.485
581.9949, 3518.041
582.4771, 3451.257
582.9592, 3404.140
583.4413, 3370.454
583.9234, 3334.763
584.4055, 3282.976
584.8876, 3232.756
585.3698, 3199.562
585.8519, 3180.952
586.3340, 3162.341
586.8161, 3133.203
587.2982, 3106.315
587.7803, 3090.874
588.2625, 3096.304
588.7446, 3090.483
589.2267, 3061.066
589.7088, 3027.246
590.1909, 3010.056
590.6730, 3014.707
591.1552, 3022.604
591.6373, 3032.345
592.1194, 3042.378
592.6015, 3046.422
593.0836, 3043.944
593.5657, 3044.168
594.0479, 3055.499
594.5300, 3073.012
595.0121, 3080.929
595.4942, 3078.557
595.9763, 3078.790
596.4584, 3092.410
596.9406, 3115.057
597.4227, 3140.864
597.9048, 3166.025
598.3869, 3198.221
598.8690, 3254.748
599.3511, 3319.354
599.8333, 3361.617
600.3154, 3350.455
600.7975, 3341.706
601.2796, 3348.512
601.7617, 3370.864
602.2438, 3405.788
602.7260, 3462.649
603.2081, 3516.047
603.6902, 3542.257
604.1723, 3537.285
604.6544, 3563.113
605.1365, 3627.988
605.6187, 3706.955
606.1008, 3766.980
606.5829, 3811.739
607.0650, 3855.626
607.5471, 3899.749
608.0292, 3949.905
608.5114, 4014.973
608.9935, 4091.786
609.4756, 4171.081
609.9577, 4234.909
610.4398, 4307.994
610.9219, 4411.871
611.4041, 4555.613
611.8862, 4681.241
612.3683, 4757.099
612.8504, 4824.759
613.3325, 4915.621
613.8146, 5040.874
614.2968, 5169.822
614.7789, 5300.457
615.2610, 5435.461
615.7431, 5575.646
