##NAMES=Spodumene
##RRUFFID=R060039
##IDEAL CHEMISTRY=LiAlSi_2_O_6_
##LOCALITY=Black Hills, South Dakota, USA
##OWNER=RRUFF
##SOURCE=University of Arizona Mineral Museum
##DESCRIPTION=Light green massive
##STATUS=The identification of this mineral has been confirmed by X-ray diffraction and chemical analysis
##URL=rruff.info/R060039
##MEASURED CHEMISTRY=Li_1.00_(Al_0.99_Fe^3+^_0.01_)Si_2.00_O_6_
135.1769, 2301.824
135.6590, 2303.351
136.1411, 2305.813
136.6232, 2307.325
137.1053, 2307.691
137.5874, 2307.898
138.0696, 2308.658
138.5517, 2309.914
139.0338, 2311.773
139.5159, 2314.340
139.9980, 2317.498
140.4801, 2320.398
140.9623, 2322.493
141.4444, 2325.160
141.9265, 2330.399
142.4086, 2339.359
142.8907, 2347.409
143.3728, 2353.086
143.8550, 2355.926
144.3371, 2360.083
144.8192, 2366.312
145.3013, 2373.274
145.7834, 2378.901
146.2655, 2383.553
146.7477, 2386.593
147.2298, 2387.389
147.7119, 2384.294
148.1940, 2383.851
148.6761, 2387.641
149.1582, 2393.846
149.6404, 2398.441
150.1225, 2400.480
150.6046, 2401.975
151.0867, 2403.556
151.5688, 2404.940
152.0509, 2406.795
152.5331, 2409.249
153.0152, 2412.124
153.4973, 2414.918
153.9794, 2416.994
154.4615, 2419.271
154.9436, 2422.130
155.4258, 2425.657
155.9079, 2429.525
156.3900, 2434.910
156.8721, 2441.048
157.3542, 2444.478
157.8363, 2441.479
158.3185, 2437.464
158.8006, 2435.679
159.2827, 2438.838
159.7648, 2442.275
160.2469, 2444.883
160.7290, 2446.781
161.2112, 2448.851
161.6933, 2452.229
162.1754, 2455.562
162.6575, 2457.722
163.1396, 2455.790
163.6217, 2454.941
164.1039, 2458.235
164.5860, 2465.597
165.0681, 2472.196
165.5502, 2475.455
166.0323, 2476.852
166.5145, 2478.117
166.9966, 2480.094
167.4787, 2481.944
167.9608, 2482.786
168.4429, 2482.498
168.9250, 2482.859
169.4072, 2485.403
169.8893, 2489.247
170.3714, 2493.002
170.8535, 2495.963
171.3356, 2498.707
171.8177, 2501.978
172.2999, 2505.987
172.7820, 2509.366
173.2641, 2510.297
173.7462, 2509.762
174.2283, 2509.890
174.7104, 2511.652
175.1926, 2514.631
175.6747, 2518.620
176.1568, 2523.841
176.6389, 2528.997
177.1210, 2532.952
177.6031, 2535.819
178.0853, 2538.028
178.5674, 2539.675
179.0495, 2540.883
179.5316, 2541.617
180.0137, 2541.565
180.4958, 2541.991
180.9780, 2544.771
181.4601, 2549.594
181.9422, 2554.734
182.4243, 2559.722
182.9064, 2564.233
183.3885, 2567.263
183.8707, 2568.121
184.3528, 2568.513
184.8349, 2570.883
185.3170, 2575.094
185.7991, 2580.311
186.2812, 2586.915
186.7633, 2594.156
187.2455, 2599.302
187.7276, 2601.437
188.2097, 2601.885
188.6918, 2603.418
189.1739, 2606.008
189.6560, 2607.948
190.1382, 2607.471
190.6203, 2604.994
191.1024, 2603.148
191.5845, 2602.630
192.0666, 2602.949
192.5487, 2602.700
193.0309, 2601.856
193.5130, 2601.521
193.9951, 2603.159
194.4772, 2606.669
194.9593, 2609.297
195.4414, 2610.501
195.9236, 2610.509
196.4057, 2609.293
196.8878, 2606.435
197.3699, 2604.621
197.8520, 2606.917
198.3341, 2613.462
198.8163, 2619.296
199.2984, 2623.505
199.7805, 2626.165
200.2626, 2627.235
200.7447, 2626.264
201.2268, 2625.298
201.7090, 2626.333
202.1911, 2629.511
202.6732, 2633.570
203.1553, 2638.999
203.6374, 2645.245
204.1195, 2647.721
204.6017, 2645.339
205.0838, 2642.173
205.5659, 2642.440
206.0480, 2646.705
206.5301, 2651.245
207.0122, 2655.125
207.4944, 2658.458
207.9765, 2662.776
208.4586, 2668.867
208.9407, 2674.303
209.4228, 2675.893
209.9049, 2672.375
210.3871, 2669.937
210.8692, 2670.008
211.3513, 2672.520
211.8334, 2676.544
212.3155, 2682.876
212.7976, 2689.442
213.2798, 2693.772
213.7619, 2695.121
214.2440, 2696.637
214.7261, 2699.294
215.2082, 2703.097
215.6903, 2705.947
216.1725, 2707.433
216.6546, 2708.509
217.1367, 2710.091
217.6188, 2712.024
218.1009, 2714.839
218.5830, 2718.719
219.0652, 2723.715
219.5473, 2729.413
220.0294, 2736.699
220.5115, 2743.668
220.9936, 2747.617
221.4757, 2746.743
221.9579, 2747.016
222.4400, 2750.125
222.9221, 2756.360
223.4042, 2762.099
223.8863, 2767.598
224.3684, 2772.430
224.8506, 2776.005
225.3327, 2777.546
225.8148, 2779.530
226.2969, 2782.801
226.7790, 2787.643
227.2611, 2791.479
227.7433, 2794.173
228.2254, 2796.203
228.7075, 2798.173
229.1896, 2800.500
229.6717, 2802.025
230.1538, 2802.028
230.6360, 2800.204
231.1181, 2800.398
231.6002, 2803.533
232.0823, 2807.784
232.5644, 2811.082
233.0465, 2812.974
233.5287, 2814.709
234.0108, 2816.331
234.4929, 2817.733
234.9750, 2820.010
235.4571, 2823.131
235.9392, 2827.051
236.4214, 2831.895
236.9035, 2838.231
237.3856, 2844.457
237.8677, 2850.576
238.3498, 2856.790
238.8319, 2860.880
239.3141, 2861.444
239.7962, 2861.239
240.2783, 2863.203
240.7604, 2868.427
241.2425, 2873.745
241.7246, 2878.161
242.2068, 2881.565
242.6889, 2886.985
243.1710, 2895.280
243.6531, 2904.732
244.1352, 2913.881
244.6173, 2922.992
245.0995, 2931.182
245.5816, 2938.039
246.0637, 2943.517
246.5458, 2949.201
247.0279, 2955.202
247.5100, 2961.322
247.9922, 2967.590
248.4743, 2975.300
248.9564, 2980.694
249.4385, 2982.787
249.9206, 2981.660
250.4027, 2980.194
250.8848, 2978.139
251.3670, 2976.060
251.8491, 2974.500
252.3312, 2973.685
252.8133, 2972.829
253.2954, 2971.518
253.7775, 2969.840
254.2597, 2969.525
254.7418, 2971.117
255.2239, 2973.327
255.7060, 2975.119
256.1881, 2976.227
256.6703, 2977.490
257.1524, 2979.058
257.6345, 2980.879
258.1166, 2982.695
258.5987, 2984.741
259.0808, 2986.401
259.5630, 2987.149
260.0451, 2986.673
260.5272, 2986.080
261.0093, 2985.230
261.4914, 2984.347
261.9735, 2985.004
262.4557, 2988.385
262.9378, 2991.264
263.4199, 2990.965
263.9020, 2985.973
264.3841, 2982.798
264.8662, 2982.322
265.3484, 2984.048
265.8305, 2986.125
266.3126, 2988.591
266.7947, 2991.380
267.2768, 2994.482
267.7589, 2998.056
268.2411, 3001.688
268.7232, 3005.635
269.2053, 3009.590
269.6874, 3012.304
270.1695, 3013.060
270.6516, 3014.565
271.1338, 3018.845
271.6159, 3026.845
272.0980, 3032.578
272.5801, 3035.047
273.0622, 3035.688
273.5443, 3037.489
274.0265, 3040.231
274.5086, 3044.540
274.9907, 3051.644
275.4728, 3062.176
275.9549, 3069.306
276.4370, 3072.075
276.9192, 3072.500
277.4013, 3074.172
277.8834, 3077.292
278.3655, 3080.796
278.8476, 3084.296
279.3297, 3087.879
279.8118, 3091.592
280.2939, 3095.305
280.7761, 3099.581
281.2582, 3105.966
281.7403, 3114.820
282.2224, 3122.153
282.7045, 3125.179
283.1866, 3124.507
283.6688, 3128.165
284.1509, 3137.104
284.6330, 3147.249
285.1151, 3153.088
285.5972, 3154.591
286.0793, 3156.956
286.5615, 3161.940
287.0436, 3169.156
287.5257, 3177.324
288.0078, 3186.652
288.4899, 3195.816
288.9720, 3203.025
289.4542, 3208.539
289.9363, 3215.139
290.4184, 3224.228
290.9005, 3234.720
291.3826, 3243.847
291.8647, 3251.620
292.3469, 3258.599
292.8290, 3265.207
293.3111, 3271.445
293.7932, 3277.606
294.2753, 3283.783
294.7574, 3289.899
295.2396, 3296.296
295.7217, 3302.907
296.2038, 3307.958
296.6859, 3310.450
297.1680, 3310.329
297.6501, 3306.891
298.1323, 3298.854
298.6144, 3289.576
299.0965, 3284.713
299.5786, 3283.481
300.0607, 3280.993
300.5428, 3272.192
301.0250, 3260.307
301.5071, 3251.479
301.9892, 3247.161
302.4713, 3244.115
302.9534, 3238.146
303.4355, 3230.193
303.9177, 3223.188
304.3998, 3218.929
304.8819, 3216.581
305.3640, 3215.426
305.8461, 3215.490
306.3282, 3216.017
306.8104, 3217.090
307.2925, 3218.164
307.7746, 3218.072
308.2567, 3214.299
308.7388, 3210.375
309.2209, 3209.984
309.7031, 3213.477
310.1852, 3217.640
310.6673, 3221.097
311.1494, 3223.713
311.6315, 3225.301
312.1136, 3224.536
312.5958, 3223.658
313.0779, 3223.817
313.5600, 3225.008
314.0421, 3227.456
314.5242, 3232.218
315.0063, 3237.789
315.4885, 3242.629
315.9706, 3244.973
316.4527, 3247.782
316.9348, 3253.785
317.4169, 3261.940
317.8990, 3267.623
318.3812, 3266.653
318.8633, 3264.005
319.3454, 3263.243
319.8275, 3266.580
320.3096, 3269.753
320.7917, 3271.845
321.2739, 3272.955
321.7560, 3273.224
322.2381, 3271.840
322.7202, 3270.412
323.2023, 3269.505
323.6844, 3268.692
324.1666, 3269.682
324.6487, 3274.164
325.1308, 3280.331
325.6129, 3285.352
326.0950, 3286.878
326.5771, 3288.922
327.0593, 3292.822
327.5414, 3299.093
328.0235, 3305.026
328.5056, 3311.202
328.9877, 3316.556
329.4698, 3319.887
329.9520, 3318.842
330.4341, 3318.534
330.9162, 3320.117
331.3983, 3323.686
331.8804, 3326.531
332.3625, 3327.349
332.8447, 3328.628
333.3268, 3332.514
333.8089, 3341.700
334.2910, 3348.662
334.7731, 3351.403
335.2552, 3351.132
335.7374, 3354.291
336.2195, 3362.149
336.7016, 3371.413
337.1837, 3380.691
337.6658, 3390.388
338.1479, 3397.987
338.6301, 3401.940
339.1122, 3404.598
339.5943, 3412.119
340.0764, 3426.040
340.5585, 3439.406
341.0406, 3448.215
341.5228, 3452.164
342.0049, 3457.737
342.4870, 3465.150
342.9691, 3473.804
343.4512, 3483.205
343.9333, 3493.560
344.4155, 3503.025
344.8976, 3510.598
345.3797, 3516.767
345.8618, 3522.791
346.3439, 3528.516
346.8260, 3535.569
347.3082, 3545.856
347.7903, 3559.127
348.2724, 3573.918
348.7545, 3590.180
349.2366, 3607.481
349.7188, 3625.052
350.2009, 3643.037
350.6830, 3661.149
351.1651, 3678.229
351.6472, 3695.435
352.1293, 3716.059
352.6115, 3741.962
353.0936, 3767.319
353.5757, 3786.759
354.0578, 3800.328
354.5399, 3808.581
355.0220, 3812.667
355.5042, 3811.267
355.9863, 3802.107
356.4684, 3784.723
356.9505, 3762.167
357.4326, 3732.474
357.9147, 3699.803
358.3969, 3671.010
358.8790, 3651.460
359.3611, 3634.451
359.8432, 3614.313
360.3253, 3591.122
360.8074, 3571.051
361.2896, 3557.851
361.7717, 3548.730
362.2538, 3541.193
362.7359, 3536.215
363.2180, 3530.917
363.7001, 3523.063
364.1823, 3513.746
364.6644, 3507.061
365.1465, 3505.635
365.6286, 3506.138
366.1107, 3507.021
366.5928, 3508.663
367.0750, 3509.647
367.5571, 3508.168
368.0392, 3506.152
368.5213, 3506.917
369.0034, 3513.607
369.4855, 3520.295
369.9677, 3525.288
370.4498, 3528.127
370.9319, 3530.910
371.4140, 3533.931
371.8961, 3536.516
372.3782, 3537.854
372.8604, 3536.612
373.3425, 3536.272
373.8246, 3537.696
374.3067, 3540.608
374.7888, 3542.834
375.2709, 3544.220
375.7531, 3545.310
376.2352, 3546.491
376.7173, 3547.870
377.1994, 3549.150
377.6815, 3549.893
378.1636, 3551.139
378.6458, 3555.791
379.1279, 3564.662
379.6100, 3573.050
380.0921, 3578.538
380.5742, 3581.245
381.0563, 3584.782
381.5385, 3589.303
382.0206, 3593.940
382.5027, 3597.250
382.9848, 3599.397
383.4669, 3601.919
383.9490, 3605.185
384.4312, 3609.187
384.9133, 3614.177
385.3954, 3620.079
385.8775, 3626.228
386.3596, 3632.159
386.8417, 3637.836
387.3239, 3643.086
387.8060, 3647.373
388.2881, 3652.158
388.7702, 3659.584
389.2523, 3668.948
389.7344, 3678.086
390.2166, 3686.622
390.6987, 3694.008
391.1808, 3699.406
391.6629, 3702.591
392.1450, 3705.404
392.6271, 3711.050
393.1093, 3716.500
393.5914, 3717.716
394.0735, 3709.325
394.5556, 3700.016
395.0377, 3694.127
395.5198, 3691.421
396.0020, 3688.113
396.4841, 3682.266
396.9662, 3675.892
397.4483, 3670.307
397.9304, 3665.993
398.4125, 3662.097
398.8947, 3656.813
399.3768, 3651.751
399.8589, 3650.927
400.3410, 3660.551
400.8231, 3668.740
401.3052, 3671.292
401.7874, 3666.103
402.2695, 3663.243
402.7516, 3663.779
403.2337, 3665.803
403.7158, 3667.105
404.1979, 3666.862
404.6800, 3667.858
405.1621, 3671.483
405.6443, 3677.093
406.1264, 3678.939
406.6085, 3675.448
407.0906, 3672.535
407.5727, 3675.322
408.0548, 3684.493
408.5370, 3690.865
409.0191, 3693.084
409.5012, 3692.968
409.9833, 3693.508
410.4654, 3694.672
410.9475, 3695.723
411.4297, 3695.915
411.9118, 3695.644
412.3939, 3696.139
412.8760, 3697.346
413.3581, 3699.804
413.8402, 3705.196
414.3224, 3712.281
414.8045, 3718.010
415.2866, 3721.011
415.7687, 3722.917
416.2508, 3726.193
416.7329, 3730.327
417.2151, 3733.013
417.6972, 3731.196
418.1793, 3728.229
418.6614, 3727.876
419.1435, 3731.558
419.6256, 3734.340
420.1078, 3731.638
420.5899, 3726.671
421.0720, 3724.092
421.5541, 3727.804
422.0362, 3732.133
422.5183, 3734.514
423.0005, 3734.892
423.4826, 3736.296
423.9647, 3739.362
424.4468, 3743.723
424.9289, 3749.074
425.4110, 3757.601
425.8932, 3764.312
426.3753, 3767.953
426.8574, 3769.646
427.3395, 3772.053
427.8216, 3774.776
428.3037, 3778.644
428.7859, 3784.384
429.2680, 3792.493
429.7501, 3798.567
430.2322, 3801.999
430.7143, 3804.177
431.1964, 3806.384
431.6786, 3808.560
432.1607, 3811.142
432.6428, 3814.353
433.1249, 3818.025
433.6070, 3822.067
434.0891, 3826.700
434.5713, 3829.987
435.0534, 3829.065
435.5355, 3825.359
436.0176, 3826.053
436.4997, 3832.444
436.9818, 3840.379
437.4640, 3845.142
437.9461, 3847.379
438.4282, 3849.032
438.9103, 3849.416
439.3924, 3850.561
439.8745, 3856.396
440.3567, 3866.197
440.8388, 3874.557
441.3209, 3876.547
441.8030, 3875.833
442.2851, 3876.257
442.7672, 3879.109
443.2494, 3881.964
443.7315, 3883.861
444.2136, 3884.789
444.6957, 3884.721
445.1778, 3883.038
445.6599, 3880.891
446.1421, 3878.415
446.6242, 3875.519
447.1063, 3873.548
447.5884, 3873.074
448.0705, 3873.345
448.5526, 3873.823
449.0348, 3874.829
449.5169, 3875.509
449.9990, 3875.364
450.4811, 3874.921
450.9632, 3875.912
451.4453, 3879.513
451.9275, 3882.315
452.4096, 3882.535
452.8917, 3879.848
453.3738, 3879.192
453.8559, 3881.270
454.3380, 3883.801
454.8202, 3883.928
455.3023, 3881.639
455.7844, 3880.026
456.2665, 3879.640
456.7486, 3880.536
457.2307, 3883.636
457.7129, 3888.716
458.1950, 3893.086
458.6771, 3894.193
459.1592, 3893.508
459.6413, 3893.985
460.1234, 3895.915
460.6056, 3898.269
461.0877, 3899.887
461.5698, 3901.356
462.0519, 3903.707
462.5340, 3908.798
463.0161, 3913.549
463.4983, 3915.374
463.9804, 3914.950
464.4625, 3915.251
464.9446, 3918.724
465.4267, 3922.486
465.9088, 3924.622
466.3910, 3924.150
466.8731, 3924.207
467.3552, 3925.841
467.8373, 3928.169
468.3194, 3930.050
468.8015, 3929.978
469.2837, 3931.116
469.7658, 3934.548
470.2479, 3939.899
470.7300, 3943.445
471.2121, 3944.068
471.6942, 3944.507
472.1764, 3946.172
472.6585, 3949.057
473.1406, 3953.378
473.6227, 3959.949
474.1048, 3966.583
474.5869, 3969.756
475.0691, 3969.459
475.5512, 3968.408
476.0333, 3967.070
476.5154, 3965.880
476.9975, 3965.978
477.4796, 3967.359
477.9618, 3969.310
478.4439, 3971.326
478.9260, 3973.549
479.4081, 3976.516
479.8902, 3980.594
480.3723, 3984.055
480.8545, 3984.053
481.3366, 3982.573
481.8187, 3983.060
482.3008, 3989.999
482.7829, 3996.584
483.2650, 3998.182
483.7472, 3995.444
484.2293, 3993.707
484.7114, 3994.844
485.1935, 3997.504
485.6756, 4001.028
486.1577, 4005.968
486.6399, 4010.592
487.1220, 4015.710
487.6041, 4020.159
488.0862, 4022.104
488.5683, 4019.441
489.0504, 4017.771
489.5326, 4017.973
490.0147, 4020.012
490.4968, 4024.466
490.9789, 4032.575
491.4610, 4039.609
491.9431, 4041.335
492.4253, 4037.562
492.9074, 4037.961
493.3895, 4044.036
493.8716, 4051.371
494.3537, 4053.455
494.8358, 4051.186
495.3180, 4049.673
495.8001, 4050.626
496.2822, 4053.462
496.7643, 4058.020
497.2464, 4064.022
497.7285, 4069.535
498.2107, 4072.969
498.6928, 4075.494
499.1749, 4078.098
499.6570, 4080.691
500.1391, 4084.265
500.6212, 4089.961
501.1034, 4096.597
501.5855, 4102.868
502.0676, 4108.403
502.5497, 4113.319
503.0318, 4117.879
503.5139, 4121.946
503.9961, 4124.765
504.4782, 4123.592
504.9603, 4124.018
505.4424, 4128.960
505.9245, 4140.611
506.4066, 4147.846
506.8888, 4149.017
507.3709, 4147.982
507.8530, 4149.009
508.3351, 4152.631
508.8172, 4155.157
509.2993, 4155.309
509.7815, 4154.634
510.2636, 4157.061
510.7457, 4162.552
511.2278, 4168.837
511.7099, 4175.425
512.1920, 4181.693
512.6741, 4185.397
513.1563, 4186.380
513.6384, 4188.602
514.1205, 4196.976
514.6026, 4208.295
515.0847, 4217.995
515.5668, 4224.710
516.0490, 4229.768
516.5311, 4232.892
517.0132, 4235.038
517.4953, 4238.113
517.9774, 4244.284
518.4595, 4250.185
518.9417, 4253.862
519.4238, 4255.103
519.9059, 4258.035
520.3880, 4266.232
520.8701, 4273.830
521.3522, 4277.640
521.8344, 4276.224
522.3165, 4273.667
522.7986, 4269.103
523.2807, 4264.103
523.7628, 4261.955
524.2449, 4263.452
524.7271, 4263.293
525.2092, 4259.041
525.6913, 4252.332
526.1734, 4249.592
526.6555, 4250.923
527.1376, 4252.059
527.6198, 4248.724
528.1019, 4243.115
528.5840, 4240.530
529.0661, 4241.710
529.5482, 4243.971
530.0303, 4245.391
530.5125, 4246.134
530.9946, 4246.461
531.4767, 4246.050
531.9588, 4245.622
532.4409, 4245.059
532.9230, 4244.671
533.4052, 4245.413
533.8873, 4249.197
534.3694, 4252.713
534.8515, 4253.854
535.3336, 4251.612
535.8157, 4252.411
536.2979, 4259.112
536.7800, 4266.560
537.2621, 4271.011
537.7442, 4271.534
538.2263, 4271.663
538.7084, 4271.283
539.1906, 4271.088
539.6727, 4272.719
540.1548, 4276.409
540.6369, 4279.781
541.1190, 4281.662
541.6011, 4282.775
542.0833, 4285.368
542.5654, 4289.375
543.0475, 4293.504
543.5296, 4296.989
544.0117, 4299.860
544.4938, 4301.928
544.9760, 4302.976
545.4581, 4304.156
545.9402, 4306.760
546.4223, 4309.755
546.9044, 4311.842
547.3865, 4310.510
547.8687, 4310.287
548.3508, 4313.596
548.8329, 4319.291
549.3150, 4323.738
549.7971, 4325.788
550.2792, 4327.177
550.7614, 4328.299
551.2435, 4329.138
551.7256, 4330.734
552.2077, 4333.801
552.6898, 4336.782
553.1719, 4338.513
553.6541, 4338.976
554.1362, 4338.559
554.6183, 4336.747
555.1004, 4335.319
555.5825, 4338.098
556.0646, 4344.342
556.5468, 4349.065
557.0289, 4348.893
557.5110, 4347.409
557.9931, 4351.051
558.4752, 4358.786
558.9573, 4365.299
559.4395, 4365.962
559.9216, 4364.890
560.4037, 4365.705
560.8858, 4368.985
561.3679, 4372.375
561.8500, 4374.921
562.3322, 4377.189
562.8143, 4379.723
563.2964, 4383.488
563.7785, 4386.466
564.2606, 4388.081
564.7427, 4389.014
565.2249, 4390.548
565.7070, 4392.817
566.1891, 4395.384
566.6712, 4398.343
567.1533, 4401.489
567.6354, 4403.367
568.1176, 4403.611
568.5997, 4404.854
569.0818, 4410.171
569.5639, 4418.211
570.0460, 4423.193
570.5281, 4424.354
571.0103, 4425.105
571.4924, 4428.975
571.9745, 4434.727
572.4566, 4440.269
572.9387, 4444.742
573.4208, 4449.170
573.9030, 4454.978
574.3851, 4461.235
574.8672, 4465.954
575.3493, 4466.647
575.8314, 4467.407
576.3135, 4469.515
576.7957, 4473.001
577.2778, 4477.451
577.7599, 4483.719
578.2420, 4489.903
578.7241, 4494.956
579.2062, 4498.769
579.6884, 4501.915
580.1705, 4504.194
580.6526, 4506.308
581.1347, 4509.238
581.6168, 4512.992
582.0989, 4516.472
582.5811, 4519.470
583.0632, 4522.155
583.5453, 4524.386
584.0274, 4526.484
584.5095, 4529.494
584.9916, 4536.088
585.4738, 4542.353
585.9559, 4543.644
586.4380, 4540.487
586.9201, 4538.019
587.4022, 4538.899
587.8843, 4540.967
588.3665, 4542.867
588.8486, 4544.312
589.3307, 4545.846
589.8128, 4548.487
590.2949, 4550.615
590.7770, 4550.821
591.2592, 4548.902
591.7413, 4545.300
592.2234, 4539.071
592.7055, 4532.095
593.1876, 4528.419
593.6697, 4528.206
594.1519, 4529.979
594.6340, 4534.256
595.1161, 4539.604
595.5982, 4541.866
596.0803, 4541.356
596.5624, 4540.979
597.0446, 4543.248
597.5267, 4546.500
598.0088, 4548.407
598.4909, 4548.654
598.9730, 4549.141
599.4551, 4551.039
599.9373, 4553.518
600.4194, 4555.726
600.9015, 4556.333
601.3836, 4558.284
601.8657, 4563.638
602.3478, 4570.014
602.8300, 4574.032
603.3121, 4575.639
603.7942, 4574.789
604.2763, 4570.159
604.7584, 4563.405
605.2405, 4561.535
605.7227, 4565.171
606.2048, 4569.474
606.6869, 4572.452
607.1690, 4574.130
607.6511, 4574.256
608.1332, 4572.856
608.6154, 4571.230
609.0975, 4568.812
609.5796, 4567.435
610.0617, 4570.015
610.5438, 4577.910
611.0259, 4586.482
611.5081, 4594.452
611.9902, 4601.112
612.4723, 4605.713
612.9544, 4605.958
613.4365, 4606.532
613.9186, 4607.985
614.4008, 4610.247
614.8829, 4613.519
615.3650, 4618.894
615.8471, 4622.797
616.3292, 4623.708
616.8113, 4622.091
617.2935, 4620.892
617.7756, 4619.866
618.2577, 4621.027
618.7398, 4627.706
619.2219, 4637.453
619.7040, 4643.322
620.1862, 4644.739
620.6683, 4644.636
621.1504, 4644.987
621.6325, 4645.524
622.1146, 4646.040
622.5967, 4646.878
623.0789, 4646.968
623.5610, 4644.119
624.0431, 4640.844
624.5252, 4640.714
625.0073, 4648.759
625.4894, 4654.740
625.9716, 4656.007
626.4537, 4654.328
626.9358, 4655.806
627.4179, 4661.677
627.9000, 4667.189
628.3821, 4670.185
628.8643, 4671.124
629.3464, 4673.547
629.8285, 4677.439
630.3106, 4680.570
630.7927, 4679.587
631.2748, 4677.022
631.7570, 4678.310
