##NAMES=Spodumene
##RRUFFID=R050252
##IDEAL CHEMISTRY=LiAlSi_2_O_6_
##LOCALITY=Minas Gerais, Brazil
##OWNER=RRUFF
##SOURCE=Marcus Origlieri
##DESCRIPTION=Pale lavendar cleavage fragment
##STATUS=The identification of this mineral has been confirmed by X-ray diffraction and chemical analysis
##URL=rruff.info/R050252
##MEASURED CHEMISTRY=Li_1.00_Al_1.00_Si_2.00_O_6_
93.12335, 0.0000000E+00
93.60547, 765.7145
94.08759, 739.3124
94.56970, 751.2240
95.05182, 796.3407
95.53394, 858.2299
96.01605, 936.9216
96.49817, 1027.879
96.98029, 1116.565
97.46240, 1201.901
97.94452, 1293.533
98.42664, 1399.867
98.90875, 1521.256
99.39087, 1659.840
99.87299, 1816.832
100.3551, 1991.411
100.8372, 2179.964
101.3193, 2382.054
101.8015, 2596.592
102.2836, 2820.703
102.7657, 3061.469
103.2478, 3295.348
103.7299, 3508.711
104.2120, 3701.787
104.6942, 3880.442
105.1763, 4043.779
105.6584, 4194.124
106.1405, 4345.151
106.6226, 4488.334
107.1047, 4640.825
107.5869, 4810.350
108.0690, 5001.493
108.5511, 5206.566
109.0332, 5427.362
109.5153, 5665.506
109.9974, 5908.776
110.4795, 6151.976
110.9617, 6405.446
111.4438, 6676.376
111.9259, 6986.023
112.4080, 7295.292
112.8901, 7596.762
113.3722, 7891.655
113.8544, 8192.528
114.3365, 8513.260
114.8186, 8835.388
115.3007, 9143.877
115.7828, 9431.203
116.2649, 9705.766
116.7471, 9965.010
117.2292, 10210.97
117.7113, 10451.07
118.1934, 10691.41
118.6755, 10927.52
119.1576, 11151.26
119.6398, 11361.89
120.1219, 11560.88
120.6040, 11745.22
121.0861, 11910.86
121.5682, 12074.81
122.0503, 12243.91
122.5325, 12418.88
123.0146, 12601.69
123.4967, 12800.05
123.9788, 13003.52
124.4609, 13201.77
124.9430, 13380.26
125.4252, 13564.59
125.9073, 13782.52
126.3894, 14030.53
126.8715, 14287.65
127.3536, 14546.73
127.8357, 14802.62
128.3179, 15051.36
128.8000, 15287.25
129.2821, 15515.49
129.7642, 15745.53
130.2463, 15977.38
130.7284, 16199.75
131.2106, 16407.21
131.6927, 16598.05
132.1748, 16763.29
132.6569, 16885.67
133.1390, 16968.20
133.6211, 17002.43
134.1033, 16982.55
134.5854, 16972.14
135.0675, 16947.77
135.5496, 16909.86
136.0317, 16877.38
136.5138, 16858.03
136.9960, 16851.37
137.4781, 16848.64
137.9602, 16851.34
138.4423, 16854.87
138.9244, 16850.45
139.4065, 16835.66
139.8887, 16823.48
140.3708, 16819.73
140.8529, 16825.75
141.3350, 16830.81
141.8171, 16835.25
142.2992, 16837.95
142.7814, 16834.34
143.2635, 16817.50
143.7456, 16807.78
144.2277, 16815.71
144.7098, 16848.51
145.1919, 16880.45
145.6741, 16911.21
146.1562, 16940.61
146.6383, 16965.57
147.1204, 16982.38
147.6025, 16999.45
148.0846, 17021.09
148.5668, 17045.19
149.0489, 17076.99
149.5310, 17122.07
150.0131, 17177.29
150.4952, 17220.52
150.9773, 17239.99
151.4595, 17255.13
151.9416, 17277.31
152.4237, 17308.62
152.9058, 17343.88
153.3879, 17388.21
153.8700, 17440.42
154.3522, 17478.73
154.8343, 17487.27
155.3164, 17489.96
155.7985, 17504.19
156.2806, 17551.86
156.7627, 17591.56
157.2449, 17612.08
157.7270, 17612.51
158.2091, 17612.21
158.6912, 17607.44
159.1733, 17606.60
159.6554, 17617.54
160.1376, 17647.17
160.6197, 17684.05
161.1018, 17728.73
161.5839, 17782.49
162.0660, 17826.70
162.5481, 17844.33
163.0303, 17851.67
163.5124, 17868.44
163.9945, 17911.25
164.4766, 17957.62
164.9587, 17994.99
165.4408, 18021.06
165.9230, 18047.99
166.4051, 18083.92
166.8872, 18124.57
167.3693, 18163.31
167.8514, 18197.84
168.3335, 18229.16
168.8157, 18257.12
169.2978, 18281.00
169.7799, 18304.98
170.2620, 18331.25
170.7441, 18359.57
171.2262, 18389.34
171.7084, 18419.45
172.1905, 18451.18
172.6726, 18486.32
173.1547, 18525.98
173.6368, 18566.59
174.1189, 18607.61
174.6011, 18647.81
175.0832, 18683.35
175.5653, 18705.95
176.0474, 18724.40
176.5295, 18749.15
177.0116, 18781.40
177.4938, 18821.71
177.9759, 18877.13
178.4580, 18943.92
178.9401, 19004.75
179.4222, 19047.08
179.9043, 19076.96
180.3865, 19104.96
180.8686, 19133.28
181.3507, 19159.91
181.8328, 19180.62
182.3149, 19196.18
182.7970, 19211.40
183.2792, 19222.19
183.7613, 19234.89
184.2434, 19268.64
184.7255, 19333.73
185.2076, 19411.61
185.6897, 19470.76
186.1718, 19511.83
186.6540, 19553.51
187.1361, 19618.35
187.6182, 19698.14
188.1003, 19755.82
188.5824, 19780.50
189.0645, 19783.86
189.5467, 19785.90
190.0288, 19786.29
190.5109, 19793.61
190.9930, 19820.68
191.4751, 19864.11
191.9572, 19898.46
192.4394, 19916.99
192.9215, 19925.21
193.4036, 19933.54
193.8857, 19941.03
194.3678, 19960.70
194.8499, 20020.98
195.3321, 20118.35
195.8142, 20173.14
196.2963, 20154.42
196.7784, 20087.56
197.2605, 20059.44
197.7426, 20074.04
198.2248, 20105.50
198.7069, 20130.83
199.1890, 20149.60
199.6711, 20176.09
200.1532, 20217.02
200.6353, 20266.93
201.1175, 20299.28
201.5996, 20308.66
202.0817, 20316.77
202.5638, 20344.49
203.0459, 20393.24
203.5280, 20445.22
204.0102, 20500.30
204.4923, 20555.95
204.9744, 20594.97
205.4565, 20614.20
205.9386, 20625.76
206.4207, 20637.68
206.9029, 20647.94
207.3850, 20671.66
207.8671, 20718.59
208.3492, 20784.33
208.8313, 20825.04
209.3134, 20831.50
209.7956, 20832.77
210.2777, 20858.12
210.7598, 20913.93
211.2419, 20968.40
211.7240, 21015.05
212.2061, 21054.69
212.6883, 21098.38
213.1704, 21149.08
213.6525, 21198.77
214.1346, 21237.19
214.6167, 21259.08
215.0988, 21288.30
215.5810, 21334.71
216.0631, 21395.78
216.5452, 21434.89
217.0273, 21440.44
217.5094, 21441.59
217.9915, 21465.57
218.4737, 21518.54
218.9558, 21578.73
219.4379, 21645.70
219.9200, 21718.74
220.4021, 21772.92
220.8842, 21798.61
221.3664, 21817.55
221.8485, 21848.93
222.3306, 21897.31
222.8127, 21947.65
223.2948, 21998.28
223.7769, 22049.40
224.2591, 22091.40
224.7412, 22117.62
225.2233, 22143.83
225.7054, 22185.10
226.1875, 22247.29
226.6696, 22312.26
227.1518, 22379.26
227.6339, 22448.67
228.1160, 22505.38
228.5981, 22545.35
229.0802, 22578.17
229.5623, 22611.02
230.0445, 22645.80
230.5266, 22677.01
231.0087, 22699.00
231.4908, 22713.46
231.9729, 22748.91
232.4550, 22816.60
232.9372, 22891.03
233.4193, 22951.05
233.9014, 22988.77
234.3835, 23027.47
234.8656, 23070.06
235.3477, 23115.73
235.8299, 23161.03
236.3120, 23205.81
236.7941, 23250.89
237.2762, 23296.59
237.7583, 23340.88
238.2404, 23390.18
238.7226, 23448.96
239.2047, 23515.12
239.6868, 23566.75
240.1689, 23592.57
240.6510, 23618.64
241.1331, 23664.25
241.6153, 23742.90
242.0974, 23812.15
242.5795, 23863.31
243.0616, 23900.35
243.5437, 23946.76
244.0258, 24006.04
244.5080, 24070.45
244.9901, 24136.55
245.4722, 24208.97
245.9543, 24271.96
246.4364, 24313.21
246.9185, 24343.34
247.4007, 24417.13
247.8828, 24573.01
248.3649, 24718.16
248.8470, 24794.21
249.3291, 24764.56
249.8112, 24754.41
250.2934, 24781.81
250.7755, 24831.88
251.2576, 24849.84
251.7397, 24816.13
252.2218, 24780.18
252.7039, 24767.95
253.1861, 24789.80
253.6682, 24808.22
254.1503, 24819.29
254.6324, 24826.89
255.1145, 24842.10
255.5966, 24866.82
256.0788, 24895.23
256.5609, 24924.30
257.0430, 24953.27
257.5251, 24985.17
258.0072, 25021.21
258.4893, 25059.21
258.9715, 25094.70
259.4536, 25124.89
259.9357, 25157.72
260.4178, 25198.19
260.8999, 25249.11
261.3820, 25295.59
261.8642, 25340.78
262.3463, 25378.84
262.8284, 25396.65
263.3105, 25383.66
263.7926, 25374.73
264.2747, 25381.58
264.7569, 25405.38
265.2390, 25440.51
265.7211, 25492.71
266.2032, 25550.58
266.6853, 25598.17
267.1674, 25632.93
267.6496, 25664.62
268.1317, 25695.17
268.6138, 25725.08
269.0959, 25754.97
269.5780, 25782.56
270.0602, 25814.08
270.5423, 25860.32
271.0244, 25926.85
271.5065, 25985.99
271.9886, 26026.34
272.4707, 26049.18
272.9529, 26079.40
273.4350, 26117.53
273.9171, 26160.90
274.3992, 26206.29
274.8813, 26252.17
275.3634, 26307.27
275.8456, 26377.61
276.3277, 26459.53
276.8098, 26525.04
277.2919, 26568.45
277.7740, 26612.36
278.2561, 26680.69
278.7382, 26775.88
279.2203, 26864.97
279.7025, 26940.99
280.1846, 27006.01
280.6667, 27067.59
281.1488, 27124.21
281.6309, 27185.28
282.1130, 27261.11
282.5952, 27351.87
283.0773, 27437.71
283.5594, 27515.54
284.0415, 27587.16
284.5236, 27654.70
285.0057, 27718.02
285.4879, 27780.58
285.9700, 27843.38
286.4521, 27906.56
286.9342, 27974.71
287.4163, 28050.32
287.8984, 28127.45
288.3806, 28188.78
288.8627, 28234.87
289.3448, 28289.78
289.8269, 28369.56
290.3090, 28471.45
290.7911, 28582.42
291.2733, 28707.74
291.7554, 28826.26
292.2375, 28894.87
292.7196, 28920.51
293.2017, 28954.64
293.6838, 29033.14
294.1660, 29139.99
294.6481, 29227.66
295.1302, 29294.24
295.6123, 29344.07
296.0944, 29377.51
296.5765, 29396.39
297.0587, 29409.52
297.5408, 29424.42
298.0229, 29434.38
298.5050, 29423.92
298.9871, 29392.68
299.4692, 29351.44
299.9514, 29304.70
300.4335, 29255.65
300.9156, 29215.22
301.3977, 29195.75
301.8798, 29178.88
302.3619, 29131.61
302.8441, 29057.25
303.3262, 28990.38
303.8083, 28961.89
304.2904, 28957.27
304.7725, 28950.11
305.2546, 28929.08
305.7368, 28910.92
306.2189, 28914.71
306.7010, 28937.13
307.1831, 28965.36
307.6652, 28997.29
308.1473, 29027.93
308.6295, 29048.48
309.1116, 29051.56
309.5937, 29059.80
310.0758, 29095.50
310.5579, 29150.13
311.0400, 29203.15
311.5222, 29239.12
312.0043, 29272.04
312.4864, 29316.30
312.9685, 29377.32
313.4506, 29428.85
313.9327, 29436.30
314.4149, 29427.93
314.8970, 29447.47
315.3791, 29545.97
315.8612, 29651.59
316.3433, 29721.32
316.8254, 29752.23
317.3076, 29772.32
317.7897, 29779.46
318.2718, 29787.57
318.7539, 29810.90
319.2360, 29865.90
319.7181, 29925.76
320.2003, 29985.15
320.6824, 30043.12
321.1645, 30089.55
321.6466, 30115.93
322.1287, 30133.31
322.6108, 30149.29
323.0930, 30159.13
323.5751, 30175.07
324.0572, 30203.19
324.5393, 30240.19
325.0214, 30274.56
325.5035, 30297.71
325.9857, 30323.36
326.4678, 30357.94
326.9499, 30405.48
327.4320, 30455.86
327.9141, 30509.98
328.3962, 30566.17
328.8784, 30622.46
329.3605, 30684.66
329.8426, 30740.10
330.3247, 30781.12
330.8068, 30797.72
331.2889, 30833.69
331.7711, 30903.07
332.2532, 30984.13
332.7353, 31051.25
333.2174, 31099.61
333.6995, 31142.37
334.1816, 31175.35
334.6638, 31198.07
335.1459, 31250.59
335.6280, 31345.91
336.1101, 31454.64
336.5922, 31547.18
337.0743, 31609.68
337.5565, 31698.22
338.0386, 31831.45
338.5207, 31994.93
339.0028, 32128.93
339.4849, 32224.45
339.9670, 32312.05
340.4492, 32412.13
340.9313, 32524.33
341.4134, 32635.55
341.8955, 32744.99
342.3776, 32850.67
342.8597, 32945.32
343.3419, 33026.65
343.8240, 33111.87
344.3061, 33213.26
344.7882, 33328.11
345.2703, 33431.44
345.7524, 33519.73
346.2346, 33608.88
346.7167, 33718.61
347.1988, 33848.70
347.6809, 33982.75
348.1630, 34109.67
348.6451, 34238.35
349.1273, 34395.63
349.6094, 34580.73
350.0915, 34775.70
350.5736, 34954.52
351.0557, 35126.54
351.5378, 35326.93
352.0200, 35580.75
352.5021, 35839.98
352.9842, 36048.70
353.4663, 36211.05
353.9484, 36339.10
354.4305, 36455.97
354.9127, 36539.05
355.3948, 36558.27
355.8769, 36507.07
356.3590, 36398.17
356.8411, 36223.32
357.3232, 35999.38
357.8054, 35760.81
358.2875, 35503.39
358.7696, 35251.96
359.2517, 35025.23
359.7338, 34824.18
360.2159, 34651.23
360.6981, 34502.74
361.1802, 34385.72
361.6623, 34308.99
362.1444, 34308.88
362.6265, 34317.13
363.1086, 34301.15
363.5908, 34264.82
364.0729, 34239.66
364.5550, 34241.34
365.0371, 34253.96
365.5192, 34267.53
366.0013, 34278.57
366.4835, 34293.27
366.9656, 34315.60
367.4477, 34342.79
367.9298, 34367.90
368.4119, 34379.80
368.8940, 34399.61
369.3762, 34437.21
369.8583, 34501.71
370.3404, 34559.08
370.8225, 34606.57
371.3046, 34648.60
371.7867, 34689.77
372.2689, 34725.29
372.7510, 34766.39
373.2331, 34818.16
373.7152, 34880.11
374.1973, 34930.16
374.6794, 34956.21
375.1616, 34987.77
375.6437, 35052.29
376.1258, 35166.96
376.6079, 35254.65
377.0900, 35298.84
377.5721, 35317.17
378.0543, 35358.73
378.5364, 35427.39
379.0185, 35502.38
379.5006, 35572.05
379.9827, 35637.16
380.4648, 35709.36
380.9470, 35791.92
381.4291, 35872.64
381.9112, 35934.34
382.3933, 35977.64
382.8754, 36017.61
383.3575, 36055.65
383.8397, 36095.18
384.3218, 36144.20
384.8039, 36202.63
385.2860, 36268.53
385.7681, 36346.98
386.2502, 36431.93
386.7324, 36507.96
387.2145, 36568.90
387.6966, 36625.88
388.1787, 36689.48
388.6608, 36759.91
389.1429, 36838.26
389.6251, 36930.20
390.1072, 37027.91
390.5893, 37126.66
391.0714, 37228.39
391.5535, 37314.26
392.0356, 37367.28
392.5178, 37396.66
392.9999, 37416.65
393.4820, 37422.09
393.9641, 37429.81
394.4462, 37462.09
394.9283, 37515.03
395.4105, 37535.40
395.8926, 37472.85
396.3747, 37389.45
396.8568, 37328.41
397.3389, 37295.23
397.8210, 37287.16
398.3032, 37321.89
398.7853, 37381.21
399.2674, 37419.37
399.7495, 37394.43
400.2316, 37379.19
400.7137, 37398.16
401.1959, 37458.55
401.6780, 37524.65
402.1601, 37614.16
402.6422, 37696.63
403.1243, 37736.70
403.6064, 37714.33
404.0885, 37689.09
404.5706, 37667.60
405.0528, 37652.19
405.5349, 37656.73
406.0170, 37682.30
406.4991, 37728.21
406.9812, 37808.11
407.4633, 37931.49
407.9455, 38004.65
408.4276, 38007.50
408.9097, 37978.86
409.3918, 37989.17
409.8739, 38038.66
410.3560, 38092.94
410.8382, 38134.37
411.3203, 38167.13
411.8024, 38211.16
412.2845, 38267.02
412.7666, 38326.78
413.2487, 38384.93
413.7309, 38442.20
414.2130, 38500.82
414.6951, 38565.64
415.1772, 38627.42
415.6593, 38670.85
416.1414, 38699.95
416.6236, 38728.87
417.1057, 38766.60
417.5878, 38809.05
418.0699, 38854.30
418.5520, 38905.12
419.0341, 38947.65
419.5163, 38964.29
419.9984, 38970.64
420.4805, 38988.38
420.9626, 39028.07
421.4447, 39078.51
421.9268, 39142.80
422.4090, 39219.08
422.8911, 39280.63
423.3732, 39302.20
423.8553, 39319.13
424.3374, 39352.82
424.8195, 39401.66
425.3017, 39471.45
425.7838, 39583.85
426.2659, 39714.57
426.7480, 39814.29
427.2301, 39854.10
427.7122, 39899.79
428.1944, 39975.43
428.6765, 40086.55
429.1586, 40168.13
429.6407, 40204.14
430.1228, 40232.60
430.6049, 40291.41
431.0871, 40388.51
431.5692, 40481.71
432.0513, 40565.32
432.5334, 40641.27
433.0155, 40718.28
433.4977, 40798.47
433.9798, 40863.52
434.4619, 40887.45
434.9440, 40881.80
435.4261, 40916.80
435.9082, 40999.04
436.3904, 41101.79
436.8725, 41202.89
437.3546, 41299.66
437.8367, 41380.36
438.3188, 41430.80
438.8009, 41472.71
439.2831, 41539.41
439.7652, 41626.68
440.2473, 41707.18
440.7294, 41766.80
441.2115, 41809.86
441.6936, 41833.92
442.1758, 41828.44
442.6579, 41838.84
443.1400, 41912.19
443.6221, 42013.32
444.1042, 42090.80
444.5863, 42114.41
445.0685, 42121.65
445.5506, 42123.59
446.0327, 42120.58
446.5148, 42112.92
446.9969, 42086.28
447.4790, 42064.59
447.9612, 42062.79
448.4433, 42104.93
448.9254, 42134.18
449.4075, 42145.54
449.8896, 42146.07
450.3717, 42148.25
450.8539, 42150.08
451.3360, 42158.74
451.8181, 42178.88
452.3002, 42211.29
452.7823, 42235.64
453.2644, 42247.00
453.7466, 42264.17
454.2287, 42310.95
454.7108, 42389.63
455.1929, 42449.77
455.6750, 42480.57
456.1571, 42496.30
456.6393, 42523.93
457.1214, 42562.75
457.6035, 42602.86
458.0856, 42630.79
458.5677, 42657.87
459.0498, 42716.11
459.5320, 42806.76
460.0141, 42898.35
460.4962, 42958.47
460.9783, 43002.64
461.4604, 43055.81
461.9425, 43134.21
462.4247, 43209.05
462.9068, 43248.07
463.3889, 43264.99
463.8710, 43295.87
464.3531, 43376.95
464.8352, 43460.05
465.3174, 43511.65
465.7995, 43521.68
466.2816, 43546.42
466.7637, 43616.03
467.2458, 43697.84
467.7279, 43763.09
468.2101, 43801.43
468.6922, 43831.96
469.1743, 43850.76
469.6564, 43862.84
470.1385, 43885.89
470.6206, 43925.04
471.1028, 43967.95
471.5849, 44008.09
472.0670, 44043.73
472.5491, 44098.90
473.0312, 44184.84
473.5133, 44270.68
473.9955, 44317.07
474.4776, 44322.48
474.9597, 44331.82
475.4418, 44351.18
475.9239, 44384.02
476.4060, 44446.71
476.8882, 44536.43
477.3703, 44618.98
477.8524, 44660.96
478.3345, 44684.24
478.8166, 44734.89
479.2987, 44817.02
479.7809, 44902.44
480.2630, 44969.39
480.7451, 45022.24
481.2272, 45065.49
481.7093, 45083.70
482.1914, 45113.10
482.6736, 45189.20
483.1557, 45295.79
483.6378, 45385.11
484.1199, 45420.56
484.6020, 45448.27
485.0841, 45490.14
485.5663, 45550.05
486.0484, 45612.78
486.5305, 45683.66
487.0126, 45752.27
487.4947, 45809.43
487.9768, 45842.37
488.4590, 45882.93
488.9411, 45939.60
489.4232, 46005.10
489.9053, 46056.47
490.3874, 46089.60
490.8695, 46120.06
491.3517, 46154.07
491.8338, 46192.14
492.3159, 46233.75
492.7980, 46280.15
493.2801, 46328.14
493.7622, 46372.37
494.2444, 46414.59
494.7265, 46462.68
495.2086, 46521.09
495.6907, 46582.52
496.1728, 46637.66
496.6549, 46686.93
497.1371, 46732.70
497.6192, 46766.89
498.1013, 46803.17
498.5834, 46853.64
499.0655, 46919.23
499.5476, 46998.59
500.0298, 47100.05
500.5119, 47209.82
500.9940, 47314.61
501.4761, 47410.43
501.9582, 47502.90
502.4403, 47598.29
502.9225, 47690.57
503.4046, 47766.36
503.8867, 47791.65
504.3688, 47832.34
504.8509, 47912.00
505.3330, 48031.67
505.8152, 48126.51
506.2973, 48187.93
506.7794, 48235.49
507.2615, 48279.84
507.7436, 48319.49
508.2257, 48368.04
508.7079, 48428.36
509.1900, 48496.00
509.6721, 48565.84
510.1542, 48637.72
510.6363, 48705.78
511.1184, 48761.31
511.6006, 48814.91
512.0826, 48898.37
512.5648, 49008.63
513.0469, 49110.72
513.5290, 49173.94
514.0111, 49215.98
514.4932, 49257.25
514.9753, 49298.18
515.4575, 49352.48
515.9396, 49429.46
516.4217, 49525.99
516.9038, 49637.96
517.3859, 49809.49
517.8680, 49950.30
518.3502, 50004.84
518.8323, 49995.63
519.3144, 50018.68
519.7965, 50121.91
520.2786, 50232.10
520.7607, 50322.43
521.2429, 50391.48
521.7250, 50447.97
522.2071, 50489.57
522.6892, 50519.97
523.1713, 50539.16
523.6534, 50541.57
524.1356, 50553.34
524.6177, 50578.86
525.0998, 50613.23
525.5819, 50652.09
526.0640, 50695.09
526.5461, 50719.38
527.0283, 50697.03
527.5104, 50650.63
527.9925, 50642.11
528.4746, 50671.00
528.9567, 50708.33
529.4388, 50732.63
529.9210, 50752.30
530.4031, 50782.36
530.8852, 50834.86
531.3673, 50874.65
531.8494, 50860.37
532.3315, 50824.86
532.8137, 50818.77
533.2958, 50878.09
533.7779, 50948.65
534.2600, 51010.46
534.7421, 51064.65
535.2242, 51135.52
535.7064, 51243.30
536.1885, 51347.07
536.6706, 51427.00
537.1527, 51474.44
537.6348, 51527.69
538.1169, 51589.18
538.5991, 51651.51
539.0812, 51704.88
539.5633, 51747.88
540.0454, 51794.51
540.5275, 51848.90
541.0096, 51907.01
541.4918, 51962.04
541.9739, 52014.34
542.4560, 52064.10
542.9381, 52104.70
543.4202, 52145.99
543.9023, 52211.13
544.3845, 52298.06
544.8666, 52375.73
545.3487, 52405.94
545.8308, 52421.44
546.3129, 52458.06
546.7950, 52531.37
547.2772, 52600.85
547.7593, 52639.89
548.2414, 52666.89
548.7235, 52707.63
549.2056, 52791.22
549.6877, 52861.83
550.1699, 52901.76
550.6520, 52918.63
551.1341, 52949.93
551.6162, 53007.61
552.0983, 53063.92
552.5804, 53105.67
553.0626, 53131.88
553.5447, 53168.09
554.0268, 53218.32
554.5089, 53268.16
554.9910, 53290.11
555.4731, 53291.14
555.9553, 53335.49
556.4374, 53448.76
556.9195, 53572.85
557.4016, 53615.53
557.8837, 53600.43
558.3658, 53597.96
558.8480, 53639.58
559.3301, 53708.65
559.8122, 53805.23
560.2943, 53923.24
560.7764, 54023.53
561.2585, 54079.66
561.7407, 54119.93
562.2228, 54159.98
562.7049, 54201.70
563.1870, 54246.76
563.6691, 54295.16
564.1512, 54348.03
564.6334, 54406.45
565.1155, 54468.49
565.5976, 54541.00
566.0797, 54632.05
566.5618, 54729.58
567.0439, 54795.82
567.5261, 54825.61
568.0082, 54860.57
568.4903, 54921.43
568.9724, 54999.24
569.4545, 55057.23
569.9366, 55096.20
570.4188, 55135.68
570.9009, 55198.56
571.3830, 55271.62
571.8651, 55328.74
572.3472, 55364.82
572.8293, 55406.64
573.3115, 55483.89
573.7936, 55575.91
574.2757, 55656.11
574.7578, 55712.03
575.2399, 55760.47
575.7220, 55790.27
576.2042, 55814.92
576.6863, 55874.02
577.1684, 56009.26
577.6505, 56133.14
578.1326, 56218.08
578.6147, 56262.84
579.0969, 56322.52
579.5790, 56398.49
580.0611, 56482.93
580.5432, 56576.97
581.0253, 56679.74
581.5074, 56755.42
581.9896, 56798.14
582.4717, 56830.02
582.9538, 56873.38
583.4359, 56927.53
583.9180, 56991.99
584.4001, 57073.04
584.8823, 57153.97
585.3644, 57215.49
585.8465, 57264.11
586.3286, 57314.47
586.8107, 57383.98
587.2928, 57448.21
587.7750, 57480.91
588.2571, 57483.70
588.7392, 57519.48
589.2213, 57649.65
589.7034, 57773.64
590.1855, 57834.34
590.6677, 57796.98
