##NAMES=Spodumene
##RRUFFID=R040050
##IDEAL CHEMISTRY=LiAlSi_2_O_6_
##LOCALITY=Minas Gerais, Brazil
##OWNER=RRUFF
##SOURCE=University of Arizona Mineral Museum
##DESCRIPTION=Pale pink fragment of a single crystal, variety kunzite
##STATUS=The identification of this mineral has been confirmed by X-ray diffraction and chemical analysis
##URL=rruff.info/R040050
##MEASURED CHEMISTRY=(Li_0.99_Na_0.01_)Al_1.00_Si_2.00_O_6_
137.5874, 5355.240
138.0696, 5366.485
138.5517, 5346.387
139.0338, 5333.465
139.5159, 5339.348
139.9980, 5361.249
140.4801, 5368.282
140.9623, 5352.939
141.4444, 5335.893
141.9265, 5342.606
142.4086, 5383.547
142.8907, 5417.167
143.3728, 5430.200
143.8550, 5419.027
144.3371, 5418.265
144.8192, 5431.028
145.3013, 5451.716
145.7834, 5472.094
146.2655, 5494.247
146.7477, 5513.580
147.2298, 5528.467
147.7119, 5536.814
148.1940, 5546.624
148.6761, 5556.248
149.1582, 5567.842
149.6404, 5586.003
150.1225, 5625.000
150.6046, 5656.657
151.0867, 5669.781
151.5688, 5642.971
152.0509, 5629.768
152.5331, 5637.000
153.0152, 5658.468
153.4973, 5675.966
153.9794, 5680.794
154.4615, 5686.886
154.9436, 5700.267
155.4258, 5734.465
155.9079, 5760.174
156.3900, 5770.403
156.8721, 5768.129
157.3542, 5768.292
157.8363, 5770.515
158.3185, 5777.778
158.8006, 5791.983
159.2827, 5828.396
159.7648, 5856.849
160.2469, 5866.125
160.7290, 5858.333
161.2112, 5852.274
161.6933, 5860.668
162.1754, 5870.283
162.6575, 5870.107
163.1396, 5837.998
163.6217, 5812.338
164.1039, 5812.417
164.5860, 5837.983
165.0681, 5865.465
165.5502, 5887.897
166.0323, 5905.191
166.5145, 5917.576
166.9966, 5916.390
167.4787, 5916.729
167.9608, 5931.497
168.4429, 5962.151
168.9250, 5988.157
169.4071, 5987.418
169.8893, 5975.230
170.3714, 5975.484
170.8535, 6015.889
171.3356, 6062.543
171.8177, 6085.399
172.2998, 6080.146
172.7820, 6068.001
173.2641, 6059.081
173.7462, 6055.127
174.2283, 6059.699
174.7104, 6085.405
175.1925, 6115.997
175.6747, 6130.306
176.1568, 6123.719
176.6389, 6112.673
177.1210, 6111.401
177.6031, 6118.401
178.0852, 6128.874
178.5674, 6141.100
179.0495, 6154.897
179.5316, 6172.230
180.0137, 6196.056
180.4958, 6216.074
180.9779, 6211.557
181.4601, 6188.422
181.9422, 6176.024
182.4243, 6206.385
182.9064, 6260.068
183.3885, 6290.771
183.8706, 6284.510
184.3528, 6267.548
184.8349, 6282.323
185.3170, 6325.874
185.7991, 6370.641
186.2812, 6395.141
186.7633, 6404.272
187.2455, 6416.370
187.7276, 6436.904
188.2097, 6458.327
188.6918, 6466.262
189.1739, 6460.631
189.6560, 6449.505
190.1382, 6433.190
190.6203, 6414.100
191.1024, 6408.726
191.5845, 6424.958
192.0666, 6452.414
192.5487, 6462.498
193.0309, 6453.475
193.5130, 6448.780
193.9951, 6476.656
194.4772, 6534.742
194.9593, 6573.823
195.4414, 6581.437
195.9236, 6565.417
196.4057, 6547.556
196.8878, 6526.683
197.3699, 6510.295
197.8520, 6506.922
198.3341, 6516.840
198.8163, 6526.039
199.2984, 6529.604
199.7805, 6530.281
200.2626, 6543.724
200.7447, 6573.103
201.2268, 6602.783
201.7090, 6614.175
202.1911, 6604.652
202.6732, 6602.419
203.1553, 6615.436
203.6374, 6641.412
204.1195, 6666.363
204.6017, 6691.466
205.0838, 6712.648
205.5659, 6722.887
206.0480, 6719.118
206.5301, 6723.374
207.0122, 6747.862
207.4944, 6788.481
207.9765, 6792.605
208.4586, 6746.457
208.9407, 6691.906
209.4228, 6674.758
209.9049, 6703.787
210.3871, 6735.686
210.8692, 6760.770
211.3513, 6779.236
211.8334, 6798.142
212.3155, 6818.531
212.7976, 6837.730
213.2798, 6852.869
213.7619, 6863.644
214.2440, 6871.402
214.7261, 6875.692
215.2082, 6876.458
215.6903, 6878.167
216.1725, 6878.721
216.6546, 6883.103
217.1367, 6898.334
217.6188, 6929.223
218.1009, 6959.002
218.5830, 6986.692
219.0651, 7013.090
219.5473, 7018.759
220.0294, 6989.997
220.5115, 6957.034
220.9936, 6957.801
221.4757, 7008.239
221.9578, 7055.493
222.4400, 7088.278
222.9221, 7106.186
223.4042, 7113.607
223.8863, 7103.928
224.3684, 7091.087
224.8505, 7092.333
225.3327, 7115.366
225.8148, 7136.179
226.2969, 7147.836
226.7790, 7149.351
227.2611, 7156.604
227.7432, 7174.232
228.2254, 7193.401
228.7075, 7202.318
229.1896, 7191.747
229.6717, 7190.077
230.1538, 7208.256
230.6359, 7249.510
231.1181, 7274.008
231.6002, 7274.447
232.0823, 7265.032
232.5644, 7259.949
233.0465, 7254.477
233.5286, 7262.440
234.0108, 7290.932
234.4929, 7342.747
234.9750, 7385.111
235.4571, 7419.070
235.9392, 7441.971
236.4213, 7448.313
236.9035, 7424.294
237.3856, 7409.306
237.8677, 7413.020
238.3498, 7436.811
238.8319, 7462.413
239.3140, 7492.136
239.7962, 7521.642
240.2783, 7546.630
240.7604, 7565.208
241.2425, 7583.001
241.7246, 7601.898
242.2067, 7622.389
242.6889, 7637.700
243.1710, 7647.762
243.6531, 7652.597
244.1352, 7649.234
244.6173, 7622.630
245.0994, 7617.539
245.5816, 7652.798
246.0637, 7729.643
246.5458, 7772.339
247.0279, 7758.117
247.5100, 7733.206
247.9921, 7743.543
248.4743, 7811.886
248.9564, 7870.030
249.4385, 7904.884
249.9206, 7916.973
250.4027, 7929.399
250.8848, 7945.160
251.3670, 7957.965
251.8491, 7962.436
252.3312, 7958.131
252.8133, 7945.598
253.2954, 7918.678
253.7775, 7879.351
254.2597, 7862.769
254.7418, 7879.411
255.2239, 7905.437
255.7060, 7922.159
256.1881, 7926.273
256.6702, 7928.277
257.1523, 7925.501
257.6345, 7920.125
258.1166, 7934.337
258.5987, 7980.378
259.0808, 8027.497
259.5629, 8052.380
260.0450, 8047.302
260.5272, 8039.177
261.0093, 8027.384
261.4914, 8014.587
261.9735, 8018.643
262.4556, 8049.250
262.9377, 8079.767
263.4199, 8090.331
263.9020, 8073.479
264.3841, 8060.566
264.8662, 8053.296
265.3483, 8052.237
265.8304, 8059.872
266.3126, 8077.659
266.7947, 8101.126
267.2768, 8131.593
267.7589, 8176.564
268.2410, 8198.792
268.7231, 8186.886
269.2053, 8155.640
269.6874, 8150.120
270.1695, 8178.117
270.6516, 8211.047
271.1337, 8232.802
271.6158, 8240.786
272.0980, 8252.543
272.5801, 8271.137
273.0622, 8291.598
273.5443, 8298.359
274.0264, 8285.359
274.5085, 8279.896
274.9907, 8299.787
275.4728, 8349.026
275.9549, 8388.113
276.4370, 8415.023
276.9191, 8433.229
277.4012, 8447.184
277.8834, 8455.841
278.3655, 8466.745
278.8476, 8486.248
279.3297, 8515.305
279.8118, 8532.371
280.2939, 8534.028
280.7761, 8531.157
281.2582, 8541.348
281.7403, 8565.959
282.2224, 8589.618
282.7045, 8606.740
283.1866, 8617.640
283.6688, 8623.021
284.1509, 8619.755
284.6330, 8620.547
285.1151, 8645.668
285.5972, 8694.916
286.0793, 8740.543
286.5615, 8773.805
287.0436, 8795.688
287.5257, 8807.918
288.0078, 8808.628
288.4899, 8810.020
288.9720, 8826.223
289.4542, 8856.060
289.9363, 8887.407
290.4184, 8918.871
290.9005, 8948.557
291.3826, 8968.876
291.8647, 8979.222
292.3469, 8991.889
292.8290, 9017.007
293.3111, 9053.587
293.7932, 9100.638
294.2753, 9165.876
294.7574, 9233.529
295.2396, 9267.419
295.7217, 9269.188
296.2038, 9264.674
296.6859, 9276.834
297.1680, 9298.392
297.6501, 9307.895
298.1323, 9297.440
298.6144, 9280.689
299.0965, 9278.623
299.5786, 9289.237
300.0607, 9299.022
300.5428, 9301.229
301.0250, 9296.503
301.5071, 9286.881
301.9892, 9273.595
302.4713, 9252.146
302.9534, 9204.602
303.4355, 9141.277
303.9177, 9094.695
304.3998, 9090.820
304.8819, 9112.008
305.3640, 9138.809
305.8461, 9170.854
306.3282, 9201.309
306.8104, 9231.420
307.2925, 9255.840
307.7746, 9262.689
308.2567, 9217.577
308.7388, 9169.828
309.2209, 9174.516
309.7031, 9236.725
310.1852, 9296.843
310.6673, 9312.304
311.1494, 9300.682
311.6315, 9287.264
312.1136, 9277.054
312.5958, 9271.727
313.0779, 9268.076
313.5600, 9267.018
314.0421, 9281.410
314.5242, 9332.554
315.0063, 9396.385
315.4885, 9448.959
315.9706, 9482.528
316.4527, 9504.222
316.9348, 9513.600
317.4169, 9512.691
317.8990, 9510.840
318.3812, 9513.782
318.8633, 9516.085
319.3454, 9513.317
319.8275, 9498.448
320.3096, 9488.440
320.7917, 9491.115
321.2739, 9502.927
321.7560, 9514.681
322.2381, 9520.362
322.7202, 9528.537
323.2023, 9543.600
323.6844, 9568.047
324.1666, 9594.867
324.6487, 9624.988
325.1308, 9656.102
325.6129, 9684.411
326.0950, 9716.666
326.5771, 9738.993
327.0593, 9740.459
327.5414, 9709.975
328.0235, 9702.996
328.5056, 9744.476
328.9877, 9801.521
329.4698, 9839.402
329.9520, 9841.012
330.4341, 9843.813
330.9162, 9856.283
331.3983, 9879.067
331.8804, 9892.423
332.3625, 9892.721
332.8447, 9886.889
333.3268, 9878.564
333.8089, 9858.677
334.2910, 9853.786
334.7731, 9872.696
335.2552, 9910.171
335.7374, 9935.331
336.2195, 9938.194
336.7016, 9945.033
337.1837, 9973.100
337.6658, 10030.12
338.1479, 10082.58
338.6301, 10131.32
339.1122, 10172.28
339.5943, 10191.35
340.0764, 10180.77
340.5585, 10173.08
341.0406, 10183.47
341.5227, 10213.00
342.0049, 10246.47
342.4870, 10286.50
342.9691, 10325.56
343.4512, 10352.74
343.9333, 10368.06
344.4154, 10374.20
344.8976, 10361.50
345.3797, 10339.40
345.8618, 10363.71
346.3439, 10440.78
346.8260, 10523.89
347.3081, 10564.49
347.7903, 10568.01
348.2724, 10570.45
348.7545, 10573.78
349.2366, 10588.14
349.7187, 10641.33
350.2008, 10731.59
350.6830, 10825.66
351.1651, 10902.34
351.6472, 10965.00
352.1293, 11018.00
352.6114, 11059.06
353.0935, 11097.08
353.5757, 11143.22
354.0578, 11195.41
354.5399, 11247.00
355.0220, 11309.70
355.5041, 11363.20
355.9862, 11380.04
356.4684, 11355.86
356.9505, 11308.70
357.4326, 11229.52
357.9147, 11139.89
358.3968, 11074.96
358.8789, 11083.64
359.3611, 11095.26
359.8432, 11046.38
360.3253, 10939.32
360.8074, 10853.59
361.2895, 10848.16
361.7716, 10873.69
362.2538, 10884.68
362.7359, 10851.29
363.2180, 10820.65
363.7001, 10813.74
364.1822, 10824.79
364.6643, 10832.18
365.1465, 10827.70
365.6286, 10819.66
366.1107, 10811.76
366.5928, 10801.67
367.0749, 10797.69
367.5570, 10797.16
368.0392, 10804.03
368.5213, 10825.25
369.0034, 10879.08
369.4855, 10929.92
369.9676, 10970.88
370.4497, 11003.19
370.9319, 11015.33
371.4140, 10984.99
371.8961, 10948.16
372.3782, 10942.05
372.8603, 10991.56
373.3424, 11027.56
373.8246, 11033.11
374.3067, 11013.21
374.7888, 11011.67
375.2709, 11037.63
375.7530, 11067.27
376.2351, 11084.11
376.7173, 11083.42
377.1994, 11091.03
377.6815, 11110.70
378.1636, 11138.41
378.6457, 11163.29
379.1278, 11184.19
379.6100, 11210.82
380.0921, 11259.65
380.5742, 11328.18
381.0563, 11346.83
381.5384, 11305.12
382.0205, 11252.68
382.5027, 11255.21
382.9848, 11307.39
383.4669, 11361.60
383.9490, 11406.43
384.4311, 11441.09
384.9132, 11462.60
385.3954, 11471.07
385.8775, 11473.02
386.3596, 11458.73
386.8417, 11442.85
387.3238, 11461.57
387.8059, 11535.12
388.2881, 11619.00
388.7702, 11664.96
389.2523, 11680.63
389.7344, 11689.45
390.2165, 11697.00
390.6986, 11707.93
391.1808, 11728.75
391.6629, 11761.56
392.1450, 11794.20
392.6271, 11825.33
393.1092, 11849.80
393.5913, 11860.52
394.0735, 11842.98
394.5556, 11822.35
395.0377, 11807.95
395.5198, 11800.23
396.0019, 11799.60
396.4840, 11823.16
396.9662, 11843.44
397.4483, 11840.69
397.9304, 11774.40
398.4125, 11736.22
398.8946, 11757.11
399.3767, 11815.74
399.8589, 11859.54
400.3410, 11878.89
400.8231, 11887.84
401.3052, 11887.20
401.7873, 11871.11
402.2694, 11867.88
402.7516, 11883.80
403.2337, 11907.74
403.7158, 11928.06
404.1979, 11945.58
404.6800, 11958.11
405.1621, 11966.46
405.6443, 11970.03
406.1264, 11959.37
406.6085, 11925.63
407.0906, 11901.21
407.5727, 11917.33
408.0548, 11979.09
408.5370, 12014.96
409.0191, 12010.87
409.5012, 11991.21
409.9833, 12001.59
410.4654, 12041.66
410.9475, 12083.60
411.4297, 12113.26
411.9118, 12134.02
412.3939, 12159.32
412.8760, 12189.40
413.3581, 12215.21
413.8402, 12224.42
414.3224, 12222.24
414.8045, 12221.68
415.2866, 12226.02
415.7687, 12234.47
416.2508, 12248.66
416.7329, 12267.23
417.2151, 12283.98
417.6972, 12289.43
418.1793, 12294.61
418.6614, 12314.49
419.1435, 12356.74
419.6256, 12390.17
420.1078, 12384.29
420.5899, 12361.12
421.0720, 12353.01
421.5541, 12385.74
422.0362, 12422.31
422.5183, 12449.47
423.0005, 12466.48
423.4826, 12479.42
423.9647, 12477.44
424.4468, 12479.39
424.9289, 12497.51
425.4110, 12551.21
425.8932, 12598.33
426.3753, 12637.60
426.8574, 12668.87
427.3395, 12692.47
427.8216, 12708.23
428.3037, 12715.30
428.7859, 12707.58
429.2680, 12678.88
429.7501, 12679.81
430.2322, 12721.75
430.7143, 12776.66
431.1964, 12814.49
431.6786, 12833.12
432.1607, 12845.26
432.6428, 12851.46
433.1249, 12854.15
433.6070, 12859.63
434.0891, 12867.80
434.5713, 12881.98
435.0534, 12914.46
435.5355, 12957.84
436.0176, 12971.24
436.4997, 12946.38
436.9818, 12914.15
437.4640, 12908.89
437.9461, 12926.76
438.4282, 12955.84
438.9103, 13001.41
439.3924, 13049.09
439.8745, 13078.09
440.3566, 13090.14
440.8387, 13102.31
441.3209, 13129.90
441.8030, 13161.15
442.2851, 13182.69
442.7672, 13186.84
443.2493, 13191.67
443.7314, 13205.08
444.2136, 13225.71
444.6957, 13250.87
445.1778, 13290.40
445.6599, 13324.70
446.1420, 13347.27
446.6241, 13357.72
447.1063, 13355.93
447.5884, 13318.66
448.0705, 13283.07
448.5526, 13277.75
449.0347, 13336.10
449.5168, 13376.60
449.9990, 13384.19
450.4811, 13372.79
450.9632, 13386.55
451.4453, 13449.54
451.9274, 13491.54
452.4095, 13475.18
452.8917, 13393.75
453.3738, 13343.79
453.8559, 13328.76
454.3380, 13338.23
454.8201, 13368.48
455.3022, 13419.59
455.7844, 13464.13
456.2665, 13494.54
456.7486, 13516.10
457.2307, 13542.10
457.7128, 13571.62
458.1949, 13595.29
458.6771, 13604.12
459.1592, 13603.24
459.6413, 13600.99
460.1234, 13597.45
460.6055, 13597.21
461.0876, 13602.48
461.5698, 13614.18
462.0519, 13634.08
462.5340, 13678.89
463.0161, 13717.39
463.4982, 13720.05
463.9803, 13695.65
464.4625, 13683.37
464.9446, 13711.48
465.4267, 13748.10
465.9088, 13772.22
466.3909, 13773.72
466.8730, 13784.39
467.3552, 13822.18
467.8373, 13868.50
468.3194, 13899.60
468.8015, 13901.50
469.2836, 13902.78
469.7657, 13905.31
470.2479, 13909.52
470.7300, 13922.17
471.2121, 13950.00
471.6942, 13975.27
472.1763, 13983.92
472.6584, 13968.77
473.1406, 13975.42
473.6227, 14011.70
474.1048, 14058.58
474.5869, 14088.41
475.0690, 14101.13
475.5511, 14106.85
476.0333, 14105.72
476.5154, 14101.75
476.9975, 14106.08
477.4796, 14118.49
477.9617, 14132.11
478.4438, 14139.55
478.9260, 14145.23
479.4081, 14158.83
479.8902, 14183.72
480.3723, 14207.65
480.8544, 14217.99
481.3365, 14220.37
481.8187, 14224.57
482.3008, 14232.09
482.7829, 14244.58
483.2650, 14263.50
483.7471, 14288.65
484.2292, 14317.63
484.7114, 14356.86
485.1935, 14395.00
485.6756, 14424.59
486.1577, 14441.09
486.6398, 14457.51
487.1219, 14479.00
487.6041, 14499.74
488.0862, 14510.67
488.5683, 14501.03
489.0504, 14499.90
489.5325, 14514.90
490.0146, 14543.95
490.4968, 14573.18
490.9789, 14605.97
491.4610, 14629.01
491.9431, 14626.55
492.4252, 14597.83
492.9073, 14590.23
493.3895, 14609.74
493.8716, 14640.22
494.3537, 14665.19
494.8358, 14683.78
495.3179, 14689.66
495.8000, 14666.13
496.2822, 14641.53
496.7643, 14666.69
497.2464, 14734.99
497.7285, 14806.77
498.2106, 14869.00
498.6927, 14915.66
499.1749, 14934.94
499.6570, 14918.84
500.1391, 14907.95
500.6212, 14931.66
501.1033, 14969.81
501.5854, 14999.07
502.0676, 14997.56
502.5497, 15001.83
503.0318, 15026.01
503.5139, 15066.15
503.9960, 15099.41
504.4781, 15126.08
504.9603, 15144.68
505.4424, 15153.43
505.9245, 15149.75
506.4066, 15146.99
506.8887, 15141.22
507.3708, 15141.70
507.8530, 15161.13
508.3351, 15203.05
508.8172, 15243.24
509.2993, 15277.60
509.7814, 15307.57
510.2635, 15335.99
510.7457, 15363.01
511.2278, 15388.66
511.7099, 15416.88
512.1920, 15442.90
512.6741, 15450.51
513.1563, 15438.76
513.6384, 15431.79
514.1205, 15454.73
514.6026, 15494.26
515.0847, 15530.63
515.5668, 15554.90
516.0490, 15581.63
516.5311, 15620.87
517.0132, 15669.10
517.4953, 15719.16
517.9774, 15790.05
518.4595, 15842.67
518.9417, 15851.76
519.4238, 15814.04
519.9059, 15790.05
520.3880, 15795.34
520.8701, 15809.02
521.3522, 15820.77
521.8344, 15833.32
522.3165, 15835.52
522.7986, 15814.67
523.2807, 15794.07
523.7628, 15825.81
524.2449, 15927.73
524.7271, 15984.52
525.2092, 15941.46
525.6913, 15835.78
526.1734, 15811.32
526.6555, 15869.72
527.1376, 15931.67
527.6198, 15927.42
528.1019, 15886.27
528.5840, 15878.94
529.0661, 15914.78
529.5482, 15961.18
530.0303, 15992.70
530.5125, 16014.09
530.9946, 16033.68
531.4767, 16058.26
531.9588, 16076.11
532.4409, 16075.66
532.9230, 16062.53
533.4052, 16053.38
533.8873, 16051.84
534.3694, 16056.67
534.8515, 16066.23
535.3336, 16079.46
535.8157, 16105.85
536.2979, 16168.25
536.7800, 16224.52
537.2621, 16238.43
537.7442, 16180.62
538.2263, 16163.26
538.7084, 16209.20
539.1906, 16283.95
539.6727, 16318.85
540.1548, 16312.12
540.6369, 16295.24
541.1190, 16271.50
541.6011, 16248.83
542.0833, 16254.71
542.5654, 16288.24
543.0475, 16330.42
543.5296, 16368.07
544.0117, 16404.93
544.4938, 16449.66
544.9760, 16505.64
545.4581, 16554.91
545.9402, 16581.29
546.4223, 16593.67
546.9044, 16603.49
547.3865, 16608.09
547.8687, 16617.00
548.3508, 16637.58
548.8329, 16665.46
549.3150, 16686.82
549.7971, 16691.90
550.2792, 16698.13
550.7614, 16711.38
551.2435, 16732.30
551.7256, 16756.76
552.2077, 16796.70
552.6898, 16822.72
553.1719, 16800.85
553.6541, 16720.87
554.1362, 16679.79
554.6183, 16692.42
555.1004, 16732.67
555.5825, 16760.19
556.0646, 16777.18
556.5468, 16797.14
557.0289, 16825.44
557.5110, 16858.62
557.9931, 16894.31
558.4752, 16931.32
558.9573, 16963.22
559.4395, 16981.24
559.9216, 16995.71
560.4037, 17019.02
560.8858, 17054.56
561.3679, 17079.56
561.8500, 17077.38
562.3322, 17064.63
562.8143, 17055.75
563.2964, 17057.71
563.7785, 17057.93
564.2606, 17043.04
564.7427, 17029.44
565.2249, 17054.64
565.7070, 17144.48
566.1891, 17216.16
566.6712, 17240.51
567.1533, 17225.80
567.6354, 17230.11
568.1176, 17255.46
568.5997, 17287.73
569.0818, 17325.49
569.5639, 17363.49
570.0460, 17374.45
570.5281, 17352.87
571.0103, 17334.78
571.4924, 17370.19
571.9745, 17431.14
572.4566, 17466.63
572.9387, 17442.46
573.4208, 17419.39
573.9030, 17445.38
574.3851, 17501.23
574.8672, 17544.81
575.3493, 17543.03
575.8314, 17544.91
576.3135, 17575.85
576.7957, 17636.22
577.2778, 17672.88
577.7599, 17666.50
578.2420, 17655.80
578.7241, 17659.96
579.2062, 17681.53
579.6884, 17710.03
580.1705, 17751.36
580.6526, 17788.74
581.1347, 17789.90
581.6168, 17757.27
582.0989, 17761.70
582.5811, 17828.63
583.0632, 17920.82
583.5453, 17986.92
584.0274, 18029.89
584.5095, 18058.10
584.9916, 18066.84
585.4738, 18069.08
585.9559, 18076.73
586.4380, 18089.22
586.9201, 18100.92
587.4022, 18109.43
587.8843, 18115.99
588.3664, 18116.65
588.8485, 18099.94
589.3306, 18112.21
589.8127, 18201.79
590.2949, 18296.65
590.7770, 18328.69
591.2591, 18260.15
591.7412, 18217.55
592.2233, 18218.51
592.7054, 18247.61
593.1876, 18274.89
593.6697, 18300.83
594.1518, 18321.01
594.6339, 18330.81
595.1160, 18335.13
595.5981, 18346.34
596.0803, 18363.81
596.5624, 18381.12
597.0445, 18396.34
597.5266, 18407.78
598.0087, 18408.42
598.4908, 18396.29
598.9730, 18394.38
599.4551, 18427.26
599.9372, 18469.80
600.4193, 18497.63
600.9014, 18486.97
601.3835, 18489.18
601.8657, 18524.42
602.3478, 18572.58
602.8299, 18604.10
603.3120, 18612.41
603.7941, 18616.34
604.2762, 18616.18
604.7584, 18615.53
605.2405, 18631.89
605.7226, 18668.07
606.2047, 18702.98
606.6868, 18726.08
607.1689, 18739.53
607.6511, 18752.39
608.1332, 18764.86
608.6153, 18770.47
609.0974, 18743.59
609.5795, 18714.77
610.0616, 18734.70
610.5438, 18829.35
611.0259, 18908.19
611.5080, 18897.50
611.9901, 18851.92
612.4722, 18836.32
612.9543, 18903.53
613.4365, 18957.40
613.9186, 18967.41
614.4007, 18954.87
614.8828, 18971.09
615.3649, 19032.71
615.8470, 19087.80
616.3292, 19118.48
616.8113, 19128.69
617.2934, 19148.29
617.7755, 19178.34
618.2576, 19210.08
618.7397, 19238.78
619.2219, 19264.57
619.7040, 19291.52
620.1861, 19320.21
620.6682, 19338.09
621.1503, 19326.48
621.6324, 19301.21
622.1146, 19278.71
622.5967, 19254.42
623.0788, 19253.94
623.5609, 19316.67
624.0430, 19402.29
624.5251, 19453.03
625.0073, 19415.63
625.4894, 19395.70
625.9715, 19416.55
626.4536, 19464.74
626.9357, 19494.89
627.4178, 19499.16
627.9000, 19506.21
628.3821, 19527.94
628.8642, 19561.89
629.3463, 19592.03
629.8284, 19617.82
630.3105, 19643.65
630.7927, 19672.78
631.2748, 19703.77
631.7569, 19731.79
632.2390, 19755.57
632.7211, 19786.90
633.2032, 19852.51
633.6854, 19922.19
