##NAMES=Spurrite
##RRUFFID=R070632
##IDEAL CHEMISTRY=Ca_5_(SiO_4_)_2_(CO_3_)
##LOCALITY=Huka, Okayama, Japan
##OWNER=RRUFF
##SOURCE=Shinichi Kihara
##DESCRIPTION=Massive lavender fragment
##STATUS=The identification of this mineral has been confirmed by single-crystal X-ray diffraction.
##URL=rruff.info/R070632
133.5135, 7923.644
133.9956, 8035.047
134.4777, 8149.215
134.9599, 8266.951
135.4420, 8385.145
135.9241, 8501.022
136.4062, 8626.687
136.8883, 8775.775
137.3704, 8954.715
137.8526, 9113.833
138.3347, 9241.623
138.8168, 9345.649
139.2989, 9469.085
139.7810, 9616.902
140.2631, 9774.996
140.7453, 9933.044
141.2274, 10090.62
141.7095, 10244.97
142.1916, 10385.30
142.6737, 10507.67
143.1558, 10672.96
143.6380, 10893.44
144.1201, 11150.65
144.6022, 11428.60
145.0843, 11748.92
145.5664, 11950.21
146.0485, 12103.10
146.5307, 12179.01
147.0128, 12279.02
147.4949, 12417.63
147.9770, 12579.76
148.4591, 12722.53
148.9412, 12867.06
149.4234, 12978.29
149.9055, 13042.03
150.3876, 13040.30
150.8697, 13015.52
151.3518, 12969.85
151.8339, 12904.14
152.3161, 12820.64
152.7982, 12683.04
153.2803, 12547.78
153.7624, 12453.87
154.2445, 12432.13
154.7266, 12426.13
155.2087, 12422.93
155.6909, 12421.09
156.1730, 12430.02
156.6551, 12443.83
157.1372, 12471.09
157.6193, 12522.23
158.1014, 12614.57
158.5836, 12718.93
159.0657, 12821.54
159.5478, 12915.57
160.0299, 13018.97
160.5120, 13152.57
160.9941, 13300.04
161.4763, 13427.61
161.9584, 13529.79
162.4405, 13602.69
162.9226, 13644.30
163.4047, 13657.26
163.8868, 13635.14
164.3690, 13562.19
164.8511, 13446.83
165.3332, 13324.71
165.8153, 13195.62
166.2974, 13076.68
166.7795, 12985.87
167.2617, 12917.88
167.7438, 12888.10
168.2259, 12913.60
168.7080, 12993.27
169.1901, 13099.92
169.6722, 13244.88
170.1544, 13401.36
170.6365, 13524.58
171.1186, 13637.43
171.6007, 13686.81
172.0828, 13614.87
172.5649, 13414.12
173.0471, 13125.31
173.5292, 12746.93
174.0113, 12304.35
174.4934, 11869.44
174.9755, 11477.78
175.4576, 11120.99
175.9397, 10789.13
176.4219, 10468.97
176.9040, 10193.23
177.3861, 10012.43
177.8682, 9917.198
178.3503, 9843.992
178.8324, 9754.930
179.3146, 9656.157
179.7967, 9559.023
180.2788, 9465.969
180.7609, 9378.408
181.2430, 9303.271
181.7251, 9240.964
182.2073, 9178.762
182.6894, 9099.806
183.1715, 9009.461
183.6536, 8934.719
184.1357, 8891.396
184.6178, 8866.948
185.1000, 8821.656
185.5821, 8752.078
186.0642, 8684.860
186.5463, 8651.906
187.0284, 8650.773
187.5105, 8654.426
187.9927, 8650.748
188.4748, 8642.073
188.9569, 8641.560
189.4390, 8650.581
189.9211, 8663.570
190.4032, 8673.552
190.8854, 8680.333
191.3675, 8683.784
191.8496, 8681.776
192.3317, 8674.778
192.8138, 8672.027
193.2959, 8676.309
193.7781, 8681.822
194.2602, 8670.280
194.7423, 8637.952
195.2244, 8616.546
195.7065, 8636.846
196.1886, 8700.637
196.6708, 8743.623
197.1529, 8754.588
197.6350, 8741.379
198.1171, 8721.985
198.5992, 8690.282
199.0813, 8675.947
199.5634, 8713.047
200.0456, 8809.476
200.5277, 8894.648
201.0098, 8954.199
201.4919, 8991.299
201.9740, 9025.537
202.4561, 9056.967
202.9383, 9085.086
203.4204, 9113.462
203.9025, 9146.729
204.3846, 9157.513
204.8667, 9128.653
205.3488, 9059.672
205.8310, 9019.801
206.3131, 9013.204
206.7952, 9029.302
207.2773, 9057.819
207.7594, 9104.469
208.2415, 9145.549
208.7237, 9167.240
209.2058, 9163.411
209.6879, 9183.546
210.1700, 9235.737
210.6521, 9305.116
211.1342, 9362.072
211.6164, 9400.493
212.0985, 9440.188
212.5806, 9491.138
213.0627, 9557.512
213.5448, 9619.730
214.0269, 9677.460
214.5091, 9731.129
214.9912, 9780.745
215.4733, 9821.599
215.9554, 9865.876
216.4375, 9922.058
216.9196, 9994.120
217.4018, 10062.28
217.8839, 10120.80
218.3660, 10173.65
218.8481, 10245.54
219.3302, 10347.17
219.8123, 10450.96
220.2945, 10532.94
220.7766, 10575.51
221.2587, 10641.26
221.7408, 10753.73
222.2229, 10906.47
222.7050, 10999.46
223.1871, 11008.62
223.6693, 10988.22
224.1514, 10988.60
224.6335, 11037.65
225.1156, 11049.50
225.5977, 11002.73
226.0798, 10896.42
226.5620, 10787.86
227.0441, 10676.30
227.5262, 10564.64
228.0083, 10452.56
228.4904, 10331.83
228.9725, 10226.98
229.4547, 10140.58
229.9368, 10070.71
230.4189, 10037.34
230.9010, 10060.76
231.3831, 10105.31
231.8652, 10121.79
232.3474, 10095.11
232.8295, 10064.83
233.3116, 10036.88
233.7937, 10002.92
234.2758, 10008.58
234.7579, 10084.27
235.2401, 10183.34
235.7222, 10219.20
236.2043, 10150.45
236.6864, 10083.16
237.1685, 10058.15
237.6507, 10099.85
238.1328, 10114.26
238.6149, 10089.14
239.0970, 10040.98
239.5791, 10006.01
240.0612, 9983.383
240.5434, 9975.350
241.0255, 9985.836
241.5076, 10028.93
241.9897, 10058.49
242.4718, 10068.26
242.9539, 10065.57
243.4360, 10071.80
243.9182, 10089.52
244.4003, 10112.74
244.8824, 10138.02
245.3645, 10161.64
245.8466, 10195.25
246.3287, 10240.49
246.8109, 10296.22
247.2930, 10357.73
247.7751, 10423.91
248.2572, 10496.51
248.7393, 10578.51
249.2214, 10676.52
249.7036, 10766.50
250.1857, 10843.01
250.6678, 10908.51
251.1499, 10982.33
251.6320, 11066.73
252.1141, 11156.54
252.5963, 11251.70
253.0784, 11368.78
253.5605, 11451.78
254.0426, 11479.48
254.5247, 11460.98
255.0068, 11485.91
255.4890, 11587.88
255.9711, 11687.51
256.4532, 11716.98
256.9353, 11641.75
257.4174, 11580.24
257.8995, 11551.50
258.3817, 11553.69
258.8638, 11556.62
259.3459, 11559.03
259.8280, 11564.19
260.3101, 11573.62
260.7922, 11584.05
261.2744, 11607.92
261.7565, 11649.88
262.2386, 11709.55
262.7207, 11766.22
263.2028, 11818.40
263.6849, 11869.94
264.1671, 11929.33
264.6492, 12003.83
265.1313, 12061.36
265.6134, 12095.24
266.0955, 12105.62
266.5776, 12088.93
267.0598, 12042.25
267.5419, 11973.76
268.0240, 11885.75
268.5061, 11771.34
268.9882, 11666.64
269.4703, 11585.63
269.9525, 11527.80
270.4346, 11456.08
270.9167, 11366.53
271.3988, 11269.45
271.8809, 11174.34
272.3630, 11080.29
272.8452, 10995.05
273.3273, 10922.56
273.8094, 10863.16
274.2915, 10807.59
274.7736, 10756.25
275.2557, 10708.19
275.7379, 10659.76
276.2200, 10608.91
276.7021, 10573.15
277.1842, 10566.56
277.6663, 10586.19
278.1484, 10581.31
278.6305, 10546.62
279.1126, 10501.14
279.5948, 10472.98
280.0769, 10463.61
280.5590, 10448.71
281.0411, 10417.66
281.5232, 10371.57
282.0053, 10322.86
282.4875, 10268.69
282.9696, 10219.42
283.4517, 10196.37
283.9338, 10199.53
284.4159, 10192.40
284.8980, 10152.43
285.3802, 10086.19
285.8623, 10034.48
286.3444, 9996.872
286.8265, 9974.265
287.3086, 9974.500
287.7907, 9995.826
288.2729, 10015.34
288.7550, 10023.90
289.2371, 10022.81
289.7192, 10011.31
290.2013, 9986.021
290.6834, 9966.527
291.1656, 9986.554
291.6477, 10039.17
292.1298, 10084.07
292.6119, 10101.30
293.0940, 10096.99
293.5761, 10083.25
294.0583, 10058.11
294.5404, 10036.13
295.0225, 10033.22
295.5046, 10047.32
295.9867, 10070.21
296.4688, 10099.93
296.9510, 10135.87
297.4331, 10184.10
297.9152, 10249.11
298.3973, 10297.81
298.8794, 10283.13
299.3615, 10223.86
299.8437, 10171.05
300.3258, 10155.14
300.8079, 10157.27
301.2900, 10154.92
301.7721, 10147.89
302.2542, 10130.52
302.7364, 10087.66
303.2185, 10030.95
303.7006, 9983.553
304.1827, 9963.817
304.6648, 9954.841
305.1469, 9940.486
305.6291, 9919.721
306.1112, 9896.340
306.5933, 9875.687
307.0754, 9853.977
307.5575, 9825.229
308.0396, 9778.237
308.5218, 9728.879
309.0039, 9692.172
309.4860, 9669.883
309.9681, 9645.820
310.4502, 9600.345
310.9323, 9549.436
311.4145, 9515.322
311.8966, 9520.025
312.3787, 9533.297
312.8608, 9540.231
313.3429, 9539.989
313.8250, 9531.834
314.3072, 9511.874
314.7893, 9484.635
315.2714, 9455.351
315.7535, 9415.950
316.2356, 9382.944
316.7177, 9371.785
317.1999, 9385.135
317.6820, 9378.196
318.1641, 9312.061
318.6462, 9229.121
319.1283, 9171.953
319.6104, 9182.291
320.0926, 9189.133
320.5747, 9170.111
321.0568, 9123.440
321.5389, 9076.142
322.0210, 9032.701
322.5031, 8991.371
322.9852, 8951.352
323.4673, 8913.456
323.9495, 8875.885
324.4316, 8835.346
324.9137, 8791.552
325.3958, 8758.893
325.8779, 8752.441
326.3600, 8749.222
326.8422, 8732.552
327.3243, 8685.284
327.8064, 8646.354
328.2885, 8620.833
328.7706, 8608.253
329.2527, 8599.514
329.7349, 8594.729
330.2170, 8593.480
330.6991, 8595.810
331.1812, 8603.951
331.6633, 8611.625
332.1454, 8620.635
332.6276, 8629.395
333.1097, 8626.067
333.5918, 8605.131
334.0739, 8580.640
334.5560, 8559.119
335.0381, 8536.759
335.5203, 8532.806
336.0024, 8556.994
336.4845, 8599.266
336.9666, 8618.462
337.4487, 8607.035
337.9308, 8594.375
338.4130, 8602.738
338.8951, 8635.125
339.3772, 8657.336
339.8593, 8663.144
340.3414, 8660.210
340.8235, 8664.725
341.3057, 8676.200
341.7878, 8698.562
342.2699, 8743.412
342.7520, 8807.270
343.2341, 8847.095
343.7162, 8855.522
344.1984, 8845.898
344.6805, 8833.315
345.1626, 8818.594
345.6447, 8818.521
346.1268, 8856.687
346.6089, 8917.801
347.0911, 8953.119
347.5732, 8955.696
348.0553, 8945.155
348.5374, 8939.793
349.0195, 8940.523
349.5016, 8950.648
349.9838, 8981.743
350.4659, 9020.238
350.9480, 9047.186
351.4301, 9062.094
351.9122, 9063.890
352.3943, 9038.585
352.8765, 8999.558
353.3586, 8974.500
353.8407, 8992.546
354.3228, 9020.185
354.8049, 9022.929
355.2870, 8997.736
355.7692, 8977.504
356.2513, 8992.165
356.7334, 9022.058
357.2155, 9041.348
357.6976, 9029.592
358.1797, 9013.378
358.6619, 9005.014
359.1440, 9004.761
359.6261, 9009.838
360.1082, 9023.146
360.5903, 9039.337
361.0724, 9053.561
361.5546, 9057.854
362.0367, 9066.644
362.5188, 9085.226
363.0009, 9112.863
363.4830, 9141.810
363.9651, 9176.368
364.4473, 9208.087
364.9294, 9231.787
365.4115, 9234.488
365.8936, 9243.210
366.3757, 9258.549
366.8578, 9281.277
367.3399, 9315.159
367.8221, 9378.928
368.3042, 9437.292
368.7863, 9473.389
369.2684, 9467.459
369.7505, 9473.685
370.2326, 9493.739
370.7148, 9525.964
371.1969, 9567.081
371.6790, 9620.402
372.1611, 9676.141
372.6432, 9731.649
373.1253, 9788.160
373.6075, 9837.207
374.0896, 9877.463
374.5717, 9910.985
375.0538, 9937.648
375.5359, 9953.675
376.0180, 9981.154
376.5002, 10041.22
376.9823, 10130.14
377.4644, 10173.64
377.9465, 10164.98
378.4286, 10130.07
378.9107, 10091.71
379.3929, 10050.62
379.8750, 10023.89
380.3571, 10025.66
380.8392, 10043.80
381.3213, 10044.87
381.8034, 10028.55
382.2856, 10002.47
382.7677, 9959.115
383.2498, 9910.685
383.7319, 9890.340
384.2140, 9920.962
384.6961, 9971.986
385.1783, 10007.13
385.6604, 10027.79
386.1425, 10044.84
386.6246, 10056.92
387.1067, 10073.13
387.5888, 10107.24
388.0710, 10174.26
388.5531, 10240.92
389.0352, 10284.62
389.5173, 10309.04
389.9994, 10325.18
390.4815, 10323.07
390.9637, 10324.32
391.4458, 10346.41
391.9279, 10400.54
392.4100, 10452.65
392.8921, 10489.95
393.3742, 10516.89
393.8564, 10541.00
394.3385, 10558.27
394.8206, 10578.11
395.3027, 10606.43
395.7848, 10648.10
396.2669, 10679.98
396.7491, 10681.94
397.2312, 10680.00
397.7133, 10704.70
398.1954, 10778.29
398.6775, 10850.91
399.1596, 10913.71
399.6418, 10966.63
400.1239, 11022.63
400.6060, 11093.02
401.0881, 11154.59
401.5702, 11184.43
402.0523, 11168.88
402.5345, 11162.01
403.0166, 11178.38
403.4987, 11208.13
403.9808, 11206.14
404.4629, 11167.10
404.9450, 11113.66
405.4272, 11060.89
405.9093, 11008.47
406.3914, 10944.75
406.8735, 10869.46
407.3556, 10780.88
407.8377, 10665.43
408.3199, 10524.11
408.8020, 10398.32
409.2841, 10324.32
409.7662, 10282.35
410.2483, 10210.86
410.7304, 10102.19
411.2126, 9992.574
411.6946, 9924.300
412.1768, 9887.316
412.6589, 9853.150
413.1410, 9807.255
413.6231, 9759.668
414.1052, 9723.984
414.5873, 9700.234
415.0695, 9675.064
415.5516, 9631.221
416.0337, 9584.340
416.5158, 9553.213
416.9979, 9559.640
417.4800, 9567.020
417.9622, 9555.141
418.4443, 9528.164
418.9264, 9505.964
419.4085, 9483.416
419.8906, 9475.808
420.3727, 9494.876
420.8549, 9570.340
421.3370, 9628.856
421.8191, 9650.179
422.3012, 9646.781
422.7833, 9647.063
423.2654, 9650.611
423.7476, 9659.104
424.2297, 9673.079
424.7118, 9692.700
425.1939, 9717.179
425.6760, 9750.874
426.1581, 9785.686
426.6403, 9812.070
427.1224, 9827.686
427.6045, 9841.237
428.0866, 9854.508
428.5687, 9867.822
429.0508, 9880.370
429.5330, 9890.681
430.0151, 9905.813
430.4972, 9937.395
430.9793, 9984.436
431.4614, 10018.94
431.9435, 10031.65
432.4257, 10033.20
432.9078, 10045.77
433.3899, 10068.62
433.8720, 10092.80
434.3541, 10110.97
434.8362, 10126.13
435.3184, 10145.57
435.8005, 10171.34
436.2826, 10196.09
436.7647, 10216.23
437.2468, 10230.09
437.7289, 10233.54
438.2111, 10222.67
438.6932, 10202.48
439.1753, 10175.00
439.6574, 10140.31
440.1395, 10104.46
440.6216, 10057.80
441.1038, 10016.62
441.5859, 9998.101
442.0680, 10045.36
442.5501, 10075.53
443.0322, 10055.78
443.5143, 9993.460
443.9965, 9937.679
444.4786, 9895.780
444.9607, 9862.132
445.4428, 9832.994
445.9249, 9802.090
446.4070, 9786.705
446.8892, 9798.133
447.3713, 9821.615
447.8534, 9827.229
448.3355, 9811.317
448.8176, 9784.584
449.2997, 9747.023
449.7819, 9697.595
450.2640, 9660.023
450.7461, 9639.117
451.2282, 9619.215
451.7103, 9574.236
452.1924, 9502.482
452.6746, 9455.938
453.1567, 9455.812
453.6388, 9484.356
454.1209, 9498.535
454.6030, 9498.338
455.0851, 9483.227
455.5673, 9439.556
456.0494, 9381.643
456.5315, 9338.859
457.0136, 9314.492
457.4957, 9311.650
457.9778, 9351.538
458.4599, 9416.767
458.9420, 9464.190
459.4242, 9457.470
459.9063, 9433.709
460.3884, 9425.415
460.8705, 9438.088
461.3526, 9435.495
461.8347, 9378.855
462.3169, 9307.771
462.7990, 9262.674
463.2811, 9280.418
463.7632, 9297.887
464.2453, 9305.535
464.7274, 9302.242
465.2096, 9280.529
465.6917, 9214.023
466.1738, 9151.076
466.6559, 9115.439
467.1380, 9120.079
467.6201, 9127.378
468.1023, 9138.273
468.5844, 9151.085
469.0665, 9161.938
469.5486, 9169.423
470.0307, 9179.029
470.5128, 9196.333
470.9950, 9220.073
471.4771, 9224.605
471.9592, 9206.226
472.4413, 9184.174
472.9234, 9180.156
473.4055, 9191.535
473.8877, 9200.042
474.3698, 9197.760
474.8519, 9194.514
475.3340, 9210.243
475.8161, 9242.337
476.2982, 9272.450
476.7804, 9287.130
477.2625, 9294.073
477.7446, 9301.684
478.2267, 9310.252
478.7088, 9323.171
479.1909, 9350.103
479.6731, 9381.455
480.1552, 9401.970
480.6373, 9402.604
481.1194, 9393.983
481.6015, 9373.104
482.0836, 9339.697
482.5658, 9323.840
483.0479, 9338.285
483.5300, 9367.777
484.0121, 9402.189
484.4942, 9449.220
484.9763, 9490.763
485.4585, 9531.471
485.9406, 9565.351
486.4227, 9569.730
486.9048, 9527.885
487.3869, 9492.303
487.8690, 9485.879
488.3512, 9510.607
488.8333, 9541.891
489.3154, 9584.239
489.7975, 9620.482
490.2796, 9618.018
490.7617, 9580.914
491.2439, 9571.393
491.7260, 9620.834
492.2081, 9696.567
492.6902, 9733.447
493.1723, 9734.061
493.6544, 9728.973
494.1366, 9737.584
494.6187, 9754.095
495.1008, 9769.083
495.5829, 9778.923
496.0650, 9795.311
496.5471, 9829.486
497.0293, 9875.574
497.5114, 9923.796
497.9935, 9972.971
498.4756, 10021.90
498.9577, 10077.12
499.4398, 10139.69
499.9220, 10176.57
500.4041, 10156.17
500.8862, 10124.01
501.3683, 10112.81
501.8504, 10143.35
502.3325, 10162.59
502.8146, 10161.58
503.2968, 10149.58
503.7789, 10150.78
504.2610, 10168.65
504.7431, 10191.77
505.2252, 10217.37
505.7073, 10245.66
506.1895, 10264.59
506.6716, 10269.98
507.1537, 10282.53
507.6358, 10335.25
508.1179, 10420.60
508.6000, 10490.22
509.0822, 10529.36
509.5643, 10549.18
510.0464, 10559.25
510.5285, 10562.54
511.0106, 10574.06
511.4927, 10606.36
511.9749, 10649.88
512.4570, 10696.17
512.9391, 10744.47
513.4212, 10791.19
513.9033, 10838.62
514.3854, 10882.12
514.8676, 10915.16
515.3497, 10905.89
515.8318, 10917.40
516.3139, 10975.78
516.7960, 11077.79
517.2781, 11175.05
517.7603, 11275.46
518.2424, 11361.55
518.7245, 11424.04
519.2066, 11454.88
519.6887, 11481.73
520.1708, 11511.48
520.6530, 11530.31
521.1351, 11513.50
521.6172, 11458.76
522.0993, 11386.27
522.5814, 11300.39
523.0635, 11201.77
523.5457, 11090.86
524.0278, 10966.85
524.5099, 10844.71
524.9920, 10737.14
525.4741, 10642.33
525.9562, 10558.29
526.4384, 10485.53
526.9205, 10423.73
527.4026, 10371.71
527.8847, 10330.95
528.3668, 10303.21
528.8489, 10304.63
529.3311, 10307.25
529.8132, 10289.00
530.2953, 10248.38
530.7774, 10225.78
531.2595, 10248.39
531.7416, 10283.06
532.2238, 10306.09
532.7059, 10305.48
533.1880, 10306.60
533.6701, 10306.13
534.1522, 10308.76
534.6343, 10326.27
535.1165, 10364.39
535.5986, 10404.62
536.0807, 10442.88
536.5628, 10479.30
537.0449, 10500.85
537.5270, 10504.31
538.0092, 10510.88
538.4913, 10548.91
538.9734, 10609.73
539.4555, 10654.40
539.9376, 10670.01
540.4197, 10676.15
540.9019, 10697.87
541.3840, 10730.96
541.8661, 10762.76
542.3482, 10775.21
542.8303, 10791.39
543.3124, 10839.86
543.7946, 10924.11
544.2767, 10986.81
544.7588, 10989.21
545.2409, 10968.54
545.7230, 10955.45
546.2051, 10971.36
546.6873, 10974.80
547.1694, 10955.40
547.6515, 10921.28
548.1336, 10894.37
548.6157, 10890.93
549.0978, 10865.99
549.5800, 10792.67
550.0621, 10669.78
550.5442, 10598.72
551.0263, 10592.71
551.5084, 10597.34
551.9905, 10552.92
552.4727, 10467.43
552.9548, 10399.82
553.4369, 10363.75
553.9190, 10344.99
554.4011, 10321.84
554.8832, 10298.12
555.3654, 10286.35
555.8475, 10312.95
556.3296, 10341.29
556.8117, 10328.58
557.2938, 10272.31
557.7759, 10231.14
558.2581, 10247.42
558.7402, 10281.56
559.2223, 10301.36
559.7044, 10295.74
560.1865, 10281.02
560.6686, 10250.77
561.1508, 10213.39
561.6329, 10186.90
562.1150, 10175.65
562.5971, 10168.02
563.0792, 10161.78
563.5613, 10156.96
564.0435, 10149.96
564.5256, 10139.78
565.0077, 10131.92
565.4898, 10130.67
565.9719, 10135.91
566.4540, 10148.40
566.9362, 10171.04
567.4183, 10193.12
567.9004, 10194.55
568.3824, 10182.47
568.8646, 10177.05
569.3467, 10194.20
569.8288, 10217.08
570.3109, 10235.85
570.7930, 10249.47
571.2751, 10252.25
571.7573, 10233.81
572.2394, 10208.55
572.7215, 10184.94
573.2036, 10157.26
573.6857, 10144.42
574.1678, 10154.93
574.6500, 10178.39
575.1321, 10202.70
575.6142, 10236.33
576.0963, 10252.39
576.5784, 10239.45
577.0605, 10203.80
577.5427, 10179.56
578.0248, 10167.35
578.5069, 10161.22
578.9890, 10157.84
579.4711, 10157.22
579.9532, 10159.43
580.4354, 10164.42
580.9175, 10172.38
581.3996, 10186.61
581.8817, 10203.63
582.3638, 10216.77
582.8459, 10219.66
583.3281, 10222.62
583.8102, 10234.80
584.2923, 10253.22
584.7744, 10267.13
585.2565, 10267.65
585.7386, 10267.80
586.2208, 10274.01
586.7029, 10288.89
587.1850, 10302.23
587.6671, 10318.96
588.1492, 10329.27
588.6313, 10321.87
589.1135, 10290.56
589.5956, 10263.82
590.0777, 10243.14
590.5598, 10230.78
591.0419, 10238.64
591.5240, 10265.63
592.0062, 10283.34
592.4883, 10267.24
592.9704, 10235.28
593.4525, 10225.42
593.9346, 10236.94
594.4167, 10252.24
594.8989, 10262.10
595.3810, 10267.37
595.8631, 10268.34
596.3452, 10262.85
596.8273, 10258.47
597.3094, 10254.49
597.7916, 10254.24
598.2737, 10262.78
598.7558, 10291.93
599.2379, 10317.54
599.7200, 10335.34
600.2021, 10346.03
600.6843, 10353.74
601.1664, 10357.33
601.6485, 10360.70
602.1306, 10365.88
602.6127, 10372.99
603.0948, 10383.98
603.5770, 10400.87
604.0591, 10412.29
604.5412, 10395.22
605.0233, 10361.24
605.5054, 10345.61
605.9875, 10366.91
606.4697, 10396.79
606.9518, 10411.60
607.4339, 10413.56
607.9160, 10408.80
608.3981, 10385.58
608.8802, 10368.05
609.3624, 10373.15
609.8445, 10404.24
610.3266, 10425.37
610.8087, 10433.17
611.2908, 10428.43
611.7729, 10408.49
612.2551, 10361.88
612.7372, 10331.91
613.2193, 10324.18
613.7014, 10329.00
614.1835, 10334.82
614.6656, 10342.03
615.1478, 10339.22
615.6299, 10317.99
616.1120, 10288.77
616.5941, 10272.38
617.0762, 10267.56
617.5583, 10266.17
618.0405, 10254.98
618.5226, 10249.03
619.0047, 10273.46
619.4868, 10336.89
619.9689, 10374.60
620.4510, 10324.77
620.9332, 10253.15
621.4153, 10219.99
621.8974, 10278.37
622.3795, 10321.10
622.8616, 10340.22
623.3438, 10340.49
623.8259, 10328.88
624.3080, 10299.95
624.7901, 10275.76
625.2722, 10263.13
625.7543, 10261.26
626.2365, 10270.88
626.7186, 10292.81
627.2007, 10306.40
627.6828, 10281.89
628.1649, 10240.80
628.6470, 10229.09
629.1292, 10255.33
629.6113, 10289.02
630.0934, 10319.38
630.5755, 10339.07
631.0576, 10339.33
631.5397, 10278.67
632.0219, 10241.02
632.5040, 10273.87
