##NAMES=Spurrite
##RRUFFID=R050236
##IDEAL CHEMISTRY=Ca_5_(SiO_4_)_2_(CO_3_)
##LOCALITY=South Sister Peak, Luna County, New Mexico, USA
##OWNER=RRUFF
##SOURCE=Marcus Origlieri
##DESCRIPTION=Lavendar-gray massive
##STATUS=The identification of this mineral has been confirmed by X-ray diffraction and chemical analysis
##URL=rruff.info/R050236
##MEASURED CHEMISTRY=Ca_5.00_(Si_1.00_O_4_)_2_(CO_3_)
92.35352, 82.83378
92.83563, 82.41699
93.31775, 82.33360
93.79987, 83.40198
94.28198, 84.10243
94.76410, 84.52642
95.24622, 84.87276
95.72833, 85.16118
96.21045, 85.31007
96.69257, 85.27001
97.17468, 85.30202
97.65680, 85.58695
98.13892, 85.98495
98.62103, 86.39938
99.10315, 86.68952
99.58527, 86.80607
100.0674, 86.92860
100.5495, 86.98875
101.0316, 87.18791
101.5137, 87.70242
101.9958, 88.33620
102.4780, 88.77751
102.9601, 88.77344
103.4422, 88.28960
103.9243, 88.11266
104.4064, 88.41613
104.8885, 88.75565
105.3707, 89.02973
105.8528, 89.18791
106.3349, 89.10284
106.8170, 88.63255
107.2991, 87.72968
107.7813, 86.47981
108.2634, 84.66624
108.7455, 82.57676
109.2276, 80.54430
109.7097, 78.62044
110.1918, 76.78835
110.6740, 75.00721
111.1561, 73.26299
111.6382, 71.63279
112.1203, 70.18798
112.6024, 68.91016
113.0845, 67.66923
113.5666, 66.27715
114.0488, 65.07491
114.5309, 64.34610
115.0130, 64.11150
115.4951, 64.07316
115.9772, 63.83443
116.4593, 63.23708
116.9415, 62.90278
117.4236, 63.01583
117.9057, 63.32173
118.3878, 63.66084
118.8699, 63.96922
119.3520, 64.27003
119.8342, 64.61662
120.3163, 64.87914
120.7984, 65.36880
121.2805, 66.27177
121.7626, 67.37822
122.2447, 68.39755
122.7269, 69.15334
123.2090, 69.68900
123.6911, 70.37411
124.1732, 71.35067
124.6553, 72.29533
125.1374, 73.08053
125.6196, 73.72279
126.1017, 74.31129
126.5838, 74.89722
127.0659, 75.47762
127.5480, 76.04482
128.0302, 76.63110
128.5123, 77.18239
128.9944, 77.68001
129.4765, 78.14648
129.9586, 78.44222
130.4407, 78.32479
130.9229, 77.95385
131.4050, 77.61143
131.8871, 77.41122
132.3692, 77.32522
132.8513, 77.24717
133.3334, 77.07042
133.8155, 77.07043
134.2977, 77.40343
134.7798, 78.00608
135.2619, 78.70967
135.7440, 79.37344
136.2261, 79.98533
136.7082, 80.70888
137.1904, 81.59597
137.6725, 82.56152
138.1546, 83.55717
138.6367, 84.59492
139.1188, 85.71736
139.6009, 86.96716
140.0831, 88.34397
140.5652, 89.89320
141.0473, 91.81462
141.5294, 93.74430
142.0115, 95.40097
142.4936, 96.71634
142.9758, 97.83601
143.4579, 99.00620
143.9400, 100.4385
144.4221, 101.5209
144.9042, 102.1417
145.3863, 102.4110
145.8685, 102.3729
146.3506, 101.9842
146.8327, 101.4918
147.3148, 101.4890
147.7969, 102.0765
148.2790, 102.7171
148.7612, 103.2066
149.2433, 103.5795
149.7254, 103.9544
150.2075, 104.3948
150.6896, 104.8495
151.1717, 105.2192
151.6539, 105.4575
152.1360, 105.7243
152.6181, 106.1400
153.1002, 106.7089
153.5823, 107.4020
154.0644, 108.3105
154.5466, 109.2951
155.0287, 110.2631
155.5108, 111.1935
155.9929, 112.0844
156.4750, 112.8487
156.9571, 113.2385
157.4393, 114.0865
157.9214, 115.7918
158.4035, 117.9063
158.8856, 120.0802
159.3677, 122.1844
159.8498, 124.1133
160.3320, 125.4663
160.8141, 125.9325
161.2962, 126.1084
161.7783, 126.0707
162.2604, 125.8204
162.7425, 125.3380
163.2247, 124.6073
163.7068, 123.6351
164.1889, 122.5315
164.6710, 121.1282
165.1531, 119.7818
165.6352, 118.5532
166.1174, 117.4537
166.5995, 116.5407
167.0816, 115.8852
167.5637, 115.4824
168.0458, 114.8541
168.5279, 113.8767
169.0101, 112.8247
169.4922, 111.7987
169.9743, 110.8181
170.4564, 109.9375
170.9385, 109.2877
171.4206, 108.8180
171.9028, 108.0299
172.3849, 106.6809
172.8670, 105.1299
173.3491, 103.6600
173.8312, 102.2763
174.3133, 101.0738
174.7955, 100.1474
175.2776, 99.45972
175.7597, 99.00497
176.2418, 98.83151
176.7239, 98.88304
177.2060, 99.09594
177.6882, 99.56323
178.1703, 99.99284
178.6524, 100.1920
179.1345, 100.2225
179.6166, 100.1994
180.0987, 100.2234
180.5809, 100.2609
181.0630, 100.1064
181.5451, 99.64806
182.0272, 99.10725
182.5093, 98.55132
182.9914, 97.99283
183.4736, 97.44414
183.9557, 96.88744
184.4378, 96.31649
184.9199, 95.92780
185.4020, 96.05917
185.8841, 96.08403
186.3663, 95.62330
186.8484, 94.83826
187.3305, 94.22823
187.8126, 94.33268
188.2947, 95.36715
188.7768, 95.81914
189.2590, 95.22869
189.7411, 94.54827
190.2232, 94.20869
190.7053, 94.21140
191.1874, 94.28297
191.6695, 94.11314
192.1517, 93.56645
192.6338, 93.37786
193.1159, 93.98917
193.5980, 94.57438
194.0801, 94.56999
194.5622, 93.93098
195.0444, 93.02293
195.5265, 92.21700
196.0086, 91.52555
196.4907, 90.97709
196.9728, 90.66395
197.4549, 90.43889
197.9371, 90.16411
198.4192, 89.81464
198.9013, 89.46445
199.3834, 89.21585
199.8655, 89.06847
200.3476, 88.88040
200.8298, 88.69448
201.3119, 88.43085
201.7940, 87.96006
202.2761, 87.23780
202.7582, 86.39956
203.2403, 85.61389
203.7225, 84.85678
204.2046, 83.98595
204.6867, 82.82816
205.1688, 81.52256
205.6509, 80.34961
206.1330, 79.27905
206.6152, 78.47641
207.0973, 78.16505
207.5794, 78.22196
208.0615, 78.26833
208.5436, 78.00792
209.0257, 77.53294
209.5079, 77.30888
209.9900, 77.52530
210.4721, 77.79002
210.9542, 77.81027
211.4363, 77.67347
211.9184, 77.63909
212.4006, 78.00496
212.8827, 78.74074
213.3648, 79.15952
213.8469, 78.91200
214.3290, 78.68462
214.8111, 78.79221
215.2933, 79.15681
215.7754, 79.53413
216.2575, 79.69500
216.7396, 79.62051
217.2217, 79.71978
217.7038, 80.16723
218.1859, 80.64620
218.6681, 81.05959
219.1502, 81.42345
219.6323, 81.80240
220.1144, 82.23474
220.5965, 82.70773
221.0786, 83.38560
221.5608, 84.57999
222.0429, 85.68542
222.5250, 86.40419
223.0071, 86.82141
223.4892, 87.24996
223.9713, 88.00297
224.4535, 89.16922
224.9356, 89.80920
225.4177, 89.42491
225.8998, 89.08582
226.3819, 89.27360
226.8640, 89.93339
227.3462, 90.74169
227.8283, 91.43300
228.3104, 91.99586
228.7925, 92.59182
229.2746, 93.14479
229.7567, 93.78867
230.2389, 94.61361
230.7210, 95.60110
231.2031, 96.64042
231.6852, 97.64084
232.1673, 98.60218
232.6494, 99.66537
233.1316, 100.8412
233.6137, 102.0897
234.0958, 103.4489
234.5779, 104.8903
235.0600, 106.2651
235.5421, 107.4724
236.0243, 108.5061
236.5064, 109.4939
236.9885, 110.2859
237.4706, 111.1460
237.9527, 112.3256
238.4348, 113.7989
238.9170, 115.2295
239.3991, 116.3590
239.8812, 117.2924
240.3633, 118.4047
240.8454, 119.8398
241.3275, 121.3519
241.8097, 122.7008
242.2918, 123.9008
242.7739, 125.2280
243.2560, 126.9475
243.7381, 128.8632
244.2202, 130.5570
244.7024, 131.8307
245.1845, 133.0937
245.6666, 134.8411
246.1487, 137.0829
246.6308, 139.1145
247.1129, 140.3584
247.5951, 141.3389
248.0772, 142.7539
248.5593, 144.8456
249.0414, 147.0020
249.5235, 148.5146
250.0056, 149.3277
250.4878, 150.2761
250.9699, 151.7620
251.4520, 153.4529
251.9341, 155.1259
252.4162, 156.7801
252.8983, 158.2103
253.3805, 159.1498
253.8626, 159.5652
254.3447, 159.8254
254.8268, 160.2180
255.3089, 160.3252
255.7910, 159.7743
256.2732, 158.5215
256.7553, 156.9458
257.2374, 155.3886
257.7195, 153.8477
258.2016, 152.3641
258.6837, 150.9927
259.1659, 149.6522
259.6480, 148.2690
260.1301, 146.8524
260.6122, 145.4965
261.0943, 144.2744
261.5764, 143.1830
262.0586, 142.2836
262.5407, 141.7063
263.0228, 141.2326
263.5049, 140.7659
263.9870, 140.3128
264.4691, 139.9547
264.9513, 139.8226
265.4334, 139.9697
265.9155, 139.9205
266.3976, 139.7575
266.8797, 139.3019
267.3618, 138.3062
267.8440, 136.9184
268.3261, 135.5230
268.8082, 134.4511
269.2903, 133.7132
269.7724, 133.0155
270.2545, 132.4955
270.7367, 131.8834
271.2188, 131.0863
271.7009, 130.1330
272.1830, 129.0729
272.6651, 127.8988
273.1472, 126.6363
273.6294, 125.7039
274.1115, 125.4393
274.5936, 125.1900
275.0757, 124.8434
275.5578, 124.4206
276.0399, 123.9545
276.5221, 123.4525
277.0042, 122.9478
277.4863, 122.6431
277.9684, 122.7500
278.4505, 122.8457
278.9326, 122.8766
279.4148, 122.8686
279.8969, 122.8759
280.3790, 122.9277
280.8611, 122.9857
281.3432, 122.9259
281.8253, 122.5843
282.3075, 122.3151
282.7896, 122.1115
283.2717, 121.9995
283.7538, 122.0284
284.2359, 122.2133
284.7180, 122.4910
285.2002, 122.7278
285.6823, 122.8968
286.1644, 123.0568
286.6465, 123.0920
287.1286, 123.1812
287.6107, 123.5390
288.0929, 124.2050
288.5750, 124.9710
289.0571, 125.5231
289.5392, 125.7058
290.0213, 126.0100
290.5034, 126.5593
290.9856, 127.1339
291.4677, 127.5842
291.9498, 127.8843
292.4319, 128.0780
292.9140, 128.1889
293.3961, 128.1615
293.8783, 128.3186
294.3604, 128.7314
294.8425, 129.2403
295.3246, 129.8129
295.8067, 130.4114
296.2888, 130.9456
296.7710, 131.3378
297.2531, 131.5800
297.7352, 131.7543
298.2173, 131.7780
298.6994, 131.8269
299.1815, 132.0502
299.6637, 132.3712
300.1458, 132.5665
300.6279, 132.4682
301.1100, 132.1249
301.5921, 131.9507
302.0742, 132.0164
302.5564, 132.1355
303.0385, 132.2469
303.5206, 132.3779
304.0027, 132.6213
304.4848, 133.0415
304.9669, 133.5279
305.4491, 133.7349
305.9312, 133.4926
306.4133, 133.2233
306.8954, 132.9862
307.3775, 132.7519
307.8596, 132.4776
308.3418, 132.1495
308.8239, 131.7920
309.3060, 131.4473
309.7881, 131.1004
310.2702, 130.8042
310.7523, 130.6256
311.2345, 130.4614
311.7166, 130.1814
312.1987, 129.7706
312.6808, 129.3674
313.1629, 129.1439
313.6451, 129.1638
314.1272, 129.1084
314.6093, 128.9716
315.0914, 128.7669
315.5735, 128.4541
316.0556, 128.0580
316.5378, 127.7098
317.0199, 127.5433
317.5020, 127.5639
317.9841, 127.3540
318.4662, 126.6008
318.9483, 125.9614
319.4305, 125.7894
319.9126, 125.9806
320.3947, 126.2349
320.8768, 126.3931
321.3589, 126.4534
321.8410, 126.3921
322.3232, 126.1609
322.8053, 125.8903
323.2874, 125.5338
323.7695, 125.1739
324.2516, 124.9460
324.7337, 124.9094
325.2159, 125.0058
325.6980, 125.1075
326.1801, 125.1260
326.6622, 125.3081
327.1443, 125.6272
327.6264, 126.1389
328.1086, 126.9829
328.5907, 128.1728
329.0728, 129.4596
329.5549, 130.5146
330.0370, 131.2307
330.5191, 132.0574
331.0013, 133.0091
331.4834, 134.0508
331.9655, 135.1270
332.4476, 136.2538
332.9297, 137.5251
333.4118, 139.0418
333.8940, 140.8161
334.3761, 142.6263
334.8582, 144.4134
335.3403, 146.2874
335.8224, 148.3934
336.3045, 150.6250
336.7867, 152.7721
337.2688, 154.6919
337.7509, 156.4350
338.2330, 158.2197
338.7151, 160.1159
339.1972, 161.9713
339.6793, 163.7085
340.1614, 165.4190
340.6436, 167.1952
341.1257, 169.0894
341.6078, 171.1118
342.0899, 173.2957
342.5720, 175.7012
343.0541, 178.1885
343.5363, 180.9802
344.0184, 183.7150
344.5005, 186.0674
344.9826, 188.0134
345.4647, 189.7930
345.9468, 191.6514
346.4290, 193.5860
346.9111, 195.6671
347.3932, 198.0477
347.8753, 200.3860
348.3574, 202.6019
348.8395, 204.6446
349.3217, 206.4395
349.8038, 207.9147
350.2859, 209.0914
350.7680, 210.1423
351.2501, 211.0370
351.7322, 211.8394
352.2144, 212.7289
352.6965, 213.4787
353.1786, 213.7756
353.6607, 213.4798
354.1428, 212.7154
354.6249, 211.7366
355.1071, 210.2903
355.5892, 209.0515
356.0713, 208.1564
356.5534, 207.3894
357.0355, 206.6400
357.5176, 205.8603
357.9998, 204.9904
358.4819, 203.9207
358.9640, 202.5554
359.4461, 201.3940
359.9282, 200.6040
360.4103, 199.8374
360.8925, 198.8697
361.3746, 197.7919
361.8567, 196.8898
362.3388, 196.4054
362.8209, 196.2793
363.3030, 195.9626
363.7852, 195.3620
364.2673, 194.6673
364.7494, 193.7075
365.2315, 192.7561
365.7136, 192.1981
366.1957, 192.2107
366.6779, 192.5227
367.1600, 192.5804
367.6421, 192.2776
368.1242, 191.9788
368.6063, 191.6114
369.0884, 191.3509
369.5706, 191.3209
370.0527, 191.5376
370.5348, 191.9385
371.0169, 192.5401
371.4990, 193.3648
371.9811, 194.0148
372.4633, 194.3520
372.9454, 194.6377
373.4275, 195.0504
373.9096, 195.5121
374.3917, 195.8184
374.8738, 195.7534
375.3560, 195.4873
375.8381, 195.5228
376.3202, 195.8537
376.8023, 196.5197
377.2844, 197.8267
377.7665, 199.3324
378.2487, 200.5453
378.7308, 201.3029
379.2129, 201.8790
379.6950, 202.5758
380.1771, 203.3966
380.6592, 204.2475
381.1414, 205.1007
381.6235, 205.9909
382.1056, 207.0071
382.5877, 208.1371
383.0698, 209.1384
383.5519, 209.6072
384.0341, 209.8273
384.5162, 210.8042
384.9983, 212.9176
385.4804, 215.0421
385.9625, 216.1223
386.4446, 216.5841
386.9268, 217.2706
387.4089, 218.7444
387.8910, 220.2786
388.3731, 221.0206
388.8552, 220.9925
389.3373, 220.8242
389.8195, 220.8056
390.3016, 220.8069
390.7837, 220.5785
391.2658, 220.0546
391.7479, 219.5024
392.2300, 218.9431
392.7122, 218.4596
393.1943, 218.3016
393.6764, 218.5883
394.1585, 218.9543
394.6406, 218.8998
395.1227, 218.4088
395.6049, 218.1429
396.0870, 218.1087
396.5691, 218.3872
397.0512, 219.2498
397.5333, 220.6113
398.0154, 221.7825
398.4976, 222.1837
398.9797, 222.0321
399.4618, 222.7043
399.9439, 224.6424
400.4260, 226.7366
400.9081, 228.7903
401.3903, 230.7599
401.8724, 232.5419
402.3545, 234.0959
402.8366, 235.5234
403.3187, 236.9717
403.8008, 238.4054
404.2830, 239.9594
404.7651, 241.5616
405.2472, 243.3338
405.7293, 245.4716
406.2114, 247.8948
406.6935, 250.2780
407.1757, 252.3290
407.6578, 254.0480
408.1399, 255.9550
408.6220, 258.1275
409.1041, 260.3970
409.5862, 262.6544
410.0684, 265.0120
410.5505, 267.7441
411.0326, 270.9468
411.5147, 274.3065
411.9968, 277.1852
412.4789, 279.2704
412.9611, 281.5380
413.4432, 283.8931
413.9253, 286.5418
414.4074, 289.8042
414.8895, 293.5681
415.3716, 297.2740
415.8538, 300.3648
416.3359, 302.8928
416.8180, 305.7342
417.3001, 308.9029
417.7822, 312.4085
418.2643, 316.5591
418.7465, 320.9068
419.2286, 324.8004
419.7107, 327.9352
420.1928, 330.7355
420.6749, 333.8801
421.1570, 337.4244
421.6392, 340.9043
422.1213, 343.8948
422.6034, 347.0504
423.0855, 351.0446
423.5676, 355.8504
424.0497, 360.4497
424.5319, 363.9922
425.0140, 366.8592
425.4961, 370.1785
425.9782, 374.1602
426.4603, 378.0764
426.9424, 381.2827
427.4246, 384.0370
427.9067, 386.8073
428.3888, 389.5038
428.8709, 392.4255
429.3530, 395.9082
429.8351, 399.8465
430.3173, 403.8074
430.7994, 407.6924
431.2815, 411.3840
431.7636, 414.5942
432.2457, 417.2477
432.7278, 420.0004
433.2100, 423.0492
433.6921, 426.2333
434.1742, 429.4190
434.6563, 432.5819
435.1384, 435.5996
435.6205, 438.2896
436.1027, 440.6944
436.5848, 443.5948
437.0669, 447.3317
437.5490, 451.0959
438.0311, 454.8203
438.5132, 458.3653
438.9954, 461.3926
439.4775, 463.7809
439.9596, 466.0155
440.4417, 468.9053
440.9238, 472.5872
441.4059, 476.6938
441.8881, 481.5819
442.3702, 486.5274
442.8523, 491.1163
443.3344, 495.3526
443.8165, 499.4371
444.2986, 503.4307
444.7808, 507.4189
445.2629, 511.9335
445.7450, 517.3671
446.2271, 522.7646
446.7092, 527.6182
447.1913, 532.5161
447.6735, 538.0583
448.1556, 544.3845
448.6377, 551.1197
449.1198, 557.9329
449.6019, 564.8178
450.0840, 571.6769
450.5662, 578.6339
451.0483, 585.4439
451.5304, 591.7304
452.0125, 597.7686
452.4946, 604.2950
452.9767, 611.8663
453.4589, 619.9285
453.9410, 627.6310
454.4231, 634.9186
454.9052, 642.2222
455.3873, 649.6433
455.8694, 657.2245
456.3516, 665.0579
456.8337, 673.1699
457.3158, 681.1830
457.7979, 688.8895
458.2800, 696.3534
458.7621, 703.6362
459.2443, 710.7223
459.7264, 717.7580
460.2085, 725.0088
460.6906, 732.3239
461.1727, 738.8384
461.6548, 744.0362
462.1370, 748.9252
462.6191, 753.9064
463.1012, 758.9156
463.5833, 763.8889
464.0654, 768.8583
464.5475, 773.4713
465.0297, 777.1845
465.5118, 779.9764
465.9939, 781.6890
466.4760, 781.7524
466.9581, 781.3183
467.4402, 781.0384
467.9224, 780.8743
468.4045, 780.6166
468.8866, 780.2211
469.3687, 779.4273
469.8508, 776.9027
470.3329, 771.1058
470.8151, 766.0235
471.2972, 763.1670
471.7793, 760.5277
472.2614, 756.3389
472.7435, 750.3544
473.2256, 743.6490
473.7078, 737.2499
474.1899, 731.1223
474.6720, 724.7836
475.1541, 718.1084
475.6362, 711.3997
476.1183, 704.8912
476.6005, 698.3803
477.0826, 691.5931
477.5647, 684.3957
478.0468, 676.9644
478.5289, 669.3884
479.0110, 661.7156
479.4932, 653.9849
479.9753, 646.3322
480.4574, 638.5328
480.9395, 630.3650
481.4216, 621.8538
481.9037, 613.1536
482.3859, 604.2777
482.8680, 595.3039
483.3501, 586.2399
483.8322, 577.1136
484.3143, 567.9333
484.7964, 558.6017
485.2786, 549.2768
485.7607, 540.4303
486.2428, 532.5666
486.7249, 524.2678
487.2070, 514.8339
487.6891, 505.1581
488.1713, 496.1357
488.6534, 487.8272
489.1355, 479.7459
489.6176, 471.4966
490.0997, 463.0426
490.5818, 454.9126
491.0640, 447.3246
491.5461, 439.8703
492.0282, 432.6990
492.5103, 425.5436
492.9924, 418.0277
493.4745, 410.0806
493.9567, 402.3644
494.4388, 395.8054
494.9209, 390.5424
495.4030, 385.1789
495.8851, 379.7480
496.3672, 374.1143
496.8494, 367.8843
497.3315, 361.4825
497.8136, 355.7147
498.2957, 351.0458
498.7778, 346.9237
499.2599, 342.7393
499.7421, 338.4872
500.2242, 334.1953
500.7063, 329.7071
501.1884, 325.3462
501.6705, 321.5895
502.1526, 318.3854
502.6348, 315.2356
503.1169, 311.9557
503.5990, 308.6811
504.0811, 305.4734
504.5632, 302.3561
505.0453, 299.4077
505.5274, 296.6877
506.0096, 294.1076
506.4917, 291.4160
506.9738, 288.2626
507.4559, 285.5811
507.9380, 283.8622
508.4201, 282.3113
508.9023, 280.2893
509.3844, 277.7513
509.8665, 274.9275
510.3486, 271.9562
510.8307, 268.8839
511.3128, 266.2044
511.7950, 263.8837
512.2771, 262.0626
512.7592, 261.1544
513.2413, 260.4602
513.7234, 259.3242
514.2056, 257.6282
514.6877, 255.7876
515.1698, 254.2655
515.6519, 253.0020
516.1340, 251.3235
516.6161, 248.9223
517.0983, 246.7079
517.5804, 245.4741
518.0625, 244.6778
518.5446, 243.5076
519.0267, 241.7061
519.5089, 239.7754
519.9910, 238.1216
520.4731, 236.6240
520.9552, 234.9390
521.4373, 232.9642
521.9194, 230.8822
522.4016, 228.8038
522.8837, 226.7379
523.3658, 224.9153
523.8479, 223.6991
524.3300, 222.3416
524.8121, 220.2842
525.2943, 217.9031
525.7764, 215.9065
526.2585, 214.5557
526.7406, 213.4122
527.2227, 211.7753
527.7048, 209.3813
528.1870, 207.4492
528.6691, 206.2253
529.1512, 205.1867
529.6333, 204.1761
530.1154, 203.2053
530.5975, 202.3283
531.0797, 201.5659
531.5618, 200.9296
532.0439, 200.5091
532.5260, 200.3592
533.0081, 199.9676
533.4902, 198.9853
533.9724, 198.0456
534.4545, 197.6571
534.9366, 197.6982
535.4187, 197.7062
535.9008, 197.6224
536.3829, 197.3271
536.8651, 196.4048
537.3472, 195.0069
537.8293, 194.2761
538.3114, 194.7861
538.7935, 195.8214
539.2756, 196.2265
539.7578, 195.8502
540.2399, 195.6740
540.7220, 195.8105
541.2041, 196.1532
541.6862, 196.8117
542.1683, 197.6233
542.6505, 198.1414
543.1326, 198.1084
543.6147, 197.7910
544.0968, 197.8709
544.5789, 198.6956
545.0610, 199.2066
545.5432, 199.2074
546.0253, 199.0798
546.5074, 198.9486
546.9895, 198.8683
547.4716, 198.9248
547.9537, 199.2132
548.4359, 199.5986
548.9180, 199.7781
549.4001, 199.7272
549.8822, 199.6257
550.3643, 199.3719
550.8464, 199.2408
551.3286, 199.5559
551.8107, 200.2779
552.2928, 200.9436
552.7749, 201.4399
553.2570, 201.7483
553.7391, 201.6884
554.2213, 201.3532
554.7034, 201.3086
555.1855, 201.8771
555.6676, 202.7274
556.1497, 203.1920
556.6318, 203.0576
557.1140, 203.0083
557.5961, 202.9971
558.0782, 203.1243
558.5603, 203.7192
559.0424, 204.5116
559.5245, 204.8020
560.0067, 204.1700
560.4888, 202.9567
560.9709, 201.9844
561.4530, 201.2915
561.9351, 200.7434
562.4172, 200.5686
562.8994, 200.3314
563.3815, 199.7075
563.8636, 198.8129
564.3457, 198.0541
564.8278, 197.7135
565.3099, 197.5288
565.7921, 197.0149
566.2742, 196.1983
566.7563, 195.7376
567.2384, 196.0011
567.7205, 196.4381
568.2026, 196.1933
568.6848, 195.2764
569.1669, 194.7465
569.6490, 195.1944
570.1311, 195.6856
570.6132, 195.5354
571.0953, 194.9207
571.5775, 194.3342
572.0596, 193.9884
572.5417, 193.7725
573.0238, 193.5204
573.5059, 193.2955
573.9880, 192.8292
574.4702, 191.7673
574.9523, 190.8464
575.4344, 190.4248
575.9165, 190.3345
576.3986, 190.2751
576.8807, 190.1186
577.3629, 189.9371
577.8450, 189.8658
578.3271, 189.9024
578.8092, 189.7940
579.2913, 189.4047
579.7734, 189.0405
580.2556, 189.0471
580.7377, 189.2645
581.2198, 189.2834
581.7019, 188.9176
582.1840, 188.4801
582.6661, 188.1312
583.1483, 187.8552
583.6304, 187.6546
584.1125, 187.5278
584.5946, 187.3426
585.0767, 186.9294
585.5588, 186.2737
586.0409, 185.8345
586.5230, 185.8441
587.0051, 185.7695
587.4872, 185.4434
587.9694, 185.0023
588.4515, 184.5683
588.9336, 184.1815
