##NAMES=Spurrite
##RRUFFID=R070632
##IDEAL CHEMISTRY=Ca_5_(SiO_4_)_2_(CO_3_)
##LOCALITY=Huka, Okayama, Japan
##OWNER=RRUFF
##SOURCE=Shinichi Kihara
##DESCRIPTION=Massive lavender fragment
##STATUS=The identification of this mineral has been confirmed by single-crystal X-ray diffraction.
##URL=rruff.info/R070632
94.88153, 1726.331
95.36365, 1785.722
95.84576, 1803.773
96.32788, 1833.120
96.81000, 1897.617
97.29211, 1994.472
97.77423, 2102.471
98.25635, 2199.217
98.73846, 2279.727
99.22058, 2360.405
99.70270, 2439.241
100.1848, 2519.077
100.6669, 2603.066
101.1491, 2691.922
101.6312, 2784.135
102.1133, 2812.979
102.5954, 2840.429
103.0775, 2863.879
103.5596, 2874.989
104.0418, 2879.452
104.5239, 2899.187
105.0060, 2952.524
105.4881, 3018.898
105.9702, 3066.715
106.4523, 3092.930
106.9345, 3103.865
107.4166, 3109.074
107.8987, 3112.843
108.3808, 3094.185
108.8629, 3033.592
109.3450, 2949.209
109.8272, 2860.340
110.3093, 2773.330
110.7914, 2688.570
111.2735, 2607.083
111.7556, 2521.190
112.2377, 2449.095
112.7199, 2399.844
113.2020, 2368.889
113.6841, 2345.502
114.1662, 2320.805
114.6483, 2294.567
115.1304, 2267.086
115.6126, 2226.898
116.0947, 2193.608
116.5768, 2181.151
117.0589, 2190.541
117.5410, 2210.146
118.0231, 2221.241
118.5053, 2212.848
118.9874, 2211.500
119.4695, 2218.594
119.9516, 2232.023
120.4337, 2250.058
120.9158, 2272.174
121.3980, 2297.535
121.8801, 2323.950
122.3622, 2347.313
122.8443, 2375.600
123.3264, 2415.604
123.8085, 2464.089
124.2907, 2509.103
124.7728, 2541.775
125.2549, 2565.364
125.7370, 2594.382
126.2191, 2637.319
126.7012, 2681.136
127.1834, 2715.876
127.6655, 2742.676
128.1476, 2755.536
128.6297, 2741.581
129.1118, 2710.701
129.5939, 2678.786
130.0761, 2651.621
130.5582, 2628.200
131.0403, 2605.074
131.5224, 2583.545
132.0045, 2560.402
132.4866, 2532.375
132.9688, 2500.827
133.4509, 2470.810
133.9330, 2443.784
134.4151, 2418.416
134.8972, 2406.760
135.3793, 2416.006
135.8615, 2434.808
136.3436, 2462.001
136.8257, 2495.992
137.3078, 2531.952
137.7899, 2562.177
138.2720, 2582.558
138.7542, 2604.943
139.2363, 2626.471
139.7184, 2651.406
140.2005, 2684.882
140.6826, 2728.655
141.1647, 2779.008
141.6469, 2824.911
142.1290, 2853.497
142.6111, 2891.837
143.0932, 2947.103
143.5753, 3013.236
144.0574, 3081.970
144.5396, 3149.849
145.0217, 3215.792
145.5038, 3271.964
145.9859, 3303.083
146.4680, 3340.865
146.9502, 3402.396
147.4323, 3484.921
147.9144, 3572.669
148.3965, 3655.622
148.8786, 3733.276
149.3607, 3806.539
149.8429, 3888.982
150.3250, 3960.398
150.8071, 4001.128
151.2892, 4008.743
151.7713, 3992.269
152.2534, 3947.808
152.7356, 3882.590
153.2177, 3817.137
153.6998, 3752.463
154.1819, 3692.650
154.6640, 3647.474
155.1461, 3620.759
155.6283, 3606.834
156.1104, 3598.253
156.5925, 3595.276
157.0746, 3601.550
157.5567, 3620.410
158.0388, 3651.639
158.5210, 3689.762
159.0031, 3731.295
159.4852, 3782.881
159.9673, 3852.194
160.4494, 3938.966
160.9315, 4030.953
161.4137, 4118.891
161.8958, 4208.449
162.3779, 4272.726
162.8600, 4304.097
163.3421, 4314.550
163.8242, 4309.781
164.3064, 4291.724
164.7885, 4260.610
165.2706, 4214.327
165.7527, 4134.907
166.2348, 4069.237
166.7169, 4020.632
167.1991, 3987.389
167.6812, 3967.888
168.1633, 3961.286
168.6454, 3967.453
169.1275, 3986.176
169.6096, 4019.563
170.0918, 4064.543
170.5739, 4138.831
171.0560, 4223.207
171.5381, 4289.492
172.0202, 4321.121
172.5023, 4318.194
172.9845, 4279.172
173.4666, 4192.435
173.9487, 4090.730
174.4308, 3982.249
174.9129, 3868.029
175.3951, 3746.691
175.8772, 3613.019
176.3593, 3466.685
176.8414, 3344.041
177.3235, 3244.902
177.8056, 3166.170
178.2878, 3112.623
178.7699, 3083.508
179.2520, 3057.907
179.7341, 3014.637
180.2162, 2953.840
180.6983, 2899.689
181.1805, 2858.718
181.6626, 2824.222
182.1447, 2789.900
182.6268, 2756.091
183.1089, 2717.997
183.5910, 2663.967
184.0732, 2597.198
184.5553, 2540.364
185.0374, 2506.450
185.5195, 2487.897
186.0016, 2466.060
186.4837, 2435.041
186.9659, 2405.237
187.4480, 2386.175
187.9301, 2377.008
188.4122, 2371.165
188.8943, 2366.593
189.3764, 2362.860
189.8586, 2355.799
190.3407, 2340.697
190.8228, 2325.963
191.3049, 2318.440
191.7870, 2318.329
192.2691, 2319.864
192.7513, 2318.104
193.2334, 2312.834
193.7155, 2306.426
194.1976, 2296.587
194.6797, 2287.363
195.1618, 2282.471
195.6440, 2282.431
196.1261, 2282.223
196.6082, 2274.508
197.0903, 2256.244
197.5724, 2239.496
198.0546, 2221.398
198.5367, 2208.021
199.0188, 2205.350
199.5009, 2215.120
199.9830, 2231.907
200.4651, 2246.023
200.9473, 2256.657
201.4294, 2265.766
201.9115, 2275.234
202.3936, 2282.893
202.8757, 2285.891
203.3578, 2283.012
203.8400, 2276.871
204.3221, 2274.653
204.8042, 2282.621
205.2863, 2286.262
205.7684, 2284.691
206.2505, 2278.170
206.7327, 2266.339
207.2148, 2248.890
207.6969, 2227.121
208.1790, 2206.118
208.6611, 2171.501
209.1432, 2154.220
209.6254, 2168.901
210.1075, 2201.871
210.5896, 2233.511
211.0717, 2252.865
211.5538, 2261.578
212.0359, 2271.102
212.5181, 2279.484
213.0002, 2290.644
213.4823, 2307.804
213.9644, 2328.607
214.4465, 2348.101
214.9286, 2363.243
215.4108, 2374.289
215.8929, 2385.055
216.3750, 2390.682
216.8571, 2400.750
217.3392, 2417.151
217.8214, 2440.765
218.3035, 2475.244
218.7856, 2526.648
219.2677, 2592.457
219.7498, 2640.718
220.2319, 2654.735
220.7141, 2668.190
221.1962, 2700.618
221.6783, 2750.333
222.1604, 2803.803
222.6425, 2853.655
223.1246, 2898.579
223.6068, 2934.858
224.0889, 2961.723
224.5710, 2980.845
225.0531, 2993.983
225.5352, 3001.005
226.0173, 2999.339
226.4995, 2985.128
226.9816, 2959.014
227.4637, 2931.301
227.9458, 2906.849
228.4279, 2878.265
228.9100, 2833.849
229.3922, 2772.221
229.8743, 2714.283
230.3564, 2676.824
230.8385, 2656.930
231.3206, 2643.637
231.8027, 2639.001
232.2849, 2638.349
232.7670, 2635.098
233.2491, 2628.020
233.7312, 2624.469
234.2133, 2636.412
234.6954, 2656.840
235.1776, 2667.892
235.6597, 2658.400
236.1418, 2639.263
236.6239, 2624.955
237.1060, 2615.233
237.5881, 2612.514
238.0703, 2626.392
238.5524, 2648.895
239.0345, 2663.573
239.5166, 2660.433
239.9987, 2647.032
240.4808, 2636.183
240.9630, 2627.494
241.4451, 2623.014
241.9272, 2626.386
242.4093, 2634.674
242.8914, 2642.358
243.3735, 2642.727
243.8557, 2641.535
244.3378, 2653.368
244.8199, 2682.567
245.3020, 2715.768
245.7841, 2748.133
246.2662, 2778.642
246.7484, 2804.343
247.2305, 2819.479
247.7126, 2829.229
248.1947, 2848.174
248.6768, 2877.909
249.1589, 2914.253
249.6411, 2958.539
250.1232, 3006.654
250.6053, 3051.438
251.0874, 3087.932
251.5695, 3118.354
252.0517, 3149.965
252.5338, 3185.321
253.0159, 3217.249
253.4980, 3238.302
253.9801, 3254.492
254.4622, 3276.991
254.9444, 3317.130
255.4265, 3367.116
255.9086, 3398.932
256.3907, 3405.322
256.8728, 3403.564
257.3549, 3393.080
257.8370, 3381.657
258.3192, 3383.630
258.8013, 3412.964
259.2834, 3459.854
259.7655, 3486.464
260.2476, 3476.838
260.7297, 3471.905
261.2119, 3484.252
261.6940, 3510.916
262.1761, 3548.986
262.6582, 3601.010
263.1403, 3661.277
263.6224, 3706.498
264.1046, 3730.788
264.5867, 3748.125
265.0688, 3759.824
265.5509, 3769.585
266.0330, 3784.046
266.5151, 3810.068
266.9973, 3840.681
267.4794, 3851.045
267.9615, 3832.316
268.4436, 3805.866
268.9258, 3777.651
269.4079, 3747.351
269.8900, 3714.213
270.3721, 3677.598
270.8542, 3638.330
271.3363, 3597.993
271.8185, 3549.100
272.3006, 3512.923
272.7827, 3501.793
273.2648, 3502.215
273.7469, 3498.186
274.2290, 3481.489
274.7112, 3457.309
275.1933, 3439.799
275.6754, 3432.842
276.1575, 3426.018
276.6396, 3415.970
277.1217, 3405.063
277.6039, 3396.267
278.0860, 3391.220
278.5681, 3387.528
279.0502, 3378.588
279.5323, 3358.645
280.0144, 3345.038
280.4966, 3347.571
280.9787, 3354.167
281.4608, 3353.377
281.9429, 3340.654
282.4250, 3320.338
282.9071, 3300.341
283.3893, 3280.287
283.8714, 3261.605
284.3535, 3238.992
284.8356, 3220.494
285.3177, 3215.311
285.7998, 3226.493
286.2820, 3244.035
286.7641, 3251.194
287.2462, 3244.764
287.7283, 3236.250
288.2104, 3223.340
288.6925, 3211.701
289.1747, 3205.107
289.6568, 3204.570
290.1389, 3209.048
290.6210, 3218.916
291.1031, 3237.448
291.5852, 3250.176
292.0674, 3250.285
292.5495, 3247.733
293.0316, 3247.857
293.5137, 3251.748
293.9958, 3257.871
294.4779, 3263.092
294.9601, 3265.550
295.4422, 3276.095
295.9243, 3311.042
296.4064, 3342.846
296.8885, 3357.586
297.3706, 3354.199
297.8528, 3340.455
298.3349, 3317.625
298.8170, 3282.626
299.2991, 3266.993
299.7812, 3294.073
300.2633, 3323.175
300.7455, 3335.907
301.2276, 3333.236
301.7097, 3326.303
302.1918, 3326.155
302.6739, 3332.978
303.1560, 3330.102
303.6382, 3305.134
304.1203, 3283.451
304.6024, 3278.067
305.0845, 3285.357
305.5666, 3294.115
306.0487, 3296.968
306.5309, 3294.522
307.0130, 3291.351
307.4951, 3287.387
307.9772, 3282.678
308.4593, 3276.702
308.9414, 3270.112
309.4236, 3263.856
309.9057, 3256.915
310.3878, 3251.197
310.8699, 3254.988
311.3520, 3275.801
311.8341, 3291.784
312.3163, 3289.156
312.7984, 3277.757
313.2805, 3271.420
313.7626, 3277.186
314.2447, 3289.947
314.7268, 3300.121
315.2090, 3307.693
315.6911, 3312.618
316.1732, 3309.814
316.6553, 3306.375
317.1374, 3312.216
317.6195, 3334.227
318.1017, 3356.998
318.5838, 3357.088
319.0659, 3330.810
319.5480, 3303.923
320.0301, 3280.027
320.5122, 3262.505
320.9944, 3257.183
321.4765, 3267.086
321.9586, 3279.204
322.4407, 3279.423
322.9228, 3267.756
323.4049, 3258.861
323.8871, 3258.980
324.3692, 3261.521
324.8513, 3257.022
325.3334, 3244.087
325.8155, 3238.859
326.2976, 3259.155
326.7798, 3299.654
327.2619, 3330.802
327.7440, 3345.291
328.2261, 3350.820
328.7082, 3353.119
329.1903, 3352.567
329.6725, 3355.224
330.1546, 3362.106
330.6367, 3374.427
331.1188, 3395.644
331.6009, 3426.975
332.0830, 3464.936
332.5652, 3511.789
333.0473, 3564.594
333.5294, 3609.721
334.0115, 3637.201
334.4936, 3657.092
334.9757, 3682.468
335.4579, 3714.237
335.9400, 3749.073
336.4221, 3785.037
336.9042, 3822.044
337.3863, 3858.929
337.8684, 3887.703
338.3506, 3922.182
338.8327, 3978.386
339.3148, 4054.379
339.7969, 4130.303
340.2791, 4195.842
340.7612, 4251.146
341.2433, 4300.683
341.7254, 4332.069
342.2075, 4371.518
342.6896, 4440.082
343.1718, 4528.258
343.6539, 4607.427
344.1360, 4663.436
344.6181, 4706.039
345.1002, 4761.545
345.5823, 4836.477
346.0645, 4908.646
346.5466, 4967.851
347.0287, 5022.038
347.5108, 5084.148
347.9929, 5158.278
348.4750, 5238.038
348.9572, 5312.646
349.4393, 5380.531
349.9214, 5447.544
350.4035, 5517.847
350.8856, 5584.785
351.3677, 5640.073
351.8499, 5683.154
352.3320, 5724.614
352.8141, 5777.241
353.2962, 5846.595
353.7783, 5898.974
354.2604, 5926.373
354.7426, 5946.191
355.2247, 5968.930
355.7068, 5993.125
356.1889, 6009.696
356.6710, 6010.282
357.1531, 5995.172
357.6353, 5987.729
358.1174, 5997.846
358.5995, 6004.494
359.0816, 5999.853
359.5637, 5988.248
360.0458, 5977.999
360.5280, 5973.870
361.0101, 5972.925
361.4922, 5964.262
361.9743, 5943.991
362.4564, 5920.625
362.9385, 5895.181
363.4207, 5867.165
363.9028, 5833.769
364.3849, 5794.460
364.8670, 5755.456
365.3491, 5728.804
365.8312, 5721.642
366.3134, 5707.844
366.7955, 5683.816
367.2776, 5654.423
367.7597, 5622.467
368.2418, 5588.069
368.7239, 5549.742
369.2061, 5500.717
369.6882, 5439.207
370.1703, 5395.781
370.6524, 5379.123
371.1345, 5373.736
371.6166, 5377.050
372.0988, 5385.815
372.5809, 5392.963
373.0630, 5394.651
373.5451, 5391.259
374.0272, 5381.073
374.5093, 5355.377
374.9915, 5342.345
375.4736, 5370.821
375.9557, 5415.785
376.4378, 5440.783
376.9199, 5427.042
377.4020, 5398.955
377.8842, 5389.909
378.3663, 5401.481
378.8484, 5406.657
379.3305, 5388.742
379.8126, 5362.620
380.2947, 5347.955
380.7769, 5347.519
381.2590, 5352.625
381.7411, 5358.273
382.2232, 5365.027
382.7053, 5374.631
383.1874, 5387.396
383.6696, 5403.503
384.1517, 5425.744
384.6338, 5454.205
385.1159, 5478.795
385.5980, 5491.640
386.0801, 5501.417
386.5623, 5519.800
387.0444, 5548.399
387.5265, 5579.232
388.0086, 5605.593
388.4907, 5627.248
388.9728, 5649.297
389.4550, 5661.095
389.9371, 5682.811
390.4192, 5734.695
390.9013, 5808.396
391.3834, 5875.863
391.8655, 5920.540
392.3477, 5947.119
392.8298, 5977.152
393.3119, 6011.666
393.7940, 6048.118
394.2761, 6085.722
394.7582, 6125.424
395.2404, 6165.525
395.7225, 6206.015
396.2046, 6252.951
396.6867, 6319.925
397.1688, 6429.777
397.6509, 6512.513
398.1331, 6543.362
398.6152, 6570.505
399.0973, 6626.148
399.5794, 6710.693
400.0615, 6804.330
400.5436, 6889.827
401.0258, 6966.925
401.5079, 7037.295
401.9900, 7093.506
402.4721, 7150.369
402.9542, 7213.501
403.4363, 7280.297
403.9185, 7346.235
404.4006, 7408.359
404.8827, 7468.739
405.3648, 7534.515
405.8469, 7610.938
406.3290, 7678.871
406.8112, 7728.233
407.2933, 7768.520
407.7754, 7803.111
408.2575, 7831.500
408.7396, 7867.983
409.2217, 7937.744
409.7039, 8037.264
410.1860, 8108.838
410.6681, 8117.377
411.1502, 8125.163
411.6324, 8198.224
412.1145, 8330.838
412.5966, 8458.590
413.0787, 8550.118
413.5608, 8621.314
414.0429, 8693.718
414.5251, 8768.423
415.0072, 8851.265
415.4893, 8945.513
415.9714, 9052.396
416.4535, 9173.104
416.9356, 9316.982
417.4178, 9465.137
417.8999, 9611.890
418.3820, 9754.113
418.8641, 9880.920
419.3462, 9982.808
419.8283, 10075.57
420.3105, 10201.51
420.7926, 10386.26
421.2747, 10561.81
421.7568, 10715.79
422.2389, 10859.34
422.7210, 11000.00
423.2032, 11140.54
423.6853, 11283.89
424.1674, 11434.56
424.6495, 11593.27
425.1316, 11755.15
425.6137, 11934.19
426.0959, 12102.56
426.5780, 12236.17
427.0601, 12349.74
427.5422, 12480.10
428.0243, 12655.03
428.5064, 12860.63
428.9886, 13038.55
429.4707, 13176.06
429.9528, 13306.78
430.4349, 13424.47
430.9170, 13547.34
431.3991, 13697.79
431.8813, 13882.86
432.3634, 14075.77
432.8455, 14241.07
433.3276, 14377.90
433.8097, 14518.75
434.2918, 14673.39
434.7740, 14827.60
435.2561, 14966.00
435.7382, 15092.06
436.2203, 15228.01
436.7024, 15402.47
437.1845, 15588.99
437.6667, 15731.60
438.1488, 15821.21
438.6309, 15914.73
439.1130, 16055.71
439.5951, 16226.62
440.0772, 16372.76
440.5594, 16474.12
441.0415, 16570.12
441.5236, 16679.88
442.0057, 16801.72
442.4878, 16931.25
442.9699, 17068.74
443.4521, 17210.83
443.9342, 17350.24
444.4163, 17475.33
444.8984, 17628.59
445.3805, 17834.42
445.8626, 18055.21
446.3448, 18256.09
446.8269, 18438.18
447.3090, 18629.22
447.7911, 18852.06
448.2732, 19107.63
448.7553, 19383.42
449.2375, 19685.71
449.7196, 20002.81
450.2017, 20328.03
450.6838, 20668.61
451.1659, 21032.17
451.6480, 21423.06
452.1302, 21836.71
452.6123, 22271.79
453.0944, 22734.87
453.5765, 23196.83
454.0586, 23635.67
454.5407, 24086.09
455.0229, 24575.43
455.5050, 25099.50
455.9871, 25638.10
456.4692, 26164.49
456.9513, 26687.93
457.4334, 27257.94
457.9156, 27896.36
458.3977, 28517.28
458.8798, 29044.10
459.3619, 29520.03
459.8440, 30025.73
460.3261, 30579.08
460.8083, 31159.31
461.2904, 31790.00
461.7725, 32444.39
462.2546, 33022.21
462.7367, 33478.64
463.2188, 33864.93
463.7010, 34257.38
464.1831, 34656.36
464.6652, 35069.25
465.1473, 35556.64
465.6294, 36015.96
466.1115, 36352.14
466.5937, 36564.19
467.0758, 36716.52
467.5579, 36858.11
468.0400, 36988.14
468.5221, 37096.18
469.0042, 37196.42
469.4864, 37257.27
469.9685, 37273.07
470.4506, 37245.86
470.9327, 37169.99
471.4148, 37044.31
471.8969, 36894.47
472.3791, 36768.63
472.8612, 36681.76
473.3433, 36551.09
473.8254, 36346.23
474.3075, 36112.29
474.7896, 35866.28
475.2718, 35610.30
475.7539, 35349.02
476.2360, 35092.71
476.7181, 34829.15
477.2002, 34527.00
477.6823, 34180.32
478.1645, 33824.56
478.6466, 33472.80
479.1287, 33123.29
479.6108, 32771.54
480.0929, 32419.98
480.5751, 32059.20
481.0572, 31697.88
481.5393, 31322.24
482.0214, 30899.63
482.5035, 30420.24
482.9857, 29910.20
483.4678, 29396.76
483.9499, 28881.09
484.4320, 28354.90
484.9141, 27815.10
485.3962, 27265.39
485.8784, 26695.97
486.3605, 26119.76
486.8426, 25567.00
487.3247, 25055.28
487.8068, 24572.13
488.2889, 24081.18
488.7711, 23582.69
489.2532, 23078.64
489.7353, 22558.28
490.2174, 22041.55
490.6995, 21552.23
491.1816, 21087.82
491.6638, 20628.10
492.1459, 20144.12
492.6280, 19643.47
493.1101, 19188.93
493.5922, 18794.01
494.0743, 18419.94
494.5565, 18054.23
495.0386, 17693.96
495.5207, 17330.09
496.0028, 16951.94
496.4849, 16588.73
496.9670, 16271.77
497.4492, 15989.89
497.9313, 15705.66
498.4134, 15404.09
498.8955, 15103.93
499.3776, 14828.58
499.8597, 14581.90
500.3419, 14346.54
500.8240, 14119.30
501.3061, 13904.72
501.7882, 13711.38
502.2703, 13534.30
502.7524, 13361.37
503.2346, 13185.71
503.7167, 13007.88
504.1988, 12835.73
504.6809, 12673.89
505.1630, 12510.71
505.6451, 12339.38
506.1273, 12170.41
506.6094, 12013.15
507.0915, 11868.43
507.5736, 11730.53
508.0557, 11593.28
508.5378, 11457.74
509.0200, 11332.68
509.5021, 11222.64
509.9842, 11115.06
510.4663, 11000.57
510.9484, 10884.72
511.4305, 10775.70
511.9127, 10675.72
512.3948, 10581.89
512.8769, 10489.83
513.3590, 10401.58
513.8411, 10325.53
514.3232, 10266.62
514.8054, 10209.44
515.2875, 10132.83
515.7696, 10032.16
516.2517, 9943.341
516.7338, 9865.336
517.2159, 9800.629
517.6981, 9760.903
518.1802, 9735.471
518.6623, 9700.338
519.1444, 9642.639
519.6265, 9568.473
520.1086, 9494.542
520.5908, 9422.646
521.0729, 9347.477
521.5550, 9274.760
522.0371, 9194.463
522.5192, 9098.526
523.0013, 8988.218
523.4835, 8870.617
523.9656, 8747.928
524.4477, 8622.414
524.9298, 8502.293
525.4119, 8386.134
525.8940, 8278.748
526.3762, 8186.200
526.8583, 8101.965
527.3404, 8018.891
527.8225, 7936.845
528.3046, 7854.359
528.7867, 7766.070
529.2689, 7677.980
529.7510, 7600.840
530.2331, 7536.505
530.7152, 7482.849
531.1973, 7439.223
531.6794, 7405.855
532.1616, 7373.002
532.6437, 7347.810
533.1258, 7315.088
533.6079, 7262.618
534.0900, 7202.535
534.5721, 7150.593
535.0543, 7112.274
535.5364, 7083.367
536.0185, 7059.450
536.5006, 7042.648
536.9827, 7020.233
537.4648, 6984.747
537.9470, 6951.433
538.4291, 6926.119
538.9112, 6907.962
539.3933, 6895.577
539.8754, 6892.492
540.3575, 6888.628
540.8397, 6865.600
541.3218, 6826.021
541.8039, 6800.803
542.2860, 6804.787
542.7681, 6817.646
543.2502, 6808.809
543.7324, 6776.321
544.2145, 6750.403
544.6966, 6737.700
545.1787, 6731.064
545.6608, 6727.493
546.1429, 6725.627
546.6251, 6723.207
547.1072, 6719.038
547.5893, 6713.188
548.0714, 6705.736
548.5535, 6697.075
549.0356, 6685.998
549.5178, 6671.917
549.9999, 6656.252
550.4820, 6638.093
550.9641, 6618.719
551.4462, 6601.882
551.9283, 6589.181
552.4105, 6581.464
552.8926, 6583.666
553.3747, 6598.527
553.8568, 6609.502
554.3389, 6609.421
554.8210, 6601.523
555.3032, 6590.747
555.7853, 6576.188
556.2674, 6562.676
556.7495, 6552.071
557.2316, 6543.482
557.7137, 6534.737
558.1959, 6526.142
558.6780, 6522.781
559.1601, 6530.105
559.6422, 6545.332
560.1243, 6549.054
560.6064, 6521.076
561.0886, 6506.713
561.5707, 6521.799
562.0528, 6544.903
562.5349, 6555.199
563.0170, 6550.404
563.4991, 6545.144
563.9813, 6557.017
564.4634, 6582.460
564.9455, 6589.487
565.4276, 6568.337
565.9097, 6552.085
566.3918, 6562.799
566.8740, 6585.236
567.3561, 6600.736
567.8382, 6606.427
568.3203, 6606.674
568.8024, 6596.041
569.2845, 6583.918
569.7667, 6591.590
570.2488, 6621.662
570.7309, 6648.683
571.2130, 6649.422
571.6951, 6625.600
572.1772, 6612.797
572.6594, 6621.219
573.1415, 6627.278
573.6236, 6624.468
574.1057, 6618.292
574.5878, 6612.667
575.0699, 6609.447
575.5521, 6612.269
576.0342, 6628.954
576.5163, 6658.451
576.9984, 6676.366
577.4805, 6680.141
577.9626, 6677.396
578.4448, 6662.893
578.9269, 6647.173
579.4090, 6646.987
579.8911, 6670.479
580.3732, 6693.925
580.8553, 6701.266
581.3375, 6699.295
581.8196, 6699.286
582.3017, 6703.293
582.7838, 6712.612
583.2659, 6731.726
583.7480, 6759.315
584.2302, 6763.492
584.7123, 6714.640
585.1944, 6680.378
585.6765, 6681.621
586.1587, 6698.707
586.6408, 6711.979
587.1229, 6716.663
587.6050, 6718.845
588.0872, 6726.743
588.5693, 6739.088
589.0514, 6739.595
589.5335, 6721.247
590.0156, 6707.299
590.4977, 6715.678
590.9799, 6733.111
591.4620, 6739.176
591.9441, 6725.862
592.4262, 6719.420
592.9083, 6747.290
593.3904, 6784.618
593.8726, 6790.008
