##NAMES=Stannite
##RRUFFID=R050187
##IDEAL CHEMISTRY=Cu^1+^_2_Fe^2+^Sn^4+^S^2-^_4_
##LOCALITY=Yaogangxian mine, Yizhang County, Hunan Province, China
##OWNER=RRUFF
##SOURCE=Marcus Origlieri and George Guanghua Liu
##DESCRIPTION=Bluish-black octahedron associated with fluorite and quartz. According to Kissin & Owens (1989), since 2a is significantly larger than c, this sample is stannite.
##STATUS=The identification of this mineral is confirmed by single-crystal X-ray diffraction and chemical analysis.
##URL=rruff.info/R050187
##MEASURED CHEMISTRY=Cu_2.00_(Fe_0.66_Zn_0.34_)Sn_1.00_S_4.00_
92.96582, 60.99190
93.44794, 61.20678
93.93005, 61.39626
94.41217, 60.72916
94.89429, 59.95546
95.37640, 59.38496
95.85852, 58.97616
96.34064, 58.57929
96.82275, 58.14063
97.30487, 57.66233
97.78699, 57.22384
98.26910, 56.73700
98.75122, 56.39507
99.23334, 56.48856
99.71545, 56.97585
100.1976, 57.09819
100.6797, 56.32247
101.1618, 55.10223
101.6439, 54.08862
102.1260, 53.45026
102.6081, 53.08329
103.0903, 52.81022
103.5724, 52.64809
104.0545, 52.53911
104.5366, 52.43138
105.0187, 52.33726
105.5008, 52.28649
105.9830, 52.33033
106.4651, 52.48020
106.9472, 52.51218
107.4293, 52.28870
107.9114, 52.04144
108.3935, 51.83735
108.8757, 51.68713
109.3578, 51.57525
109.8399, 51.15865
110.3220, 51.59198
110.8041, 51.84563
111.2862, 51.92925
111.7684, 51.33359
112.2505, 51.61509
112.7326, 51.54506
113.2147, 51.46061
113.6968, 51.86556
114.1789, 51.36870
114.6611, 51.76589
115.1432, 51.80619
115.6253, 52.00984
116.1074, 51.85978
116.5895, 51.81897
117.0716, 51.97335
117.5538, 52.08468
118.0359, 52.11314
118.5180, 52.12336
119.0001, 52.16872
119.4822, 52.25071
119.9643, 52.30983
120.4465, 52.29440
120.9286, 52.24453
121.4107, 52.19426
121.8928, 52.13567
122.3749, 52.09849
122.8570, 52.17479
123.3392, 52.50327
123.8213, 52.67134
124.3034, 52.43760
124.7855, 52.00614
125.2676, 51.64236
125.7497, 51.51531
126.2319, 51.61047
126.7140, 51.72092
127.1961, 51.94641
127.6782, 52.09263
128.1603, 52.08411
128.6424, 51.94928
129.1246, 51.76228
129.6067, 51.58410
130.0888, 51.40973
130.5709, 51.28286
131.0530, 51.23047
131.5351, 51.19246
132.0173, 51.13783
132.4994, 51.06108
132.9815, 50.97329
133.4636, 50.89235
133.9457, 50.83130
134.4278, 50.72119
134.9100, 50.46451
135.3921, 50.18999
135.8742, 50.09447
136.3563, 50.26643
136.8384, 50.49287
137.3205, 50.39687
137.8027, 49.96369
138.2848, 49.59037
138.7669, 49.50533
139.2490, 49.63534
139.7311, 49.68690
140.2132, 49.54156
140.6954, 49.31202
141.1775, 49.11427
141.6596, 48.95231
142.1417, 48.82240
142.6238, 48.74143
143.1059, 48.72241
143.5881, 48.66362
144.0702, 48.50135
144.5523, 48.30987
145.0344, 48.12612
145.5165, 47.96097
145.9986, 47.82172
146.4807, 47.73735
146.9629, 47.78796
147.4450, 47.73696
147.9271, 47.46894
148.4092, 47.13262
148.8913, 46.87573
149.3734, 46.76941
149.8556, 46.77842
150.3377, 46.76262
150.8198, 46.70070
151.3019, 46.63264
151.7840, 46.57473
152.2661, 46.51172
152.7483, 46.42162
153.2304, 46.29110
153.7125, 46.11979
154.1946, 45.91200
154.6767, 45.57189
155.1588, 45.29646
155.6410, 45.20733
156.1231, 45.26606
156.6052, 45.32041
157.0873, 45.24519
157.5694, 45.05217
158.0515, 44.95315
158.5337, 45.01960
159.0158, 45.12852
159.4979, 45.21112
159.9800, 45.26469
160.4621, 45.24075
160.9442, 45.00245
161.4264, 44.63938
161.9085, 44.43337
162.3906, 44.53279
162.8727, 44.80666
163.3548, 45.06965
163.8369, 45.35114
164.3191, 45.52565
164.8012, 45.43137
165.2833, 45.16967
165.7654, 44.95775
166.2475, 44.93703
166.7296, 44.41542
167.2118, 45.26590
167.6939, 45.75700
168.1760, 45.90804
168.6581, 44.70050
169.1402, 45.24728
169.6223, 45.09101
170.1045, 44.90592
170.5866, 45.69962
171.0687, 44.68968
171.5508, 45.46785
172.0329, 45.53224
172.5150, 45.92331
172.9972, 45.60700
173.4793, 45.50917
173.9614, 46.11896
174.4435, 46.33693
174.9256, 45.93917
175.4077, 46.35101
175.8899, 45.58070
176.3720, 45.64606
176.8541, 45.80464
177.3362, 46.00573
177.8183, 46.18748
178.3004, 46.37006
178.7826, 46.47057
179.2647, 46.39034
179.7468, 46.29138
180.2289, 46.32825
180.7110, 46.53598
181.1931, 46.80580
181.6752, 46.97741
182.1574, 47.03932
182.6395, 47.03125
183.1216, 46.84533
183.6037, 46.62471
184.0858, 46.59926
184.5679, 46.86711
185.0501, 47.22864
185.5322, 47.33335
186.0143, 47.17211
186.4964, 47.01040
186.9785, 46.92203
187.4606, 46.90065
187.9428, 46.93199
188.4249, 47.01835
188.9070, 47.15237
189.3891, 47.33036
189.8712, 47.55550
190.3533, 47.77183
190.8355, 47.97170
191.3176, 48.14739
191.7997, 48.21511
192.2818, 48.04051
192.7639, 47.85084
193.2460, 47.85548
193.7282, 48.06909
194.2103, 48.31964
194.6924, 48.43021
195.1745, 48.38146
195.6566, 48.39033
196.1387, 48.58153
196.6209, 48.79313
197.1030, 48.94657
197.5851, 49.02732
198.0672, 49.05059
198.5493, 49.00726
199.0314, 48.84332
199.5136, 48.79303
199.9957, 48.99279
200.4778, 49.22993
200.9599, 49.36034
201.4420, 49.35404
201.9241, 49.29704
202.4063, 49.33486
202.8884, 49.55672
203.3705, 49.69863
203.8526, 49.71784
204.3347, 49.68859
204.8168, 49.66192
205.2990, 49.65445
205.7811, 49.65509
206.2632, 49.64275
206.7453, 49.59793
207.2274, 49.56746
207.7095, 49.54067
208.1917, 49.53138
208.6738, 49.55607
209.1559, 49.61964
209.6380, 49.70918
210.1201, 49.80077
210.6022, 49.92565
211.0844, 50.00217
211.5665, 49.95272
212.0486, 49.87892
212.5307, 49.92957
213.0128, 50.16407
213.4949, 50.46360
213.9771, 50.56833
214.4592, 50.38439
214.9413, 50.23387
215.4234, 50.15290
215.9055, 50.14431
216.3876, 50.23006
216.8698, 50.43375
217.3519, 50.69004
217.8340, 50.88918
218.3161, 51.05010
218.7982, 51.12868
219.2803, 51.00164
219.7625, 50.78199
220.2446, 50.76184
220.7267, 51.10650
221.2088, 51.55132
221.6909, 51.67857
222.1730, 51.45952
222.6552, 51.24670
223.1373, 51.19107
223.6194, 51.27614
224.1015, 51.46338
224.5836, 51.81151
225.0657, 52.17010
225.5479, 52.38331
226.0300, 52.45148
226.5121, 52.43850
226.9942, 52.30669
227.4763, 52.09001
227.9584, 52.03357
228.4406, 52.27433
228.9227, 52.61304
229.4048, 52.90507
229.8869, 53.14593
230.3690, 53.33567
230.8511, 53.44665
231.3333, 53.48156
231.8154, 53.55825
232.2975, 53.69395
232.7796, 53.88012
233.2617, 54.15519
233.7438, 54.49787
234.2260, 54.79372
234.7081, 54.89919
235.1902, 54.79527
235.6723, 54.78914
236.1544, 55.02122
236.6365, 55.25726
237.1187, 55.37094
237.6008, 55.37897
238.0829, 55.38655
238.5650, 55.48577
239.0471, 55.68138
239.5292, 55.93232
240.0114, 56.30662
240.4935, 56.68122
240.9756, 57.01515
241.4577, 57.30835
241.9398, 57.57796
242.4219, 57.83885
242.9041, 58.08814
243.3862, 58.34406
243.8683, 58.61948
244.3504, 58.89016
244.8325, 59.14009
245.3146, 59.37481
245.7968, 59.60910
246.2789, 59.84535
246.7610, 60.07434
247.2431, 60.40812
247.7252, 60.92556
248.2073, 61.46538
248.6895, 61.96803
249.1716, 62.44106
249.6537, 62.91326
250.1358, 63.40772
250.6179, 63.92527
251.1000, 64.46741
251.5822, 65.09533
252.0643, 65.68622
252.5464, 66.08258
253.0285, 66.38876
253.5106, 66.87426
253.9927, 67.76881
254.4748, 69.06543
254.9570, 70.21825
255.4391, 71.04382
255.9212, 71.94267
256.4033, 73.03234
256.8854, 74.30659
257.3676, 75.73366
257.8497, 77.29873
258.3318, 78.99683
258.8139, 80.81770
259.2960, 82.75499
259.7781, 84.78588
260.2603, 86.89849
260.7424, 89.10387
261.2245, 91.46053
261.7066, 94.01186
262.1887, 96.71507
262.6708, 99.31605
263.1530, 101.8227
263.6351, 104.2629
264.1172, 106.6905
264.5993, 109.0627
265.0814, 111.3098
265.5635, 113.3924
266.0457, 115.3328
266.5278, 117.1677
267.0099, 118.8244
267.4920, 120.5250
267.9741, 122.2956
268.4562, 124.1598
268.9384, 126.1887
269.4204, 128.4322
269.9026, 130.7921
270.3847, 133.0684
270.8668, 135.2624
271.3489, 137.3928
271.8310, 139.3334
272.3131, 141.2115
272.7953, 143.3260
273.2774, 145.8132
273.7595, 148.4393
274.2416, 150.8221
274.7237, 152.9384
275.2058, 155.1005
275.6880, 157.3884
276.1701, 159.7985
276.6522, 162.3519
277.1343, 165.1251
277.6164, 167.8882
278.0985, 170.4105
278.5807, 172.7174
279.0628, 174.7634
279.5449, 176.5640
280.0270, 178.0837
280.5091, 179.3574
280.9912, 180.4429
281.4734, 181.0307
281.9555, 180.6895
282.4376, 179.5645
282.9197, 177.9712
283.4018, 175.9808
283.8839, 173.5662
284.3661, 170.6147
284.8482, 167.0799
285.3303, 163.2867
285.8124, 159.1909
286.2945, 155.0269
286.7766, 151.4301
287.2588, 148.7111
287.7409, 146.5361
288.2230, 144.4924
288.7051, 142.5534
289.1872, 141.1224
289.6693, 140.6232
290.1515, 140.7850
290.6336, 141.1311
291.1157, 141.5521
291.5978, 142.1915
292.0799, 143.0676
292.5620, 144.1772
293.0442, 145.9073
293.5263, 148.3834
294.0084, 151.6895
294.4905, 155.7977
294.9726, 160.7011
295.4547, 166.4689
295.9369, 173.0000
296.4190, 180.3298
296.9011, 188.9901
297.3832, 199.3369
297.8653, 210.9976
298.3474, 223.3869
298.8296, 236.4799
299.3117, 250.2372
299.7938, 265.0347
300.2759, 280.6198
300.7580, 295.4970
301.2401, 309.3576
301.7223, 322.3757
302.2044, 334.9164
302.6865, 346.9937
303.1686, 358.1350
303.6507, 367.8314
304.1328, 376.4227
304.6150, 384.8835
305.0971, 393.2603
305.5792, 401.5822
306.0613, 409.7513
306.5434, 417.8614
307.0255, 426.0832
307.5077, 434.4604
307.9898, 443.0098
308.4719, 451.7521
308.9540, 460.6516
309.4361, 469.8177
309.9182, 479.3104
310.4004, 489.0630
310.8825, 499.1036
311.3646, 509.3874
311.8467, 520.0290
312.3288, 531.1602
312.8109, 542.8861
313.2931, 554.5884
313.7752, 565.7261
314.2573, 576.7509
314.7394, 588.2629
315.2215, 600.5166
315.7036, 612.7314
316.1858, 624.6703
316.6679, 636.3026
317.1500, 645.8333
317.6321, 653.6830
318.1142, 657.9368
318.5963, 657.4777
319.0785, 652.2333
319.5606, 642.1862
320.0427, 627.1611
320.5248, 607.2137
321.0069, 582.7880
321.4890, 552.9141
321.9712, 519.6464
322.4533, 484.3211
322.9354, 447.0873
323.4175, 410.3055
323.8996, 374.2457
324.3817, 339.3375
324.8639, 307.0158
325.3460, 277.4221
325.8281, 250.2095
326.3102, 225.3072
326.7923, 202.6488
327.2744, 182.4345
327.7566, 165.1728
328.2387, 150.2813
328.7208, 137.0421
329.2029, 125.5192
329.6850, 115.5029
330.1671, 107.2442
330.6493, 100.3763
331.1314, 94.39059
331.6135, 89.25303
332.0956, 84.94836
332.5777, 81.63250
333.0598, 79.28572
333.5420, 77.26944
334.0241, 75.45584
334.5062, 73.81335
334.9883, 72.22755
335.4704, 70.67194
335.9525, 69.30989
336.4347, 68.32396
336.9168, 67.64079
337.3989, 66.99665
337.8810, 66.32014
338.3631, 65.68903
338.8452, 65.23022
339.3274, 64.92585
339.8094, 64.52641
340.2916, 63.81500
340.7737, 62.97985
341.2558, 62.38052
341.7379, 62.09704
342.2200, 61.85107
342.7021, 61.38782
343.1843, 60.77338
343.6664, 60.20865
344.1485, 59.79509
344.6306, 59.40303
345.1127, 58.87127
345.5948, 58.20317
346.0770, 57.58088
346.5591, 57.12720
347.0412, 56.78381
347.5233, 56.38245
348.0054, 55.86849
348.4875, 55.37823
348.9697, 54.99088
349.4518, 54.69300
349.9339, 54.44758
350.4160, 54.24794
350.8981, 54.08481
351.3802, 53.96556
351.8624, 53.91756
352.3445, 53.78042
352.8266, 53.40271
353.3087, 52.93584
353.7908, 52.64474
354.2729, 52.59753
354.7551, 52.58230
355.2372, 52.37626
355.7193, 51.97299
356.2014, 51.51057
356.6835, 50.96582
357.1656, 50.39296
357.6478, 49.85843
358.1299, 49.35352
358.6120, 48.75975
359.0941, 47.95286
359.5762, 46.98706
360.0583, 46.21094
360.5405, 44.20271
361.0226, 43.53247
361.5047, 43.25450
361.9868, 42.79684
362.4689, 42.16910
362.9510, 40.86212
363.4332, 40.43213
363.9153, 39.65073
364.3974, 38.85497
364.8795, 38.54860
365.3616, 37.34037
365.8438, 37.02606
366.3259, 36.58709
366.8080, 36.47579
367.2901, 36.40673
367.7722, 36.12774
368.2543, 35.56044
368.7365, 35.11738
369.2186, 34.82751
369.7007, 34.62733
370.1828, 34.53711
370.6649, 34.51486
371.1470, 34.44114
371.6292, 34.22001
372.1113, 33.86801
372.5934, 33.58778
373.0755, 33.42492
373.5576, 33.27699
374.0397, 33.15781
374.5219, 33.03192
375.0040, 32.83192
375.4861, 32.52814
375.9682, 32.19384
376.4503, 31.99015
376.9324, 32.02754
377.4146, 32.02721
377.8967, 31.94406
378.3788, 31.85605
378.8609, 31.86741
379.3430, 31.96325
379.8251, 31.98562
380.3073, 31.71189
380.7894, 31.05116
381.2715, 30.74705
381.7536, 31.21629
382.2357, 31.62652
382.7178, 31.65414
383.2000, 31.41564
383.6821, 31.17938
384.1642, 31.11112
384.6463, 31.16625
385.1284, 31.16313
385.6105, 31.03056
386.0927, 30.96017
386.5748, 31.05986
387.0569, 31.19059
387.5390, 31.21152
388.0211, 31.08342
388.5032, 30.89328
388.9854, 30.75044
389.4675, 30.65817
389.9496, 30.59735
390.4317, 30.60349
390.9138, 30.61163
391.3959, 30.58130
391.8781, 30.52079
392.3602, 30.46961
392.8423, 30.46306
393.3244, 30.49090
393.8065, 30.50320
394.2886, 30.49588
394.7708, 30.48030
395.2529, 30.49405
395.7350, 30.49508
396.2171, 30.41243
396.6992, 30.19946
397.1813, 29.94600
397.6635, 29.73413
398.1456, 29.56098
398.6277, 29.51246
399.1098, 29.74373
399.5919, 30.00146
400.0740, 29.98486
400.5562, 29.67345
401.0383, 29.37492
401.5204, 29.30494
402.0025, 29.37453
402.4846, 29.33978
402.9667, 29.13846
403.4489, 28.93593
403.9310, 28.91513
404.4131, 29.02228
404.8952, 29.06648
405.3773, 28.99390
405.8594, 28.85980
406.3416, 28.67919
406.8237, 28.46458
407.3058, 28.30177
407.7879, 28.24588
408.2700, 28.26001
408.7521, 28.25235
409.2343, 28.23308
409.7164, 28.17717
410.1985, 28.05249
410.6806, 27.89465
411.1627, 27.74623
411.6448, 27.61698
412.1269, 27.52278
412.6090, 27.49441
413.0912, 27.55523
413.5733, 27.54918
414.0554, 27.38820
414.5375, 27.24126
415.0196, 27.24775
415.5017, 27.36090
415.9839, 27.41572
416.4660, 27.30076
416.9481, 27.05917
417.4302, 26.89775
417.9123, 26.88565
418.3944, 26.87189
418.8766, 26.84285
419.3587, 26.80684
419.8408, 26.78904
420.3229, 26.78964
420.8050, 26.75986
421.2871, 26.61493
421.7693, 26.28833
422.2514, 26.09594
422.7335, 26.14438
423.2156, 26.21488
423.6977, 26.23916
424.1798, 26.21243
424.6620, 26.14531
425.1441, 26.04079
425.6262, 25.90677
426.1083, 25.76310
426.5904, 25.56111
427.0725, 25.44723
427.5547, 25.51134
428.0368, 25.63390
428.5189, 25.71498
429.0010, 25.73111
429.4831, 25.71330
429.9652, 25.69595
430.4474, 25.67900
430.9295, 25.62771
431.4116, 25.49768
431.8937, 25.38682
432.3758, 25.37125
432.8579, 25.42203
433.3401, 25.45861
433.8222, 25.44371
434.3043, 25.39497
434.7864, 25.32999
435.2685, 25.24483
435.7506, 25.18315
436.2328, 25.18760
436.7149, 25.21248
437.1970, 25.18706
437.6791, 25.10294
438.1612, 24.99153
438.6433, 24.82588
439.1255, 24.65094
439.6076, 24.58719
440.0897, 24.67517
440.5718, 24.76789
441.0539, 24.68242
441.5360, 24.42042
442.0182, 24.29813
442.5003, 24.46326
442.9824, 24.65504
443.4645, 24.69665
443.9466, 24.62103
444.4287, 24.54977
444.9109, 24.54486
445.3930, 24.58231
445.8751, 24.59870
446.3572, 24.61194
446.8393, 24.57421
447.3214, 24.41253
447.8036, 24.24363
448.2857, 24.19088
448.7678, 24.25649
449.2499, 24.33088
449.7320, 24.30270
450.2141, 24.16606
450.6963, 24.04754
451.1784, 23.93069
451.6605, 23.85046
452.1426, 23.82607
452.6247, 23.84085
453.1068, 23.88621
453.5890, 23.95919
454.0711, 24.02278
454.5532, 23.99178
455.0353, 23.82198
455.5174, 23.71249
455.9995, 23.76013
456.4817, 23.81580
456.9638, 23.81070
457.4459, 23.74475
457.9280, 23.64315
458.4101, 23.46813
458.8922, 23.27952
459.3744, 23.31508
459.8565, 23.67264
460.3386, 23.93659
460.8207, 23.80230
461.3028, 23.50836
461.7849, 23.32360
462.2671, 23.29803
462.7492, 23.34063
463.2313, 23.42938
463.7134, 23.53733
464.1955, 23.57294
464.6776, 23.50438
465.1598, 23.40449
465.6419, 23.35126
466.1240, 23.33859
466.6061, 23.29509
467.0882, 23.14720
467.5703, 23.02251
468.0525, 23.03787
468.5346, 23.15772
469.0167, 23.26493
469.4988, 23.30823
469.9809, 23.29179
470.4630, 23.21802
470.9452, 22.99834
471.4273, 22.88238
471.9094, 22.99397
472.3915, 23.13188
472.8736, 23.11503
473.3557, 22.94807
473.8379, 22.76768
474.3200, 22.68982
474.8021, 22.70710
475.2842, 22.70833
475.7663, 22.67546
476.2484, 22.64823
476.7306, 22.62874
477.2127, 22.61996
477.6948, 22.63272
478.1769, 22.66792
478.6590, 22.69987
479.1411, 22.69468
479.6233, 22.64993
480.1054, 22.59381
480.5875, 22.50743
481.0696, 22.43478
481.5517, 22.38904
482.0338, 22.37213
482.5159, 22.39114
482.9980, 22.46685
483.4802, 22.55511
483.9623, 22.59294
484.4444, 22.58029
484.9265, 22.55001
485.4086, 22.49911
485.8907, 22.44990
486.3729, 22.43629
486.8550, 22.45978
487.3371, 22.47267
487.8192, 22.47450
488.3013, 22.44860
488.7834, 22.33523
489.2656, 22.14381
489.7477, 22.03098
490.2298, 22.12484
490.7119, 22.36664
491.1940, 22.45973
491.6761, 22.29300
492.1583, 22.15546
492.6404, 22.11105
493.1225, 22.11665
493.6046, 22.13339
494.0867, 22.14959
494.5688, 22.16127
495.0510, 22.16217
495.5331, 22.15034
496.0152, 22.15345
496.4973, 22.21354
496.9794, 22.24174
497.4615, 22.17779
497.9437, 22.08307
498.4258, 22.04723
498.9079, 22.10393
499.3900, 22.19299
499.8721, 22.22183
500.3542, 22.18121
500.8364, 22.15064
501.3185, 22.13468
501.8006, 22.13468
502.2827, 22.18234
502.7648, 22.24667
503.2469, 22.24573
503.7291, 22.11238
504.2112, 21.92808
504.6933, 21.78732
505.1754, 21.69081
505.6575, 21.67007
506.1396, 21.77916
506.6218, 21.91932
507.1039, 21.92733
507.5860, 21.79251
508.0681, 21.69745
508.5502, 21.73129
509.0323, 21.80069
509.5145, 21.81276
509.9966, 21.76648
510.4787, 21.69975
510.9608, 21.62947
511.4429, 21.56500
511.9250, 21.54626
512.4072, 21.62006
512.8893, 21.67744
513.3714, 21.70074
513.8535, 21.71212
514.3356, 21.73367
514.8177, 21.76554
515.2999, 21.79034
515.7820, 21.79194
516.2641, 21.77147
516.7462, 21.74230
517.2283, 21.69496
517.7104, 21.65344
518.1926, 21.64138
518.6747, 21.62786
519.1568, 21.57037
519.6389, 21.46050
520.1210, 21.35556
520.6031, 21.30481
521.0853, 21.30615
521.5674, 21.35447
522.0495, 21.46906
522.5316, 21.58413
523.0137, 21.66652
523.4958, 21.71614
523.9780, 21.72140
524.4601, 21.64796
524.9422, 21.58251
525.4243, 21.60278
525.9064, 21.67191
526.3885, 21.69694
526.8707, 21.65107
527.3528, 21.59041
527.8349, 21.58321
528.3170, 21.63964
528.7991, 21.65143
529.2813, 21.57985
529.7634, 21.50884
530.2455, 21.44220
530.7276, 21.40752
531.2097, 21.47274
531.6918, 21.66040
532.1740, 21.86904
532.6561, 21.91450
533.1382, 21.71899
533.6203, 21.62634
534.1024, 21.72785
534.5845, 21.84778
535.0667, 21.94658
535.5488, 22.01345
536.0309, 22.03502
536.5130, 21.99793
536.9951, 21.93431
537.4772, 21.88818
537.9594, 21.85962
538.4415, 21.83602
538.9236, 21.78653
539.4057, 21.78115
539.8878, 21.93458
540.3699, 22.20961
540.8521, 22.39356
541.3342, 22.37003
541.8163, 22.27801
542.2984, 22.20672
542.7805, 22.16564
543.2626, 22.19100
543.7448, 22.30738
544.2269, 22.45835
544.7090, 22.54693
545.1911, 22.54792
545.6732, 22.54737
546.1553, 22.50528
546.6375, 22.49847
547.1196, 22.61923
547.6017, 22.80865
548.0838, 22.92530
548.5659, 22.89102
549.0480, 22.76302
549.5302, 22.65921
550.0123, 22.56438
550.4944, 22.54008
550.9765, 22.68280
551.4586, 22.82226
551.9407, 22.86750
552.4229, 22.83586
552.9050, 22.79221
553.3871, 22.75647
553.8692, 22.74119
554.3513, 22.81083
554.8334, 22.96121
555.3156, 22.96079
555.7977, 22.65211
556.2798, 22.27544
556.7619, 22.18895
557.2440, 22.38375
557.7261, 22.54025
558.2083, 22.58703
558.6904, 22.58319
559.1725, 22.54615
559.6546, 22.49602
560.1367, 22.48144
560.6188, 22.52626
561.1010, 22.61230
561.5831, 22.70659
562.0652, 22.84127
562.5473, 22.90921
563.0294, 22.90039
563.5115, 22.84547
563.9937, 22.71444
564.4758, 22.55335
564.9579, 22.45570
565.4400, 22.47637
565.9221, 22.55756
566.4042, 22.58653
566.8864, 22.55235
567.3685, 22.55837
567.8506, 22.65445
568.3327, 22.75788
568.8148, 22.80833
569.2969, 22.81380
569.7791, 22.80383
570.2612, 22.76805
570.7433, 22.73848
571.2254, 22.74190
571.7075, 22.77570
572.1896, 22.75718
572.6718, 22.37973
573.1539, 22.82215
573.6360, 23.08489
574.1181, 23.17760
574.6002, 22.59101
575.0823, 22.88159
575.5645, 22.82065
576.0466, 22.74528
576.5287, 23.15931
577.0108, 22.67153
577.4929, 23.07780
577.9750, 23.12717
578.4572, 22.94022
578.9393, 22.85866
579.4214, 22.83790
579.9035, 22.90283
580.3856, 23.00281
580.8677, 23.14202
581.3499, 23.29021
581.8320, 23.39816
582.3141, 23.44852
582.7962, 23.46518
583.2783, 23.44509
583.7604, 23.40692
584.2426, 23.41469
584.7247, 23.48311
