##NAMES=Starkeyite
##RRUFFID=R070589
##IDEAL CHEMISTRY=MgS^6+^O_4_&#183;4H_2_O
##LOCALITY=Basque Lake, near Ashcroft, British Columbia, Canada
##OWNER=RRUFF
##SOURCE=James Shigley
##DESCRIPTION=Fine white powder
##STATUS=The identification of this mineral has been confirmed by X-ray diffraction.
##URL=rruff.info/R070589
93.23199, 1363.238
93.71411, 1407.388
94.19623, 1450.078
94.67834, 1492.324
95.16046, 1536.886
95.64258, 1587.736
96.12469, 1649.062
96.60681, 1706.809
97.08893, 1753.623
97.57104, 1800.926
98.05316, 1860.427
98.53528, 1936.333
99.01740, 2020.707
99.49951, 2094.472
99.98163, 2154.182
100.4637, 2211.143
100.9459, 2270.757
101.4280, 2330.642
101.9101, 2382.558
102.3922, 2417.823
102.8743, 2378.600
103.3564, 2352.134
103.8386, 2344.004
104.3207, 2341.918
104.8028, 2332.375
105.2849, 2312.834
105.7670, 2300.393
106.2491, 2321.272
106.7313, 2354.598
107.2134, 2367.491
107.6955, 2336.120
108.1776, 2270.904
108.6597, 2214.301
109.1419, 2167.691
109.6240, 2128.188
110.1061, 2093.261
110.5882, 2063.060
111.0703, 2038.407
111.5524, 2020.134
112.0346, 2008.068
112.5167, 2002.177
112.9988, 2006.914
113.4809, 2013.678
113.9630, 2019.351
114.4451, 2022.593
114.9273, 2022.035
115.4094, 2014.732
115.8915, 1994.704
116.3736, 1974.905
116.8557, 1955.145
117.3378, 1936.089
117.8200, 1918.160
118.3021, 1901.517
118.7842, 1886.402
119.2663, 1875.103
119.7484, 1872.949
120.2305, 1868.342
120.7127, 1853.311
121.1948, 1830.886
121.6769, 1812.647
122.1590, 1808.113
122.6411, 1818.216
123.1232, 1826.480
123.6054, 1837.721
124.0875, 1844.557
124.5696, 1836.107
125.0517, 1808.729
125.5338, 1780.476
126.0159, 1775.654
126.4981, 1788.831
126.9802, 1795.307
127.4623, 1776.909
127.9444, 1743.335
128.4265, 1726.134
128.9086, 1739.790
129.3907, 1761.782
129.8729, 1772.662
130.3550, 1772.102
130.8371, 1767.929
131.3192, 1767.943
131.8013, 1773.422
132.2834, 1773.480
132.7656, 1757.840
133.2477, 1740.388
133.7298, 1730.657
134.2119, 1731.598
134.6940, 1737.497
135.1761, 1737.190
135.6583, 1725.956
136.1404, 1716.426
136.6225, 1709.197
137.1046, 1704.978
137.5867, 1705.699
138.0689, 1713.005
138.5510, 1725.109
139.0331, 1730.137
139.5152, 1722.891
139.9973, 1713.295
140.4794, 1702.750
140.9616, 1691.285
141.4437, 1677.855
141.9258, 1660.639
142.4079, 1638.494
142.8900, 1627.296
143.3721, 1638.746
143.8543, 1649.363
144.3364, 1643.817
144.8185, 1621.971
145.3006, 1596.706
145.7827, 1581.793
146.2648, 1580.453
146.7470, 1579.570
147.2291, 1578.361
147.7112, 1577.575
148.1933, 1578.745
148.6754, 1582.684
149.1575, 1586.690
149.6397, 1584.767
150.1218, 1575.851
150.6039, 1570.847
151.0860, 1581.088
151.5681, 1599.533
152.0502, 1602.139
152.5324, 1570.067
153.0145, 1530.693
153.4966, 1524.552
153.9787, 1560.798
154.4608, 1599.691
154.9429, 1606.772
155.4251, 1580.571
155.9072, 1555.645
156.3893, 1545.699
156.8714, 1543.180
157.3535, 1542.412
157.8356, 1542.584
158.3178, 1542.928
158.7999, 1540.970
159.2820, 1533.348
159.7641, 1531.969
160.2462, 1549.432
160.7283, 1571.953
161.2105, 1582.857
161.6926, 1571.594
162.1747, 1544.198
162.6568, 1526.353
163.1389, 1522.753
163.6210, 1524.509
164.1032, 1529.807
164.5853, 1538.305
165.0674, 1550.856
165.5495, 1570.122
166.0316, 1596.935
166.5137, 1607.600
166.9959, 1588.173
167.4780, 1565.625
167.9601, 1543.811
168.4422, 1525.827
168.9243, 1516.421
169.4064, 1522.061
169.8886, 1549.212
170.3707, 1566.170
170.8528, 1568.781
171.3349, 1566.485
171.8170, 1564.293
172.2991, 1563.230
172.7813, 1561.775
173.2634, 1557.407
173.7455, 1545.471
174.2276, 1541.426
174.7097, 1551.978
175.1918, 1567.245
175.6740, 1577.273
176.1561, 1578.958
176.6382, 1576.579
177.1203, 1578.466
177.6024, 1588.085
178.0845, 1593.392
178.5667, 1587.378
179.0488, 1575.935
179.5309, 1570.161
180.0130, 1575.127
180.4951, 1586.344
180.9772, 1594.311
181.4594, 1599.350
181.9415, 1601.626
182.4236, 1598.145
182.9057, 1590.756
183.3878, 1588.276
183.8699, 1596.800
184.3521, 1611.418
184.8342, 1621.466
185.3163, 1624.220
185.7984, 1626.189
186.2805, 1634.636
186.7626, 1649.912
187.2448, 1660.935
187.7269, 1657.737
188.2090, 1648.372
188.6911, 1643.228
189.1732, 1646.349
189.6553, 1652.525
190.1375, 1652.497
190.6196, 1642.303
191.1017, 1639.292
191.5838, 1660.581
192.0659, 1691.257
192.5480, 1713.127
193.0302, 1715.052
193.5123, 1705.048
193.9944, 1704.650
194.4765, 1721.221
194.9586, 1734.517
195.4408, 1731.300
195.9229, 1720.537
196.4050, 1717.276
196.8871, 1734.559
197.3692, 1767.609
197.8513, 1784.044
198.3335, 1766.860
198.8156, 1751.207
199.2977, 1749.504
199.7798, 1758.135
200.2619, 1768.535
200.7440, 1773.349
201.2262, 1772.265
201.7083, 1777.272
202.1904, 1797.990
202.6725, 1816.527
203.1546, 1827.649
203.6367, 1831.605
204.1189, 1830.907
204.6010, 1827.105
205.0831, 1819.011
205.5652, 1814.514
206.0473, 1813.169
206.5294, 1815.268
207.0116, 1825.607
207.4937, 1841.628
207.9758, 1853.271
208.4579, 1847.390
208.9400, 1813.121
209.4221, 1796.223
209.9043, 1808.259
210.3864, 1825.535
210.8685, 1833.949
211.3506, 1831.335
211.8327, 1823.475
212.3148, 1817.205
212.7970, 1810.148
213.2791, 1811.964
213.7612, 1833.683
214.2433, 1856.956
214.7254, 1865.225
215.2075, 1855.086
215.6897, 1837.606
216.1718, 1829.237
216.6539, 1835.720
217.1360, 1841.404
217.6181, 1845.286
218.1002, 1848.598
218.5824, 1853.309
219.0645, 1860.059
219.5466, 1866.434
220.0287, 1867.869
220.5108, 1862.168
220.9929, 1856.747
221.4751, 1848.205
221.9572, 1841.677
222.4393, 1848.040
222.9214, 1873.186
223.4035, 1902.733
223.8856, 1903.875
224.3678, 1863.479
224.8499, 1835.950
225.3320, 1841.266
225.8141, 1867.840
226.2962, 1895.176
226.7783, 1917.389
227.2605, 1935.131
227.7426, 1949.774
228.2247, 1961.899
228.7068, 1970.851
229.1889, 1975.023
229.6710, 1975.681
230.1532, 1975.460
230.6353, 1974.068
231.1174, 1974.025
231.5995, 1980.394
232.0816, 1995.415
232.5637, 2009.485
233.0459, 2015.061
233.5280, 2014.793
234.0101, 2019.360
234.4922, 2033.790
234.9743, 2054.293
235.4564, 2075.297
235.9386, 2098.876
236.4207, 2117.279
236.9028, 2119.613
237.3849, 2109.080
237.8670, 2108.929
238.3491, 2135.601
238.8313, 2170.645
239.3134, 2187.291
239.7955, 2180.664
240.2776, 2167.644
240.7597, 2158.576
241.2418, 2153.421
241.7240, 2152.498
242.2061, 2159.303
242.6882, 2168.256
243.1703, 2173.336
243.6524, 2174.252
244.1345, 2170.685
244.6167, 2160.437
245.0988, 2143.442
245.5809, 2127.703
246.0630, 2117.380
246.5451, 2108.709
247.0272, 2098.459
247.5094, 2086.623
247.9915, 2071.762
248.4736, 2050.013
248.9557, 2020.553
249.4378, 1995.898
249.9199, 1985.674
250.4021, 1978.700
250.8842, 1964.651
251.3663, 1940.902
251.8484, 1914.414
252.3305, 1894.664
252.8126, 1883.322
253.2948, 1864.026
253.7769, 1818.746
254.2590, 1770.856
254.7411, 1740.260
255.2232, 1732.251
255.7053, 1731.345
256.1875, 1720.282
256.6696, 1697.714
257.1517, 1673.413
257.6338, 1648.549
258.1159, 1623.753
258.5981, 1597.705
259.0802, 1569.588
259.5623, 1546.110
260.0444, 1539.926
260.5265, 1555.729
261.0086, 1561.412
261.4908, 1535.678
261.9729, 1504.147
262.4550, 1484.547
262.9371, 1480.932
263.4192, 1481.168
263.9013, 1469.521
264.3835, 1443.181
264.8656, 1420.032
265.3477, 1406.334
265.8298, 1395.928
266.3119, 1385.287
266.7940, 1373.731
267.2762, 1362.824
267.7583, 1355.198
268.2404, 1351.772
268.7225, 1346.759
269.2046, 1335.182
269.6867, 1324.170
270.1689, 1320.192
270.6510, 1323.992
271.1331, 1326.988
271.6152, 1317.026
272.0973, 1290.682
272.5794, 1270.495
273.0616, 1266.491
273.5437, 1265.536
274.0258, 1260.553
274.5079, 1250.543
274.9900, 1239.374
275.4721, 1230.664
275.9543, 1224.415
276.4364, 1220.541
276.9185, 1222.972
277.4006, 1225.022
277.8827, 1222.871
278.3648, 1216.338
278.8470, 1208.344
279.3291, 1200.591
279.8112, 1192.483
280.2933, 1189.238
280.7754, 1200.850
281.2575, 1209.959
281.7397, 1204.997
282.2218, 1187.117
282.7039, 1168.678
283.1860, 1162.236
283.6681, 1168.785
284.1502, 1173.438
284.6324, 1174.099
285.1145, 1173.739
285.5966, 1173.790
286.0787, 1174.168
286.5608, 1173.998
287.0429, 1172.091
287.5251, 1168.410
288.0072, 1165.700
288.4893, 1164.138
288.9714, 1163.585
289.4535, 1165.219
289.9356, 1168.075
290.4178, 1169.358
290.8999, 1166.850
291.3820, 1160.667
291.8641, 1152.613
292.3462, 1138.505
292.8283, 1127.786
293.3105, 1125.206
293.7926, 1129.058
294.2747, 1134.996
294.7568, 1140.907
295.2389, 1146.656
295.7210, 1151.851
296.2032, 1159.280
296.6853, 1161.674
297.1674, 1151.251
297.6495, 1134.523
298.1316, 1124.190
298.6137, 1129.888
299.0959, 1146.539
299.5780, 1155.502
300.0601, 1152.822
300.5422, 1149.261
301.0243, 1150.079
301.5064, 1152.774
301.9886, 1153.413
302.4707, 1149.040
302.9528, 1142.508
303.4349, 1140.443
303.9170, 1143.540
304.3991, 1149.650
304.8813, 1163.728
305.3634, 1178.228
305.8455, 1183.228
306.3276, 1173.217
306.8097, 1155.808
307.2918, 1141.732
307.7740, 1130.071
308.2561, 1125.361
308.7382, 1140.711
309.2203, 1158.776
309.7024, 1162.001
310.1845, 1143.137
310.6667, 1116.951
311.1488, 1100.499
311.6309, 1094.474
312.1130, 1092.814
312.5951, 1096.393
313.0772, 1102.151
313.5594, 1107.707
314.0415, 1112.688
314.5236, 1117.475
315.0057, 1124.123
315.4878, 1132.553
315.9699, 1134.779
316.4521, 1124.138
316.9342, 1110.249
317.4163, 1102.706
317.8984, 1102.223
318.3805, 1101.529
318.8626, 1091.805
319.3448, 1075.736
319.8269, 1071.103
320.3090, 1089.583
320.7911, 1109.195
321.2732, 1105.789
321.7553, 1081.207
322.2375, 1061.307
322.7196, 1064.150
323.2017, 1081.763
323.6838, 1091.453
324.1659, 1088.464
324.6480, 1081.491
325.1302, 1076.810
325.6123, 1074.252
326.0944, 1074.201
326.5765, 1077.716
327.0586, 1083.515
327.5407, 1091.056
328.0229, 1101.241
328.5050, 1108.156
328.9871, 1105.297
329.4692, 1094.935
329.9513, 1084.150
330.4334, 1069.798
330.9156, 1058.280
331.3977, 1059.118
331.8798, 1072.525
332.3619, 1084.449
332.8440, 1084.422
333.3261, 1075.904
333.8083, 1073.300
334.2904, 1081.175
334.7725, 1091.322
335.2546, 1100.011
335.7367, 1106.978
336.2188, 1110.347
336.7010, 1107.943
337.1831, 1102.206
337.6652, 1100.437
338.1473, 1104.100
338.6294, 1108.974
339.1115, 1114.656
339.5937, 1120.329
340.0758, 1123.759
340.5579, 1123.670
341.0400, 1122.138
341.5221, 1123.948
342.0042, 1131.374
342.4864, 1136.512
342.9685, 1137.946
343.4506, 1136.280
343.9327, 1129.667
344.4148, 1117.578
344.8969, 1107.647
345.3791, 1111.245
345.8612, 1135.762
346.3433, 1156.068
346.8254, 1173.933
347.3075, 1186.421
347.7896, 1187.459
348.2718, 1178.099
348.7539, 1169.547
349.2360, 1173.903
349.7181, 1194.412
350.2002, 1206.854
350.6823, 1203.722
351.1645, 1200.857
351.6466, 1205.813
352.1287, 1217.879
352.6108, 1233.909
353.0929, 1253.000
353.5750, 1274.327
354.0572, 1282.343
354.5393, 1259.498
355.0214, 1242.935
355.5035, 1245.176
355.9856, 1258.185
356.4677, 1269.249
356.9499, 1271.720
357.4320, 1267.813
357.9141, 1264.105
358.3962, 1253.949
358.8783, 1254.569
359.3604, 1282.065
359.8426, 1312.970
360.3247, 1322.333
360.8068, 1302.773
361.2889, 1270.941
361.7710, 1255.058
362.2531, 1262.499
362.7353, 1266.120
363.2174, 1263.158
363.6995, 1256.689
364.1816, 1245.334
364.6637, 1230.550
365.1458, 1219.238
365.6280, 1222.009
366.1101, 1240.688
366.5922, 1248.231
367.0743, 1235.776
367.5564, 1220.051
368.0385, 1209.087
368.5207, 1201.433
369.0028, 1191.987
369.4849, 1174.616
369.9670, 1152.874
370.4491, 1142.477
370.9312, 1150.350
371.4134, 1155.237
371.8955, 1142.385
372.3776, 1121.034
372.8597, 1105.476
373.3418, 1103.856
373.8239, 1105.993
374.3061, 1096.212
374.7882, 1073.118
375.2703, 1051.463
375.7524, 1035.930
376.2345, 1026.245
376.7166, 1022.709
377.1988, 1027.402
377.6809, 1032.384
378.1630, 1030.894
378.6451, 1024.611
379.1272, 1021.073
379.6093, 1023.552
380.0915, 1027.650
380.5736, 1027.602
381.0557, 1023.578
381.5378, 1017.192
382.0199, 1006.323
382.5020, 994.3433
382.9842, 986.6119
383.4663, 984.1901
383.9484, 982.9019
384.4305, 977.3159
384.9126, 966.9274
385.3947, 965.8116
385.8769, 990.7784
386.3590, 1011.815
386.8411, 1002.436
387.3232, 967.9753
387.8053, 935.2471
388.2874, 921.7483
388.7696, 925.6388
389.2517, 932.8079
389.7338, 947.3112
390.2159, 959.8290
390.6980, 968.2650
391.1801, 973.1200
391.6623, 976.4705
392.1444, 979.2715
392.6265, 978.2084
393.1086, 964.7253
393.5907, 915.5394
394.0728, 890.0011
394.5550, 904.2399
395.0371, 930.0189
395.5192, 946.6540
396.0013, 950.4493
396.4834, 950.8026
396.9655, 960.1872
397.4477, 982.7470
397.9298, 992.1381
398.4119, 971.6638
398.8940, 953.3505
399.3761, 950.2599
399.8582, 959.1785
400.3404, 970.6882
400.8225, 980.2218
401.3046, 986.7198
401.7867, 983.7244
402.2688, 963.2289
402.7509, 947.9695
403.2331, 947.5212
403.7152, 954.9644
404.1973, 963.7140
404.6794, 972.8578
405.1615, 978.2398
405.6436, 970.9117
406.1258, 949.3123
406.6079, 934.8216
407.0900, 935.0945
407.5721, 943.9133
408.0542, 956.3500
408.5363, 972.4675
409.0185, 987.0027
409.5006, 997.4163
409.9827, 1003.868
410.4648, 1005.958
410.9469, 1002.817
411.4290, 997.9695
411.9112, 994.2318
412.3933, 991.5217
412.8754, 989.7272
413.3575, 988.6770
413.8396, 988.6533
414.3217, 990.1122
414.8039, 992.9621
415.2860, 996.9886
415.7681, 1003.171
416.2502, 1010.000
416.7323, 1009.958
417.2144, 990.4913
417.6966, 979.9978
418.1787, 993.4985
418.6608, 1018.839
419.1429, 1038.560
419.6250, 1046.667
420.1071, 1046.251
420.5893, 1041.711
421.0714, 1025.384
421.5535, 1021.633
422.0356, 1042.064
422.5177, 1064.880
422.9998, 1074.770
423.4820, 1071.996
423.9641, 1067.067
424.4462, 1069.332
424.9283, 1078.844
425.4104, 1087.702
425.8925, 1094.172
426.3747, 1101.998
426.8568, 1113.526
427.3389, 1126.652
427.8210, 1137.884
428.3031, 1145.274
428.7852, 1151.175
429.2674, 1160.418
429.7495, 1173.818
430.2316, 1187.682
430.7137, 1201.934
431.1958, 1215.649
431.6779, 1227.814
432.1601, 1238.258
432.6422, 1248.564
433.1243, 1259.371
433.6064, 1270.877
434.0885, 1284.369
434.5706, 1300.273
435.0528, 1317.486
435.5349, 1336.780
436.0170, 1357.143
436.4991, 1374.395
436.9812, 1381.971
437.4633, 1389.684
437.9455, 1411.874
438.4276, 1446.669
438.9097, 1472.260
439.3918, 1472.951
439.8739, 1458.370
440.3560, 1462.026
440.8382, 1497.682
441.3203, 1528.017
441.8024, 1540.176
442.2845, 1542.040
442.7666, 1542.318
443.2487, 1543.680
443.7309, 1548.037
444.2130, 1558.852
444.6951, 1580.336
445.1772, 1593.932
445.6593, 1595.786
446.1415, 1594.448
446.6236, 1591.575
447.1057, 1589.155
447.5878, 1591.036
448.0699, 1600.559
448.5521, 1615.954
449.0342, 1627.029
449.5163, 1631.080
449.9984, 1634.755
450.4805, 1630.908
450.9626, 1631.547
451.4448, 1654.717
451.9269, 1705.926
452.4090, 1758.062
452.8911, 1770.947
453.3732, 1742.816
453.8553, 1732.919
454.3375, 1762.020
454.8196, 1797.507
455.3017, 1810.345
455.7838, 1806.107
456.2659, 1811.890
456.7480, 1853.145
457.2302, 1906.478
457.7123, 1930.082
458.1944, 1921.166
458.6765, 1917.170
459.1586, 1943.515
459.6407, 1989.977
460.1229, 2021.759
460.6050, 2029.082
461.0871, 2036.392
461.5692, 2055.996
462.0513, 2081.863
462.5334, 2104.576
463.0156, 2121.410
463.4977, 2132.150
463.9798, 2136.188
464.4619, 2131.829
464.9440, 2125.002
465.4261, 2116.897
465.9083, 2105.520
466.3904, 2088.890
466.8725, 2067.796
467.3546, 2045.604
467.8367, 2025.319
468.3188, 2004.779
468.8010, 1972.943
469.2831, 1922.498
469.7652, 1871.369
470.2473, 1820.812
470.7294, 1772.279
471.2115, 1727.561
471.6937, 1687.081
472.1758, 1648.492
472.6579, 1608.648
473.1400, 1567.670
473.6221, 1530.548
474.1042, 1500.800
474.5864, 1471.034
475.0685, 1435.614
475.5506, 1396.010
476.0327, 1356.329
476.5148, 1315.984
476.9969, 1277.831
477.4791, 1245.319
477.9612, 1218.341
478.4433, 1195.927
478.9254, 1179.592
479.4075, 1165.974
479.8896, 1145.786
480.3718, 1112.157
480.8539, 1088.281
481.3360, 1090.910
481.8181, 1101.160
482.3002, 1094.209
482.7823, 1067.083
483.2645, 1038.623
483.7466, 1029.450
484.2287, 1042.418
484.7108, 1041.943
485.1929, 1012.219
485.6750, 987.4801
486.1572, 980.8421
486.6393, 985.4644
487.1214, 991.4968
487.6035, 994.7578
488.0856, 993.3889
488.5677, 981.0179
489.0499, 951.5301
489.5320, 932.0800
490.0141, 936.6916
490.4962, 944.6292
490.9783, 945.5350
491.4604, 939.0264
491.9426, 928.8528
492.4247, 912.1873
492.9068, 894.4972
493.3889, 890.7634
493.8710, 903.7445
494.3531, 916.6901
494.8353, 921.0296
495.3174, 918.4847
495.7995, 914.0513
496.2816, 907.1223
496.7637, 899.6211
497.2458, 889.3008
497.7280, 879.7361
498.2101, 879.7166
498.6922, 891.6502
499.1743, 904.6452
499.6564, 905.6150
500.1385, 891.9132
500.6207, 878.5338
501.1028, 862.1624
501.5849, 849.2216
502.0670, 842.4975
502.5491, 841.3376
503.0313, 844.6202
503.5134, 851.9732
503.9955, 861.7987
504.4776, 871.0134
504.9597, 881.8715
505.4418, 886.2532
505.9240, 876.9370
506.4061, 865.6719
506.8882, 858.9505
507.3703, 857.3280
507.8524, 858.6447
508.3345, 866.3983
508.8167, 875.6636
509.2988, 868.6478
509.7809, 840.3969
510.2630, 817.4777
510.7451, 819.0858
511.2272, 835.0096
511.7094, 842.3414
512.1915, 836.1221
512.6736, 828.2803
513.1557, 820.0626
513.6378, 815.2033
514.1199, 823.8188
514.6021, 848.4492
515.0842, 874.0390
515.5663, 883.4495
516.0484, 873.9174
516.5305, 865.8682
517.0126, 858.5826
517.4948, 853.2245
517.9769, 851.2039
518.4590, 851.2260
518.9411, 851.2301
519.4232, 850.2653
519.9053, 848.7286
520.3875, 847.2816
520.8696, 845.7709
521.3517, 844.9308
521.8338, 848.3939
522.3159, 849.4687
522.7980, 840.9333
523.2802, 825.4598
523.7623, 784.2247
524.2444, 822.6935
524.7265, 844.9307
525.2086, 851.8083
525.6907, 797.3227
526.1729, 822.0753
526.6550, 815.0727
527.1371, 806.7678
527.6192, 842.6724
528.1013, 797.1120
528.5834, 832.3154
529.0656, 835.2798
529.5477, 852.9990
530.0298, 838.7671
530.5119, 834.4040
530.9940, 862.0021
531.4761, 871.9029
531.9583, 853.9934
532.4404, 872.6506
532.9225, 825.9739
533.4046, 836.6286
533.8867, 872.0191
534.3688, 855.7156
534.8510, 874.9573
535.3331, 880.6612
535.8152, 854.0334
536.2973, 855.9841
536.7794, 854.5468
537.2615, 855.1910
537.7437, 858.8895
538.2258, 863.6973
538.7079, 871.3064
539.1900, 878.9568
539.6721, 879.9266
540.1542, 867.9376
540.6364, 854.6803
541.1185, 849.5804
541.6006, 851.1356
542.0827, 854.6257
542.5648, 858.6494
543.0469, 863.9619
543.5291, 872.2087
544.0112, 885.2716
544.4933, 893.5330
544.9754, 890.5056
545.4575, 888.9084
545.9396, 900.0313
546.4218, 917.5714
546.9039, 926.1859
547.3860, 917.2474
547.8681, 899.5243
548.3502, 894.1661
548.8323, 907.6295
549.3145, 914.6817
549.7966, 904.8430
550.2787, 893.6340
550.7608, 889.8071
551.2429, 892.5293
551.7250, 895.3809
552.2072, 895.4362
552.6893, 893.2056
553.1714, 887.0469
553.6535, 876.9526
554.1356, 874.1745
554.6177, 886.5153
555.0999, 906.1109
555.5820, 916.8683
556.0641, 916.9614
556.5462, 916.7123
557.0283, 917.3303
557.5104, 918.9504
557.9926, 923.3358
558.4747, 929.3386
558.9568, 931.9483
559.4389, 926.7991
559.9210, 916.3599
560.4031, 912.8985
560.8853, 918.0947
561.3674, 927.9078
561.8495, 950.6592
562.3316, 970.9535
562.8137, 971.6704
563.2958, 953.7744
563.7780, 939.4107
564.2601, 953.6320
564.7422, 984.5566
565.2243, 992.1379
565.7064, 971.3436
566.1885, 952.8489
566.6707, 955.3973
567.1528, 969.7537
567.6349, 973.4150
568.1170, 959.9505
568.5991, 950.9207
569.0812, 956.7620
569.5634, 969.1697
570.0455, 980.1933
570.5276, 988.0314
571.0097, 990.6657
571.4918, 984.9252
571.9739, 972.4670
572.4561, 971.9532
572.9382, 997.8419
573.4203, 1016.260
573.9024, 1016.178
574.3845, 1010.568
574.8666, 1011.298
575.3488, 1020.542
575.8309, 1032.920
576.3130, 1046.097
576.7951, 1058.859
577.2772, 1064.561
577.7593, 1061.141
578.2415, 1058.323
578.7236, 1063.919
579.2057, 1073.062
579.6878, 1073.300
580.1699, 1056.990
580.6520, 1047.018
581.1342, 1056.062
581.6163, 1074.371
582.0984, 1091.070
582.5805, 1104.033
583.0626, 1114.047
583.5447, 1121.753
584.0269, 1127.174
584.5090, 1130.047
584.9911, 1123.953
585.4732, 1124.281
585.9553, 1139.508
586.4374, 1158.142
586.9196, 1169.010
587.4017, 1170.370
587.8838, 1169.697
588.3659, 1173.559
588.8480, 1180.564
589.3301, 1184.696
589.8123, 1184.503
590.2944, 1188.183
590.7765, 1201.728
591.2586, 1221.825
591.7407, 1240.206
