##NAMES=Staurolite
##RRUFFID=R050079
##IDEAL CHEMISTRY=Fe^2+^_2_Al_9_Si_4_O_23_(OH)
##LOCALITY=Keivy, Kola Peninsula, Russia
##OWNER=RRUFF
##SOURCE=Rock Currier
##DESCRIPTION=Brown cruciform twins
##STATUS=The identification of this mineral has been confirmed by X-ray diffraction and chemical analysis
##URL=rruff.info/R050079
##MEASURED CHEMISTRY=(Fe^2+^_0.77_Mg_0.23_)_2_(Al_0.99_Ti_0.01_)_9_(Si_0.99_Al_0.01_)_4_O_20_(O_0.76_(OH)_0.24_)_4_
138.3756, 704.6370
138.8577, 725.5522
139.3398, 743.6694
139.8220, 758.9614
140.3041, 778.5198
140.7862, 802.9025
141.2683, 829.8548
141.7504, 858.3430
142.2325, 888.3986
142.7147, 920.4158
143.1968, 954.9315
143.6789, 991.9647
144.1610, 1030.749
144.6431, 1076.596
145.1252, 1119.443
145.6074, 1152.079
146.0895, 1175.276
146.5716, 1196.183
147.0537, 1220.676
147.5358, 1248.618
148.0179, 1272.320
148.5001, 1292.321
148.9822, 1307.834
149.4643, 1315.934
149.9464, 1317.025
150.4285, 1319.184
150.9106, 1332.234
151.3928, 1353.861
151.8749, 1362.085
152.3570, 1343.552
152.8391, 1318.406
153.3212, 1306.798
153.8033, 1310.560
154.2855, 1314.245
154.7676, 1303.455
155.2497, 1281.646
155.7318, 1263.990
156.2139, 1255.588
156.6960, 1251.112
157.1782, 1244.538
157.6603, 1235.356
158.1424, 1225.755
158.6245, 1216.585
159.1066, 1208.245
159.5887, 1202.172
160.0709, 1197.686
160.5530, 1196.074
161.0351, 1200.552
161.5172, 1212.667
161.9993, 1225.232
162.4814, 1232.958
162.9636, 1237.459
163.4457, 1241.341
163.9278, 1242.735
164.4099, 1244.781
164.8920, 1254.887
165.3741, 1276.416
165.8563, 1296.459
166.3384, 1303.812
166.8205, 1304.506
167.3026, 1308.625
167.7847, 1320.597
168.2668, 1338.484
168.7490, 1360.305
169.2311, 1391.011
169.7132, 1414.109
170.1953, 1416.374
170.6774, 1406.750
171.1595, 1398.500
171.6417, 1396.845
172.1238, 1400.783
172.6059, 1409.068
173.0880, 1425.289
173.5701, 1438.492
174.0522, 1441.439
174.5344, 1439.182
175.0165, 1438.703
175.4986, 1443.193
175.9807, 1451.768
176.4628, 1462.969
176.9449, 1480.044
177.4271, 1493.504
177.9092, 1499.578
178.3913, 1500.506
178.8734, 1498.347
179.3555, 1492.317
179.8376, 1485.487
180.3197, 1487.598
180.8019, 1503.777
181.2840, 1520.242
181.7661, 1534.910
182.2482, 1546.671
182.7303, 1553.174
183.2124, 1552.178
183.6946, 1547.009
184.1767, 1547.041
184.6588, 1553.197
185.1409, 1563.606
185.6230, 1580.213
186.1051, 1599.053
186.5873, 1615.200
187.0694, 1625.909
187.5515, 1633.905
188.0336, 1646.714
188.5157, 1665.824
188.9978, 1687.588
189.4800, 1712.942
189.9621, 1739.159
190.4442, 1764.424
190.9263, 1787.967
191.4084, 1808.635
191.8905, 1822.200
192.3727, 1819.994
192.8548, 1826.669
193.3369, 1853.401
193.8190, 1886.179
194.3011, 1910.608
194.7832, 1920.868
195.2654, 1924.108
195.7475, 1935.516
196.2296, 1958.303
196.7117, 1984.180
197.1938, 2012.651
197.6759, 2042.799
198.1581, 2075.021
198.6402, 2109.362
199.1223, 2142.719
199.6044, 2168.636
200.0865, 2182.258
200.5686, 2197.973
201.0508, 2221.221
201.5329, 2244.238
202.0150, 2259.517
202.4971, 2265.492
202.9792, 2267.974
203.4613, 2277.524
203.9435, 2301.353
204.4256, 2315.546
204.9077, 2316.190
205.3898, 2310.576
205.8719, 2301.427
206.3540, 2290.221
206.8362, 2279.709
207.3183, 2274.301
207.8004, 2277.325
208.2825, 2277.045
208.7646, 2271.703
209.2467, 2264.803
209.7289, 2259.240
210.2110, 2254.838
210.6931, 2248.490
211.1752, 2236.515
211.6573, 2218.243
212.1395, 2196.746
212.6216, 2166.326
213.1037, 2137.837
213.5858, 2118.732
214.0679, 2107.705
214.5500, 2097.170
215.0322, 2079.245
215.5143, 2052.556
215.9964, 2027.862
216.4785, 2004.702
216.9606, 1983.804
217.4427, 1964.730
217.9249, 1948.048
218.4070, 1935.601
218.8891, 1930.547
219.3712, 1933.371
219.8533, 1925.894
220.3354, 1893.420
220.8176, 1864.484
221.2997, 1847.170
221.7818, 1839.404
222.2639, 1836.415
222.7460, 1835.898
223.2281, 1837.126
223.7103, 1832.223
224.1924, 1811.058
224.6745, 1794.662
225.1566, 1790.411
225.6387, 1793.028
226.1208, 1794.879
226.6030, 1791.757
227.0851, 1784.166
227.5672, 1773.977
228.0493, 1757.836
228.5314, 1743.529
229.0135, 1733.121
229.4957, 1724.886
229.9778, 1716.307
230.4599, 1706.156
230.9420, 1696.346
231.4241, 1692.106
231.9062, 1698.309
232.3884, 1701.820
232.8705, 1699.579
233.3526, 1695.109
233.8347, 1692.225
234.3168, 1692.048
234.7989, 1691.406
235.2811, 1682.731
235.7632, 1656.979
236.2453, 1645.274
236.7274, 1663.723
237.2095, 1685.818
237.6916, 1692.224
238.1738, 1680.089
238.6559, 1662.447
239.1380, 1655.966
239.6201, 1664.338
240.1022, 1670.252
240.5843, 1674.435
241.0665, 1674.970
241.5486, 1666.253
242.0307, 1650.883
242.5128, 1640.034
242.9949, 1647.608
243.4770, 1675.969
243.9592, 1694.457
244.4413, 1698.459
244.9234, 1695.984
245.4055, 1686.131
245.8876, 1671.780
246.3697, 1659.020
246.8519, 1652.015
247.3340, 1650.403
247.8161, 1651.528
248.2982, 1658.448
248.7803, 1664.042
249.2624, 1665.601
249.7446, 1664.397
250.2267, 1661.811
250.7088, 1657.152
251.1909, 1653.148
251.6730, 1659.482
252.1551, 1684.225
252.6373, 1702.763
253.1194, 1702.838
253.6015, 1695.170
254.0836, 1691.266
254.5657, 1695.669
255.0478, 1703.746
255.5300, 1708.686
256.0121, 1710.366
256.4942, 1709.234
256.9763, 1699.863
257.4584, 1690.905
257.9406, 1688.953
258.4227, 1695.489
258.9048, 1706.727
259.3869, 1720.575
259.8690, 1737.307
260.3511, 1750.350
260.8333, 1753.556
261.3154, 1757.228
261.7975, 1770.750
262.2796, 1793.671
262.7617, 1815.180
263.2438, 1828.719
263.7260, 1834.638
264.2081, 1834.421
264.6902, 1826.308
265.1723, 1814.630
265.6544, 1802.105
266.1365, 1788.837
266.6187, 1775.283
267.1008, 1759.759
267.5829, 1744.424
268.0650, 1735.814
268.5471, 1737.045
269.0292, 1735.337
269.5114, 1716.402
269.9935, 1688.921
270.4756, 1667.578
270.9577, 1658.675
271.4398, 1655.385
271.9219, 1650.064
272.4041, 1642.598
272.8862, 1636.968
273.3683, 1636.117
273.8504, 1638.013
274.3325, 1639.000
274.8146, 1640.221
275.2968, 1638.119
275.7789, 1626.576
276.2610, 1608.590
276.7431, 1597.126
277.2252, 1598.641
277.7073, 1606.270
278.1895, 1607.317
278.6716, 1599.498
279.1537, 1596.582
279.6358, 1609.772
280.1179, 1629.703
280.6000, 1638.029
281.0822, 1629.309
281.5643, 1617.644
282.0464, 1620.705
282.5285, 1639.748
283.0106, 1657.181
283.4927, 1669.299
283.9749, 1680.109
284.4570, 1695.038
284.9391, 1713.895
285.4212, 1729.121
285.9033, 1732.701
286.3854, 1725.069
286.8676, 1727.465
287.3497, 1742.538
287.8318, 1763.982
288.3139, 1793.574
288.7960, 1827.601
289.2781, 1855.995
289.7603, 1872.310
290.2424, 1880.275
290.7245, 1895.338
291.2066, 1922.705
291.6887, 1950.187
292.1708, 1975.115
292.6530, 1999.495
293.1351, 2025.265
293.6172, 2053.166
294.0993, 2084.041
294.5814, 2119.428
295.0635, 2162.896
295.5457, 2204.517
296.0278, 2239.788
296.5099, 2276.298
296.9920, 2320.896
297.4741, 2373.386
297.9562, 2426.448
298.4384, 2471.978
298.9205, 2507.979
299.4026, 2551.138
299.8847, 2607.293
300.3668, 2664.489
300.8489, 2718.248
301.3311, 2770.088
301.8131, 2824.340
302.2953, 2884.818
302.7774, 2949.096
303.2595, 3005.766
303.7416, 3062.322
304.2237, 3097.824
304.7058, 3098.003
305.1880, 3081.883
305.6701, 3071.504
306.1522, 3075.369
306.6343, 3080.253
307.1164, 3064.979
307.5985, 3027.681
308.0807, 2977.209
308.5628, 2903.094
309.0449, 2824.241
309.5270, 2751.084
310.0091, 2684.663
310.4912, 2622.309
310.9734, 2563.219
311.4555, 2506.887
311.9376, 2447.618
312.4197, 2378.637
312.9018, 2316.841
313.3839, 2276.742
313.8661, 2251.341
314.3482, 2222.790
314.8303, 2177.149
315.3124, 2125.999
315.7945, 2090.906
316.2766, 2073.954
316.7588, 2061.245
317.2409, 2048.650
317.7230, 2034.692
318.2051, 2016.202
318.6872, 1989.328
319.1693, 1964.185
319.6515, 1950.897
320.1336, 1946.792
320.6157, 1938.896
321.0978, 1921.234
321.5799, 1900.574
322.0620, 1888.388
322.5442, 1885.828
323.0263, 1882.264
323.5084, 1871.634
323.9905, 1859.609
324.4726, 1854.997
324.9547, 1859.211
325.4369, 1863.991
325.9190, 1860.354
326.4011, 1847.164
326.8832, 1841.624
327.3653, 1851.739
327.8474, 1861.836
328.3296, 1862.179
328.8117, 1854.903
329.2938, 1847.208
329.7759, 1842.975
330.2580, 1842.102
330.7401, 1844.295
331.2223, 1855.291
331.7044, 1862.247
332.1865, 1860.922
332.6686, 1856.255
333.1507, 1853.162
333.6328, 1853.248
334.1150, 1855.586
334.5971, 1859.395
335.0792, 1866.832
335.5613, 1869.628
336.0434, 1864.105
336.5255, 1857.780
337.0077, 1853.113
337.4898, 1850.931
337.9719, 1852.198
338.4540, 1858.616
338.9361, 1869.319
339.4182, 1876.479
339.9004, 1878.617
340.3825, 1879.042
340.8646, 1875.739
341.3467, 1872.563
341.8288, 1874.707
342.3109, 1884.498
342.7931, 1898.368
343.2752, 1912.637
343.7573, 1928.124
344.2394, 1938.025
344.7215, 1936.308
345.2036, 1931.749
345.6858, 1931.191
346.1679, 1934.952
346.6500, 1939.832
347.1321, 1942.850
347.6142, 1945.443
348.0963, 1951.854
348.5785, 1963.007
349.0606, 1976.459
349.5427, 1990.461
350.0248, 2005.280
350.5069, 2021.938
350.9890, 2042.018
351.4712, 2062.983
351.9533, 2082.396
352.4354, 2100.740
352.9175, 2120.826
353.3996, 2144.494
353.8817, 2170.113
354.3639, 2194.491
354.8460, 2223.072
355.3281, 2240.077
355.8102, 2237.146
356.2923, 2222.932
356.7744, 2206.195
357.2566, 2189.083
357.7387, 2171.671
358.2208, 2153.679
358.7029, 2134.343
359.1850, 2118.906
359.6671, 2111.413
360.1493, 2103.267
360.6314, 2090.287
361.1135, 2073.641
361.5956, 2056.240
362.0777, 2039.597
362.5598, 2023.823
363.0420, 2008.561
363.5241, 1987.761
364.0062, 1978.135
364.4883, 1992.610
364.9704, 2010.894
365.4525, 2013.427
365.9347, 1997.194
366.4168, 1977.854
366.8989, 1975.785
367.3810, 1992.608
367.8631, 1998.896
368.3452, 1987.357
368.8274, 1972.013
369.3095, 1957.922
369.7916, 1945.792
370.2737, 1937.098
370.7558, 1933.456
371.2379, 1932.861
371.7201, 1932.966
372.2022, 1934.109
372.6843, 1933.045
373.1664, 1930.725
373.6485, 1923.470
374.1306, 1904.178
374.6128, 1867.728
375.0949, 1836.978
375.5770, 1825.866
376.0591, 1828.650
376.5412, 1835.609
377.0233, 1845.340
377.5055, 1855.140
377.9876, 1863.977
378.4697, 1871.902
378.9518, 1868.922
379.4339, 1841.330
379.9160, 1815.007
380.3982, 1807.312
380.8803, 1814.013
381.3624, 1822.386
381.8445, 1825.981
382.3266, 1824.997
382.8087, 1819.788
383.2909, 1799.719
383.7730, 1789.864
384.2551, 1798.608
384.7372, 1812.498
385.2193, 1820.818
385.7014, 1821.835
386.1836, 1820.322
386.6657, 1821.110
387.1478, 1824.324
387.6299, 1827.439
388.1120, 1831.492
388.5941, 1834.153
389.0763, 1834.788
389.5584, 1833.570
390.0405, 1829.869
390.5226, 1822.234
391.0047, 1815.431
391.4868, 1819.080
391.9690, 1834.692
392.4511, 1846.017
392.9332, 1846.015
393.4153, 1842.419
393.8974, 1842.318
394.3795, 1845.820
394.8617, 1850.592
395.3438, 1856.145
395.8259, 1862.009
396.3080, 1867.533
396.7901, 1872.658
397.2722, 1877.293
397.7544, 1881.517
398.2365, 1885.127
398.7186, 1887.551
399.2007, 1882.990
399.6828, 1883.654
400.1649, 1898.747
400.6471, 1921.132
401.1292, 1939.662
401.6113, 1950.756
402.0934, 1956.130
402.5755, 1958.430
403.0576, 1957.987
403.5398, 1952.769
404.0219, 1937.735
404.5040, 1923.235
404.9861, 1916.981
405.4682, 1915.793
405.9503, 1910.577
406.4325, 1894.890
406.9146, 1872.503
407.3967, 1857.049
407.8788, 1850.710
408.3609, 1847.119
408.8430, 1844.090
409.3252, 1843.640
409.8073, 1850.605
410.2894, 1864.710
410.7715, 1874.589
411.2536, 1867.168
411.7357, 1846.076
412.2179, 1829.297
412.7000, 1817.041
413.1821, 1811.494
413.6642, 1816.124
414.1463, 1828.529
414.6284, 1845.689
415.1106, 1874.663
415.5927, 1899.042
416.0748, 1903.675
416.5569, 1893.571
417.0390, 1882.622
417.5211, 1874.376
418.0033, 1871.509
418.4854, 1879.639
418.9675, 1904.046
419.4496, 1921.307
419.9317, 1922.837
420.4138, 1923.295
420.8960, 1934.041
421.3781, 1952.941
421.8602, 1970.345
422.3423, 1979.786
422.8244, 1983.606
423.3065, 1991.937
423.7887, 2007.542
424.2708, 2023.651
424.7529, 2045.078
425.2350, 2063.060
425.7171, 2064.688
426.1992, 2051.204
426.6814, 2042.729
427.1635, 2064.918
427.6456, 2114.214
428.1277, 2144.815
428.6098, 2149.998
429.0919, 2149.088
429.5741, 2148.671
430.0562, 2149.641
430.5383, 2154.008
431.0204, 2163.672
431.5025, 2173.730
431.9846, 2180.215
432.4668, 2183.737
432.9489, 2185.548
433.4310, 2184.987
433.9131, 2186.104
434.3952, 2193.550
434.8773, 2207.674
435.3595, 2226.208
435.8416, 2255.550
436.3237, 2283.383
436.8058, 2302.754
437.2879, 2314.435
437.7701, 2319.986
438.2522, 2319.524
438.7343, 2317.860
439.2164, 2327.540
439.6985, 2355.501
440.1806, 2382.866
440.6628, 2414.373
441.1449, 2441.295
441.6270, 2455.881
442.1091, 2459.981
442.5912, 2462.242
443.0733, 2468.431
443.5555, 2478.070
444.0376, 2488.867
444.5197, 2499.719
445.0018, 2514.896
445.4839, 2540.918
445.9660, 2569.790
446.4482, 2593.215
446.9303, 2609.434
447.4124, 2625.443
447.8945, 2648.320
448.3766, 2673.481
448.8587, 2689.225
449.3409, 2693.379
449.8230, 2697.515
450.3051, 2709.237
450.7872, 2729.077
451.2693, 2757.326
451.7514, 2801.037
452.2336, 2844.212
452.7157, 2878.888
453.1978, 2910.772
453.6799, 2948.899
454.1620, 2995.489
454.6441, 3043.324
455.1263, 3081.040
455.6084, 3103.766
456.0905, 3143.710
456.5726, 3210.272
457.0547, 3285.154
457.5368, 3361.730
458.0190, 3443.477
458.5011, 3535.784
458.9832, 3640.785
459.4653, 3758.625
459.9474, 3889.452
460.4295, 4032.703
460.9117, 4196.087
461.3938, 4393.937
461.8759, 4594.972
462.3580, 4781.454
462.8401, 4951.557
463.3222, 5091.135
463.8044, 5202.645
464.2865, 5277.921
464.7686, 5313.405
465.2507, 5306.906
465.7328, 5247.951
466.2149, 5129.842
466.6971, 4964.531
467.1792, 4775.583
467.6613, 4549.580
468.1434, 4325.387
468.6255, 4094.535
469.1076, 3872.369
469.5898, 3667.167
470.0719, 3480.102
470.5540, 3314.167
471.0361, 3171.173
471.5182, 3047.808
472.0003, 2930.921
472.4825, 2818.905
472.9646, 2719.924
473.4467, 2638.675
473.9288, 2570.104
474.4109, 2512.888
474.8930, 2466.644
475.3752, 2429.041
475.8573, 2403.552
476.3394, 2384.013
476.8215, 2359.009
477.3036, 2328.279
477.7857, 2299.004
478.2679, 2275.132
478.7500, 2254.740
479.2321, 2232.234
479.7142, 2204.248
480.1963, 2182.876
480.6784, 2173.715
481.1606, 2169.945
481.6427, 2168.302
482.1248, 2166.663
482.6069, 2159.120
483.0890, 2139.696
483.5711, 2112.325
484.0533, 2099.289
484.5354, 2111.882
485.0175, 2120.543
485.4996, 2115.836
485.9817, 2109.648
486.4638, 2114.237
486.9460, 2129.342
487.4281, 2141.115
487.9102, 2135.754
488.3923, 2118.890
488.8744, 2106.932
489.3565, 2100.068
489.8387, 2097.911
490.3208, 2100.977
490.8029, 2108.651
491.2850, 2119.589
491.7671, 2135.825
492.2492, 2149.480
492.7314, 2156.621
493.2135, 2160.401
493.6956, 2163.690
494.1777, 2167.071
494.6598, 2171.278
495.1419, 2177.404
495.6241, 2184.464
496.1062, 2186.032
496.5883, 2176.146
497.0704, 2169.012
497.5525, 2165.836
498.0346, 2165.913
498.5168, 2171.100
498.9989, 2180.109
499.4810, 2186.119
499.9631, 2181.886
500.4452, 2170.213
500.9273, 2161.751
501.4095, 2157.021
501.8916, 2153.172
502.3737, 2147.850
502.8558, 2143.482
503.3379, 2144.020
503.8200, 2150.600
504.3022, 2157.572
504.7843, 2162.961
505.2664, 2167.549
505.7485, 2171.529
506.2306, 2175.270
506.7127, 2181.500
507.1949, 2193.491
507.6770, 2207.459
508.1591, 2206.257
508.6412, 2169.110
509.1233, 2147.299
509.6054, 2152.864
510.0876, 2166.722
510.5697, 2179.362
511.0518, 2187.532
511.5339, 2187.070
512.0161, 2170.775
512.4982, 2146.403
512.9803, 2136.499
513.4624, 2143.454
513.9445, 2150.928
514.4266, 2153.798
514.9088, 2153.999
515.3909, 2155.032
515.8730, 2157.323
516.3551, 2155.395
516.8372, 2138.922
517.3193, 2123.883
517.8015, 2129.971
518.2836, 2152.459
518.7657, 2169.640
519.2478, 2169.768
519.7299, 2158.540
520.2120, 2148.661
520.6942, 2135.042
521.1763, 2133.012
521.6584, 2154.660
522.1405, 2175.175
522.6226, 2177.522
523.1047, 2167.693
523.5869, 2163.456
524.0690, 2175.792
524.5511, 2194.655
525.0332, 2203.472
525.5153, 2202.302
525.9974, 2200.955
526.4796, 2202.686
526.9617, 2203.373
527.4438, 2195.399
527.9259, 2180.281
528.4080, 2173.591
528.8901, 2185.873
529.3723, 2198.892
529.8544, 2205.010
530.3365, 2203.491
530.8186, 2190.939
531.3007, 2166.548
531.7828, 2139.794
532.2650, 2124.247
532.7471, 2122.015
533.2292, 2117.602
533.7113, 2111.907
534.1934, 2102.671
534.6755, 2084.795
535.1577, 2064.749
535.6398, 2052.976
536.1219, 2053.408
536.6040, 2052.721
537.0861, 2037.466
537.5682, 2011.113
538.0504, 1983.302
538.5325, 1954.587
539.0146, 1929.903
539.4967, 1914.159
539.9788, 1905.510
540.4609, 1894.795
540.9431, 1876.643
541.4252, 1863.821
541.9073, 1862.048
542.3894, 1864.713
542.8715, 1868.072
543.3536, 1870.035
543.8358, 1866.207
544.3179, 1851.870
544.8000, 1830.120
545.2821, 1815.269
545.7642, 1810.628
546.2463, 1803.730
546.7285, 1783.872
547.2106, 1766.526
547.6927, 1768.449
548.1748, 1787.813
548.6569, 1799.523
549.1390, 1786.544
549.6211, 1764.730
550.1032, 1749.223
550.5853, 1739.955
551.0674, 1735.269
551.5496, 1734.644
552.0317, 1737.393
552.5138, 1742.820
552.9959, 1752.590
553.4780, 1759.393
553.9601, 1763.484
554.4423, 1764.845
554.9244, 1763.173
555.4065, 1758.862
555.8886, 1751.282
556.3707, 1740.015
556.8528, 1729.923
557.3350, 1727.399
557.8171, 1731.696
558.2992, 1737.091
558.7813, 1743.546
559.2634, 1749.630
559.7455, 1754.846
560.2277, 1758.837
560.7098, 1760.597
561.1919, 1757.592
561.6740, 1756.800
562.1561, 1762.302
562.6382, 1769.938
563.1204, 1775.744
563.6025, 1779.154
564.0846, 1780.593
564.5667, 1779.750
565.0488, 1778.353
565.5309, 1784.586
566.0131, 1804.402
566.4952, 1816.761
566.9773, 1809.790
567.4594, 1800.854
567.9415, 1804.279
568.4236, 1816.671
568.9058, 1820.362
569.3879, 1796.451
569.8700, 1770.897
570.3521, 1773.096
570.8342, 1796.181
571.3163, 1819.105
571.7985, 1836.078
572.2806, 1844.489
572.7627, 1839.462
573.2448, 1818.787
573.7269, 1805.460
574.2090, 1801.661
574.6912, 1802.041
575.1733, 1811.016
575.6554, 1820.483
576.1375, 1820.243
576.6196, 1808.668
577.1017, 1795.061
577.5839, 1786.870
578.0660, 1783.394
578.5481, 1784.057
579.0302, 1789.779
579.5123, 1791.034
579.9944, 1781.842
580.4766, 1767.085
580.9587, 1756.310
581.4408, 1750.470
581.9229, 1743.634
582.4050, 1729.176
582.8871, 1718.826
583.3693, 1727.286
583.8514, 1745.239
584.3335, 1750.343
584.8156, 1732.217
585.2977, 1705.553
585.7798, 1694.073
586.2620, 1699.194
586.7441, 1703.303
587.2262, 1704.722
587.7083, 1706.524
588.1904, 1714.224
588.6725, 1722.484
589.1547, 1721.089
589.6368, 1704.616
590.1189, 1689.290
590.6010, 1685.543
591.0831, 1685.888
591.5652, 1681.177
592.0474, 1670.754
592.5295, 1656.364
593.0116, 1637.805
593.4937, 1620.195
593.9758, 1621.714
594.4579, 1656.472
594.9401, 1676.753
595.4222, 1667.541
595.9043, 1652.779
596.3864, 1642.163
596.8685, 1635.459
597.3506, 1630.398
597.8328, 1626.444
598.3149, 1623.342
598.7970, 1622.317
599.2791, 1621.831
599.7612, 1616.411
600.2433, 1604.956
600.7255, 1595.188
601.2076, 1593.988
601.6897, 1600.275
602.1718, 1605.280
602.6539, 1611.313
603.1360, 1612.613
603.6182, 1602.876
604.1003, 1592.958
604.5824, 1594.048
605.0645, 1603.407
605.5466, 1606.883
606.0287, 1592.631
606.5109, 1573.188
606.9930, 1569.706
607.4751, 1579.869
607.9572, 1584.936
608.4393, 1579.717
608.9214, 1570.458
609.4036, 1562.813
609.8857, 1556.789
610.3678, 1551.803
610.8499, 1548.225
611.3320, 1545.128
611.8141, 1540.838
612.2963, 1537.835
612.7784, 1540.011
613.2605, 1546.765
613.7426, 1552.713
614.2247, 1553.697
614.7068, 1551.073
615.1890, 1547.719
615.6711, 1543.582
616.1532, 1540.160
616.6353, 1538.707
617.1174, 1536.607
617.5995, 1529.296
618.0817, 1516.632
618.5638, 1510.377
619.0459, 1521.734
619.5280, 1527.157
620.0101, 1508.532
620.4922, 1483.336
620.9744, 1475.792
621.4565, 1488.843
621.9386, 1504.705
622.4207, 1507.066
622.9028, 1499.595
623.3849, 1496.879
623.8671, 1499.838
624.3492, 1502.175
624.8313, 1501.808
625.3134, 1500.237
625.7955, 1499.413
626.2776, 1499.278
626.7598, 1497.957
627.2419, 1493.415
627.7240, 1489.558
628.2061, 1487.928
628.6882, 1488.427
629.1703, 1491.647
629.6525, 1497.265
630.1346, 1502.897
630.6167, 1506.821
631.0988, 1508.635
631.5809, 1505.145
632.0630, 1494.444
632.5452, 1486.149
633.0273, 1486.176
633.5094, 1486.848
633.9915, 1477.239
