##NAMES=Staurolite
##RRUFFID=R080120
##IDEAL CHEMISTRY=Fe^2+^_2_Al_9_Si_4_O_23_(OH)
##LOCALITY=Bahia, Brazil
##OWNER=RRUFF
##SOURCE=Shinichi Kihara
##DESCRIPTION=Brown cruciform twins
##STATUS=The identification of this mineral has been confirmed by single-crystal X-ray diffraction.
##URL=rruff.info/R080120
91.00781, 4.489568
91.48993, 4.701138
91.97205, 4.785874
92.45416, 4.591468
92.93628, 4.276582
93.41840, 4.212678
93.90051, 4.513333
94.38263, 4.989586
94.86475, 5.371089
95.34686, 5.658061
95.82898, 5.873266
96.31110, 5.957850
96.79321, 5.935269
97.27533, 6.050095
97.75745, 6.330071
98.23956, 6.788253
98.72168, 7.435972
99.20380, 8.221552
99.68591, 9.335642
100.1680, 11.26674
100.6501, 14.28780
101.1323, 16.68626
101.6144, 17.71623
102.0965, 17.21774
102.5786, 17.30577
103.0607, 18.09806
103.5428, 19.37169
104.0250, 20.80350
104.5071, 22.41335
104.9892, 24.12788
105.4713, 25.91097
105.9534, 27.76549
106.4355, 29.67864
106.9177, 31.72320
107.3998, 33.82887
107.8819, 35.83564
108.3640, 37.35604
108.8461, 39.06445
109.3282, 41.30446
109.8104, 44.72639
110.2925, 47.88166
110.7746, 50.64682
111.2567, 53.03883
111.7388, 55.30381
112.2209, 57.09573
112.7031, 58.94015
113.1852, 61.22304
113.6673, 64.42109
114.1494, 67.65961
114.6315, 70.58212
115.1136, 73.18339
115.5958, 76.18214
116.0779, 80.17416
116.5600, 84.57552
117.0421, 88.71374
117.5242, 92.13482
118.0063, 95.44662
118.4885, 99.03356
118.9706, 102.9716
119.4527, 106.9463
119.9348, 110.8245
120.4169, 114.6021
120.8990, 118.3345
121.3812, 122.3234
121.8633, 126.1254
122.3454, 129.2592
122.8275, 131.6111
123.3096, 133.4603
123.7917, 134.8064
124.2739, 135.7721
124.7560, 136.8074
125.2381, 138.2022
125.7202, 139.8644
126.2023, 141.6122
126.6844, 143.4071
127.1666, 145.2899
127.6487, 147.3608
128.1308, 149.6196
128.6129, 151.8943
129.0950, 154.0211
129.5771, 156.0567
130.0593, 158.2338
130.5414, 160.7215
131.0235, 163.3354
131.5056, 165.2403
131.9877, 165.7349
132.4698, 165.6131
132.9520, 166.6724
133.4341, 168.8509
133.9162, 171.1834
134.3983, 173.4972
134.8804, 175.7428
135.3625, 177.4122
135.8447, 178.3699
136.3268, 179.1442
136.8089, 180.6241
137.2910, 182.9789
137.7731, 185.0680
138.2552, 186.4183
138.7374, 186.9493
139.2195, 187.4170
139.7016, 187.8646
140.1837, 188.2120
140.6658, 188.2356
141.1479, 187.7851
141.6301, 187.3473
142.1122, 187.1433
142.5943, 187.2310
143.0764, 187.3632
143.5585, 187.4957
144.0406, 187.6633
144.5228, 188.0461
145.0049, 188.8894
145.4870, 189.6369
145.9691, 189.9565
146.4512, 189.5193
146.9333, 189.2183
147.4155, 189.2831
147.8976, 189.6341
148.3797, 189.4707
148.8618, 188.1898
149.3439, 186.8294
149.8260, 186.0562
150.3082, 186.6912
150.7903, 186.9866
151.2724, 186.6256
151.7545, 185.5860
152.2366, 184.7869
152.7188, 184.5844
153.2009, 184.4666
153.6830, 184.0245
154.1651, 183.2203
154.6472, 182.0831
155.1293, 180.5582
155.6115, 178.6010
156.0936, 176.6055
156.5757, 174.5566
157.0578, 172.5261
157.5399, 170.6219
158.0220, 168.6564
158.5042, 166.9962
158.9863, 165.8768
159.4684, 165.4126
159.9505, 164.9794
160.4326, 164.1964
160.9147, 163.3657
161.3969, 162.9363
161.8790, 164.0871
162.3611, 164.9456
162.8432, 164.2791
163.3253, 161.4211
163.8074, 158.6441
164.2896, 156.9051
164.7717, 155.9742
165.2538, 155.3983
165.7359, 155.2081
166.2180, 155.1538
166.7001, 155.0571
167.1823, 154.8918
167.6644, 154.6625
168.1465, 154.3445
168.6286, 153.9582
169.1107, 153.5629
169.5928, 153.3376
170.0750, 153.0611
170.5571, 152.4514
171.0392, 151.2642
171.5213, 150.0477
172.0034, 149.2966
172.4855, 148.9335
172.9677, 148.6302
173.4498, 148.1991
173.9319, 147.6890
174.4140, 147.1476
174.8961, 146.4797
175.3782, 145.9091
175.8604, 145.7976
176.3425, 146.0862
176.8246, 146.2893
177.3067, 145.8879
177.7888, 145.1438
178.2709, 144.6181
178.7531, 144.6524
179.2352, 144.8430
179.7173, 144.5522
180.1994, 143.7943
180.6815, 142.9123
181.1636, 142.0811
181.6458, 141.3469
182.1279, 140.8841
182.6100, 140.8496
183.0921, 141.0730
183.5742, 141.2789
184.0563, 141.4707
184.5385, 141.5091
185.0206, 141.0958
185.5027, 140.3376
185.9848, 139.7798
186.4669, 139.7477
186.9490, 140.0376
187.4312, 140.0157
187.9133, 139.6540
188.3954, 139.1689
188.8775, 138.8210
189.3596, 138.5938
189.8417, 138.3128
190.3239, 137.8711
190.8060, 137.3095
191.2881, 136.8423
191.7702, 136.4725
192.2523, 136.2068
192.7344, 136.1102
193.2166, 136.1840
193.6987, 136.2071
194.1808, 136.0407
194.6629, 135.7112
195.1450, 135.5538
195.6271, 135.6230
196.1093, 135.7253
196.5914, 135.5296
197.0735, 135.0087
197.5556, 134.5194
198.0377, 134.1563
198.5198, 133.9143
199.0020, 134.0436
199.4841, 134.7065
199.9662, 135.4510
200.4483, 135.4225
200.9304, 134.4791
201.4125, 133.6232
201.8947, 133.3331
202.3768, 133.6525
202.8589, 134.0083
203.3410, 134.4516
203.8231, 134.8623
204.3052, 134.9646
204.7874, 134.6894
205.2695, 134.4068
205.7516, 134.3210
206.2337, 134.4846
206.7158, 134.4556
207.1979, 134.1303
207.6801, 133.7082
208.1622, 133.6292
208.6443, 133.9727
209.1264, 134.4081
209.6085, 134.8197
210.0906, 135.2335
210.5728, 135.4785
211.0549, 135.4611
211.5370, 135.3387
212.0191, 135.4771
212.5012, 135.9385
212.9833, 136.5117
213.4655, 137.1475
213.9476, 137.9369
214.4297, 138.4463
214.9118, 138.5584
215.3939, 138.4434
215.8760, 138.5429
216.3581, 138.9462
216.8403, 139.3775
217.3224, 139.6845
217.8045, 139.7973
218.2866, 140.0092
218.7687, 140.3611
219.2508, 140.7979
219.7330, 141.1550
220.2151, 141.3799
220.6972, 141.6125
221.1793, 141.9022
221.6614, 142.2264
222.1435, 142.6763
222.6257, 143.3088
223.1078, 144.0501
223.5899, 144.7269
224.0720, 145.3721
224.5541, 145.9043
225.0362, 146.2721
225.5184, 146.3694
226.0005, 146.5830
226.4826, 147.0328
226.9647, 147.5789
227.4468, 147.7927
227.9289, 147.4108
228.4111, 147.1067
228.8932, 147.2390
229.3753, 148.1064
229.8574, 148.6903
230.3395, 148.8414
230.8216, 148.7290
231.3038, 148.8468
231.7859, 149.4011
232.2680, 149.8791
232.7501, 150.0023
233.2322, 149.4703
233.7143, 149.2639
234.1965, 149.4819
234.6786, 150.0062
235.1607, 150.5113
235.6428, 150.9536
236.1249, 151.4349
236.6070, 152.0079
237.0892, 152.7296
237.5713, 153.4285
238.0534, 154.2071
238.5355, 154.9340
239.0176, 155.2383
239.4997, 154.8712
239.9819, 154.4413
240.4640, 154.2125
240.9461, 154.2716
241.4282, 154.3254
241.9103, 154.3806
242.3924, 154.4298
242.8746, 154.4417
243.3567, 154.3502
243.8388, 154.3262
244.3209, 154.4826
244.8030, 154.9942
245.2851, 155.2029
245.7673, 154.9492
246.2494, 154.4606
246.7315, 154.2430
247.2136, 154.4612
247.6957, 154.6900
248.1778, 154.7529
248.6600, 154.5672
249.1421, 154.4703
249.6242, 154.5002
250.1063, 154.5973
250.5884, 154.6420
251.0705, 154.5956
251.5527, 154.5590
252.0348, 154.5556
252.5169, 154.5641
252.9990, 154.7007
253.4811, 155.0794
253.9632, 155.5115
254.4454, 155.6136
254.9275, 155.1445
255.4096, 154.8087
255.8917, 154.9159
256.3738, 155.6310
256.8560, 155.9923
257.3381, 155.8153
257.8202, 155.4431
258.3023, 155.4491
258.7844, 156.0777
259.2665, 156.5543
259.7487, 156.6328
260.2308, 156.2723
260.7129, 155.7634
261.1950, 155.0349
261.6771, 154.2377
262.1592, 153.5665
262.6414, 153.0288
263.1235, 152.6235
263.6056, 152.4477
264.0877, 152.5406
264.5698, 152.1776
265.0519, 151.1395
265.5341, 149.9482
266.0162, 149.2583
266.4983, 149.2653
266.9804, 149.1874
267.4625, 148.8150
267.9446, 148.1562
268.4268, 147.4773
268.9089, 146.7717
269.3910, 146.0817
269.8731, 145.4166
270.3552, 144.7443
270.8373, 144.2561
271.3195, 144.0556
271.8016, 144.1035
272.2837, 143.9398
272.7658, 143.4679
273.2479, 142.9957
273.7300, 142.7972
274.2122, 142.8943
274.6943, 143.1302
275.1764, 143.4834
275.6585, 143.9519
276.1406, 144.5755
276.6227, 145.4174
277.1049, 146.2102
277.5870, 146.6119
278.0691, 146.5576
278.5512, 146.9130
279.0333, 147.9517
279.5154, 149.4252
279.9976, 150.3832
280.4797, 150.6994
280.9618, 151.1653
281.4439, 152.4761
281.9260, 154.6360
282.4081, 156.6056
282.8903, 158.0956
283.3724, 159.4933
283.8545, 161.9473
284.3366, 165.5668
284.8187, 169.0936
285.3008, 171.4176
285.7830, 172.6994
286.2651, 174.5958
286.7472, 177.3176
287.2293, 180.6125
287.7114, 184.1771
288.1935, 188.0076
288.6757, 191.7621
289.1578, 195.1875
289.6399, 198.3535
290.1220, 201.3762
290.6041, 204.2141
291.0862, 207.1230
291.5684, 210.4753
292.0505, 214.2635
292.5326, 218.2444
293.0147, 222.4034
293.4968, 226.6751
293.9789, 230.9768
294.4611, 235.2519
294.9432, 239.6470
295.4253, 244.1788
295.9074, 248.9355
296.3895, 254.1590
296.8716, 260.1997
297.3538, 266.7697
297.8359, 273.2994
298.3180, 279.8378
298.8001, 286.4865
299.2822, 293.5070
299.7643, 300.8207
300.2465, 308.1349
300.7286, 315.6443
301.2107, 322.8869
301.6928, 329.4164
302.1749, 335.1767
302.6570, 340.1806
303.1392, 344.7579
303.6213, 348.4973
304.1034, 350.6088
304.5855, 350.9224
305.0676, 349.4991
305.5497, 346.2309
306.0319, 341.2287
306.5140, 334.8917
306.9961, 327.0904
307.4782, 318.3275
307.9603, 308.9425
308.4424, 298.6580
308.9246, 288.5759
309.4067, 279.5994
309.8888, 271.5590
310.3709, 263.8025
310.8530, 256.0211
311.3351, 248.4389
311.8173, 241.2726
312.2994, 234.5004
312.7815, 228.0601
313.2636, 221.8126
313.7457, 215.9321
314.2278, 210.6946
314.7100, 206.3619
315.1921, 202.6728
315.6742, 199.6121
316.1563, 197.2822
316.6384, 194.9678
317.1205, 192.3633
317.6027, 189.6410
318.0848, 187.0324
318.5669, 184.5657
319.0490, 182.2643
319.5311, 180.1149
320.0132, 178.1135
320.4954, 176.3419
320.9775, 174.9394
321.4596, 173.7310
321.9417, 172.5914
322.4238, 171.3620
322.9059, 170.3338
323.3881, 169.6814
323.8702, 169.3721
324.3523, 168.9396
324.8344, 168.2137
325.3165, 167.4171
325.7986, 166.6757
326.2808, 165.9356
326.7629, 165.3292
327.2450, 164.9088
327.7271, 164.6414
328.2092, 164.3935
328.6913, 164.1720
329.1735, 163.9632
329.6556, 163.7446
330.1377, 163.4102
330.6198, 163.2671
331.1019, 163.3723
331.5840, 163.6491
332.0662, 163.9602
332.5483, 164.3128
333.0304, 164.6883
333.5125, 165.0799
333.9946, 165.4993
334.4767, 165.8987
334.9589, 166.3242
335.4410, 166.6783
335.9231, 166.8009
336.4052, 166.5793
336.8873, 166.4236
337.3694, 166.4501
337.8516, 166.6483
338.3336, 166.8385
338.8158, 167.0473
339.2979, 167.1989
339.7800, 167.1930
340.2621, 167.0000
340.7442, 166.8966
341.2263, 167.0072
341.7085, 167.2062
342.1906, 167.0168
342.6727, 166.3874
343.1548, 165.6848
343.6369, 165.1545
344.1190, 164.7884
344.6012, 164.3762
345.0833, 163.8670
345.5654, 163.3594
346.0475, 163.0747
346.5296, 162.9976
347.0117, 162.8857
347.4939, 162.5633
347.9760, 162.1013
348.4581, 161.7295
348.9402, 161.4693
349.4223, 161.2388
349.9044, 160.8163
350.3866, 160.3122
350.8687, 160.1003
351.3508, 160.7025
351.8329, 161.5244
352.3150, 161.5365
352.7971, 160.7586
353.2793, 159.8907
353.7614, 159.3880
354.2435, 159.1680
354.7256, 159.0950
355.2077, 159.1460
355.6898, 159.3076
356.1720, 159.6799
356.6541, 160.1953
357.1362, 160.5649
357.6183, 160.4871
358.1004, 160.2647
358.5826, 160.1865
359.0647, 160.3695
359.5468, 160.5353
360.0289, 160.5068
360.5110, 160.3572
360.9931, 160.2252
361.4753, 159.9667
361.9574, 159.8987
362.4395, 160.2373
362.9216, 161.0568
363.4037, 161.9214
363.8858, 162.9970
364.3680, 163.9392
364.8501, 164.3868
365.3322, 163.6433
365.8143, 163.0317
366.2964, 162.9041
366.7785, 163.2602
367.2607, 163.6680
367.7428, 164.2415
368.2249, 164.7574
368.7070, 165.0765
369.1891, 164.9175
369.6712, 164.9355
370.1534, 165.2417
370.6355, 165.7388
371.1176, 166.1138
371.5997, 166.2137
372.0818, 166.3814
372.5639, 166.7727
373.0461, 167.4776
373.5282, 168.1021
374.0103, 168.6102
374.4924, 169.0781
374.9745, 169.6493
375.4566, 170.4073
375.9388, 171.0150
376.4209, 171.3437
376.9030, 171.4144
377.3851, 171.4132
377.8672, 171.2550
378.3493, 171.3011
378.8315, 172.0699
379.3136, 173.5893
379.7957, 174.7593
380.2778, 175.2914
380.7599, 175.4560
381.2420, 175.9187
381.7242, 176.6715
382.2063, 177.4939
382.6884, 178.2054
383.1705, 178.8586
383.6526, 179.6477
384.1347, 180.6167
384.6169, 181.5961
385.0990, 182.3560
385.5811, 182.9324
386.0632, 183.4108
386.5453, 183.7626
387.0274, 184.0718
387.5096, 184.4382
387.9917, 184.8624
388.4738, 185.3343
388.9559, 185.8854
389.4380, 186.4607
389.9201, 186.9892
390.4023, 187.4119
390.8844, 187.8222
391.3665, 188.3471
391.8486, 188.9346
392.3307, 189.3713
392.8128, 189.3391
393.2950, 189.2612
393.7771, 189.4507
394.2592, 190.0634
394.7413, 190.6457
395.2234, 191.1393
395.7055, 191.4879
396.1877, 191.6050
396.6698, 191.1825
397.1519, 190.8003
397.6340, 190.6859
398.1161, 190.8923
398.5982, 190.9579
399.0804, 190.8955
399.5625, 190.6596
400.0446, 190.2022
400.5267, 189.2144
401.0088, 188.4656
401.4909, 188.0701
401.9731, 187.9716
402.4552, 187.9737
402.9373, 188.1752
403.4194, 188.3194
403.9015, 188.2746
404.3836, 187.9990
404.8658, 187.6727
405.3479, 187.2440
405.8300, 186.8336
406.3121, 186.6963
406.7942, 186.8952
407.2763, 186.8831
407.7585, 186.3434
408.2406, 185.4243
408.7227, 185.0063
409.2048, 185.1207
409.6869, 185.4548
410.1690, 185.8370
410.6512, 186.2300
411.1333, 186.4641
411.6154, 186.4865
412.0975, 186.3765
412.5796, 186.1602
413.0617, 185.8816
413.5439, 185.7484
414.0260, 186.0354
414.5081, 186.4813
414.9902, 186.5822
415.4723, 186.2479
415.9544, 186.1778
416.4366, 187.2881
416.9187, 188.9570
417.4008, 190.2470
417.8829, 190.5040
418.3650, 190.5509
418.8471, 190.8170
419.3293, 191.2826
419.8114, 191.8328
420.2935, 192.4112
420.7756, 193.0607
421.2577, 193.7936
421.7398, 194.6194
422.2220, 195.5370
422.7041, 196.6091
423.1862, 197.7711
423.6683, 198.9086
424.1504, 200.1337
424.6325, 201.2256
425.1147, 202.0767
425.5968, 202.6664
426.0789, 203.3115
426.5610, 204.0228
427.0431, 204.7799
427.5252, 205.5766
428.0074, 206.4820
428.4895, 207.2478
428.9716, 207.7663
429.4537, 208.1414
429.9358, 208.7123
430.4179, 209.5182
430.9001, 210.3676
431.3822, 211.1759
431.8643, 211.9430
432.3464, 212.5762
432.8285, 212.9923
433.3106, 213.5456
433.7928, 214.8871
434.2749, 216.9015
434.7570, 218.5910
435.2391, 219.4785
435.7212, 219.9889
436.2033, 221.0277
436.6855, 222.5335
437.1676, 223.9713
437.6497, 224.7447
438.1318, 225.2675
438.6139, 226.2780
439.0960, 228.0508
439.5782, 229.7396
440.0603, 230.4832
440.5424, 230.6628
441.0245, 230.9820
441.5066, 231.6850
441.9887, 232.6642
442.4709, 234.1004
442.9530, 235.9535
443.4351, 237.3384
443.9172, 237.7344
444.3993, 237.6289
444.8814, 237.3674
445.3636, 237.0704
445.8457, 236.5362
446.3278, 235.6084
446.8099, 234.4258
447.2920, 233.3084
447.7741, 232.3101
448.2563, 231.3238
448.7384, 230.3517
449.2205, 229.3950
449.7026, 228.4098
450.1847, 227.5210
450.6668, 226.4690
451.1490, 224.9561
451.6311, 222.8360
452.1132, 220.8043
452.5953, 218.9308
453.0774, 217.2195
453.5595, 215.6140
454.0417, 214.1190
454.5238, 212.6205
455.0059, 210.9797
455.4880, 209.2563
455.9701, 207.7095
456.4522, 206.3697
456.9344, 205.0973
457.4165, 203.7238
457.8986, 202.2884
458.3807, 200.9463
458.8628, 199.7544
459.3449, 198.6509
459.8271, 197.6243
460.3092, 196.6377
460.7913, 195.5161
461.2734, 193.6105
461.7555, 191.8603
462.2376, 191.2848
462.7198, 192.3416
463.2019, 193.0880
463.6840, 192.3247
464.1661, 190.8376
464.6482, 189.5771
465.1303, 188.7499
465.6125, 188.2133
466.0946, 188.0821
466.5767, 188.2952
467.0588, 188.3266
467.5409, 188.0838
468.0230, 187.7001
468.5052, 187.1974
468.9873, 186.4285
469.4694, 185.9097
469.9515, 185.6633
470.4336, 185.6499
470.9157, 185.9046
471.3979, 186.5905
471.8800, 186.9646
472.3621, 186.7252
472.8442, 186.0371
473.3263, 185.7226
473.8084, 185.8281
474.2906, 185.9453
474.7727, 185.6727
475.2548, 185.1233
475.7369, 184.8597
476.2190, 184.9585
476.7011, 185.2605
477.1833, 185.5963
477.6654, 185.9818
478.1475, 186.4629
478.6296, 187.1718
479.1117, 187.9077
479.5938, 188.4936
480.0760, 188.9338
480.5581, 189.2384
481.0402, 189.2931
481.5223, 189.2931
482.0044, 189.4253
482.4865, 189.8126
482.9687, 190.0885
483.4508, 189.8787
483.9329, 189.5493
484.4150, 189.6231
484.8971, 190.7490
485.3792, 191.6983
485.8614, 192.1564
486.3435, 192.1543
486.8256, 192.0736
487.3077, 191.6749
487.7898, 191.4791
488.2719, 191.8356
488.7541, 192.9821
489.2362, 193.8933
489.7183, 194.5358
490.2004, 194.9790
490.6825, 195.3122
491.1646, 195.5291
491.6468, 195.6931
492.1289, 195.7729
492.6110, 195.8391
493.0931, 196.1201
493.5752, 196.6160
494.0573, 197.1959
494.5395, 197.8301
495.0216, 198.4723
495.5037, 199.0893
495.9858, 199.6958
496.4679, 200.1029
496.9500, 199.9926
497.4322, 199.5827
497.9143, 199.2355
498.3964, 199.1434
498.8785, 199.1110
499.3606, 198.9991
499.8427, 198.8417
500.3249, 198.8021
500.8070, 199.1914
501.2891, 199.5148
501.7712, 199.4456
502.2533, 198.7120
502.7354, 198.2744
503.2176, 198.4124
503.6997, 198.7734
504.1818, 199.0319
504.6639, 199.3011
505.1460, 199.2254
505.6281, 198.6032
506.1103, 197.6138
506.5924, 197.0443
507.0745, 197.0298
507.5566, 196.9500
508.0387, 196.3426
508.5208, 195.2544
509.0030, 194.7462
509.4851, 194.9063
509.9672, 195.1528
510.4493, 194.7789
510.9314, 193.9641
511.4135, 193.3389
511.8957, 193.1740
512.3778, 193.0872
512.8599, 192.5459
513.3420, 191.7043
513.8242, 191.0107
514.3063, 190.7998
514.7884, 190.7491
515.2705, 190.6490
515.7526, 190.4860
516.2347, 190.2349
516.7169, 189.7692
517.1990, 189.2773
517.6811, 188.9029
518.1632, 188.7614
518.6453, 188.6070
519.1274, 188.3131
519.6096, 188.0059
520.0917, 187.9498
520.5738, 188.3954
521.0559, 188.6670
521.5380, 188.5281
522.0201, 188.0108
522.5023, 187.7006
522.9844, 187.6618
523.4665, 187.6490
523.9486, 187.4246
524.4307, 187.0075
524.9128, 186.8288
525.3950, 186.9514
525.8771, 187.2193
526.3592, 187.5203
526.8413, 187.8104
527.3234, 187.9396
527.8055, 187.8166
528.2877, 187.5357
528.7698, 187.1838
529.2519, 186.7632
529.7340, 186.2733
530.2161, 185.4291
530.6982, 184.7108
531.1804, 184.6013
531.6625, 185.2982
532.1446, 185.7617
532.6267, 185.4358
533.1088, 184.8276
533.5909, 184.4100
534.0731, 184.5671
534.5552, 184.5119
535.0373, 184.0376
535.5194, 183.3405
536.0015, 182.9087
536.4836, 182.8754
536.9658, 182.8345
537.4479, 182.5820
537.9300, 182.1394
538.4121, 182.0951
538.8942, 182.5265
539.3763, 183.0233
539.8585, 183.2527
540.3406, 183.2437
540.8227, 183.1272
541.3048, 182.8764
541.7869, 182.6741
542.2690, 182.9063
542.7512, 183.3729
543.2333, 183.5673
543.7154, 182.8643
544.1975, 182.1512
544.6796, 182.3103
545.1617, 183.1495
545.6439, 183.8155
546.1260, 183.6021
546.6081, 183.3418
547.0902, 183.5857
547.5723, 184.5480
548.0544, 185.3496
548.5366, 185.6449
549.0187, 185.8630
549.5008, 186.4115
549.9829, 187.6970
550.4650, 188.5728
550.9471, 188.8920
551.4293, 188.7762
551.9114, 188.4142
552.3935, 187.7116
552.8756, 187.2155
553.3577, 187.0980
553.8398, 187.3559
554.3220, 188.1964
554.8041, 189.6505
555.2862, 190.8488
555.7683, 190.9117
556.2504, 190.2788
556.7325, 189.7742
557.2147, 189.4790
557.6968, 189.4642
558.1789, 190.0656
558.6610, 190.9192
559.1431, 191.4825
559.6252, 191.1502
560.1074, 190.9101
560.5895, 191.3184
561.0716, 192.1606
561.5537, 192.7115
562.0358, 192.5226
562.5179, 192.3192
563.0001, 192.3844
563.4822, 192.7549
563.9643, 192.9993
564.4464, 193.0866
564.9285, 193.0932
565.4106, 193.0281
565.8928, 192.8504
566.3749, 192.9157
566.8570, 193.3161
567.3391, 193.8281
567.8212, 194.1706
568.3033, 194.3419
568.7855, 194.2789
569.2676, 193.8020
569.7497, 193.2408
570.2318, 193.2542
570.7139, 193.6796
571.1960, 193.8058
571.6782, 192.7477
572.1603, 191.5298
572.6424, 191.1044
573.1245, 191.6008
573.6066, 191.9896
574.0887, 191.7967
574.5709, 191.3876
575.0530, 191.0504
575.5351, 190.9752
576.0172, 190.7411
576.4993, 190.2272
576.9814, 189.6031
577.4636, 189.1897
577.9457, 189.1487
578.4278, 188.8600
578.9099, 188.0390
579.3920, 186.9113
579.8741, 186.4785
580.3563, 186.8036
580.8384, 186.9849
581.3205, 186.2480
581.8026, 184.9573
582.2847, 184.2632
582.7668, 184.2042
583.2490, 184.2285
583.7311, 183.7991
584.2132, 183.2057
584.6953, 182.8585
585.1774, 183.0002
585.6595, 183.0527
586.1416, 182.6100
586.6237, 181.9151
587.1058, 181.3295
587.5880, 181.2203
588.0701, 180.9202
588.5522, 180.0442
589.0343, 178.7870
589.5164, 178.0650
589.9985, 178.0369
