##NAMES=Staurolite
##RRUFFID=R050079
##IDEAL CHEMISTRY=Fe^2+^_2_Al_9_Si_4_O_23_(OH)
##LOCALITY=Keivy, Kola Peninsula, Russia
##OWNER=RRUFF
##SOURCE=Rock Currier
##DESCRIPTION=Brown cruciform twins
##STATUS=The identification of this mineral has been confirmed by X-ray diffraction and chemical analysis
##URL=rruff.info/R050079
##MEASURED CHEMISTRY=(Fe^2+^_0.77_Mg_0.23_)_2_(Al_0.99_Ti_0.01_)_9_(Si_0.99_Al_0.01_)_4_O_20_(O_0.76_(OH)_0.24_)_4_
124.5917, 320.9067
125.0739, 346.0121
125.5560, 371.4665
126.0381, 398.1563
126.5202, 428.6867
127.0023, 464.7831
127.4844, 503.6569
127.9666, 541.6892
128.4487, 578.8693
128.9308, 614.5067
129.4129, 645.5836
129.8950, 673.5799
130.3772, 704.6161
130.8593, 742.6054
131.3414, 785.1263
131.8235, 822.5087
132.3056, 853.2167
132.7877, 883.9082
133.2699, 923.1611
133.7520, 971.4582
134.2341, 1021.743
134.7162, 1070.983
135.1983, 1119.382
135.6804, 1170.167
136.1626, 1223.360
136.6447, 1278.092
137.1268, 1332.035
137.6089, 1383.926
138.0910, 1438.101
138.5731, 1497.524
139.0553, 1565.652
139.5374, 1626.505
140.0195, 1679.989
140.5016, 1725.270
140.9837, 1755.294
141.4658, 1763.751
141.9480, 1767.341
142.4301, 1779.485
142.9122, 1812.106
143.3943, 1827.596
143.8764, 1817.986
144.3585, 1783.873
144.8407, 1749.341
145.3228, 1718.144
145.8049, 1683.874
146.2870, 1640.312
146.7691, 1580.104
147.2512, 1520.965
147.7334, 1466.274
148.2155, 1415.753
148.6976, 1368.643
149.1797, 1323.256
149.6618, 1281.688
150.1439, 1247.050
150.6261, 1227.699
151.1082, 1208.176
151.5903, 1183.264
152.0724, 1146.101
152.5545, 1118.877
153.0366, 1109.807
153.5188, 1111.663
154.0009, 1110.242
154.4830, 1102.411
154.9651, 1091.717
155.4472, 1079.415
155.9293, 1063.731
156.4115, 1049.394
156.8936, 1037.502
157.3757, 1027.694
157.8578, 1018.504
158.3399, 1008.381
158.8221, 999.4122
159.3042, 992.8793
159.7863, 994.2082
160.2684, 993.0201
160.7505, 982.9791
161.2326, 965.4824
161.7148, 952.0566
162.1969, 950.8071
162.6790, 954.6924
163.1611, 956.9138
163.6432, 952.5653
164.1253, 948.1108
164.6075, 947.0618
165.0896, 949.5471
165.5717, 953.1005
166.0538, 956.6849
166.5359, 960.4200
167.0180, 964.4789
167.5002, 970.7977
167.9823, 976.3442
168.4644, 978.1437
168.9465, 975.4922
169.4286, 972.4836
169.9107, 974.0932
170.3929, 977.6400
170.8750, 977.5088
171.3571, 962.6111
171.8392, 946.1288
172.3213, 944.4896
172.8034, 963.2285
173.2856, 985.3624
173.7677, 996.7769
174.2498, 998.8292
174.7319, 996.0677
175.2140, 986.2474
175.6961, 974.5127
176.1783, 969.5950
176.6604, 975.3184
177.1425, 984.3597
177.6246, 985.8696
178.1067, 981.3009
178.5888, 980.2302
179.0710, 996.7812
179.5531, 1021.924
180.0352, 1033.930
180.5173, 1021.444
180.9994, 999.6365
181.4815, 993.6677
181.9637, 1003.146
182.4458, 1017.389
182.9279, 1029.960
183.4100, 1040.439
183.8921, 1047.236
184.3742, 1047.939
184.8564, 1045.542
185.3385, 1047.456
185.8206, 1053.977
186.3027, 1061.405
186.7848, 1066.283
187.2669, 1068.791
187.7491, 1070.306
188.2312, 1068.582
188.7133, 1066.098
189.1954, 1074.575
189.6775, 1095.986
190.1596, 1119.311
190.6418, 1129.497
191.1239, 1126.843
191.6060, 1125.787
192.0881, 1134.546
192.5702, 1151.474
193.0524, 1161.299
193.5345, 1162.639
194.0166, 1160.431
194.4987, 1161.496
194.9808, 1165.900
195.4629, 1172.585
195.9451, 1182.980
196.4272, 1197.058
196.9093, 1204.573
197.3914, 1203.052
197.8735, 1198.354
198.3556, 1201.910
198.8378, 1214.597
199.3199, 1229.742
199.8020, 1244.886
200.2841, 1260.105
200.7662, 1272.010
201.2483, 1279.747
201.7305, 1284.661
202.2126, 1290.059
202.6947, 1296.190
203.1768, 1301.883
203.6589, 1306.512
204.1410, 1310.019
204.6232, 1312.715
205.1053, 1314.960
205.5874, 1316.265
206.0695, 1314.933
206.5516, 1310.717
207.0337, 1304.510
207.5159, 1296.017
207.9980, 1284.452
208.4801, 1274.950
208.9622, 1267.738
209.4443, 1263.083
209.9264, 1263.444
210.4086, 1271.510
210.8907, 1279.211
211.3728, 1279.632
211.8549, 1270.515
212.3370, 1261.923
212.8191, 1255.742
213.3013, 1251.521
213.7834, 1244.453
214.2655, 1232.802
214.7476, 1221.058
215.2297, 1212.980
215.7118, 1208.689
216.1940, 1207.927
216.6761, 1212.704
217.1582, 1222.512
217.6403, 1224.710
218.1224, 1216.695
218.6045, 1204.537
219.0867, 1193.310
219.5688, 1182.078
220.0509, 1174.268
220.5330, 1171.194
221.0151, 1172.892
221.4972, 1176.122
221.9794, 1183.424
222.4615, 1189.466
222.9436, 1187.980
223.4257, 1175.337
223.9078, 1162.303
224.3899, 1150.123
224.8721, 1138.155
225.3542, 1133.833
225.8363, 1140.626
226.3184, 1151.729
226.8005, 1159.287
227.2827, 1162.090
227.7648, 1163.539
228.2469, 1164.594
228.7290, 1165.470
229.2111, 1163.767
229.6932, 1156.415
230.1754, 1148.987
230.6575, 1149.465
231.1396, 1162.745
231.6217, 1175.313
232.1038, 1183.507
232.5859, 1186.706
233.0681, 1188.783
233.5502, 1189.422
234.0323, 1189.168
234.5144, 1189.095
234.9965, 1190.779
235.4786, 1189.854
235.9608, 1183.610
236.4429, 1169.667
236.9250, 1162.135
237.4071, 1163.928
237.8892, 1170.397
238.3713, 1173.917
238.8535, 1171.719
239.3356, 1171.286
239.8177, 1176.232
240.2998, 1189.674
240.7819, 1195.834
241.2640, 1190.016
241.7462, 1179.748
242.2283, 1178.754
242.7104, 1193.467
243.1925, 1206.841
243.6746, 1212.417
244.1567, 1206.742
244.6389, 1205.370
245.1210, 1210.473
245.6031, 1218.572
246.0852, 1223.779
246.5673, 1226.269
247.0494, 1225.493
247.5316, 1219.953
248.0137, 1206.388
248.4958, 1199.296
248.9779, 1200.528
249.4600, 1207.253
249.9421, 1214.608
250.4243, 1223.667
250.9064, 1231.515
251.3885, 1236.668
251.8706, 1237.835
252.3527, 1241.008
252.8348, 1247.972
253.3170, 1255.834
253.7991, 1258.577
254.2812, 1253.658
254.7633, 1248.420
255.2454, 1245.208
255.7275, 1243.831
256.2097, 1245.575
256.6918, 1251.693
257.1739, 1260.047
257.6560, 1266.978
258.1381, 1272.648
258.6202, 1276.553
259.1024, 1278.117
259.5845, 1276.525
260.0666, 1275.969
260.5487, 1276.833
261.0308, 1278.442
261.5129, 1278.743
261.9951, 1275.503
262.4772, 1276.374
262.9593, 1286.737
263.4414, 1310.828
263.9235, 1324.335
264.4056, 1325.554
264.8878, 1317.865
265.3699, 1305.847
265.8520, 1287.197
266.3341, 1270.500
266.8162, 1259.240
267.2983, 1254.269
267.7805, 1250.445
268.2626, 1249.087
268.7447, 1247.424
269.2268, 1239.181
269.7089, 1221.736
270.1910, 1207.149
270.6732, 1200.376
271.1553, 1202.128
271.6374, 1205.550
272.1195, 1210.996
272.6016, 1217.603
273.0837, 1225.263
273.5659, 1235.276
274.0480, 1239.861
274.5301, 1232.106
275.0122, 1211.210
275.4943, 1204.488
275.9764, 1215.723
276.4586, 1234.021
276.9407, 1242.915
277.4228, 1241.324
277.9049, 1238.869
278.3870, 1238.407
278.8691, 1239.975
279.3513, 1244.543
279.8334, 1252.315
280.3155, 1262.569
280.7976, 1275.009
281.2798, 1289.619
281.7619, 1304.400
282.2440, 1319.975
282.7261, 1335.634
283.2082, 1344.476
283.6903, 1345.027
284.1725, 1344.188
284.6546, 1350.266
285.1367, 1363.059
285.6188, 1378.612
286.1009, 1394.689
286.5830, 1412.309
287.0652, 1437.386
287.5473, 1470.611
288.0294, 1505.775
288.5115, 1535.163
288.9936, 1559.693
289.4757, 1585.481
289.9579, 1613.355
290.4400, 1644.356
290.9221, 1683.114
291.4042, 1729.956
291.8863, 1780.472
292.3684, 1831.222
292.8506, 1882.096
293.3327, 1933.423
293.8148, 1986.667
294.2969, 2039.979
294.7790, 2087.816
295.2611, 2130.385
295.7433, 2178.251
296.2254, 2248.058
296.7075, 2332.307
297.1896, 2406.453
297.6717, 2458.630
298.1538, 2503.209
298.6360, 2559.689
299.1181, 2628.129
299.6002, 2703.065
300.0823, 2788.532
300.5644, 2877.353
301.0465, 2956.658
301.5287, 3021.988
302.0108, 3077.769
302.4929, 3129.163
302.9750, 3175.598
303.4571, 3210.893
303.9392, 3230.684
304.4214, 3237.291
304.9035, 3235.381
305.3856, 3230.850
305.8677, 3210.207
306.3498, 3153.802
306.8319, 3069.241
307.3141, 2981.829
307.7962, 2909.435
308.2783, 2841.230
308.7604, 2763.848
309.2425, 2671.001
309.7246, 2580.202
310.2068, 2500.705
310.6889, 2431.519
311.1710, 2369.042
311.6531, 2317.721
312.1352, 2268.565
312.6173, 2213.640
313.0995, 2148.285
313.5816, 2088.937
314.0637, 2045.661
314.5458, 2013.368
315.0279, 1982.052
315.5100, 1942.972
315.9922, 1907.563
316.4743, 1883.609
316.9564, 1874.909
317.4385, 1865.593
317.9206, 1848.692
318.4027, 1828.436
318.8849, 1810.740
319.3670, 1796.758
319.8491, 1785.981
320.3312, 1779.121
320.8133, 1776.931
321.2954, 1774.156
321.7776, 1769.861
322.2597, 1764.431
322.7418, 1758.274
323.2239, 1750.319
323.7060, 1742.769
324.1881, 1735.383
324.6703, 1727.926
325.1524, 1723.765
325.6345, 1728.538
326.1166, 1733.884
326.5987, 1733.016
327.0808, 1715.115
327.5630, 1703.733
328.0451, 1703.852
328.5272, 1714.872
329.0093, 1723.811
329.4914, 1729.575
329.9735, 1734.061
330.4557, 1738.474
330.9378, 1743.380
331.4199, 1747.357
331.9020, 1751.217
332.3841, 1754.240
332.8662, 1751.730
333.3484, 1738.115
333.8305, 1727.459
334.3126, 1729.153
334.7947, 1749.276
335.2768, 1762.894
335.7589, 1767.990
336.2411, 1766.313
336.7232, 1759.800
337.2053, 1744.401
337.6874, 1736.187
338.1695, 1746.754
338.6516, 1779.347
339.1338, 1800.899
339.6159, 1808.564
340.0980, 1808.410
340.5801, 1811.370
341.0622, 1818.332
341.5443, 1820.093
342.0265, 1806.950
342.5086, 1782.107
342.9907, 1777.678
343.4728, 1796.997
343.9549, 1823.822
344.4370, 1837.711
344.9192, 1839.903
345.4013, 1842.760
345.8834, 1851.062
346.3655, 1862.930
346.8476, 1873.029
347.3297, 1881.257
347.8119, 1889.485
348.2940, 1897.524
348.7761, 1906.681
349.2582, 1921.222
349.7403, 1946.376
350.2225, 1973.695
350.7046, 1991.658
351.1867, 2000.919
351.6688, 2005.263
352.1509, 1998.519
352.6331, 1990.903
353.1152, 2000.416
353.5973, 2039.814
354.0794, 2080.728
354.5615, 2098.660
355.0436, 2097.451
355.5258, 2088.786
356.0079, 2075.694
356.4900, 2059.833
356.9721, 2042.253
357.4542, 2022.632
357.9363, 2002.939
358.4185, 1979.960
358.9006, 1958.109
359.3827, 1945.027
359.8648, 1953.729
360.3469, 1964.014
360.8290, 1964.750
361.3112, 1953.761
361.7933, 1942.086
362.2754, 1932.079
362.7575, 1923.560
363.2396, 1916.299
363.7217, 1913.477
364.2039, 1908.780
364.6860, 1897.788
365.1681, 1880.349
365.6502, 1870.253
366.1323, 1877.319
366.6144, 1887.124
367.0966, 1889.693
367.5787, 1875.561
368.0608, 1865.436
368.5429, 1862.951
369.0250, 1866.222
369.5071, 1865.467
369.9893, 1857.306
370.4714, 1849.065
370.9535, 1844.969
371.4356, 1849.607
371.9177, 1847.747
372.3998, 1837.079
372.8820, 1820.840
373.3641, 1805.366
373.8462, 1789.188
374.3283, 1777.711
374.8104, 1774.697
375.2925, 1781.099
375.7747, 1784.771
376.2568, 1785.942
376.7389, 1783.999
377.2210, 1777.070
377.7031, 1764.792
378.1852, 1752.547
378.6674, 1740.275
379.1495, 1729.411
379.6316, 1727.295
380.1137, 1734.710
380.5958, 1743.947
381.0779, 1747.276
381.5601, 1745.963
382.0422, 1745.881
382.5243, 1748.016
383.0064, 1752.456
383.4885, 1760.999
383.9706, 1773.026
384.4528, 1783.386
384.9349, 1786.552
385.4170, 1786.345
385.8991, 1789.411
386.3812, 1797.356
386.8633, 1806.726
387.3455, 1816.572
387.8276, 1825.482
388.3097, 1830.338
388.7918, 1826.702
389.2739, 1820.117
389.7560, 1813.130
390.2382, 1805.435
390.7203, 1803.526
391.2024, 1813.982
391.6845, 1831.062
392.1666, 1848.318
392.6487, 1867.383
393.1309, 1882.611
393.6130, 1892.232
394.0951, 1896.231
394.5772, 1894.175
395.0593, 1878.932
395.5414, 1862.040
396.0236, 1850.858
396.5057, 1848.645
396.9878, 1849.492
397.4699, 1854.966
397.9520, 1863.439
398.4341, 1869.645
398.9163, 1870.053
399.3984, 1871.869
399.8805, 1878.248
400.3626, 1891.718
400.8447, 1902.373
401.3268, 1910.479
401.8090, 1915.552
402.2911, 1916.874
402.7732, 1913.961
403.2553, 1908.311
403.7374, 1898.860
404.2195, 1886.063
404.7017, 1879.917
405.1838, 1883.366
405.6659, 1885.414
406.1480, 1872.428
406.6301, 1844.005
407.1122, 1824.973
407.5944, 1822.555
408.0765, 1829.206
408.5586, 1826.472
409.0407, 1814.522
409.5228, 1802.188
410.0049, 1794.590
410.4871, 1791.193
410.9692, 1790.884
411.4513, 1793.955
411.9334, 1798.526
412.4155, 1803.572
412.8976, 1808.603
413.3798, 1812.053
413.8619, 1810.074
414.3440, 1808.043
414.8261, 1811.780
415.3082, 1821.440
415.7903, 1833.660
416.2725, 1845.287
416.7546, 1858.664
417.2367, 1877.112
417.7188, 1911.137
418.2009, 1939.510
418.6830, 1946.183
419.1652, 1937.366
419.6473, 1935.580
420.1294, 1955.641
420.6115, 1979.343
421.0937, 1996.588
421.5758, 2001.416
422.0579, 2009.088
422.5400, 2021.907
423.0221, 2038.672
423.5042, 2057.839
423.9864, 2085.453
424.4685, 2108.382
424.9506, 2123.276
425.4327, 2129.418
425.9148, 2133.603
426.3969, 2132.851
426.8791, 2133.525
427.3612, 2141.715
427.8433, 2159.744
428.3254, 2178.174
428.8075, 2196.609
429.2896, 2214.170
429.7718, 2227.065
430.2539, 2234.753
430.7360, 2240.881
431.2181, 2248.906
431.7002, 2258.303
432.1823, 2258.514
432.6645, 2245.940
433.1466, 2234.458
433.6287, 2249.071
434.1108, 2284.191
434.5929, 2311.877
435.0750, 2313.542
435.5572, 2303.407
436.0393, 2305.521
436.5214, 2319.602
437.0035, 2339.706
437.4856, 2365.420
437.9677, 2392.853
438.4499, 2416.310
438.9320, 2433.356
439.4141, 2447.780
439.8962, 2460.896
440.3783, 2473.291
440.8604, 2486.872
441.3426, 2506.275
441.8247, 2524.035
442.3068, 2534.834
442.7889, 2536.451
443.2710, 2539.082
443.7531, 2545.656
444.2353, 2554.531
444.7174, 2564.007
445.1995, 2575.052
445.6816, 2585.237
446.1637, 2594.075
446.6458, 2601.580
447.1280, 2608.657
447.6101, 2615.445
448.0922, 2621.678
448.5743, 2627.960
449.0564, 2637.295
449.5385, 2637.558
450.0207, 2623.819
450.5028, 2605.115
450.9849, 2599.101
451.4670, 2607.597
451.9491, 2619.772
452.4312, 2631.418
452.9134, 2643.068
453.3955, 2660.622
453.8776, 2684.839
454.3597, 2709.074
454.8418, 2724.186
455.3239, 2732.954
455.8061, 2745.376
456.2882, 2761.726
456.7703, 2786.151
457.2524, 2826.352
457.7345, 2880.264
458.2166, 2940.710
458.6988, 3006.124
459.1809, 3074.024
459.6630, 3139.314
460.1451, 3201.184
460.6272, 3267.699
461.1093, 3349.076
461.5915, 3436.234
462.0736, 3516.262
462.5557, 3594.734
463.0378, 3655.883
463.5199, 3695.530
464.0020, 3713.087
464.4842, 3705.852
464.9663, 3666.718
465.4484, 3607.132
465.9305, 3532.024
466.4126, 3432.257
466.8947, 3332.080
467.3769, 3233.011
467.8590, 3133.305
468.3411, 3025.884
468.8232, 2898.260
469.3053, 2789.322
469.7874, 2711.901
470.2696, 2664.378
470.7517, 2616.259
471.2338, 2565.872
471.7159, 2520.358
472.1980, 2489.742
472.6801, 2473.456
473.1623, 2450.961
473.6444, 2417.078
474.1265, 2379.893
474.6086, 2353.111
475.0907, 2335.778
475.5728, 2321.720
476.0550, 2305.469
476.5371, 2291.146
477.0192, 2287.919
477.5013, 2296.195
477.9834, 2304.644
478.4655, 2304.073
478.9477, 2298.559
479.4298, 2293.086
479.9119, 2285.137
480.3940, 2282.546
480.8761, 2296.474
481.3582, 2319.993
481.8404, 2332.964
482.3225, 2315.479
482.8046, 2296.955
483.2867, 2292.062
483.7688, 2307.057
484.2509, 2318.256
484.7331, 2319.531
485.2152, 2318.250
485.6973, 2320.937
486.1794, 2326.120
486.6615, 2338.617
487.1436, 2364.143
487.6258, 2397.809
488.1079, 2413.892
488.5900, 2405.688
489.0721, 2398.163
489.5542, 2408.078
490.0363, 2435.686
490.5185, 2452.216
491.0006, 2454.654
491.4827, 2453.157
491.9648, 2463.698
492.4470, 2483.302
492.9291, 2494.635
493.4112, 2485.431
493.8933, 2470.054
494.3754, 2472.886
494.8575, 2491.402
495.3397, 2509.540
495.8218, 2515.801
496.3039, 2516.806
496.7860, 2519.396
497.2681, 2524.676
497.7502, 2531.411
498.2324, 2541.036
498.7145, 2551.163
499.1966, 2558.729
499.6787, 2565.652
500.1608, 2566.919
500.6429, 2559.880
501.1251, 2544.878
501.6072, 2527.606
502.0893, 2496.032
502.5714, 2473.054
503.0535, 2471.993
503.5356, 2509.571
504.0178, 2528.241
504.4999, 2521.263
504.9820, 2501.265
505.4641, 2487.365
505.9462, 2481.165
506.4283, 2472.404
506.9105, 2455.430
507.3926, 2434.344
507.8747, 2427.006
508.3568, 2433.969
508.8389, 2444.482
509.3210, 2453.435
509.8032, 2459.836
510.2853, 2460.586
510.7674, 2454.730
511.2495, 2445.660
511.7316, 2434.403
512.2137, 2422.585
512.6959, 2413.671
513.1780, 2406.599
513.6601, 2404.860
514.1422, 2417.453
514.6243, 2440.954
515.1064, 2452.410
515.5886, 2424.403
516.0707, 2394.461
516.5528, 2387.271
517.0349, 2419.921
517.5170, 2445.887
517.9991, 2462.169
518.4813, 2468.734
518.9634, 2462.814
519.4455, 2426.836
519.9276, 2409.571
520.4097, 2428.692
520.8918, 2476.451
521.3740, 2502.984
521.8561, 2504.498
522.3382, 2497.335
522.8203, 2489.291
523.3024, 2480.695
523.7845, 2475.963
524.2667, 2475.299
524.7488, 2478.712
525.2309, 2490.817
525.7130, 2507.977
526.1951, 2516.962
526.6772, 2508.234
527.1594, 2493.964
527.6415, 2488.291
528.1236, 2489.718
528.6057, 2491.561
529.0878, 2495.852
529.5699, 2495.258
530.0521, 2482.208
530.5342, 2452.570
531.0163, 2424.586
531.4984, 2404.858
531.9805, 2389.148
532.4626, 2372.844
532.9448, 2353.888
533.4269, 2336.125
533.9090, 2320.855
534.3911, 2307.187
534.8732, 2292.009
535.3553, 2273.724
535.8375, 2256.712
536.3196, 2245.802
536.8017, 2241.786
537.2838, 2220.635
537.7659, 2177.025
538.2480, 2133.187
538.7302, 2118.359
539.2123, 2127.571
539.6944, 2126.473
540.1765, 2104.601
540.6586, 2074.755
541.1407, 2051.622
541.6229, 2034.866
542.1050, 2022.818
542.5871, 2020.094
543.0692, 2018.050
543.5513, 2006.222
544.0334, 1984.320
544.5156, 1967.522
544.9977, 1967.074
545.4798, 1972.280
545.9619, 1974.935
546.4440, 1974.186
546.9261, 1969.803
547.4083, 1955.846
547.8904, 1939.388
548.3725, 1933.909
548.8546, 1947.709
549.3367, 1958.782
549.8188, 1961.435
550.3010, 1956.309
550.7831, 1950.727
551.2652, 1944.686
551.7473, 1938.159
552.2294, 1928.095
552.7115, 1915.732
553.1937, 1916.260
553.6758, 1932.970
554.1579, 1953.892
554.6400, 1964.419
555.1221, 1967.175
555.6042, 1969.578
556.0864, 1975.554
556.5685, 1981.099
557.0506, 1980.598
557.5327, 1975.874
558.0148, 1973.725
558.4969, 1980.161
558.9791, 1988.176
559.4612, 1992.747
559.9433, 1992.097
560.4254, 1994.493
560.9075, 2002.612
561.3896, 2013.806
561.8718, 2025.952
562.3539, 2041.242
562.8360, 2053.850
563.3181, 2063.486
563.8002, 2070.006
564.2823, 2072.684
564.7645, 2070.926
565.2466, 2067.767
565.7287, 2063.299
566.2108, 2058.331
566.6929, 2057.585
567.1750, 2061.207
567.6572, 2065.895
568.1393, 2069.640
568.6214, 2072.294
569.1035, 2072.897
569.5856, 2070.691
570.0677, 2068.984
570.5499, 2071.387
571.0320, 2075.915
571.5141, 2079.430
571.9962, 2083.817
572.4783, 2083.968
572.9604, 2072.367
573.4426, 2052.701
573.9247, 2043.610
574.4068, 2066.171
574.8889, 2083.217
575.3710, 2077.899
575.8531, 2044.131
576.3353, 2020.337
576.8174, 2008.085
577.2995, 2003.825
577.7816, 2006.771
578.2637, 2018.079
578.7458, 2023.732
579.2280, 2021.050
579.7101, 2013.054
580.1922, 2002.988
580.6743, 1991.567
581.1564, 1982.824
581.6385, 1982.588
582.1207, 1983.957
582.6028, 1978.143
583.0849, 1965.583
583.5670, 1949.381
584.0491, 1920.099
584.5313, 1895.126
585.0134, 1891.540
585.4955, 1920.880
585.9776, 1941.971
586.4597, 1939.333
586.9418, 1925.063
587.4240, 1912.768
587.9061, 1904.521
588.3882, 1895.551
588.8703, 1883.387
589.3524, 1870.705
589.8345, 1866.665
590.3167, 1873.701
590.7988, 1880.148
591.2809, 1881.839
591.7630, 1878.869
592.2451, 1869.489
592.7272, 1853.409
593.2094, 1838.063
593.6915, 1830.495
594.1736, 1827.889
594.6557, 1824.108
595.1378, 1817.227
595.6199, 1813.508
596.1021, 1822.138
596.5842, 1835.742
597.0663, 1843.829
597.5485, 1837.830
598.0306, 1831.000
598.5127, 1827.672
598.9948, 1827.029
599.4769, 1825.204
599.9590, 1820.260
600.4412, 1816.148
600.9233, 1814.686
601.4054, 1816.173
601.8875, 1815.008
602.3696, 1809.978
602.8517, 1805.304
603.3339, 1807.171
603.8160, 1814.596
604.2981, 1811.724
604.7802, 1794.111
605.2623, 1775.505
605.7444, 1776.951
606.2266, 1792.019
606.7087, 1803.382
607.1908, 1803.295
607.6729, 1798.684
608.1550, 1795.487
608.6371, 1792.448
609.1193, 1785.366
609.6014, 1767.252
610.0835, 1749.270
610.5656, 1736.810
611.0477, 1730.590
611.5298, 1727.153
612.0120, 1728.815
612.4941, 1730.747
612.9762, 1729.557
613.4583, 1724.194
613.9404, 1718.841
614.4225, 1712.246
614.9047, 1708.282
615.3868, 1717.343
615.8689, 1737.795
616.3510, 1746.157
616.8331, 1731.448
617.3152, 1706.637
617.7974, 1685.981
618.2795, 1671.158
618.7616, 1667.344
619.2437, 1692.475
619.7258, 1718.499
620.2079, 1720.281
