##NAMES=Staurolite
##RRUFFID=R080120
##IDEAL CHEMISTRY=Fe^2+^_2_Al_9_Si_4_O_23_(OH)
##LOCALITY=Bahia, Brazil
##OWNER=RRUFF
##SOURCE=Shinichi Kihara
##DESCRIPTION=Brown cruciform twins
##STATUS=The identification of this mineral has been confirmed by single-crystal X-ray diffraction.
##URL=rruff.info/R080120
93.78320, 97.62463
94.26532, 98.91347
94.74744, 99.20602
95.22955, 98.24577
95.71167, 96.94005
96.19379, 96.21796
96.67590, 96.50766
97.15802, 96.61484
97.64014, 96.41624
98.12225, 95.93022
98.60437, 95.13950
99.08649, 93.96972
99.56860, 92.67527
100.0507, 91.56763
100.5328, 90.43414
101.0150, 89.55952
101.4971, 89.21591
101.9792, 89.41101
102.4613, 89.79895
102.9434, 90.48413
103.4255, 91.17907
103.9077, 91.66901
104.3898, 91.88245
104.8719, 91.89297
105.3540, 91.87870
105.8361, 92.01958
106.3182, 91.76933
106.8004, 90.86840
107.2825, 89.61384
107.7646, 88.31568
108.2467, 87.14461
108.7288, 86.09856
109.2109, 85.21335
109.6931, 84.39149
110.1752, 83.80630
110.6573, 83.55673
111.1394, 83.59538
111.6215, 83.82467
112.1036, 84.19941
112.5858, 84.76354
113.0679, 85.00500
113.5500, 84.66438
114.0321, 84.21211
114.5142, 83.93999
114.9964, 83.89479
115.4785, 84.04914
115.9606, 84.56420
116.4427, 85.41940
116.9248, 85.83139
117.4069, 85.25710
117.8891, 84.13646
118.3712, 83.38653
118.8533, 83.28044
119.3354, 83.45936
119.8175, 83.58273
120.2996, 83.65458
120.7818, 83.70730
121.2639, 83.79661
121.7460, 83.92793
122.2281, 83.93764
122.7102, 83.62208
123.1923, 83.28715
123.6745, 83.09961
124.1566, 83.08550
124.6387, 83.15160
125.1208, 83.14922
125.6029, 82.98436
126.0850, 82.95970
126.5672, 83.25746
127.0493, 83.59274
127.5314, 83.72775
128.0135, 83.56982
128.4956, 83.20307
128.9777, 82.85654
129.4599, 82.50708
129.9420, 82.21304
130.4241, 81.96221
130.9062, 81.77199
131.3883, 81.66430
131.8705, 81.65019
132.3526, 81.73161
132.8347, 81.91553
133.3168, 82.33070
133.7989, 82.69905
134.2810, 82.83356
134.7632, 82.78407
135.2453, 82.82528
135.7274, 83.20771
136.2095, 83.81345
136.6916, 84.20152
137.1737, 84.14346
137.6559, 83.98485
138.1380, 84.20394
138.6201, 84.93204
139.1022, 85.41032
139.5843, 84.70911
140.0664, 83.48862
140.5486, 82.72171
141.0307, 83.04196
141.5128, 84.06327
141.9949, 84.63329
142.4770, 84.52845
142.9591, 84.26443
143.4413, 83.99975
143.9234, 83.76198
144.4055, 83.59102
144.8876, 83.52237
145.3697, 83.55640
145.8518, 83.62315
146.3340, 83.87617
146.8161, 84.02342
147.2982, 83.94360
147.7803, 83.66578
148.2624, 83.28688
148.7445, 82.87123
149.2267, 82.35101
149.7088, 82.12183
150.1909, 82.57803
150.6730, 82.95154
151.1551, 82.65866
151.6372, 81.69421
152.1194, 80.63301
152.6015, 80.20417
153.0836, 80.77039
153.5657, 81.04807
154.0478, 80.91779
154.5299, 80.55802
155.0121, 80.08146
155.4942, 79.50376
155.9763, 78.95255
156.4584, 78.70483
156.9405, 78.80447
157.4227, 78.73370
157.9048, 78.20936
158.3869, 77.42246
158.8690, 76.77205
159.3511, 76.36368
159.8332, 76.12907
160.3154, 76.01331
160.7975, 76.02345
161.2796, 75.97231
161.7617, 75.69624
162.2438, 75.21336
162.7259, 74.77444
163.2081, 74.33869
163.6902, 74.06531
164.1723, 74.21492
164.6544, 74.80392
165.1365, 75.30774
165.6186, 75.06104
166.1008, 73.86156
166.5829, 72.82767
167.0650, 72.05650
167.5471, 71.55900
168.0292, 71.41829
168.5113, 71.64258
168.9935, 72.10749
169.4756, 72.68372
169.9577, 73.72484
170.4398, 74.14301
170.9219, 73.51344
171.4040, 72.52973
171.8862, 71.74818
172.3683, 71.37749
172.8504, 71.26037
173.3325, 71.01928
173.8146, 70.43571
174.2967, 69.98952
174.7789, 69.77335
175.2610, 69.67353
175.7431, 69.58237
176.2252, 69.45444
176.7073, 69.27126
177.1894, 68.96255
177.6716, 68.27862
178.1537, 67.78228
178.6358, 67.71835
179.1179, 67.90901
179.6000, 68.00471
180.0821, 67.82035
180.5643, 67.44573
181.0464, 67.16672
181.5285, 67.01391
182.0106, 66.88738
182.4927, 66.76575
182.9749, 66.64025
183.4570, 66.45776
183.9391, 66.13880
184.4212, 65.78430
184.9033, 65.58579
185.3854, 65.56374
185.8676, 65.66846
186.3497, 65.96885
186.8318, 66.47614
187.3139, 66.78248
187.7960, 66.58701
188.2781, 66.12940
188.7603, 65.62743
189.2424, 65.07583
189.7245, 64.59002
190.2066, 64.33602
190.6887, 64.35703
191.1708, 64.45882
191.6530, 64.67844
192.1351, 64.89616
192.6172, 64.99252
193.0993, 64.91457
193.5814, 64.73827
194.0635, 64.61994
194.5457, 64.60745
195.0278, 64.55640
195.5099, 64.40915
195.9920, 64.22730
196.4741, 64.05395
196.9562, 63.90495
197.4384, 63.80340
197.9205, 63.82590
198.4026, 64.11988
198.8847, 64.34024
199.3668, 64.51797
199.8489, 64.58033
200.3311, 64.36909
200.8132, 63.79214
201.2953, 63.01593
201.7774, 62.70575
202.2595, 63.59017
202.7416, 64.15135
203.2238, 63.97142
203.7059, 63.43503
204.1880, 63.11586
204.6701, 63.33514
205.1522, 63.94043
205.6344, 64.24537
206.1165, 64.07621
206.5986, 63.84816
207.0807, 63.52982
207.5628, 63.21809
208.0449, 63.12148
208.5271, 63.38521
209.0092, 63.89167
209.4913, 64.14822
209.9734, 64.01359
210.4555, 63.85973
210.9376, 63.81525
211.4198, 63.85331
211.9019, 63.89513
212.3840, 63.89030
212.8661, 63.87627
213.3482, 63.94745
213.8303, 64.11187
214.3125, 64.33549
214.7946, 64.66625
215.2767, 65.07145
215.7588, 65.36001
216.2409, 65.42110
216.7230, 65.32220
217.2052, 65.20348
217.6873, 65.02738
218.1694, 64.91713
218.6515, 64.96175
219.1336, 65.15971
219.6157, 65.47750
220.0979, 66.05049
220.5800, 66.64368
221.0621, 66.99490
221.5442, 67.04793
222.0263, 66.97285
222.5084, 66.93710
222.9906, 66.95074
223.4727, 66.88422
223.9548, 66.41734
224.4369, 66.03239
224.9190, 66.20700
225.4011, 67.05545
225.8833, 68.01498
226.3654, 68.37444
226.8475, 67.99529
227.3296, 67.67435
227.8117, 67.59729
228.2938, 67.61708
228.7760, 67.67210
229.2581, 67.74505
229.7402, 67.82034
230.2223, 67.89940
230.7044, 68.02493
231.1866, 68.01093
231.6687, 67.52445
232.1508, 67.11983
232.6329, 67.22938
233.1150, 67.89702
233.5971, 68.75378
234.0793, 69.29089
234.5614, 69.40293
235.0435, 69.43526
235.5256, 69.28110
236.0077, 69.14700
236.4898, 69.19389
236.9720, 69.43224
237.4541, 69.72678
237.9362, 69.88362
238.4183, 69.80269
238.9004, 69.82722
239.3825, 69.90388
239.8647, 70.09986
240.3468, 70.60746
240.8289, 71.37547
241.3110, 72.03251
241.7931, 72.08249
242.2752, 71.20024
242.7574, 70.62920
243.2395, 70.41318
243.7216, 70.42068
244.2037, 70.71914
244.6858, 71.24108
245.1679, 71.66319
245.6501, 71.57877
246.1322, 70.76537
246.6143, 70.37077
247.0964, 70.78469
247.5785, 71.27659
248.0606, 71.32594
248.5428, 70.91284
249.0249, 70.38969
249.5070, 70.09272
249.9891, 70.06421
250.4712, 70.00822
250.9533, 69.82441
251.4355, 69.69146
251.9176, 69.73938
252.3997, 69.96814
252.8818, 70.29792
253.3639, 70.70960
253.8460, 71.19228
254.3282, 71.44485
254.8103, 71.35794
255.2924, 71.13605
255.7745, 70.89103
256.2566, 70.63147
256.7387, 70.34363
257.2209, 69.96458
257.7030, 69.55230
258.1851, 69.38190
258.6672, 69.71787
259.1493, 70.08116
259.6314, 70.09345
260.1136, 69.78884
260.5957, 69.51447
261.0778, 69.50316
261.5599, 69.66506
262.0420, 69.69810
262.5241, 69.55797
263.0063, 69.33804
263.4884, 69.13687
263.9705, 68.93762
264.4526, 68.56385
264.9347, 67.79421
265.4168, 66.89142
265.8990, 66.38145
266.3811, 66.44005
266.8632, 66.51353
267.3453, 66.13371
267.8275, 65.36525
268.3096, 64.72102
268.7917, 64.46735
269.2738, 64.35754
269.7559, 64.01370
270.2380, 63.37255
270.7202, 62.81492
271.2023, 62.65880
271.6844, 62.84987
272.1665, 63.03901
272.6486, 63.24281
273.1307, 63.28248
273.6129, 62.92358
274.0950, 62.16989
274.5771, 61.50274
275.0592, 61.23764
275.5413, 61.33223
276.0234, 61.55611
276.5056, 61.93653
276.9877, 62.36822
277.4698, 62.82215
277.9519, 63.27369
278.4340, 63.60462
278.9161, 63.59981
279.3983, 63.37600
279.8804, 63.48180
280.3625, 64.07607
280.8446, 64.82001
281.3267, 65.52277
281.8088, 66.19487
282.2910, 66.86142
282.7731, 67.44731
283.2552, 68.03901
283.7373, 68.98472
284.2194, 70.53205
284.7015, 71.96571
285.1837, 72.80434
285.6658, 73.36452
286.1479, 74.13452
286.6300, 75.38316
287.1121, 76.92136
287.5942, 78.30538
288.0764, 79.44551
288.5585, 80.64558
289.0406, 82.02033
289.5227, 83.50257
290.0048, 85.04225
290.4869, 86.65793
290.9691, 88.25545
291.4512, 89.59935
291.9333, 90.50476
292.4154, 91.75108
292.8975, 93.75704
293.3796, 96.04485
293.8618, 98.28323
294.3439, 100.3884
294.8260, 102.4433
295.3081, 104.4826
295.7902, 106.4288
296.2723, 108.7138
296.7545, 111.8677
297.2366, 115.0605
297.7187, 117.6530
298.2008, 119.6599
298.6829, 121.7618
299.1650, 124.7527
299.6472, 128.7590
300.1293, 132.5141
300.6114, 135.8635
301.0935, 138.9782
301.5756, 141.9471
302.0577, 144.7381
302.5399, 147.3013
303.0220, 149.7363
303.5041, 152.0047
303.9862, 153.2506
304.4683, 152.9088
304.9504, 152.0896
305.4326, 151.5330
305.9147, 150.8049
306.3968, 149.0364
306.8789, 145.5584
307.3610, 140.7206
307.8431, 136.0575
308.3253, 131.6013
308.8074, 127.2960
309.2895, 123.1668
309.7716, 119.1277
310.2537, 115.0842
310.7358, 110.9514
311.2180, 106.8906
311.7001, 103.3208
312.1822, 100.3703
312.6643, 97.58517
313.1464, 94.84258
313.6285, 92.20950
314.1107, 89.67386
314.5928, 87.24351
315.0749, 85.04920
315.5570, 83.36561
316.0392, 82.36136
316.5213, 81.25688
317.0034, 79.77237
317.4855, 78.31339
317.9676, 77.11416
318.4497, 76.18632
318.9319, 75.38844
319.4140, 74.61871
319.8961, 73.89098
320.3782, 73.06581
320.8603, 71.83337
321.3424, 70.81144
321.8246, 70.36082
322.3067, 70.32486
322.7888, 70.29140
323.2709, 69.94759
323.7530, 69.34539
324.2351, 68.88395
324.7173, 68.64201
325.1994, 68.44022
325.6815, 68.23136
326.1636, 68.01875
326.6457, 67.81207
327.1278, 67.62183
327.6100, 67.42772
328.0921, 67.14339
328.5742, 66.62891
329.0563, 66.33904
329.5384, 66.50497
330.0205, 66.84120
330.5027, 67.14080
330.9848, 67.34392
331.4669, 67.44299
331.9490, 67.37521
332.4311, 67.06756
332.9132, 66.91592
333.3954, 67.06155
333.8775, 67.32446
334.3596, 67.66150
334.8417, 68.04744
335.3238, 68.41303
335.8059, 68.67217
336.2881, 68.82346
336.7702, 69.02427
337.2523, 69.32236
337.7344, 69.62273
338.2165, 69.97229
338.6986, 70.29499
339.1808, 70.42471
339.6629, 70.22224
340.1450, 69.75742
340.6271, 69.27256
341.1092, 68.71967
341.5913, 68.24583
342.0735, 67.85922
342.5556, 67.58672
343.0377, 67.54340
343.5198, 67.85797
344.0019, 68.15591
344.4840, 67.72063
344.9662, 66.34126
345.4483, 65.14615
345.9304, 64.60773
346.4125, 64.30994
346.8946, 64.01482
347.3767, 63.67981
347.8589, 63.33128
348.3410, 62.98740
348.8231, 62.64729
349.3052, 62.32948
349.7873, 62.03186
350.2694, 61.76374
350.7516, 61.53306
351.2337, 61.33502
351.7158, 61.15444
352.1979, 61.06351
352.6800, 60.98777
353.1621, 60.60548
353.6443, 59.70620
354.1264, 58.97609
354.6085, 59.03671
355.0906, 59.48358
355.5727, 59.67345
356.0548, 59.27591
356.5370, 58.67602
357.0191, 58.41465
357.5012, 58.52606
357.9833, 58.60486
358.4654, 58.38610
358.9475, 58.11291
359.4297, 58.14043
359.9118, 58.58346
360.3939, 58.92600
360.8760, 58.67983
361.3581, 57.96349
361.8402, 57.36309
362.3224, 56.99183
362.8045, 56.81808
363.2866, 56.81837
363.7687, 56.97882
364.2508, 57.23096
364.7329, 57.78917
365.2151, 58.34874
365.6972, 58.28556
366.1793, 57.45325
366.6614, 56.56977
367.1436, 56.16451
367.6257, 56.14190
368.1078, 56.20290
368.5899, 56.34589
369.0720, 56.53149
369.5541, 56.80157
370.0363, 57.12455
370.5184, 57.25285
371.0005, 56.98024
371.4826, 56.52349
371.9647, 56.40348
372.4468, 56.78088
372.9290, 57.05158
373.4111, 56.88281
373.8932, 56.46700
374.3753, 56.16399
374.8574, 56.07555
375.3395, 56.05561
375.8217, 55.86354
376.3038, 55.44622
376.7859, 55.36515
377.2680, 56.09681
377.7501, 56.89822
378.2322, 57.10020
378.7144, 56.69682
379.1965, 56.08883
379.6786, 55.49442
380.1607, 54.95044
380.6428, 54.77946
381.1249, 55.29412
381.6071, 55.77861
382.0892, 55.93309
382.5713, 55.88607
383.0534, 55.90960
383.5355, 56.12854
384.0176, 56.42094
384.4998, 56.51857
384.9819, 56.21141
385.4640, 56.04948
385.9461, 56.17458
386.4282, 56.36901
386.9103, 56.46144
387.3925, 56.42085
387.8746, 56.28851
388.3567, 56.08691
388.8388, 55.78276
389.3209, 55.66154
389.8030, 55.76452
390.2852, 55.97400
390.7673, 56.39113
391.2494, 56.87091
391.7315, 57.12070
392.2136, 56.95161
392.6957, 56.49565
393.1779, 56.26673
393.6600, 56.45964
394.1421, 56.61744
394.6242, 56.68763
395.1063, 56.71365
395.5884, 56.68862
396.0706, 56.63012
396.5527, 56.64357
397.0348, 56.92917
397.5169, 57.61931
397.9990, 58.04486
398.4811, 58.02005
398.9633, 57.88630
399.4454, 57.72655
399.9275, 57.56523
400.4096, 57.40795
400.8917, 57.23000
401.3738, 57.07490
401.8560, 57.17459
402.3381, 57.75542
402.8202, 58.15540
403.3023, 58.00825
403.7844, 57.68328
404.2665, 57.59529
404.7487, 57.88120
405.2308, 58.23338
405.7129, 58.21465
406.1950, 57.79616
406.6771, 57.55462
407.1592, 57.69862
407.6414, 57.94635
408.1235, 58.14519
408.6056, 58.27891
409.0877, 58.29752
409.5698, 58.00502
410.0519, 57.60044
410.5341, 57.62476
411.0162, 58.20271
411.4983, 58.77237
411.9804, 58.88579
412.4625, 58.79044
412.9446, 58.92040
413.4268, 59.49024
413.9089, 60.04988
414.3910, 60.15999
414.8731, 59.91686
415.3553, 59.80635
415.8374, 60.03526
416.3195, 60.37354
416.8016, 60.40718
417.2837, 60.10249
417.7658, 60.03686
418.2480, 60.51714
418.7301, 61.23423
419.2122, 61.88123
419.6943, 62.41819
420.1764, 62.83142
420.6585, 63.05140
421.1407, 63.11774
421.6228, 63.43628
422.1049, 64.24911
422.5870, 65.02554
423.0691, 65.49277
423.5512, 65.78873
424.0334, 66.16336
424.5155, 66.71291
424.9976, 67.39761
425.4797, 68.15844
425.9618, 69.17300
426.4439, 69.87791
426.9261, 69.97588
427.4082, 70.00903
427.8903, 70.37842
428.3724, 71.07636
428.8545, 71.83323
429.3366, 72.42244
429.8188, 72.86004
430.3009, 73.41438
430.7830, 74.26390
431.2651, 75.04202
431.7472, 75.58390
432.2293, 76.06466
432.7115, 76.73134
433.1936, 77.66788
433.6757, 78.66968
434.1578, 79.32692
434.6399, 79.44688
435.1220, 79.89654
435.6042, 81.19157
436.0863, 82.44327
436.5684, 83.08091
437.0505, 83.26264
437.5326, 83.61455
438.0147, 84.67321
438.4969, 86.19506
438.9790, 87.28802
439.4611, 87.80055
439.9432, 88.26218
440.4253, 88.95811
440.9074, 89.69221
441.3896, 90.24412
441.8717, 90.55476
442.3538, 90.77664
442.8359, 91.01961
443.3180, 91.28508
443.8001, 91.59515
444.2823, 92.02869
444.7644, 92.37243
445.2465, 92.35961
445.7286, 92.06245
446.2107, 91.76309
446.6928, 91.63349
447.1750, 91.47258
447.6571, 91.12125
448.1392, 90.56943
448.6213, 89.72703
449.1034, 88.44119
449.5855, 86.92906
450.0677, 85.80862
450.5498, 85.17690
451.0319, 84.64015
451.5140, 84.25825
451.9961, 83.84741
452.4782, 83.15215
452.9604, 82.13452
453.4425, 80.99375
453.9246, 79.93113
454.4067, 78.96062
454.8888, 77.92046
455.3709, 76.66045
455.8531, 75.51128
456.3352, 74.60992
456.8173, 73.89977
457.2994, 73.26812
457.7815, 72.66585
458.2636, 72.12038
458.7458, 71.71964
459.2279, 71.66724
459.7100, 71.31991
460.1921, 70.57384
460.6742, 69.64266
461.1563, 68.46651
461.6385, 67.17784
462.1206, 66.15517
462.6027, 65.75344
463.0848, 65.84418
463.5669, 65.76383
464.0491, 65.46584
464.5312, 65.08541
465.0133, 64.57783
465.4954, 64.06266
465.9775, 63.65396
466.4597, 63.37588
466.9418, 63.19660
467.4239, 63.14983
467.9060, 63.20225
468.3881, 63.10675
468.8702, 62.75896
469.3524, 62.39198
469.8345, 62.18767
470.3166, 62.11823
470.7987, 62.13374
471.2808, 62.26535
471.7629, 62.44374
472.2451, 62.62867
472.7272, 62.81366
473.2093, 62.98022
473.6914, 63.14552
474.1735, 63.24461
474.6556, 63.13171
475.1378, 62.78317
475.6199, 62.35111
476.1020, 61.59592
476.5841, 60.94219
477.0662, 60.87621
477.5483, 61.35272
478.0305, 61.85527
478.5126, 61.96766
478.9947, 61.76015
479.4768, 61.85131
479.9589, 62.66986
480.4410, 63.26557
480.9232, 63.46727
481.4053, 63.41359
481.8874, 63.16487
482.3695, 62.77432
482.8516, 62.42022
483.3337, 62.35640
483.8159, 62.63498
484.2980, 62.75208
484.7801, 62.45736
485.2622, 62.28675
485.7443, 62.63447
486.2264, 63.17564
486.7086, 63.35284
487.1907, 62.88179
487.6728, 62.14860
488.1549, 61.63713
488.6370, 61.34550
489.1191, 61.36187
489.6013, 61.88789
490.0834, 62.53329
490.5655, 63.01179
491.0476, 63.32093
491.5297, 63.43122
492.0118, 63.12535
492.4940, 62.73016
492.9761, 62.74926
493.4582, 63.16548
493.9403, 63.44831
494.4224, 63.27599
494.9045, 62.84426
495.3867, 62.65542
495.8688, 62.76232
496.3509, 62.91900
496.8330, 63.11459
497.3151, 63.30593
497.7972, 63.47721
498.2794, 63.61105
498.7615, 63.62393
499.2436, 63.41545
499.7257, 63.00688
500.2078, 62.78053
500.6899, 62.78611
501.1721, 62.91622
501.6542, 63.29458
502.1363, 63.72052
502.6184, 63.99117
503.1005, 64.05140
503.5826, 63.97310
504.0648, 63.82078
504.5469, 63.58434
505.0290, 63.37798
505.5111, 63.20568
505.9932, 63.06133
506.4753, 63.03548
506.9575, 63.01158
507.4396, 62.76469
507.9217, 62.15260
508.4038, 61.49617
508.8859, 61.28862
509.3680, 61.49345
509.8502, 61.43756
510.3323, 60.87878
510.8144, 60.17140
511.2965, 59.61054
511.7786, 59.18861
512.2607, 58.89880
512.7429, 58.92057
513.2250, 58.93102
513.7071, 58.51641
514.1892, 57.80463
514.6713, 57.42004
515.1534, 57.72040
515.6356, 58.25002
516.1177, 58.07486
516.5998, 56.71736
517.0819, 55.70831
517.5640, 55.30478
518.0461, 55.08299
518.5283, 54.78593
519.0104, 54.40637
519.4925, 54.03432
519.9746, 53.72573
520.4567, 53.47701
520.9388, 53.28469
521.4210, 53.21463
521.9031, 53.07509
522.3852, 52.76585
522.8673, 52.44623
523.3494, 52.27123
523.8315, 52.21935
524.3137, 52.10397
524.7958, 51.68045
525.2779, 51.09452
525.7600, 50.95056
526.2421, 51.40884
526.7242, 51.69868
527.2064, 51.25673
527.6885, 50.58142
528.1706, 50.36235
528.6527, 50.74444
529.1348, 51.03733
529.6169, 50.84156
530.0991, 50.34754
530.5812, 49.77753
531.0633, 49.16586
531.5454, 48.75623
532.0275, 48.78764
532.5096, 49.17657
532.9918, 49.33890
533.4739, 49.09037
533.9560, 48.88995
534.4381, 48.94673
534.9202, 49.03658
535.4023, 48.82268
535.8845, 48.29690
536.3666, 47.85187
536.8487, 47.94604
537.3308, 48.57692
537.8129, 48.76221
538.2951, 48.04021
538.7772, 47.46604
539.2593, 47.29576
539.7415, 47.37685
540.2236, 47.61211
540.7057, 47.96477
541.1878, 48.25896
541.6699, 48.23651
542.1520, 47.96051
542.6342, 47.92003
543.1163, 48.27046
543.5984, 48.55712
544.0805, 48.40298
544.5626, 47.99662
545.0447, 47.67196
545.5269, 47.46569
546.0090, 47.35994
546.4911, 47.37804
546.9732, 47.48127
547.4553, 47.57958
547.9374, 47.65406
548.4196, 47.80453
548.9017, 48.18100
549.3838, 48.79719
549.8659, 49.01939
550.3480, 48.30035
550.8301, 47.91087
551.3123, 48.70345
551.7944, 49.79376
552.2765, 49.93659
552.7586, 48.87770
553.2407, 47.55713
553.7228, 47.12381
554.2050, 47.62859
554.6871, 48.10481
555.1692, 48.66837
555.6513, 49.02375
556.1334, 48.94714
556.6155, 48.67359
557.0977, 48.49592
557.5798, 48.49293
558.0619, 48.57737
558.5440, 48.74684
559.0261, 48.94828
559.5082, 48.96611
559.9904, 48.74611
560.4725, 48.45594
560.9546, 48.22989
561.4367, 48.03962
561.9188, 47.74268
562.4009, 46.96873
562.8831, 46.55396
563.3652, 47.11623
563.8473, 48.09676
564.3294, 48.75526
564.8115, 48.92751
565.2936, 48.81986
565.7758, 48.60247
566.2579, 48.27382
566.7400, 48.09514
567.2221, 48.05229
567.7042, 48.19608
568.1863, 48.83965
568.6685, 49.50430
569.1506, 49.62188
569.6327, 49.10909
570.1148, 48.47309
570.5969, 48.19934
571.0790, 48.23712
571.5612, 48.30692
572.0433, 48.46013
572.5254, 48.47818
573.0075, 48.07669
573.4896, 47.54740
573.9717, 47.35487
574.4539, 47.63066
574.9360, 47.89874
575.4181, 47.90618
575.9002, 47.78522
576.3823, 47.73908
576.8644, 47.78051
577.3466, 47.74787
577.8287, 47.49187
578.3108, 47.09402
578.7929, 46.95688
579.2750, 47.38289
579.7571, 47.67828
580.2393, 47.77450
580.7214, 47.75219
581.2035, 47.64031
581.6856, 47.46551
582.1677, 47.27881
582.6498, 47.11985
583.1320, 46.97756
583.6141, 46.79387
584.0962, 46.52003
584.5783, 46.37267
585.0604, 46.51667
585.5425, 46.73059
586.0247, 46.78474
586.5068, 46.69492
586.9889, 46.72429
587.4710, 47.23077
587.9531, 47.75638
588.4352, 47.64660
588.9174, 47.00568
589.3995, 46.47980
589.8816, 46.34501
590.3637, 46.47818
590.8458, 46.70052
591.3279, 47.12872
591.8101, 47.28695
592.2922, 46.89594
592.7743, 46.51420
