##NAMES=Steacyite
##RRUFFID=R120037
##IDEAL CHEMISTRY=K_0.3_(Na,Ca)_2_Th^4+^Si_8_O_20_
##LOCALITY=Mont Saint-Hilaire, Rouville RCM, Montérégie, Québec, Canada
##OWNER=RRUFF
##SOURCE=Donald Doell
##DESCRIPTION=Brown rectangular prism
##STATUS=The identification of this mineral is not yet confirmed.
##URL=rruff.info/R120037
8.936163e+001, 0.000000e+000
8.984375e+001, 8.377947e+000
9.032587e+001, 8.449124e+000
9.080798e+001, 8.462044e+000
9.129010e+001, 8.392004e+000
9.177222e+001, 8.292460e+000
9.225433e+001, 8.203596e+000
9.273645e+001, 8.128760e+000
9.321857e+001, 8.112330e+000
9.370068e+001, 8.272687e+000
9.418280e+001, 8.540872e+000
9.466492e+001, 8.680358e+000
9.514703e+001, 8.499171e+000
9.562915e+001, 8.155869e+000
9.611127e+001, 8.178420e+000
9.659338e+001, 8.633331e+000
9.707550e+001, 9.119131e+000
9.755762e+001, 9.072401e+000
9.803973e+001, 8.481381e+000
9.852185e+001, 7.947277e+000
9.900397e+001, 7.728660e+000
9.948608e+001, 7.831859e+000
9.996820e+001, 7.975859e+000
1.004503e+002, 8.190143e+000
1.009324e+002, 8.411514e+000
1.014146e+002, 8.502840e+000
1.018967e+002, 8.437943e+000
1.023788e+002, 8.320144e+000
1.028609e+002, 8.190387e+000
1.033430e+002, 8.034852e+000
1.038251e+002, 7.917387e+000
1.043073e+002, 7.853945e+000
1.047894e+002, 7.834252e+000
1.052715e+002, 7.802474e+000
1.057536e+002, 7.737751e+000
1.062357e+002, 7.683548e+000
1.067178e+002, 7.669153e+000
1.072000e+002, 7.702796e+000
1.076821e+002, 7.766761e+000
1.081642e+002, 7.902134e+000
1.086463e+002, 8.124698e+000
1.091284e+002, 8.197918e+000
1.096105e+002, 7.957991e+000
1.100927e+002, 7.639438e+000
1.105748e+002, 7.462778e+000
1.110569e+002, 7.534777e+000
1.115390e+002, 7.651485e+000
1.120211e+002, 7.803248e+000
1.125032e+002, 8.033458e+000
1.129854e+002, 8.129520e+000
1.134675e+002, 7.913493e+000
1.139496e+002, 7.574148e+000
1.144317e+002, 7.382065e+000
1.149138e+002, 7.578401e+000
1.153959e+002, 7.805320e+000
1.158781e+002, 7.894378e+000
1.163602e+002, 7.767283e+000
1.168423e+002, 7.614600e+000
1.173244e+002, 7.465407e+000
1.178065e+002, 7.335526e+000
1.182886e+002, 7.265212e+000
1.187708e+002, 7.373481e+000
1.192529e+002, 7.496503e+000
1.197350e+002, 7.491293e+000
1.202171e+002, 7.184731e+000
1.206992e+002, 6.905614e+000
1.211813e+002, 6.890275e+000
1.216635e+002, 7.103745e+000
1.221456e+002, 7.356993e+000
1.226277e+002, 7.622308e+000
1.231098e+002, 7.836615e+000
1.235919e+002, 7.914422e+000
1.240740e+002, 7.727151e+000
1.245562e+002, 7.448740e+000
1.250383e+002, 7.228389e+000
1.255204e+002, 7.064790e+000
1.260025e+002, 7.000465e+000
1.264846e+002, 7.155753e+000
1.269667e+002, 7.449677e+000
1.274489e+002, 7.679854e+000
1.279310e+002, 7.755341e+000
1.284131e+002, 7.708663e+000
1.288952e+002, 7.558803e+000
1.293773e+002, 7.279368e+000
1.298594e+002, 7.025851e+000
1.303416e+002, 7.017199e+000
1.308237e+002, 7.227464e+000
1.313058e+002, 7.467194e+000
1.317879e+002, 7.652925e+000
1.322700e+002, 7.788549e+000
1.327521e+002, 7.895113e+000
1.332343e+002, 7.978174e+000
1.337164e+002, 8.025651e+000
1.341985e+002, 7.979721e+000
1.346806e+002, 7.829412e+000
1.351627e+002, 7.730951e+000
1.356448e+002, 7.855114e+000
1.361270e+002, 8.208120e+000
1.366091e+002, 8.373770e+000
1.370912e+002, 8.238987e+000
1.375733e+002, 7.912701e+000
1.380554e+002, 7.754786e+000
1.385375e+002, 7.791461e+000
1.390197e+002, 7.920585e+000
1.395018e+002, 8.091978e+000
1.399839e+002, 8.329069e+000
1.404660e+002, 8.497567e+000
1.409481e+002, 8.565479e+000
1.414302e+002, 8.538249e+000
1.419124e+002, 8.488922e+000
1.423945e+002, 8.404255e+000
1.428766e+002, 8.316084e+000
1.433587e+002, 8.265699e+000
1.438408e+002, 8.297490e+000
1.443229e+002, 8.272927e+000
1.448051e+002, 8.126460e+000
1.452872e+002, 7.820170e+000
1.457693e+002, 7.678979e+000
1.462514e+002, 7.806581e+000
1.467335e+002, 8.031946e+000
1.472156e+002, 8.133405e+000
1.476978e+002, 7.989800e+000
1.481799e+002, 7.870637e+000
1.486620e+002, 7.850879e+000
1.491441e+002, 7.976935e+000
1.496262e+002, 8.076169e+000
1.501083e+002, 8.094560e+000
1.505905e+002, 8.093234e+000
1.510726e+002, 8.181101e+000
1.515547e+002, 8.526002e+000
1.520368e+002, 8.814172e+000
1.525189e+002, 8.937587e+000
1.530010e+002, 8.744838e+000
1.534832e+002, 8.645814e+000
1.539653e+002, 8.647919e+000
1.544474e+002, 8.760000e+000
1.549295e+002, 9.003300e+000
1.554116e+002, 9.583335e+000
1.558937e+002, 1.014872e+001
1.563759e+002, 1.051732e+001
1.568580e+002, 1.033716e+001
1.573401e+002, 1.040078e+001
1.578222e+002, 1.093705e+001
1.583043e+002, 1.185848e+001
1.587864e+002, 1.284255e+001
1.592686e+002, 1.386302e+001
1.597507e+002, 1.488330e+001
1.602328e+002, 1.587802e+001
1.607149e+002, 1.665943e+001
1.611970e+002, 1.759760e+001
1.616791e+002, 1.878541e+001
1.621613e+002, 2.020847e+001
1.626434e+002, 2.189247e+001
1.631255e+002, 2.379940e+001
1.636076e+002, 2.597944e+001
1.640897e+002, 2.847727e+001
1.645718e+002, 3.142866e+001
1.650540e+002, 3.460088e+001
1.655361e+002, 3.786097e+001
1.660182e+002, 4.122809e+001
1.665003e+002, 4.480003e+001
1.669824e+002, 4.837288e+001
1.674645e+002, 5.229573e+001
1.679467e+002, 5.694196e+001
1.684288e+002, 6.251158e+001
1.689109e+002, 6.885435e+001
1.693930e+002, 7.630649e+001
1.698751e+002, 8.496948e+001
1.703572e+002, 9.315576e+001
1.708394e+002, 9.946545e+001
1.713215e+002, 1.046359e+002
1.718036e+002, 1.098187e+002
1.722857e+002, 1.146807e+002
1.727678e+002, 1.202823e+002
1.732499e+002, 1.288023e+002
1.737321e+002, 1.410168e+002
1.742142e+002, 1.516568e+002
1.746963e+002, 1.554372e+002
1.751784e+002, 1.543127e+002
1.756605e+002, 1.529062e+002
1.761426e+002, 1.530865e+002
1.766248e+002, 1.545396e+002
1.771069e+002, 1.570483e+002
1.775890e+002, 1.607542e+002
1.780711e+002, 1.648864e+002
1.785532e+002, 1.687053e+002
1.790353e+002, 1.723014e+002
1.795175e+002, 1.758493e+002
1.799996e+002, 1.789144e+002
1.804817e+002, 1.820885e+002
1.809638e+002, 1.867979e+002
1.814459e+002, 1.935428e+002
1.819280e+002, 2.009872e+002
1.824102e+002, 2.074253e+002
1.828923e+002, 2.129172e+002
1.833744e+002, 2.186201e+002
1.838565e+002, 2.253821e+002
1.843386e+002, 2.329104e+002
1.848207e+002, 2.400534e+002
1.853029e+002, 2.465529e+002
1.857850e+002, 2.529303e+002
1.862671e+002, 2.604344e+002
1.867492e+002, 2.689780e+002
1.872313e+002, 2.773932e+002
1.877134e+002, 2.847871e+002
1.881956e+002, 2.913695e+002
1.886777e+002, 2.978022e+002
1.891598e+002, 3.043266e+002
1.896419e+002, 3.107039e+002
1.901240e+002, 3.163391e+002
1.906061e+002, 3.212757e+002
1.910883e+002, 3.260566e+002
1.915704e+002, 3.313244e+002
1.920525e+002, 3.370273e+002
1.925346e+002, 3.421368e+002
1.930167e+002, 3.463257e+002
1.934988e+002, 3.496655e+002
1.939810e+002, 3.517135e+002
1.944631e+002, 3.521319e+002
1.949452e+002, 3.527243e+002
1.954273e+002, 3.537645e+002
1.959094e+002, 3.552320e+002
1.963915e+002, 3.560759e+002
1.968737e+002, 3.560459e+002
1.973558e+002, 3.553084e+002
1.978379e+002, 3.542918e+002
1.983200e+002, 3.529490e+002
1.988021e+002, 3.516068e+002
1.992842e+002, 3.504423e+002
1.997664e+002, 3.494240e+002
2.002485e+002, 3.489908e+002
2.007306e+002, 3.493102e+002
2.012127e+002, 3.502826e+002
2.016948e+002, 3.514440e+002
2.021769e+002, 3.528753e+002
2.026591e+002, 3.542803e+002
2.031412e+002, 3.552486e+002
2.036233e+002, 3.556890e+002
2.041054e+002, 3.564772e+002
2.045875e+002, 3.579934e+002
2.050696e+002, 3.600997e+002
2.055518e+002, 3.614416e+002
2.060339e+002, 3.618087e+002
2.065160e+002, 3.618980e+002
2.069981e+002, 3.624484e+002
2.074802e+002, 3.635452e+002
2.079623e+002, 3.646436e+002
2.084445e+002, 3.656447e+002
2.089266e+002, 3.665477e+002
2.094087e+002, 3.673330e+002
2.098908e+002, 3.681122e+002
2.103729e+002, 3.685899e+002
2.108550e+002, 3.681983e+002
2.113372e+002, 3.664917e+002
2.118193e+002, 3.655305e+002
2.123014e+002, 3.661341e+002
2.127835e+002, 3.682990e+002
2.132656e+002, 3.693462e+002
2.137477e+002, 3.688068e+002
2.142299e+002, 3.678191e+002
2.147120e+002, 3.678237e+002
2.151941e+002, 3.692513e+002
2.156762e+002, 3.704364e+002
2.161583e+002, 3.709002e+002
2.166404e+002, 3.705946e+002
2.171226e+002, 3.704408e+002
2.176047e+002, 3.705953e+002
2.180868e+002, 3.707128e+002
2.185689e+002, 3.702752e+002
2.190510e+002, 3.689039e+002
2.195331e+002, 3.678710e+002
2.200153e+002, 3.675246e+002
2.204974e+002, 3.679215e+002
2.209795e+002, 3.684199e+002
2.214616e+002, 3.691030e+002
2.219437e+002, 3.698180e+002
2.224258e+002, 3.703693e+002
2.229080e+002, 3.706681e+002
2.233901e+002, 3.710047e+002
2.238722e+002, 3.714953e+002
2.243543e+002, 3.721906e+002
2.248364e+002, 3.726194e+002
2.253185e+002, 3.726440e+002
2.258007e+002, 3.725157e+002
2.262828e+002, 3.725366e+002
2.267649e+002, 3.727018e+002
2.272470e+002, 3.729887e+002
2.277291e+002, 3.733028e+002
2.282112e+002, 3.735702e+002
2.286934e+002, 3.745191e+002
2.291755e+002, 3.767754e+002
2.296576e+002, 3.791625e+002
2.301397e+002, 3.799944e+002
2.306218e+002, 3.783372e+002
2.311039e+002, 3.768682e+002
2.315861e+002, 3.763323e+002
2.320682e+002, 3.768678e+002
2.325503e+002, 3.774059e+002
2.330324e+002, 3.782182e+002
2.335145e+002, 3.788292e+002
2.339966e+002, 3.784609e+002
2.344788e+002, 3.761148e+002
2.349609e+002, 3.746258e+002
2.354430e+002, 3.750906e+002
2.359251e+002, 3.779762e+002
2.364072e+002, 3.794528e+002
2.368893e+002, 3.787906e+002
2.373715e+002, 3.773210e+002
2.378536e+002, 3.767270e+002
2.383357e+002, 3.775065e+002
2.388178e+002, 3.782543e+002
2.392999e+002, 3.785259e+002
2.397820e+002, 3.781909e+002
2.402642e+002, 3.783474e+002
2.407463e+002, 3.793034e+002
2.412284e+002, 3.804757e+002
2.417105e+002, 3.811080e+002
2.421926e+002, 3.808116e+002
2.426747e+002, 3.806834e+002
2.431569e+002, 3.811776e+002
2.436390e+002, 3.824793e+002
2.441211e+002, 3.827432e+002
2.446032e+002, 3.812516e+002
2.450853e+002, 3.793638e+002
2.455674e+002, 3.787384e+002
2.460496e+002, 3.801213e+002
2.465317e+002, 3.814041e+002
2.470138e+002, 3.821580e+002
2.474959e+002, 3.823671e+002
2.479780e+002, 3.822649e+002
2.484601e+002, 3.816334e+002
2.489423e+002, 3.809214e+002
2.494244e+002, 3.806880e+002
2.499065e+002, 3.813364e+002
2.503886e+002, 3.816599e+002
2.508707e+002, 3.811450e+002
2.513528e+002, 3.797167e+002
2.518350e+002, 3.794134e+002
2.523171e+002, 3.808410e+002
2.527992e+002, 3.827317e+002
2.532813e+002, 3.837390e+002
2.537634e+002, 3.833878e+002
2.542455e+002, 3.831632e+002
2.547277e+002, 3.834628e+002
2.552098e+002, 3.842980e+002
2.556919e+002, 3.846326e+002
2.561740e+002, 3.842586e+002
2.566561e+002, 3.836309e+002
2.571382e+002, 3.831435e+002
2.576204e+002, 3.827364e+002
2.581025e+002, 3.826082e+002
2.585846e+002, 3.828985e+002
2.590667e+002, 3.835784e+002
2.595488e+002, 3.839848e+002
2.600309e+002, 3.839955e+002
2.605131e+002, 3.839069e+002
2.609952e+002, 3.840635e+002
2.614773e+002, 3.847363e+002
2.619594e+002, 3.848600e+002
2.624415e+002, 3.839488e+002
2.629236e+002, 3.821859e+002
2.634058e+002, 3.816058e+002
2.638879e+002, 3.826360e+002
2.643700e+002, 3.841215e+002
2.648521e+002, 3.852427e+002
2.653342e+002, 3.859856e+002
2.658163e+002, 3.863614e+002
2.662985e+002, 3.862459e+002
2.667806e+002, 3.857464e+002
2.672627e+002, 3.854458e+002
2.677448e+002, 3.853234e+002
2.682269e+002, 3.854417e+002
2.687090e+002, 3.859604e+002
2.691912e+002, 3.870587e+002
2.696733e+002, 3.877592e+002
2.701554e+002, 3.878127e+002
2.706375e+002, 3.874080e+002
2.711196e+002, 3.873210e+002
2.716017e+002, 3.876239e+002
2.720839e+002, 3.880325e+002
2.725660e+002, 3.884561e+002
2.730481e+002, 3.889705e+002
2.735302e+002, 3.889577e+002
2.740123e+002, 3.881397e+002
2.744944e+002, 3.869012e+002
2.749766e+002, 3.864586e+002
2.754587e+002, 3.870072e+002
2.759408e+002, 3.876053e+002
2.764229e+002, 3.875577e+002
2.769050e+002, 3.867838e+002
2.773871e+002, 3.864585e+002
2.778693e+002, 3.867820e+002
2.783514e+002, 3.874678e+002
2.788335e+002, 3.878872e+002
2.793156e+002, 3.880168e+002
2.797977e+002, 3.880507e+002
2.802798e+002, 3.881634e+002
2.807620e+002, 3.883560e+002
2.812441e+002, 3.880669e+002
2.817262e+002, 3.870322e+002
2.822083e+002, 3.859243e+002
2.826904e+002, 3.860874e+002
2.831725e+002, 3.875956e+002
2.836547e+002, 3.892544e+002
2.841368e+002, 3.907500e+002
2.846189e+002, 3.920166e+002
2.851010e+002, 3.921340e+002
2.855831e+002, 3.907563e+002
2.860652e+002, 3.891460e+002
2.865474e+002, 3.895134e+002
2.870295e+002, 3.918100e+002
2.875116e+002, 3.936748e+002
2.879937e+002, 3.936271e+002
2.884758e+002, 3.920990e+002
2.889579e+002, 3.918257e+002
2.894401e+002, 3.930085e+002
2.899222e+002, 3.943845e+002
2.904043e+002, 3.941331e+002
2.908864e+002, 3.924794e+002
2.913685e+002, 3.912300e+002
2.918506e+002, 3.912522e+002
2.923328e+002, 3.921701e+002
2.928149e+002, 3.931064e+002
2.932970e+002, 3.941090e+002
2.937791e+002, 3.946245e+002
2.942612e+002, 3.934239e+002
2.947433e+002, 3.910464e+002
2.952255e+002, 3.897252e+002
2.957076e+002, 3.907999e+002
2.961897e+002, 3.930565e+002
2.966718e+002, 3.940934e+002
2.971539e+002, 3.939323e+002
2.976360e+002, 3.934146e+002
2.981182e+002, 3.931549e+002
2.986003e+002, 3.930846e+002
2.990824e+002, 3.930377e+002
2.995645e+002, 3.930122e+002
3.000466e+002, 3.929415e+002
3.005287e+002, 3.925080e+002
3.010109e+002, 3.918075e+002
3.014930e+002, 3.915182e+002
3.019751e+002, 3.925650e+002
3.024572e+002, 3.942809e+002
3.029393e+002, 3.954947e+002
3.034214e+002, 3.958618e+002
3.039036e+002, 3.958610e+002
3.043857e+002, 3.958767e+002
3.048678e+002, 3.959301e+002
3.053499e+002, 3.960956e+002
3.058320e+002, 3.966764e+002
3.063141e+002, 3.972990e+002
3.067963e+002, 3.973745e+002
3.072784e+002, 3.965772e+002
3.077605e+002, 3.959103e+002
3.082426e+002, 3.964822e+002
3.087247e+002, 3.978485e+002
3.092068e+002, 3.989473e+002
3.096890e+002, 3.988631e+002
3.101711e+002, 3.984786e+002
3.106532e+002, 3.985681e+002
3.111353e+002, 3.992694e+002
3.116174e+002, 4.001244e+002
3.120995e+002, 4.010889e+002
3.125817e+002, 4.019646e+002
3.130638e+002, 4.024518e+002
3.135459e+002, 4.020970e+002
3.140280e+002, 4.015667e+002
3.145101e+002, 4.013335e+002
3.149922e+002, 4.014603e+002
3.154744e+002, 4.014260e+002
3.159565e+002, 4.005533e+002
3.164386e+002, 3.995395e+002
3.169207e+002, 3.991857e+002
3.174028e+002, 4.003738e+002
3.178849e+002, 4.016982e+002
3.183671e+002, 4.027584e+002
3.188492e+002, 4.035398e+002
3.193313e+002, 4.038276e+002
3.198134e+002, 4.028752e+002
3.202955e+002, 4.017501e+002
3.207776e+002, 4.013095e+002
3.212598e+002, 4.024825e+002
3.217419e+002, 4.035501e+002
3.222240e+002, 4.042012e+002
3.227061e+002, 4.044384e+002
3.231882e+002, 4.043109e+002
3.236703e+002, 4.031449e+002
3.241525e+002, 4.020770e+002
3.246346e+002, 4.017569e+002
3.251167e+002, 4.029226e+002
3.255988e+002, 4.039105e+002
3.260809e+002, 4.045517e+002
3.265630e+002, 4.049137e+002
3.270452e+002, 4.051793e+002
3.275273e+002, 4.051521e+002
3.280094e+002, 4.052126e+002
3.284915e+002, 4.055453e+002
3.289736e+002, 4.064343e+002
3.294557e+002, 4.069588e+002
3.299379e+002, 4.069146e+002
3.304200e+002, 4.065694e+002
3.309021e+002, 4.063116e+002
3.313842e+002, 4.057548e+002
3.318663e+002, 4.058036e+002
3.323484e+002, 4.070556e+002
3.328306e+002, 4.098816e+002
3.333127e+002, 4.112255e+002
3.337948e+002, 4.102922e+002
3.342769e+002, 4.085811e+002
3.347590e+002, 4.077460e+002
3.352411e+002, 4.080577e+002
3.357233e+002, 4.086585e+002
3.362054e+002, 4.095436e+002
3.366875e+002, 4.106756e+002
3.371696e+002, 4.112456e+002
3.376517e+002, 4.111772e+002
3.381339e+002, 4.107144e+002
3.386160e+002, 4.097811e+002
3.390981e+002, 4.080587e+002
3.395802e+002, 4.075599e+002
3.400623e+002, 4.090068e+002
3.405444e+002, 4.116786e+002
3.410266e+002, 4.129965e+002
3.415087e+002, 4.127776e+002
3.419908e+002, 4.121577e+002
3.424729e+002, 4.117935e+002
3.429550e+002, 4.116807e+002
3.434371e+002, 4.115328e+002
3.439193e+002, 4.113106e+002
3.444014e+002, 4.110657e+002
3.448835e+002, 4.108741e+002
3.453656e+002, 4.107368e+002
3.458477e+002, 4.106985e+002
3.463298e+002, 4.108243e+002
3.468120e+002, 4.110840e+002
3.472941e+002, 4.112739e+002
3.477762e+002, 4.113596e+002
3.482583e+002, 4.115814e+002
3.487404e+002, 4.124930e+002
3.492225e+002, 4.138838e+002
3.497047e+002, 4.148322e+002
3.501868e+002, 4.147170e+002
3.506689e+002, 4.140620e+002
3.511510e+002, 4.137907e+002
3.516331e+002, 4.138965e+002
3.521152e+002, 4.140630e+002
3.525974e+002, 4.139198e+002
3.530795e+002, 4.136602e+002
3.535616e+002, 4.136531e+002
3.540437e+002, 4.140608e+002
3.545258e+002, 4.146767e+002
3.550079e+002, 4.155066e+002
3.554901e+002, 4.164467e+002
3.559722e+002, 4.170496e+002
3.564543e+002, 4.168712e+002
3.569364e+002, 4.163001e+002
3.574185e+002, 4.156961e+002
3.579006e+002, 4.150807e+002
3.583828e+002, 4.145717e+002
3.588649e+002, 4.140998e+002
3.593470e+002, 4.137895e+002
3.598291e+002, 4.138838e+002
3.603112e+002, 4.149696e+002
3.607933e+002, 4.161299e+002
3.612755e+002, 4.169156e+002
3.617576e+002, 4.172998e+002
3.622397e+002, 4.171616e+002
3.627218e+002, 4.156585e+002
3.632039e+002, 4.138863e+002
3.636860e+002, 4.130692e+002
3.641682e+002, 4.146565e+002
3.646503e+002, 4.161449e+002
3.651324e+002, 4.166382e+002
3.656145e+002, 4.161669e+002
3.660966e+002, 4.157624e+002
3.665787e+002, 4.155243e+002
3.670609e+002, 4.154514e+002
3.675430e+002, 4.155433e+002
3.680251e+002, 4.155052e+002
3.685072e+002, 4.159976e+002
3.689893e+002, 4.177184e+002
3.694714e+002, 4.201029e+002
3.699536e+002, 4.211942e+002
3.704357e+002, 4.198576e+002
3.709178e+002, 4.184265e+002
3.713999e+002, 4.178895e+002
3.718820e+002, 4.187675e+002
3.723641e+002, 4.191260e+002
3.728463e+002, 4.184765e+002
3.733284e+002, 4.176229e+002
3.738105e+002, 4.179715e+002
3.742926e+002, 4.202513e+002
3.747747e+002, 4.220840e+002
3.752568e+002, 4.226972e+002
3.757390e+002, 4.220746e+002
3.762211e+002, 4.215520e+002
3.767032e+002, 4.211267e+002
3.771853e+002, 4.207849e+002
3.776674e+002, 4.204489e+002
3.781495e+002, 4.200848e+002
3.786317e+002, 4.200456e+002
3.791138e+002, 4.205042e+002
3.795959e+002, 4.212679e+002
3.800780e+002, 4.218258e+002
3.805601e+002, 4.221861e+002
3.810422e+002, 4.222395e+002
3.815244e+002, 4.215371e+002
3.820065e+002, 4.203252e+002
3.824886e+002, 4.201766e+002
3.829707e+002, 4.215059e+002
3.834528e+002, 4.231928e+002
3.839349e+002, 4.235858e+002
3.844171e+002, 4.228722e+002
3.848992e+002, 4.220821e+002
3.853813e+002, 4.215727e+002
3.858634e+002, 4.213512e+002
3.863455e+002, 4.215295e+002
3.868276e+002, 4.221246e+002
3.873098e+002, 4.227205e+002
3.877919e+002, 4.227154e+002
3.882740e+002, 4.224922e+002
3.887561e+002, 4.227704e+002
3.892382e+002, 4.244277e+002
3.897203e+002, 4.260413e+002
3.902025e+002, 4.261739e+002
3.906846e+002, 4.250956e+002
3.911667e+002, 4.240950e+002
3.916488e+002, 4.241388e+002
3.921309e+002, 4.244388e+002
3.926130e+002, 4.241793e+002
3.930952e+002, 4.226372e+002
3.935773e+002, 4.217990e+002
3.940594e+002, 4.233583e+002
3.945415e+002, 4.261335e+002
3.950236e+002, 4.279305e+002
3.955057e+002, 4.269812e+002
3.959879e+002, 4.259044e+002
3.964700e+002, 4.259534e+002
3.969521e+002, 4.274878e+002
3.974342e+002, 4.283849e+002
3.979163e+002, 4.272843e+002
3.983984e+002, 4.259016e+002
3.988806e+002, 4.258017e+002
3.993627e+002, 4.292082e+002
3.998448e+002, 4.314590e+002
4.003269e+002, 4.315402e+002
4.008090e+002, 4.297778e+002
4.012911e+002, 4.286676e+002
4.017733e+002, 4.286153e+002
4.022554e+002, 4.287195e+002
4.027375e+002, 4.284588e+002
4.032196e+002, 4.274799e+002
4.037017e+002, 4.270576e+002
4.041838e+002, 4.273963e+002
4.046660e+002, 4.281573e+002
4.051481e+002, 4.286826e+002
4.056302e+002, 4.289050e+002
4.061123e+002, 4.291611e+002
4.065944e+002, 4.296344e+002
4.070765e+002, 4.303041e+002
4.075587e+002, 4.306847e+002
4.080408e+002, 4.307576e+002
4.085229e+002, 4.306157e+002
4.090050e+002, 4.302780e+002
4.094871e+002, 4.297586e+002
4.099692e+002, 4.292039e+002
4.104514e+002, 4.283983e+002
4.109335e+002, 4.278344e+002
4.114156e+002, 4.289741e+002
4.118977e+002, 4.316504e+002
4.123798e+002, 4.340604e+002
4.128619e+002, 4.347389e+002
4.133441e+002, 4.343352e+002
4.138262e+002, 4.341240e+002
4.143083e+002, 4.342911e+002
4.147904e+002, 4.344409e+002
4.152725e+002, 4.340763e+002
4.157546e+002, 4.334152e+002
