##NAMES=Steenstrupine-(Ce)
##RRUFFID=R100205
##IDEAL CHEMISTRY=Na_14_Ce^3+^_6_Mn^2+^Mn^3+^Fe^3+^_2_Zr^4+^(P^5+^O_4_)_7_Si_12_O_36_(OH)_2_&#183;3H_2_O
##LOCALITY=Mont Saint-Hilaire, Rouville County, Quebec, Canada
##OWNER=RRUFF
##SOURCE=Royal Ontario Museum
##DESCRIPTION=Transparent brown blocky crystals on a white sodalite matrix. Our sample is twinned. If we ignored the twin, then we get the reported hexagonal cell of Moore and Shen (1983).
##STATUS=The identification of this mineral has been confirmed only by single crystal X-ray diffraction.
##URL=rruff.info/R100205
178.7805, 1295.925
179.2626, 1294.146
179.7447, 1292.699
180.2268, 1290.710
180.7090, 1286.688
181.1911, 1281.281
181.6732, 1276.544
182.1553, 1273.287
182.6374, 1271.360
183.1195, 1270.936
183.6017, 1272.228
184.0838, 1273.741
184.5659, 1273.433
185.0480, 1271.665
185.5301, 1270.260
186.0123, 1270.161
186.4944, 1271.095
186.9765, 1272.103
187.4586, 1273.012
187.9407, 1274.457
188.4228, 1278.102
188.9050, 1283.649
189.3871, 1288.175
189.8692, 1289.443
190.3513, 1288.142
190.8334, 1287.790
191.3155, 1288.657
191.7977, 1290.239
192.2798, 1291.831
192.7619, 1293.444
193.2440, 1295.151
193.7261, 1297.426
194.2082, 1300.132
194.6904, 1301.560
195.1725, 1301.532
195.6546, 1300.440
196.1367, 1298.675
196.6188, 1296.153
197.1009, 1293.949
197.5831, 1292.960
198.0652, 1293.163
198.5473, 1292.452
199.0294, 1290.450
199.5115, 1287.819
199.9937, 1285.789
200.4758, 1284.360
200.9579, 1283.527
201.4400, 1283.531
201.9221, 1284.445
202.4042, 1284.990
202.8864, 1285.091
203.3685, 1284.765
203.8506, 1284.014
204.3327, 1282.801
204.8148, 1281.325
205.2969, 1279.656
205.7791, 1277.770
206.2612, 1275.724
206.7433, 1273.227
207.2254, 1270.788
207.7075, 1270.088
208.1896, 1271.860
208.6718, 1273.249
209.1539, 1272.413
209.6360, 1268.799
210.1181, 1265.812
210.6002, 1263.502
211.0823, 1262.017
211.5645, 1262.168
212.0466, 1264.867
212.5287, 1267.119
213.0108, 1266.842
213.4929, 1262.924
213.9750, 1261.073
214.4572, 1262.382
214.9393, 1265.643
215.4214, 1267.243
215.9035, 1266.651
216.3856, 1265.463
216.8678, 1264.538
217.3499, 1264.002
217.8320, 1263.182
218.3141, 1261.974
218.7962, 1260.441
219.2783, 1258.706
219.7605, 1256.389
220.2426, 1254.509
220.7247, 1253.761
221.2068, 1254.686
221.6889, 1255.107
222.1710, 1254.655
222.6532, 1253.711
223.1353, 1253.707
223.6174, 1255.701
224.0995, 1256.915
224.5816, 1255.678
225.0637, 1250.564
225.5459, 1246.639
226.0280, 1244.213
226.5101, 1243.042
226.9922, 1242.505
227.4743, 1242.799
227.9564, 1243.408
228.4386, 1244.167
228.9207, 1245.296
229.4028, 1245.913
229.8849, 1245.574
230.3670, 1244.800
230.8492, 1245.267
231.3313, 1248.134
231.8134, 1250.473
232.2955, 1250.806
232.7776, 1247.995
233.2597, 1245.828
233.7419, 1244.350
234.2240, 1243.552
234.7061, 1243.538
235.1882, 1244.908
235.6703, 1246.199
236.1524, 1246.751
236.6346, 1246.125
237.1167, 1245.788
237.5988, 1245.774
238.0809, 1246.033
238.5630, 1246.496
239.0451, 1247.407
239.5273, 1248.116
240.0094, 1248.153
240.4915, 1246.683
240.9736, 1246.727
241.4557, 1248.948
241.9378, 1252.344
242.4200, 1254.834
242.9021, 1256.033
243.3842, 1256.925
243.8663, 1257.865
244.3484, 1258.908
244.8306, 1259.812
245.3127, 1260.516
245.7948, 1261.108
246.2769, 1261.675
246.7590, 1261.895
247.2411, 1262.639
247.7233, 1264.295
248.2054, 1267.127
248.6875, 1270.013
249.1696, 1273.280
249.6517, 1276.379
250.1338, 1278.253
250.6160, 1278.136
251.0981, 1278.203
251.5802, 1279.222
252.0623, 1281.452
252.5444, 1283.349
253.0265, 1284.859
253.5087, 1286.082
253.9908, 1287.028
254.4729, 1287.306
254.9550, 1288.143
255.4371, 1290.116
255.9192, 1293.438
256.4014, 1295.940
256.8835, 1297.105
257.3656, 1297.965
257.8477, 1299.739
258.3298, 1302.429
258.8120, 1306.132
259.2941, 1311.553
259.7762, 1318.961
260.2583, 1323.463
260.7404, 1324.124
261.2225, 1323.056
261.7047, 1322.282
262.1868, 1321.491
262.6689, 1321.805
263.1510, 1323.844
263.6331, 1327.510
264.1152, 1330.198
264.5974, 1331.636
265.0795, 1332.479
265.5616, 1333.287
266.0437, 1334.091
266.5258, 1334.843
267.0079, 1335.539
267.4901, 1336.206
267.9722, 1337.072
268.4543, 1338.566
268.9364, 1339.498
269.4185, 1338.820
269.9006, 1336.300
270.3828, 1333.132
270.8649, 1328.908
271.3470, 1324.197
271.8291, 1321.821
272.3112, 1322.276
272.7933, 1323.616
273.2755, 1324.699
273.7576, 1325.609
274.2397, 1325.429
274.7218, 1323.733
275.2039, 1321.018
275.6860, 1318.902
276.1682, 1317.536
276.6503, 1316.121
277.1324, 1314.099
277.6145, 1311.459
278.0966, 1308.798
278.5787, 1305.997
279.0609, 1303.486
279.5430, 1302.476
280.0251, 1303.276
280.5072, 1303.950
280.9893, 1302.830
281.4715, 1299.958
281.9536, 1299.712
282.4357, 1303.142
282.9178, 1307.558
283.3999, 1307.859
283.8820, 1303.799
284.3642, 1299.652
284.8463, 1297.179
285.3284, 1296.286
285.8105, 1296.498
286.2926, 1297.998
286.7747, 1299.842
287.2569, 1300.896
287.7390, 1301.150
288.2211, 1300.691
288.7032, 1298.852
289.1853, 1296.216
289.6674, 1295.839
290.1496, 1298.040
290.6317, 1300.461
291.1138, 1300.505
291.5959, 1298.387
292.0780, 1295.459
292.5602, 1291.421
293.0423, 1287.159
293.5244, 1285.165
294.0065, 1285.528
294.4886, 1286.673
294.9707, 1287.239
295.4529, 1287.418
295.9350, 1288.030
296.4171, 1289.940
296.8992, 1291.786
297.3813, 1290.307
297.8634, 1285.821
298.3456, 1281.826
298.8277, 1281.498
299.3098, 1283.623
299.7919, 1285.710
300.2740, 1287.444
300.7561, 1288.554
301.2383, 1288.364
301.7204, 1287.086
302.2025, 1285.682
302.6846, 1284.516
303.1667, 1283.675
303.6488, 1283.300
304.1310, 1283.467
304.6131, 1283.953
305.0952, 1284.601
305.5773, 1285.400
306.0594, 1286.317
306.5415, 1287.194
307.0237, 1288.248
307.5058, 1289.829
307.9879, 1292.026
308.4700, 1294.264
308.9521, 1296.256
309.4343, 1297.975
309.9164, 1299.426
310.3985, 1299.893
310.8806, 1300.586
311.3627, 1302.909
311.8448, 1306.962
312.3270, 1310.369
312.8091, 1311.011
313.2912, 1310.436
313.7733, 1310.470
314.2554, 1311.681
314.7375, 1313.735
315.2197, 1316.987
315.7018, 1321.266
316.1839, 1324.944
316.6660, 1326.630
317.1481, 1327.762
317.6302, 1329.558
318.1124, 1333.747
318.5945, 1336.873
319.0766, 1336.782
319.5587, 1334.465
320.0408, 1333.364
320.5229, 1335.588
321.0051, 1338.594
321.4872, 1341.033
321.9693, 1342.638
322.4514, 1343.721
322.9335, 1343.964
323.4156, 1343.757
323.8978, 1343.851
324.3799, 1344.437
324.8620, 1345.297
325.3441, 1346.354
325.8262, 1347.580
326.3083, 1349.059
326.7905, 1351.377
327.2726, 1353.775
327.7547, 1355.290
328.2368, 1355.509
328.7189, 1355.252
329.2010, 1354.468
329.6832, 1353.079
330.1653, 1352.103
330.6474, 1352.084
331.1295, 1352.086
331.6116, 1351.285
332.0938, 1348.837
332.5759, 1346.937
333.0580, 1346.141
333.5401, 1346.232
334.0222, 1345.596
334.5043, 1343.691
334.9865, 1341.791
335.4686, 1340.802
335.9507, 1341.415
336.4328, 1341.003
336.9149, 1339.190
337.3970, 1336.359
337.8792, 1333.527
338.3613, 1330.573
338.8434, 1327.860
339.3255, 1325.549
339.8076, 1323.670
340.2898, 1322.111
340.7719, 1321.093
341.2540, 1320.035
341.7361, 1317.674
342.2182, 1313.846
342.7003, 1310.774
343.1825, 1309.577
343.6646, 1309.908
344.1467, 1309.507
344.6288, 1308.281
345.1109, 1306.751
345.5930, 1305.311
346.0752, 1303.976
346.5573, 1302.808
347.0394, 1301.843
347.5215, 1300.996
348.0036, 1300.034
348.4857, 1298.958
348.9679, 1297.927
349.4500, 1297.058
349.9321, 1296.316
350.4142, 1295.785
350.8963, 1295.734
351.3784, 1295.250
351.8606, 1292.389
352.3427, 1287.852
352.8248, 1284.167
353.3069, 1283.163
353.7890, 1283.754
354.2711, 1284.915
354.7533, 1286.735
355.2354, 1287.670
355.7175, 1285.842
356.1996, 1282.271
356.6817, 1278.736
357.1638, 1276.061
357.6460, 1273.645
358.1281, 1270.635
358.6102, 1267.153
359.0923, 1264.628
359.5744, 1264.833
360.0565, 1265.993
360.5387, 1266.397
361.0208, 1265.375
361.5029, 1263.755
361.9850, 1261.219
362.4671, 1258.253
362.9492, 1256.387
363.4314, 1257.834
363.9135, 1259.311
364.3956, 1258.838
364.8777, 1255.216
365.3598, 1251.877
365.8419, 1249.286
366.3241, 1247.472
366.8062, 1246.503
367.2883, 1247.078
367.7704, 1247.827
368.2526, 1248.613
368.7347, 1249.592
369.2168, 1249.559
369.6989, 1246.999
370.1810, 1244.346
370.6631, 1243.713
371.1453, 1247.683
371.6274, 1249.768
372.1095, 1248.389
372.5916, 1244.205
373.0737, 1241.707
373.5558, 1241.450
374.0380, 1242.006
374.5201, 1242.654
375.0022, 1243.396
375.4843, 1244.225
375.9664, 1245.252
376.4485, 1246.267
376.9307, 1246.610
377.4128, 1245.921
377.8949, 1246.094
378.3770, 1248.480
378.8591, 1252.877
379.3412, 1255.295
379.8234, 1255.477
380.3055, 1254.517
380.7876, 1253.397
381.2697, 1252.125
381.7518, 1250.924
382.2339, 1249.663
382.7161, 1248.672
383.1982, 1249.200
383.6803, 1251.182
384.1624, 1252.697
384.6445, 1250.986
385.1266, 1247.743
385.6088, 1247.790
386.0909, 1252.735
386.5730, 1258.302
387.0551, 1258.750
387.5372, 1255.584
388.0193, 1253.112
388.5015, 1253.656
388.9836, 1256.008
389.4657, 1259.329
389.9478, 1263.605
390.4299, 1267.561
390.9120, 1270.972
391.3942, 1273.363
391.8763, 1274.075
392.3584, 1271.241
392.8405, 1268.253
393.3226, 1266.570
393.8047, 1266.124
394.2869, 1266.602
394.7690, 1268.327
395.2511, 1270.639
395.7332, 1273.201
396.2154, 1276.181
396.6975, 1278.949
397.1796, 1281.833
397.6617, 1284.382
398.1438, 1285.818
398.6259, 1283.625
399.1081, 1282.665
399.5902, 1284.866
400.0723, 1290.875
400.5544, 1295.497
401.0365, 1298.078
401.5186, 1299.731
402.0008, 1301.224
402.4829, 1302.005
402.9650, 1303.678
403.4471, 1306.689
403.9292, 1310.724
404.4113, 1314.656
404.8935, 1319.054
405.3756, 1322.115
405.8577, 1322.101
406.3398, 1318.258
406.8219, 1317.340
407.3040, 1320.112
407.7862, 1324.533
408.2683, 1327.651
408.7504, 1329.435
409.2325, 1331.547
409.7146, 1334.805
410.1967, 1338.774
410.6789, 1342.047
411.1610, 1344.612
411.6431, 1347.243
412.1252, 1350.204
412.6073, 1353.716
413.0894, 1358.601
413.5716, 1365.290
414.0537, 1372.548
414.5358, 1378.766
415.0179, 1384.179
415.5000, 1389.796
415.9821, 1396.742
416.4643, 1403.741
416.9464, 1409.244
417.4285, 1413.007
417.9106, 1416.539
418.3927, 1420.774
418.8748, 1425.328
419.3570, 1429.671
419.8391, 1433.422
420.3212, 1437.166
420.8033, 1441.609
421.2854, 1446.446
421.7675, 1450.318
422.2497, 1452.217
422.7318, 1453.529
423.2139, 1455.013
423.6960, 1457.103
424.1781, 1458.674
424.6602, 1459.426
425.1424, 1459.660
425.6245, 1459.800
426.1066, 1460.020
426.5887, 1459.946
427.0709, 1459.486
427.5530, 1458.633
428.0351, 1457.422
428.5172, 1455.427
428.9993, 1453.604
429.4814, 1452.764
429.9636, 1453.258
430.4457, 1453.390
430.9278, 1453.146
431.4099, 1452.326
431.8920, 1450.349
432.3741, 1447.080
432.8563, 1443.498
433.3384, 1439.495
433.8205, 1435.347
434.3026, 1433.551
434.7847, 1434.365
435.2668, 1435.374
435.7490, 1433.546
436.2311, 1429.724
436.7132, 1427.168
437.1953, 1427.536
437.6774, 1428.418
438.1595, 1426.030
438.6417, 1421.084
439.1238, 1416.531
439.6059, 1414.679
440.0880, 1413.862
440.5701, 1412.441
441.0522, 1410.236
441.5344, 1407.396
442.0165, 1403.374
442.4986, 1398.983
442.9807, 1395.238
443.4628, 1392.558
443.9449, 1390.497
444.4271, 1389.598
444.9092, 1389.473
445.3913, 1387.973
445.8734, 1382.553
446.3555, 1377.192
446.8376, 1374.063
447.3198, 1375.105
447.8019, 1374.798
448.2840, 1372.224
448.7661, 1368.588
449.2482, 1365.487
449.7303, 1362.799
450.2125, 1360.963
450.6946, 1360.441
451.1767, 1361.085
451.6588, 1360.621
452.1409, 1358.784
452.6230, 1356.473
453.1052, 1354.440
453.5873, 1352.738
454.0694, 1350.273
454.5515, 1346.798
455.0337, 1342.873
455.5158, 1339.444
455.9979, 1336.461
456.4800, 1333.669
456.9621, 1330.711
457.4442, 1327.911
457.9264, 1326.350
458.4085, 1325.987
458.8906, 1325.431
459.3727, 1323.613
459.8548, 1320.863
460.3369, 1317.546
460.8191, 1313.271
461.3012, 1309.516
461.7833, 1307.969
462.2654, 1307.808
462.7475, 1307.311
463.2296, 1305.431
463.7118, 1303.248
464.1939, 1301.341
464.6760, 1299.725
465.1581, 1298.093
465.6402, 1295.990
466.1223, 1294.028
466.6045, 1292.664
467.0866, 1292.834
467.5687, 1292.474
468.0508, 1291.094
468.5329, 1289.124
469.0150, 1287.484
469.4972, 1286.185
469.9793, 1285.220
470.4614, 1284.601
470.9435, 1284.332
471.4256, 1284.632
471.9077, 1285.990
472.3899, 1286.991
472.8720, 1285.990
473.3541, 1282.740
473.8362, 1280.492
474.3183, 1279.886
474.8004, 1280.167
475.2826, 1279.863
475.7647, 1279.011
476.2468, 1278.222
476.7289, 1277.313
477.2110, 1276.766
477.6931, 1278.403
478.1753, 1282.217
478.6574, 1285.201
479.1395, 1283.999
479.6216, 1280.627
480.1037, 1278.110
480.5858, 1277.606
481.0680, 1277.405
481.5501, 1275.953
482.0322, 1273.964
482.5143, 1272.935
482.9964, 1274.725
483.4786, 1276.537
483.9607, 1277.038
484.4428, 1276.081
484.9249, 1274.775
485.4070, 1272.036
485.8892, 1269.854
486.3713, 1269.725
486.8534, 1273.654
487.3355, 1276.660
487.8176, 1278.314
488.2997, 1279.071
488.7819, 1279.971
489.2640, 1281.258
489.7461, 1282.068
490.2282, 1281.840
490.7103, 1280.676
491.1924, 1280.485
491.6746, 1281.291
492.1567, 1282.904
492.6388, 1285.722
493.1209, 1289.520
493.6030, 1291.863
494.0851, 1292.145
494.5673, 1291.740
495.0494, 1292.810
495.5315, 1294.942
496.0136, 1296.614
496.4957, 1296.496
496.9778, 1295.934
497.4600, 1296.882
497.9421, 1299.130
498.4242, 1300.580
498.9063, 1298.666
499.3884, 1296.167
499.8705, 1295.722
500.3527, 1298.851
500.8348, 1301.552
501.3169, 1301.676
501.7990, 1300.694
502.2811, 1300.688
502.7632, 1303.938
503.2454, 1306.149
503.7275, 1305.316
504.2096, 1301.930
504.6917, 1301.535
505.1738, 1306.004
505.6559, 1310.940
506.1381, 1313.639
506.6202, 1312.930
507.1023, 1315.217
507.5844, 1321.572
508.0665, 1329.018
508.5486, 1333.234
509.0308, 1334.153
509.5129, 1335.006
509.9950, 1336.375
510.4771, 1338.414
510.9592, 1341.800
511.4413, 1346.388
511.9235, 1351.085
512.4056, 1355.168
512.8877, 1358.895
513.3698, 1362.635
513.8519, 1366.386
514.3340, 1370.394
514.8162, 1375.784
515.2983, 1381.189
515.7804, 1384.882
516.2625, 1384.484
516.7446, 1384.712
517.2267, 1387.899
517.7089, 1393.150
518.1910, 1398.221
518.6731, 1402.129
519.1552, 1406.323
519.6373, 1411.566
520.1194, 1418.087
520.6016, 1423.606
521.0837, 1427.578
521.5658, 1431.066
522.0479, 1434.548
522.5300, 1437.489
523.0121, 1442.567
523.4943, 1450.961
523.9764, 1460.195
524.4585, 1465.456
524.9406, 1466.577
525.4227, 1467.532
525.9048, 1469.483
526.3870, 1472.364
526.8691, 1477.021
527.3513, 1483.259
527.8334, 1487.844
528.3155, 1487.023
528.7976, 1483.673
529.2797, 1482.315
529.7618, 1483.874
530.2440, 1485.056
530.7261, 1483.326
531.2082, 1479.886
531.6903, 1476.313
532.1724, 1472.396
532.6545, 1469.133
533.1367, 1467.557
533.6188, 1467.009
534.1009, 1465.090
534.5830, 1460.073
535.0651, 1454.969
535.5472, 1450.822
536.0294, 1447.733
536.5115, 1444.702
536.9936, 1441.870
537.4757, 1438.917
537.9578, 1435.438
538.4399, 1431.223
538.9221, 1427.629
539.4042, 1424.777
539.8863, 1422.556
540.3684, 1420.870
540.8505, 1419.685
541.3326, 1418.650
541.8148, 1417.903
542.2969, 1417.052
542.7790, 1415.117
543.2611, 1412.245
543.7432, 1409.524
544.2253, 1407.550
544.7075, 1406.178
545.1896, 1405.592
545.6717, 1406.098
546.1538, 1405.764
546.6359, 1402.629
547.1180, 1398.588
547.6002, 1395.693
548.0823, 1396.163
548.5644, 1395.805
549.0465, 1393.906
549.5286, 1390.621
550.0107, 1386.371
550.4929, 1380.538
550.9750, 1374.619
551.4571, 1368.877
551.9392, 1363.282
552.4213, 1358.969
552.9034, 1356.266
553.3856, 1353.723
553.8677, 1350.251
554.3498, 1345.886
554.8319, 1341.075
555.3140, 1335.875
555.7961, 1330.166
556.2783, 1323.398
556.7604, 1316.005
557.2425, 1309.271
557.7246, 1303.621
558.2067, 1298.890
558.6888, 1295.620
559.1710, 1293.332
559.6531, 1290.403
560.1352, 1285.158
560.6173, 1279.781
561.0994, 1275.767
561.5815, 1273.389
562.0637, 1270.820
562.5458, 1267.677
563.0279, 1264.231
563.5100, 1260.568
563.9921, 1255.707
564.4742, 1252.366
564.9564, 1250.948
565.4385, 1250.775
565.9206, 1250.839
566.4027, 1251.165
566.8848, 1251.567
567.3669, 1252.143
567.8491, 1252.663
568.3312, 1252.217
568.8133, 1250.842
569.2954, 1249.417
569.7775, 1248.405
570.2596, 1247.776
570.7418, 1247.336
571.2239, 1247.055
571.7060, 1247.627
572.1881, 1250.625
572.6702, 1254.297
573.1523, 1256.605
573.6345, 1256.047
574.1166, 1255.840
574.5987, 1257.268
575.0808, 1259.790
575.5629, 1262.550
576.0450, 1265.836
576.5272, 1268.787
577.0093, 1270.913
577.4914, 1272.427
577.9735, 1274.896
578.4556, 1278.649
578.9377, 1282.649
579.4199, 1286.101
579.9020, 1288.934
580.3841, 1294.208
580.8662, 1302.335
581.3483, 1310.683
581.8304, 1316.397
582.3126, 1320.050
582.7947, 1323.617
583.2768, 1327.518
583.7589, 1331.250
584.2410, 1333.483
584.7231, 1335.202
585.2053, 1338.360
585.6874, 1345.303
586.1696, 1352.451
586.6517, 1358.440
587.1338, 1363.123
587.6159, 1366.057
588.0980, 1364.007
588.5801, 1362.900
589.0623, 1365.962
589.5444, 1374.090
590.0265, 1380.107
590.5086, 1382.919
590.9907, 1385.031
591.4728, 1388.784
591.9550, 1394.737
592.4371, 1398.369
592.9192, 1398.751
593.4013, 1398.172
593.8834, 1400.468
594.3655, 1405.105
594.8477, 1408.583
595.3298, 1409.528
595.8119, 1409.078
596.2940, 1408.885
596.7761, 1408.619
597.2582, 1407.175
597.7404, 1402.807
598.2225, 1397.912
598.7046, 1394.664
599.1867, 1393.127
599.6688, 1389.960
600.1509, 1383.512
600.6331, 1375.507
601.1152, 1366.864
601.5973, 1356.829
602.0794, 1347.887
602.5615, 1340.243
603.0436, 1333.571
603.5258, 1327.892
604.0079, 1323.552
604.4900, 1318.486
604.9721, 1312.329
605.4542, 1305.487
605.9363, 1298.343
606.4185, 1291.097
606.9006, 1284.849
607.3827, 1280.848
607.8648, 1277.816
608.3469, 1274.043
608.8290, 1269.615
609.3112, 1265.201
609.7933, 1260.946
610.2754, 1256.973
610.7575, 1253.240
611.2396, 1249.773
611.7217, 1246.788
612.2039, 1244.953
612.6860, 1243.257
613.1681, 1240.872
613.6502, 1237.183
614.1323, 1233.824
614.6144, 1230.813
615.0966, 1228.153
615.5787, 1225.826
616.0608, 1223.898
616.5429, 1222.088
617.0250, 1220.597
617.5071, 1218.910
617.9893, 1215.248
618.4714, 1209.944
618.9535, 1205.638
619.4356, 1204.435
619.9177, 1204.551
620.3998, 1203.704
620.8820, 1201.971
621.3641, 1200.297
621.8462, 1199.060
622.3283, 1198.160
622.8104, 1197.807
623.2925, 1198.463
623.7747, 1197.818
624.2568, 1193.890
624.7389, 1189.447
625.2210, 1186.737
625.7031, 1186.501
626.1852, 1186.426
626.6674, 1186.656
627.1495, 1186.684
627.6316, 1185.284
628.1137, 1182.362
628.5958, 1180.454
629.0779, 1180.812
629.5601, 1182.022
630.0422, 1180.974
630.5243, 1178.144
631.0064, 1175.700
631.4885, 1175.052
631.9706, 1175.229
632.4528, 1175.581
632.9349, 1176.036
633.4170, 1176.130
633.8991, 1175.582
634.3812, 1174.681
634.8633, 1173.412
635.3455, 1171.368
635.8276, 1170.368
636.3097, 1170.767
636.7918, 1171.911
637.2739, 1173.521
637.7560, 1176.010
638.2382, 1176.960
638.7203, 1175.689
639.2024, 1173.680
639.6845, 1173.228
640.1666, 1174.158
640.6487, 1175.191
641.1309, 1176.073
641.6130, 1176.656
642.0951, 1176.574
642.5772, 1175.989
643.0594, 1175.375
643.5415, 1174.618
644.0236, 1174.198
644.5057, 1174.810
644.9879, 1176.287
645.4700, 1176.955
645.9521, 1175.557
646.4342, 1174.115
646.9163, 1173.777
647.3984, 1174.945
647.8806, 1174.489
648.3627, 1171.688
648.8448, 1168.691
649.3269, 1167.224
649.8090, 1167.308
650.2911, 1167.848
650.7733, 1168.884
651.2554, 1169.888
651.7375, 1169.944
652.2196, 1169.488
652.7017, 1169.637
653.1838, 1170.921
653.6660, 1172.425
654.1481, 1173.313
654.6302, 1173.923
655.1123, 1174.879
655.5944, 1177.261
656.0765, 1179.032
656.5587, 1178.832
657.0408, 1177.264
657.5229, 1177.357
658.0050, 1180.378
658.4871, 1182.833
658.9692, 1183.266
659.4514, 1181.902
659.9335, 1181.425
660.4156, 1181.963
660.8977, 1182.369
661.3798, 1181.538
661.8619, 1179.981
662.3441, 1179.093
662.8262, 1178.973
663.3083, 1179.044
663.7904, 1179.133
664.2725, 1179.044
664.7546, 1178.500
665.2368, 1177.264
665.7189, 1176.124
666.2010, 1175.464
666.6831, 1175.003
667.1652, 1174.369
667.6473, 1172.608
668.1295, 1172.370
668.6116, 1174.662
669.0937, 1177.984
669.5758, 1179.140
670.0579, 1177.879
670.5400, 1176.915
671.0222, 1177.017
