##NAMES=Stellerite
##RRUFFID=R040174
##IDEAL CHEMISTRY=Ca_4_(Si_28_Al_8_)O_72_&#183;28H_2_O
##LOCALITY=unknown
##OWNER=RRUFF
##SOURCE=University of Arizona Mineral Museum
##DESCRIPTION=Parallel aggregates of thin tabular brown crystals
##STATUS=The identification of this mineral has been confirmed by X-ray diffraction and chemical analysis
##URL=rruff.info/R040174
##MEASURED CHEMISTRY=(Ca_3.89_Na_0.06_K_0.05_)_Σ=4_(Si_28.11_Al_7.89_)O_72_·15.18H_2_O; H_2_O estimated by difference
134.2341, 1944.080
134.7162, 2030.997
135.1983, 2127.658
135.6804, 2219.971
136.1626, 2307.306
136.6447, 2389.703
137.1268, 2466.318
137.6089, 2535.864
138.0910, 2602.118
138.5731, 2668.844
139.0553, 2741.336
139.5374, 2791.772
140.0195, 2811.528
140.5016, 2808.979
140.9837, 2814.816
141.4658, 2828.979
141.9480, 2851.710
142.4301, 2885.435
142.9122, 2939.990
143.3943, 2984.127
143.8764, 3011.019
144.3585, 3020.897
144.8407, 3036.603
145.3228, 3059.078
145.8049, 3086.591
146.2870, 3117.255
146.7691, 3148.256
147.2512, 3185.582
147.7334, 3231.821
148.2155, 3290.311
148.6976, 3344.712
149.1797, 3393.774
149.6618, 3439.218
150.1439, 3482.902
150.6261, 3531.554
151.1082, 3571.901
151.5903, 3597.993
152.0724, 3600.297
152.5545, 3609.506
153.0366, 3636.430
153.5188, 3671.347
154.0009, 3695.048
154.4830, 3703.088
154.9651, 3700.875
155.4472, 3690.728
155.9293, 3671.461
156.4115, 3646.581
156.8936, 3614.502
157.3757, 3576.692
157.8578, 3537.834
158.3399, 3493.876
158.8221, 3452.478
159.3042, 3418.201
159.7863, 3396.669
160.2684, 3378.025
160.7505, 3361.650
161.2326, 3346.691
161.7148, 3327.649
162.1969, 3299.074
162.6790, 3266.359
163.1611, 3235.086
163.6432, 3208.653
164.1253, 3182.568
164.6075, 3152.898
165.0896, 3119.448
165.5717, 3089.528
166.0538, 3070.618
166.5359, 3057.213
167.0180, 3041.387
167.5002, 3016.007
167.9823, 2989.235
168.4644, 2966.964
168.9465, 2949.765
169.4286, 2936.089
169.9107, 2930.006
170.3929, 2926.892
170.8750, 2916.825
171.3571, 2885.965
171.8392, 2849.487
172.3213, 2825.371
172.8034, 2819.031
173.2856, 2815.410
173.7677, 2799.804
174.2498, 2774.883
174.7319, 2750.135
175.2140, 2730.486
175.6961, 2714.776
176.1783, 2702.117
176.6604, 2694.135
177.1425, 2686.215
177.6246, 2671.791
178.1067, 2651.783
178.5888, 2631.166
179.0710, 2613.697
179.5531, 2598.547
180.0352, 2584.296
180.5173, 2571.050
180.9994, 2558.245
181.4815, 2543.787
181.9637, 2527.710
182.4458, 2514.983
182.9279, 2515.196
183.4100, 2523.698
183.8921, 2522.459
184.3742, 2501.726
184.8564, 2469.956
185.3385, 2446.707
185.8206, 2432.042
186.3027, 2422.692
186.7848, 2417.044
187.2669, 2414.596
187.7491, 2411.352
188.2312, 2405.839
188.7133, 2398.474
189.1954, 2390.509
189.6775, 2381.947
190.1596, 2372.994
190.6418, 2363.209
191.1239, 2352.688
191.6060, 2343.397
192.0881, 2339.045
192.5702, 2338.234
193.0524, 2326.702
193.5345, 2301.899
194.0166, 2273.106
194.4987, 2255.091
194.9808, 2248.376
195.4629, 2244.570
195.9451, 2239.686
196.4272, 2233.732
196.9093, 2231.082
197.3914, 2232.653
197.8735, 2236.303
198.3556, 2237.645
198.8378, 2236.207
199.3199, 2235.430
199.8020, 2239.949
200.2841, 2250.767
200.7662, 2250.182
201.2483, 2234.017
201.7305, 2208.790
202.2126, 2190.103
202.6947, 2178.691
203.1768, 2171.076
203.6589, 2165.608
204.1410, 2162.479
204.6232, 2160.485
205.1053, 2159.578
205.5874, 2159.716
206.0695, 2162.085
206.5516, 2168.859
207.0337, 2172.152
207.5159, 2163.375
207.9980, 2138.154
208.4801, 2123.145
208.9622, 2124.745
209.4443, 2138.992
209.9264, 2146.057
210.4086, 2143.683
210.8907, 2138.643
211.3728, 2136.617
211.8549, 2139.247
212.3370, 2138.804
212.8191, 2132.164
213.3013, 2120.770
213.7834, 2117.765
214.2655, 2127.890
214.7476, 2138.792
215.2297, 2137.021
215.7118, 2113.767
216.1940, 2103.065
216.6761, 2115.534
217.1582, 2149.698
217.6403, 2172.035
218.1224, 2181.758
218.6045, 2180.432
219.0867, 2166.227
219.5688, 2129.870
220.0509, 2103.010
220.5330, 2094.328
221.0151, 2104.086
221.4972, 2114.279
221.9794, 2127.458
222.4615, 2138.335
222.9436, 2140.129
223.4257, 2126.816
223.9078, 2116.906
224.3899, 2115.876
224.8721, 2124.662
225.3542, 2129.705
225.8363, 2129.725
226.3184, 2127.266
226.8005, 2125.029
227.2827, 2122.330
227.7648, 2121.214
228.2469, 2122.307
228.7290, 2125.760
229.2111, 2130.414
229.6932, 2137.581
230.1754, 2144.831
230.6575, 2149.216
231.1396, 2150.823
231.6217, 2149.176
232.1038, 2142.629
232.5859, 2129.137
233.0681, 2121.632
233.5502, 2120.155
234.0323, 2124.597
234.5144, 2136.263
234.9965, 2161.809
235.4786, 2183.172
235.9608, 2194.488
236.4429, 2193.830
236.9250, 2191.537
237.4071, 2187.384
237.8892, 2181.739
238.3713, 2174.589
238.8535, 2163.103
239.3356, 2154.886
239.8177, 2152.955
240.2998, 2159.119
240.7819, 2164.948
241.2640, 2171.938
241.7462, 2177.823
242.2283, 2177.688
242.7104, 2165.403
243.1925, 2157.226
243.6746, 2159.388
244.1567, 2175.399
244.6389, 2190.403
245.1210, 2206.194
245.6031, 2219.913
246.0852, 2225.028
246.5673, 2214.541
247.0494, 2207.455
247.5316, 2212.234
248.0137, 2234.943
248.4958, 2248.429
248.9779, 2248.179
249.4600, 2241.162
249.9421, 2240.993
250.4243, 2252.635
250.9064, 2262.202
251.3885, 2263.587
251.8706, 2252.952
252.3527, 2247.178
252.8348, 2248.187
253.3170, 2252.853
253.7991, 2255.360
254.2812, 2255.124
254.7633, 2253.791
255.2454, 2251.659
255.7275, 2248.238
256.2097, 2245.675
256.6918, 2243.130
257.1739, 2242.043
257.6560, 2245.030
258.1381, 2252.327
258.6202, 2263.362
259.1024, 2280.261
259.5845, 2306.825
260.0666, 2321.895
260.5487, 2320.887
261.0308, 2311.823
261.5129, 2309.330
261.9951, 2315.083
262.4772, 2323.495
262.9593, 2332.858
263.4414, 2343.693
263.9235, 2353.204
264.4056, 2360.864
264.8878, 2367.805
265.3699, 2377.436
265.8520, 2392.481
266.3341, 2402.574
266.8162, 2400.585
267.2983, 2382.762
267.7805, 2378.329
268.2626, 2391.860
268.7447, 2413.778
269.2268, 2427.049
269.7089, 2429.198
270.1910, 2431.564
270.6732, 2439.684
271.1553, 2454.589
271.6374, 2463.813
272.1195, 2465.113
272.6016, 2464.032
273.0837, 2470.194
273.5659, 2485.048
274.0480, 2499.848
274.5301, 2512.090
275.0122, 2521.744
275.4943, 2526.788
275.9764, 2525.845
276.4586, 2522.877
276.9407, 2524.062
277.4228, 2529.824
277.9049, 2535.899
278.3870, 2541.138
278.8691, 2545.491
279.3513, 2546.778
279.8334, 2543.707
280.3155, 2540.896
280.7976, 2546.161
281.2798, 2559.876
281.7619, 2571.944
282.2440, 2578.616
282.7261, 2580.308
283.2082, 2580.225
283.6903, 2578.475
284.1725, 2574.546
284.6546, 2566.157
285.1367, 2553.623
285.6188, 2543.393
286.1009, 2539.068
286.5830, 2539.031
287.0652, 2535.898
287.5473, 2529.268
288.0294, 2522.106
288.5115, 2518.161
288.9936, 2517.000
289.4757, 2515.115
289.9579, 2510.410
290.4400, 2504.354
290.9221, 2500.764
291.4042, 2499.682
291.8863, 2500.544
292.3684, 2504.006
292.8506, 2509.333
293.3327, 2513.630
293.8148, 2517.579
294.2969, 2519.063
294.7790, 2512.781
295.2611, 2498.677
295.7433, 2482.328
296.2254, 2465.101
296.7075, 2448.878
297.1896, 2439.831
297.6717, 2442.537
298.1538, 2450.581
298.6360, 2453.332
299.1181, 2451.396
299.6002, 2451.613
300.0823, 2464.936
300.5644, 2483.521
301.0465, 2491.555
301.5287, 2478.932
302.0108, 2461.600
302.4929, 2459.065
302.9750, 2469.062
303.4571, 2478.740
303.9392, 2476.384
304.4214, 2469.430
304.9035, 2469.479
305.3856, 2485.845
305.8677, 2499.262
306.3498, 2486.924
306.8319, 2455.561
307.3141, 2428.627
307.7962, 2421.056
308.2783, 2424.420
308.7604, 2431.735
309.2425, 2444.202
309.7246, 2454.433
310.2068, 2457.527
310.6889, 2454.676
311.1710, 2449.081
311.6531, 2441.133
312.1352, 2431.731
312.6173, 2420.443
313.0995, 2405.196
313.5816, 2394.339
314.0637, 2394.699
314.5458, 2401.972
315.0279, 2408.021
315.5100, 2410.793
315.9922, 2410.722
316.4743, 2407.990
316.9564, 2402.584
317.4385, 2394.664
317.9206, 2378.113
318.4027, 2360.473
318.8849, 2352.278
319.3670, 2373.728
319.8491, 2389.828
320.3312, 2383.098
320.8133, 2347.027
321.2954, 2320.216
321.7776, 2312.454
322.2597, 2316.486
322.7418, 2324.581
323.2239, 2351.382
323.7060, 2366.425
324.1881, 2356.084
324.6703, 2317.103
325.1524, 2290.456
325.6345, 2289.295
326.1166, 2296.344
326.5987, 2297.626
327.0808, 2282.086
327.5630, 2273.797
328.0451, 2280.531
328.5272, 2301.133
329.0093, 2309.914
329.4914, 2296.671
329.9735, 2280.702
330.4557, 2275.553
330.9378, 2293.944
331.4199, 2300.379
331.9020, 2286.340
332.3841, 2257.290
332.8662, 2240.316
333.3484, 2240.298
333.8305, 2245.208
334.3126, 2248.988
334.7947, 2251.513
335.2768, 2252.918
335.7589, 2252.167
336.2411, 2250.875
336.7232, 2254.924
337.2053, 2267.824
337.6874, 2275.697
338.1695, 2267.708
338.6516, 2240.487
339.1338, 2228.996
339.6159, 2237.737
340.0980, 2256.285
340.5801, 2268.427
341.0622, 2274.160
341.5443, 2274.410
342.0265, 2267.185
342.5086, 2253.641
342.9907, 2243.729
343.4728, 2237.583
343.9549, 2234.891
344.4370, 2238.112
344.9192, 2246.279
345.4013, 2249.760
345.8834, 2240.779
346.3655, 2225.860
346.8476, 2223.709
347.3297, 2234.602
347.8119, 2249.632
348.2940, 2263.686
348.7761, 2275.584
349.2582, 2280.901
349.7403, 2274.554
350.2225, 2265.167
350.7046, 2264.691
351.1867, 2272.547
351.6688, 2284.339
352.1509, 2300.245
352.6331, 2317.214
353.1152, 2330.367
353.5973, 2337.468
354.0794, 2342.675
354.5615, 2350.206
355.0436, 2359.005
355.5258, 2365.854
356.0079, 2365.468
356.4900, 2364.308
356.9721, 2368.046
357.4542, 2378.088
357.9363, 2391.219
358.4185, 2410.049
358.9006, 2430.287
359.3827, 2444.514
359.8648, 2439.600
360.3469, 2436.042
360.8290, 2446.815
361.3112, 2475.380
361.7933, 2501.163
362.2754, 2512.104
362.7575, 2519.134
363.2396, 2534.193
363.7217, 2575.160
364.2039, 2609.032
364.6860, 2621.971
365.1681, 2613.605
365.6502, 2614.671
366.1323, 2634.003
366.6144, 2660.589
367.0966, 2686.997
367.5787, 2712.344
368.0608, 2737.885
368.5429, 2762.573
369.0250, 2787.274
369.5071, 2815.959
369.9893, 2851.590
370.4714, 2887.598
370.9535, 2921.302
371.4356, 2953.463
371.9177, 2980.021
372.3998, 2996.612
372.8820, 3009.864
373.3641, 3035.695
373.8462, 3079.131
374.3283, 3121.968
374.8104, 3157.294
375.2925, 3185.245
375.7747, 3204.652
376.2568, 3210.642
376.7389, 3218.055
377.2210, 3252.116
377.7031, 3315.223
378.1852, 3369.577
378.6674, 3398.958
379.1495, 3410.657
379.6316, 3439.144
380.1137, 3485.607
380.5958, 3535.935
381.0779, 3575.465
381.5601, 3606.958
382.0422, 3640.406
382.5243, 3677.242
383.0064, 3719.242
383.4885, 3772.728
383.9706, 3836.599
384.4528, 3898.971
384.9349, 3950.355
385.4170, 3995.801
385.8991, 4043.863
386.3812, 4095.419
386.8633, 4152.549
387.3455, 4222.228
387.8276, 4299.069
388.3097, 4371.982
388.7918, 4427.113
389.2739, 4480.551
389.7560, 4545.317
390.2382, 4622.889
390.7203, 4706.002
391.2024, 4791.875
391.6845, 4880.379
392.1666, 4972.535
392.6487, 5071.730
393.1309, 5171.197
393.6130, 5266.084
394.0951, 5357.311
394.5772, 5451.372
395.0593, 5549.967
395.5414, 5652.025
396.0236, 5755.950
396.5057, 5858.230
396.9878, 5966.813
397.4699, 6086.817
397.9520, 6213.867
398.4341, 6333.383
398.9163, 6451.754
399.3984, 6555.647
399.8805, 6635.769
400.3626, 6676.632
400.8447, 6741.395
401.3268, 6844.685
401.8090, 6960.998
402.2911, 7054.866
402.7732, 7116.824
403.2553, 7179.308
403.7374, 7255.201
404.2195, 7342.596
404.7017, 7405.621
405.1838, 7441.410
405.6659, 7460.810
406.1480, 7473.966
406.6301, 7481.086
407.1122, 7475.750
407.5944, 7457.515
408.0765, 7425.251
408.5586, 7371.349
409.0407, 7296.010
409.5228, 7219.915
410.0049, 7166.836
410.4871, 7124.536
410.9692, 7053.728
411.4513, 6945.648
411.9334, 6827.400
412.4155, 6731.067
412.8976, 6648.192
413.3798, 6558.397
413.8619, 6447.936
414.3440, 6326.718
414.8261, 6200.132
415.3082, 6067.968
415.7903, 5940.322
416.2725, 5824.408
416.7546, 5715.370
417.2367, 5604.971
417.7188, 5485.727
418.2009, 5373.131
418.6830, 5280.817
419.1652, 5202.977
419.6473, 5121.922
420.1294, 5028.745
420.6115, 4932.247
421.0937, 4834.275
421.5758, 4731.685
422.0579, 4639.253
422.5400, 4566.083
423.0221, 4502.542
423.5042, 4431.053
423.9864, 4334.924
424.4685, 4249.900
424.9506, 4187.870
425.4327, 4152.457
425.9148, 4103.184
426.3969, 4034.022
426.8791, 3957.929
427.3612, 3886.047
427.8433, 3818.693
428.3254, 3754.959
428.8075, 3694.484
429.2896, 3637.904
429.7718, 3591.190
430.2539, 3556.694
430.7360, 3519.259
431.2181, 3464.394
431.7002, 3394.323
432.1823, 3343.853
432.6645, 3317.546
433.1466, 3301.260
433.6287, 3279.379
434.1108, 3251.971
434.5929, 3218.610
435.0750, 3174.120
435.5572, 3126.006
436.0393, 3087.146
436.5214, 3057.363
437.0035, 3032.762
437.4856, 3011.891
437.9677, 2994.082
438.4499, 2979.255
438.9320, 2970.354
439.4141, 2959.372
439.8962, 2937.339
440.3783, 2908.549
440.8604, 2883.416
441.3426, 2868.706
441.8247, 2857.661
442.3068, 2847.721
442.7889, 2839.563
443.2710, 2827.811
443.7531, 2804.492
444.2353, 2779.438
444.7174, 2763.121
445.1995, 2767.921
445.6816, 2769.863
446.1637, 2762.019
446.6458, 2745.877
447.1280, 2736.661
447.6101, 2733.807
448.0922, 2738.551
448.5743, 2753.683
449.0564, 2787.679
449.5385, 2809.075
450.0207, 2813.297
450.5028, 2808.005
450.9849, 2806.522
451.4670, 2808.879
451.9491, 2815.014
452.4312, 2825.981
452.9134, 2841.109
453.3955, 2857.936
453.8776, 2877.592
454.3597, 2890.708
454.8418, 2880.087
455.3239, 2852.740
455.8061, 2839.553
456.2882, 2852.231
456.7703, 2874.500
457.2524, 2886.979
457.7345, 2889.917
458.2166, 2884.385
458.6988, 2858.855
459.1809, 2831.261
459.6630, 2826.598
460.1451, 2851.251
460.6272, 2869.495
461.1093, 2851.523
461.5915, 2816.177
462.0736, 2787.158
462.5557, 2779.810
463.0378, 2772.741
463.5199, 2756.048
464.0020, 2731.445
464.4842, 2711.954
464.9663, 2706.708
465.4484, 2702.694
465.9305, 2692.471
466.4126, 2667.438
466.8947, 2651.061
467.3769, 2651.241
467.8590, 2656.670
468.3411, 2647.783
468.8232, 2616.945
469.3053, 2586.827
469.7874, 2562.746
470.2696, 2544.541
470.7517, 2528.601
471.2338, 2514.024
471.7159, 2504.540
472.1980, 2505.414
472.6801, 2516.416
473.1623, 2526.549
473.6444, 2534.128
474.1265, 2540.563
474.6086, 2546.266
475.0907, 2552.005
475.5728, 2562.750
476.0550, 2584.853
476.5371, 2612.431
477.0192, 2633.617
477.5013, 2647.963
477.9834, 2666.538
478.4655, 2697.927
478.9477, 2738.821
479.4298, 2784.345
479.9119, 2832.399
480.3940, 2886.286
480.8761, 2948.156
481.3582, 3017.033
481.8404, 3089.467
482.3225, 3165.611
482.8046, 3243.964
483.2867, 3323.758
483.7688, 3403.503
484.2509, 3489.580
484.7331, 3587.347
485.2152, 3688.900
485.6973, 3788.431
486.1794, 3878.929
486.6615, 3980.261
487.1436, 4099.572
487.6258, 4232.523
488.1079, 4356.973
488.5900, 4466.982
489.0721, 4583.057
489.5542, 4721.384
490.0363, 4882.847
490.5185, 5028.298
491.0006, 5153.242
491.4827, 5269.769
491.9648, 5397.882
492.4470, 5532.814
492.9291, 5645.079
493.4112, 5715.263
493.8933, 5762.981
494.3754, 5821.289
494.8575, 5886.351
495.3397, 5930.587
495.8218, 5941.469
496.3039, 5919.766
496.7860, 5863.881
497.2681, 5768.826
497.7502, 5656.697
498.2324, 5538.352
498.7145, 5409.835
499.1966, 5263.424
499.6787, 5084.557
500.1608, 4901.231
500.6429, 4723.712
501.1251, 4551.278
501.6072, 4370.011
502.0893, 4158.672
502.5714, 3953.813
503.0535, 3771.298
503.5356, 3612.990
504.0178, 3475.105
504.4999, 3365.826
504.9820, 3270.746
505.4641, 3166.019
505.9462, 3050.129
506.4283, 2933.310
506.9105, 2814.305
507.3926, 2698.408
507.8747, 2610.149
508.3568, 2550.259
508.8389, 2499.729
509.3210, 2445.665
509.8032, 2389.087
510.2853, 2331.012
510.7674, 2270.487
511.2495, 2213.131
511.7316, 2163.269
512.2137, 2120.738
512.6959, 2085.900
513.1780, 2064.949
513.6601, 2046.200
514.1422, 2020.838
514.6243, 1990.042
515.1064, 1962.365
515.5886, 1945.503
516.0707, 1929.660
516.5528, 1908.453
517.0349, 1876.303
517.5170, 1848.393
517.9991, 1828.182
518.4813, 1812.376
518.9634, 1796.894
519.4455, 1779.617
519.9276, 1766.615
520.4097, 1761.228
520.8918, 1761.716
521.3740, 1755.045
521.8561, 1739.331
522.3382, 1722.694
522.8203, 1710.258
523.3024, 1701.918
523.7845, 1694.134
524.2667, 1686.658
524.7488, 1679.806
525.2309, 1676.306
525.7130, 1674.065
526.1951, 1665.325
526.6772, 1640.324
527.1594, 1614.148
527.6415, 1609.629
528.1236, 1621.610
528.6057, 1627.269
529.0878, 1603.927
529.5699, 1575.596
530.0521, 1562.878
530.5342, 1572.872
531.0163, 1577.505
531.4984, 1561.368
531.9805, 1538.097
532.4626, 1522.133
532.9448, 1520.560
533.4269, 1520.332
533.9090, 1521.054
534.3911, 1522.183
534.8732, 1521.234
535.3553, 1516.451
535.8375, 1512.947
536.3196, 1514.688
536.8017, 1522.322
537.2838, 1520.788
537.7659, 1508.169
538.2480, 1492.637
538.7302, 1482.352
539.2123, 1476.815
539.6944, 1473.309
540.1765, 1471.416
540.6586, 1470.965
541.1407, 1472.554
541.6229, 1475.572
542.1050, 1477.846
542.5871, 1478.747
543.0692, 1478.035
543.5513, 1474.069
544.0334, 1466.875
544.5156, 1462.235
544.9977, 1466.712
545.4798, 1472.641
545.9619, 1473.732
546.4440, 1464.074
546.9261, 1456.591
547.4083, 1453.500
547.8904, 1453.605
548.3725, 1455.005
548.8546, 1459.604
549.3367, 1462.186
549.8188, 1459.900
550.3010, 1453.621
550.7831, 1455.526
551.2652, 1468.778
551.7473, 1479.669
552.2294, 1475.583
552.7115, 1458.366
553.1937, 1445.973
553.6758, 1439.569
554.1579, 1439.057
554.6400, 1449.398
555.1221, 1466.102
555.6042, 1475.892
556.0864, 1469.417
556.5685, 1458.814
557.0506, 1456.101
557.5327, 1459.330
558.0148, 1461.318
558.4969, 1457.987
558.9791, 1452.759
559.4612, 1447.432
559.9433, 1442.099
560.4254, 1437.309
560.9075, 1432.700
561.3896, 1428.981
561.8718, 1426.712
562.3539, 1426.779
562.8360, 1427.044
563.3181, 1428.737
563.8002, 1429.885
564.2823, 1423.591
564.7645, 1407.064
565.2466, 1396.090
565.7287, 1399.377
566.2108, 1413.549
566.6929, 1422.691
567.1750, 1426.678
567.6572, 1426.797
568.1393, 1421.150
568.6214, 1412.852
569.1035, 1408.558
569.5856, 1409.776
570.0677, 1412.951
570.5499, 1416.229
571.0320, 1419.300
571.5141, 1421.703
571.9962, 1425.045
572.4783, 1425.923
572.9604, 1420.665
573.4426, 1410.891
573.9247, 1404.811
574.4068, 1407.011
574.8889, 1410.240
575.3710, 1411.419
575.8531, 1409.624
576.3353, 1410.906
576.8174, 1416.975
577.2995, 1423.570
577.7816, 1427.472
578.2637, 1428.833
578.7458, 1423.958
579.2280, 1409.449
579.7101, 1393.726
580.1922, 1394.593
580.6743, 1409.231
581.1564, 1421.734
581.6385, 1422.198
582.1207, 1417.735
582.6028, 1418.953
583.0849, 1424.779
583.5670, 1426.910
584.0491, 1414.012
584.5313, 1399.570
585.0134, 1394.935
585.4955, 1404.885
585.9776, 1414.535
586.4597, 1418.948
586.9418, 1421.622
587.4240, 1426.672
587.9061, 1438.891
588.3882, 1445.960
588.8703, 1443.566
589.3524, 1435.992
589.8345, 1437.090
590.3167, 1449.550
590.7988, 1460.284
591.2809, 1461.994
591.7630, 1456.985
592.2451, 1457.717
592.7272, 1464.403
593.2094, 1471.588
593.6915, 1474.592
594.1736, 1474.894
594.6557, 1474.825
595.1378, 1474.316
595.6199, 1475.375
596.1021, 1481.189
596.5842, 1489.084
597.0663, 1495.266
597.5485, 1498.328
598.0306, 1499.540
598.5127, 1495.507
598.9948, 1488.921
599.4769, 1491.540
599.9590, 1513.214
600.4412, 1532.936
600.9233, 1542.628
601.4054, 1541.421
601.8875, 1545.981
602.3696, 1559.317
602.8517, 1570.935
603.3339, 1568.064
603.8160, 1552.354
604.2981, 1546.684
604.7802, 1554.731
605.2623, 1569.419
605.7444, 1584.093
606.2266, 1598.297
606.7087, 1610.028
607.1908, 1616.611
607.6729, 1622.793
608.1550, 1634.933
608.6371, 1650.289
609.1193, 1660.369
609.6014, 1654.955
610.0835, 1649.218
610.5656, 1651.550
611.0477, 1663.966
611.5298, 1672.578
612.0120, 1676.711
612.4941, 1677.121
612.9762, 1672.449
613.4583, 1658.493
613.9404, 1655.922
614.4225, 1668.974
614.9047, 1687.634
615.3868, 1697.700
615.8689, 1699.796
616.3510, 1700.843
616.8331, 1702.202
617.3152, 1704.415
617.7974, 1709.013
618.2795, 1715.393
618.7616, 1721.431
619.2437, 1728.474
619.7258, 1732.836
620.2079, 1730.902
620.6901, 1722.537
621.1722, 1713.190
621.6543, 1701.801
622.1364, 1692.079
622.6185, 1686.895
623.1006, 1688.794
623.5828, 1689.657
624.0649, 1688.833
624.5470, 1687.572
625.0291, 1689.169
625.5112, 1695.862
625.9933, 1692.209
626.4755, 1672.447
626.9576, 1645.008
627.4397, 1626.661
627.9218, 1616.743
628.4039, 1610.192
628.8860, 1604.326
