##NAMES=Stellerite
##RRUFFID=R040174
##IDEAL CHEMISTRY=Ca_4_(Si_28_Al_8_)O_72_&#183;28H_2_O
##LOCALITY=unknown
##OWNER=RRUFF
##SOURCE=University of Arizona Mineral Museum
##DESCRIPTION=Parallel aggregates of thin tabular brown crystals
##STATUS=The identification of this mineral has been confirmed by X-ray diffraction and chemical analysis
##URL=rruff.info/R040174
##MEASURED CHEMISTRY=(Ca_3.89_Na_0.06_K_0.05_)_Σ=4_(Si_28.11_Al_7.89_)O_72_·15.18H_2_O; H_2_O estimated by difference
139.3398, 1956.035
139.8220, 2000.370
140.3041, 2051.417
140.7862, 2108.068
141.2683, 2170.561
141.7504, 2235.704
142.2325, 2305.528
142.7147, 2386.916
143.1968, 2486.833
143.6789, 2605.724
144.1610, 2725.636
144.6431, 2845.197
145.1252, 2966.277
145.6074, 3096.560
146.0895, 3233.017
146.5716, 3358.362
147.0537, 3459.156
147.5358, 3532.755
148.0179, 3594.468
148.5001, 3644.499
148.9822, 3682.895
149.4643, 3709.965
149.9464, 3725.820
150.4285, 3729.743
150.9106, 3718.798
151.3928, 3693.195
151.8749, 3664.995
152.3570, 3635.528
152.8391, 3603.303
153.3212, 3565.331
153.8033, 3521.308
154.2855, 3476.347
154.7676, 3427.958
155.2497, 3380.677
155.7318, 3354.574
156.2139, 3375.492
156.6960, 3408.032
157.1782, 3406.821
157.6603, 3365.305
158.1424, 3320.616
158.6245, 3306.327
159.1066, 3311.448
159.5887, 3310.059
160.0709, 3291.125
160.5530, 3263.769
161.0351, 3240.103
161.5172, 3220.315
161.9993, 3204.967
162.4814, 3195.992
162.9636, 3191.700
163.4457, 3189.827
163.9278, 3195.681
164.4099, 3201.847
164.8920, 3191.006
165.3741, 3155.569
165.8563, 3124.627
166.3384, 3119.945
166.8205, 3131.477
167.3026, 3143.711
167.7847, 3153.161
168.2668, 3158.512
168.7490, 3157.332
169.2311, 3150.077
169.7132, 3134.507
170.1953, 3103.378
170.6774, 3064.754
171.1595, 3031.343
171.6417, 3010.389
172.1238, 2997.764
172.6059, 2983.803
173.0880, 2969.271
173.5701, 2951.512
174.0522, 2929.259
174.5344, 2903.401
175.0165, 2874.835
175.4986, 2842.117
175.9807, 2807.957
176.4628, 2779.946
176.9449, 2761.161
177.4271, 2743.109
177.9092, 2723.503
178.3913, 2702.349
178.8734, 2678.981
179.3555, 2651.327
179.8376, 2622.543
180.3197, 2602.553
180.8019, 2597.267
181.2840, 2590.561
181.7661, 2572.968
182.2482, 2552.398
182.7303, 2539.890
183.2124, 2542.519
183.6946, 2553.783
184.1767, 2554.796
184.6588, 2540.842
185.1409, 2524.108
185.6230, 2506.634
186.1051, 2489.249
186.5873, 2472.671
187.0694, 2457.164
187.5515, 2442.885
188.0336, 2430.141
188.5157, 2420.340
188.9978, 2409.823
189.4800, 2396.822
189.9621, 2383.301
190.4442, 2371.537
190.9263, 2362.788
191.4084, 2355.356
191.8905, 2344.239
192.3727, 2323.365
192.8548, 2310.083
193.3369, 2313.410
193.8190, 2321.486
194.3011, 2322.804
194.7832, 2312.761
195.2654, 2295.484
195.7475, 2278.907
196.2296, 2259.045
196.7117, 2247.996
197.1938, 2254.189
197.6759, 2264.502
198.1581, 2266.369
198.6402, 2255.749
199.1223, 2240.028
199.6044, 2233.072
200.0865, 2238.943
200.5686, 2246.101
201.0508, 2261.043
201.5329, 2272.202
202.0150, 2267.556
202.4971, 2244.725
202.9792, 2214.943
203.4613, 2196.624
203.9435, 2195.779
204.4256, 2193.342
204.9077, 2186.038
205.3898, 2178.676
205.8719, 2176.486
206.3540, 2179.610
206.8362, 2181.860
207.3183, 2172.385
207.8004, 2141.272
208.2825, 2124.453
208.7646, 2133.869
209.2467, 2146.671
209.7289, 2150.486
210.2110, 2143.581
210.6931, 2131.188
211.1752, 2118.159
211.6573, 2102.816
212.1395, 2093.572
212.6216, 2090.721
213.1037, 2093.157
213.5858, 2105.584
214.0679, 2124.704
214.5500, 2139.686
215.0322, 2138.054
215.5143, 2116.175
215.9964, 2101.889
216.4785, 2102.224
216.9606, 2103.451
217.4427, 2098.104
217.9249, 2088.674
218.4070, 2083.519
218.8891, 2090.805
219.3712, 2111.037
219.8533, 2125.377
220.3354, 2133.371
220.8176, 2135.363
221.2997, 2125.979
221.7818, 2110.546
222.2639, 2099.331
222.7460, 2100.333
223.2281, 2112.074
223.7103, 2118.535
224.1924, 2116.133
224.6745, 2111.782
225.1566, 2103.644
225.6387, 2095.094
226.1208, 2091.239
226.6030, 2095.433
227.0851, 2105.622
227.5672, 2113.431
228.0493, 2120.455
228.5314, 2122.293
229.0135, 2113.549
229.4957, 2101.307
229.9778, 2093.950
230.4599, 2095.357
230.9420, 2102.140
231.4241, 2105.633
231.9062, 2101.735
232.3884, 2101.759
232.8705, 2110.842
233.3526, 2121.841
233.8347, 2128.583
234.3168, 2129.024
234.7989, 2125.618
235.2811, 2123.044
235.7632, 2123.814
236.2453, 2109.923
236.7274, 2124.115
237.2095, 2133.075
237.6916, 2137.086
238.1738, 2121.320
238.6559, 2131.092
239.1380, 2130.629
239.6201, 2129.746
240.1022, 2143.112
240.5843, 2130.223
241.0665, 2143.363
241.5486, 2146.112
242.0307, 2153.616
242.5128, 2150.824
242.9949, 2164.689
243.4770, 2173.607
243.9592, 2180.183
244.4413, 2181.967
244.9234, 2183.636
245.4055, 2187.278
245.8876, 2192.298
246.3697, 2197.021
246.8519, 2200.964
247.3340, 2203.794
247.8161, 2201.675
248.2982, 2187.315
248.7803, 2177.987
249.2624, 2185.271
249.7446, 2200.134
250.2267, 2207.190
250.7088, 2196.187
251.1909, 2174.292
251.6730, 2161.906
252.1551, 2160.917
252.6373, 2166.228
253.1194, 2181.617
253.6015, 2199.444
254.0836, 2210.863
254.5657, 2211.986
255.0478, 2208.298
255.5300, 2208.528
256.0121, 2213.711
256.4942, 2218.905
256.9763, 2221.100
257.4584, 2223.720
257.9406, 2230.583
258.4227, 2242.660
258.9048, 2254.257
259.3869, 2257.251
259.8690, 2251.033
260.3511, 2250.743
260.8333, 2261.972
261.3154, 2278.089
261.7975, 2294.959
262.2796, 2312.261
262.7617, 2329.858
263.2438, 2350.706
263.7260, 2373.049
264.2081, 2384.756
264.6902, 2377.341
265.1723, 2370.319
265.6544, 2381.019
266.1365, 2404.450
266.6187, 2423.969
267.1008, 2427.984
267.5829, 2423.468
268.0650, 2425.723
268.5471, 2436.832
269.0292, 2449.048
269.5114, 2456.171
269.9935, 2460.788
270.4756, 2467.498
270.9577, 2479.241
271.4398, 2492.111
271.9219, 2500.760
272.4041, 2505.034
272.8862, 2511.388
273.3683, 2525.399
273.8504, 2542.362
274.3325, 2552.921
274.8146, 2553.534
275.2968, 2553.423
275.7789, 2559.741
276.2610, 2570.838
276.7431, 2579.702
277.2252, 2583.120
277.7073, 2584.206
278.1895, 2588.531
278.6716, 2596.833
279.1537, 2604.172
279.6358, 2609.348
280.1179, 2612.264
280.6000, 2612.673
281.0822, 2610.494
281.5643, 2605.972
282.0464, 2598.265
282.5285, 2586.969
283.0106, 2578.220
283.4927, 2574.813
283.9749, 2572.920
284.4570, 2568.617
284.9391, 2561.779
285.4212, 2555.751
285.9033, 2554.197
286.3854, 2556.814
286.8676, 2553.255
287.3497, 2543.144
287.8318, 2527.904
288.3139, 2502.141
288.7960, 2471.141
289.2781, 2450.191
289.7603, 2449.478
290.2424, 2462.313
290.7245, 2460.349
291.2066, 2426.811
291.6887, 2400.248
292.1708, 2391.598
292.6530, 2391.202
293.1351, 2385.788
293.6172, 2370.835
294.0993, 2353.645
294.5814, 2348.051
295.0635, 2367.299
295.5457, 2372.643
296.0278, 2353.781
296.5099, 2329.559
296.9920, 2311.891
297.4741, 2302.708
297.9562, 2298.863
298.4384, 2297.838
298.9205, 2300.554
299.4026, 2299.541
299.8847, 2293.046
300.3668, 2284.718
300.8489, 2273.536
301.3310, 2261.471
301.8131, 2252.613
302.2953, 2250.292
302.7774, 2252.636
303.2595, 2249.240
303.7416, 2230.547
304.2237, 2220.683
304.7058, 2231.751
305.1880, 2250.057
305.6701, 2261.233
306.1522, 2259.935
306.6343, 2250.607
307.1164, 2238.308
307.5985, 2220.358
308.0807, 2209.675
308.5628, 2218.448
309.0449, 2228.391
309.5270, 2226.016
310.0091, 2211.188
310.4912, 2197.829
310.9734, 2203.437
311.4555, 2225.166
311.9376, 2229.531
312.4197, 2203.271
312.9018, 2174.929
313.3839, 2161.800
313.8661, 2160.518
314.3482, 2162.923
314.8303, 2168.321
315.3124, 2173.854
315.7945, 2173.077
316.2766, 2164.646
316.7588, 2157.865
317.2409, 2159.499
317.7230, 2165.474
318.2051, 2169.295
318.6872, 2170.563
319.1693, 2168.925
319.6515, 2162.312
320.1336, 2151.968
320.6157, 2143.905
321.0978, 2141.423
321.5799, 2140.153
322.0620, 2131.308
322.5442, 2113.076
323.0263, 2099.836
323.5084, 2098.429
323.9905, 2103.050
324.4726, 2106.875
324.9547, 2108.753
325.4369, 2109.434
325.9190, 2110.228
326.4011, 2111.238
326.8832, 2106.848
327.3653, 2088.438
327.8474, 2072.682
328.3296, 2071.859
328.8117, 2082.040
329.2938, 2090.850
329.7759, 2091.183
330.2580, 2084.370
330.7401, 2076.404
331.2223, 2064.204
331.7044, 2054.637
332.1865, 2049.060
332.6686, 2046.140
333.1507, 2045.848
333.6328, 2047.750
334.1150, 2048.540
334.5971, 2042.281
335.0792, 2023.819
335.5613, 2012.538
336.0434, 2015.739
336.5255, 2018.808
337.0077, 2011.966
337.4898, 1997.687
337.9719, 1986.170
338.4540, 1987.036
338.9361, 1998.160
339.4182, 1999.671
339.9004, 1983.136
340.3825, 1969.276
340.8646, 1964.118
341.3467, 1964.747
341.8288, 1968.794
342.3109, 1976.274
342.7931, 1982.551
343.2752, 1976.791
343.7573, 1955.628
344.2394, 1946.975
344.7215, 1968.117
345.2036, 1996.059
345.6858, 2013.948
346.1679, 2020.863
346.6500, 2021.561
347.1321, 2014.404
347.6142, 2003.382
348.0963, 2000.422
348.5785, 2008.400
349.0606, 2019.131
349.5427, 2026.324
350.0248, 2031.147
350.5069, 2036.998
350.9890, 2045.509
351.4712, 2054.468
351.9533, 2062.140
352.4354, 2068.689
352.9175, 2075.123
353.3996, 2082.107
353.8817, 2089.043
354.3639, 2093.732
354.8460, 2093.090
355.3281, 2096.858
355.8102, 2109.476
356.2923, 2126.610
356.7744, 2144.896
357.2566, 2163.209
357.7387, 2177.434
358.2208, 2181.498
358.7029, 2171.548
359.1850, 2173.731
359.6671, 2199.181
360.1493, 2223.794
360.6314, 2232.650
361.1135, 2232.338
361.5956, 2239.800
362.0777, 2266.092
362.5598, 2304.013
363.0420, 2326.589
363.5241, 2320.502
364.0062, 2320.083
364.4883, 2333.092
364.9704, 2350.464
365.4525, 2363.835
365.9347, 2371.727
366.4168, 2380.070
366.8989, 2395.386
367.3810, 2418.078
367.8631, 2443.103
368.3452, 2470.327
368.8274, 2500.252
369.3095, 2537.083
369.7916, 2576.780
370.2737, 2609.280
370.7558, 2626.633
371.2379, 2636.828
371.7201, 2650.451
372.2022, 2666.721
372.6843, 2694.321
373.1664, 2745.015
373.6485, 2804.427
374.1306, 2849.990
374.6128, 2877.771
375.0949, 2903.388
375.5770, 2934.275
376.0591, 2968.572
376.5412, 3001.522
377.0233, 3031.682
377.5055, 3064.411
377.9876, 3106.733
378.4697, 3159.829
378.9518, 3207.493
379.4339, 3249.361
379.9160, 3285.763
380.3982, 3309.338
380.8803, 3326.699
381.3624, 3355.950
381.8445, 3407.882
382.3266, 3474.781
382.8087, 3534.244
383.2909, 3574.789
383.7730, 3622.331
384.2551, 3681.393
384.7372, 3744.829
385.2193, 3807.526
385.7014, 3868.342
386.1836, 3928.757
386.6657, 3989.029
387.1478, 4048.396
387.6299, 4117.904
388.1120, 4206.796
388.5941, 4296.265
389.0763, 4377.232
389.5584, 4455.277
390.0405, 4538.882
390.5226, 4633.306
391.0047, 4732.659
391.4868, 4828.480
391.9690, 4919.806
392.4511, 5012.960
392.9332, 5105.836
393.4153, 5204.655
393.8974, 5315.454
394.3795, 5438.534
394.8617, 5562.890
395.3438, 5682.460
395.8259, 5799.980
396.3080, 5921.898
396.7901, 6048.796
397.2722, 6173.977
397.7544, 6290.455
398.2365, 6401.030
398.7186, 6521.991
399.2007, 6669.923
399.6828, 6808.243
400.1649, 6914.660
400.6471, 7003.781
401.1292, 7103.708
401.6113, 7224.339
402.0934, 7346.873
402.5755, 7443.651
403.0576, 7502.794
403.5398, 7570.346
404.0219, 7668.365
404.5040, 7753.938
404.9861, 7799.076
405.4682, 7813.211
405.9503, 7823.935
406.4325, 7850.114
406.9146, 7882.735
407.3967, 7889.406
407.8788, 7864.923
408.3609, 7823.891
408.8430, 7765.965
409.3252, 7696.095
409.8073, 7614.616
410.2894, 7522.548
410.7715, 7428.186
411.2536, 7342.811
411.7357, 7262.491
412.2179, 7170.200
412.7000, 7066.155
413.1821, 6947.764
413.6642, 6800.488
414.1463, 6638.237
414.6284, 6492.613
415.1106, 6375.800
415.5927, 6268.230
416.0748, 6157.514
416.5569, 6044.425
417.0390, 5932.204
417.5211, 5822.611
418.0033, 5713.108
418.4854, 5599.890
418.9675, 5482.332
419.4496, 5363.434
419.9317, 5239.456
420.4138, 5118.197
420.8960, 5002.072
421.3781, 4892.584
421.8602, 4794.232
422.3423, 4710.823
422.8244, 4637.311
423.3065, 4551.519
423.7887, 4439.343
424.2708, 4336.523
424.7529, 4248.530
425.2350, 4169.058
425.7171, 4094.115
426.1992, 4022.456
426.6814, 3954.841
427.1635, 3896.065
427.6456, 3844.137
428.1277, 3778.373
428.6098, 3688.817
429.0919, 3604.791
429.5741, 3546.306
430.0562, 3501.068
430.5383, 3451.199
431.0204, 3390.173
431.5025, 3328.720
431.9846, 3271.606
432.4668, 3220.740
432.9489, 3186.143
433.4310, 3173.923
433.9131, 3166.430
434.3952, 3141.490
434.8773, 3096.949
435.3595, 3058.604
435.8416, 3033.159
436.3237, 3009.573
436.8058, 2980.206
437.2879, 2947.024
437.7701, 2914.540
438.2522, 2884.721
438.7343, 2859.460
439.2164, 2844.683
439.6985, 2851.430
440.1806, 2848.929
440.6628, 2831.822
441.1449, 2810.369
441.6270, 2788.538
442.1091, 2768.153
442.5912, 2751.454
443.0733, 2739.971
443.5555, 2733.665
444.0376, 2734.365
444.5197, 2746.560
445.0018, 2753.112
445.4839, 2739.446
445.9660, 2721.008
446.4482, 2714.653
446.9303, 2724.130
447.4124, 2732.288
447.8945, 2726.379
448.3766, 2712.148
448.8587, 2699.747
449.3409, 2690.102
449.8230, 2687.900
450.3051, 2700.073
450.7872, 2724.317
451.2693, 2737.104
451.7514, 2721.409
452.2336, 2714.888
452.7157, 2741.983
453.1978, 2781.317
453.6799, 2799.821
454.1620, 2789.009
454.6441, 2770.026
455.1263, 2771.236
455.6084, 2797.628
456.0905, 2815.860
456.5726, 2818.408
457.0547, 2819.972
457.5368, 2824.932
458.0190, 2831.800
458.5011, 2838.517
458.9832, 2844.755
459.4653, 2847.926
459.9474, 2845.425
460.4295, 2837.310
460.9117, 2818.990
461.3938, 2782.620
461.8759, 2745.238
462.3580, 2726.169
462.8401, 2721.153
463.3222, 2706.841
463.8044, 2665.027
464.2865, 2620.487
464.7686, 2598.984
465.2507, 2595.158
465.7328, 2586.384
466.2149, 2562.639
466.6971, 2529.573
467.1792, 2497.963
467.6613, 2465.448
468.1434, 2440.058
468.6255, 2428.302
469.1076, 2417.846
469.5898, 2398.617
470.0719, 2373.785
470.5540, 2354.917
471.0361, 2350.227
471.5182, 2353.645
472.0003, 2346.344
472.4825, 2323.765
472.9646, 2303.024
473.4467, 2282.545
473.9288, 2269.159
474.4109, 2271.691
474.8930, 2288.594
475.3752, 2304.222
475.8573, 2304.983
476.3394, 2300.590
476.8215, 2308.200
477.3036, 2328.270
477.7857, 2352.364
478.2679, 2376.765
478.7500, 2402.114
479.2321, 2430.128
479.7142, 2459.594
480.1963, 2493.390
480.6784, 2529.793
481.1606, 2572.274
481.6427, 2627.105
482.1248, 2692.537
482.6069, 2758.063
483.0890, 2815.722
483.5711, 2867.570
484.0533, 2925.893
484.5354, 2988.128
485.0175, 3062.251
485.4996, 3153.562
485.9817, 3252.561
486.4638, 3349.206
486.9460, 3443.912
487.4281, 3546.689
487.9102, 3671.773
488.3923, 3810.771
488.8744, 3938.535
489.3565, 4053.999
489.8387, 4161.164
490.3208, 4253.341
490.8029, 4342.673
491.2850, 4455.416
491.7671, 4603.188
492.2492, 4740.922
492.7314, 4847.500
493.2135, 4938.321
493.6956, 5039.394
494.1777, 5147.672
494.6598, 5227.301
495.1419, 5247.560
495.6241, 5217.732
496.1062, 5199.538
496.5883, 5229.396
497.0704, 5217.856
497.5525, 5141.509
498.0346, 5032.626
498.5168, 4918.109
498.9989, 4800.612
499.4810, 4665.205
499.9631, 4492.923
500.4452, 4292.846
500.9273, 4099.049
501.4095, 3909.249
501.8916, 3735.074
502.3737, 3588.942
502.8558, 3456.717
503.3379, 3314.984
503.8200, 3159.983
504.3022, 3012.064
504.7843, 2878.379
505.2664, 2756.465
505.7485, 2647.117
506.2306, 2548.981
506.7127, 2457.745
507.1949, 2369.845
507.6770, 2286.379
508.1591, 2213.186
508.6412, 2156.409
509.1233, 2101.065
509.6054, 2046.336
510.0876, 1992.661
510.5697, 1940.869
511.0518, 1890.797
511.5339, 1841.493
512.0161, 1792.051
512.4982, 1743.119
512.9803, 1692.830
513.4624, 1638.782
513.9445, 1601.337
514.4266, 1598.510
514.9088, 1606.682
515.3909, 1592.692
515.8730, 1554.471
516.3551, 1521.713
516.8372, 1509.375
517.3193, 1501.939
517.8015, 1485.137
518.2836, 1459.710
518.7657, 1431.009
519.2478, 1401.203
519.7299, 1373.348
520.2120, 1355.229
520.6942, 1352.943
521.1763, 1348.872
521.6584, 1342.787
522.1405, 1335.370
522.6226, 1326.872
523.1047, 1317.313
523.5869, 1306.533
524.0690, 1293.884
524.5511, 1281.093
525.0332, 1271.630
525.5153, 1265.468
525.9974, 1257.591
526.4796, 1245.464
526.9617, 1233.460
527.4438, 1228.330
527.9259, 1228.935
528.4080, 1224.408
528.8901, 1206.732
529.3723, 1189.936
529.8544, 1184.824
530.3365, 1186.089
530.8186, 1183.200
531.3007, 1172.552
531.7828, 1157.880
532.2650, 1143.453
532.7471, 1128.279
533.2292, 1119.373
533.7113, 1123.330
534.1934, 1126.113
534.6755, 1122.507
535.1577, 1115.594
535.6398, 1109.771
536.1219, 1106.369
536.6040, 1103.172
537.0861, 1097.612
537.5682, 1090.585
538.0504, 1085.388
538.5325, 1082.699
539.0146, 1079.614
539.4967, 1073.312
539.9788, 1065.011
540.4609, 1060.844
540.9431, 1065.760
541.4252, 1067.518
541.9073, 1062.153
542.3894, 1053.514
542.8715, 1042.912
543.3536, 1032.076
543.8358, 1026.150
544.3179, 1030.438
544.8000, 1041.731
545.2821, 1045.026
545.7642, 1036.416
546.2463, 1030.582
546.7285, 1035.913
547.2106, 1041.850
547.6926, 1039.520
548.1747, 1029.240
548.6569, 1018.663
549.1390, 1010.082
549.6211, 1003.642
550.1032, 999.8158
550.5853, 998.3831
551.0674, 998.4704
551.5496, 999.7218
552.0317, 1002.456
552.5138, 1007.578
552.9959, 1016.833
553.4780, 1022.516
553.9601, 1023.159
554.4423, 1022.375
554.9244, 1021.740
555.4065, 1020.598
555.8886, 1017.069
556.3707, 1010.351
556.8528, 1003.938
557.3350, 1002.636
557.8171, 1005.802
558.2992, 1009.186
558.7813, 1013.924
559.2634, 1013.718
559.7455, 1000.306
560.2277, 979.2045
560.7098, 968.3970
561.1919, 973.8807
561.6740, 979.3108
562.1561, 977.7493
562.6382, 974.7380
563.1204, 976.8365
563.6025, 984.0104
564.0846, 991.4600
564.5667, 995.7150
565.0488, 997.5894
565.5309, 1000.443
566.0131, 1004.897
566.4952, 1008.767
566.9773, 1013.046
567.4594, 1015.448
567.9415, 1012.265
568.4236, 1005.188
568.9058, 1001.955
569.3879, 1010.917
569.8700, 1020.553
570.3521, 1015.458
570.8342, 1000.736
571.3163, 995.3440
571.7985, 1005.801
572.2806, 1019.635
572.7627, 1021.264
573.2448, 1008.869
573.7269, 1001.509
574.2090, 1002.722
574.6912, 1004.384
575.1733, 1004.439
575.6554, 1003.916
576.1375, 1004.446
576.6196, 1006.236
577.1017, 1007.423
577.5839, 1005.460
578.0660, 1001.550
578.5481, 999.4326
579.0302, 999.0878
579.5123, 1001.580
579.9944, 1009.207
580.4766, 1018.374
580.9587, 1021.748
581.4408, 1018.545
581.9229, 1014.447
582.4050, 1008.366
582.8871, 1003.309
583.3693, 1002.243
583.8514, 1003.689
584.3335, 1003.103
584.8156, 998.3627
585.2977, 994.7819
585.7798, 1004.397
586.2620, 1029.464
586.7441, 1039.541
587.2262, 1024.901
587.7083, 1008.890
588.1904, 1003.498
588.6725, 1005.805
589.1547, 1012.535
589.6368, 1025.624
590.1189, 1036.857
590.6010, 1039.858
591.0831, 1040.115
591.5652, 1045.712
592.0474, 1056.325
592.5295, 1064.537
593.0116, 1064.755
593.4937, 1061.005
593.9758, 1067.131
594.4579, 1091.195
594.9401, 1105.878
595.4222, 1101.284
595.9043, 1093.563
596.3864, 1088.351
596.8685, 1086.432
597.3506, 1088.807
597.8328, 1097.141
598.3149, 1107.333
598.7970, 1117.160
599.2791, 1125.858
599.7612, 1130.141
600.2433, 1129.374
600.7255, 1129.970
601.2076, 1137.746
601.6897, 1151.710
602.1718, 1163.813
602.6539, 1176.005
603.1360, 1183.342
603.6182, 1182.316
604.1003, 1178.866
604.5824, 1176.077
605.0645, 1174.871
605.5466, 1176.387
606.0287, 1182.273
606.5109, 1189.878
606.9930, 1195.312
607.4751, 1198.795
607.9572, 1201.680
608.4393, 1203.965
608.9214, 1207.194
609.4036, 1213.446
609.8857, 1222.743
610.3678, 1229.604
610.8499, 1231.000
611.3320, 1234.004
611.8141, 1242.306
612.2963, 1251.719
612.7784, 1257.323
613.2605, 1259.109
613.7426, 1261.328
614.2247, 1267.917
614.7068, 1276.613
615.1890, 1282.085
615.6711, 1284.300
616.1532, 1283.473
616.6353, 1278.078
617.1174, 1272.514
617.5995, 1272.459
618.0817, 1278.052
618.5638, 1281.405
619.0459, 1282.333
619.5280, 1280.848
620.0101, 1274.625
620.4922, 1267.135
620.9744, 1262.730
621.4565, 1262.123
621.9386, 1263.094
622.4207, 1264.482
622.9028, 1265.496
623.3849, 1262.695
623.8671, 1255.604
624.3492, 1247.161
624.8313, 1236.687
625.3134, 1226.997
625.7955, 1223.331
626.2776, 1225.260
626.7598, 1222.673
627.2419, 1210.246
627.7240, 1197.272
628.2061, 1188.017
628.6882, 1181.408
629.1703, 1177.329
629.6525, 1174.893
630.1346, 1169.251
630.6167, 1153.478
631.0988, 1130.764
631.5809, 1120.149
632.0630, 1124.876
632.5452, 1129.084
633.0273, 1129.010
633.5094, 1125.379
633.9915, 1118.831
