##NAMES=Stellerite
##RRUFFID=R070535
##IDEAL CHEMISTRY=Ca_4_(Si_28_Al_8_)O_72_&#183;28H_2_O
##LOCALITY=Upper Clackamas River, Clackamas County, Oregon, USA
##OWNER=RRUFF
##SOURCE=James Shigley
##DESCRIPTION=Sheaflike aggregates of white, tabular crystals
##STATUS=The identification of this mineral has been confirmed by X-ray diffraction and chemical analysis
##URL=rruff.info/R070535
##MEASURED CHEMISTRY=(Ca_3.91_K_0.09_)_Σ=4_(Si_28.09_Al_7.91_)O_72_·22.5H_2_O; trace amounts of Na; H_2_O estimated by difference
115.6143, 1020.815
116.0964, 1059.499
116.5786, 1101.613
117.0607, 1148.924
117.5428, 1201.591
118.0249, 1263.014
118.5070, 1347.090
118.9891, 1415.113
119.4713, 1442.507
119.9534, 1445.429
120.4355, 1451.568
120.9176, 1477.252
121.3997, 1520.979
121.8818, 1570.872
122.3640, 1629.002
122.8461, 1691.940
123.3282, 1754.349
123.8103, 1819.714
124.2924, 1895.238
124.7745, 1987.576
125.2567, 2097.276
125.7388, 2214.303
126.2209, 2354.363
126.7030, 2488.478
127.1851, 2599.336
127.6672, 2692.843
128.1494, 2790.785
128.6315, 2914.799
129.1136, 3068.679
129.5957, 3230.942
130.0778, 3384.153
130.5600, 3559.185
131.0421, 3773.428
131.5242, 4026.908
132.0063, 4310.151
132.4884, 4618.425
132.9705, 4977.159
133.4527, 5283.419
133.9348, 5545.441
134.4169, 5762.512
134.8990, 5934.911
135.3811, 6062.546
135.8632, 6144.041
136.3454, 6174.488
136.8275, 6127.350
137.3096, 6078.503
137.7917, 6037.117
138.2738, 5989.150
138.7559, 5921.320
139.2381, 5830.730
139.7202, 5726.753
140.2023, 5621.756
140.6844, 5497.210
141.1665, 5410.950
141.6486, 5375.134
142.1308, 5373.589
142.6129, 5388.679
143.0950, 5414.825
143.5771, 5460.558
144.0592, 5543.425
144.5413, 5666.210
145.0235, 5818.080
145.5056, 6000.865
145.9877, 6211.145
146.4698, 6445.512
146.9519, 6703.450
147.4340, 6982.611
147.9162, 7287.511
148.3983, 7639.988
148.8804, 7961.491
149.3625, 8242.271
149.8446, 8477.228
150.3267, 8651.334
150.8089, 8749.031
151.2910, 8802.372
151.7731, 8877.844
152.2552, 8988.239
152.7373, 9082.939
153.2194, 9168.173
153.7016, 9226.220
154.1837, 9206.786
154.6658, 9079.793
155.1479, 8876.771
155.6300, 8659.636
156.1121, 8426.642
156.5943, 8185.348
157.0764, 7925.772
157.5585, 7656.705
158.0406, 7413.864
158.5227, 7212.330
159.0048, 7042.957
159.4870, 6874.918
159.9691, 6670.388
160.4512, 6481.031
160.9333, 6348.411
161.4154, 6265.211
161.8975, 6185.097
162.3797, 6090.853
162.8618, 5995.012
163.3439, 5916.834
163.8260, 5861.771
164.3081, 5806.369
164.7902, 5731.006
165.2724, 5637.890
165.7545, 5546.244
166.2366, 5464.824
166.7187, 5387.099
167.2008, 5305.480
167.6829, 5217.852
168.1651, 5132.141
168.6472, 5057.404
169.1293, 4993.770
169.6114, 4925.823
170.0935, 4839.571
170.5756, 4753.654
171.0578, 4688.502
171.5399, 4649.869
172.0220, 4614.498
172.5041, 4557.643
172.9862, 4477.622
173.4683, 4402.246
173.9505, 4346.383
174.4326, 4294.215
174.9147, 4229.783
175.3968, 4149.146
175.8789, 4067.611
176.3610, 4001.315
176.8432, 3951.341
177.3253, 3906.402
177.8074, 3868.226
178.2895, 3830.507
178.7716, 3788.531
179.2537, 3741.104
179.7359, 3690.901
180.2180, 3639.069
180.7001, 3584.333
181.1822, 3535.139
181.6643, 3498.803
182.1465, 3465.954
182.6286, 3428.153
183.1107, 3383.313
183.5928, 3343.341
184.0749, 3329.422
184.5570, 3349.533
185.0392, 3349.005
185.5213, 3291.803
186.0034, 3224.337
186.4855, 3174.091
186.9676, 3146.613
187.4497, 3128.210
187.9319, 3102.536
188.4140, 3067.075
188.8961, 3038.021
189.3782, 3025.628
189.8603, 3015.834
190.3424, 2999.297
190.8246, 2974.701
191.3067, 2949.707
191.7888, 2934.680
192.2709, 2932.406
192.7530, 2924.749
193.2351, 2900.046
193.7173, 2875.481
194.1994, 2863.297
194.6815, 2864.261
195.1636, 2865.192
195.6457, 2846.572
196.1278, 2802.194
196.6100, 2775.383
197.0921, 2798.546
197.5742, 2820.998
198.0563, 2812.400
198.5384, 2772.126
199.0205, 2726.764
199.5027, 2705.802
199.9848, 2713.581
200.4669, 2715.615
200.9490, 2707.499
201.4311, 2693.991
201.9132, 2673.052
202.3954, 2646.608
202.8775, 2622.639
203.3596, 2611.500
203.8417, 2615.212
204.3238, 2612.829
204.8059, 2597.357
205.2881, 2580.215
205.7702, 2566.222
206.2523, 2555.205
206.7344, 2544.331
207.2165, 2530.305
207.6986, 2512.629
208.1808, 2497.850
208.6629, 2486.498
209.1450, 2477.949
209.6271, 2474.755
210.1092, 2474.767
210.5913, 2471.977
211.0735, 2460.103
211.5556, 2439.248
212.0377, 2421.719
212.5198, 2408.499
213.0019, 2397.920
213.4840, 2392.930
213.9662, 2390.320
214.4483, 2382.391
214.9304, 2360.224
215.4125, 2326.438
215.8946, 2305.520
216.3767, 2307.574
216.8589, 2310.747
217.3410, 2304.950
217.8231, 2294.424
218.3052, 2287.632
218.7873, 2291.090
219.2694, 2302.264
219.7516, 2309.455
220.2337, 2312.784
220.7158, 2311.330
221.1979, 2303.756
221.6800, 2292.230
222.1621, 2279.775
222.6443, 2267.714
223.1264, 2256.015
223.6085, 2244.309
224.0906, 2231.974
224.5727, 2220.779
225.0548, 2209.738
225.5370, 2200.378
226.0191, 2194.416
226.5012, 2192.388
226.9833, 2194.358
227.4654, 2203.287
227.9475, 2226.639
228.4297, 2237.605
228.9118, 2219.661
229.3939, 2190.410
229.8760, 2164.395
230.3581, 2145.768
230.8402, 2134.329
231.3224, 2131.117
231.8045, 2137.895
232.2866, 2145.811
232.7687, 2158.204
233.2508, 2167.418
233.7329, 2164.791
234.2151, 2147.743
234.6972, 2128.387
235.1793, 2122.301
235.6614, 2131.327
236.1435, 2137.435
236.6256, 2134.121
237.1078, 2128.228
237.5899, 2123.562
238.0720, 2120.629
238.5541, 2119.926
239.0362, 2124.088
239.5183, 2132.900
240.0005, 2136.430
240.4826, 2131.324
240.9647, 2121.913
241.4468, 2108.433
241.9289, 2091.986
242.4111, 2080.982
242.8932, 2085.964
243.3753, 2103.214
243.8574, 2111.516
244.3395, 2105.755
244.8216, 2094.753
245.3038, 2084.029
245.7859, 2073.669
246.2680, 2064.071
246.7501, 2055.236
247.2322, 2047.320
247.7143, 2041.564
248.1965, 2039.869
248.6786, 2035.772
249.1607, 2021.372
249.6428, 2001.169
250.1249, 1985.101
250.6070, 1978.348
251.0892, 1976.878
251.5713, 1973.287
252.0534, 1966.329
252.5355, 1964.192
253.0176, 1978.355
253.4997, 1999.752
253.9819, 2011.151
254.4640, 2004.061
254.9461, 1991.237
255.4282, 1984.306
255.9103, 1983.165
256.3924, 1983.854
256.8745, 1985.114
257.3567, 1986.772
257.8388, 1988.781
258.3209, 1992.717
258.8030, 1994.265
259.2851, 1989.495
259.7672, 1979.591
260.2494, 1969.418
260.7315, 1960.672
261.2136, 1952.759
261.6957, 1944.150
262.1778, 1933.834
262.6599, 1925.960
263.1421, 1923.216
263.6242, 1923.914
264.1063, 1925.201
264.5884, 1926.634
265.0705, 1927.367
265.5526, 1925.462
266.0348, 1920.318
266.5169, 1917.051
266.9990, 1916.928
267.4811, 1919.014
267.9632, 1924.639
268.4453, 1933.923
268.9275, 1939.172
269.4096, 1930.837
269.8917, 1905.578
270.3738, 1887.957
270.8559, 1878.705
271.3380, 1876.661
271.8202, 1884.386
272.3023, 1900.093
272.7844, 1915.601
273.2665, 1924.324
273.7487, 1926.381
274.2308, 1929.842
274.7129, 1940.435
275.1950, 1946.400
275.6771, 1937.138
276.1592, 1919.520
276.6414, 1909.924
277.1235, 1918.695
277.6056, 1940.326
278.0877, 1950.730
278.5698, 1942.082
279.0519, 1931.820
279.5341, 1920.206
280.0162, 1908.926
280.4983, 1900.115
280.9804, 1894.615
281.4625, 1891.059
281.9446, 1886.410
282.4268, 1876.658
282.9089, 1872.535
283.3910, 1878.374
283.8731, 1886.482
284.3552, 1890.699
284.8373, 1890.109
285.3195, 1888.208
285.8016, 1889.778
286.2837, 1896.917
286.7658, 1899.551
287.2479, 1894.587
287.7300, 1888.239
288.2122, 1882.180
288.6943, 1877.007
289.1764, 1873.560
289.6585, 1873.459
290.1406, 1876.336
290.6227, 1873.659
291.1049, 1857.152
291.5870, 1844.896
292.0691, 1841.173
292.5512, 1845.171
293.0333, 1856.894
293.5154, 1878.530
293.9976, 1903.852
294.4797, 1915.049
294.9618, 1905.702
295.4439, 1896.795
295.9260, 1893.364
296.4081, 1893.642
296.8903, 1896.469
297.3724, 1901.586
297.8545, 1908.547
298.3366, 1918.675
298.8187, 1932.540
299.3008, 1940.567
299.7830, 1935.270
300.2651, 1927.527
300.7472, 1928.076
301.2293, 1937.136
301.7114, 1942.862
302.1935, 1928.539
302.6757, 1902.731
303.1578, 1901.375
303.6399, 1938.541
304.1220, 1981.222
304.6041, 2001.567
305.0862, 2004.047
305.5684, 2003.344
306.0505, 2000.479
306.5326, 1998.706
307.0147, 2004.068
307.4968, 2017.226
307.9789, 2028.919
308.4611, 2033.208
308.9432, 2030.955
309.4253, 2027.593
309.9074, 2018.727
310.3895, 2013.182
310.8716, 2020.507
311.3538, 2036.153
311.8359, 2044.712
312.3180, 2037.685
312.8001, 2022.517
313.2822, 2018.008
313.7643, 2027.121
314.2465, 2038.576
314.7286, 2059.230
315.2107, 2077.396
315.6928, 2073.249
316.1749, 2042.566
316.6570, 2007.260
317.1392, 1996.855
317.6213, 2023.009
318.1034, 2037.247
318.5855, 2029.415
319.0676, 2019.119
319.5497, 2020.893
320.0319, 2032.333
320.5140, 2040.205
320.9961, 2033.532
321.4782, 2012.830
321.9603, 1994.324
322.4424, 1978.271
322.9246, 1964.366
323.4067, 1950.548
323.8888, 1939.310
324.3709, 1936.122
324.8530, 1944.080
325.3351, 1956.055
325.8173, 1953.817
326.2994, 1927.557
326.7815, 1907.627
327.2636, 1896.818
327.7457, 1893.609
328.2278, 1901.781
328.7100, 1920.256
329.1921, 1935.873
329.6742, 1930.525
330.1563, 1902.983
330.6384, 1885.454
331.1205, 1887.251
331.6027, 1891.630
332.0848, 1889.253
332.5669, 1881.611
333.0490, 1873.965
333.5311, 1868.682
334.0132, 1865.510
334.4954, 1864.668
334.9775, 1867.201
335.4596, 1867.998
335.9417, 1860.454
336.4238, 1850.430
336.9059, 1848.628
337.3881, 1863.780
337.8702, 1876.066
338.3523, 1862.661
338.8344, 1829.831
339.3165, 1809.782
339.7986, 1817.045
340.2808, 1837.662
340.7629, 1848.814
341.2450, 1850.161
341.7271, 1847.935
342.2092, 1841.325
342.6913, 1833.107
343.1735, 1826.620
343.6556, 1822.430
344.1377, 1819.109
344.6198, 1814.983
345.1019, 1809.768
345.5840, 1808.040
346.0662, 1816.377
346.5483, 1821.541
347.0304, 1812.942
347.5125, 1796.007
347.9946, 1784.135
348.4767, 1785.422
348.9589, 1796.495
349.4410, 1804.789
349.9231, 1812.061
350.4052, 1813.756
350.8873, 1802.966
351.3694, 1790.328
351.8516, 1786.992
352.3337, 1795.162
352.8158, 1806.817
353.2979, 1809.902
353.7800, 1800.278
354.2621, 1799.442
354.7443, 1818.140
355.2264, 1836.646
355.7085, 1846.830
356.1906, 1850.167
356.6727, 1852.311
357.1548, 1857.540
357.6370, 1863.952
358.1191, 1864.031
358.6012, 1853.801
359.0833, 1847.693
359.5654, 1854.644
360.0475, 1868.124
360.5297, 1882.135
361.0118, 1895.981
361.4939, 1908.258
361.9760, 1917.615
362.4581, 1924.239
362.9402, 1928.968
363.4224, 1931.333
363.9045, 1932.985
364.3866, 1934.505
364.8687, 1935.545
365.3508, 1942.246
365.8329, 1962.122
366.3151, 1985.313
366.7972, 1998.195
367.2793, 2000.539
367.7614, 2005.852
368.2435, 2025.284
368.7256, 2057.459
369.2078, 2083.460
369.6899, 2101.326
370.1720, 2116.459
370.6541, 2128.739
371.1362, 2139.939
371.6183, 2152.973
372.1005, 2169.036
372.5826, 2185.959
373.0647, 2198.542
373.5468, 2196.509
374.0289, 2211.115
374.5110, 2260.515
374.9932, 2309.407
375.4753, 2334.014
375.9574, 2335.950
376.4395, 2332.018
376.9216, 2334.409
377.4037, 2343.332
377.8859, 2361.703
378.3680, 2396.438
378.8501, 2430.458
379.3322, 2462.898
379.8143, 2489.690
380.2964, 2502.634
380.7786, 2496.206
381.2607, 2486.674
381.7428, 2495.726
382.2249, 2523.448
382.7070, 2552.802
383.1891, 2582.447
383.6713, 2608.988
384.1534, 2628.481
384.6355, 2641.134
385.1176, 2653.942
385.5997, 2668.989
386.0818, 2686.160
386.5640, 2703.994
387.0461, 2722.433
387.5282, 2746.937
388.0103, 2783.338
388.4924, 2829.337
388.9745, 2868.984
389.4567, 2897.575
389.9388, 2925.593
390.4209, 2956.015
390.9030, 2988.417
391.3851, 3022.395
391.8672, 3057.631
392.3494, 3094.061
392.8315, 3130.776
393.3136, 3162.866
393.7957, 3208.212
394.2778, 3280.693
394.7599, 3352.471
395.2421, 3405.551
395.7242, 3443.495
396.2063, 3481.617
396.6884, 3531.763
397.1706, 3590.263
397.6527, 3637.849
398.1348, 3662.121
398.6169, 3698.474
399.0990, 3769.207
399.5811, 3847.803
400.0633, 3905.660
400.5454, 3934.814
401.0275, 3963.990
401.5096, 4029.079
401.9917, 4124.238
402.4738, 4197.435
402.9560, 4233.634
403.4381, 4261.051
403.9202, 4305.908
404.4023, 4363.275
404.8844, 4414.525
405.3665, 4451.673
405.8487, 4483.595
406.3308, 4523.787
406.8129, 4568.635
407.2950, 4595.424
407.7771, 4588.954
408.2592, 4563.711
408.7414, 4559.425
409.2235, 4600.313
409.7056, 4617.060
410.1877, 4584.960
410.6698, 4535.202
411.1519, 4497.066
411.6341, 4474.263
412.1162, 4452.195
412.5983, 4416.575
413.0804, 4367.299
413.5625, 4319.020
414.0446, 4272.335
414.5268, 4226.310
415.0089, 4186.503
415.4910, 4145.187
415.9731, 4090.079
416.4552, 4015.709
416.9373, 3934.244
417.4195, 3861.924
417.9016, 3798.920
418.3837, 3745.182
418.8658, 3709.864
419.3479, 3674.270
419.8300, 3623.142
420.3122, 3559.144
420.7943, 3495.981
421.2764, 3439.668
421.7585, 3388.105
422.2406, 3339.521
422.7227, 3293.774
423.2049, 3246.036
423.6870, 3193.662
424.1691, 3137.648
424.6512, 3079.861
425.1333, 3015.553
425.6154, 2959.010
426.0976, 2918.731
426.5797, 2885.697
427.0618, 2850.400
427.5439, 2810.711
428.0260, 2768.886
428.5081, 2727.100
428.9903, 2685.281
429.4724, 2642.789
429.9545, 2599.022
430.4366, 2555.291
430.9187, 2508.703
431.4008, 2463.311
431.8830, 2426.957
432.3651, 2402.954
432.8472, 2381.625
433.3293, 2344.070
433.8114, 2286.337
434.2935, 2243.006
434.7757, 2229.683
435.2578, 2220.749
435.7399, 2201.199
436.2220, 2172.093
436.7041, 2138.643
437.1862, 2096.761
437.6684, 2055.531
438.1505, 2029.490
438.6326, 2018.144
439.1147, 2009.710
439.5968, 2000.122
440.0789, 1989.013
440.5611, 1974.955
441.0432, 1956.825
441.5253, 1939.444
442.0074, 1924.590
442.4895, 1910.421
442.9716, 1893.911
443.4538, 1875.414
443.9359, 1858.646
444.4180, 1846.218
444.9001, 1838.252
445.3822, 1838.221
445.8643, 1864.459
446.3465, 1876.312
446.8286, 1856.464
447.3107, 1824.875
447.7928, 1801.664
448.2749, 1792.620
448.7570, 1791.906
449.2392, 1795.174
449.7213, 1802.337
450.2034, 1805.348
450.6855, 1801.418
451.1676, 1796.898
451.6497, 1796.055
452.1319, 1797.514
452.6140, 1798.330
453.0961, 1796.702
453.5782, 1795.417
454.0603, 1798.248
454.5424, 1803.749
455.0246, 1806.496
455.5067, 1804.613
455.9888, 1799.619
456.4709, 1792.459
456.9530, 1780.503
457.4352, 1777.046
457.9173, 1793.192
458.3994, 1808.029
458.8815, 1808.025
459.3636, 1795.995
459.8457, 1780.748
460.3279, 1766.814
460.8100, 1754.491
461.2921, 1744.398
461.7742, 1736.949
462.2563, 1730.999
462.7384, 1729.098
463.2206, 1726.469
463.7027, 1717.615
464.1848, 1704.115
464.6669, 1694.956
465.1490, 1701.473
465.6311, 1715.145
466.1133, 1713.278
466.5954, 1693.784
467.0775, 1674.678
467.5596, 1662.283
468.0417, 1656.933
468.5238, 1659.098
469.0060, 1671.772
469.4881, 1682.715
469.9702, 1684.814
470.4523, 1684.475
470.9344, 1690.892
471.4165, 1704.242
471.8987, 1715.613
472.3808, 1716.849
472.8629, 1709.360
473.3450, 1708.904
473.8271, 1721.891
474.3092, 1734.698
474.7914, 1744.031
475.2735, 1753.460
475.7556, 1766.508
476.2377, 1783.925
476.7198, 1804.262
477.2019, 1826.832
477.6841, 1851.428
478.1662, 1874.890
478.6483, 1895.741
479.1304, 1918.588
479.6125, 1944.697
480.0946, 1974.845
480.5768, 2011.362
481.0589, 2057.536
481.5410, 2104.396
482.0231, 2143.504
482.5052, 2179.508
482.9873, 2221.907
483.4695, 2272.900
483.9516, 2328.899
484.4337, 2388.021
484.9158, 2450.792
485.3979, 2504.218
485.8800, 2532.170
486.3622, 2571.067
486.8443, 2637.272
487.3264, 2718.953
487.8085, 2803.180
488.2906, 2884.877
488.7727, 2959.870
489.2549, 3018.392
489.7370, 3057.402
490.2191, 3112.504
490.7012, 3196.743
491.1833, 3280.273
491.6654, 3347.004
492.1476, 3403.065
492.6297, 3461.132
493.1118, 3527.199
493.5939, 3591.576
494.0760, 3651.000
494.5581, 3702.718
495.0403, 3739.676
495.5224, 3760.218
496.0045, 3764.158
496.4866, 3750.772
496.9687, 3718.770
497.4508, 3673.023
497.9330, 3607.865
498.4151, 3535.896
498.8972, 3464.142
499.3793, 3388.120
499.8614, 3300.636
500.3435, 3199.102
500.8257, 3087.778
501.3078, 2969.645
501.7899, 2841.214
502.2720, 2725.479
502.7541, 2630.304
503.2362, 2539.947
503.7184, 2443.919
504.2005, 2347.476
504.6826, 2261.759
505.1647, 2194.172
505.6468, 2130.302
506.1289, 2051.732
506.6111, 1965.398
507.0932, 1894.056
507.5753, 1844.833
508.0574, 1805.213
508.5395, 1762.713
509.0216, 1716.844
509.5038, 1675.079
509.9859, 1639.510
510.4680, 1605.635
510.9501, 1570.353
511.4322, 1536.287
511.9143, 1508.113
512.3965, 1487.176
512.8786, 1468.549
513.3607, 1445.317
513.8428, 1416.805
514.3250, 1389.607
514.8071, 1361.536
515.2892, 1337.818
515.7713, 1321.715
516.2534, 1310.902
516.7355, 1302.785
517.2177, 1298.861
517.6998, 1291.868
518.1819, 1272.884
518.6640, 1246.944
519.1461, 1225.631
519.6282, 1211.279
520.1104, 1202.128
520.5925, 1198.013
521.0746, 1198.825
521.5567, 1194.099
522.0388, 1179.554
522.5209, 1165.526
523.0031, 1153.549
523.4852, 1143.864
523.9673, 1137.844
524.4494, 1135.171
524.9315, 1131.965
525.4136, 1123.170
525.8958, 1109.409
526.3779, 1099.123
526.8600, 1093.111
527.3421, 1088.864
527.8242, 1084.736
528.3063, 1081.998
528.7885, 1083.437
529.2706, 1090.964
529.7527, 1096.077
530.2348, 1093.376
530.7169, 1086.277
531.1990, 1078.860
531.6812, 1071.841
532.1633, 1065.826
532.6454, 1061.292
533.1275, 1058.117
533.6096, 1055.873
534.0917, 1057.654
534.5739, 1055.841
535.0560, 1048.159
535.5381, 1038.245
536.0202, 1027.301
536.5023, 1016.468
536.9844, 1008.582
537.4666, 1006.748
537.9487, 1008.448
538.4308, 1007.149
538.9129, 1002.402
539.3950, 999.2375
539.8771, 999.7836
540.3593, 1002.283
540.8414, 1005.156
541.3235, 1008.762
541.8056, 1009.336
542.2877, 1003.121
542.7698, 996.2214
543.2520, 993.8248
543.7341, 994.5665
544.2162, 994.2218
544.6983, 990.8038
545.1804, 985.7094
545.6625, 981.2787
546.1447, 977.1994
546.6268, 974.8445
547.1089, 975.6437
547.5910, 976.7796
548.0731, 978.0468
548.5552, 978.6254
549.0374, 976.4454
549.5195, 969.2302
550.0016, 962.8560
550.4837, 964.9038
550.9658, 972.5693
551.4479, 976.1016
551.9301, 973.2191
552.4122, 969.0004
552.8943, 968.1225
553.3764, 970.4694
553.8585, 970.9337
554.3406, 968.2121
554.8228, 965.5489
555.3049, 964.8717
555.7870, 963.9097
556.2691, 958.8901
556.7512, 950.0165
557.2333, 942.6434
557.7155, 942.4508
558.1976, 947.9313
558.6797, 952.7025
559.1618, 957.9478
559.6439, 957.5623
560.1260, 942.8389
560.6082, 925.7614
561.0903, 924.2171
561.5724, 940.8790
562.0545, 954.5264
562.5366, 956.0854
563.0187, 953.6920
563.5009, 955.0335
563.9830, 959.1131
564.4651, 960.2881
564.9472, 955.5108
565.4293, 948.1037
565.9114, 945.5729
566.3936, 951.0289
566.8757, 952.4879
567.3578, 941.3845
567.8399, 934.5583
568.3220, 945.6000
568.8041, 965.0439
569.2863, 972.7839
569.7684, 958.5696
570.2505, 939.4520
570.7326, 930.7043
571.2147, 929.8737
571.6968, 930.3315
572.1790, 930.9003
572.6611, 932.2980
573.1432, 935.4030
573.6253, 939.9936
574.1074, 943.3187
574.5895, 944.0561
575.0717, 945.3304
575.5538, 950.4080
576.0359, 954.2906
576.5180, 950.4518
577.0001, 939.8683
577.4822, 931.1363
577.9644, 932.1906
578.4465, 938.7607
578.9286, 938.3226
579.4107, 929.9138
579.8928, 925.3255
580.3749, 930.1782
580.8571, 938.2258
581.3392, 940.3318
581.8213, 936.3395
582.3034, 935.5728
582.7855, 941.9893
583.2676, 949.2358
583.7498, 955.9980
584.2319, 960.4128
584.7140, 958.1253
585.1961, 948.0230
585.6782, 936.5416
586.1603, 932.8378
586.6425, 937.3518
587.1246, 939.6274
587.6067, 937.8319
588.0888, 937.1080
588.5709, 940.6812
589.0530, 946.2381
589.5352, 951.6268
590.0173, 957.1124
590.4994, 959.7661
590.9815, 953.9645
591.4636, 947.1655
591.9457, 949.7338
592.4279, 960.6925
592.9100, 971.6877
593.3921, 978.1639
593.8742, 981.1535
594.3563, 983.0923
594.8384, 983.7429
595.3206, 983.8611
595.8027, 981.6086
596.2848, 980.6345
596.7669, 984.0916
597.2490, 989.7690
597.7311, 992.8357
598.2133, 990.8305
598.6954, 988.0714
599.1775, 988.0418
599.6596, 990.2238
600.1417, 992.6730
600.6238, 995.0873
601.1060, 1001.124
601.5881, 1014.845
602.0702, 1034.189
602.5523, 1046.286
603.0344, 1046.043
603.5165, 1045.295
603.9987, 1044.447
604.4808, 1043.521
604.9629, 1040.385
605.4450, 1036.859
605.9271, 1039.219
606.4092, 1053.706
606.8914, 1071.732
607.3735, 1080.776
607.8556, 1081.650
608.3377, 1080.519
608.8198, 1078.382
609.3019, 1076.483
