##NAMES=Stellerite
##RRUFFID=R070535
##IDEAL CHEMISTRY=Ca_4_(Si_28_Al_8_)O_72_&#183;28H_2_O
##LOCALITY=Upper Clackamas River, Clackamas County, Oregon, USA
##OWNER=RRUFF
##SOURCE=James Shigley
##DESCRIPTION=Sheaflike aggregates of white, tabular crystals
##STATUS=The identification of this mineral has been confirmed by X-ray diffraction and chemical analysis
##URL=rruff.info/R070535
##MEASURED CHEMISTRY=(Ca_3.91_K_0.09_)_Σ=4_(Si_28.09_Al_7.91_)O_72_·22.5H_2_O; trace amounts of Na; H_2_O estimated by difference
130.8707, 1206.706
131.3528, 1287.277
131.8349, 1377.915
132.3170, 1476.084
132.7991, 1575.830
133.2813, 1677.381
133.7634, 1785.583
134.2455, 1910.909
134.7276, 2051.003
135.2097, 2184.374
135.6918, 2305.329
136.1740, 2415.527
136.6561, 2526.241
137.1382, 2637.339
137.6203, 2750.376
138.1024, 2869.561
138.5845, 2997.028
139.0667, 3123.307
139.5488, 3245.376
140.0309, 3363.135
140.5130, 3490.695
140.9951, 3630.605
141.4772, 3779.223
141.9594, 3930.977
142.4415, 4094.197
142.9236, 4245.661
143.4057, 4377.121
143.8878, 4478.950
144.3699, 4584.652
144.8521, 4694.169
145.3342, 4807.461
145.8163, 4921.499
146.2984, 5043.831
146.7805, 5159.240
147.2626, 5262.253
147.7448, 5348.964
148.2269, 5428.305
148.7090, 5504.667
149.1911, 5577.262
149.6732, 5625.240
150.1553, 5625.479
150.6375, 5615.750
151.1196, 5622.927
151.6017, 5661.067
152.0838, 5701.696
152.5659, 5739.739
153.0480, 5774.268
153.5302, 5817.144
154.0123, 5875.830
154.4944, 5940.593
154.9765, 6001.554
155.4586, 6064.463
155.9408, 6117.318
156.4229, 6151.332
156.9050, 6131.480
157.3871, 6098.757
157.8692, 6094.541
158.3513, 6108.874
158.8335, 6121.396
159.3156, 6134.406
159.7977, 6140.108
160.2798, 6134.116
160.7619, 6110.961
161.2440, 6087.325
161.7262, 6065.063
162.2083, 6045.809
162.6904, 6033.723
163.1725, 6043.830
163.6546, 6053.709
164.1367, 6047.355
164.6189, 6005.674
165.1010, 5965.774
165.5831, 5948.392
166.0652, 5949.198
166.5473, 5947.246
167.0294, 5935.340
167.5116, 5913.878
167.9937, 5883.208
168.4758, 5824.772
168.9579, 5770.872
169.4400, 5747.382
169.9221, 5752.859
170.4043, 5758.949
170.8864, 5747.371
171.3685, 5724.625
171.8506, 5700.133
172.3327, 5670.768
172.8148, 5645.536
173.2970, 5639.584
173.7791, 5655.896
174.2612, 5664.657
174.7433, 5622.269
175.2254, 5552.776
175.7076, 5508.004
176.1897, 5537.714
176.6718, 5597.860
177.1539, 5630.768
177.6360, 5628.354
178.1181, 5611.088
178.6003, 5599.938
179.0824, 5592.309
179.5645, 5578.444
180.0466, 5540.863
180.5287, 5494.336
181.0108, 5470.864
181.4930, 5480.738
181.9751, 5502.035
182.4572, 5504.428
182.9393, 5489.659
183.4214, 5471.587
183.9035, 5457.276
184.3857, 5446.919
184.8678, 5441.636
185.3499, 5443.246
185.8320, 5448.160
186.3141, 5450.610
186.7962, 5450.565
187.2784, 5447.660
187.7605, 5437.635
188.2426, 5422.857
188.7247, 5416.139
189.2068, 5425.688
189.6889, 5443.405
190.1711, 5445.456
190.6532, 5430.354
191.1353, 5412.193
191.6174, 5407.017
192.0995, 5413.720
192.5816, 5418.268
193.0638, 5414.522
193.5459, 5404.844
194.0280, 5399.884
194.5101, 5399.682
194.9922, 5404.049
195.4743, 5417.960
195.9565, 5441.623
196.4386, 5454.636
196.9207, 5443.939
197.4028, 5411.929
197.8849, 5389.545
198.3670, 5377.449
198.8492, 5373.176
199.3313, 5374.599
199.8134, 5382.472
200.2955, 5390.090
200.7776, 5394.224
201.2597, 5394.673
201.7419, 5396.516
202.2240, 5401.417
202.7061, 5405.374
203.1882, 5399.197
203.6703, 5380.675
204.1524, 5360.878
204.6346, 5343.113
205.1167, 5326.443
205.5988, 5320.034
206.0809, 5327.550
206.5630, 5342.937
207.0451, 5350.796
207.5273, 5349.738
208.0094, 5345.479
208.4915, 5341.348
208.9736, 5337.898
209.4557, 5331.644
209.9378, 5320.077
210.4200, 5306.354
210.9021, 5302.075
211.3842, 5309.312
211.8663, 5321.493
212.3484, 5336.681
212.8306, 5358.269
213.3127, 5369.534
213.7948, 5366.393
214.2769, 5351.247
214.7590, 5335.077
215.2411, 5312.830
215.7233, 5298.778
216.2054, 5307.068
216.6875, 5345.972
217.1696, 5381.366
217.6517, 5409.595
218.1338, 5430.534
218.6160, 5441.964
219.0981, 5442.313
219.5802, 5435.438
220.0623, 5423.089
220.5444, 5401.021
221.0265, 5384.042
221.5087, 5374.774
221.9908, 5373.176
222.4729, 5376.298
222.9550, 5386.248
223.4371, 5398.592
223.9192, 5409.549
224.4014, 5419.619
224.8835, 5427.312
225.3656, 5434.299
225.8477, 5441.373
226.3298, 5432.921
226.8119, 5397.493
227.2941, 5357.706
227.7762, 5338.796
228.2583, 5346.828
228.7404, 5364.407
229.2225, 5392.506
229.7046, 5434.513
230.1868, 5454.532
230.6689, 5441.555
231.1510, 5415.463
231.6331, 5401.670
232.1152, 5407.302
232.5973, 5412.664
233.0795, 5412.549
233.5616, 5405.988
234.0437, 5399.580
234.5258, 5388.391
235.0079, 5381.232
235.4900, 5394.190
235.9722, 5446.993
236.4543, 5486.471
236.9364, 5493.744
237.4185, 5459.622
237.9006, 5433.322
238.3827, 5415.426
238.8649, 5404.886
239.3470, 5399.858
239.8291, 5399.678
240.3112, 5405.964
240.7933, 5421.346
241.2754, 5451.029
241.7576, 5470.263
242.2397, 5476.389
242.7218, 5473.220
243.2039, 5466.880
243.6860, 5454.516
244.1681, 5443.370
244.6503, 5435.592
245.1324, 5430.689
245.6145, 5430.707
246.0966, 5436.210
246.5787, 5446.466
247.0608, 5461.095
247.5430, 5485.069
248.0251, 5505.409
248.5072, 5516.200
248.9893, 5512.896
249.4714, 5513.775
249.9535, 5520.050
250.4357, 5529.875
250.9178, 5540.800
251.3999, 5557.871
251.8820, 5567.295
252.3641, 5560.601
252.8462, 5527.505
253.3284, 5509.949
253.8105, 5515.119
254.2926, 5532.544
254.7747, 5538.247
255.2568, 5524.327
255.7389, 5512.710
256.2211, 5514.414
256.7032, 5537.740
257.1853, 5548.360
257.6674, 5540.071
258.1495, 5522.219
258.6317, 5516.440
259.1138, 5527.841
259.5959, 5541.439
260.0780, 5550.280
260.5601, 5551.703
261.0422, 5557.007
261.5244, 5567.704
262.0065, 5581.349
262.4886, 5591.409
262.9707, 5595.294
263.4528, 5601.379
263.9349, 5616.133
264.4171, 5646.451
264.8992, 5659.766
265.3813, 5648.114
265.8634, 5625.032
266.3455, 5623.905
266.8276, 5656.027
267.3098, 5681.703
267.7919, 5677.378
268.2740, 5631.075
268.7561, 5609.619
269.2382, 5621.183
269.7203, 5651.820
270.2025, 5673.021
270.6846, 5681.505
271.1667, 5689.916
271.6488, 5706.802
272.1309, 5735.570
272.6130, 5750.548
273.0952, 5747.535
273.5773, 5734.783
274.0594, 5727.151
274.5415, 5724.281
275.0236, 5728.112
275.5057, 5744.014
275.9879, 5774.529
276.4700, 5790.465
276.9521, 5788.070
277.4342, 5775.789
277.9163, 5766.746
278.3984, 5760.249
278.8806, 5761.247
279.3627, 5775.817
279.8448, 5804.386
280.3269, 5824.437
280.8090, 5833.015
281.2911, 5837.138
281.7733, 5854.622
282.2554, 5888.032
282.7375, 5905.322
283.2196, 5876.158
283.7017, 5804.323
284.1838, 5778.284
284.6660, 5809.727
285.1481, 5861.859
285.6302, 5880.179
286.1123, 5864.451
286.5944, 5842.055
287.0765, 5819.944
287.5587, 5799.715
288.0408, 5794.705
288.5229, 5807.376
289.0050, 5827.958
289.4871, 5848.244
289.9692, 5867.607
290.4514, 5876.009
290.9335, 5864.709
291.4156, 5838.003
291.8977, 5810.708
292.3798, 5781.275
292.8619, 5758.601
293.3441, 5757.500
293.8262, 5774.888
294.3083, 5793.379
294.7904, 5808.987
295.2725, 5820.282
295.7546, 5822.356
296.2368, 5814.669
296.7189, 5802.615
297.2010, 5791.118
297.6831, 5779.988
298.1652, 5768.227
298.6473, 5751.025
299.1295, 5734.477
299.6116, 5731.191
300.0937, 5741.534
300.5758, 5755.096
301.0579, 5761.142
301.5400, 5762.936
302.0222, 5768.346
302.5043, 5788.623
302.9864, 5809.322
303.4685, 5806.195
303.9506, 5780.239
304.4327, 5755.650
304.9149, 5752.910
305.3970, 5764.266
305.8791, 5777.337
306.3612, 5791.130
306.8433, 5802.198
307.3254, 5802.094
307.8076, 5792.683
308.2897, 5790.396
308.7718, 5816.482
309.2539, 5853.128
309.7360, 5877.901
310.2181, 5879.151
310.7003, 5871.737
311.1824, 5861.635
311.6645, 5850.180
312.1466, 5844.408
312.6287, 5850.087
313.1108, 5862.355
313.5930, 5877.743
314.0751, 5903.375
314.5572, 5921.102
315.0393, 5913.373
315.5214, 5887.790
316.0035, 5870.759
316.4857, 5879.979
316.9678, 5898.274
317.4499, 5914.416
317.9320, 5928.949
318.4141, 5936.367
318.8962, 5927.725
319.3784, 5910.051
319.8605, 5900.143
320.3426, 5908.351
320.8247, 5922.252
321.3068, 5936.614
321.7889, 5954.965
322.2711, 5964.264
322.7532, 5950.699
323.2353, 5926.855
323.7174, 5916.479
324.1995, 5941.154
324.6816, 5965.404
325.1638, 5974.417
325.6459, 5960.398
326.1280, 5950.523
326.6101, 5955.062
327.0922, 5963.344
327.5743, 5959.953
328.0565, 5923.869
328.5386, 5896.201
329.0207, 5890.623
329.5028, 5915.145
329.9849, 5927.434
330.4670, 5920.257
330.9492, 5905.071
331.4313, 5894.047
331.9134, 5888.699
332.3955, 5885.719
332.8776, 5885.818
333.3597, 5889.276
333.8419, 5887.488
334.3240, 5873.458
334.8061, 5861.125
335.2882, 5864.675
335.7704, 5893.548
336.2525, 5916.375
336.7346, 5927.777
337.2167, 5928.434
337.6988, 5925.126
338.1809, 5917.103
338.6631, 5906.241
339.1452, 5892.525
339.6273, 5874.090
340.1094, 5861.270
340.5915, 5855.179
341.0736, 5855.687
341.5558, 5864.866
342.0379, 5885.369
342.5200, 5903.200
343.0021, 5904.413
343.4842, 5889.096
343.9663, 5890.674
344.4485, 5917.755
344.9306, 5954.690
345.4127, 5969.297
345.8948, 5961.907
346.3769, 5947.969
346.8590, 5931.929
347.3412, 5915.557
347.8233, 5908.565
348.3054, 5912.695
348.7875, 5921.814
349.2696, 5926.713
349.7517, 5928.675
350.2339, 5934.623
350.7160, 5950.257
351.1981, 5971.227
351.6802, 5991.468
352.1623, 6010.979
352.6444, 6024.419
353.1266, 6018.375
353.6087, 6001.988
354.0908, 5995.454
354.5729, 6015.539
355.0550, 6044.147
355.5371, 6061.900
356.0193, 6069.503
356.5014, 6075.162
356.9835, 6088.957
357.4656, 6103.097
357.9477, 6107.306
358.4298, 6089.532
358.9120, 6071.165
359.3941, 6064.702
359.8762, 6069.200
360.3583, 6080.298
360.8404, 6100.831
361.3225, 6124.337
361.8047, 6146.164
362.2868, 6165.296
362.7689, 6182.512
363.2510, 6199.537
363.7331, 6214.746
364.2152, 6224.389
364.6974, 6222.752
365.1795, 6218.486
365.6616, 6214.233
366.1437, 6207.470
366.6258, 6208.019
367.1079, 6218.574
367.5901, 6237.110
368.0722, 6260.579
368.5543, 6299.474
369.0364, 6333.185
369.5185, 6357.007
370.0006, 6370.797
370.4828, 6377.206
370.9649, 6368.320
371.4470, 6357.419
371.9291, 6357.025
372.4112, 6370.210
372.8933, 6389.589
373.3755, 6418.012
373.8576, 6453.987
374.3397, 6471.939
374.8218, 6459.013
375.3039, 6447.427
375.7860, 6464.465
376.2682, 6519.788
376.7503, 6563.765
377.2324, 6587.367
377.7145, 6597.716
378.1966, 6617.111
378.6787, 6647.357
379.1609, 6677.425
379.6430, 6702.197
380.1251, 6721.613
380.6072, 6733.920
381.0893, 6737.103
381.5714, 6738.201
382.0536, 6747.168
382.5357, 6764.102
383.0178, 6786.852
383.4999, 6818.385
383.9820, 6855.211
384.4641, 6884.887
384.9463, 6906.636
385.4284, 6930.184
385.9105, 6968.492
386.3926, 7016.889
386.8747, 7063.624
387.3568, 7107.477
387.8390, 7145.563
388.3211, 7167.093
388.8032, 7174.824
389.2853, 7192.882
389.7674, 7253.061
390.2495, 7327.777
390.7317, 7380.837
391.2138, 7389.426
391.6959, 7397.458
392.1780, 7436.859
392.6601, 7499.392
393.1422, 7559.930
393.6244, 7595.896
394.1065, 7634.932
394.5886, 7701.220
395.0707, 7813.209
395.5528, 7904.443
396.0349, 7932.114
396.5171, 7931.104
396.9992, 7952.662
397.4813, 8024.874
397.9634, 8103.972
398.4455, 8177.534
398.9276, 8243.098
399.4098, 8313.512
399.8919, 8401.953
400.3740, 8488.493
400.8561, 8556.521
401.3382, 8584.093
401.8203, 8624.273
402.3025, 8688.407
402.7846, 8772.163
403.2667, 8846.974
403.7488, 8910.638
404.2309, 8967.951
404.7130, 9023.597
405.1952, 9081.231
405.6773, 9120.949
406.1594, 9138.402
406.6415, 9140.914
407.1236, 9140.550
407.6057, 9135.810
408.0879, 9136.671
408.5700, 9150.994
409.0521, 9177.195
409.5342, 9197.840
410.0163, 9214.735
410.4984, 9217.199
410.9806, 9183.921
411.4627, 9120.260
411.9448, 9063.206
412.4269, 9031.639
412.9090, 9008.414
413.3911, 8958.662
413.8733, 8883.934
414.3554, 8805.473
414.8375, 8739.778
415.3196, 8681.786
415.8017, 8624.325
416.2838, 8567.770
416.7660, 8508.486
417.2481, 8440.330
417.7302, 8367.550
418.2123, 8301.780
418.6944, 8255.634
419.1765, 8214.797
419.6587, 8170.328
420.1408, 8120.692
420.6229, 8068.519
421.1050, 8012.889
421.5871, 7956.318
422.0692, 7900.975
422.5514, 7843.658
423.0335, 7792.189
423.5156, 7751.615
423.9977, 7721.820
424.4798, 7686.382
424.9619, 7639.301
425.4441, 7589.362
425.9262, 7540.686
426.4083, 7484.391
426.8904, 7443.232
427.3725, 7423.346
427.8546, 7417.796
428.3368, 7409.596
428.8189, 7403.237
429.3010, 7386.019
429.7831, 7350.438
430.2652, 7293.988
430.7473, 7239.119
431.2295, 7182.293
431.7116, 7134.647
432.1937, 7116.470
432.6758, 7130.709
433.1579, 7137.168
433.6401, 7123.729
434.1222, 7094.809
434.6043, 7059.525
435.0864, 7017.145
435.5685, 6983.938
436.0507, 6976.667
436.5328, 6988.979
437.0149, 7004.174
437.4970, 7022.612
437.9791, 7034.755
438.4612, 7021.596
438.9434, 6990.585
439.4255, 6965.476
439.9076, 6966.195
440.3897, 6975.174
440.8718, 6972.875
441.3539, 6957.471
441.8361, 6944.890
442.3182, 6952.002
442.8003, 6964.919
443.2824, 6967.757
443.7645, 6944.298
444.2466, 6921.186
444.7288, 6906.050
445.2109, 6898.933
445.6930, 6900.359
446.1751, 6923.048
446.6572, 6944.526
447.1393, 6952.053
447.6215, 6928.479
448.1036, 6918.958
448.5857, 6930.340
449.0678, 6953.971
449.5499, 6976.621
450.0320, 6998.292
450.5142, 7018.724
450.9963, 7037.865
451.4784, 7055.867
451.9605, 7073.016
452.4426, 7089.895
452.9247, 7105.356
453.4069, 7120.102
453.8890, 7134.747
454.3711, 7140.855
454.8532, 7134.546
455.3353, 7121.788
455.8174, 7116.391
456.2996, 7118.056
456.7817, 7121.901
457.2638, 7128.585
457.7459, 7134.808
458.2280, 7132.167
458.7101, 7119.882
459.1923, 7100.397
459.6744, 7069.777
460.1565, 7034.102
460.6386, 7007.256
461.1207, 7004.352
461.6028, 7003.740
462.0850, 6984.995
462.5671, 6951.458
463.0492, 6921.072
463.5313, 6910.845
464.0134, 6902.551
464.4955, 6878.828
464.9777, 6820.352
465.4598, 6782.590
465.9419, 6799.795
466.4240, 6843.910
466.9061, 6869.169
467.3882, 6855.397
467.8704, 6834.631
468.3525, 6812.859
468.8346, 6790.083
469.3167, 6766.391
469.7988, 6733.546
470.2809, 6707.739
470.7631, 6705.060
471.2452, 6740.894
471.7273, 6754.862
472.2094, 6734.313
472.6915, 6694.297
473.1736, 6670.760
473.6558, 6665.506
474.1379, 6666.705
474.6200, 6670.268
475.1021, 6676.233
475.5842, 6683.624
476.0663, 6692.702
476.5485, 6702.967
477.0306, 6712.375
477.5127, 6722.256
477.9948, 6736.788
478.4769, 6758.539
478.9590, 6783.575
479.4412, 6803.621
479.9233, 6821.347
480.4054, 6848.311
480.8875, 6900.073
481.3696, 6958.359
481.8517, 7006.202
482.3339, 7038.762
482.8160, 7072.402
483.2981, 7118.378
483.7802, 7168.787
484.2623, 7212.382
484.7444, 7229.028
485.2266, 7257.740
485.7087, 7319.049
486.1908, 7409.513
486.6729, 7477.070
487.1550, 7504.507
487.6371, 7524.565
488.1193, 7552.378
488.6014, 7587.452
489.0835, 7631.347
489.5656, 7689.031
490.0477, 7751.147
490.5298, 7805.436
491.0120, 7852.783
491.4941, 7888.371
491.9762, 7904.125
492.4583, 7907.583
492.9404, 7937.415
493.4225, 7995.372
493.9047, 8061.412
494.3868, 8135.012
494.8689, 8205.172
495.3510, 8236.595
495.8331, 8218.214
496.3152, 8175.566
496.7974, 8129.312
497.2795, 8080.434
497.7616, 8032.855
498.2437, 7997.122
498.7258, 7956.357
499.2079, 7895.232
499.6901, 7814.068
500.1722, 7726.426
500.6543, 7626.769
501.1364, 7530.674
501.6185, 7449.711
502.1006, 7400.509
502.5828, 7347.048
503.0649, 7277.930
503.5470, 7200.764
504.0291, 7132.931
504.5112, 7078.940
504.9933, 7027.631
505.4755, 6975.880
505.9576, 6923.756
506.4397, 6875.925
506.9218, 6833.996
507.4039, 6793.970
507.8860, 6749.824
508.3682, 6699.854
508.8503, 6664.084
509.3324, 6648.247
509.8145, 6641.635
510.2966, 6621.247
510.7787, 6588.689
511.2609, 6563.544
511.7430, 6563.050
512.2251, 6574.244
512.7072, 6572.338
513.1893, 6557.204
513.6714, 6536.535
514.1536, 6505.713
514.6357, 6476.729
515.1178, 6467.651
515.5999, 6496.620
516.0820, 6520.880
516.5641, 6511.472
517.0463, 6481.413
517.5284, 6457.393
518.0105, 6451.191
518.4926, 6449.250
518.9747, 6446.084
519.4568, 6440.782
519.9390, 6441.122
520.4211, 6457.112
520.9032, 6470.511
521.3853, 6470.071
521.8674, 6456.403
522.3495, 6423.460
522.8317, 6355.392
523.3138, 6279.778
523.7959, 6265.444
524.2780, 6323.118
524.7601, 6372.315
525.2422, 6377.608
525.7244, 6349.324
526.2065, 6331.692
526.6886, 6325.027
527.1707, 6326.224
527.6528, 6336.810
528.1349, 6352.844
528.6171, 6366.280
529.0992, 6375.591
529.5813, 6381.823
530.0634, 6386.855
530.5455, 6389.351
531.0276, 6386.860
531.5098, 6366.520
531.9919, 6350.781
532.4740, 6354.196
532.9561, 6376.088
533.4382, 6396.627
533.9203, 6419.156
534.4025, 6432.462
534.8846, 6427.724
535.3667, 6380.823
535.8488, 6358.133
536.3309, 6373.396
536.8130, 6404.679
537.2952, 6418.049
537.7773, 6406.848
538.2594, 6396.722
538.7415, 6394.554
539.2236, 6398.773
539.7057, 6401.542
540.1879, 6403.283
540.6700, 6401.199
541.1521, 6389.301
541.6342, 6371.299
542.1163, 6361.179
542.5984, 6360.268
543.0806, 6365.712
543.5627, 6380.055
544.0448, 6397.902
544.5269, 6408.726
545.0090, 6405.068
545.4911, 6396.449
545.9733, 6385.331
546.4554, 6373.654
546.9375, 6368.884
547.4196, 6378.915
547.9017, 6392.635
548.3839, 6407.477
548.8660, 6428.175
549.3481, 6431.485
549.8302, 6397.668
550.3123, 6357.865
550.7944, 6340.376
551.2766, 6357.216
551.7587, 6370.652
552.2408, 6377.687
552.7229, 6378.183
553.2050, 6368.238
553.6871, 6345.417
554.1693, 6328.556
554.6514, 6327.286
555.1335, 6339.315
555.6156, 6358.387
556.0977, 6385.071
556.5798, 6404.768
557.0620, 6394.206
557.5441, 6369.489
558.0262, 6362.491
558.5083, 6386.340
558.9904, 6413.181
559.4725, 6425.635
559.9547, 6426.037
560.4368, 6418.522
560.9189, 6398.305
561.4010, 6376.787
561.8831, 6354.873
562.3652, 6333.391
562.8474, 6323.677
563.3295, 6339.306
563.8116, 6357.448
564.2937, 6368.169
564.7758, 6369.917
565.2579, 6367.125
565.7401, 6354.729
566.2222, 6343.918
566.7043, 6351.739
567.1864, 6380.433
567.6685, 6406.920
568.1506, 6427.806
568.6328, 6441.604
569.1149, 6439.637
569.5970, 6423.799
570.0791, 6414.507
570.5612, 6436.439
571.0433, 6466.881
571.5255, 6467.020
572.0076, 6434.232
572.4897, 6406.673
572.9718, 6414.941
573.4539, 6439.452
573.9360, 6461.647
574.4182, 6484.637
574.9003, 6492.495
575.3824, 6464.977
575.8645, 6421.232
576.3466, 6399.544
576.8287, 6425.000
577.3109, 6445.194
577.7930, 6445.697
578.2751, 6428.756
578.7572, 6425.045
579.2393, 6439.821
579.7214, 6455.058
580.2036, 6457.762
580.6857, 6448.179
581.1678, 6446.010
581.6499, 6453.532
582.1321, 6462.222
582.6142, 6462.057
583.0963, 6454.699
583.5784, 6444.152
584.0605, 6427.541
584.5427, 6414.250
585.0248, 6416.000
585.5069, 6429.231
585.9890, 6443.867
586.4711, 6459.379
586.9532, 6471.212
587.4354, 6475.075
587.9175, 6470.268
588.3996, 6467.312
588.8817, 6467.612
589.3638, 6470.654
589.8459, 6476.247
590.3281, 6485.721
590.8102, 6494.508
591.2923, 6501.916
591.7744, 6508.873
592.2565, 6518.780
592.7386, 6532.915
593.2208, 6537.648
593.7029, 6524.829
594.1850, 6503.792
594.6671, 6498.827
595.1492, 6508.809
595.6313, 6523.625
596.1135, 6540.002
596.5956, 6556.283
597.0777, 6572.156
597.5598, 6587.868
598.0419, 6597.148
598.5240, 6588.046
599.0062, 6575.203
599.4883, 6572.847
599.9704, 6592.891
600.4525, 6609.426
600.9346, 6610.856
601.4167, 6606.523
601.8989, 6613.009
602.3810, 6638.041
602.8631, 6660.835
603.3452, 6676.958
603.8273, 6687.108
604.3094, 6697.856
604.7916, 6710.739
605.2737, 6717.045
605.7558, 6705.272
606.2379, 6680.850
606.7200, 6672.956
607.2021, 6683.144
607.6843, 6700.444
608.1664, 6722.530
608.6485, 6743.004
609.1306, 6749.198
609.6127, 6731.136
610.0948, 6713.648
610.5770, 6714.134
611.0591, 6725.952
611.5412, 6737.744
612.0233, 6748.772
612.5054, 6756.522
612.9875, 6756.831
613.4697, 6751.177
613.9518, 6754.462
614.4339, 6776.810
614.9160, 6793.024
615.3981, 6789.621
615.8802, 6764.817
616.3624, 6742.630
616.8445, 6721.856
617.3266, 6708.231
617.8087, 6710.593
618.2908, 6726.081
618.7729, 6741.300
619.2551, 6754.702
619.7372, 6764.792
620.2193, 6768.513
620.7014, 6767.750
621.1835, 6766.639
621.6656, 6771.266
622.1478, 6772.118
622.6299, 6760.822
623.1120, 6740.308
623.5941, 6723.823
624.0762, 6719.185
624.5583, 6715.389
