##NAMES=Stenhuggarite
##RRUFFID=R080038
##IDEAL CHEMISTRY=CaFe^3+^Sb^3+^As^3+^_2_O_7_
##LOCALITY=Langban, Filipstad, Varmland, Sweden
##OWNER=RRUFF
##SOURCE=Michael Scott
##DESCRIPTION=Aggregate of reddish orange granular crystals in matrix of black hematite
##STATUS=The identification of this mineral has been confirmed only by single crystal X-ray diffraction.
##URL=rruff.info/R080038
##MEASURED CHEMISTRY=(Ca_0.93_Mn_0.01_Pb_0.01_)(Fe^3+^_0.96_Si_0.01_)Sb^3+^_0.85_As^3+^_2.21_O_7_
93.71484, 68.92264
94.19696, 62.96589
94.67908, 62.41839
95.16119, 67.77775
95.64331, 76.21272
96.12543, 84.45765
96.60754, 92.59045
97.08966, 101.6693
97.57178, 112.4946
98.05389, 124.9743
98.53601, 138.0109
99.01813, 151.6990
99.50024, 165.8685
99.98236, 180.1377
100.4645, 194.5594
100.9466, 208.5330
101.4287, 221.3102
101.9108, 232.8518
102.3929, 244.2576
102.8751, 255.9439
103.3572, 267.7908
103.8393, 278.1895
104.3214, 286.4444
104.8035, 294.4171
105.2856, 304.0800
105.7678, 315.8077
106.2499, 328.2932
106.7320, 341.1089
107.2141, 354.2876
107.6962, 368.2688
108.1783, 382.4785
108.6605, 397.8597
109.1426, 415.9151
109.6247, 438.3698
110.1068, 461.8907
110.5889, 485.7985
111.0710, 509.2383
111.5532, 534.3741
112.0353, 562.7455
112.5174, 592.7965
112.9995, 622.0410
113.4816, 650.9001
113.9637, 678.7430
114.4459, 705.5471
114.9280, 733.1796
115.4101, 757.0997
115.8922, 776.7136
116.3743, 791.9276
116.8564, 801.9901
117.3386, 805.7130
117.8207, 804.9779
118.3028, 801.1440
118.7849, 792.2707
119.2670, 782.4816
119.7491, 772.0461
120.2313, 761.2602
120.7134, 753.4096
121.1955, 750.0726
121.6776, 750.5580
122.1597, 754.0544
122.6418, 762.0409
123.1240, 771.7866
123.6061, 780.9598
124.0882, 789.3638
124.5703, 798.8696
125.0524, 810.8968
125.5345, 824.9731
126.0167, 840.0447
126.4988, 857.0128
126.9809, 874.2355
127.4630, 889.3062
127.9451, 901.6827
128.4272, 912.8264
128.9093, 923.7922
129.3915, 934.6648
129.8736, 945.6100
130.3557, 957.0159
130.8378, 964.4951
131.3199, 965.6688
131.8020, 964.0636
132.2842, 960.8710
132.7663, 957.8632
133.2484, 955.0123
133.7305, 952.4944
134.2126, 949.9104
134.6947, 947.3993
135.1769, 946.8210
135.6590, 948.9256
136.1411, 952.8276
136.6232, 955.6361
137.1053, 957.0745
137.5874, 958.6157
138.0696, 961.4518
138.5517, 965.5613
139.0338, 970.6011
139.5159, 976.6257
139.9980, 983.5046
140.4801, 990.5024
140.9623, 997.3597
141.4444, 1004.772
141.9265, 1013.829
142.4086, 1024.998
142.8907, 1036.414
143.3728, 1047.427
143.8550, 1057.650
144.3371, 1070.094
144.8192, 1085.900
145.3013, 1103.009
145.7834, 1117.726
146.2655, 1129.099
146.7477, 1140.102
147.2298, 1151.894
147.7119, 1165.028
148.1940, 1177.277
148.6761, 1189.137
149.1582, 1200.096
149.6404, 1208.605
150.1225, 1213.922
150.6046, 1217.706
151.0867, 1220.405
151.5688, 1220.981
152.0509, 1222.043
152.5331, 1223.386
153.0152, 1225.140
153.4973, 1227.725
153.9794, 1230.298
154.4615, 1234.214
154.9436, 1240.091
155.4258, 1250.220
155.9079, 1259.529
156.3900, 1266.834
156.8721, 1272.629
157.3542, 1279.545
157.8363, 1288.512
158.3185, 1298.345
158.8006, 1308.420
159.2827, 1318.956
159.7648, 1329.311
160.2469, 1340.066
160.7290, 1350.996
161.2112, 1359.890
161.6933, 1365.328
162.1754, 1368.833
162.6575, 1371.674
163.1396, 1375.647
163.6217, 1377.795
164.1039, 1377.050
164.5860, 1373.401
165.0681, 1367.191
165.5502, 1356.699
166.0323, 1344.328
166.5145, 1332.673
166.9966, 1323.219
167.4787, 1314.355
167.9608, 1305.171
168.4429, 1295.609
168.9250, 1285.973
169.4072, 1275.708
169.8893, 1265.582
170.3714, 1256.759
170.8535, 1250.938
171.3356, 1245.827
171.8177, 1239.109
172.2999, 1230.329
172.7820, 1222.157
173.2641, 1217.226
173.7462, 1214.459
174.2283, 1211.507
174.7104, 1206.236
175.1926, 1200.513
175.6747, 1196.669
176.1568, 1195.085
176.6389, 1194.483
177.1210, 1193.271
177.6031, 1191.926
178.0853, 1191.932
178.5674, 1195.509
179.0495, 1200.615
179.5316, 1203.604
180.0137, 1203.284
180.4958, 1202.895
180.9780, 1206.662
181.4601, 1214.031
181.9422, 1222.079
182.4243, 1228.925
182.9064, 1235.113
183.3885, 1241.799
183.8707, 1248.991
184.3528, 1257.068
184.8349, 1267.517
185.3170, 1279.981
185.7991, 1292.001
186.2812, 1301.945
186.7633, 1309.945
187.2455, 1316.586
187.7276, 1322.225
188.2097, 1326.238
188.6918, 1327.095
189.1739, 1324.785
189.6560, 1321.384
190.1382, 1319.379
190.6203, 1318.137
191.1024, 1313.118
191.5845, 1302.485
192.0666, 1288.636
192.5487, 1277.069
193.0309, 1268.021
193.5130, 1259.520
193.9951, 1250.007
194.4772, 1239.518
194.9593, 1228.545
195.4414, 1216.794
195.9236, 1204.697
196.4057, 1194.297
196.8878, 1185.800
197.3699, 1177.693
197.8520, 1168.346
198.3341, 1157.557
198.8163, 1147.808
199.2984, 1139.417
199.7805, 1132.379
200.2626, 1127.023
200.7447, 1123.635
201.2268, 1120.841
201.7090, 1117.075
202.1911, 1112.105
202.6732, 1108.481
203.1553, 1107.295
203.6374, 1108.058
204.1195, 1107.152
204.6017, 1103.833
205.0838, 1100.852
205.5659, 1101.652
206.0480, 1107.153
206.5301, 1111.140
207.0122, 1111.554
207.4944, 1108.854
207.9765, 1108.113
208.4586, 1109.807
208.9407, 1112.467
209.4228, 1114.526
209.9049, 1115.724
210.3871, 1117.426
210.8692, 1120.478
211.3513, 1124.728
211.8334, 1126.420
212.3155, 1124.788
212.7976, 1121.872
213.2798, 1119.942
213.7619, 1119.443
214.2440, 1118.594
214.7261, 1117.032
215.2082, 1114.778
215.6903, 1111.774
216.1725, 1107.973
216.6546, 1103.549
217.1367, 1098.734
217.6188, 1093.609
218.1009, 1087.769
218.5830, 1080.682
219.0652, 1072.139
219.5473, 1065.471
220.0294, 1062.005
220.5115, 1058.621
220.9936, 1051.434
221.4757, 1038.528
221.9579, 1026.066
222.4400, 1015.414
222.9221, 1006.598
223.4042, 998.3760
223.8863, 990.8355
224.3684, 983.6425
224.8506, 976.2393
225.3327, 968.4672
225.8148, 961.0212
226.2969, 954.4085
226.7790, 948.7220
227.2611, 941.9378
227.7433, 933.4578
228.2254, 924.3792
228.7075, 915.9075
229.1896, 908.0632
229.6717, 900.6907
230.1538, 893.8886
230.6360, 887.8076
231.1181, 880.8700
231.6002, 872.2626
232.0823, 863.5579
232.5644, 856.7174
233.0465, 852.8600
233.5287, 848.5557
234.0108, 842.7792
234.4929, 835.2504
234.9750, 828.8202
235.4571, 823.9853
235.9392, 819.8531
236.4214, 815.5035
236.9035, 811.0608
237.3856, 806.2111
237.8677, 800.7746
238.3498, 794.6402
238.8319, 788.8099
239.3141, 782.9583
239.7962, 777.7299
240.2783, 773.9810
240.7604, 773.1520
241.2425, 771.0364
241.7246, 766.2913
242.2068, 758.6524
242.6889, 752.5712
243.1710, 748.5921
243.6531, 745.6399
244.1352, 742.8771
244.6173, 741.3783
245.0995, 737.8966
245.5816, 730.9767
246.0637, 720.5144
246.5458, 712.2950
247.0279, 706.9091
247.5100, 703.1451
247.9922, 700.0948
248.4743, 698.2836
248.9564, 696.1099
249.4385, 693.3556
249.9206, 690.0240
250.4027, 685.8986
250.8848, 680.2073
251.3670, 674.5936
251.8491, 670.7831
252.3312, 670.0655
252.8133, 668.2122
253.2954, 663.8961
253.7775, 657.3781
254.2597, 653.0890
254.7418, 651.5959
255.2239, 651.6024
255.7060, 652.2260
256.1881, 653.7958
256.6703, 655.2116
257.1524, 656.4313
257.6345, 657.4115
258.1166, 657.6111
258.5987, 656.3273
259.0808, 655.3043
259.5630, 655.9960
260.0451, 659.1319
260.5272, 661.9412
261.0093, 663.9619
261.4914, 665.3709
261.9735, 667.0195
262.4557, 668.7673
262.9378, 670.9832
263.4199, 674.1451
263.9020, 678.8600
264.3841, 682.4617
264.8662, 684.2578
265.3484, 684.8668
265.8305, 686.7057
266.3126, 689.9402
266.7947, 694.0373
267.2768, 698.8839
267.7589, 704.9449
268.2411, 710.1511
268.7232, 714.1631
269.2053, 717.4316
269.6874, 721.3227
270.1695, 726.0411
270.6516, 730.9489
271.1338, 735.6650
271.6159, 740.1718
272.0980, 744.9064
272.5801, 750.0399
273.0622, 755.2861
273.5443, 759.6495
274.0265, 762.7424
274.5086, 766.2402
274.9907, 771.0481
275.4728, 777.3027
275.9549, 783.7777
276.4370, 790.8285
276.9192, 797.5714
277.4013, 802.0486
277.8834, 803.8723
278.3655, 805.6429
278.8476, 808.6996
279.3297, 813.1517
279.8118, 816.9256
280.2939, 820.0400
280.7761, 822.4351
281.2582, 823.8855
281.7403, 824.3591
282.2224, 824.3966
282.7045, 824.0814
283.1866, 823.4468
283.6688, 822.9773
284.1509, 822.7578
284.6330, 822.3837
285.1151, 821.4684
285.5972, 819.9990
286.0793, 817.7324
286.5615, 814.2357
287.0436, 809.8271
287.5257, 806.2107
288.0078, 803.5188
288.4899, 800.7891
288.9720, 796.9835
289.4542, 792.1635
289.9363, 786.8842
290.4184, 780.9273
290.9005, 774.8028
291.3826, 769.8064
291.8647, 765.9538
292.3469, 762.7869
292.8290, 759.9427
293.3111, 757.4356
293.7932, 755.3610
294.2753, 754.2435
294.7574, 753.0531
295.2396, 749.1021
295.7217, 742.5401
296.2038, 736.3478
296.6859, 733.6212
297.1680, 733.1544
297.6501, 731.5225
298.1323, 727.8311
298.6144, 723.2139
299.0965, 719.0031
299.5786, 715.1614
300.0607, 711.6926
300.5428, 708.8203
301.0250, 706.2205
301.5071, 703.0272
301.9892, 698.8164
302.4713, 694.8717
302.9534, 692.7770
303.4355, 692.1692
303.9177, 691.7882
304.3998, 691.1263
304.8819, 690.2082
305.3640, 689.0801
305.8461, 687.7324
306.3282, 686.1774
306.8104, 684.1066
307.2925, 681.8295
307.7746, 680.0329
308.2567, 679.7589
308.7388, 679.7039
309.2209, 678.4980
309.7031, 676.0431
310.1852, 673.5407
310.6673, 671.6397
311.1494, 670.2369
311.6315, 669.1694
312.1136, 669.2992
312.5958, 669.0143
313.0779, 666.9373
313.5600, 663.1829
314.0421, 659.2659
314.5242, 655.7286
315.0063, 652.5649
315.4885, 649.7851
315.9706, 647.4990
316.4527, 645.4240
316.9348, 643.9865
317.4169, 642.8422
317.8990, 640.4498
318.3812, 635.1369
318.8633, 628.9975
319.3454, 623.5473
319.8275, 619.4756
320.3096, 615.5595
320.7917, 611.4951
321.2739, 607.3085
321.7560, 603.0471
322.2381, 598.5458
322.7202, 594.1317
323.2023, 589.8375
323.6844, 585.3044
324.1666, 581.7717
324.6487, 580.3364
325.1308, 579.8828
325.6129, 578.6865
326.0950, 575.6210
326.5771, 572.5957
327.0593, 570.0093
327.5414, 567.7535
328.0235, 566.4222
328.5056, 566.7794
328.9877, 567.7717
329.4698, 568.3020
329.9520, 567.9302
330.4341, 567.6151
330.9162, 567.6478
331.3983, 568.0587
331.8804, 567.9092
332.3625, 566.5976
332.8447, 565.2652
333.3268, 564.7872
333.8089, 565.7022
334.2910, 566.5017
334.7731, 566.8137
335.2552, 566.8535
335.7374, 567.7928
336.2195, 569.9866
336.7016, 572.5168
337.1837, 575.0031
337.6658, 577.5811
338.1479, 579.5135
338.6301, 580.5207
339.1122, 581.0078
339.5943, 581.6518
340.0764, 582.1417
340.5585, 583.8048
341.0406, 588.1556
341.5228, 595.6439
342.0049, 599.1908
342.4870, 597.7889
342.9691, 594.6023
343.4512, 594.3643
343.9333, 597.2685
344.4155, 600.2200
344.8976, 602.1887
345.3797, 603.3370
345.8618, 604.2321
346.3439, 604.8677
346.8260, 605.3652
347.3082, 605.4894
347.7903, 605.4138
348.2724, 606.3956
348.7545, 609.1385
349.2366, 612.7430
349.7188, 615.4541
350.2009, 617.3349
350.6830, 618.9313
351.1651, 620.7004
351.6472, 622.4963
352.1293, 623.8768
352.6115, 624.6495
353.0936, 625.2709
353.5757, 626.3622
354.0578, 627.7775
354.5399, 629.0258
355.0220, 629.7504
355.5042, 630.1934
355.9863, 630.5302
356.4684, 630.7255
356.9505, 631.1680
357.4326, 632.3341
357.9147, 633.9166
358.3969, 635.4152
358.8790, 636.4820
359.3611, 637.5077
359.8432, 638.9731
360.3253, 640.8430
360.8074, 642.2087
361.2896, 642.3473
361.7717, 641.8987
362.2538, 641.4501
362.7359, 641.1718
363.2180, 640.9222
363.7001, 640.8193
364.1823, 640.7584
364.6644, 640.3422
365.1465, 638.8012
365.6286, 637.3705
366.1107, 636.8630
366.5928, 638.3528
367.0750, 638.8659
367.5571, 637.2317
368.0392, 634.4559
368.5213, 632.2633
369.0034, 631.6419
369.4855, 630.8389
369.9677, 629.2874
370.4498, 626.8188
370.9319, 624.4608
371.4140, 622.2184
371.8961, 620.0398
372.3782, 617.8546
372.8604, 615.3478
373.3425, 613.3928
373.8246, 612.4074
374.3067, 612.2172
374.7888, 611.2765
375.2709, 609.3939
375.7531, 607.0972
376.2352, 604.5911
376.7173, 601.7631
377.1994, 599.3636
377.6815, 597.5247
378.1636, 596.0685
378.6458, 594.5522
379.1279, 592.9002
379.6100, 591.5906
380.0921, 591.2002
380.5742, 591.6567
381.0563, 590.8524
381.5385, 588.6111
382.0206, 585.7794
382.5027, 583.4307
382.9848, 581.4791
383.4669, 579.3622
383.9490, 576.6876
384.4312, 573.7989
384.9133, 571.3457
385.3954, 569.3362
385.8775, 567.9161
386.3596, 568.0162
386.8417, 568.7440
387.3239, 568.0186
387.8060, 564.8998
388.2881, 561.2490
388.7702, 559.0322
389.2523, 557.9696
389.7344, 557.2115
390.2166, 556.7631
390.6987, 556.1268
391.1808, 554.6295
391.6629, 552.0715
392.1450, 549.6270
392.6271, 548.3995
393.1093, 547.6605
393.5914, 546.4632
394.0735, 544.3430
394.5556, 541.7974
395.0377, 538.8231
395.5198, 535.4952
396.0020, 532.4789
396.4841, 529.9974
396.9662, 527.9062
397.4483, 526.1310
397.9304, 525.0574
398.4125, 523.7492
398.8947, 521.6719
399.3768, 519.2448
399.8589, 517.5095
400.3410, 517.6884
400.8231, 517.4657
401.3052, 516.0251
401.7874, 512.9798
402.2695, 510.1918
402.7516, 507.8635
403.2337, 505.6367
403.7158, 502.9745
404.1979, 499.1821
404.6800, 496.5096
405.1621, 495.7795
405.6443, 496.6310
406.1264, 496.2959
406.6085, 494.4258
407.0906, 492.3139
407.5727, 490.7337
408.0548, 489.6832
408.5370, 489.3005
409.0191, 489.7600
409.5012, 490.6161
409.9833, 491.2801
410.4654, 491.7450
410.9475, 491.5512
411.4297, 490.0798
411.9118, 487.7436
412.3939, 485.9106
412.8760, 484.6099
413.3581, 483.8199
413.8402, 483.6154
414.3224, 483.9242
414.8045, 484.6600
415.2866, 486.3174
415.7687, 487.7597
416.2508, 487.1508
416.7329, 484.9701
417.2151, 483.3207
417.6972, 483.7541
418.1793, 485.1630
418.6614, 486.7540
419.1435, 488.6527
419.6256, 489.6457
420.1078, 488.0965
420.5899, 485.4116
421.0720, 483.6136
421.5541, 484.0194
422.0362, 484.9039
422.5183, 485.6348
423.0005, 486.1830
423.4826, 486.8497
423.9647, 488.1806
424.4468, 489.3510
424.9289, 489.7988
425.4110, 488.6588
425.8932, 487.8006
426.3753, 487.3791
426.8574, 487.2686
427.3395, 487.1620
427.8216, 486.8773
428.3037, 486.8256
428.7859, 487.1417
429.2680, 487.8409
429.7501, 488.8653
430.2322, 490.5563
430.7143, 492.0735
431.1964, 492.2469
431.6786, 490.7169
432.1607, 489.7828
432.6428, 490.0797
433.1249, 491.1744
433.6070, 491.8348
434.0891, 492.0916
434.5713, 491.6809
435.0534, 489.8487
435.5355, 487.0573
436.0176, 485.4858
436.4997, 485.4051
436.9818, 486.1811
437.4640, 487.6226
437.9461, 489.3886
438.4282, 490.3571
438.9103, 489.0289
439.3924, 487.3239
439.8745, 487.9384
440.3567, 490.6242
440.8388, 493.3911
441.3209, 495.0180
441.8030, 496.0074
442.2851, 496.8911
442.7672, 497.8630
443.2494, 498.5382
443.7315, 498.2879
444.2136, 497.6342
444.6957, 497.5342
445.1778, 498.7200
445.6599, 500.1241
446.1421, 501.4151
446.6242, 502.5846
447.1063, 503.4986
447.5884, 504.1581
448.0705, 504.5512
448.5526, 504.6376
449.0348, 503.5845
449.5169, 503.4566
449.9990, 504.9866
450.4811, 507.4368
450.9632, 508.5565
451.4453, 507.5901
451.9275, 506.7689
452.4096, 507.2226
452.8917, 509.1413
453.3738, 509.6559
453.8559, 508.3297
454.3380, 506.6342
454.8202, 506.1230
455.3023, 506.8077
455.7844, 508.0957
456.2665, 510.1089
456.7486, 512.3627
457.2307, 513.8533
457.7129, 514.5958
458.1950, 514.9335
458.6771, 514.8873
459.1592, 514.6176
459.6413, 514.4033
460.1234, 514.2532
460.6056, 514.2559
461.0877, 515.1100
461.5698, 516.0693
462.0519, 515.8561
462.5340, 512.3757
463.0161, 509.0919
463.4983, 508.7244
463.9804, 510.6783
464.4625, 512.2532
464.9446, 512.0579
465.4267, 511.3509
465.9088, 510.9095
466.3910, 510.9985
466.8731, 510.8886
467.3552, 509.9169
467.8373, 508.8414
468.3194, 508.6351
468.8015, 510.1734
469.2837, 511.5958
469.7658, 512.8647
470.2479, 513.8981
470.7300, 513.7543
471.2121, 511.8429
471.6942, 509.6620
472.1764, 507.9013
472.6585, 506.4937
473.1406, 506.0528
473.6227, 506.8889
474.1048, 508.2052
474.5869, 508.8670
475.0691, 508.8739
475.5512, 508.5206
476.0333, 507.6883
476.5154, 506.6884
476.9975, 506.1633
477.4796, 506.1258
477.9618, 506.7775
478.4439, 509.0605
478.9260, 511.9654
479.4081, 513.4524
479.8902, 512.9866
480.3723, 512.1782
480.8545, 512.1436
481.3366, 512.7612
481.8187, 513.8257
482.3008, 515.5771
482.7829, 517.4615
483.2650, 519.2441
483.7472, 520.9236
484.2293, 522.4781
484.7114, 523.8738
485.1935, 525.1885
485.6756, 526.4709
486.1577, 527.8347
486.6399, 528.9779
487.1220, 529.5167
487.6041, 529.9656
488.0862, 530.9575
488.5683, 532.6008
489.0504, 534.6452
489.5326, 537.1426
490.0147, 540.0279
490.4968, 542.7274
490.9789, 545.1671
491.4610, 547.5306
491.9431, 549.8909
492.4253, 552.2034
492.9074, 554.6691
493.3895, 557.2787
493.8716, 560.1296
494.3537, 563.8909
494.8358, 568.2552
495.3180, 571.5162
495.8001, 572.2491
496.2822, 572.2459
496.7643, 574.3420
497.2464, 578.3152
497.7285, 582.7591
498.2107, 587.0377
498.6928, 591.2170
499.1749, 595.6711
499.6570, 600.6376
500.1391, 604.6699
500.6212, 605.7396
501.1034, 605.8558
501.5855, 607.4001
502.0676, 612.2549
502.5497, 617.2850
503.0318, 621.8001
503.5139, 625.8500
503.9961, 629.7602
504.4782, 634.0378
504.9603, 637.8024
505.4424, 640.5760
505.9245, 642.0195
506.4066, 644.0790
506.8888, 647.0800
507.3709, 650.2942
507.8530, 652.9308
508.3351, 654.8311
508.8172, 656.9330
509.2993, 659.5482
509.7815, 662.3093
510.2636, 664.0408
510.7457, 664.7701
511.2278, 665.8996
511.7099, 668.8957
512.1920, 672.7466
512.6741, 674.6656
513.1563, 674.5355
513.6384, 674.6104
514.1205, 677.5707
514.6026, 681.7377
515.0847, 684.5641
515.5668, 684.7013
516.0490, 684.6022
516.5311, 685.9745
517.0132, 688.1980
517.4953, 690.0153
517.9774, 690.4793
518.4595, 690.9307
518.9417, 692.1600
519.4238, 694.2718
519.9059, 695.5748
520.3880, 694.8229
520.8701, 694.0389
521.3522, 694.3674
521.8344, 696.5804
522.3165, 698.3386
522.7986, 699.6524
523.2807, 700.4797
523.7628, 700.5549
524.2449, 699.6829
524.7271, 699.1287
525.2092, 699.3098
525.6913, 700.0686
526.1734, 700.9910
526.6555, 702.0886
527.1376, 702.9337
527.6198, 703.4348
528.1019, 703.4306
528.5840, 702.1295
529.0661, 699.2630
529.5482, 696.7787
530.0303, 696.9672
530.5125, 698.5945
530.9946, 699.7489
531.4767, 699.5003
531.9588, 698.8950
532.4409, 698.2948
532.9230, 697.7472
533.4052, 697.3807
533.8873, 697.5104
534.3694, 697.5864
534.8515, 697.1747
535.3336, 696.0035
535.8157, 695.8401
536.2979, 697.9442
536.7800, 699.9949
537.2621, 700.1778
537.7442, 697.5504
538.2263, 695.4933
538.7084, 693.9744
539.1906, 693.3830
539.6727, 695.0123
540.1548, 699.1299
540.6369, 702.4477
541.1190, 703.5344
541.6011, 703.0795
542.0833, 703.0709
542.5654, 703.4833
543.0475, 703.7917
543.5296, 703.0677
544.0117, 702.1573
544.4938, 702.6871
544.9760, 705.0966
545.4581, 707.3033
545.9402, 707.6886
546.4223, 706.9647
546.9044, 706.0457
547.3865, 704.8028
547.8687, 703.8436
548.3508, 703.7637
548.8329, 704.1808
549.3150, 703.8760
549.7971, 702.4923
550.2792, 700.5333
550.7614, 698.0904
551.2435, 695.1826
551.7256, 692.0966
552.2077, 688.8092
552.6898, 685.4521
553.1719, 681.9545
553.6541, 678.1993
554.1362, 675.5447
554.6183, 674.4990
555.1004, 673.7389
555.5825, 670.8516
556.0646, 666.1510
556.5468, 661.8736
557.0289, 659.1852
557.5110, 657.0566
557.9931, 653.6858
558.4752, 649.3176
558.9573, 645.3620
559.4395, 642.9304
559.9216, 641.0730
560.4037, 638.9156
560.8858, 636.3122
561.3679, 633.8932
561.8500, 632.0543
562.3322, 630.4512
562.8143, 628.7571
563.2964, 626.7104
563.7785, 624.8744
564.2606, 623.3811
564.7427, 622.1048
565.2249, 620.7897
565.7070, 619.3561
566.1891, 618.0735
566.6712, 616.9766
567.1533, 616.0948
567.6354, 615.6148
568.1176, 615.6094
568.5997, 615.5411
569.0818, 614.6948
569.5639, 613.4172
570.0460, 613.4643
570.5281, 615.1356
571.0103, 616.5221
571.4924, 614.6479
571.9745, 611.3811
572.4566, 610.1053
572.9387, 612.8952
573.4208, 616.2232
573.9030, 617.9720
574.3851, 618.5801
574.8672, 619.0347
575.3493, 619.4443
575.8314, 619.9606
576.3135, 620.7325
576.7957, 621.7537
577.2778, 622.4629
577.7599, 622.1169
578.2420, 622.2537
578.7241, 623.8688
579.2062, 627.5792
579.6884, 630.1418
580.1705, 631.2117
580.6526, 631.8718
581.1347, 633.3627
581.6168, 635.6827
582.0989, 638.3508
582.5811, 641.3057
583.0632, 644.5150
583.5453, 648.1798
584.0274, 652.1722
584.5095, 655.8877
584.9916, 658.1072
585.4738, 660.5450
585.9559, 665.2756
586.4380, 672.0028
586.9201, 678.3801
587.4022, 682.8482
587.8843, 687.0012
588.3665, 691.7446
