##NAMES=Stenhuggarite
##RRUFFID=R080038
##IDEAL CHEMISTRY=CaFe^3+^Sb^3+^As^3+^_2_O_7_
##LOCALITY=Langban, Filipstad, Varmland, Sweden
##OWNER=RRUFF
##SOURCE=Michael Scott
##DESCRIPTION=Aggregate of reddish orange granular crystals in matrix of black hematite
##STATUS=The identification of this mineral has been confirmed only by single crystal X-ray diffraction.
##URL=rruff.info/R080038
##MEASURED CHEMISTRY=(Ca_0.93_Mn_0.01_Pb_0.01_)(Fe^3+^_0.96_Si_0.01_)Sb^3+^_0.85_As^3+^_2.21_O_7_
94.45215, 2103.611
94.93427, 2083.139
95.41638, 2108.752
95.89850, 2165.134
96.38062, 2220.110
96.86273, 2239.308
97.34485, 2222.495
97.82697, 2183.515
98.30908, 2112.584
98.79120, 2031.300
99.27332, 1952.469
99.75543, 1878.961
100.2375, 1813.620
100.7197, 1761.093
101.2018, 1716.088
101.6839, 1679.990
102.1660, 1654.455
102.6481, 1637.885
103.1302, 1627.486
103.6124, 1623.236
104.0945, 1623.766
104.5766, 1625.567
105.0587, 1628.109
105.5408, 1634.109
106.0229, 1646.087
106.5051, 1664.242
106.9872, 1685.846
107.4693, 1713.219
107.9514, 1742.254
108.4335, 1770.978
108.9156, 1799.072
109.3978, 1824.635
109.8799, 1843.216
110.3620, 1852.986
110.8441, 1857.223
111.3262, 1853.701
111.8083, 1846.346
112.2905, 1839.544
112.7726, 1835.874
113.2547, 1835.249
113.7368, 1837.027
114.2189, 1841.430
114.7010, 1847.660
115.1832, 1855.184
115.6653, 1864.222
116.1474, 1875.658
116.6295, 1890.143
117.1116, 1908.189
117.5937, 1928.568
118.0759, 1953.597
118.5580, 1979.442
119.0401, 2005.170
119.5222, 2030.958
120.0043, 2051.099
120.4864, 2055.714
120.9686, 2046.905
121.4507, 2036.653
121.9328, 2024.220
122.4149, 2012.717
122.8970, 2009.727
123.3791, 2017.105
123.8613, 2033.984
124.3434, 2057.026
124.8255, 2086.273
125.3076, 2122.064
125.7897, 2165.612
126.2718, 2217.216
126.7540, 2272.669
127.2361, 2340.343
127.7182, 2406.041
128.2003, 2465.891
128.6824, 2518.349
129.1645, 2557.224
129.6467, 2573.269
130.1288, 2561.570
130.6109, 2532.308
131.0930, 2481.003
131.5751, 2419.276
132.0572, 2353.696
132.5394, 2287.164
133.0215, 2222.540
133.5036, 2168.626
133.9857, 2127.581
134.4678, 2096.056
134.9499, 2077.333
135.4321, 2067.549
135.9142, 2061.606
136.3963, 2057.181
136.8784, 2053.684
137.3605, 2047.171
137.8426, 2035.054
138.3248, 2023.114
138.8069, 2012.163
139.2890, 2002.804
139.7711, 1997.772
140.2532, 1998.727
140.7353, 2006.361
141.2175, 2019.543
141.6996, 2040.042
142.1817, 2065.125
142.6638, 2091.880
143.1459, 2119.739
143.6280, 2151.291
144.1102, 2188.062
144.5923, 2229.612
145.0744, 2276.820
145.5565, 2331.430
146.0386, 2391.853
146.5207, 2454.414
147.0029, 2521.682
147.4850, 2587.376
147.9671, 2652.717
148.4492, 2714.897
148.9313, 2768.188
149.4134, 2808.693
149.8955, 2836.346
150.3777, 2853.231
150.8598, 2854.008
151.3419, 2847.202
151.8240, 2831.735
152.3061, 2809.786
152.7882, 2786.291
153.2704, 2765.543
153.7525, 2746.213
154.2346, 2735.312
154.7167, 2732.883
155.1988, 2736.525
155.6809, 2744.902
156.1631, 2757.809
156.6452, 2775.818
157.1273, 2799.834
157.6094, 2832.364
158.0915, 2867.266
158.5736, 2903.462
159.0558, 2942.321
159.5379, 2984.950
160.0200, 3031.556
160.5021, 3082.413
160.9842, 3138.592
161.4663, 3200.999
161.9485, 3264.372
162.4306, 3329.313
162.9127, 3394.391
163.3948, 3458.813
163.8769, 3524.104
164.3590, 3585.144
164.8412, 3636.392
165.3233, 3680.415
165.8054, 3710.121
166.2875, 3722.811
166.7696, 3718.332
167.2517, 3694.855
167.7339, 3649.250
168.2160, 3583.417
168.6981, 3500.585
169.1802, 3399.952
169.6623, 3288.830
170.1444, 3171.446
170.6266, 3046.038
171.1087, 2926.672
171.5908, 2817.205
172.0729, 2716.152
172.5550, 2622.817
173.0371, 2537.167
173.5193, 2459.811
174.0014, 2390.728
174.4835, 2331.001
174.9656, 2278.953
175.4477, 2234.269
175.9298, 2195.328
176.4120, 2160.901
176.8941, 2130.481
177.3762, 2104.184
177.8583, 2082.662
178.3404, 2068.369
178.8225, 2056.319
179.3047, 2046.109
179.7868, 2037.622
180.2689, 2030.649
180.7510, 2025.127
181.2331, 2021.079
181.7152, 2018.811
182.1974, 2017.231
182.6795, 2018.606
183.1616, 2023.040
183.6437, 2030.733
184.1258, 2041.912
184.6079, 2056.628
185.0900, 2075.888
185.5722, 2098.001
186.0543, 2125.560
186.5364, 2156.310
187.0185, 2190.737
187.5006, 2228.013
187.9827, 2266.826
188.4649, 2306.855
188.9470, 2347.435
189.4291, 2385.656
189.9112, 2425.209
190.3933, 2459.729
190.8754, 2486.032
191.3576, 2504.127
191.8397, 2512.614
192.3218, 2509.909
192.8039, 2495.997
193.2860, 2472.842
193.7681, 2437.698
194.2503, 2395.759
194.7324, 2350.393
195.2145, 2300.557
195.6966, 2253.098
196.1787, 2212.043
196.6608, 2175.553
197.1430, 2142.074
197.6251, 2110.546
198.1072, 2082.390
198.5893, 2060.396
199.0714, 2045.614
199.5535, 2034.363
200.0357, 2025.909
200.5178, 2019.416
200.9999, 2014.014
201.4820, 2009.276
201.9641, 2005.401
202.4462, 2002.876
202.9284, 2001.481
203.4105, 2002.083
203.8926, 2003.861
204.3747, 2007.632
204.8568, 2014.584
205.3389, 2025.507
205.8211, 2039.863
206.3032, 2054.966
206.7853, 2070.258
207.2674, 2087.327
207.7495, 2106.708
208.2316, 2127.955
208.7138, 2150.866
209.1959, 2175.484
209.6780, 2201.418
210.1601, 2225.035
210.6422, 2244.577
211.1243, 2263.513
211.6065, 2282.686
212.0886, 2301.645
212.5707, 2319.529
213.0528, 2335.749
213.5349, 2350.355
214.0170, 2363.324
214.4992, 2376.014
214.9813, 2385.804
215.4634, 2392.989
215.9455, 2396.686
216.4276, 2395.410
216.9097, 2388.261
217.3919, 2375.257
217.8740, 2356.176
218.3561, 2331.335
218.8382, 2301.895
219.3203, 2266.059
219.8024, 2225.609
220.2845, 2184.981
220.7667, 2145.982
221.2488, 2109.305
221.7309, 2077.597
222.2130, 2051.251
222.6951, 2028.773
223.1772, 2009.403
223.6594, 1993.206
224.1415, 1980.778
224.6236, 1973.367
225.1057, 1969.812
225.5878, 1965.227
226.0699, 1958.857
226.5521, 1952.305
227.0342, 1947.489
227.5163, 1944.064
227.9984, 1938.487
228.4805, 1928.210
228.9626, 1914.735
229.4448, 1901.580
229.9269, 1889.701
230.4090, 1877.087
230.8911, 1860.928
231.3732, 1841.255
231.8553, 1823.173
232.3375, 1810.539
232.8196, 1800.006
233.3017, 1787.639
233.7838, 1772.695
234.2659, 1756.434
234.7480, 1740.070
235.2302, 1723.606
235.7123, 1707.047
236.1944, 1691.111
236.6765, 1674.651
237.1586, 1656.605
237.6407, 1636.690
238.1229, 1615.603
238.6050, 1593.527
239.0871, 1570.071
239.5692, 1548.277
240.0513, 1530.481
240.5334, 1513.714
241.0156, 1495.646
241.4977, 1475.827
241.9798, 1455.850
242.4619, 1438.113
242.9440, 1423.150
243.4261, 1408.189
243.9083, 1392.192
244.3904, 1376.462
244.8725, 1362.343
245.3546, 1349.917
245.8367, 1337.516
246.3188, 1322.688
246.8010, 1304.410
247.2831, 1286.866
247.7652, 1270.273
248.2473, 1254.453
248.7294, 1239.725
249.2115, 1225.980
249.6937, 1212.682
250.1758, 1199.086
250.6579, 1184.714
251.1400, 1171.171
251.6221, 1158.453
252.1042, 1146.365
252.5864, 1135.236
253.0685, 1124.813
253.5506, 1114.455
254.0327, 1103.205
254.5148, 1090.672
254.9969, 1078.608
255.4790, 1066.601
255.9612, 1055.217
256.4433, 1045.191
256.9254, 1036.331
257.4075, 1027.519
257.8896, 1017.405
258.3718, 1005.206
258.8539, 995.4095
259.3360, 988.5749
259.8181, 983.0878
260.3002, 977.7719
260.7823, 972.8765
261.2645, 969.8362
261.7466, 970.3156
262.2287, 975.0566
262.7108, 977.7527
263.1929, 976.4893
263.6750, 975.4245
264.1572, 976.1738
264.6393, 978.8240
265.1214, 982.8972
265.6035, 988.1223
266.0856, 994.5181
266.5677, 1001.383
267.0499, 1008.984
267.5320, 1016.727
268.0141, 1025.025
268.4962, 1033.389
268.9783, 1040.578
269.4604, 1045.648
269.9426, 1048.757
270.4247, 1051.755
270.9068, 1054.090
271.3889, 1056.913
271.8710, 1060.933
272.3531, 1065.796
272.8352, 1070.638
273.3174, 1074.980
273.7995, 1078.914
274.2816, 1082.895
274.7637, 1086.610
275.2458, 1090.695
275.7279, 1095.067
276.2101, 1099.961
276.6922, 1105.818
277.1743, 1112.879
277.6564, 1120.996
278.1385, 1130.168
278.6206, 1140.570
279.1028, 1151.266
279.5849, 1161.888
280.0670, 1172.599
280.5491, 1183.667
281.0312, 1195.150
281.5133, 1207.203
281.9955, 1220.396
282.4776, 1234.969
282.9597, 1249.442
283.4418, 1264.087
283.9239, 1278.374
284.4060, 1291.730
284.8882, 1304.175
285.3703, 1315.038
285.8524, 1323.091
286.3345, 1328.484
286.8166, 1332.059
287.2987, 1334.451
287.7809, 1334.915
288.2630, 1331.906
288.7451, 1324.979
289.2272, 1316.544
289.7093, 1309.074
290.1914, 1302.469
290.6736, 1295.588
291.1557, 1288.189
291.6378, 1280.456
292.1199, 1272.304
292.6020, 1263.718
293.0841, 1255.596
293.5663, 1248.883
294.0484, 1243.344
294.5305, 1237.681
295.0126, 1231.162
295.4947, 1224.905
295.9768, 1220.020
296.4590, 1216.495
296.9411, 1213.336
297.4232, 1209.944
297.9053, 1206.500
298.3874, 1203.473
298.8695, 1200.996
299.3517, 1198.787
299.8338, 1197.149
300.3159, 1195.877
300.7980, 1193.528
301.2801, 1189.190
301.7622, 1183.506
302.2444, 1178.122
302.7265, 1173.438
303.2086, 1168.108
303.6907, 1160.904
304.1728, 1152.303
304.6549, 1144.192
305.1371, 1137.305
305.6192, 1130.928
306.1013, 1124.114
306.5834, 1116.900
307.0655, 1109.295
307.5476, 1100.882
308.0298, 1092.080
308.5119, 1083.733
308.9940, 1075.907
309.4761, 1068.834
309.9582, 1063.216
310.4403, 1058.792
310.9225, 1054.106
311.4046, 1048.038
311.8867, 1041.604
312.3688, 1036.442
312.8509, 1032.791
313.3330, 1029.928
313.8152, 1027.672
314.2973, 1025.804
314.7794, 1023.657
315.2615, 1021.586
315.7436, 1018.879
316.2257, 1014.376
316.7079, 1007.981
317.1900, 1001.674
317.6721, 996.8889
318.1542, 993.0115
318.6363, 988.4830
319.1184, 983.1234
319.6006, 977.1931
320.0827, 970.3818
320.5648, 962.8912
321.0469, 956.3604
321.5290, 951.9294
322.0111, 948.4721
322.4933, 943.5997
322.9754, 936.6080
323.4575, 930.3405
323.9396, 926.6536
324.4217, 924.9271
324.9038, 923.3405
325.3860, 921.4244
325.8681, 919.4006
326.3502, 917.5062
326.8323, 915.6971
327.3144, 914.1921
327.7965, 912.6247
328.2787, 911.5198
328.7608, 912.1008
329.2429, 914.8107
329.7250, 917.9119
330.2071, 919.5576
330.6892, 920.0170
331.1714, 920.8105
331.6535, 921.5694
332.1356, 923.1745
332.6177, 926.8489
333.0998, 932.6467
333.5819, 939.0314
334.0641, 945.0328
334.5462, 950.8090
335.0283, 957.0599
335.5104, 963.4809
335.9925, 970.6922
336.4746, 979.0733
336.9568, 988.5968
337.4389, 999.0001
337.9210, 1010.405
338.4031, 1022.572
338.8852, 1034.932
339.3673, 1047.536
339.8495, 1060.098
340.3316, 1071.881
340.8137, 1083.498
341.2958, 1096.541
341.7779, 1111.681
342.2600, 1127.434
342.7421, 1141.788
343.2242, 1154.732
343.7064, 1166.984
344.1885, 1178.406
344.6706, 1189.339
345.1527, 1200.494
345.6348, 1212.002
346.1169, 1222.462
346.5991, 1230.396
347.0812, 1235.612
347.5633, 1240.969
348.0454, 1246.666
348.5275, 1252.405
349.0096, 1257.885
349.4918, 1263.191
349.9739, 1268.631
350.4560, 1274.437
350.9381, 1280.537
351.4202, 1286.603
351.9023, 1292.358
352.3845, 1298.347
352.8666, 1305.016
353.3487, 1312.015
353.8308, 1318.715
354.3129, 1324.882
354.7950, 1330.591
355.2772, 1336.052
355.7593, 1341.568
356.2414, 1346.124
356.7235, 1349.287
357.2056, 1351.627
357.6877, 1353.738
358.1699, 1355.720
358.6520, 1357.183
359.1341, 1357.641
359.6162, 1356.874
360.0983, 1356.163
360.5804, 1355.893
361.0626, 1355.344
361.5447, 1354.427
362.0268, 1352.933
362.5089, 1350.201
362.9910, 1345.567
363.4731, 1339.355
363.9553, 1334.821
364.4374, 1333.611
364.9195, 1331.953
365.4016, 1328.917
365.8837, 1325.005
366.3658, 1320.781
366.8480, 1316.473
367.3301, 1312.318
367.8122, 1308.893
368.2943, 1307.107
368.7764, 1304.641
369.2585, 1301.660
369.7407, 1297.954
370.2228, 1293.527
370.7049, 1288.289
371.1870, 1281.938
371.6691, 1274.122
372.1512, 1264.851
372.6334, 1254.260
373.1155, 1241.840
373.5976, 1228.784
374.0797, 1215.254
374.5618, 1201.453
375.0439, 1187.379
375.5261, 1172.883
376.0082, 1158.332
376.4903, 1145.473
376.9724, 1134.719
377.4545, 1125.219
377.9366, 1116.969
378.4188, 1109.667
378.9009, 1102.907
379.3830, 1096.578
379.8651, 1091.013
380.3472, 1086.985
380.8293, 1084.888
381.3115, 1082.952
381.7936, 1081.471
382.2757, 1079.754
382.7578, 1077.834
383.2399, 1075.450
383.7220, 1071.805
384.2042, 1065.857
384.6863, 1057.757
385.1684, 1049.953
385.6505, 1042.329
386.1326, 1035.123
386.6147, 1028.380
387.0969, 1022.035
387.5790, 1016.038
388.0611, 1010.405
388.5432, 1004.904
389.0253, 998.9341
389.5074, 992.2371
389.9896, 986.0866
390.4717, 981.1385
390.9538, 976.8049
391.4359, 972.5745
391.9180, 968.3560
392.4001, 964.7353
392.8823, 962.3582
393.3644, 961.0764
393.8465, 960.1044
394.3286, 959.8051
394.8107, 958.9922
395.2928, 956.5188
395.7750, 952.7261
396.2571, 948.7318
396.7392, 945.0349
397.2213, 941.3493
397.7034, 937.5524
398.1855, 933.7404
398.6677, 928.6404
399.1498, 921.1436
399.6319, 911.8625
400.1140, 902.5040
400.5961, 893.1590
401.0782, 883.7330
401.5604, 874.0304
402.0425, 864.1439
402.5246, 854.1137
403.0067, 843.8050
403.4888, 833.7510
403.9709, 825.0068
404.4531, 817.6740
404.9352, 810.0472
405.4173, 800.9819
405.8994, 791.9753
406.3815, 784.7079
406.8636, 779.2385
407.3458, 774.3684
407.8279, 769.2168
408.3100, 763.8337
408.7921, 759.0645
409.2742, 755.2908
409.7563, 751.6398
410.2385, 747.6494
410.7206, 743.6094
411.2027, 740.1539
411.6848, 737.5663
412.1669, 735.4701
412.6490, 733.1005
413.1311, 730.2184
413.6133, 727.4705
414.0954, 724.7564
414.5775, 722.2455
415.0596, 719.9581
415.5417, 717.9669
416.0238, 716.5046
416.5060, 715.8859
416.9881, 716.1467
417.4702, 715.9066
417.9523, 714.5928
418.4344, 713.3772
418.9165, 712.3555
419.3987, 711.6495
419.8808, 711.5036
420.3629, 712.0470
420.8450, 712.8767
421.3271, 713.0040
421.8092, 711.8315
422.2914, 711.4847
422.7735, 713.1282
423.2556, 714.9020
423.7377, 715.4788
424.2198, 714.9030
424.7019, 714.3373
425.1841, 714.9816
425.6662, 716.6754
426.1483, 717.6707
426.6304, 717.7345
427.1125, 717.4339
427.5946, 716.9167
428.0768, 716.2811
428.5589, 715.6936
429.0410, 715.2493
429.5231, 714.7944
430.0052, 714.1777
430.4873, 713.4044
430.9695, 712.3400
431.4516, 710.6826
431.9337, 708.9760
432.4158, 707.8652
432.8979, 707.3544
433.3800, 706.8538
433.8622, 706.1396
434.3443, 705.2374
434.8264, 704.0933
435.3085, 702.6637
435.7906, 701.3415
436.2727, 700.4226
436.7549, 699.8646
437.2370, 699.3809
437.7191, 699.2025
438.2012, 698.8437
438.6833, 697.6987
439.1654, 696.1650
439.6476, 695.3627
440.1297, 695.8095
440.6118, 696.7039
441.0939, 696.6348
441.5760, 695.1306
442.0581, 693.9424
442.5403, 693.0651
443.0224, 692.5958
443.5045, 692.6037
443.9866, 693.0944
444.4687, 694.1647
444.9508, 696.0339
445.4330, 698.5394
445.9151, 699.8993
446.3972, 698.7859
446.8793, 698.0858
447.3614, 698.4086
447.8435, 699.2885
448.3257, 700.1743
448.8078, 700.8914
449.2899, 701.6445
449.7720, 702.8082
450.2541, 704.6050
450.7362, 706.0275
451.2184, 706.7756
451.7005, 707.4205
452.1826, 707.9260
452.6647, 708.5120
453.1468, 709.6347
453.6289, 711.6451
454.1111, 714.2851
454.5932, 716.8489
455.0753, 719.3188
455.5574, 721.8160
456.0395, 724.3840
456.5216, 726.9862
457.0038, 729.5429
457.4859, 732.0616
457.9680, 734.6731
458.4501, 737.5564
458.9322, 740.6342
459.4143, 743.6041
459.8965, 746.4561
460.3786, 749.1104
460.8607, 751.0453
461.3428, 752.7051
461.8249, 755.3721
462.3070, 760.4111
462.7892, 765.4139
463.2713, 768.1889
463.7534, 769.2859
464.2355, 770.7533
464.7176, 773.4083
465.1997, 776.6827
465.6819, 779.5959
466.1640, 781.9379
466.6461, 784.6901
467.1282, 788.5702
467.6103, 792.4645
468.0924, 795.2969
468.5746, 797.1501
469.0567, 798.9095
469.5388, 801.1606
470.0209, 803.8837
470.5030, 807.0625
470.9851, 811.5422
471.4673, 815.4143
471.9494, 818.2502
472.4315, 820.4872
472.9136, 822.3502
473.3957, 823.9871
473.8778, 825.8124
474.3600, 828.4568
474.8421, 832.1027
475.3242, 835.1973
475.8063, 837.1813
476.2884, 839.1934
476.7705, 841.7421
477.2527, 844.5512
477.7348, 847.1575
478.2169, 849.3587
478.6990, 851.2443
479.1811, 852.9543
479.6632, 854.5050
480.1454, 855.7725
480.6275, 856.5607
481.1096, 857.2101
481.5917, 858.0576
482.0738, 859.0735
482.5559, 859.9498
483.0380, 860.6659
483.5201, 861.1097
484.0023, 860.9885
484.4844, 860.2794
484.9665, 859.5363
485.4486, 859.1160
485.9307, 858.8458
486.4128, 858.1624
486.8950, 856.5233
487.3771, 855.6341
487.8592, 856.7560
488.3413, 858.6926
488.8234, 859.7252
489.3055, 859.5595
489.7877, 859.1660
490.2698, 859.4208
490.7519, 860.3243
491.2340, 861.9572
491.7161, 864.9473
492.1982, 867.8318
492.6804, 869.5467
493.1625, 871.0792
493.6446, 874.0067
494.1267, 878.8890
494.6088, 884.7492
495.0909, 889.9506
495.5731, 894.1884
496.0552, 898.7335
496.5373, 903.2316
497.0194, 908.4022
497.5015, 914.7535
497.9836, 922.0016
498.4658, 929.4769
498.9479, 936.7538
499.4300, 944.1696
499.9121, 952.5431
500.3942, 961.9441
500.8763, 971.5427
501.3585, 980.9291
501.8406, 990.5919
502.3227, 1001.237
502.8048, 1012.835
503.2869, 1024.272
503.7690, 1034.576
504.2512, 1044.603
504.7333, 1055.551
505.2154, 1067.570
505.6975, 1080.146
506.1796, 1093.339
506.6617, 1106.703
507.1439, 1118.863
507.6260, 1129.967
508.1081, 1140.018
508.5902, 1149.015
509.0723, 1156.960
509.5544, 1164.059
510.0366, 1170.231
510.5187, 1175.019
511.0008, 1177.901
511.4829, 1178.886
511.9650, 1179.309
512.4471, 1179.792
512.9293, 1178.975
513.4114, 1175.866
513.8935, 1171.663
514.3756, 1167.500
514.8577, 1163.777
515.3398, 1160.551
515.8220, 1157.866
516.3041, 1155.706
516.7862, 1154.314
517.2683, 1154.126
517.7504, 1154.188
518.2325, 1154.466
518.7147, 1154.592
519.1968, 1153.775
519.6789, 1151.374
520.1610, 1148.893
520.6431, 1148.365
521.1252, 1149.506
521.6074, 1150.051
522.0895, 1149.485
522.5716, 1148.144
523.0537, 1146.028
523.5358, 1143.265
524.0179, 1140.865
524.5001, 1139.333
524.9822, 1137.911
525.4643, 1136.198
525.9464, 1134.151
526.4285, 1131.641
526.9106, 1128.551
527.3928, 1125.232
527.8749, 1122.320
528.3570, 1119.836
528.8391, 1117.700
529.3212, 1116.303
529.8033, 1114.864
530.2855, 1112.486
530.7676, 1109.693
531.2497, 1107.999
531.7318, 1108.443
532.2139, 1109.900
532.6960, 1109.185
533.1782, 1105.270
533.6603, 1102.114
534.1424, 1101.882
534.6245, 1101.378
535.1066, 1098.586
535.5887, 1093.719
536.0709, 1088.306
536.5530, 1083.118
537.0351, 1078.037
537.5172, 1072.751
537.9993, 1067.269
538.4814, 1061.848
538.9636, 1056.514
539.4457, 1051.393
539.9278, 1046.419
540.4099, 1041.387
540.8920, 1037.603
541.3741, 1035.556
541.8563, 1034.819
542.3384, 1035.164
542.8205, 1036.465
543.3026, 1038.346
543.7847, 1040.554
544.2668, 1043.160
544.7490, 1046.368
545.2311, 1050.104
545.7132, 1054.630
546.1953, 1059.892
546.6774, 1065.960
547.1595, 1073.058
547.6417, 1081.072
548.1238, 1089.523
548.6059, 1098.135
549.0880, 1106.871
549.5701, 1115.851
550.0522, 1125.018
550.5344, 1134.426
551.0165, 1144.618
551.4986, 1154.689
551.9807, 1163.446
552.4628, 1170.943
552.9449, 1179.167
553.4271, 1189.817
553.9092, 1201.740
554.3913, 1213.212
554.8734, 1224.133
555.3555, 1234.310
555.8376, 1243.486
556.3198, 1251.953
556.8019, 1260.769
557.2840, 1270.870
557.7661, 1278.899
558.2482, 1284.401
558.7303, 1287.428
559.2125, 1288.400
559.6946, 1287.082
560.1767, 1282.301
560.6588, 1272.958
561.1409, 1259.975
561.6230, 1247.346
562.1052, 1235.677
562.5873, 1223.051
563.0694, 1208.669
563.5515, 1193.870
564.0336, 1178.892
564.5157, 1164.227
564.9979, 1151.448
565.4800, 1141.761
565.9621, 1134.643
566.4442, 1128.913
566.9263, 1124.640
567.4084, 1121.406
567.8906, 1119.613
568.3727, 1118.375
568.8548, 1116.070
569.3369, 1112.521
569.8190, 1110.678
570.3011, 1112.471
570.7833, 1115.818
571.2654, 1118.783
571.7475, 1121.339
572.2296, 1123.974
572.7117, 1126.952
573.1938, 1130.264
573.6760, 1134.021
574.1581, 1139.229
574.6402, 1142.911
575.1223, 1144.993
575.6044, 1145.740
576.0865, 1145.088
576.5687, 1143.241
577.0508, 1140.702
577.5329, 1137.840
578.0150, 1134.145
578.4971, 1128.567
578.9792, 1121.081
579.4614, 1111.942
579.9435, 1100.788
580.4256, 1088.311
580.9077, 1075.003
581.3898, 1060.978
581.8719, 1046.398
582.3541, 1031.147
582.8362, 1015.603
583.3183, 999.9703
583.8004, 984.4111
584.2825, 969.8978
584.7646, 956.7590
585.2468, 944.3220
585.7289, 931.5110
586.2110, 918.1316
586.6931, 906.0639
587.1752, 895.6630
587.6573, 886.1686
588.1394, 877.3591
588.6215, 869.1915
589.1036, 861.6819
