##NAMES=Stephanite
##RRUFFID=R050143
##IDEAL CHEMISTRY=Ag^1+^_5_Sb^3+^S^2-^_4_
##LOCALITY=Proano mine, Fresnillo, Zacatecas, Mexico
##OWNER=RRUFF
##SOURCE=Dave Bunk Minerals
##DESCRIPTION=Group of black pseudohexagonal crystals
##STATUS=The identification of this mineral has been confirmed by X-ray diffraction and chemical analysis
##URL=rruff.info/R050143
##MEASURED CHEMISTRY=Ag_5.00_Sb_1.00_S_4.00_
110.915, 934.734
111.397, 959.568
111.879, 985.572
112.362, 1030.424
112.844, 1106.106
113.326, 1184.336
113.808, 1248.017
114.290, 1308.355
114.772, 1399.393
115.254, 1564.218
115.736, 1743.493
116.218, 1898.651
116.701, 2022.655
117.183, 2118.840
117.665, 2186.353
118.147, 2225.548
118.629, 2242.908
119.111, 2230.929
119.593, 2200.997
120.075, 2166.815
120.558, 2129.470
121.040, 2092.037
121.522, 2051.893
122.004, 2006.923
122.486, 1976.003
122.968, 1990.224
123.450, 2029.733
123.932, 2052.896
124.414, 2019.386
124.897, 1962.767
125.379, 1926.419
125.861, 1919.694
126.343, 1925.241
126.825, 1925.639
127.307, 1921.926
127.789, 1919.494
128.271, 1925.683
128.753, 1936.241
129.236, 1938.220
129.718, 1921.374
130.200, 1901.617
130.682, 1915.255
131.164, 1963.088
131.646, 2016.010
132.128, 2045.926
132.610, 2055.093
133.093, 2065.791
133.575, 2086.710
134.057, 2114.412
134.539, 2131.695
135.021, 2135.644
135.503, 2138.589
135.985, 2160.072
136.467, 2202.982
136.949, 2239.549
137.432, 2255.747
137.914, 2250.136
138.396, 2254.195
138.878, 2271.406
139.360, 2294.367
139.842, 2308.494
140.324, 2311.846
140.806, 2311.421
141.288, 2311.236
141.771, 2313.501
142.253, 2310.491
142.735, 2316.714
143.217, 2320.695
143.699, 2322.556
144.181, 2315.945
144.663, 2320.273
145.145, 2321.229
145.628, 2324.158
146.110, 2333.902
146.592, 2341.992
147.074, 2348.518
147.556, 2348.789
148.038, 2357.135
148.520, 2362.991
149.002, 2381.121
149.484, 2388.803
149.967, 2388.947
150.449, 2376.989
150.931, 2348.253
151.413, 2334.584
151.895, 2352.074
152.377, 2379.011
152.859, 2391.872
153.342, 2368.048
153.824, 2349.694
154.306, 2352.090
154.788, 2387.872
155.270, 2407.966
155.752, 2388.720
156.234, 2352.788
156.716, 2337.019
157.198, 2370.360
157.680, 2409.090
158.163, 2433.738
158.645, 2433.303
159.127, 2434.136
159.609, 2448.080
160.091, 2468.948
160.573, 2480.596
161.055, 2465.575
161.538, 2446.338
162.020, 2437.111
162.502, 2444.753
162.984, 2458.205
163.466, 2479.253
163.948, 2504.848
164.430, 2520.599
164.912, 2511.065
165.394, 2492.157
165.876, 2478.217
166.359, 2472.062
166.841, 2473.573
167.323, 2485.626
167.805, 2507.602
168.287, 2530.432
168.769, 2548.246
169.251, 2563.632
169.733, 2580.063
170.216, 2596.069
170.698, 2615.512
171.180, 2644.105
171.662, 2682.653
172.144, 2720.031
172.626, 2744.129
173.108, 2761.555
173.590, 2784.672
174.072, 2813.082
174.555, 2852.939
175.037, 2912.922
175.519, 2994.657
176.001, 3090.654
176.483, 3189.010
176.965, 3294.641
177.447, 3419.189
177.929, 3560.898
178.412, 3727.177
178.894, 3935.358
179.376, 4191.909
179.858, 4470.629
180.340, 4744.103
180.822, 5011.042
181.304, 5280.508
181.786, 5544.748
182.268, 5811.805
182.751, 6095.085
183.233, 6391.296
183.715, 6709.368
184.197, 7045.645
184.679, 7404.894
185.161, 7812.689
185.643, 8322.736
186.125, 8903.791
186.607, 9501.381
187.090, 10179.710
187.572, 10788.440
188.054, 11029.550
188.536, 10898.300
189.018, 10467.440
189.500, 9672.078
189.982, 8574.808
190.464, 7528.790
190.947, 6608.610
191.429, 5811.118
191.911, 5168.223
192.393, 4687.011
192.875, 4314.292
193.357, 4005.781
193.839, 3761.834
194.321, 3569.629
194.803, 3433.739
195.286, 3345.992
195.768, 3256.769
196.250, 3163.865
196.732, 3077.727
197.214, 3010.770
197.696, 2964.031
198.178, 2925.240
198.661, 2891.152
199.143, 2861.651
199.625, 2834.259
200.107, 2807.698
200.589, 2785.504
201.071, 2776.036
201.553, 2782.209
202.035, 2782.635
202.517, 2762.818
202.999, 2720.923
203.482, 2704.300
203.964, 2719.988
204.446, 2750.419
204.928, 2767.880
205.410, 2771.242
205.892, 2765.548
206.374, 2747.621
206.857, 2713.054
207.339, 2698.438
207.821, 2711.252
208.303, 2736.742
208.785, 2742.047
209.267, 2719.215
209.749, 2699.011
210.231, 2698.017
210.713, 2721.878
211.195, 2738.960
211.678, 2748.096
212.160, 2750.465
212.642, 2750.400
213.124, 2751.660
213.606, 2742.169
214.088, 2708.902
214.570, 2637.522
215.052, 2596.072
215.535, 2597.408
216.017, 2627.318
216.499, 2638.610
216.981, 2624.179
217.463, 2604.765
217.945, 2590.669
218.427, 2580.761
218.909, 2580.417
219.391, 2594.246
219.874, 2617.490
220.356, 2629.657
220.838, 2624.826
221.320, 2618.246
221.802, 2619.477
222.284, 2631.173
222.766, 2644.518
223.248, 2660.393
223.731, 2677.762
224.213, 2688.187
224.695, 2684.347
225.177, 2684.248
225.659, 2702.041
226.141, 2748.510
226.623, 2788.639
227.105, 2818.969
227.587, 2839.842
228.070, 2853.069
228.552, 2852.377
229.034, 2851.812
229.516, 2860.884
229.998, 2879.564
230.480, 2908.297
230.962, 2950.348
231.444, 3003.974
231.926, 3049.278
232.409, 3073.615
232.891, 3103.716
233.373, 3163.544
233.855, 3271.383
234.337, 3371.724
234.819, 3448.849
235.301, 3506.120
235.783, 3588.031
236.266, 3690.673
236.748, 3822.327
237.230, 3990.297
237.712, 4205.147
238.194, 4439.321
238.676, 4685.048
239.158, 4941.193
239.640, 5241.375
240.122, 5597.023
240.605, 5984.649
241.087, 6382.233
241.569, 6788.106
242.051, 7216.374
242.533, 7675.918
243.015, 8162.576
243.497, 8648.630
243.980, 9113.970
244.462, 9599.790
244.944, 10144.260
245.426, 10761.110
245.908, 11409.760
246.390, 12081.380
246.872, 12778.610
247.354, 13525.850
247.836, 14370.060
248.318, 15207.380
248.801, 15962.390
249.283, 16710.980
249.765, 17226.590
250.247, 17501.260
250.729, 17534.480
251.211, 17158.461
251.693, 16272.620
252.176, 15105.610
252.658, 13831.850
253.140, 12340.590
253.622, 10973.980
254.104, 9779.251
254.586, 8751.984
255.068, 7868.488
255.550, 7148.234
256.032, 6548.448
256.514, 6040.199
256.997, 5639.772
257.479, 5291.001
257.961, 4983.929
258.443, 4717.285
258.925, 4489.894
259.407, 4312.497
259.889, 4160.018
260.371, 4005.087
260.854, 3835.437
261.336, 3694.773
261.818, 3596.528
262.300, 3539.348
262.782, 3474.456
263.264, 3398.045
263.746, 3321.649
264.228, 3258.202
264.711, 3210.674
265.193, 3165.290
265.675, 3119.041
266.157, 3072.538
266.639, 3028.797
267.121, 2989.556
267.603, 2950.639
268.085, 2904.169
268.567, 2845.063
269.050, 2801.046
269.532, 2783.073
270.014, 2786.680
270.496, 2775.054
270.978, 2742.829
271.460, 2707.301
271.942, 2684.503
272.424, 2678.083
272.906, 2665.964
273.389, 2641.757
273.871, 2608.479
274.353, 2581.230
274.835, 2558.878
275.317, 2545.794
275.799, 2550.377
276.281, 2575.760
276.763, 2592.747
277.246, 2596.441
277.728, 2587.947
278.210, 2566.292
278.692, 2526.459
279.174, 2492.828
279.656, 2493.804
280.138, 2531.486
280.620, 2548.146
281.103, 2527.458
281.585, 2483.689
282.067, 2461.605
282.549, 2463.328
283.031, 2473.030
283.513, 2480.852
283.995, 2486.797
284.477, 2489.426
284.959, 2487.010
285.441, 2482.737
285.924, 2485.111
286.406, 2494.524
286.888, 2505.104
287.370, 2513.008
287.852, 2518.425
288.334, 2523.811
288.816, 2530.673
289.298, 2535.966
289.781, 2532.485
290.263, 2520.392
290.745, 2506.976
291.227, 2497.591
291.709, 2491.061
292.191, 2481.569
292.673, 2467.216
293.155, 2452.157
293.638, 2443.112
294.120, 2439.746
294.602, 2438.479
295.084, 2443.370
295.566, 2448.972
296.048, 2436.468
296.530, 2399.752
297.012, 2358.877
297.494, 2343.226
297.977, 2348.060
298.459, 2352.327
298.941, 2342.144
299.423, 2324.085
299.905, 2309.548
300.387, 2299.196
300.869, 2293.028
301.351, 2289.301
301.833, 2289.282
302.316, 2296.700
302.798, 2325.269
303.280, 2357.708
303.762, 2368.621
304.244, 2354.769
304.726, 2333.703
305.208, 2314.923
305.690, 2300.387
306.173, 2293.871
306.655, 2308.395
307.137, 2325.499
307.619, 2321.663
308.101, 2295.439
308.583, 2274.537
309.065, 2291.531
309.547, 2324.156
310.030, 2339.723
310.512, 2302.109
310.994, 2259.766
311.476, 2253.606
311.958, 2282.857
312.440, 2308.054
312.922, 2300.766
313.404, 2280.255
313.886, 2267.709
314.369, 2276.659
314.851, 2289.582
315.333, 2299.948
315.815, 2307.488
316.297, 2311.198
316.779, 2310.961
317.261, 2306.582
317.743, 2297.558
318.225, 2267.112
318.708, 2249.955
319.190, 2269.715
319.672, 2316.842
320.154, 2348.133
320.636, 2333.212
321.118, 2310.524
321.600, 2303.320
322.082, 2330.906
322.565, 2352.683
323.047, 2359.370
323.529, 2354.326
324.011, 2347.654
324.493, 2338.056
324.975, 2329.297
325.457, 2323.083
325.939, 2321.029
326.422, 2318.814
326.904, 2311.342
327.386, 2303.790
327.868, 2307.129
328.350, 2303.189
328.832, 2313.788
329.314, 2320.857
329.796, 2324.587
330.278, 2314.976
330.760, 2322.592
331.243, 2323.304
331.725, 2323.734
332.207, 2333.774
332.689, 2326.104
333.171, 2335.992
333.653, 2337.587
334.135, 2359.625
334.617, 2360.182
335.100, 2370.996
335.582, 2379.319
336.064, 2385.287
336.546, 2381.841
337.028, 2390.551
337.510, 2394.390
337.992, 2400.640
338.474, 2417.147
338.957, 2434.033
339.439, 2432.986
339.921, 2410.236
340.403, 2393.635
340.885, 2388.458
341.367, 2392.551
341.849, 2397.131
342.331, 2401.010
342.813, 2411.834
343.296, 2444.670
343.778, 2497.792
344.260, 2522.384
344.742, 2504.399
345.224, 2468.180
345.706, 2465.763
346.188, 2496.630
346.670, 2527.203
347.152, 2536.257
347.635, 2528.362
348.117, 2517.861
348.599, 2503.721
349.081, 2494.857
349.563, 2508.450
350.045, 2539.567
350.527, 2568.028
351.009, 2583.987
351.491, 2590.305
351.974, 2589.307
352.456, 2580.404
352.938, 2572.162
353.420, 2577.693
353.902, 2589.363
354.384, 2592.343
354.866, 2586.252
355.349, 2612.225
355.831, 2630.413
356.313, 2641.237
356.795, 2622.637
357.277, 2642.032
357.759, 2646.200
358.241, 2657.907
358.723, 2658.040
359.205, 2688.823
359.688, 2712.167
360.170, 2728.470
360.652, 2716.647
361.134, 2740.650
361.616, 2753.313
362.098, 2770.526
362.580, 2794.981
363.062, 2825.784
363.544, 2866.979
364.027, 2914.161
364.509, 2958.356
364.991, 2994.598
365.473, 3029.775
365.955, 3065.126
366.437, 3098.385
366.919, 3139.384
367.401, 3141.399
367.884, 3127.756
368.366, 3163.255
368.848, 3186.825
369.330, 3199.107
369.812, 3166.293
370.294, 3191.711
370.776, 3193.792
371.258, 3194.918
371.741, 3228.532
372.223, 3223.936
372.705, 3178.859
373.187, 3130.913
373.669, 3063.996
374.151, 2982.199
374.633, 2916.447
375.115, 2869.057
375.597, 2831.660
376.079, 2792.609
376.562, 2743.512
377.044, 2711.226
377.526, 2702.390
378.008, 2687.865
378.490, 2667.952
378.972, 2626.522
379.454, 2612.877
379.936, 2588.094
380.419, 2568.827
380.901, 2529.092
381.383, 2477.738
381.865, 2427.651
382.347, 2393.338
382.829, 2374.781
383.311, 2374.370
383.793, 2410.263
384.276, 2459.733
384.758, 2468.054
385.240, 2434.485
385.722, 2398.542
386.204, 2402.099
386.686, 2427.689
387.168, 2438.459
387.650, 2413.781
388.132, 2381.459
388.615, 2371.016
389.097, 2378.443
389.579, 2386.396
390.061, 2384.700
390.543, 2378.183
391.025, 2370.031
391.507, 2357.950
391.989, 2351.651
392.471, 2362.958
392.954, 2383.400
393.436, 2396.582
393.918, 2391.216
394.400, 2381.368
394.882, 2372.481
395.364, 2364.473
395.846, 2361.311
396.328, 2370.820
396.810, 2382.835
397.293, 2386.710
397.775, 2369.299
398.257, 2355.802
398.739, 2351.396
399.221, 2356.084
399.703, 2363.705
400.185, 2378.349
400.668, 2392.226
401.150, 2400.725
401.632, 2401.908
402.114, 2400.655
402.596, 2394.001
403.078, 2385.773
403.560, 2388.812
404.042, 2410.270
404.524, 2427.635
405.007, 2428.434
405.489, 2409.065
405.971, 2402.567
406.453, 2414.115
406.935, 2429.011
407.417, 2422.402
407.899, 2392.318
408.381, 2371.809
408.863, 2374.323
409.346, 2393.917
409.828, 2409.664
410.310, 2421.821
410.792, 2427.598
411.274, 2411.144
411.756, 2436.782
412.238, 2452.204
412.720, 2457.956
413.203, 2425.081
413.685, 2442.085
414.167, 2439.101
414.649, 2435.296
415.131, 2459.321
415.613, 2432.063
416.095, 2455.647
416.577, 2458.936
417.060, 2471.513
417.542, 2463.978
418.024, 2462.654
418.506, 2481.450
418.988, 2466.728
419.470, 2465.084
419.952, 2451.248
420.434, 2426.160
420.916, 2416.001
421.398, 2445.731
421.881, 2484.290
422.363, 2509.302
422.845, 2501.905
423.327, 2497.594
423.809, 2504.089
424.291, 2517.836
424.773, 2527.111
425.255, 2520.589
425.738, 2520.329
426.220, 2536.853
426.702, 2580.273
427.184, 2608.661
427.666, 2616.052
428.148, 2613.325
428.630, 2614.734
429.112, 2621.705
429.595, 2628.041
430.077, 2628.816
430.559, 2626.390
431.041, 2644.550
431.523, 2688.932
432.005, 2735.194
432.487, 2755.591
432.969, 2752.277
433.451, 2775.857
433.934, 2834.635
434.416, 2864.209
434.898, 2955.224
435.380, 3031.327
435.862, 3093.313
436.344, 3098.916
436.826, 3177.341
437.308, 3226.577
437.790, 3290.257
438.273, 3339.515
438.755, 3403.905
439.237, 3480.755
439.719, 3564.411
440.201, 3658.367
440.683, 3754.205
441.165, 3846.305
441.647, 3935.039
442.129, 4022.839
442.612, 4113.047
443.094, 4200.270
443.576, 4279.281
444.058, 4341.742
444.540, 4409.842
445.022, 4498.868
445.504, 4595.988
445.987, 4677.725
446.469, 4750.203
446.951, 4798.540
447.433, 4818.579
447.915, 4810.313
448.397, 4776.655
448.879, 4708.197
449.361, 4622.757
449.843, 4534.715
450.326, 4444.086
450.808, 4349.269
451.290, 4251.043
451.772, 4148.428
452.254, 4039.625
452.736, 3923.031
453.218, 3808.709
453.700, 3700.378
454.182, 3598.971
454.665, 3505.609
455.147, 3421.237
455.629, 3344.297
456.111, 3274.769
456.593, 3212.609
457.075, 3156.171
457.557, 3108.074
458.039, 3063.555
458.522, 3011.303
459.004, 2952.901
459.486, 2906.339
459.968, 2894.658
460.450, 2896.471
460.932, 2886.771
461.414, 2859.878
461.896, 2824.579
462.379, 2774.579
462.861, 2721.374
463.343, 2685.639
463.825, 2694.087
464.307, 2704.633
464.789, 2693.588
465.271, 2658.819
465.753, 2639.281
466.235, 2660.839
466.717, 2689.437
467.200, 2701.223
467.682, 2679.101
468.164, 2660.568
468.646, 2649.353
469.128, 2641.989
469.610, 2628.413
470.092, 2602.172
470.574, 2581.479
471.057, 2574.474
471.539, 2582.259
472.021, 2589.336
472.503, 2596.665
472.985, 2601.133
473.467, 2599.747
473.949, 2592.492
474.431, 2578.698
474.914, 2555.355
475.396, 2528.466
475.878, 2510.696
476.360, 2501.615
476.842, 2497.906
477.324, 2500.294
477.806, 2505.983
478.288, 2511.063
478.770, 2515.599
479.253, 2516.918
479.735, 2510.695
480.217, 2500.264
480.699, 2490.661
481.181, 2481.182
481.663, 2475.404
482.145, 2477.096
482.627, 2484.931
483.109, 2491.657
483.592, 2493.142
484.074, 2493.730
484.556, 2497.385
485.038, 2513.235
485.520, 2513.665
486.002, 2473.731
486.484, 2424.958
486.966, 2409.476
487.448, 2448.611
487.931, 2487.458
488.413, 2516.932
488.895, 2537.073
489.377, 2544.927
489.859, 2537.922
490.341, 2525.176
490.823, 2510.954
491.306, 2495.175
491.788, 2483.967
492.270, 2477.428
492.752, 2476.708
493.234, 2488.824
493.716, 2511.211
494.198, 2526.555
494.680, 2527.363
495.162, 2516.230
495.645, 2492.478
496.127, 2457.079
496.609, 2425.648
497.091, 2410.545
497.573, 2404.865
498.055, 2399.670
498.537, 2390.636
499.019, 2387.531
499.501, 2398.900
499.984, 2419.348
500.466, 2439.726
500.948, 2465.925
501.430, 2483.110
501.912, 2482.798
502.394, 2463.661
502.876, 2447.554
503.358, 2442.088
503.841, 2435.474
504.323, 2419.742
504.805, 2385.220
505.287, 2360.889
505.769, 2349.760
506.251, 2347.823
506.733, 2345.975
507.215, 2342.142
507.698, 2347.732
508.180, 2373.632
508.662, 2413.679
509.144, 2426.015
509.626, 2408.373
510.108, 2388.203
510.590, 2395.610
511.072, 2420.635
511.554, 2431.153
512.036, 2418.711
512.519, 2399.063
513.001, 2385.676
513.483, 2378.323
513.965, 2376.430
514.447, 2387.022
514.929, 2397.387
515.411, 2397.628
515.893, 2387.817
516.375, 2377.718
516.858, 2370.076
517.340, 2364.188
517.822, 2359.652
518.304, 2357.721
518.786, 2355.030
519.268, 2343.374
519.750, 2332.755
520.232, 2340.985
520.715, 2383.804
521.197, 2419.818
521.679, 2438.762
522.161, 2441.217
522.643, 2436.054
523.125, 2420.735
523.607, 2405.630
524.089, 2398.989
524.571, 2400.542
525.054, 2402.904
525.536, 2405.445
526.018, 2408.454
526.500, 2413.624
526.982, 2419.921
527.464, 2423.601
527.946, 2426.195
528.429, 2423.223
528.911, 2403.064
529.393, 2369.092
529.875, 2342.397
530.357, 2339.616
530.839, 2347.439
531.321, 2356.997
531.803, 2370.395
532.286, 2375.076
532.768, 2358.350
533.250, 2333.359
533.732, 2317.231
534.214, 2308.135
534.696, 2313.453
535.178, 2344.213
535.660, 2393.869
536.142, 2418.739
536.625, 2408.245
537.107, 2392.189
537.589, 2385.202
538.071, 2388.630
538.553, 2391.685
539.035, 2395.280
539.517, 2395.988
539.999, 2387.480
540.481, 2370.994
540.964, 2356.060
541.446, 2342.891
541.928, 2335.538
542.410, 2343.364
542.892, 2363.773
543.374, 2386.159
543.856, 2409.623
544.338, 2429.199
544.820, 2439.857
545.303, 2440.979
545.785, 2437.034
546.267, 2429.027
546.749, 2417.472
547.231, 2402.698
547.713, 2377.801
548.195, 2358.286
548.677, 2348.407
549.159, 2345.233
549.642, 2341.922
550.124, 2335.172
550.606, 2333.777
551.088, 2343.135
551.570, 2362.855
552.052, 2370.063
552.534, 2360.913
553.016, 2350.725
553.499, 2355.263
553.981, 2372.673
554.463, 2379.877
554.945, 2374.199
555.427, 2349.677
555.909, 2371.907
556.391, 2382.788
556.873, 2382.930
557.356, 2340.172
557.838, 2352.812
558.320, 2343.249
558.802, 2332.778
559.284, 2353.214
559.766, 2316.696
560.248, 2336.642
560.730, 2334.049
561.213, 2326.230
561.695, 2330.809
562.177, 2321.833
562.659, 2312.218
563.141, 2315.415
563.623, 2344.226
564.105, 2363.867
564.587, 2366.127
565.069, 2358.190
565.552, 2363.504
566.034, 2386.961
566.516, 2403.722
566.998, 2401.712
567.480, 2383.355
567.962, 2359.647
568.444, 2329.966
568.926, 2307.151
569.408, 2304.736
569.891, 2317.560
570.373, 2337.326
570.855, 2366.330
571.337, 2390.096
571.819, 2388.116
572.301, 2374.103
572.783, 2371.414
573.265, 2413.671
573.747, 2445.712
574.230, 2432.470
574.712, 2381.180
575.194, 2347.329
575.676, 2351.783
576.158, 2365.253
576.640, 2377.719
577.122, 2391.368
577.604, 2394.052
578.086, 2380.763
578.569, 2363.683
579.051, 2353.552
579.533, 2350.277
580.015, 2358.378
580.497, 2383.450
580.979, 2412.467
581.461, 2419.362
581.943, 2406.126
582.426, 2386.507
582.908, 2359.440
583.390, 2333.564
583.872, 2319.603
584.354, 2317.418
584.836, 2324.521
585.318, 2350.417
585.800, 2378.019
586.282, 2392.694
586.765, 2386.743
587.247, 2382.001
587.729, 2385.732
588.211, 2392.985
588.693, 2397.682
589.175, 2398.753
589.657, 2398.540
590.140, 2397.058
590.622, 2394.559
591.104, 2391.234
591.586, 2386.205
592.068, 2383.844
592.550, 2389.644
593.032, 2401.049
593.514, 2396.417
593.996, 2374.917
594.479, 2354.472
594.961, 2350.330
595.443, 2358.363
595.925, 2374.018
596.407, 2401.217
596.889, 2419.480
597.371, 2401.579
597.853, 2367.194
598.335, 2345.685
598.818, 2362.760
599.300, 2378.085
599.782, 2374.237
600.264, 2355.718
600.746, 2346.389
601.228, 2352.834
601.710, 2362.937
602.192, 2374.827
602.674, 2389.558
603.157, 2390.523
603.639, 2370.418
604.121, 2354.047
604.603, 2372.959
605.085, 2423.884
605.567, 2444.589
606.049, 2422.551
606.531, 2385.986
607.013, 2367.956
607.496, 2365.177
607.978, 2369.708
608.460, 2387.795
608.942, 2402.948
609.424, 2393.242
609.906, 2367.477
610.388, 2355.662
610.870, 2389.116
611.353, 2423.185
611.835, 2432.437
612.317, 2409.468
612.799, 2399.474
613.281, 2414.253
613.763, 2432.725
614.245, 2440.722
614.727, 2436.495
615.209, 2426.126
615.692, 2405.247
616.174, 2386.509
616.656, 2393.271
617.138, 2424.023
617.620, 2451.172
618.102, 2467.741
618.584, 2475.412
619.067, 2471.557
619.549, 2459.354
620.031, 2451.386
620.513, 2455.848
620.995, 2466.483
621.477, 2450.451
621.959, 2471.137
622.441, 2482.910
622.923, 2486.250
623.406, 2455.894
623.888, 2469.048
624.370, 2464.765
624.852, 2459.768
625.334, 2479.046
625.816, 2469.774
626.298, 2473.206
626.780, 2471.559
627.263, 2472.072
627.745, 2478.101
628.227, 2484.488
628.709, 2475.892
629.191, 2454.775
629.673, 2439.862
630.155, 2449.364
630.637, 2465.760
631.119, 2462.585
631.602, 2445.779
632.084, 2461.088
632.566, 2468.601
633.048, 2468.738
633.530, 2439.405
634.012, 2448.126
634.494, 2441.597
