##NAMES=Stephanite
##RRUFFID=R050143
##IDEAL CHEMISTRY=Ag^1+^_5_Sb^3+^S^2-^_4_
##LOCALITY=Proano mine, Fresnillo, Zacatecas, Mexico
##OWNER=RRUFF
##SOURCE=Dave Bunk Minerals
##DESCRIPTION=Group of black pseudohexagonal crystals
##STATUS=The identification of this mineral has been confirmed by X-ray diffraction and chemical analysis
##URL=rruff.info/R050143
##MEASURED CHEMISTRY=Ag_5.00_Sb_1.00_S_4.00_
148.039, 210.046
148.521, 206.173
149.004, 203.230
149.486, 200.457
149.968, 199.287
150.450, 200.318
150.932, 207.411
151.414, 212.027
151.896, 212.832
152.378, 210.665
152.861, 209.409
153.343, 209.656
153.825, 210.637
154.307, 211.911
154.789, 214.523
155.271, 216.329
155.753, 216.683
156.235, 215.651
156.717, 214.657
157.200, 213.506
157.682, 212.704
158.164, 212.667
158.646, 214.167
159.128, 215.829
159.610, 216.887
160.092, 217.160
160.574, 218.413
161.057, 222.209
161.539, 227.064
162.021, 231.130
162.503, 233.911
162.985, 235.605
163.467, 235.779
163.949, 233.836
164.431, 232.807
164.913, 235.825
165.396, 240.703
165.878, 243.444
166.360, 238.901
166.842, 233.463
167.324, 232.598
167.806, 239.001
168.288, 245.562
168.770, 247.048
169.253, 244.883
169.735, 243.063
170.217, 243.447
170.699, 245.496
171.181, 249.039
171.663, 255.540
172.145, 261.291
172.627, 261.937
173.109, 258.408
173.592, 255.425
174.074, 257.176
174.556, 261.344
175.038, 264.313
175.520, 264.873
176.002, 263.957
176.484, 261.613
176.966, 258.035
177.449, 255.921
177.931, 258.415
178.413, 264.073
178.895, 269.744
179.377, 275.200
179.859, 279.622
180.341, 281.401
180.823, 280.486
181.305, 278.264
181.788, 274.798
182.270, 270.805
182.752, 268.737
183.234, 271.735
183.716, 277.339
184.198, 279.202
184.680, 276.997
185.162, 272.610
185.645, 266.950
186.127, 260.432
186.609, 255.577
187.091, 254.158
187.573, 255.553
188.055, 257.715
188.537, 260.926
189.019, 263.927
189.501, 264.666
189.984, 263.202
190.466, 261.254
190.948, 258.972
191.430, 256.626
191.912, 256.918
192.394, 260.827
192.876, 266.096
193.358, 268.521
193.840, 268.028
194.323, 266.062
194.805, 262.675
195.287, 257.962
195.769, 255.145
196.251, 255.104
196.733, 256.639
197.215, 255.954
197.697, 252.510
198.180, 250.082
198.662, 252.527
199.144, 260.301
199.626, 265.206
200.108, 265.159
200.590, 261.708
201.072, 261.608
201.554, 266.069
202.036, 269.530
202.519, 265.484
203.001, 252.175
203.483, 244.708
203.965, 247.604
204.447, 258.833
204.929, 265.334
205.411, 266.165
205.893, 264.699
206.376, 263.899
206.858, 263.989
207.340, 263.584
207.822, 261.881
208.304, 259.112
208.786, 258.978
209.268, 262.522
209.750, 266.849
210.232, 268.814
210.714, 267.798
211.197, 266.522
211.679, 265.477
212.161, 264.663
212.643, 264.475
213.125, 265.123
213.607, 266.130
214.089, 266.981
214.572, 267.686
215.054, 268.211
215.536, 268.526
216.018, 268.616
216.500, 268.473
216.982, 267.689
217.464, 267.072
217.946, 268.072
218.428, 271.874
218.911, 274.496
219.393, 274.261
219.875, 270.440
220.357, 268.313
220.839, 268.586
221.321, 269.993
221.803, 270.473
222.285, 269.190
222.767, 268.681
223.250, 270.251
223.732, 274.968
224.214, 277.013
224.696, 274.544
225.178, 270.634
225.660, 270.875
226.142, 277.679
226.624, 284.370
227.107, 288.852
227.589, 291.342
228.071, 290.681
228.553, 284.865
229.035, 276.787
229.517, 272.342
229.999, 272.413
230.481, 274.560
230.963, 278.480
231.445, 286.099
231.928, 290.153
232.410, 289.544
232.892, 285.764
233.374, 282.008
233.856, 277.509
234.338, 274.194
234.820, 273.110
235.303, 275.755
235.785, 276.908
236.267, 275.480
236.749, 272.862
237.231, 272.967
237.713, 278.448
238.195, 282.748
238.677, 282.426
239.159, 273.455
239.641, 269.056
240.124, 270.989
240.606, 277.110
241.088, 281.905
241.570, 285.832
242.052, 287.707
242.534, 286.468
243.016, 279.349
243.498, 275.182
243.981, 274.803
244.463, 277.286
244.945, 280.291
245.427, 285.418
245.909, 288.762
246.391, 287.728
246.873, 277.889
247.355, 273.895
247.837, 279.094
248.320, 289.774
248.802, 294.532
249.284, 290.238
249.766, 284.624
250.248, 281.384
250.730, 282.013
251.212, 281.497
251.694, 279.278
252.176, 275.941
252.659, 273.028
253.141, 270.142
253.623, 268.319
254.105, 268.463
254.587, 272.186
255.069, 273.571
255.551, 271.021
256.033, 266.364
256.516, 265.454
256.998, 270.727
257.480, 275.676
257.962, 276.552
258.444, 270.856
258.926, 268.273
259.408, 270.466
259.890, 275.494
260.372, 277.552
260.855, 275.587
261.337, 272.605
261.819, 269.985
262.301, 267.702
262.783, 265.856
263.265, 264.745
263.747, 263.925
264.229, 261.696
264.711, 256.737
265.194, 253.272
265.676, 254.528
266.158, 262.680
266.640, 266.476
267.122, 264.255
267.604, 258.289
268.086, 254.053
268.569, 251.687
269.051, 250.604
269.533, 251.308
270.015, 254.776
270.497, 254.658
270.979, 249.392
271.461, 241.678
271.943, 237.606
272.425, 237.706
272.908, 239.639
273.390, 243.317
273.872, 249.382
274.354, 251.549
274.836, 248.477
275.318, 242.837
275.800, 239.912
276.282, 240.074
276.764, 241.210
277.247, 243.097
277.729, 245.973
278.211, 245.786
278.693, 241.595
279.175, 235.706
279.657, 232.262
280.139, 231.518
280.621, 231.240
281.103, 230.461
281.586, 229.186
282.068, 227.912
282.550, 226.554
283.032, 225.392
283.514, 224.758
283.996, 224.644
284.478, 225.264
284.960, 227.585
285.443, 231.290
285.925, 232.133
286.407, 229.535
286.889, 225.978
287.371, 224.470
287.853, 224.992
288.335, 227.118
288.817, 231.994
289.299, 238.696
289.782, 242.372
290.264, 242.650
290.746, 241.408
291.228, 240.822
291.710, 240.741
292.192, 239.992
292.674, 235.890
293.156, 230.917
293.638, 234.359
294.121, 247.167
294.603, 260.000
295.085, 261.491
295.567, 254.204
296.049, 248.235
296.531, 247.290
297.013, 250.089
297.496, 255.671
297.978, 264.038
298.460, 271.012
298.942, 271.769
299.424, 268.010
299.906, 263.785
300.388, 258.849
300.870, 255.314
301.352, 257.735
301.835, 265.787
302.317, 273.737
302.799, 277.285
303.281, 277.577
303.763, 276.422
304.245, 272.184
304.727, 268.939
305.209, 272.935
305.691, 283.195
306.174, 292.233
306.656, 293.330
307.138, 290.834
307.620, 290.492
308.102, 294.258
308.584, 299.949
309.066, 305.310
309.548, 310.949
310.030, 318.918
310.513, 332.934
310.995, 348.725
311.477, 362.111
311.959, 371.850
312.441, 379.718
312.923, 384.472
313.405, 387.808
313.887, 394.197
314.370, 407.953
314.852, 424.198
315.334, 439.843
315.816, 454.758
316.298, 468.005
316.780, 477.786
317.262, 485.753
317.744, 495.294
318.226, 509.174
318.709, 523.659
319.191, 537.566
319.673, 551.696
320.155, 561.954
320.637, 565.698
321.119, 565.203
321.601, 563.700
322.083, 563.824
322.565, 561.374
323.048, 554.017
323.530, 540.481
324.012, 527.907
324.494, 519.047
324.976, 511.010
325.458, 500.712
325.940, 485.539
326.422, 470.367
326.905, 456.220
327.387, 443.264
327.869, 429.944
328.351, 416.777
328.833, 402.938
329.315, 387.593
329.797, 369.557
330.279, 351.483
330.762, 332.861
331.244, 313.795
331.726, 297.569
332.208, 284.975
332.690, 274.270
333.172, 264.593
333.654, 257.500
334.136, 248.287
334.618, 235.071
335.100, 219.414
335.583, 207.650
336.065, 201.100
336.547, 196.076
337.029, 190.568
337.511, 184.357
337.993, 178.309
338.475, 172.332
338.957, 166.650
339.440, 161.850
339.922, 158.137
340.404, 154.490
340.886, 149.727
341.368, 143.656
341.850, 140.986
342.332, 142.925
342.814, 146.099
343.297, 144.645
343.779, 138.350
344.261, 132.421
344.743, 129.145
345.225, 128.132
345.707, 126.753
346.189, 124.853
346.671, 123.312
347.153, 123.997
347.635, 126.340
348.118, 126.779
348.600, 122.816
349.082, 116.747
349.564, 113.551
350.046, 113.201
350.528, 114.210
351.010, 116.552
351.492, 119.246
351.975, 119.902
352.457, 116.885
352.939, 112.731
353.421, 110.678
353.903, 110.386
354.385, 109.998
354.867, 107.745
355.349, 104.892
355.832, 103.052
356.314, 102.738
356.796, 103.056
357.278, 103.624
357.760, 104.330
358.242, 104.871
358.724, 104.815
359.206, 104.727
359.688, 105.164
360.171, 106.407
360.653, 107.286
361.135, 107.694
361.617, 107.300
362.099, 105.617
362.581, 99.677
363.063, 94.860
363.545, 93.944
364.027, 97.444
364.510, 100.858
364.992, 103.760
365.474, 105.756
365.956, 106.485
366.438, 104.331
366.920, 102.551
367.402, 102.386
367.884, 103.681
368.366, 103.299
368.849, 98.768
369.331, 94.151
369.813, 91.727
370.295, 92.718
370.777, 94.112
371.259, 96.308
371.741, 98.826
372.224, 100.092
372.706, 99.313
373.188, 98.434
373.670, 98.544
374.152, 100.413
374.634, 100.449
375.116, 97.835
375.598, 94.166
376.080, 92.310
376.562, 92.791
377.045, 93.143
377.527, 91.967
378.009, 89.378
378.491, 90.027
378.973, 94.850
379.455, 99.949
379.937, 100.557
380.419, 96.764
380.902, 92.441
381.384, 87.951
381.866, 83.967
382.348, 82.707
382.830, 84.184
383.312, 86.332
383.794, 87.898
384.276, 88.836
384.759, 88.795
385.241, 87.252
385.723, 85.605
386.205, 86.162
386.687, 88.412
387.169, 90.382
387.651, 91.024
388.133, 90.638
388.615, 89.140
389.098, 86.203
389.580, 83.967
390.062, 85.138
390.544, 88.016
391.026, 89.748
391.508, 88.050
391.990, 85.682
392.472, 84.235
392.954, 83.790
393.437, 83.607
393.919, 82.711
394.401, 82.249
394.883, 83.221
395.365, 88.905
395.847, 92.873
396.329, 92.424
396.811, 88.484
397.293, 85.497
397.776, 85.644
398.258, 85.837
398.740, 84.442
399.222, 79.072
399.704, 75.936
400.186, 76.266
400.668, 78.587
401.151, 80.066
401.633, 79.670
402.115, 79.932
402.597, 82.165
403.079, 86.956
403.561, 88.753
404.043, 86.118
404.525, 82.351
405.007, 81.357
405.490, 84.129
405.972, 85.627
406.454, 84.289
406.936, 80.975
407.418, 79.630
407.900, 80.510
408.382, 82.033
408.864, 83.139
409.346, 83.863
409.828, 84.743
410.311, 86.076
410.793, 87.066
411.275, 85.890
411.757, 82.866
412.239, 80.347
412.721, 79.920
413.203, 80.752
413.685, 81.252
414.168, 81.323
414.650, 81.366
415.132, 81.851
415.614, 82.550
416.096, 83.049
416.578, 83.112
417.060, 82.981
417.542, 82.968
418.025, 83.000
418.507, 82.617
418.989, 80.468
419.471, 78.425
419.953, 78.218
420.435, 81.925
420.917, 84.540
421.399, 83.129
421.881, 79.445
422.364, 77.220
422.846, 78.711
423.328, 80.538
423.810, 81.749
424.292, 82.534
424.774, 81.736
425.256, 76.708
425.738, 71.439
426.220, 70.185
426.703, 76.369
427.185, 81.040
427.667, 82.427
428.149, 80.926
428.631, 79.827
429.113, 79.442
429.595, 78.859
430.077, 77.264
430.560, 74.370
431.042, 72.307
431.524, 71.256
432.006, 71.062
432.488, 71.584
432.970, 72.847
433.452, 74.303
433.934, 76.274
434.417, 78.328
434.899, 78.331
435.381, 76.119
435.863, 73.539
436.345, 72.316
436.827, 72.186
437.309, 72.394
437.791, 72.477
438.273, 73.093
438.755, 75.905
439.238, 80.279
439.720, 83.405
440.202, 82.580
440.684, 80.215
441.166, 78.389
441.648, 77.309
442.130, 77.297
442.612, 79.648
443.095, 82.957
443.577, 85.059
444.059, 85.214
444.541, 84.131
445.023, 81.335
445.505, 76.751
445.987, 73.551
446.469, 72.607
446.952, 72.969
447.434, 74.071
447.916, 77.157
448.398, 79.187
448.880, 79.582
449.362, 78.893
449.844, 78.612
450.326, 78.807
450.808, 79.294
451.290, 80.250
451.773, 81.837
452.255, 81.964
452.737, 79.943
453.219, 77.872
453.701, 79.117
454.183, 83.842
454.665, 86.091
455.147, 83.327
455.630, 77.903
456.112, 75.777
456.594, 76.900
457.076, 79.206
457.558, 81.941
458.040, 84.688
458.522, 86.606
459.004, 87.642
459.487, 87.700
459.969, 86.107
460.451, 83.493
460.933, 81.119
461.415, 78.901
461.897, 77.689
462.379, 78.968
462.861, 82.548
463.343, 84.856
463.826, 82.847
464.308, 79.693
464.790, 77.867
465.272, 79.072
465.754, 80.001
466.236, 79.703
466.718, 78.685
467.200, 78.171
467.682, 79.351
468.165, 79.894
468.647, 78.646
469.129, 74.910
469.611, 73.758
470.093, 76.947
470.575, 80.620
471.057, 80.576
471.539, 75.312
472.022, 72.200
472.504, 73.099
472.986, 76.465
473.468, 77.529
473.950, 76.090
474.432, 74.491
474.914, 74.039
475.396, 74.563
475.878, 75.482
476.361, 76.848
476.843, 78.118
477.325, 78.710
477.807, 78.732
478.289, 78.404
478.771, 77.437
479.253, 76.498
479.735, 76.392
480.217, 76.973
480.700, 77.523
481.182, 77.705
481.664, 77.643
482.146, 77.432
482.628, 77.091
483.110, 76.580
483.592, 75.575
484.074, 74.470
484.556, 73.811
485.039, 74.004
485.521, 74.346
486.003, 74.778
486.485, 75.286
486.967, 75.535
487.449, 75.177
487.931, 74.953
488.414, 75.374
488.896, 76.763
489.378, 77.801
489.860, 78.361
490.342, 78.671
490.824, 79.355
491.306, 80.557
491.788, 80.867
492.270, 79.272
492.753, 76.453
493.235, 74.927
493.717, 74.727
494.199, 75.390
494.681, 77.379
495.163, 79.880
495.645, 81.029
496.127, 80.297
496.609, 78.593
497.092, 75.727
497.574, 72.595
498.056, 71.120
498.538, 73.921
499.020, 77.337
499.502, 79.138
499.984, 79.255
500.466, 78.743
500.948, 76.883
501.431, 75.215
501.913, 74.900
502.395, 77.934
502.877, 79.858
503.359, 79.566
503.841, 78.083
504.323, 77.402
504.805, 77.917
505.288, 78.647
505.770, 79.438
506.252, 80.299
506.734, 80.676
507.216, 80.523
507.698, 80.001
508.180, 78.980
508.662, 77.471
509.145, 76.846
509.627, 77.590
510.109, 78.675
510.591, 78.171
511.073, 76.350
511.555, 74.699
512.037, 73.946
512.519, 73.805
513.001, 74.019
513.484, 74.563
513.966, 75.089
514.448, 75.593
514.930, 75.847
515.412, 75.552
515.894, 74.301
516.376, 73.117
516.858, 72.530
517.341, 72.280
517.823, 71.902
518.305, 70.943
518.787, 70.186
519.269, 69.960
519.751, 70.296
520.233, 70.467
520.715, 70.393
521.197, 70.243
521.680, 69.982
522.162, 69.295
522.644, 69.675
523.126, 71.408
523.608, 73.982
524.090, 77.181
524.572, 81.148
525.054, 82.825
525.536, 79.985
526.019, 74.446
526.501, 70.828
526.983, 69.149
527.465, 69.044
527.947, 71.912
528.429, 75.668
528.911, 76.792
529.393, 73.961
529.875, 70.927
530.358, 66.809
530.840, 63.070
531.322, 68.683
531.804, 72.026
532.286, 73.220
532.768, 65.834
533.250, 69.529
533.732, 68.782
534.214, 67.854
534.697, 73.108
535.179, 66.970
535.661, 72.126
536.143, 72.773
536.625, 75.484
537.107, 72.804
537.589, 76.046
538.071, 77.323
538.554, 77.331
539.036, 75.750
539.518, 73.294
540.000, 72.100
540.482, 72.187
540.964, 72.791
541.446, 74.330
541.928, 75.898
542.411, 74.905
542.893, 70.978
543.375, 67.209
543.857, 66.418
544.339, 67.479
544.821, 68.783
545.303, 69.878
545.785, 71.069
546.268, 72.684
546.750, 74.528
547.232, 76.078
547.714, 78.233
548.196, 79.110
548.678, 77.105
549.160, 71.263
549.642, 68.795
550.124, 71.984
550.606, 76.229
551.089, 77.879
551.571, 75.932
552.053, 75.031
552.535, 76.087
553.017, 77.693
553.499, 76.546
553.981, 72.622
554.463, 69.833
554.945, 70.279
555.428, 72.730
555.910, 74.274
556.392, 74.966
556.874, 75.554
557.356, 77.202
557.838, 78.798
558.320, 78.663
558.802, 76.066
559.284, 73.622
559.767, 73.603
560.249, 74.366
560.731, 73.796
561.213, 68.971
561.695, 65.281
562.177, 64.343
562.659, 65.813
563.141, 67.581
563.624, 70.275
564.106, 72.415
564.588, 73.565
565.070, 73.766
565.552, 72.098
566.034, 67.597
566.516, 63.370
566.998, 63.149
567.481, 66.748
567.963, 69.054
568.445, 68.728
568.927, 67.789
569.409, 70.134
569.891, 74.784
570.373, 78.170
570.855, 77.610
571.338, 75.488
571.820, 74.005
572.302, 73.133
572.784, 72.410
573.266, 71.782
573.748, 71.089
574.230, 70.084
574.712, 68.279
575.194, 67.300
575.677, 68.301
576.159, 69.872
576.641, 70.264
577.123, 68.004
577.605, 67.316
578.087, 69.333
578.569, 73.235
579.051, 76.290
579.533, 78.607
580.016, 79.516
580.498, 77.672
580.980, 73.856
581.462, 72.674
581.944, 74.247
582.426, 76.093
582.908, 75.397
583.390, 73.513
583.872, 73.008
584.355, 74.922
584.837, 76.933
585.319, 77.336
585.801, 76.735
586.283, 76.173
586.765, 75.755
587.247, 75.687
587.729, 76.220
588.211, 77.276
588.694, 78.102
589.176, 78.798
589.658, 79.110
590.140, 78.836
590.622, 77.823
591.104, 77.015
591.586, 76.337
592.068, 76.046
592.551, 76.868
593.033, 78.712
593.515, 79.191
593.997, 77.453
594.479, 75.086
594.961, 74.808
595.443, 75.995
595.925, 76.645
596.407, 74.365
596.890, 72.153
597.372, 73.891
597.854, 78.840
598.336, 81.689
598.818, 77.099
599.300, 71.803
599.782, 70.492
600.265, 75.883
600.747, 78.437
601.229, 74.736
601.711, 69.812
602.193, 68.591
602.675, 73.058
603.157, 76.045
603.639, 76.708
604.121, 75.516
604.604, 72.595
605.086, 67.822
605.568, 64.990
606.050, 66.573
606.532, 70.810
607.014, 74.132
607.496, 76.508
607.978, 77.759
608.460, 77.056
608.943, 75.500
609.425, 74.229
609.907, 73.414
610.389, 72.703
610.871, 72.065
611.353, 71.387
611.835, 70.561
612.317, 68.112
612.799, 67.404
613.282, 69.597
613.764, 73.398
614.246, 76.111
614.728, 77.606
615.210, 78.327
615.692, 78.235
616.174, 77.480
616.656, 76.806
617.138, 76.211
617.621, 75.770
618.103, 75.475
618.585, 75.384
619.067, 75.698
619.549, 76.457
620.031, 77.252
620.513, 77.547
620.995, 77.777
621.477, 78.646
621.960, 81.923
622.442, 83.318
622.924, 79.093
623.406, 72.429
623.888, 69.139
624.370, 72.764
624.852, 76.181
625.334, 78.103
625.817, 78.739
626.299, 79.542
626.781, 80.806
627.263, 81.285
627.745, 79.457
628.227, 75.807
628.709, 75.156
629.191, 77.734
629.674, 80.584
630.156, 80.809
630.638, 79.413
631.120, 77.957
631.602, 76.575
632.084, 75.731
632.566, 76.031
633.048, 76.988
633.531, 77.917
634.013, 79.129
634.495, 79.693
634.977, 78.916
635.459, 77.224
635.941, 76.179
636.423, 75.801
636.905, 76.040
637.387, 77.088
637.870, 78.865
638.352, 80.372
638.834, 81.751
639.316, 82.086
639.798, 79.875
640.280, 76.008
640.762, 73.446
641.244, 72.462
641.726, 72.510
642.209, 73.312
642.691, 74.758
643.173, 76.846
643.655, 81.113
644.137, 83.676
644.619, 80.923
645.101, 75.674
645.583, 73.369
646.065, 78.864
646.548, 82.515
647.030, 81.902
647.512, 77.841
647.994, 74.883
648.476, 72.853
648.958, 72.428
649.440, 75.062
649.922, 80.017
650.404, 81.857
650.887, 80.489
651.369, 78.176
651.851, 76.930
652.333, 76.016
652.815, 73.811
653.297, 69.495
653.779, 66.445
654.261, 67.450
654.744, 70.680
655.226, 73.969
655.708, 78.261
656.190, 80.860
656.672, 80.168
657.154, 77.728
657.636, 76.752
658.118, 77.933
658.601, 78.863
659.083, 78.751
659.565, 77.879
660.047, 77.557
660.529, 77.800
661.011, 78.049
661.493, 77.564
661.975, 76.958
662.458, 77.661
662.940, 79.702
663.422, 81.706
663.904, 83.743
664.386, 84.720
664.868, 83.097
665.350, 76.962
665.832, 72.705
666.314, 73.814
666.797, 76.611
667.279, 76.960
667.761, 73.042
668.243, 70.236
668.725, 69.123
669.207, 69.348
669.689, 70.536
670.171, 72.736
670.653, 74.328
671.135, 74.341
671.618, 73.726
672.100, 74.745
672.582, 77.009
673.064, 78.635
673.546, 77.891
674.028, 76.511
674.510, 75.883
674.992, 76.085
675.474, 76.293
675.957, 76.929
676.439, 76.959
676.921, 75.414
677.403, 71.216
677.885, 69.135
678.367, 70.062
678.849, 71.859
679.331, 72.284
679.814, 71.273
680.296, 70.483
680.778, 70.010
681.260, 70.233
681.742, 73.047
682.224, 77.098
682.706, 78.431
683.188, 73.284
683.670, 67.703
684.153, 66.833
684.635, 69.106
685.117, 70.555
685.599, 68.304
686.081, 66.633
686.563, 67.587
687.045, 70.779
687.528, 72.670
688.010, 72.811
688.492, 72.489
688.974, 72.196
689.456, 71.945
689.938, 72.194
690.420, 73.040
690.902, 73.327
691.384, 71.083
691.867, 67.792
692.349, 66.548
692.831, 68.040
693.313, 69.592
693.795, 68.840
694.277, 67.426
694.759, 67.134
695.241, 69.763
695.723, 71.562
696.206, 71.454
696.688, 70.438
697.170, 69.759
697.652, 69.267
698.134, 69.646
698.616, 71.352
699.098, 73.692
699.580, 75.216
700.062, 75.895
700.545, 75.480
701.027, 72.704
701.509, 69.532
701.991, 69.335
702.473, 71.403
702.955, 72.447
703.437, 68.526
703.919, 64.923
704.402, 65.739
704.884, 71.796
705.366, 74.478
705.848, 70.405
706.330, 65.798
706.812, 64.090
707.294, 65.919
707.776, 66.831
708.258, 66.600
708.741, 66.279
709.223, 68.080
709.705, 70.833
710.187, 69.092
710.669, 60.493
711.151, 53.662
711.633, 58.801
712.115, 69.785
712.597, 77.902
713.080, 79.559
713.562, 79.396
714.044, 77.801
714.526, 75.378
715.008, 73.299
715.490, 71.759
715.972, 70.254
716.455, 68.603
716.937, 66.979
717.419, 65.848
717.901, 65.198
718.383, 65.282
718.865, 66.683
719.347, 68.605
719.829, 69.754
720.311, 70.211
720.794, 70.439
721.276, 70.321
721.758, 70.360
722.240, 71.002
722.722, 72.314
723.204, 73.438
723.686, 74.562
724.168, 75.163
