##NAMES=Stephanite
##RRUFFID=R050143
##IDEAL CHEMISTRY=Ag^1+^_5_Sb^3+^S^2-^_4_
##LOCALITY=Proano mine, Fresnillo, Zacatecas, Mexico
##OWNER=RRUFF
##SOURCE=Dave Bunk Minerals
##DESCRIPTION=Group of black pseudohexagonal crystals
##STATUS=The identification of this mineral has been confirmed by X-ray diffraction and chemical analysis
##URL=rruff.info/R050143
##MEASURED CHEMISTRY=Ag_5.00_Sb_1.00_S_4.00_
162.508, 288.317
162.990, 295.947
163.472, 303.487
163.954, 311.344
164.436, 318.806
164.918, 325.456
165.400, 331.302
165.883, 336.742
166.365, 342.025
166.847, 347.026
167.329, 352.576
167.811, 359.116
168.293, 365.747
168.775, 372.193
169.257, 378.305
169.739, 383.699
170.221, 387.894
170.704, 390.578
171.186, 393.723
171.668, 395.174
172.150, 398.627
172.632, 408.751
173.114, 424.815
173.596, 439.733
174.078, 446.289
174.561, 442.543
175.043, 440.804
175.525, 442.668
176.007, 445.255
176.489, 446.654
176.971, 446.697
177.453, 446.129
177.935, 445.280
178.417, 443.989
178.900, 445.049
179.382, 451.986
179.864, 458.745
180.346, 459.766
180.828, 454.962
181.310, 449.677
181.792, 449.077
182.274, 453.945
182.757, 455.741
183.239, 452.402
183.721, 447.390
184.203, 442.553
184.685, 438.223
185.167, 435.584
185.649, 436.305
186.131, 440.629
186.613, 442.943
187.096, 442.130
187.578, 440.027
188.060, 438.472
188.542, 437.473
189.024, 435.031
189.506, 428.947
189.988, 419.295
190.470, 411.084
190.952, 405.456
191.435, 400.641
191.917, 394.581
192.399, 387.351
192.881, 381.836
193.363, 380.693
193.845, 383.759
194.327, 386.418
194.809, 388.728
195.292, 390.501
195.774, 391.365
196.256, 391.369
196.738, 391.245
197.220, 391.392
197.702, 391.868
198.184, 392.686
198.666, 394.406
199.148, 396.048
199.631, 396.968
200.113, 397.167
200.595, 396.809
201.077, 396.042
201.559, 394.700
202.041, 392.585
202.523, 389.221
203.005, 385.475
203.488, 380.161
203.970, 373.951
204.452, 372.361
204.934, 381.082
205.416, 396.293
205.898, 404.004
206.380, 399.070
206.862, 392.135
207.344, 389.897
207.827, 391.556
208.309, 392.588
208.791, 390.010
209.273, 385.662
209.755, 384.821
210.237, 389.702
210.719, 394.878
211.201, 397.046
211.684, 396.894
212.166, 397.609
212.648, 401.796
213.130, 406.499
213.612, 404.512
214.094, 391.231
214.576, 380.509
215.058, 380.812
215.540, 389.189
216.023, 396.938
216.505, 401.027
216.987, 402.452
217.469, 403.043
217.951, 402.298
218.433, 402.174
218.915, 404.667
219.397, 408.329
219.880, 409.466
220.362, 406.248
220.844, 401.414
221.326, 399.919
221.808, 402.220
222.290, 404.510
222.772, 405.776
223.254, 406.227
223.736, 406.184
224.219, 405.709
224.701, 404.830
225.183, 403.491
225.665, 401.672
226.147, 399.707
226.629, 397.081
227.111, 394.543
227.593, 392.768
228.076, 391.787
228.558, 392.485
229.040, 396.930
229.522, 405.589
230.004, 411.841
230.486, 414.000
230.968, 413.763
231.450, 412.500
231.932, 410.412
232.415, 408.056
232.897, 405.734
233.379, 403.457
233.861, 402.270
234.343, 402.890
234.825, 404.154
235.307, 405.735
235.789, 407.424
236.271, 407.773
236.754, 404.996
237.236, 399.212
237.718, 396.317
238.200, 398.136
238.682, 401.069
239.164, 403.692
239.646, 405.742
240.128, 406.491
240.611, 405.022
241.093, 401.837
241.575, 401.046
242.057, 405.492
242.539, 409.032
243.021, 409.449
243.503, 407.088
243.985, 402.234
244.467, 394.327
244.950, 384.974
245.432, 381.003
245.914, 387.428
246.396, 392.276
246.878, 391.986
247.360, 388.729
247.842, 385.839
248.324, 384.706
248.807, 384.654
249.289, 384.165
249.771, 383.717
250.253, 382.080
250.735, 377.208
251.217, 371.939
251.699, 369.502
252.181, 370.805
252.663, 374.353
253.146, 377.997
253.628, 383.169
254.110, 385.097
254.592, 380.866
255.074, 375.488
255.556, 373.357
256.038, 374.857
256.520, 376.754
257.003, 375.166
257.485, 368.851
257.967, 363.851
258.449, 359.567
258.931, 356.842
259.413, 357.713
259.895, 361.014
260.377, 362.755
260.859, 358.911
261.342, 348.962
261.824, 343.860
262.306, 347.292
262.788, 351.530
263.270, 355.406
263.752, 358.304
264.234, 359.466
264.716, 358.303
265.198, 355.125
265.681, 351.848
266.163, 346.772
266.645, 343.771
267.127, 346.503
267.609, 350.611
268.091, 349.907
268.573, 341.375
269.056, 328.982
269.538, 322.961
270.020, 327.674
270.502, 330.794
270.984, 329.852
271.466, 327.433
271.948, 325.303
272.430, 324.030
272.912, 323.803
273.395, 325.629
273.877, 330.878
274.359, 333.124
274.841, 328.932
275.323, 323.642
275.805, 319.635
276.287, 317.261
276.769, 316.054
277.251, 315.672
277.734, 316.114
278.216, 317.381
278.698, 320.238
279.180, 323.084
279.662, 324.982
280.144, 326.170
280.626, 327.403
281.108, 329.301
281.591, 331.598
282.073, 333.649
282.555, 336.120
283.037, 336.815
283.519, 332.444
284.001, 326.068
284.483, 322.671
284.965, 325.378
285.447, 330.444
285.930, 332.368
286.412, 330.763
286.894, 328.994
287.376, 327.871
287.858, 327.789
288.340, 329.186
288.822, 332.128
289.304, 336.547
289.786, 342.660
290.269, 350.345
290.751, 358.632
291.233, 367.005
291.715, 376.221
292.197, 388.448
292.679, 404.693
293.161, 417.273
293.643, 419.797
294.125, 417.267
294.608, 418.647
295.090, 425.775
295.572, 436.349
296.054, 449.482
296.536, 465.285
297.018, 476.881
297.500, 478.263
297.983, 478.401
298.465, 487.270
298.947, 504.522
299.429, 519.972
299.911, 525.224
300.393, 520.787
300.875, 519.419
301.357, 525.711
301.839, 530.093
302.322, 526.552
302.804, 517.936
303.286, 511.062
303.768, 509.601
304.250, 511.734
304.732, 511.326
305.214, 503.822
305.696, 499.483
306.178, 501.587
306.661, 506.150
307.143, 508.577
307.625, 507.587
308.107, 505.664
308.589, 506.459
309.071, 510.010
309.553, 516.631
310.035, 527.328
310.517, 539.657
311.000, 551.731
311.482, 563.792
311.964, 577.479
312.446, 593.269
312.928, 610.916
313.410, 638.189
313.892, 686.000
314.374, 732.832
314.857, 771.417
315.339, 804.939
315.821, 838.944
316.303, 875.994
316.785, 916.413
317.267, 961.917
317.749, 1015.359
318.231, 1067.544
318.714, 1115.749
319.196, 1161.824
319.678, 1208.560
320.160, 1257.171
320.642, 1301.984
321.124, 1339.949
321.606, 1371.134
322.088, 1384.617
322.570, 1370.267
323.052, 1343.723
323.535, 1317.073
324.017, 1290.662
324.499, 1263.964
324.981, 1237.627
325.463, 1210.848
325.945, 1180.473
326.427, 1144.973
326.909, 1110.489
327.392, 1082.194
327.874, 1058.817
328.356, 1036.739
328.838, 1022.045
329.320, 1003.510
329.802, 968.911
330.284, 919.942
330.766, 870.010
331.249, 825.728
331.731, 785.742
332.213, 746.333
332.695, 706.804
333.177, 668.344
333.659, 629.213
334.141, 591.849
334.623, 559.457
335.105, 533.168
335.588, 512.288
336.070, 496.437
336.552, 488.680
337.034, 478.370
337.516, 461.080
337.998, 444.794
338.480, 436.778
338.962, 435.793
339.444, 434.435
339.927, 426.511
340.409, 412.132
340.891, 397.105
341.373, 383.391
341.855, 366.808
342.337, 342.993
342.819, 316.658
343.302, 294.394
343.784, 279.615
344.266, 269.351
344.748, 256.787
345.230, 239.291
345.712, 225.980
346.194, 221.268
346.676, 218.632
347.158, 213.371
347.641, 204.984
348.123, 196.695
348.605, 191.913
349.087, 190.356
349.569, 187.868
350.051, 183.445
350.533, 179.212
351.015, 177.099
351.497, 176.198
351.980, 174.118
352.462, 168.587
352.944, 162.168
353.426, 158.880
353.908, 158.881
354.390, 159.024
354.872, 157.938
355.354, 155.907
355.836, 153.457
356.319, 149.573
356.801, 147.390
357.283, 150.852
357.765, 156.839
358.247, 158.140
358.729, 152.351
359.211, 144.414
359.693, 140.934
360.176, 143.350
360.658, 144.615
361.140, 143.438
361.622, 141.896
362.104, 142.217
362.586, 143.845
363.068, 143.783
363.550, 139.442
364.033, 131.539
364.515, 126.825
364.997, 128.106
365.479, 129.410
365.961, 129.573
366.443, 129.373
366.925, 130.259
367.407, 132.664
367.889, 134.897
368.371, 133.478
368.854, 126.194
369.336, 122.209
369.818, 125.363
370.300, 129.136
370.782, 130.238
371.264, 128.880
371.746, 127.157
372.228, 126.582
372.711, 126.866
373.193, 126.794
373.675, 126.217
374.157, 125.642
374.639, 125.668
375.121, 125.746
375.603, 125.016
376.085, 122.942
376.568, 120.727
377.050, 119.231
377.532, 118.466
378.014, 118.731
378.496, 120.720
378.978, 122.780
379.460, 121.591
379.942, 116.717
380.424, 114.500
380.907, 119.771
381.389, 126.314
381.871, 127.297
382.353, 122.564
382.835, 116.556
383.317, 112.310
383.799, 109.816
384.281, 108.878
384.763, 110.910
385.246, 112.587
385.728, 113.080
386.210, 112.735
386.692, 111.863
387.174, 110.608
387.656, 109.391
388.138, 109.117
388.620, 110.757
389.103, 110.913
389.585, 107.595
390.067, 104.600
390.549, 104.228
391.031, 106.030
391.513, 107.936
391.995, 108.446
392.477, 107.911
392.960, 107.620
393.442, 107.352
393.924, 107.873
394.406, 110.551
394.888, 113.748
395.370, 115.616
395.852, 115.638
396.334, 114.903
396.816, 114.458
397.298, 114.062
397.781, 112.506
398.263, 109.188
398.745, 105.492
399.227, 102.871
399.709, 101.263
400.191, 100.442
400.673, 101.132
401.155, 102.016
401.638, 101.724
402.120, 100.542
402.602, 99.897
403.084, 100.605
403.566, 102.478
404.048, 104.875
404.530, 109.414
405.012, 112.360
405.495, 112.981
405.977, 112.186
406.459, 110.209
406.941, 107.420
407.423, 105.132
407.905, 105.304
408.387, 108.404
408.869, 108.927
409.351, 104.402
409.834, 99.939
410.316, 96.107
410.798, 93.715
411.280, 94.425
411.762, 99.833
412.244, 106.438
412.726, 108.211
413.208, 104.751
413.690, 102.279
414.173, 103.352
414.655, 105.217
415.137, 104.425
415.619, 100.911
416.101, 98.483
416.583, 99.332
417.065, 101.853
417.547, 104.180
418.030, 106.116
418.512, 107.387
418.994, 107.737
419.476, 107.244
419.958, 106.449
420.440, 104.654
420.922, 103.447
421.404, 103.434
421.887, 104.155
422.369, 105.170
422.851, 106.310
423.333, 107.364
423.815, 107.965
424.297, 107.856
424.779, 108.459
425.261, 112.088
425.743, 114.107
426.225, 111.434
426.708, 106.058
427.190, 101.936
427.672, 101.351
428.154, 102.520
428.636, 101.338
429.118, 97.009
429.600, 95.101
430.082, 99.163
430.565, 104.609
431.047, 107.259
431.529, 106.993
432.011, 106.105
432.493, 105.109
432.975, 104.406
433.457, 105.257
433.939, 107.748
434.422, 109.073
434.904, 107.039
435.386, 102.343
435.868, 98.685
436.350, 95.721
436.832, 94.049
437.314, 94.428
437.796, 95.911
438.278, 97.339
438.761, 98.422
439.243, 99.663
439.725, 101.883
440.207, 105.496
440.689, 107.283
441.171, 105.549
441.653, 103.654
442.135, 102.581
442.617, 102.007
443.100, 101.313
443.582, 100.225
444.064, 98.930
444.546, 97.574
445.028, 96.107
445.510, 95.248
445.992, 95.527
446.474, 96.051
446.957, 95.811
447.439, 94.939
447.921, 94.615
448.403, 95.809
448.885, 97.433
449.367, 98.011
449.849, 97.676
450.331, 98.029
450.814, 100.270
451.296, 103.309
451.778, 103.883
452.260, 100.148
452.742, 97.126
453.224, 94.709
453.706, 93.565
454.188, 95.296
454.670, 99.355
455.152, 102.769
455.635, 102.800
456.117, 99.781
456.599, 97.315
457.081, 94.642
457.563, 93.851
458.045, 97.222
458.527, 101.559
459.009, 103.305
459.492, 101.529
459.974, 99.029
460.456, 98.660
460.938, 99.866
461.420, 99.794
461.902, 97.701
462.384, 95.521
462.866, 94.332
463.349, 94.268
463.831, 95.790
464.313, 101.553
464.795, 106.238
465.277, 106.483
465.759, 103.784
466.241, 100.611
466.723, 97.746
467.205, 95.681
467.688, 95.287
468.170, 97.330
468.652, 98.079
469.134, 96.910
469.616, 95.263
470.098, 92.929
470.580, 90.665
471.062, 89.855
471.544, 91.271
472.027, 93.783
472.509, 95.503
472.991, 96.382
473.473, 96.712
473.955, 95.852
474.437, 95.214
474.919, 96.295
475.401, 98.763
475.884, 100.597
476.366, 101.245
476.848, 100.784
477.330, 98.570
477.812, 95.010
478.294, 92.351
478.776, 91.660
479.258, 92.322
479.741, 93.140
480.223, 94.336
480.705, 95.232
481.187, 95.902
481.669, 96.200
482.151, 95.569
482.633, 94.414
483.115, 93.972
483.597, 95.179
484.079, 97.472
484.562, 99.010
485.044, 99.633
485.526, 99.905
486.008, 100.009
486.490, 99.744
486.972, 98.363
487.454, 96.030
487.936, 94.892
488.419, 97.343
488.901, 101.318
489.383, 103.418
489.865, 103.522
490.347, 102.603
490.829, 100.890
491.311, 98.730
491.793, 97.055
492.276, 95.696
492.758, 95.037
493.240, 95.566
493.722, 96.534
494.204, 97.531
494.686, 98.371
495.168, 98.735
495.650, 98.297
496.132, 97.239
496.615, 96.447
497.097, 95.512
497.579, 95.687
498.061, 98.716
498.543, 101.914
499.025, 103.208
499.507, 102.344
499.989, 100.179
500.471, 95.579
500.954, 90.510
501.436, 89.972
501.918, 94.413
502.400, 98.172
502.882, 97.629
503.364, 94.448
503.846, 93.854
504.328, 97.403
504.811, 100.118
505.293, 100.446
505.775, 99.965
506.257, 100.583
506.739, 102.098
507.221, 102.277
507.703, 98.953
508.185, 93.179
508.668, 91.173
509.150, 95.351
509.632, 98.676
510.114, 99.167
510.596, 98.592
511.078, 98.090
511.560, 97.841
512.042, 97.845
512.524, 98.614
513.006, 99.463
513.489, 98.649
513.971, 96.094
514.453, 94.527
514.935, 96.114
515.417, 99.017
515.899, 97.971
516.381, 89.848
516.864, 84.669
517.346, 84.707
517.828, 87.401
518.310, 92.656
518.792, 98.951
519.274, 102.060
519.756, 98.405
520.238, 90.490
520.720, 87.267
521.203, 90.497
521.685, 93.855
522.167, 96.640
522.649, 98.637
523.131, 99.512
523.613, 99.333
524.095, 98.711
524.577, 98.099
525.059, 97.121
525.542, 94.671
526.024, 91.080
526.506, 88.886
526.988, 89.519
527.470, 91.449
527.952, 91.740
528.434, 89.415
528.916, 87.602
529.398, 86.624
529.881, 85.857
530.363, 84.575
530.845, 83.236
531.327, 83.074
531.809, 84.875
532.291, 87.426
532.773, 88.334
533.255, 87.422
533.737, 86.248
534.220, 84.648
534.702, 83.346
535.184, 82.556
535.666, 82.416
536.148, 83.567
536.630, 87.568
537.112, 91.634
537.594, 93.825
538.077, 94.512
538.559, 94.250
539.041, 93.202
539.523, 92.176
540.005, 92.225
540.487, 93.481
540.969, 94.957
541.451, 98.693
541.933, 100.344
542.416, 96.856
542.898, 91.346
543.380, 87.878
543.862, 87.682
544.344, 88.847
544.826, 89.561
545.308, 89.972
545.791, 90.844
546.273, 92.326
546.755, 93.917
547.237, 95.539
547.719, 96.957
548.201, 97.382
548.683, 95.819
549.165, 94.904
549.647, 96.027
550.130, 97.722
550.612, 98.543
551.094, 98.325
551.576, 97.640
552.058, 96.984
552.540, 96.171
553.022, 93.942
553.504, 88.862
553.987, 85.787
554.469, 87.431
554.951, 90.375
555.433, 92.726
555.915, 94.278
556.397, 94.807
556.879, 93.532
557.361, 91.640
557.843, 90.269
558.326, 89.471
558.808, 89.428
559.290, 90.279
559.772, 91.615
560.254, 92.845
560.736, 94.225
561.218, 94.629
561.700, 94.147
562.182, 92.742
562.665, 89.453
563.147, 85.496
563.629, 82.587
564.111, 81.378
564.593, 81.650
565.075, 83.992
565.557, 87.974
566.039, 90.129
566.521, 89.750
567.004, 88.639
567.486, 87.811
567.968, 87.261
568.450, 86.889
568.932, 87.092
569.414, 86.895
569.896, 85.504
570.378, 83.893
570.860, 82.590
571.343, 81.978
571.825, 83.230
572.307, 87.759
572.789, 94.275
573.271, 96.926
573.753, 94.333
574.235, 91.897
574.718, 90.607
575.200, 90.102
575.682, 90.271
576.164, 91.041
576.646, 91.909
577.128, 93.311
577.610, 94.222
578.092, 93.125
578.574, 90.727
579.057, 89.179
579.539, 89.255
580.021, 90.057
580.503, 90.260
580.985, 89.572
581.467, 90.093
581.949, 93.615
582.431, 96.371
582.914, 96.924
583.396, 96.366
583.878, 95.895
584.360, 95.812
584.842, 96.239
585.324, 97.864
585.806, 99.966
586.288, 100.754
586.770, 100.100
587.253, 98.670
587.735, 96.562
588.217, 94.224
588.699, 92.868
589.181, 93.234
589.663, 93.293
590.145, 92.593
590.627, 91.948
591.109, 92.128
591.592, 92.772
592.074, 92.802
592.556, 91.517
593.038, 90.115
593.520, 91.073
594.002, 94.223
594.484, 95.261
594.966, 92.476
595.448, 90.261
595.931, 93.317
596.413, 100.263
596.895, 103.272
597.377, 98.995
597.859, 94.845
598.341, 93.058
598.823, 92.436
599.305, 91.738
599.788, 90.831
600.270, 90.285
600.752, 90.585
601.234, 91.544
601.716, 92.676
602.198, 94.198
602.680, 94.973
603.162, 94.798
603.644, 93.674
604.127, 90.844
604.609, 86.697
605.091, 84.421
605.573, 86.832
606.055, 89.242
606.537, 87.431
607.019, 83.882
607.502, 83.912
607.984, 88.645
608.466, 93.561
608.948, 93.223
609.430, 87.916
609.912, 85.233
610.394, 86.350
610.876, 87.882
611.358, 89.163
611.841, 90.155
612.323, 90.794
612.805, 91.077
613.287, 91.096
613.769, 90.763
614.251, 90.282
614.733, 89.149
615.215, 87.998
615.697, 89.421
616.180, 94.560
616.662, 99.961
617.144, 100.075
617.626, 93.616
618.108, 90.208
618.590, 92.922
619.072, 94.748
619.554, 92.376
620.036, 88.547
620.519, 86.652
621.001, 87.423
621.483, 88.503
621.965, 88.303
622.447, 87.663
622.929, 88.078
623.411, 89.358
623.893, 89.723
624.375, 88.156
624.858, 85.961
625.340, 85.705
625.822, 88.038
626.304, 90.301
626.786, 93.623
627.268, 95.637
627.750, 94.413
628.232, 91.769
628.715, 90.554
629.197, 91.676
629.679, 93.005
630.161, 92.866
630.643, 91.891
631.125, 90.852
631.607, 89.934
632.089, 90.365
632.571, 93.092
633.054, 96.887
633.536, 98.762
634.018, 97.509
634.500, 96.992
634.982, 98.304
635.464, 99.186
635.946, 98.306
636.429, 96.421
636.911, 94.935
637.393, 94.354
637.875, 93.943
638.357, 92.960
638.839, 91.745
639.321, 91.192
639.803, 91.326
640.285, 90.948
640.768, 89.116
641.250, 86.725
641.732, 86.378
642.214, 89.890
642.696, 91.905
643.178, 90.735
643.660, 89.880
644.142, 92.085
644.625, 95.528
645.107, 96.265
645.589, 92.369
646.071, 88.376
646.553, 89.095
647.035, 92.237
647.517, 93.151
647.999, 91.395
648.481, 88.227
648.964, 83.972
649.446, 79.780
649.928, 79.122
650.410, 84.496
650.892, 88.275
651.374, 89.810
651.856, 90.376
652.338, 90.424
652.820, 89.922
653.303, 88.444
653.785, 85.456
654.267, 83.130
654.749, 83.944
655.231, 86.258
655.713, 86.998
656.195, 86.012
656.677, 84.794
657.159, 84.060
657.642, 84.223
658.124, 86.743
658.606, 93.887
659.088, 97.782
659.570, 95.639
660.052, 92.926
660.534, 92.061
661.016, 92.097
661.498, 91.104
661.981, 88.278
662.463, 85.828
662.945, 84.799
663.427, 85.160
663.909, 87.783
664.391, 92.090
664.873, 95.112
665.356, 95.163
665.838, 93.668
666.320, 93.757
666.802, 96.224
667.284, 97.052
667.766, 94.393
668.248, 92.550
668.730, 95.388
669.212, 99.493
669.695, 98.913
670.177, 91.439
670.659, 85.760
671.141, 86.935
671.623, 90.820
672.105, 94.163
672.587, 96.409
673.069, 96.870
673.552, 95.221
674.034, 92.775
674.516, 91.666
674.998, 92.005
675.480, 92.060
675.962, 91.419
676.444, 91.436
676.926, 93.560
677.408, 96.257
677.891, 96.941
678.373, 95.066
678.855, 94.042
679.337, 95.733
679.819, 97.543
680.301, 97.746
680.783, 96.751
681.265, 95.442
681.747, 94.131
682.230, 92.692
682.712, 90.715
683.194, 88.407
683.676, 87.337
684.158, 87.765
684.640, 87.566
685.122, 85.304
685.604, 82.882
686.086, 83.246
686.569, 86.981
687.051, 89.786
687.533, 91.483
688.015, 92.369
688.497, 92.717
688.979, 92.228
689.461, 89.902
689.943, 85.945
690.425, 82.730
690.908, 82.650
691.390, 84.069
691.872, 82.975
692.354, 79.933
692.836, 80.511
693.318, 86.910
693.800, 93.636
694.282, 94.738
694.765, 90.341
695.247, 86.428
695.729, 81.686
696.211, 79.396
696.693, 81.882
697.175, 85.387
697.657, 87.377
698.139, 87.768
698.622, 87.404
699.104, 86.560
699.586, 85.207
700.068, 82.926
700.550, 80.228
701.032, 77.800
701.514, 75.894
701.996, 75.327
702.479, 76.811
702.961, 79.848
703.443, 83.470
703.925, 89.221
704.407, 89.552
704.889, 78.012
705.371, 68.302
705.853, 71.717
706.335, 82.588
706.818, 88.902
707.300, 87.519
707.782, 85.580
708.264, 85.220
708.746, 85.625
709.228, 86.257
709.710, 86.996
710.192, 87.704
710.674, 88.315
711.157, 89.097
711.639, 91.024
712.121, 93.719
712.603, 93.766
713.085, 90.548
713.567, 87.918
714.049, 87.927
714.531, 89.217
715.013, 89.370
715.496, 87.927
715.978, 86.990
716.460, 86.685
716.942, 86.708
717.424, 87.636
717.906, 88.457
718.388, 87.114
718.870, 83.667
719.352, 82.042
719.835, 87.038
720.317, 93.831
720.799, 96.116
721.281, 94.687
721.763, 91.568
722.245, 87.375
722.727, 84.451
723.209, 85.550
723.692, 89.941
724.174, 91.668
724.656, 89.497
725.138, 87.732
725.620, 87.666
726.102, 87.695
726.584, 85.830
727.066, 82.971
727.549, 82.536
728.031, 87.986
728.513, 91.497
728.995, 87.862
729.477, 82.322
729.959, 80.161
730.441, 81.113
730.923, 82.307
731.406, 82.243
731.888, 81.650
732.370, 81.407
732.852, 81.543
733.334, 82.396
