##NAMES=Stewartite
##RRUFFID=R070643
##IDEAL CHEMISTRY=Mn^2+^Fe^3+^_2_(PO_4_)_2_(OH)_2_&#183;8H_2_O
##LOCALITY=Hagendorf, Bavaria, Germany
##OWNER=RRUFF
##SOURCE=Michael Scott
##DESCRIPTION=Transparent yellow bladed crystals with orange laueite
##STATUS=The identification of this mineral has been confirmed by single-crystal X-ray diffraction.
##URL=rruff.info/R070643
143.0643, 123.9998
143.5464, 125.2969
144.0285, 126.4802
144.5106, 127.5727
144.9927, 128.4786
145.4748, 129.1843
145.9570, 129.7033
146.4391, 130.0199
146.9212, 129.9891
147.4033, 129.9355
147.8854, 130.0106
148.3675, 130.2946
148.8497, 130.5726
149.3318, 130.7407
149.8139, 130.8599
150.2960, 131.2596
150.7781, 132.1267
151.2602, 133.1310
151.7424, 134.0865
152.2245, 134.9032
152.7066, 135.7715
153.1887, 136.6347
153.6708, 137.5033
154.1529, 138.6079
154.6351, 140.3444
155.1172, 142.1091
155.5993, 143.4971
156.0814, 143.9917
156.5635, 144.6086
157.0456, 145.7948
157.5278, 147.5417
158.0099, 148.6882
158.4920, 148.5470
158.9741, 147.9250
159.4562, 147.5410
159.9383, 147.7920
160.4205, 148.1007
160.9026, 148.2714
161.3847, 148.2878
161.8668, 148.3076
162.3489, 147.9534
162.8310, 147.7570
163.3132, 148.3374
163.7953, 151.1781
164.2774, 153.8596
164.7595, 154.9124
165.2416, 154.0028
165.7237, 153.0948
166.2059, 153.1575
166.6880, 153.8300
167.1701, 154.5652
167.6522, 155.1106
168.1343, 155.6436
168.6164, 156.3141
169.0986, 157.1716
169.5807, 158.0208
170.0628, 158.7194
170.5449, 159.3190
171.0270, 159.9138
171.5091, 160.4660
171.9913, 161.0795
172.4734, 161.8609
172.9555, 162.8439
173.4376, 163.9510
173.9197, 165.1467
174.4018, 166.4218
174.8840, 167.7423
175.3661, 168.8745
175.8482, 170.0964
176.3303, 171.8062
176.8124, 174.1625
177.2945, 176.7985
177.7767, 179.3021
178.2588, 181.7506
178.7409, 184.3562
179.2230, 187.3999
179.7051, 190.7076
180.1872, 193.9867
180.6694, 197.3559
181.1515, 200.4311
181.6336, 202.6203
182.1157, 203.9743
182.5978, 204.8413
183.0799, 205.5175
183.5621, 205.9072
184.0442, 205.7358
184.5263, 204.9153
185.0084, 203.5639
185.4905, 201.7159
185.9726, 199.3932
186.4547, 196.9678
186.9369, 194.3897
187.4190, 191.8358
187.9011, 190.2022
188.3832, 189.8141
188.8653, 190.2964
189.3474, 190.8838
189.8296, 191.5816
190.3117, 192.4154
190.7938, 193.4379
191.2759, 194.6355
191.7580, 195.8879
192.2401, 197.1709
192.7223, 198.5037
193.2044, 199.9865
193.6865, 201.6496
194.1686, 203.3323
194.6507, 204.8937
195.1328, 206.3340
195.6150, 207.7173
196.0971, 209.1890
196.5792, 210.5715
197.0613, 210.9902
197.5434, 210.2845
198.0255, 209.3719
198.5077, 209.3175
198.9898, 210.1704
199.4719, 210.5506
199.9540, 209.9357
200.4361, 208.5717
200.9182, 207.8483
201.4004, 207.9045
201.8825, 208.1990
202.3646, 208.1125
202.8467, 207.5683
203.3288, 207.3085
203.8109, 207.5330
204.2931, 208.2075
204.7752, 209.0428
205.2573, 210.0367
205.7394, 211.1973
206.2215, 212.4806
206.7036, 213.8181
207.1858, 215.5807
207.6679, 217.9338
208.1500, 220.8413
208.6321, 223.8015
209.1142, 226.8814
209.5963, 229.8888
210.0785, 232.5804
210.5606, 234.8454
211.0427, 237.1304
211.5248, 239.4819
212.0069, 241.9078
212.4890, 244.7993
212.9712, 248.3231
213.4533, 252.0743
213.9354, 255.5439
214.4175, 258.6644
214.8996, 261.8175
215.3817, 265.2208
215.8639, 268.8474
216.3460, 271.9897
216.8281, 274.5284
217.3102, 276.7489
217.7923, 278.9784
218.2744, 281.3848
218.7566, 283.4021
219.2387, 284.7747
219.7208, 285.5000
220.2029, 286.3252
220.6850, 287.3242
221.1671, 288.3251
221.6493, 289.1367
222.1314, 289.7715
222.6135, 290.2043
223.0956, 290.4131
223.5777, 290.3989
224.0598, 290.3165
224.5420, 290.4955
225.0241, 290.2477
225.5062, 288.7626
225.9883, 285.6527
226.4704, 282.1175
226.9525, 278.3829
227.4347, 274.3868
227.9168, 270.4869
228.3989, 266.6500
228.8810, 262.9446
229.3631, 259.4853
229.8452, 256.1779
230.3274, 253.2317
230.8095, 250.6775
231.2916, 248.5151
231.7737, 246.7700
232.2558, 245.5264
232.7379, 244.6115
233.2201, 243.8923
233.7022, 243.4498
234.1843, 243.0453
234.6664, 242.6123
235.1485, 242.1519
235.6306, 241.8317
236.1128, 241.6112
236.5949, 241.5671
237.0770, 241.7673
237.5591, 242.2149
238.0412, 242.9051
238.5233, 243.9190
239.0055, 245.2612
239.4876, 246.4097
239.9697, 247.2012
240.4518, 247.9883
240.9339, 249.0951
241.4160, 250.6617
241.8982, 252.2669
242.3803, 253.8176
242.8624, 255.3257
243.3445, 256.9120
243.8266, 258.4029
244.3087, 260.1777
244.7909, 262.5873
245.2730, 265.8962
245.7551, 269.3192
246.2372, 272.8424
246.7193, 276.4359
247.2014, 279.7072
247.6836, 282.4770
248.1657, 285.0988
248.6478, 287.8524
249.1299, 291.0414
249.6120, 293.7441
250.0941, 295.8715
250.5762, 297.4274
251.0584, 298.4644
251.5405, 299.1062
252.0226, 299.0587
252.5047, 298.0654
252.9868, 295.8644
253.4689, 293.3353
253.9511, 290.5227
254.4332, 287.4379
254.9153, 284.2215
255.3974, 280.9354
255.8795, 277.4432
256.3617, 273.5933
256.8438, 268.9809
257.3259, 265.0504
257.8080, 262.1411
258.2901, 259.9901
258.7722, 257.3761
259.2544, 253.8498
259.7365, 250.5962
260.2186, 248.2868
260.7007, 247.2866
261.1828, 246.1547
261.6649, 244.6433
262.1471, 243.0030
262.6292, 241.9938
263.1113, 241.8251
263.5934, 241.8676
264.0755, 241.7769
264.5576, 241.4359
265.0398, 241.3950
265.5219, 241.7651
266.0040, 242.3782
266.4861, 242.8493
266.9682, 243.1193
267.4503, 243.3949
267.9325, 243.8145
268.4146, 244.4770
268.8967, 244.8055
269.3788, 244.5953
269.8609, 244.2643
270.3430, 244.7270
270.8252, 246.2629
271.3073, 247.6613
271.7894, 248.3924
272.2715, 248.4117
272.7536, 248.2387
273.2357, 247.7769
273.7179, 247.2590
274.2000, 247.0192
274.6821, 247.0717
275.1642, 247.3507
275.6463, 248.0247
276.1284, 249.0943
276.6106, 249.3962
277.0927, 248.8257
277.5748, 247.7145
278.0569, 246.4460
278.5390, 245.0330
279.0211, 243.4250
279.5032, 241.6120
279.9854, 239.6122
280.4675, 237.3758
280.9496, 234.8583
281.4317, 232.2622
281.9138, 229.8543
282.3959, 227.6488
282.8781, 225.2774
283.3602, 222.6195
283.8423, 219.7153
284.3244, 216.7080
284.8065, 213.5318
285.2886, 210.5610
285.7708, 208.3386
286.2529, 206.8087
286.7350, 204.8807
287.2171, 202.1426
287.6992, 198.9749
288.1813, 196.5288
288.6635, 194.8174
289.1456, 193.3149
289.6277, 191.6733
290.1098, 189.8923
290.5919, 188.0368
291.0740, 186.0995
291.5562, 184.0859
292.0383, 181.9509
292.5204, 179.6902
293.0025, 177.6109
293.4846, 176.0003
293.9667, 174.7351
294.4489, 173.3908
294.9310, 171.9404
295.4131, 170.3842
295.8952, 168.7024
296.3773, 166.9122
296.8594, 165.0791
297.3416, 163.1260
297.8237, 161.1491
298.3058, 159.4389
298.7879, 158.0412
299.2700, 156.7192
299.7521, 155.1646
300.2343, 153.4544
300.7164, 151.9140
301.1985, 150.7338
301.6806, 149.7865
302.1627, 148.8754
302.6448, 147.9783
303.1270, 147.2116
303.6091, 146.8113
304.0912, 146.6134
304.5733, 146.2594
305.0554, 145.3674
305.5375, 144.3763
306.0197, 143.8933
306.5018, 143.8886
306.9839, 143.7998
307.4660, 142.9911
307.9481, 141.8913
308.4302, 141.1216
308.9124, 141.0979
309.3945, 141.2453
309.8766, 141.1055
310.3587, 140.7185
310.8408, 140.2995
311.3229, 139.8131
311.8051, 139.4289
312.2872, 139.3592
312.7693, 139.8083
313.2514, 140.3128
313.7335, 140.6149
314.2156, 140.7591
314.6978, 140.8808
315.1799, 140.9747
315.6620, 141.1122
316.1441, 141.3328
316.6262, 141.6292
317.1083, 142.0451
317.5905, 142.6019
318.0726, 143.2857
318.5547, 144.0836
319.0368, 144.8954
319.5189, 145.8931
320.0010, 147.2446
320.4832, 149.0716
320.9653, 150.7162
321.4474, 151.8950
321.9295, 152.8272
322.4116, 153.7694
322.8937, 154.7131
323.3759, 155.7399
323.8580, 156.8356
324.3401, 157.9856
324.8222, 159.3791
325.3043, 161.1183
325.7864, 163.0721
326.2686, 165.1390
326.7507, 167.2076
327.2328, 169.5016
327.7149, 172.1521
328.1970, 175.1027
328.6791, 178.0047
329.1613, 180.8532
329.6434, 183.6231
330.1255, 186.2850
330.6076, 188.5674
331.0897, 191.1304
331.5718, 194.0300
332.0540, 197.2171
332.5361, 200.5894
333.0182, 204.3071
333.5003, 208.0457
333.9824, 211.6037
334.4645, 214.8525
334.9467, 218.4247
335.4288, 222.4854
335.9109, 226.7326
336.3930, 230.5164
336.8751, 233.5811
337.3572, 236.8658
337.8394, 240.7805
338.3215, 245.3294
338.8036, 249.6051
339.2857, 253.5304
339.7678, 257.3303
340.2499, 261.3521
340.7321, 265.5670
341.2142, 269.7625
341.6963, 273.8520
342.1784, 277.8575
342.6605, 281.8231
343.1426, 285.7205
343.6248, 289.5469
344.1069, 293.2940
344.5890, 296.9112
345.0711, 300.3164
345.5532, 303.3567
346.0353, 306.3197
346.5175, 309.9515
346.9996, 314.2660
347.4817, 318.1938
347.9638, 320.7813
348.4459, 322.4115
348.9280, 324.5604
349.4102, 327.4260
349.8923, 330.4050
350.3744, 332.6489
350.8565, 334.2851
351.3386, 335.8548
351.8207, 337.9850
352.3029, 340.0650
352.7850, 341.0572
353.2671, 340.9521
353.7492, 340.2886
354.2313, 339.4377
354.7134, 338.3737
355.1956, 337.0523
355.6777, 335.6816
356.1598, 333.8467
356.6419, 331.1595
357.1240, 327.6520
357.6061, 323.4855
358.0883, 318.6000
358.5704, 313.1700
359.0525, 307.3960
359.5346, 301.2415
360.0167, 294.8724
360.4988, 288.5161
360.9810, 282.0512
361.4631, 275.2697
361.9452, 267.7869
362.4273, 260.1788
362.9094, 252.7312
363.3915, 245.4676
363.8737, 238.3653
364.3558, 231.5738
364.8379, 224.9438
365.3200, 218.3359
365.8021, 211.7590
366.2842, 205.1361
366.7664, 198.3167
367.2485, 191.2672
367.7306, 184.8643
368.2127, 179.4020
368.6948, 174.5145
369.1769, 169.9086
369.6591, 165.9077
370.1412, 161.7667
370.6233, 157.2549
371.1054, 152.5312
371.5875, 148.1723
372.0696, 144.2091
372.5518, 140.6300
373.0339, 137.4479
373.5160, 134.7853
373.9981, 132.1363
374.4802, 129.4234
374.9623, 126.7534
375.4445, 124.3402
375.9266, 122.1991
376.4087, 120.2076
376.8908, 118.3527
377.3729, 116.6234
377.8550, 114.9302
378.3372, 113.2770
378.8193, 111.6868
379.3014, 110.1901
379.7835, 108.7715
380.2656, 107.5027
380.7477, 106.3830
381.2299, 105.4352
381.7120, 104.7850
382.1941, 104.4441
382.6762, 104.0771
383.1583, 103.3835
383.6404, 102.4612
384.1226, 101.7335
384.6047, 101.2626
385.0868, 100.9119
385.5689, 100.4908
386.0510, 100.0343
386.5331, 99.66658
387.0153, 99.50581
387.4974, 99.44193
387.9795, 99.31989
388.4616, 99.13841
388.9437, 98.93847
389.4258, 98.78333
389.9080, 98.62312
390.3901, 98.37711
390.8722, 97.90812
391.3543, 97.48201
391.8364, 97.31221
392.3185, 97.35726
392.8007, 97.45638
393.2828, 97.60728
393.7649, 97.73503
394.2470, 97.76438
394.7291, 97.62692
395.2112, 97.54528
395.6934, 97.68239
396.1755, 97.90372
396.6576, 98.00875
397.1397, 97.74538
397.6218, 97.54960
398.1039, 97.62154
398.5861, 98.00197
399.0682, 98.24223
399.5503, 98.23948
400.0324, 98.11636
400.5145, 97.96153
400.9966, 97.68746
401.4788, 97.50992
401.9609, 97.50847
402.4430, 97.62193
402.9251, 97.59952
403.4072, 97.34861
403.8893, 97.10274
404.3714, 96.96037
404.8535, 96.92541
405.3357, 96.98159
405.8178, 97.15573
406.2999, 97.38270
406.7820, 97.62302
407.2641, 97.91834
407.7462, 97.97374
408.2284, 97.62927
408.7105, 96.97503
409.1926, 96.47852
409.6747, 96.17478
410.1568, 95.77415
410.6389, 94.84695
411.1211, 93.53517
411.6032, 92.65430
412.0853, 92.44691
412.5674, 92.50532
413.0495, 92.23991
413.5316, 91.68641
414.0138, 91.03782
414.4959, 90.27324
414.9780, 89.51775
415.4601, 89.00053
415.9422, 88.73901
416.4243, 88.54331
416.9065, 88.22440
417.3886, 87.87585
417.8707, 87.64692
418.3528, 87.73479
418.8349, 87.81443
419.3170, 87.62273
419.7992, 87.21875
420.2813, 86.89301
420.7634, 86.67695
421.2455, 86.63930
421.7276, 86.85144
422.2097, 87.42471
422.6919, 88.00624
423.1740, 88.53345
423.6561, 89.01143
424.1382, 89.46110
424.6203, 89.73879
425.1024, 90.12414
425.5846, 90.68273
426.0667, 91.41433
426.5488, 92.30080
427.0309, 93.56450
427.5130, 94.79733
427.9951, 95.65626
428.4773, 95.72616
428.9594, 96.36077
429.4415, 97.85522
429.9236, 99.86907
430.4057, 101.5095
430.8878, 102.6003
431.3700, 103.8383
431.8521, 105.5845
432.3342, 107.8394
432.8163, 109.9818
433.2984, 111.9786
433.7805, 113.9827
434.2627, 116.1273
434.7448, 118.4176
435.2269, 120.9360
435.7090, 123.8871
436.1911, 126.9345
436.6732, 129.0745
437.1554, 130.4658
437.6375, 132.3381
438.1196, 135.9699
438.6017, 140.4831
439.0838, 144.3996
439.5659, 147.4791
440.0481, 150.4106
440.5302, 153.6811
441.0123, 157.2490
441.4944, 161.0455
441.9765, 165.3393
442.4586, 169.6065
442.9408, 173.3152
443.4229, 176.5487
443.9050, 180.2875
444.3871, 185.4996
444.8692, 190.9341
445.3513, 195.7074
445.8335, 199.1405
446.3156, 202.8979
446.7977, 207.4837
447.2798, 212.5226
447.7619, 217.3401
448.2440, 221.6395
448.7262, 225.9493
449.2083, 230.3653
449.6904, 234.9181
450.1725, 239.3540
450.6546, 243.5994
451.1367, 247.7569
451.6189, 251.9812
452.1010, 256.5175
452.5831, 260.3132
453.0652, 263.1718
453.5473, 265.4182
454.0294, 268.0019
454.5116, 271.0509
454.9937, 273.4595
455.4758, 274.5988
455.9579, 274.6410
456.4400, 274.7013
456.9221, 274.8330
457.4043, 274.4702
457.8864, 272.7419
458.3685, 270.0460
458.8506, 267.5376
459.3327, 265.6992
459.8148, 263.8646
460.2970, 261.1591
460.7791, 257.7569
461.2612, 254.3183
461.7433, 250.9121
462.2254, 247.8078
462.7076, 245.4686
463.1897, 243.9845
463.6718, 242.3637
464.1539, 239.9675
464.6360, 237.2439
465.1181, 234.6767
465.6003, 232.4917
466.0824, 230.3710
466.5645, 228.2295
467.0466, 226.0976
467.5287, 224.0931
468.0108, 222.4646
468.4930, 220.7501
468.9751, 218.8560
469.4572, 216.9063
469.9393, 214.3019
470.4214, 210.7504
470.9035, 206.8253
471.3857, 203.1958
471.8678, 200.0464
472.3499, 196.5886
472.8320, 192.6326
473.3141, 188.2408
473.7962, 183.4582
474.2784, 178.2224
474.7605, 173.0621
475.2426, 168.3166
475.7247, 163.9133
476.2068, 159.5746
476.6889, 155.2747
477.1711, 151.0033
477.6532, 146.5837
478.1353, 142.1685
478.6174, 138.1970
479.0995, 134.9628
479.5816, 132.0466
480.0638, 129.0212
480.5459, 125.9323
481.0280, 123.0035
481.5101, 120.3208
481.9922, 117.8611
482.4743, 115.6922
482.9565, 113.8560
483.4386, 112.0042
483.9207, 109.9253
484.4028, 107.8067
484.8849, 105.8463
485.3670, 104.1795
485.8492, 102.6000
486.3313, 101.0459
486.8134, 99.54541
487.2955, 98.20773
487.7776, 97.08607
488.2597, 96.10374
488.7419, 95.22816
489.2240, 94.45593
489.7061, 93.85890
490.1882, 93.47629
490.6703, 93.21094
491.1524, 93.01878
491.6346, 92.93726
492.1167, 92.56541
492.5988, 91.70203
493.0809, 90.60819
493.5630, 89.95818
494.0451, 89.73795
494.5273, 89.70519
495.0094, 89.81737
495.4915, 89.99423
495.9736, 90.02981
496.4557, 89.90726
496.9378, 89.77798
497.4200, 89.73304
497.9021, 89.78000
498.3842, 89.93132
498.8663, 90.19813
499.3484, 90.56398
499.8305, 91.06631
500.3127, 91.66426
500.7948, 92.25040
501.2769, 92.66456
501.7590, 93.17045
502.2411, 93.92459
502.7232, 94.98160
503.2054, 96.01646
503.6875, 97.02177
504.1696, 97.95766
504.6517, 98.75146
505.1338, 99.06729
505.6159, 99.84401
506.0981, 101.2991
506.5802, 103.1649
507.0623, 104.8126
507.5444, 106.1937
508.0265, 107.5677
508.5086, 109.0092
508.9908, 110.5275
509.4729, 112.2560
509.9550, 114.2148
510.4371, 116.1781
510.9192, 117.8601
511.4013, 119.3565
511.8835, 121.0128
512.3655, 122.9278
512.8477, 124.9034
513.3298, 126.6381
513.8119, 128.2522
514.2940, 130.0298
514.7761, 132.2810
515.2582, 134.6069
515.7404, 136.7796
516.2225, 138.7935
516.7046, 140.6391
517.1867, 142.0542
517.6688, 143.4787
518.1509, 145.2812
518.6331, 147.8569
519.1152, 149.9638
519.5973, 151.1272
520.0794, 151.8005
520.5615, 152.5568
521.0436, 153.6367
521.5258, 154.4214
522.0079, 154.7638
522.4900, 154.7281
522.9721, 154.6876
523.4542, 154.7646
523.9363, 154.4828
524.4185, 153.4759
524.9006, 151.7445
525.3827, 150.2417
525.8648, 149.0502
526.3469, 147.6535
526.8290, 145.3095
527.3112, 142.2446
527.7933, 139.2879
528.2754, 136.6044
528.7575, 134.1248
529.2396, 131.7569
529.7217, 129.4856
530.2039, 127.3122
530.6860, 125.3254
531.1681, 123.3455
531.6502, 121.0561
532.1323, 118.4511
532.6144, 116.2240
533.0966, 114.9968
533.5787, 113.9980
534.0608, 112.6437
534.5429, 110.4507
535.0250, 108.5603
535.5071, 107.2891
535.9893, 106.3017
536.4714, 105.1262
536.9535, 103.5520
537.4356, 102.2190
537.9177, 101.3856
538.3998, 100.9302
538.8820, 100.1043
539.3641, 98.85389
539.8462, 97.53892
540.3283, 96.34171
540.8104, 95.27327
541.2925, 94.41801
541.7747, 93.80814
542.2568, 93.25356
542.7389, 92.56301
543.2210, 91.77079
543.7031, 90.94411
544.1852, 90.05254
544.6674, 89.21629
545.1495, 88.61457
545.6316, 88.16736
546.1137, 87.67421
546.5958, 87.12024
547.0779, 86.43285
547.5601, 85.50416
548.0422, 84.32358
548.5243, 83.24342
549.0064, 82.25439
549.4885, 81.45006
549.9706, 80.90714
550.4528, 80.86116
550.9349, 80.62794
551.4170, 80.17966
551.8991, 79.56046
552.3812, 78.79710
552.8633, 77.83794
553.3455, 76.94086
553.8276, 76.16263
554.3097, 75.49184
554.7918, 74.90626
555.2739, 74.41570
555.7560, 73.95320
556.2382, 73.56773
556.7203, 73.16820
557.2024, 72.46312
557.6845, 71.42935
558.1666, 70.47855
558.6487, 70.12974
559.1309, 70.00771
559.6130, 69.60421
560.0951, 68.59057
560.5772, 67.67118
561.0593, 67.27661
561.5414, 67.18753
562.0236, 67.02176
562.5057, 66.68819
562.9878, 66.26350
563.4699, 65.68885
563.9520, 64.99479
564.4341, 64.47072
564.9163, 64.18700
565.3984, 63.97323
565.8805, 63.74358
566.3626, 63.48549
566.8447, 63.30916
567.3268, 63.25970
567.8090, 63.16113
568.2911, 62.71633
568.7732, 61.97845
569.2553, 61.47428
569.7374, 61.34866
570.2195, 61.41460
570.7017, 61.49070
571.1838, 61.54805
571.6659, 61.49526
572.1480, 61.18097
572.6301, 60.81544
573.1122, 60.60093
573.5944, 60.51741
574.0765, 60.38229
574.5586, 60.08955
575.0407, 59.73993
575.5228, 59.36504
576.0049, 58.90472
576.4871, 58.61140
576.9692, 58.55386
577.4513, 58.63606
577.9334, 58.80628
578.4155, 59.19977
578.8976, 59.33272
579.3798, 59.05653
579.8619, 58.56101
580.3440, 58.28783
580.8261, 58.24321
581.3082, 58.35339
581.7903, 58.70202
582.2725, 59.15173
582.7546, 59.23037
583.2367, 58.96550
583.7188, 58.70804
584.2009, 58.82855
584.6830, 59.06369
585.1652, 59.00952
585.6473, 58.56005
586.1294, 58.19036
586.6115, 58.29787
587.0936, 58.57441
587.5757, 58.69448
588.0579, 58.33355
588.5400, 58.09373
589.0221, 58.17536
589.5042, 58.44463
589.9863, 58.59239
590.4684, 58.58506
590.9506, 58.50118
591.4327, 58.31371
591.9148, 58.04965
592.3969, 57.98249
592.8790, 58.15923
593.3611, 58.33342
593.8433, 58.31610
594.3254, 58.14899
594.8075, 58.07084
595.2896, 58.09979
595.7717, 58.13617
596.2538, 58.07413
596.7360, 57.95292
597.2181, 57.82763
597.7002, 57.67428
598.1823, 57.60940
598.6644, 57.82450
599.1465, 58.16335
599.6287, 58.35828
600.1108, 58.07330
600.5929, 57.88779
601.0750, 58.06295
601.5571, 58.54722
602.0392, 58.86962
602.5214, 59.00291
603.0035, 59.00427
603.4856, 58.85698
603.9677, 58.54129
604.4498, 58.32808
604.9319, 58.21470
605.4141, 58.20438
605.8962, 58.40877
606.3783, 58.76739
606.8604, 58.80433
607.3425, 58.40307
607.8246, 57.91143
608.3068, 57.70454
608.7889, 57.72514
609.2710, 57.86274
609.7531, 58.16903
610.2352, 58.46960
610.7173, 58.69410
611.1995, 58.82729
611.6816, 58.83191
612.1637, 58.56102
612.6458, 58.29085
613.1279, 58.12388
613.6100, 58.07010
614.0922, 58.04056
614.5743, 58.08213
615.0564, 58.08665
615.5385, 57.96147
616.0206, 57.65491
616.5027, 57.55126
616.9849, 57.70641
617.4670, 57.89684
617.9491, 57.88388
618.4312, 57.68420
618.9133, 57.33928
619.3954, 56.78565
619.8776, 56.27175
620.3597, 56.15221
620.8418, 56.29694
621.3239, 56.41673
621.8060, 56.44603
622.2881, 56.36348
622.7703, 56.06049
623.2524, 55.60840
623.7345, 55.29737
624.2166, 55.31112
624.6987, 55.37809
625.1808, 55.44135
625.6630, 55.51526
626.1451, 55.35266
626.6272, 54.84594
627.1093, 54.27235
627.5914, 53.79578
628.0735, 53.41401
628.5557, 53.17623
629.0378, 53.10498
629.5199, 53.10817
630.0020, 53.12256
630.4841, 53.12637
630.9662, 53.04900
631.4484, 52.86774
631.9305, 52.61308
632.4126, 52.25271
632.8947, 51.84797
633.3768, 51.51301
633.8589, 51.35924
634.3411, 51.22688
634.8232, 51.07693
635.3053, 50.90142
635.7874, 50.65752
636.2695, 50.19188
636.7516, 49.82892
637.2338, 49.72639
637.7159, 49.90080
638.1980, 49.89820
638.6801, 49.66624
639.1622, 49.40224
639.6443, 49.29483
640.1265, 49.31517
640.6086, 49.18186
