##NAMES=Stewartite
##RRUFFID=R070643
##IDEAL CHEMISTRY=Mn^2+^Fe^3+^_2_(PO_4_)_2_(OH)_2_&#183;8H_2_O
##LOCALITY=Hagendorf, Bavaria, Germany
##OWNER=RRUFF
##SOURCE=Michael Scott
##DESCRIPTION=Transparent yellow bladed crystals with orange laueite
##STATUS=The identification of this mineral has been confirmed by single-crystal X-ray diffraction.
##URL=rruff.info/R070643
140.3112, 72.88967
140.7933, 73.46751
141.2754, 74.40977
141.7575, 75.20618
142.2396, 75.76645
142.7217, 76.19882
143.2039, 76.60800
143.6860, 77.00520
144.1681, 77.36349
144.6502, 77.60032
145.1323, 77.77205
145.6144, 78.01549
146.0966, 78.54102
146.5787, 79.19788
147.0608, 79.44942
147.5429, 78.91306
148.0250, 78.46917
148.5071, 78.69292
148.9893, 79.41932
149.4714, 80.17677
149.9535, 80.55708
150.4356, 80.52219
150.9177, 80.61613
151.3998, 80.67638
151.8820, 81.02023
152.3641, 82.02343
152.8462, 83.55637
153.3283, 85.05261
153.8104, 85.78132
154.2925, 85.25514
154.7747, 85.32381
155.2568, 86.31102
155.7389, 87.52271
156.2210, 88.59834
156.7031, 89.43438
157.1852, 90.08413
157.6673, 90.62016
158.1495, 90.95152
158.6316, 91.30602
159.1137, 91.86008
159.5958, 92.36187
160.0779, 92.45470
160.5600, 91.99989
161.0422, 91.35421
161.5243, 91.30184
162.0064, 92.07124
162.4885, 92.79369
162.9706, 93.30031
163.4527, 93.63066
163.9349, 93.85583
164.4170, 93.99405
164.8991, 94.04463
165.3812, 94.00223
165.8633, 93.83237
166.3454, 93.68279
166.8276, 93.66550
167.3097, 93.76145
167.7918, 93.82928
168.2739, 93.85528
168.7560, 93.78812
169.2381, 93.52249
169.7203, 92.97217
170.2024, 92.47093
170.6845, 92.42799
171.1666, 92.93130
171.6487, 93.37647
172.1308, 93.45425
172.6130, 93.43446
173.0951, 93.51402
173.5772, 93.75578
174.0593, 94.09643
174.5414, 94.45784
175.0235, 94.92732
175.5057, 95.21249
175.9878, 94.90209
176.4699, 94.56225
176.9520, 94.78405
177.4341, 95.85790
177.9162, 97.49969
178.3984, 98.84270
178.8805, 99.63002
179.3626, 100.4124
179.8447, 101.3094
180.3268, 102.2338
180.8089, 103.1322
181.2911, 103.9856
181.7732, 104.7346
182.2553, 105.0219
182.7374, 104.6413
183.2195, 104.0319
183.7016, 103.4340
184.1838, 102.6549
184.6659, 101.2949
185.1480, 99.04987
185.6301, 96.01316
186.1122, 93.18327
186.5943, 90.10735
187.0765, 87.63191
187.5586, 86.38342
188.0407, 86.09694
188.5228, 85.87269
189.0049, 85.08365
189.4870, 83.86096
189.9692, 83.06721
190.4513, 82.91844
190.9334, 82.98704
191.4155, 83.01865
191.8976, 83.01460
192.3797, 83.05940
192.8619, 83.14819
193.3440, 83.35188
193.8261, 83.83214
194.3082, 84.85281
194.7903, 85.99379
195.2724, 86.72500
195.7546, 86.96827
196.2367, 87.30906
196.7188, 88.45756
197.2009, 89.88028
197.6830, 90.81248
198.1651, 90.74874
198.6473, 90.25858
199.1294, 90.34332
199.6115, 91.17488
200.0936, 92.17742
200.5757, 93.13451
201.0578, 94.07054
201.5400, 95.01499
202.0221, 95.96078
202.5042, 96.93177
202.9863, 98.02807
203.4684, 99.33302
203.9505, 100.6179
204.4327, 101.6839
204.9148, 102.7142
205.3969, 103.9666
205.8790, 105.6053
206.3611, 107.5703
206.8432, 109.5982
207.3254, 111.7486
207.8075, 113.9010
208.2896, 116.1036
208.7717, 118.2743
209.2538, 120.2605
209.7359, 121.9109
210.2181, 123.3125
210.7002, 125.2127
211.1823, 128.0923
211.6644, 131.0107
212.1465, 133.9596
212.6286, 136.8114
213.1108, 139.3047
213.5929, 141.2022
214.0750, 142.5973
214.5571, 144.8139
215.0392, 148.5076
215.5213, 152.2518
216.0035, 155.6346
216.4856, 158.7541
216.9677, 161.8367
217.4498, 165.0457
217.9319, 168.3553
218.4140, 171.7203
218.8962, 175.0859
219.3783, 178.5141
219.8604, 182.2354
220.3425, 186.0886
220.8246, 189.5989
221.3067, 192.4233
221.7889, 194.6442
222.2710, 197.0249
222.7531, 200.4278
223.2352, 203.1735
223.7173, 204.2106
224.1994, 203.7520
224.6816, 202.9443
225.1637, 202.6425
225.6458, 202.3913
226.1279, 200.7723
226.6100, 197.1564
227.0921, 192.8426
227.5743, 188.5220
228.0564, 184.2115
228.5385, 179.8777
229.0206, 175.4555
229.5027, 171.0420
229.9848, 166.9140
230.4670, 163.1141
230.9491, 159.5356
231.4312, 156.0647
231.9133, 152.6930
232.3954, 149.5674
232.8775, 146.8997
233.3597, 144.4810
233.8418, 142.0289
234.3239, 139.4326
234.8060, 136.9008
235.2881, 134.6954
235.7702, 132.8534
236.2524, 130.9829
236.7345, 128.7768
237.2166, 126.5670
237.6987, 124.6535
238.1808, 123.0991
238.6629, 121.8365
239.1451, 120.8775
239.6272, 120.2925
240.1093, 119.6296
240.5914, 118.4255
241.0735, 117.2866
241.5556, 116.6934
242.0378, 116.7622
242.5199, 117.1838
243.0020, 117.5849
243.4841, 117.9464
243.9662, 118.3487
244.4483, 118.8681
244.9305, 119.3926
245.4126, 119.7341
245.8947, 119.8805
246.3768, 120.1803
246.8589, 121.2811
247.3410, 123.6524
247.8232, 125.3330
248.3053, 125.5767
248.7874, 125.5398
249.2695, 125.8898
249.7516, 126.7524
250.2337, 127.8474
250.7159, 128.8812
251.1980, 130.0047
251.6801, 130.6212
252.1622, 130.4002
252.6443, 129.9886
253.1264, 129.7948
253.6086, 129.8433
254.0907, 129.8491
254.5728, 129.4423
255.0549, 128.4750
255.5370, 127.5202
256.0191, 126.4912
256.5013, 125.5369
256.9834, 124.8537
257.4655, 124.3884
257.9476, 123.8540
258.4297, 122.9082
258.9118, 121.3937
259.3940, 120.0949
259.8761, 119.1201
260.3582, 118.2187
260.8403, 117.2622
261.3224, 116.2532
261.8045, 115.2599
262.2867, 114.3402
262.7688, 113.4986
263.2509, 112.7299
263.7330, 112.3604
264.2151, 111.7626
264.6972, 110.4050
265.1794, 108.4845
265.6615, 106.6963
266.1436, 105.6544
266.6257, 105.3996
267.1078, 104.8861
267.5899, 103.8277
268.0721, 102.8442
268.5542, 102.3373
269.0363, 102.1572
269.5184, 101.8157
270.0005, 100.9397
270.4826, 99.57977
270.9648, 98.54683
271.4469, 98.07140
271.9290, 97.60354
272.4111, 96.92548
272.8932, 96.09554
273.3753, 95.27082
273.8575, 94.54941
274.3396, 93.90396
274.8217, 93.18908
275.3038, 92.28580
275.7859, 91.46097
276.2680, 90.84663
276.7502, 90.36967
277.2323, 89.85388
277.7144, 89.19862
278.1965, 88.49019
278.6786, 88.02129
279.1607, 87.98223
279.6429, 87.79659
280.1250, 87.17390
280.6071, 86.31487
281.0892, 85.59962
281.5713, 85.17918
282.0534, 84.90816
282.5356, 84.49260
283.0177, 83.89375
283.4998, 83.32320
283.9819, 82.88816
284.4640, 82.50044
284.9461, 81.98698
285.4283, 81.27713
285.9104, 80.55618
286.3925, 80.12200
286.8746, 79.99297
287.3567, 79.84077
287.8388, 79.67072
288.3210, 79.41211
288.8031, 78.89781
289.2852, 78.06565
289.7673, 77.24707
290.2494, 76.85043
290.7315, 76.84927
291.2137, 76.80169
291.6958, 76.67004
292.1779, 76.44539
292.6600, 76.07841
293.1421, 75.56152
293.6242, 75.04675
294.1064, 74.70184
294.5885, 74.47677
295.0706, 74.11616
295.5527, 73.49671
296.0348, 72.79988
296.5169, 72.23528
296.9991, 71.79673
297.4812, 71.19925
297.9633, 70.13119
298.4454, 68.80175
298.9275, 67.84995
299.4096, 67.40642
299.8918, 67.21996
300.3739, 67.32130
300.8560, 67.63319
301.3381, 67.58041
301.8202, 66.75574
302.3023, 65.50652
302.7845, 64.54803
303.2666, 63.94164
303.7487, 63.48308
304.2308, 63.08115
304.7129, 62.74093
305.1950, 62.50944
305.6772, 62.48117
306.1593, 62.45089
306.6414, 62.07471
307.1235, 61.31517
307.6056, 60.62563
308.0877, 60.22786
308.5699, 60.03888
309.0520, 59.88933
309.5341, 59.77384
310.0162, 59.61784
310.4983, 59.24023
310.9804, 58.68214
311.4626, 58.32653
311.9447, 58.44092
312.4268, 58.78131
312.9089, 58.95482
313.3910, 58.89212
313.8731, 58.82731
314.3553, 59.07788
314.8374, 59.50539
315.3195, 59.64394
315.8016, 59.12601
316.2837, 58.43737
316.7658, 58.06784
317.2480, 58.02868
317.7301, 58.21560
318.2122, 58.64830
318.6943, 59.25873
319.1764, 59.86790
319.6585, 60.51714
320.1407, 61.09465
320.6228, 61.46624
321.1049, 61.66029
321.5870, 61.88431
322.0691, 62.21021
322.5512, 62.63449
323.0334, 63.11056
323.5155, 63.60207
323.9976, 64.24012
324.4797, 65.23405
324.9618, 66.44797
325.4439, 67.42529
325.9261, 67.97262
326.4082, 68.37901
326.8903, 69.05315
327.3724, 69.98464
327.8545, 70.90359
328.3366, 71.56749
328.8188, 72.19335
329.3009, 73.19463
329.7830, 74.68504
330.2651, 76.31527
330.7472, 77.78701
331.2293, 79.11740
331.7115, 80.38527
332.1936, 81.51388
332.6757, 82.64019
333.1578, 83.96902
333.6399, 85.51105
334.1220, 86.96453
334.6042, 88.06370
335.0863, 88.92805
335.5684, 89.99964
336.0505, 91.30379
336.5326, 92.80530
337.0147, 94.66424
337.4969, 96.77245
337.9790, 98.60612
338.4611, 99.85227
338.9432, 100.7586
339.4253, 101.8943
339.9074, 103.2862
340.3896, 104.7748
340.8717, 106.4205
341.3538, 108.1054
341.8359, 109.5713
342.3180, 110.7250
342.8001, 111.7366
343.2823, 112.8089
343.7644, 113.9188
344.2465, 115.2110
344.7286, 116.8486
345.2107, 118.6137
345.6928, 120.3300
346.1750, 121.9760
346.6571, 123.4115
347.1392, 124.4340
347.6213, 125.0298
348.1034, 125.8347
348.5855, 127.1269
349.0677, 128.3994
349.5498, 129.2702
350.0319, 129.8035
350.5140, 130.3869
350.9961, 131.3404
351.4782, 132.4780
351.9604, 132.9172
352.4425, 132.1417
352.9246, 131.4285
353.4067, 131.3157
353.8888, 131.5065
354.3709, 131.4920
354.8531, 131.0829
355.3352, 130.3616
355.8173, 129.4519
356.2994, 128.2478
356.7815, 127.0918
357.2636, 126.2083
357.7458, 125.2775
358.2279, 124.0223
358.7100, 122.3887
359.1921, 120.4062
359.6742, 118.1008
360.1563, 115.4109
360.6385, 112.6723
361.1206, 109.6244
361.6027, 106.7655
362.0848, 104.5722
362.5669, 102.8511
363.0490, 100.9076
363.5312, 98.23557
364.0133, 94.96101
364.4954, 92.15982
364.9775, 90.00772
365.4596, 88.09093
365.9417, 86.50089
366.4239, 85.05724
366.9060, 83.52095
367.3881, 81.78787
367.8702, 79.95543
368.3523, 78.21316
368.8344, 76.56815
369.3166, 75.02238
369.7987, 73.50510
370.2808, 72.11937
370.7629, 70.92388
371.2450, 69.93458
371.7271, 69.16682
372.2093, 68.69189
372.6914, 68.59875
373.1735, 68.19597
373.6556, 67.14948
374.1377, 66.14876
374.6198, 65.38728
375.1020, 64.86507
375.5841, 64.57743
376.0662, 64.54778
376.5483, 64.69561
377.0304, 64.62302
377.5125, 64.06850
377.9947, 63.67020
378.4768, 63.55682
378.9589, 63.62123
379.4410, 63.77163
379.9231, 63.97446
380.4052, 64.22072
380.8874, 64.49210
381.3695, 64.77260
381.8516, 65.13091
382.3337, 65.54800
382.8158, 66.06405
383.2979, 66.79910
383.7801, 67.69035
384.2622, 68.49483
384.7443, 68.98047
385.2264, 69.17215
385.7085, 69.39437
386.1906, 69.60271
386.6728, 69.91796
387.1549, 70.52090
387.6370, 71.21563
388.1191, 71.69378
388.6012, 71.80199
389.0833, 71.68105
389.5655, 71.55956
390.0476, 71.43588
390.5297, 71.32083
391.0118, 71.29070
391.4939, 71.22202
391.9760, 70.98298
392.4582, 70.55273
392.9403, 70.10246
393.4224, 69.77891
393.9045, 69.56129
394.3866, 69.31586
394.8687, 68.99498
395.3509, 68.69341
395.8330, 68.55817
396.3151, 68.52030
396.7972, 68.33961
397.2793, 67.74189
397.7614, 67.03496
398.2436, 66.67014
398.7257, 66.66997
399.2078, 66.77502
399.6899, 66.80793
400.1720, 66.87745
400.6541, 67.23074
401.1363, 68.08829
401.6184, 68.83199
402.1005, 68.95711
402.5826, 68.67054
403.0647, 68.60159
403.5468, 69.00925
404.0290, 69.50383
404.5111, 69.42417
404.9932, 68.70592
405.4753, 68.25159
405.9574, 68.40286
406.4395, 68.77821
406.9217, 69.09545
407.4038, 69.30522
407.8859, 69.30301
408.3680, 68.96117
408.8501, 68.31243
409.3322, 67.82550
409.8144, 67.62831
410.2965, 67.42041
410.7786, 67.14906
411.2607, 66.78543
411.7428, 66.24450
412.2249, 65.48787
412.7071, 64.64312
413.1892, 63.96387
413.6713, 63.57311
414.1534, 63.14425
414.6355, 62.73823
415.1176, 62.25224
415.5998, 61.55614
416.0819, 60.68095
416.5640, 59.81399
417.0461, 59.14094
417.5282, 58.66759
418.0103, 58.03875
418.4925, 57.07693
418.9746, 56.14923
419.4567, 55.29436
419.9388, 54.53280
420.4209, 53.88656
420.9030, 53.37225
421.3852, 52.95085
421.8673, 52.56502
422.3494, 52.25525
422.8315, 51.87214
423.3136, 51.26128
423.7957, 50.68170
424.2779, 50.36950
424.7600, 50.28175
425.2421, 50.11897
425.7242, 49.49483
426.2063, 48.49471
426.6884, 48.00955
427.1706, 48.29610
427.6527, 48.68540
428.1348, 49.02287
428.6169, 49.23067
429.0990, 49.15558
429.5811, 48.67834
430.0633, 48.06936
430.5454, 47.62417
431.0275, 47.34243
431.5096, 47.26443
431.9917, 47.58385
432.4738, 47.93045
432.9560, 47.79173
433.4381, 47.17699
433.9202, 46.85075
434.4023, 47.48788
434.8844, 48.55911
435.3665, 49.01612
435.8487, 48.69680
436.3308, 48.43915
436.8129, 48.98851
437.2950, 50.10769
437.7771, 50.74406
438.2592, 50.38336
438.7414, 50.06064
439.2235, 50.39962
439.7056, 51.20171
440.1877, 52.00371
440.6698, 52.64499
441.1519, 53.18916
441.6341, 53.73928
442.1162, 54.28512
442.5983, 54.86904
443.0804, 55.46645
443.5625, 56.12125
444.0446, 56.89404
444.5268, 57.76788
445.0089, 58.68020
445.4910, 59.59076
445.9731, 60.49485
446.4552, 61.35883
446.9373, 62.01637
447.4195, 62.84820
447.9016, 64.07796
448.3837, 65.43497
448.8658, 66.53091
449.3479, 67.27763
449.8300, 68.03147
450.3122, 69.38026
450.7943, 71.58918
451.2764, 73.39490
451.7585, 74.39722
452.2406, 75.36316
452.7227, 76.57902
453.2049, 77.98933
453.6870, 79.40125
454.1691, 80.67683
454.6512, 81.91331
455.1333, 83.44601
455.6154, 85.42355
456.0976, 87.24484
456.5797, 88.59081
457.0618, 89.78313
457.5439, 91.02966
458.0260, 92.35332
458.5081, 93.81548
458.9903, 95.60088
459.4724, 97.57285
459.9545, 99.20570
460.4366, 100.3500
460.9187, 101.4249
461.4008, 102.7711
461.8830, 104.2942
462.3651, 105.7638
462.8472, 107.1267
463.3293, 108.4494
463.8114, 109.7288
464.2935, 110.9999
464.7756, 112.4554
465.2578, 114.2437
465.7399, 116.0451
466.2220, 117.2597
466.7041, 117.7838
467.1862, 118.2227
467.6683, 118.7212
468.1505, 119.1010
468.6326, 119.2578
469.1147, 119.1639
469.5968, 118.7766
470.0789, 118.0572
470.5610, 117.0209
471.0432, 115.7878
471.5253, 114.5002
472.0074, 112.8116
472.4895, 110.5376
472.9716, 107.9203
473.4537, 105.1095
473.9359, 102.1930
474.4180, 99.33667
474.9001, 96.82401
475.3822, 94.75716
475.8643, 92.30222
476.3464, 89.03275
476.8286, 85.82765
477.3107, 83.01343
477.7928, 80.44305
478.2749, 77.84352
478.7570, 75.07561
479.2391, 72.29202
479.7213, 69.76180
480.2034, 67.49142
480.6855, 65.33237
481.1676, 63.14845
481.6497, 61.15887
482.1318, 59.59346
482.6140, 58.40053
483.0961, 57.22386
483.5782, 55.86106
484.0603, 54.41991
484.5424, 53.02600
485.0245, 51.68441
485.5067, 50.47786
485.9888, 49.51366
486.4709, 48.68357
486.9530, 47.69391
487.4351, 46.42338
487.9172, 45.26768
488.3994, 44.30980
488.8815, 43.56030
489.3636, 43.11694
489.8457, 42.97848
490.3278, 42.88877
490.8099, 42.59536
491.2921, 42.08917
491.7742, 41.65064
492.2563, 41.39122
492.7384, 41.06379
493.2205, 40.52276
493.7026, 39.89277
494.1848, 39.33147
494.6669, 38.90265
495.1490, 38.59776
495.6311, 38.43317
496.1132, 38.49067
496.5953, 38.42427
497.0775, 38.11521
497.5596, 37.79110
498.0417, 37.47518
498.5238, 37.21840
499.0059, 37.12754
499.4880, 37.30080
499.9702, 37.58914
500.4523, 37.67524
500.9344, 37.52256
501.4165, 37.40186
501.8986, 37.40334
502.3807, 37.45410
502.8629, 37.46244
503.3450, 37.43238
503.8271, 37.48540
504.3092, 37.76969
504.7913, 38.13444
505.2734, 38.31425
505.7556, 38.29669
506.2377, 38.30594
506.7198, 38.48207
507.2019, 38.77256
507.6840, 39.00403
508.1661, 39.11953
508.6483, 39.29144
509.1304, 39.66452
509.6125, 40.06663
510.0946, 40.22832
510.5767, 40.14129
511.0588, 40.11205
511.5410, 40.44672
512.0231, 41.14192
512.5052, 41.67413
512.9873, 41.94569
513.4694, 42.16907
513.9515, 42.31901
514.4337, 42.46996
514.9158, 42.72078
515.3979, 43.09325
515.8800, 43.49183
516.3621, 43.77483
516.8442, 43.92053
517.3264, 44.18782
517.8085, 44.74177
518.2906, 45.20633
518.7727, 45.43740
519.2548, 45.47353
519.7369, 45.35195
520.2191, 45.03005
520.7012, 44.69737
521.1833, 44.54976
521.6654, 44.57781
522.1475, 44.73919
522.6296, 45.09132
523.1118, 45.44045
523.5939, 45.58751
524.0760, 45.54989
524.5581, 45.36160
525.0402, 44.90792
525.5223, 44.41050
526.0045, 43.93928
526.4866, 43.55025
526.9687, 43.44642
527.4508, 43.74903
527.9329, 44.16713
528.4150, 44.13789
528.8972, 43.37601
529.3793, 42.81614
529.8614, 42.52584
530.3435, 42.36219
530.8256, 42.32370
531.3077, 42.34291
531.7899, 42.28044
532.2720, 42.04447
532.7541, 41.71763
533.2362, 41.51527
533.7183, 41.46582
534.2004, 41.45818
534.6826, 41.45180
535.1647, 41.50301
535.6468, 41.71624
536.1289, 42.04434
536.6110, 42.26863
537.0931, 42.16310
537.5753, 41.91963
538.0574, 41.92692
538.5395, 42.19748
539.0216, 42.44297
539.5037, 42.55725
539.9858, 42.56720
540.4680, 42.47965
540.9501, 42.25111
541.4322, 42.17529
541.9143, 42.49138
542.3964, 42.89485
542.8785, 43.04452
543.3607, 42.96163
543.8428, 42.93484
544.3249, 43.17588
544.8070, 43.56015
545.2891, 43.62326
545.7712, 43.01903
546.2534, 42.55703
546.7355, 42.31174
547.2176, 42.17403
547.6997, 42.08611
548.1818, 42.03021
548.6639, 41.98413
549.1461, 41.90783
549.6282, 41.84486
550.1103, 42.05202
550.5924, 42.75668
551.0745, 43.14160
551.5566, 42.63084
552.0388, 41.90046
552.5209, 41.46217
553.0030, 41.36005
553.4851, 41.34831
553.9672, 41.33427
554.4493, 41.30000
554.9315, 41.17912
555.4136, 40.96797
555.8957, 40.83239
556.3778, 40.88944
556.8599, 41.06305
557.3420, 41.15249
557.8242, 41.16371
558.3063, 41.10028
558.7884, 40.94980
559.2705, 40.73420
559.7526, 40.35961
560.2347, 39.90461
560.7169, 39.70347
561.1990, 40.04020
561.6811, 40.74883
562.1632, 41.04655
562.6453, 40.57983
563.1274, 40.30076
563.6096, 40.42646
564.0917, 40.66223
564.5738, 40.81961
565.0559, 40.88095
565.5380, 40.90649
566.0201, 40.90437
566.5023, 40.91385
566.9844, 41.04519
567.4665, 41.31033
567.9486, 41.64312
568.4307, 42.14488
568.9128, 42.58935
569.3950, 42.62265
569.8771, 42.20403
570.3592, 41.88618
570.8413, 41.87362
571.3234, 42.03364
571.8055, 42.25333
572.2877, 42.52127
572.7698, 42.87663
573.2519, 43.37177
573.7340, 43.86842
574.2161, 43.99579
574.6982, 43.41893
575.1804, 43.04696
575.6625, 43.04017
576.1446, 43.08528
576.6267, 42.92394
577.1088, 42.64885
577.5909, 42.56610
578.0731, 42.89355
578.5552, 43.40316
579.0373, 43.55925
579.5194, 43.28889
580.0015, 43.07665
580.4836, 43.11303
580.9658, 43.13058
581.4479, 42.83712
581.9300, 42.32551
582.4121, 42.00467
582.8942, 42.19546
583.3763, 42.49918
583.8585, 42.53492
584.3406, 42.35157
584.8227, 42.12349
585.3048, 41.90645
585.7869, 41.68164
586.2690, 41.41702
586.7512, 41.09459
587.2333, 40.82816
587.7154, 40.63539
588.1975, 40.47432
588.6796, 40.33303
589.1617, 40.20897
589.6439, 40.13648
590.1260, 40.12084
590.6081, 40.04391
591.0902, 39.69098
591.5723, 39.02020
592.0544, 38.46535
592.5366, 37.96476
593.0187, 37.69466
593.5008, 37.91606
593.9829, 38.33852
594.4650, 38.53688
594.9471, 38.40160
595.4293, 38.06797
595.9114, 37.52909
596.3935, 36.88295
596.8756, 36.38040
597.3577, 36.06358
597.8398, 35.78564
598.3220, 35.43960
598.8041, 35.03621
599.2862, 34.64310
599.7683, 34.20243
600.2504, 33.84695
600.7325, 33.55341
601.2147, 33.38142
601.6968, 33.49331
602.1789, 33.82287
602.6610, 34.03280
603.1431, 33.81582
603.6252, 33.29952
604.1074, 33.08430
604.5895, 33.34185
605.0716, 33.44854
605.5537, 33.05656
606.0358, 32.60050
606.5179, 32.38924
607.0001, 32.42134
607.4822, 32.52004
607.9643, 32.69618
608.4464, 32.83336
608.9285, 32.77214
609.4106, 32.53218
609.8928, 32.21367
610.3749, 31.83130
610.8570, 31.46935
611.3391, 31.26513
611.8212, 31.27864
612.3033, 31.22101
612.7855, 30.97039
613.2676, 30.78073
613.7497, 30.77529
614.2318, 30.90430
614.7139, 31.11733
615.1960, 31.38779
615.6782, 31.60983
616.1603, 31.63763
616.6424, 31.46604
617.1245, 31.18375
617.6066, 30.66584
618.0887, 30.25981
618.5709, 30.25247
619.0530, 30.41448
619.5351, 30.43093
620.0172, 30.23086
620.4993, 29.98049
620.9814, 29.74382
621.4636, 29.52885
621.9457, 29.34130
622.4278, 29.18390
622.9099, 29.08132
623.3920, 29.06177
623.8741, 29.09225
624.3563, 29.05777
624.8384, 28.94695
625.3205, 28.78110
625.8026, 28.53964
626.2847, 28.26324
626.7668, 27.89573
627.2490, 27.51472
627.7311, 27.33159
628.2132, 27.50326
628.6953, 27.80316
629.1774, 27.80331
629.6595, 27.49097
630.1417, 27.22182
630.6238, 27.08856
631.1059, 26.96744
631.5880, 26.73471
632.0701, 26.42323
632.5522, 26.13152
633.0344, 25.74505
633.5165, 25.53462
633.9986, 25.87343
634.4807, 26.38641
634.9628, 26.45085
635.4449, 25.96679
635.9271, 25.30104
636.4092, 24.76269
636.8913, 24.35559
637.3734, 24.16818
637.8555, 24.36279
