##NAMES=Stibnite
##RRUFFID=R050066
##IDEAL CHEMISTRY=Sb^3+^_2_S^2-^_3_
##LOCALITY=Wuling, Jiangxi Province, China
##OWNER=RRUFF
##SOURCE=Rock Currier
##DESCRIPTION=Lead-gray prismatic crystal
##STATUS=The identification of this mineral has been confirmed by X-ray diffraction and chemical analysis
##URL=rruff.info/R050066
##MEASURED CHEMISTRY=Sb_2.00_S_3.00_
117.189, 1132.932
117.671, 1140.601
118.153, 1132.416
118.635, 1130.570
119.117, 1129.155
119.600, 1145.614
120.082, 1181.001
120.564, 1236.900
121.046, 1317.358
121.528, 1425.323
122.010, 1560.218
122.492, 1717.753
122.974, 1878.227
123.456, 2086.527
123.939, 2356.846
124.421, 2687.955
124.903, 3075.297
125.385, 3527.488
125.867, 4057.697
126.349, 4567.338
126.831, 5057.922
127.313, 5526.875
127.796, 5969.681
128.278, 6385.997
128.760, 6785.403
129.242, 7171.548
129.724, 7538.882
130.206, 7915.125
130.688, 8343.232
131.170, 8751.570
131.652, 9112.654
132.135, 9417.063
132.617, 9653.449
133.099, 9804.886
133.581, 9858.004
134.063, 9838.632
134.545, 9714.527
135.027, 9551.730
135.509, 9383.057
135.992, 9222.771
136.474, 9087.705
136.956, 9011.122
137.438, 9011.267
137.920, 9055.320
138.402, 9136.768
138.884, 9260.340
139.366, 9421.001
139.848, 9616.771
140.331, 9868.262
140.813, 10222.470
141.295, 10731.950
141.777, 11300.360
142.259, 11923.800
142.741, 12604.060
143.223, 13339.430
143.705, 14129.500
144.188, 14972.490
144.670, 15876.750
145.152, 16856.520
145.634, 17873.381
146.116, 18939.320
146.598, 20036.400
147.080, 21135.100
147.562, 22226.029
148.044, 23311.221
148.527, 24409.020
149.009, 25526.711
149.491, 26645.801
149.973, 27802.789
150.455, 28967.900
150.937, 30068.641
151.419, 31067.840
151.901, 31977.301
152.383, 32881.410
152.866, 33822.730
153.348, 34721.031
153.830, 35583.461
154.312, 36383.750
154.794, 37056.762
155.276, 37575.648
155.758, 37914.141
156.240, 38022.828
156.723, 37860.328
157.205, 37536.371
157.687, 37061.379
158.169, 36455.430
158.651, 35792.531
159.133, 35077.660
159.615, 34353.852
160.097, 33775.840
160.579, 33349.820
161.062, 33054.461
161.544, 32881.570
162.026, 32830.121
162.508, 32888.980
162.990, 33064.160
163.472, 33357.980
163.954, 33718.559
164.436, 34157.520
164.919, 34652.160
165.401, 35187.621
165.883, 35764.160
166.365, 36372.988
166.847, 37018.500
167.329, 37692.539
167.811, 38356.340
168.293, 39006.648
168.775, 39645.602
169.258, 40275.020
169.740, 40895.770
170.222, 41495.129
170.704, 42056.809
171.186, 42590.031
171.668, 43121.141
172.150, 43662.059
172.632, 44197.500
173.115, 44700.789
173.597, 45168.109
174.079, 45647.191
174.561, 46180.512
175.043, 46753.531
175.525, 47334.590
176.007, 47922.781
176.489, 48515.301
176.971, 49105.070
177.454, 49687.090
177.936, 50297.012
178.418, 50953.121
178.900, 51651.512
179.382, 52395.672
179.864, 53171.609
180.346, 54002.461
180.828, 54925.879
181.311, 55945.730
181.793, 57030.391
182.275, 58131.129
182.757, 59284.969
183.239, 60561.281
183.721, 61999.828
184.203, 63558.879
184.685, 65186.711
185.167, 66872.820
185.650, 68657.203
186.132, 70594.797
186.614, 72633.180
187.096, 74734.969
187.578, 76930.219
188.060, 79148.422
188.542, 81337.609
189.024, 83495.977
189.507, 85574.219
189.989, 87538.398
190.471, 89397.656
190.953, 91144.547
191.435, 92806.883
191.917, 94323.344
192.399, 95592.047
192.881, 96580.367
193.363, 97432.430
193.846, 98219.773
194.328, 98924.359
194.810, 99498.773
195.292, 99891.906
195.774, 100183.500
196.256, 100482.898
196.738, 100795.602
197.220, 101102.500
197.702, 101412.500
198.185, 101706.797
198.667, 101961.703
199.149, 102178.297
199.631, 102345.703
200.113, 102463.203
200.595, 102541.203
201.077, 102521.297
201.559, 102323.602
202.042, 102022.000
202.524, 101685.398
203.006, 101337.703
203.488, 100949.797
203.970, 100504.500
204.452, 100013.297
204.934, 99388.539
205.416, 98511.859
205.898, 97501.828
206.381, 96481.547
206.863, 95490.969
207.345, 94463.531
207.827, 93306.094
208.309, 92006.438
208.791, 90668.883
209.273, 89332.953
209.755, 87974.398
210.238, 86578.320
210.720, 85125.844
211.202, 83657.789
211.684, 82221.547
212.166, 80817.547
212.648, 79428.008
213.130, 78038.562
213.612, 76679.844
214.094, 75392.273
214.577, 74188.297
215.059, 73044.180
215.541, 71947.703
216.023, 70901.273
216.505, 69926.117
216.987, 69038.492
217.469, 68236.750
217.951, 67506.500
218.434, 66850.727
218.916, 66263.680
219.398, 65737.438
219.880, 65273.691
220.362, 64887.340
220.844, 64574.199
221.326, 64359.930
221.808, 64245.180
222.290, 64229.750
222.773, 64318.891
223.255, 64525.750
223.737, 64845.301
224.219, 65239.410
224.701, 65685.688
225.183, 66233.570
225.665, 66926.461
226.147, 67764.438
226.629, 68677.797
227.112, 69599.477
227.594, 70556.328
228.076, 71654.289
228.558, 72923.797
229.040, 74321.352
229.522, 75794.117
230.004, 77341.344
230.486, 78946.273
230.969, 80626.250
231.451, 82353.906
231.933, 84091.469
232.415, 85839.352
232.897, 87568.180
233.379, 89256.773
233.861, 90905.461
234.343, 92471.023
234.825, 93982.070
235.307, 95380.156
235.790, 96600.477
236.272, 97644.289
236.754, 98474.953
237.236, 99061.844
237.718, 99412.820
238.200, 99487.773
238.682, 99269.188
239.165, 98772.508
239.647, 98010.227
240.129, 96979.477
240.611, 95699.844
241.093, 94129.906
241.575, 92286.469
242.057, 90341.391
242.539, 88269.492
243.021, 86119.148
243.503, 83880.180
243.986, 81565.883
244.468, 79300.258
244.950, 77161.758
245.432, 75145.383
245.914, 73188.117
246.396, 71246.344
246.878, 69412.977
247.361, 67728.211
247.843, 66193.617
248.325, 64818.602
248.807, 63617.852
249.289, 62580.781
249.771, 61630.230
250.253, 60737.980
250.735, 59950.391
251.217, 59302.559
251.699, 58776.520
252.182, 58344.891
252.664, 58008.840
253.146, 57734.078
253.628, 57435.551
254.110, 57065.031
254.592, 56748.000
255.074, 56539.980
255.556, 56388.930
256.039, 56225.328
256.521, 56025.000
257.003, 55813.699
257.485, 55634.578
257.967, 55505.859
258.449, 55378.512
258.931, 55259.941
259.413, 55138.578
259.896, 54982.711
260.378, 54792.379
260.860, 54627.359
261.342, 54561.660
261.824, 54622.191
262.306, 54721.879
262.788, 54838.480
263.270, 55006.051
263.752, 55229.961
264.235, 55520.641
264.717, 55902.090
265.199, 56391.730
265.681, 56978.988
266.163, 57767.570
266.645, 58753.352
267.127, 59915.461
267.609, 61245.148
268.091, 62746.641
268.574, 64420.230
269.056, 66250.797
269.538, 68260.344
270.020, 70581.703
270.502, 73298.023
270.984, 76295.547
271.466, 79564.078
271.948, 83106.023
272.431, 86921.820
272.913, 91018.000
273.395, 95390.227
273.877, 100095.703
274.359, 105158.297
274.841, 110525.703
275.323, 116214.297
275.805, 122145.000
276.288, 128290.797
276.770, 134669.906
277.252, 141129.203
277.734, 147521.703
278.216, 153901.297
278.698, 159983.500
279.180, 166018.297
279.662, 171546.500
280.144, 176366.906
280.626, 180401.297
281.109, 183540.406
281.591, 185747.000
282.073, 187038.094
282.555, 187086.797
283.037, 185691.797
283.519, 183045.703
284.001, 179183.094
284.483, 174201.000
284.966, 168420.797
285.448, 161854.297
285.930, 154601.297
286.412, 147336.594
286.894, 139966.406
287.376, 132745.297
287.858, 125735.797
288.340, 118934.297
288.823, 112517.797
289.305, 106490.703
289.787, 100909.102
290.269, 95878.406
290.751, 91422.344
291.233, 87406.477
291.715, 83808.102
292.197, 80640.180
292.679, 77934.102
293.162, 75784.422
293.644, 73985.703
294.126, 72370.188
294.608, 70956.156
295.090, 69899.594
295.572, 69292.898
296.054, 69067.039
296.536, 69041.453
297.018, 69198.969
297.501, 69555.602
297.983, 70121.133
298.465, 70890.727
298.947, 71868.711
299.429, 73071.953
299.911, 74429.594
300.393, 75842.711
300.875, 77296.133
301.358, 78881.398
301.840, 80585.180
302.322, 82433.281
302.804, 84451.258
303.286, 86641.133
303.768, 88981.328
304.250, 91463.844
304.732, 94086.727
305.215, 96888.820
305.697, 99843.742
306.179, 102964.297
306.661, 106321.898
307.143, 109872.602
307.625, 113541.898
308.107, 117272.102
308.589, 121066.602
309.071, 124828.102
309.553, 128942.602
310.036, 132610.797
310.518, 136115.906
311.000, 138988.203
311.482, 140891.000
311.964, 141690.000
312.446, 141007.203
312.928, 138041.000
313.410, 132524.094
313.893, 125081.000
314.375, 114934.398
314.857, 103739.703
315.339, 92183.898
315.821, 80589.477
316.303, 69585.508
316.785, 59836.430
317.267, 51339.121
317.750, 44003.629
318.232, 38155.371
318.714, 33296.691
319.196, 29352.369
319.678, 26202.930
320.160, 23568.490
320.642, 21381.930
321.124, 19587.420
321.606, 18065.410
322.089, 16846.240
322.571, 15813.630
323.053, 14959.510
323.535, 14231.140
324.017, 13576.420
324.499, 12987.700
324.981, 12457.970
325.463, 11987.100
325.945, 11570.770
326.428, 11194.470
326.910, 10853.610
327.392, 10552.340
327.874, 10295.170
328.356, 10091.110
328.838, 9891.702
329.320, 9669.540
329.802, 9437.312
330.284, 9216.057
330.767, 9009.372
331.249, 8822.346
331.731, 8666.141
332.213, 8546.938
332.695, 8421.116
333.177, 8275.279
333.659, 8130.078
334.142, 8001.869
334.624, 7890.854
335.106, 7792.862
335.588, 7707.135
336.070, 7632.434
336.552, 7546.146
337.034, 7427.202
337.516, 7322.360
337.998, 7250.644
338.480, 7199.681
338.963, 7150.446
339.445, 7094.535
339.927, 7035.815
340.409, 6984.020
340.891, 6947.969
341.373, 6903.089
341.855, 6834.871
342.337, 6767.728
342.819, 6721.485
343.302, 6697.730
343.784, 6681.927
344.266, 6659.030
344.748, 6628.497
345.230, 6596.653
345.712, 6554.478
346.194, 6521.582
346.677, 6517.729
347.159, 6529.342
347.641, 6524.659
348.123, 6478.841
348.605, 6410.441
349.087, 6362.016
349.569, 6337.377
350.051, 6317.742
350.533, 6299.786
351.016, 6280.173
351.498, 6253.316
351.980, 6215.042
352.462, 6178.308
352.944, 6154.463
353.426, 6141.062
353.908, 6128.960
354.390, 6117.788
354.872, 6103.096
355.355, 6075.718
355.837, 6035.197
356.319, 5998.620
356.801, 5976.704
357.283, 5956.469
357.765, 5920.579
358.247, 5868.996
358.729, 5820.248
359.211, 5791.663
359.694, 5782.561
360.176, 5757.142
360.658, 5701.515
361.140, 5647.754
361.622, 5608.875
362.104, 5579.314
362.586, 5549.521
363.069, 5515.057
363.551, 5476.883
364.033, 5437.333
364.515, 5396.051
364.997, 5353.747
365.479, 5310.769
365.961, 5266.452
366.443, 5218.468
366.925, 5167.566
367.408, 5119.481
367.890, 5082.320
368.372, 5056.335
368.854, 5013.391
369.336, 4965.694
369.818, 4959.285
370.300, 4942.855
370.782, 4916.941
371.264, 4853.135
371.747, 4838.251
372.229, 4803.766
372.711, 4768.478
373.193, 4760.485
373.675, 4702.192
374.157, 4691.089
374.639, 4677.739
375.121, 4663.323
375.603, 4646.790
376.086, 4629.829
376.568, 4613.499
377.050, 4597.348
377.532, 4580.785
378.014, 4563.730
378.496, 4545.392
378.978, 4523.062
379.460, 4496.166
379.943, 4479.361
380.425, 4487.640
380.907, 4492.653
381.389, 4472.646
381.871, 4434.755
382.353, 4401.550
382.835, 4385.872
383.317, 4382.239
383.799, 4371.837
384.282, 4348.895
384.764, 4326.136
385.246, 4303.401
385.728, 4281.544
386.210, 4262.746
386.692, 4246.633
387.174, 4229.025
387.656, 4203.132
388.138, 4167.047
388.621, 4140.156
389.103, 4131.838
389.585, 4122.773
390.067, 4104.329
390.549, 4079.813
391.031, 4056.290
391.513, 4037.960
391.996, 4021.296
392.478, 3999.361
392.960, 3971.202
393.442, 3944.458
393.924, 3921.386
394.406, 3901.521
394.888, 3883.433
395.370, 3866.412
395.852, 3854.849
396.335, 3858.054
396.817, 3866.422
397.299, 3860.012
397.781, 3834.515
398.263, 3806.665
398.745, 3792.690
399.227, 3793.233
399.709, 3784.647
400.191, 3757.460
400.674, 3730.839
401.156, 3715.631
401.638, 3707.863
402.120, 3699.698
402.602, 3687.617
403.084, 3670.908
403.566, 3646.349
404.048, 3594.891
404.530, 3569.252
405.013, 3591.261
405.495, 3620.264
405.977, 3629.119
406.459, 3616.395
406.941, 3596.385
407.423, 3578.705
407.905, 3563.892
408.387, 3557.644
408.870, 3562.045
409.352, 3571.916
409.834, 3592.153
410.316, 3613.919
410.798, 3623.650
411.280, 3614.505
411.762, 3601.081
412.244, 3598.197
412.727, 3604.248
413.209, 3607.836
413.691, 3603.565
414.173, 3600.211
414.655, 3613.027
415.137, 3641.798
415.619, 3661.610
416.101, 3660.248
416.583, 3653.083
417.065, 3649.392
417.548, 3651.249
418.030, 3665.299
418.512, 3699.271
418.994, 3745.163
419.476, 3765.411
419.958, 3730.414
420.440, 3706.300
420.922, 3699.545
421.405, 3705.191
421.887, 3721.764
422.369, 3747.256
422.851, 3774.472
423.333, 3795.117
423.815, 3808.886
424.297, 3822.294
424.779, 3839.088
425.262, 3850.395
425.744, 3850.113
426.226, 3842.906
426.708, 3836.222
427.190, 3831.880
427.672, 3831.494
428.154, 3836.625
428.636, 3847.288
429.118, 3866.751
429.601, 3903.635
430.083, 3940.102
430.565, 3950.060
431.047, 3932.847
431.529, 3916.678
432.011, 3914.801
432.493, 3913.770
432.975, 3892.850
433.457, 3855.520
433.940, 3831.464
434.422, 3843.474
434.904, 3883.890
435.386, 3908.419
435.868, 3906.384
436.350, 3901.958
436.832, 3892.457
437.314, 3884.595
437.797, 3886.903
438.279, 3900.169
438.761, 3915.611
439.243, 3923.286
439.725, 3922.606
440.207, 3922.154
440.689, 3917.882
441.171, 3919.623
441.654, 3938.546
442.136, 3963.981
442.618, 3976.731
443.100, 3965.864
443.582, 3949.270
444.064, 3945.673
444.546, 3954.269
445.028, 3969.810
445.510, 3994.140
445.992, 4019.160
446.475, 4034.086
446.957, 4039.282
447.439, 4040.919
447.921, 4032.928
448.403, 4027.277
448.885, 4037.456
449.367, 4059.422
449.849, 4076.637
450.332, 4078.566
450.814, 4070.810
451.296, 4072.433
451.778, 4097.135
452.260, 4110.770
452.742, 4104.124
453.224, 4092.168
453.706, 4082.866
454.189, 4078.938
454.671, 4083.208
455.153, 4101.186
455.635, 4130.090
456.117, 4153.246
456.599, 4171.635
457.081, 4181.936
457.563, 4175.107
458.045, 4162.120
458.528, 4155.743
459.010, 4158.707
459.492, 4165.797
459.974, 4173.759
460.456, 4183.221
460.938, 4190.551
461.420, 4193.308
461.902, 4215.382
462.384, 4293.840
462.867, 4432.433
463.349, 4490.415
463.831, 4407.206
464.313, 4317.006
464.795, 4260.641
465.277, 4234.024
465.759, 4230.234
466.241, 4246.134
466.724, 4274.580
467.206, 4308.226
467.688, 4353.907
468.170, 4379.186
468.652, 4363.423
469.134, 4345.625
469.616, 4340.713
470.098, 4346.591
470.581, 4356.844
471.063, 4369.573
471.545, 4383.667
472.027, 4398.174
472.509, 4413.029
472.991, 4426.844
473.473, 4441.979
473.955, 4452.156
474.437, 4444.845
474.919, 4418.882
475.402, 4397.323
475.884, 4382.104
476.366, 4374.433
476.848, 4379.882
477.330, 4394.618
477.812, 4405.726
478.294, 4405.417
478.776, 4397.430
479.259, 4393.425
479.741, 4394.447
480.223, 4397.991
480.705, 4405.987
481.187, 4414.565
481.669, 4420.745
482.151, 4424.806
482.633, 4429.375
483.116, 4437.531
483.598, 4447.221
484.080, 4451.889
484.562, 4450.895
485.044, 4448.023
485.526, 4442.409
486.008, 4437.375
486.490, 4437.813
486.972, 4444.425
487.455, 4453.698
487.937, 4469.633
488.419, 4484.689
488.901, 4487.838
489.383, 4479.064
489.865, 4466.790
490.347, 4455.204
490.829, 4446.391
491.311, 4454.646
491.794, 4508.313
492.276, 4542.942
492.758, 4542.658
493.240, 4527.918
493.722, 4514.532
494.204, 4505.871
494.686, 4498.704
495.168, 4488.998
495.651, 4477.951
496.133, 4472.355
496.615, 4472.583
497.097, 4477.429
497.579, 4492.966
498.061, 4510.083
498.543, 4513.578
499.025, 4497.291
499.508, 4482.662
499.990, 4483.071
500.472, 4490.182
500.954, 4491.986
501.436, 4486.846
501.918, 4478.716
502.400, 4469.963
502.882, 4461.072
503.364, 4458.094
503.846, 4471.065
504.329, 4477.670
504.811, 4469.762
505.293, 4457.367
505.775, 4450.514
506.257, 4450.833
506.739, 4452.447
507.221, 4450.659
507.703, 4445.464
508.186, 4434.323
508.668, 4411.910
509.150, 4398.666
509.632, 4413.735
510.114, 4441.475
510.596, 4456.634
511.078, 4455.207
511.560, 4447.035
512.042, 4436.366
512.525, 4421.644
513.007, 4396.751
513.489, 4362.443
513.971, 4333.257
514.453, 4322.326
514.935, 4327.230
515.417, 4323.606
515.899, 4300.638
516.382, 4282.708
516.864, 4277.708
517.346, 4275.628
517.828, 4267.321
518.310, 4251.547
518.792, 4233.738
519.274, 4216.745
519.756, 4201.350
520.239, 4192.953
520.721, 4194.614
521.203, 4189.561
521.685, 4168.390
522.167, 4135.409
522.649, 4099.702
523.131, 4058.649
523.613, 4022.427
524.096, 3995.109
524.578, 3973.718
525.060, 3957.261
525.542, 3944.413
526.024, 3931.178
526.506, 3914.792
526.988, 3895.533
527.470, 3873.947
527.952, 3846.653
528.435, 3823.440
528.917, 3807.719
529.399, 3794.412
529.881, 3781.327
530.363, 3767.579
530.845, 3751.233
531.327, 3729.459
531.809, 3705.027
532.291, 3681.976
532.774, 3660.289
533.256, 3643.138
533.738, 3633.314
534.220, 3626.814
534.702, 3617.171
535.184, 3605.207
535.666, 3587.508
536.148, 3550.537
536.630, 3518.974
537.113, 3516.930
537.595, 3534.632
538.077, 3544.236
538.559, 3530.233
539.041, 3503.063
539.523, 3485.178
540.005, 3479.218
540.487, 3471.762
540.969, 3462.114
541.452, 3449.637
541.934, 3431.891
542.416, 3411.041
542.898, 3393.564
543.380, 3385.481
543.862, 3377.752
544.344, 3358.574
544.826, 3333.042
545.309, 3317.899
545.791, 3318.649
546.273, 3323.520
546.755, 3317.841
547.237, 3299.395
547.719, 3286.850
548.201, 3287.611
548.683, 3285.159
549.166, 3269.646
549.648, 3250.152
550.130, 3240.311
550.612, 3243.829
551.094, 3248.444
551.576, 3238.746
552.058, 3217.302
552.540, 3201.808
553.023, 3194.348
553.505, 3188.745
553.987, 3181.981
554.469, 3174.307
554.951, 3166.817
555.433, 3161.353
555.915, 3152.574
556.397, 3135.051
556.879, 3115.740
557.362, 3102.462
557.844, 3095.364
558.326, 3089.959
558.808, 3083.406
559.290, 3075.086
559.772, 3060.771
560.254, 3034.233
560.736, 3016.274
561.218, 3020.059
561.701, 3026.745
562.183, 3023.501
562.665, 3010.998
563.147, 2998.633
563.629, 2996.236
564.111, 2992.115
564.593, 2965.542
565.075, 2923.344
565.557, 2899.720
566.040, 2909.955
566.522, 2926.921
567.004, 2908.252
567.486, 2838.714
567.968, 2795.919
568.450, 2798.120
568.932, 2803.182
569.414, 2794.928
569.896, 2780.040
570.379, 2769.575
570.861, 2767.256
571.343, 2768.419
571.825, 2769.635
572.307, 2770.297
572.789, 2766.022
573.271, 2755.324
573.753, 2745.188
574.236, 2741.861
574.718, 2742.115
575.200, 2734.853
575.682, 2714.274
576.164, 2696.820
576.646, 2687.367
577.128, 2681.896
577.610, 2676.744
578.093, 2671.852
578.575, 2669.529
579.057, 2671.898
579.539, 2676.818
580.021, 2678.290
580.503, 2676.412
580.985, 2670.590
581.467, 2659.626
581.950, 2645.473
582.432, 2627.843
582.914, 2607.947
583.396, 2592.270
583.878, 2583.157
584.360, 2578.250
584.842, 2577.290
585.324, 2578.985
585.806, 2583.565
586.289, 2590.574
586.771, 2590.275
587.253, 2568.298
587.735, 2522.919
588.217, 2495.436
588.699, 2500.498
589.181, 2502.973
589.663, 2489.653
590.145, 2471.888
590.628, 2463.262
591.110, 2465.856
591.592, 2465.501
592.074, 2450.292
592.556, 2427.958
593.038, 2412.170
593.520, 2402.362
594.002, 2385.978
594.484, 2354.799
594.967, 2319.386
595.449, 2302.163
595.931, 2318.095
596.413, 2315.840
596.895, 2280.615
597.377, 2244.503
597.859, 2219.517
598.341, 2204.781
598.823, 2199.293
599.306, 2204.278
599.788, 2206.787
600.270, 2188.778
600.752, 2155.506
601.234, 2128.707
601.716, 2111.437
602.198, 2097.473
602.680, 2084.494
603.162, 2071.088
603.645, 2050.617
604.127, 2011.360
604.609, 1982.636
605.091, 1976.125
605.573, 1974.207
606.055, 1965.028
606.537, 1947.858
607.019, 1925.481
607.502, 1898.055
607.984, 1870.063
608.466, 1852.161
608.948, 1844.436
609.430, 1828.563
609.912, 1796.799
610.394, 1764.658
610.876, 1746.647
611.359, 1741.696
611.841, 1735.874
612.323, 1730.786
612.805, 1722.472
613.287, 1708.027
613.769, 1690.606
614.251, 1672.242
614.733, 1654.145
615.216, 1639.305
615.698, 1631.751
616.180, 1627.993
616.662, 1613.222
617.144, 1583.907
617.626, 1562.872
618.108, 1561.767
618.590, 1565.455
619.072, 1557.341
619.555, 1538.343
620.037, 1518.321
620.519, 1495.726
621.001, 1475.900
621.483, 1462.178
621.965, 1452.909
622.447, 1448.502
622.929, 1447.756
623.411, 1441.837
623.894, 1418.107
624.376, 1379.828
624.858, 1359.146
625.340, 1364.337
625.822, 1363.069
626.304, 1337.183
626.786, 1305.049
627.268, 1289.646
627.750, 1291.913
628.233, 1291.224
628.715, 1281.580
629.197, 1267.663
629.679, 1250.188
630.161, 1231.431
