##NAMES=Stibivanite
##RRUFFID=R080125
##IDEAL CHEMISTRY=Sb^3+^_2_V^4+^O_5_
##LOCALITY=Consolidated Durham mines, Lake George, York County, New Brunswick, Canada
##OWNER=RRUFF
##SOURCE=William W. Pinch
##DESCRIPTION=Elongated sprays of green crystals on quartz
##STATUS=The identification of this mineral has been confirmed by single-crystal X-ray diffraction.
##URL=rruff.info/R080125
##MEASURED CHEMISTRY=Sb^3+^_2.03_V^4+^_0.98_O_5_
93.30109, 0.0000000E+00
93.78320, 180.4311
94.26532, 182.9799
94.74744, 183.6509
95.22955, 181.9674
95.71167, 179.3879
96.19379, 177.1769
96.67590, 175.8532
97.15802, 174.4815
97.64014, 173.2436
98.12225, 171.8397
98.60437, 169.5836
99.08649, 165.9608
99.56860, 161.9772
100.0507, 159.1065
100.5328, 157.1499
101.0150, 155.6147
101.4971, 154.0788
101.9792, 152.4993
102.4613, 151.5826
102.9434, 151.7654
103.4255, 152.6242
103.9077, 153.9931
104.3898, 155.8580
104.8719, 158.1012
105.3540, 160.5327
105.8361, 163.3321
106.3182, 166.0170
106.8004, 168.4684
107.2825, 170.7740
107.7646, 173.0310
108.2467, 175.2956
108.7288, 177.5578
109.2109, 179.7043
109.6931, 182.1795
110.1752, 184.1180
110.6573, 184.9577
111.1394, 184.9831
111.6215, 184.9116
112.1036, 185.3191
112.5858, 186.2590
113.0679, 187.7102
113.5500, 189.6345
114.0321, 192.0130
114.5142, 194.8987
114.9964, 198.2980
115.4785, 202.0272
115.9606, 205.8490
116.4427, 209.7473
116.9248, 214.0463
117.4069, 218.9382
117.8891, 224.2665
118.3712, 229.8203
118.8533, 235.6672
119.3354, 241.5289
119.8175, 247.0476
120.2996, 252.2801
120.7818, 257.6425
121.2639, 263.5854
121.7460, 270.1387
122.2281, 276.4310
122.7102, 282.5211
123.1923, 288.1190
123.6745, 292.8490
124.1566, 296.6973
124.6387, 300.1086
125.1208, 303.8201
125.6029, 308.2749
126.0850, 312.0289
126.5672, 316.0288
127.0493, 318.9263
127.5314, 320.0641
128.0135, 319.1311
128.4956, 315.6457
128.9777, 308.0698
129.4599, 293.4498
129.9420, 277.6461
130.4241, 259.6550
130.9062, 240.8977
131.3883, 223.1877
131.8704, 207.3394
132.3526, 193.4442
132.8347, 181.7702
133.3168, 172.1142
133.7989, 164.1901
134.2810, 158.1792
134.7632, 153.9230
135.2453, 150.6397
135.7274, 147.9202
136.2095, 145.8702
136.6916, 144.4915
137.1737, 144.1083
137.6559, 144.1990
138.1380, 144.2684
138.6201, 144.3086
139.1022, 144.3651
139.5843, 144.3300
140.0664, 144.3422
140.5486, 144.6542
141.0307, 145.4720
141.5128, 146.6489
141.9949, 147.7113
142.4770, 148.4500
142.9591, 149.4175
143.4413, 151.0740
143.9234, 153.0862
144.4055, 154.8515
144.8876, 155.8709
145.3697, 156.1383
145.8518, 156.5158
146.3340, 157.3694
146.8161, 158.0065
147.2982, 158.2302
147.7803, 158.0418
148.2624, 157.5376
148.7445, 156.8110
149.2267, 155.8940
149.7088, 154.5750
150.1909, 153.4765
150.6730, 151.6255
151.1551, 148.2736
151.6372, 143.4090
152.1194, 137.7525
152.6015, 132.0659
153.0836, 126.2285
153.5657, 120.9043
154.0478, 116.3053
154.5299, 112.1075
155.0121, 107.9043
155.4942, 103.5690
155.9763, 99.53020
156.4584, 96.63675
156.9405, 94.91162
157.4226, 93.35236
157.9048, 91.40625
158.3869, 89.45045
158.8690, 88.37361
159.3511, 88.64507
159.8332, 89.52837
160.3153, 90.14468
160.7975, 90.50027
161.2796, 90.70937
161.7617, 90.78747
162.2438, 90.74631
162.7259, 90.73093
163.2081, 90.75638
163.6902, 90.84173
164.1723, 90.99722
164.6544, 91.22552
165.1365, 91.51440
165.6186, 91.90849
166.1008, 92.47130
166.5829, 92.84074
167.0650, 92.60054
167.5471, 92.38110
168.0292, 92.62071
168.5113, 93.41860
168.9935, 94.49740
169.4756, 95.40479
169.9577, 96.06604
170.4398, 96.68845
170.9219, 97.12936
171.4040, 97.62515
171.8862, 98.41881
172.3683, 99.59098
172.8504, 100.9745
173.3325, 102.1877
173.8146, 103.2216
174.2967, 104.0396
174.7789, 104.4818
175.2610, 104.7620
175.7431, 105.1619
176.2252, 105.8223
176.7073, 106.6041
177.1894, 107.0288
177.6716, 106.6838
178.1537, 106.5283
178.6358, 106.8905
179.1179, 107.5607
179.6000, 108.1902
180.0821, 108.6623
180.5643, 108.8925
181.0464, 108.6683
181.5285, 108.0286
182.0106, 106.9976
182.4927, 105.5765
182.9748, 103.7704
183.4570, 101.5516
183.9391, 98.71056
184.4212, 95.54726
184.9033, 92.73015
185.3854, 90.30457
185.8675, 88.16515
186.3497, 86.20128
186.8318, 84.40860
187.3139, 82.94937
187.7960, 82.12780
188.2781, 81.59450
188.7602, 80.95835
189.2424, 80.08330
189.7245, 79.22058
190.2066, 78.76739
190.6887, 78.86692
191.1708, 78.85014
191.6530, 78.25179
192.1351, 77.53667
192.6172, 77.13892
193.0993, 77.24345
193.5814, 77.60999
194.0635, 77.73353
194.5457, 77.41561
195.0278, 77.25427
195.5099, 77.43970
195.9920, 77.78590
196.4741, 78.14560
196.9562, 78.45911
197.4384, 78.69788
197.9205, 78.74773
198.4026, 78.18229
198.8847, 78.04056
199.3668, 78.75693
199.8489, 79.83158
200.3311, 80.69478
200.8132, 81.05471
201.2953, 81.04781
201.7774, 81.20982
202.2595, 81.73647
202.7416, 82.22752
203.2238, 82.72901
203.7059, 83.15530
204.1880, 83.31297
204.6701, 83.06437
205.1522, 82.59286
205.6343, 82.74912
206.1165, 84.15943
206.5986, 85.41019
207.0807, 86.10665
207.5628, 86.44251
208.0449, 86.77433
208.5270, 87.27742
209.0092, 87.92556
209.4913, 88.60959
209.9734, 89.45923
210.4555, 90.18853
210.9376, 90.61198
211.4197, 90.82170
211.9019, 91.07230
212.3840, 91.48311
212.8661, 92.02578
213.3482, 92.63616
213.8303, 93.53743
214.3124, 94.16322
214.7946, 94.04813
215.2767, 93.30781
215.7588, 92.57764
216.2409, 92.17044
216.7230, 91.90816
217.2052, 91.44531
217.6873, 90.71845
218.1694, 89.92347
218.6515, 89.28323
219.1336, 88.78146
219.6157, 88.03744
220.0979, 86.69807
220.5800, 85.16253
221.0621, 83.87029
221.5442, 82.89548
222.0263, 82.05165
222.5084, 81.13940
222.9906, 80.13680
223.4727, 79.26136
223.9548, 78.54517
224.4369, 78.02412
224.9190, 77.82152
225.4011, 77.97407
225.8833, 78.17946
226.3654, 78.05498
226.8475, 77.52992
227.3296, 77.01561
227.8117, 76.53774
228.2938, 76.13590
228.7760, 75.84716
229.2581, 75.67715
229.7402, 75.60903
230.2223, 75.67456
230.7044, 75.98524
231.1865, 76.06429
231.6687, 75.67320
232.1508, 75.18748
232.6329, 74.79835
233.1150, 74.55482
233.5971, 74.43297
234.0792, 74.43462
234.5614, 74.67971
235.0435, 74.74336
235.5256, 74.46464
236.0077, 74.14178
236.4898, 73.89822
236.9719, 73.78555
237.4541, 73.85127
237.9362, 74.21436
238.4183, 75.15005
238.9004, 75.68690
239.3825, 75.58585
239.8646, 75.34091
240.3468, 75.28922
240.8289, 75.46216
241.3110, 75.62963
241.7931, 75.46407
242.2752, 74.68950
242.7573, 74.42551
243.2395, 74.87162
243.7216, 75.59139
244.2037, 76.42554
244.6858, 77.29719
245.1679, 78.08092
245.6501, 78.63403
246.1322, 78.90526
246.6143, 79.09195
247.0964, 79.18539
247.5785, 79.21251
248.0606, 79.10144
248.5428, 78.88871
249.0249, 78.80031
249.5070, 79.09058
249.9891, 79.84286
250.4712, 80.40444
250.9533, 80.58405
251.4355, 80.73532
251.9176, 81.13511
252.3997, 81.77723
252.8818, 82.42158
253.3639, 82.84638
253.8460, 83.04947
254.3282, 83.38515
254.8103, 84.03574
255.2924, 84.67278
255.7745, 85.02686
256.2566, 85.11329
256.7387, 85.15836
257.2209, 85.25951
257.7030, 85.46768
258.1851, 85.93227
258.6672, 86.87728
259.1493, 87.89381
259.6314, 88.72926
260.1136, 89.38818
260.5957, 89.94210
261.0778, 90.41567
261.5599, 90.81022
262.0420, 91.15516
262.5241, 91.28356
263.0063, 91.55926
263.4884, 92.29677
263.9705, 93.45602
264.4526, 94.71880
264.9347, 96.06325
265.4168, 97.32361
265.8990, 98.17455
266.3811, 98.40815
266.8632, 98.69521
267.3453, 99.51893
267.8274, 100.8351
268.3095, 102.3376
268.7917, 103.9966
269.2738, 105.7286
269.7559, 107.3702
270.2380, 108.8869
270.7201, 110.4927
271.2022, 112.4526
271.6844, 114.6909
272.1665, 116.7013
272.6486, 118.2447
273.1307, 119.6140
273.6128, 121.0625
274.0949, 122.6017
274.5771, 124.2996
275.0592, 126.2381
275.5413, 128.3980
276.0234, 130.6342
276.5055, 132.9134
276.9876, 135.3069
277.4698, 137.8792
277.9519, 140.6022
278.4340, 143.3595
278.9161, 146.1738
279.3982, 148.9881
279.8803, 151.5850
280.3625, 153.8404
280.8446, 156.0220
281.3267, 158.0991
281.8088, 160.2060
282.2909, 162.7119
282.7730, 166.1241
283.2552, 170.0656
283.7373, 173.2349
284.2194, 175.3115
284.7015, 177.1787
285.1836, 179.2549
285.6658, 181.4347
286.1479, 183.5700
286.6300, 185.5689
287.1121, 187.4918
287.5942, 189.5221
288.0764, 191.8247
288.5585, 193.8304
289.0406, 195.2764
289.5227, 196.3731
290.0048, 197.3120
290.4869, 198.1802
290.9691, 198.8902
291.4512, 199.2395
291.9333, 199.0954
292.4154, 199.0158
292.8975, 199.4575
293.3796, 199.8436
293.8618, 199.7099
294.3439, 198.9390
294.8260, 197.7751
295.3081, 196.4891
295.7902, 195.0701
296.2723, 193.5901
296.7545, 192.3185
297.2366, 190.7943
297.7187, 188.6599
298.2008, 185.9218
298.6829, 182.9360
299.1650, 180.0956
299.6472, 177.4211
300.1293, 174.6234
300.6114, 171.6180
301.0935, 168.5514
301.5756, 165.4317
302.0577, 162.3048
302.5399, 159.2396
303.0220, 156.3320
303.5041, 153.5792
303.9862, 150.7746
304.4683, 147.8242
304.9504, 144.9304
305.4326, 142.1711
305.9147, 139.5184
306.3968, 136.8990
306.8789, 134.2389
307.3610, 131.5940
307.8431, 129.2955
308.3253, 127.6765
308.8074, 125.8816
309.2895, 123.5356
309.7716, 120.9490
310.2537, 118.5235
310.7358, 116.4306
311.2180, 114.5432
311.7001, 112.5790
312.1822, 110.3934
312.6643, 108.4252
313.1464, 106.9720
313.6285, 105.6071
314.1107, 103.9152
314.5928, 101.7959
315.0749, 99.57800
315.5570, 97.79439
316.0391, 96.61480
316.5212, 95.25124
317.0034, 93.30837
317.4855, 91.39335
317.9676, 89.87522
318.4497, 88.76187
318.9318, 87.79313
319.4139, 86.71713
319.8961, 85.52128
320.3782, 84.36044
320.8603, 83.06414
321.3424, 81.99007
321.8245, 81.37265
322.3066, 81.09733
322.7888, 80.87840
323.2709, 80.53784
323.7530, 80.07994
324.2351, 79.52615
324.7172, 78.69434
325.1993, 78.03060
325.6815, 77.81322
326.1636, 77.78922
326.6457, 77.56719
327.1278, 76.91579
327.6099, 76.06733
328.0920, 75.63542
328.5742, 75.90517
329.0563, 75.97148
329.5384, 75.42305
330.0205, 74.71489
330.5026, 74.27836
330.9847, 74.23375
331.4669, 74.28552
331.9490, 73.96860
332.4311, 73.15903
332.9132, 72.52769
333.3953, 72.29420
333.8774, 72.18044
334.3596, 72.09671
334.8417, 72.01318
335.3238, 71.88147
335.8059, 71.62558
336.2880, 71.24244
336.7701, 70.92273
337.2523, 70.58852
337.7344, 70.43043
338.2165, 70.66909
338.6986, 71.14387
339.1807, 71.48308
339.6628, 71.40750
340.1450, 71.03527
340.6271, 70.82266
341.1092, 70.86569
341.5913, 70.88494
342.0735, 70.74499
342.5556, 70.53299
343.0377, 70.34534
343.5198, 70.21228
344.0019, 70.13371
344.4840, 70.12493
344.9662, 70.20433
345.4483, 70.27232
345.9304, 70.43444
346.4125, 70.48794
346.8946, 70.19076
347.3767, 69.50825
347.8589, 68.81965
348.3410, 68.53211
348.8231, 68.63305
349.3052, 68.65627
349.7873, 68.46232
350.2694, 68.26205
350.7516, 68.23593
351.2337, 68.34203
351.7158, 68.39711
352.1979, 68.28137
352.6800, 68.02916
353.1621, 67.71611
353.6443, 67.25777
354.1264, 66.93951
354.6085, 67.09515
355.0906, 67.46519
355.5727, 67.63254
356.0548, 67.39251
356.5370, 66.97423
357.0191, 66.64116
357.5012, 66.39153
357.9833, 66.27701
358.4654, 66.49110
358.9475, 66.75077
359.4297, 66.65341
359.9118, 66.07515
360.3939, 65.56516
360.8760, 65.68252
361.3581, 66.27636
361.8402, 66.54051
362.3224, 66.15640
362.8045, 65.59644
363.2866, 65.35075
363.7687, 65.38896
364.2508, 65.47726
364.7329, 65.54514
365.2151, 65.59846
365.6972, 65.65494
366.1793, 65.72138
366.6614, 65.75710
367.1435, 65.69667
367.6256, 65.57944
368.1078, 65.52949
368.5899, 65.69450
369.0720, 65.82265
369.5541, 65.59798
370.0362, 65.09001
370.5183, 64.78130
371.0005, 64.95344
371.4826, 65.41865
371.9647, 65.76540
372.4468, 66.02781
372.9289, 66.11288
373.4110, 65.80601
373.8932, 65.32819
374.3753, 65.14936
374.8574, 65.42807
375.3395, 65.78853
375.8216, 65.31220
376.3037, 65.79911
376.7859, 66.07910
377.2680, 66.16331
377.7501, 65.46529
378.2322, 65.77734
378.7143, 65.68460
379.1964, 65.57527
379.6786, 66.02949
380.1607, 65.44524
380.6428, 65.89052
381.1249, 65.92484
381.6070, 66.14723
382.0891, 65.96235
382.5713, 65.90326
383.0534, 66.25159
383.5355, 66.37433
384.0176, 66.14256
384.4997, 66.37691
384.9818, 65.77843
385.4640, 65.91079
385.9461, 66.35845
386.4282, 66.14716
386.9103, 66.38895
387.3924, 66.45819
387.8745, 65.74319
388.3567, 66.39207
388.8388, 66.45110
389.3209, 65.90075
389.8030, 66.04873
390.2851, 66.23272
390.7672, 66.34492
391.2494, 66.40737
391.7315, 66.48295
392.2136, 66.60834
392.6957, 66.77390
393.1778, 66.94228
393.6599, 67.13158
394.1421, 67.29578
394.6242, 67.43681
395.1063, 67.55016
395.5884, 67.63977
396.0706, 67.70319
396.5527, 67.71703
397.0348, 67.60616
397.5169, 67.28313
397.9990, 67.18698
398.4811, 67.54660
398.9633, 67.93142
399.4454, 68.18721
399.9275, 68.32627
400.4096, 68.42667
400.8917, 68.54168
401.3738, 68.65860
401.8560, 68.70356
402.3381, 68.58405
402.8202, 68.57458
403.3023, 68.79379
403.7844, 69.13333
404.2665, 69.50481
404.7487, 69.88674
405.2308, 70.24741
405.7129, 70.56025
406.1950, 70.83001
406.6771, 70.99246
407.1592, 70.89064
407.6414, 70.83057
408.1235, 71.06785
408.6056, 71.55926
409.0877, 72.04909
409.5698, 72.44959
410.0519, 72.73506
410.5341, 72.76379
411.0162, 72.42954
411.4983, 72.23874
411.9804, 72.68760
412.4625, 73.44160
412.9446, 73.92419
413.4268, 73.90482
413.9089, 73.83308
414.3910, 74.07195
414.8731, 74.57240
415.3552, 75.12785
415.8373, 75.73093
416.3195, 76.26318
416.8016, 76.51118
417.2837, 76.47437
417.7658, 76.41240
418.2479, 76.35674
418.7300, 76.33109
419.2122, 76.37963
419.6943, 76.50315
420.1764, 76.61754
420.6585, 76.61160
421.1406, 76.52529
421.6227, 76.73657
422.1049, 77.54904
422.5870, 78.29768
423.0691, 78.76933
423.5512, 78.98875
424.0333, 78.94060
424.5154, 78.60425
424.9976, 78.18932
425.4797, 78.09171
425.9618, 78.47776
426.4439, 78.88231
426.9260, 79.47916
427.4081, 79.96438
427.8903, 79.98032
428.3724, 79.62277
428.8545, 79.39750
429.3366, 79.77146
429.8187, 80.70147
430.3008, 81.17549
430.7830, 80.47918
431.2651, 80.10900
431.7472, 80.50461
432.2293, 81.27612
432.7114, 81.92636
433.1935, 82.27303
433.6757, 82.54386
434.1578, 83.18773
434.6399, 84.41964
435.1220, 85.25237
435.6041, 85.15749
436.0862, 85.02147
436.5684, 85.23676
437.0505, 85.78287
437.5326, 86.47661
438.0147, 87.27004
438.4968, 88.09058
438.9789, 88.60979
439.4611, 88.62455
439.9432, 88.85281
440.4253, 89.86885
440.9074, 91.13017
441.3895, 92.07666
441.8716, 92.57668
442.3538, 92.87458
442.8359, 93.04622
443.3180, 93.15111
443.8001, 93.56966
444.2822, 94.48176
444.7643, 95.53410
445.2465, 96.44814
445.7286, 97.23758
446.2107, 97.85989
446.6928, 98.26597
447.1749, 98.52688
447.6570, 98.63150
448.1392, 98.60884
448.6213, 98.71728
449.1034, 99.16050
449.5855, 99.76384
450.0677, 100.0135
450.5498, 99.74983
451.0319, 99.54206
451.5140, 99.57488
451.9961, 99.72169
452.4782, 99.77940
452.9604, 99.72506
453.4425, 99.78699
453.9246, 100.2400
454.4067, 101.1464
454.8888, 101.7773
455.3709, 102.1131
455.8531, 102.2496
456.3352, 101.9026
456.8173, 101.4459
457.2994, 101.5333
457.7815, 102.4714
458.2636, 103.8915
458.7458, 105.0201
459.2279, 105.6769
459.7100, 106.4178
460.1921, 107.2507
460.6742, 108.1684
461.1563, 109.1927
461.6385, 110.3064
462.1206, 111.4476
462.6027, 112.5732
463.0848, 113.6865
463.5669, 114.8326
464.0490, 116.1044
464.5312, 117.1971
465.0133, 117.6897
465.4954, 118.1180
465.9775, 119.1548
466.4596, 121.0047
466.9417, 122.8426
467.4239, 123.7896
467.9060, 123.9841
468.3881, 124.4013
468.8702, 125.2764
469.3523, 126.2133
469.8344, 126.8483
470.3166, 127.2736
470.7987, 127.7326
471.2808, 128.2473
471.7629, 128.8533
472.2450, 129.7909
472.7271, 130.9299
473.2093, 131.5136
473.6914, 131.0800
474.1735, 130.1961
474.6556, 130.0834
475.1377, 131.1472
475.6198, 131.5060
476.1020, 130.3781
476.5841, 128.7734
477.0662, 127.5636
477.5483, 126.7998
478.0304, 126.0644
478.5125, 125.0636
478.9947, 123.8033
479.4768, 122.3794
479.9589, 120.5810
480.4410, 118.8518
480.9231, 117.3427
481.4052, 115.8779
481.8874, 114.2954
482.3695, 112.5458
482.8516, 110.6830
483.3337, 108.7067
483.8158, 106.5660
484.2979, 104.7584
484.7801, 103.6097
485.2622, 102.4399
485.7443, 100.9005
486.2264, 99.21806
486.7085, 97.78346
487.1906, 96.78703
487.6728, 95.99654
488.1549, 95.08002
488.6370, 94.03188
489.1191, 92.93459
489.6012, 91.70663
490.0833, 90.54820
490.5655, 89.64401
491.0476, 88.96577
491.5297, 88.33050
492.0118, 87.70035
492.4939, 87.05282
492.9760, 86.31947
493.4582, 85.50722
493.9403, 84.81175
494.4224, 84.37242
494.9045, 84.07755
495.3866, 83.63832
495.8687, 82.98949
496.3509, 82.38327
496.8330, 81.88841
497.3151, 81.45683
497.7972, 81.07069
498.2793, 80.71184
498.7614, 80.29590
499.2436, 79.72112
499.7257, 79.01154
500.2078, 78.57980
500.6899, 78.74519
501.1720, 78.80200
501.6541, 78.58110
502.1363, 78.22443
502.6184, 77.83615
503.1005, 77.46583
503.5826, 77.20042
504.0647, 77.20154
504.5468, 77.51240
505.0290, 77.65162
505.5111, 77.46931
505.9932, 77.29803
506.4753, 77.30122
506.9575, 77.39231
507.4396, 77.41652
507.9217, 77.29524
508.4038, 77.16434
508.8859, 77.30215
509.3680, 77.67661
509.8502, 77.66589
510.3323, 76.96410
510.8144, 76.11182
511.2965, 75.64394
511.7786, 75.50111
512.2607, 75.38835
512.7429, 75.20109
513.2250, 75.04044
513.7071, 74.97901
514.1892, 75.01743
514.6713, 75.20004
515.1534, 75.60116
515.6356, 75.99623
516.1177, 75.89943
516.5998, 74.89315
517.0819, 74.34003
517.5640, 74.65382
518.0461, 75.12150
518.5283, 75.33769
519.0104, 75.26862
519.4925, 74.94237
519.9746, 74.33330
520.4567, 73.60571
520.9388, 73.41212
521.4210, 74.13754
521.9031, 74.68311
522.3852, 74.91257
522.8673, 74.94945
523.3494, 74.76688
523.8315, 74.43488
524.3137, 74.20913
524.7958, 74.31990
525.2779, 74.68789
525.7600, 75.08028
526.2421, 75.54704
526.7242, 75.84132
527.2064, 75.68281
527.6885, 75.38142
528.1706, 75.36377
528.6527, 75.71714
529.1348, 76.02971
529.6169, 75.99435
530.0991, 75.81861
530.5812, 75.85230
531.0633, 76.13683
531.5454, 76.50835
532.0275, 76.85442
532.5096, 77.18484
532.9918, 77.55995
533.4739, 78.05806
533.9560, 78.49149
534.4381, 78.86866
534.9202, 79.13725
535.4023, 79.14431
535.8845, 78.91549
536.3666, 78.75520
536.8487, 78.99406
537.3308, 79.63072
537.8129, 80.18017
538.2950, 80.84341
538.7772, 81.12491
539.2593, 80.53676
539.7414, 79.72684
540.2235, 79.42716
540.7056, 79.81783
541.1877, 80.40636
541.6699, 80.71532
542.1520, 80.78185
542.6341, 80.87730
543.1162, 81.04707
543.5983, 81.17821
544.0804, 81.17625
544.5626, 81.08801
545.0447, 80.99300
545.5268, 80.89504
546.0089, 80.80387
546.4910, 80.84805
546.9731, 80.87585
547.4553, 80.50814
547.9374, 79.65793
548.4195, 78.76219
548.9016, 78.22903
549.3837, 78.06235
549.8658, 78.01270
550.3480, 78.31475
550.8301, 78.43446
551.3122, 78.07833
551.7943, 77.52420
552.2764, 77.13124
552.7585, 76.98679
553.2407, 76.88951
553.7228, 76.55036
554.2049, 75.93981
554.6870, 75.64245
555.1691, 75.84278
555.6512, 76.10768
556.1334, 76.40984
556.6155, 76.62568
557.0976, 76.53269
557.5797, 76.03057
558.0618, 75.53716
558.5439, 75.49778
559.0261, 75.78942
559.5082, 75.96384
559.9903, 75.96036
560.4724, 75.83203
560.9545, 75.53576
561.4366, 75.13871
561.9188, 74.95876
562.4009, 75.26797
562.8830, 75.45725
563.3651, 75.19273
563.8472, 74.71767
564.3293, 74.27892
564.8115, 73.96334
565.2936, 73.94725
565.7757, 74.49171
566.2578, 75.60244
566.7399, 76.11682
567.2220, 75.39803
567.7042, 74.82638
568.1863, 74.69466
568.6684, 74.78336
569.1505, 74.92054
569.6326, 75.04578
570.1147, 75.08717
570.5969, 74.85994
571.0790, 74.44458
571.5611, 74.43298
572.0432, 75.01583
572.5253, 75.46372
573.0074, 75.20663
573.4896, 74.67294
573.9717, 74.51344
574.4538, 74.85455
574.9359, 75.29190
575.4180, 75.71162
575.9001, 76.07890
576.3823, 76.39087
576.8644, 76.63121
577.3465, 76.61172
577.8286, 76.11422
578.3107, 75.31228
578.7928, 75.06340
579.2750, 75.96145
579.7571, 76.64788
580.2392, 76.99566
580.7213, 77.14968
581.2034, 77.14918
581.6855, 77.05140
582.1677, 77.00407
582.6498, 77.16122
583.1319, 77.40785
583.6140, 77.23377
584.0961, 76.38512
584.5782, 75.99403
585.0604, 76.72671
585.5425, 77.77265
586.0246, 78.56343
586.5067, 79.06728
586.9889, 79.22440
587.4710, 78.68217
587.9531, 77.99602
588.4352, 77.92981
588.9174, 78.37605
