##NAMES=Stibnite
##RRUFFID=R050016
##IDEAL CHEMISTRY=Sb^3+^_2_S^2-^_3_
##LOCALITY=Romania
##OWNER=RRUFF
##SOURCE=Eugene Schlepp
##DESCRIPTION=Group of lead-gray prismatic crystals
##STATUS=The identification of this mineral has been confirmed by X-ray diffraction and chemical analysis
##URL=rruff.info/R050016
##MEASURED CHEMISTRY=(Sb_.996_As_.004_)_2_S_3_
106.577, 995.078
107.059, 1107.366
107.541, 1241.500
108.023, 1391.979
108.506, 1556.757
108.988, 1735.942
109.470, 1935.394
109.952, 2161.586
110.434, 2401.966
110.916, 2650.060
111.398, 2921.930
111.880, 3184.245
112.363, 3425.132
112.845, 3644.219
113.327, 3869.969
113.809, 4105.479
114.291, 4353.813
114.773, 4615.791
115.255, 4895.815
115.737, 5188.996
116.219, 5501.220
116.702, 5844.551
117.184, 6159.103
117.666, 6409.695
118.148, 6617.870
118.630, 6824.665
119.112, 7064.075
119.594, 7302.002
120.076, 7513.479
120.559, 7691.868
121.041, 7843.924
121.523, 7966.434
122.005, 8063.417
122.487, 8155.380
122.969, 8258.825
123.451, 8365.408
123.933, 8463.341
124.415, 8540.274
124.898, 8611.813
125.380, 8698.023
125.862, 8799.398
126.344, 8902.256
126.826, 8991.594
127.308, 9071.385
127.790, 9151.952
128.272, 9223.869
128.755, 9300.562
129.237, 9410.685
129.719, 9556.724
130.201, 9732.629
130.683, 9927.286
131.165, 10140.110
131.647, 10388.110
132.129, 10676.190
132.611, 11005.310
133.094, 11378.170
133.576, 11800.230
134.058, 12263.080
134.540, 12733.830
135.022, 13213.730
135.504, 13716.560
135.986, 14262.220
136.468, 14846.770
136.951, 15460.480
137.433, 16109.080
137.915, 16784.279
138.397, 17467.119
138.879, 18171.119
139.361, 18863.920
139.843, 19536.689
140.325, 20205.520
140.807, 20813.359
141.290, 21361.090
141.772, 21855.680
142.254, 22228.340
142.736, 22479.580
143.218, 22605.141
143.700, 22594.480
144.182, 22433.760
144.664, 22155.699
145.146, 21767.850
145.629, 21213.320
146.111, 20642.340
146.593, 20051.820
147.075, 19438.449
147.557, 18832.939
148.039, 18215.340
148.521, 17613.051
149.003, 17033.570
149.486, 16481.199
149.968, 15955.310
150.450, 15447.750
150.932, 14959.550
151.414, 14514.420
151.896, 14121.740
152.378, 13761.760
152.860, 13418.610
153.342, 13082.530
153.824, 12768.670
154.307, 12481.750
154.789, 12220.420
155.271, 11979.450
155.753, 11774.710
156.235, 11587.310
156.717, 11395.120
157.199, 11159.020
157.682, 10942.110
158.164, 10771.710
158.646, 10664.740
159.128, 10567.780
159.610, 10469.360
160.092, 10370.030
160.574, 10274.610
161.056, 10179.310
161.538, 10090.640
162.020, 10012.480
162.503, 9946.702
162.985, 9889.108
163.467, 9844.258
163.949, 9808.423
164.431, 9767.929
164.913, 9711.344
165.395, 9649.754
165.877, 9593.084
166.360, 9546.683
166.842, 9504.852
167.324, 9462.646
167.806, 9421.223
168.288, 9387.615
168.770, 9365.496
169.252, 9354.294
169.734, 9353.169
170.217, 9368.210
170.699, 9389.619
171.181, 9410.452
171.663, 9430.431
172.145, 9448.865
172.627, 9452.164
173.109, 9453.053
173.591, 9477.486
174.073, 9542.237
174.555, 9635.983
175.038, 9743.732
175.520, 9864.482
176.002, 10001.360
176.484, 10150.510
176.966, 10316.320
177.448, 10518.690
177.930, 10785.170
178.413, 11092.310
178.895, 11404.460
179.377, 11718.100
179.859, 12034.040
180.341, 12360.390
180.823, 12699.060
181.305, 13050.250
181.787, 13406.340
182.269, 13775.360
182.751, 14192.010
183.234, 14665.810
183.716, 15184.540
184.198, 15736.050
184.680, 16319.820
185.162, 16882.760
185.644, 17451.619
186.126, 17986.211
186.608, 18325.301
187.091, 18391.750
187.573, 18237.910
188.055, 17991.510
188.537, 17651.510
189.019, 17228.740
189.501, 16757.570
189.983, 16227.200
190.465, 15558.130
190.947, 14636.250
191.430, 13528.200
191.912, 12601.210
192.394, 11873.460
192.876, 11297.930
193.358, 10856.860
193.840, 10552.100
194.322, 10303.780
194.804, 10087.490
195.286, 9903.116
195.769, 9751.642
196.251, 9635.967
196.733, 9544.528
197.215, 9453.104
197.697, 9360.063
198.179, 9282.216
198.661, 9233.740
199.143, 9215.484
199.626, 9192.273
200.108, 9161.618
200.590, 9126.004
201.072, 9086.951
201.554, 9041.706
202.036, 9004.732
202.518, 8986.928
203.000, 8990.255
203.482, 8992.760
203.965, 8990.178
204.447, 8985.987
204.929, 8996.052
205.411, 9026.353
205.893, 9051.983
206.375, 9051.383
206.857, 9017.839
207.339, 8992.814
207.822, 8984.592
208.304, 8989.501
208.786, 8985.664
209.268, 8969.470
209.750, 8953.171
210.232, 8948.623
210.714, 8960.391
211.196, 8968.295
211.678, 8966.638
212.161, 8956.894
212.643, 8958.435
213.125, 8976.872
213.607, 8998.071
214.089, 9005.502
214.571, 8989.899
215.053, 8986.931
215.535, 9008.222
216.018, 9054.194
216.500, 9088.379
216.982, 9103.830
217.464, 9114.249
217.946, 9136.002
218.428, 9173.721
218.910, 9210.488
219.392, 9243.276
219.874, 9272.215
220.357, 9291.165
220.839, 9292.436
221.321, 9290.913
221.803, 9309.546
222.285, 9361.161
222.767, 9407.211
223.249, 9434.125
223.731, 9437.288
224.214, 9445.247
224.696, 9454.724
225.178, 9471.580
225.660, 9506.478
226.142, 9562.939
226.624, 9630.892
227.106, 9710.461
227.588, 9812.763
228.070, 9890.245
228.553, 9930.207
229.035, 9951.426
229.517, 9992.379
229.999, 10060.060
230.481, 10136.780
230.963, 10215.130
231.445, 10292.660
231.927, 10380.050
232.410, 10477.400
232.892, 10584.630
233.374, 10700.700
233.856, 10821.870
234.338, 10957.020
234.820, 11107.980
235.302, 11257.920
235.784, 11461.110
236.266, 11733.050
236.749, 12058.780
237.231, 12371.450
237.713, 12628.920
238.195, 12935.790
238.677, 13345.130
239.159, 13885.390
239.641, 14465.710
240.123, 15088.180
240.605, 15754.880
241.088, 16465.600
241.570, 17227.221
242.052, 18030.850
242.534, 18886.850
243.016, 19869.471
243.498, 20750.350
243.980, 21518.180
244.462, 22174.020
244.945, 22705.939
245.427, 22999.881
245.909, 23310.260
246.391, 23781.189
246.873, 24442.270
247.355, 25211.641
247.837, 26163.439
248.319, 27235.660
248.801, 28120.381
249.284, 28879.070
249.766, 29344.430
250.248, 29401.480
250.730, 28997.971
251.212, 28299.221
251.694, 27262.850
252.176, 25935.900
252.658, 24501.301
253.141, 22846.590
253.623, 21262.980
254.105, 19947.891
254.587, 18960.131
255.069, 18138.400
255.551, 17511.320
256.033, 17053.381
256.515, 16548.141
256.997, 15954.920
257.480, 15368.220
257.962, 14836.220
258.444, 14348.600
258.926, 13940.130
259.408, 13627.000
259.890, 13397.970
260.372, 13175.920
260.854, 12947.580
261.336, 12742.640
261.819, 12582.360
262.301, 12479.750
262.783, 12383.360
263.265, 12280.640
263.747, 12176.560
264.229, 12105.130
264.711, 12078.060
265.193, 12064.500
265.676, 12042.750
266.158, 12012.740
266.640, 11974.610
267.122, 11925.260
267.604, 11867.260
268.086, 11820.230
268.568, 11785.070
269.050, 11758.710
269.532, 11740.670
270.015, 11732.930
270.497, 11725.020
270.979, 11716.360
271.461, 11706.510
271.943, 11690.430
272.425, 11664.120
272.907, 11641.930
273.389, 11638.990
273.871, 11658.970
274.354, 11675.400
274.836, 11684.120
275.318, 11685.870
275.800, 11684.960
276.282, 11681.630
276.764, 11674.240
277.246, 11664.160
277.728, 11652.740
278.211, 11621.830
278.693, 11558.150
279.175, 11475.660
279.657, 11434.520
280.139, 11442.680
280.621, 11456.790
281.103, 11434.750
281.585, 11375.730
282.068, 11338.280
282.550, 11341.160
283.032, 11368.100
283.514, 11366.900
283.996, 11335.230
284.478, 11292.170
284.960, 11249.170
285.442, 11206.180
285.924, 11168.100
286.406, 11135.080
286.889, 11107.380
287.371, 11082.520
287.853, 11059.930
288.335, 11050.720
288.817, 11074.410
289.299, 11124.990
289.781, 11156.440
290.263, 11157.450
290.746, 11139.900
291.228, 11128.820
291.710, 11123.920
292.192, 11111.550
292.674, 11074.680
293.156, 11020.460
293.638, 10977.880
294.120, 10955.090
294.603, 10941.520
295.085, 10919.620
295.567, 10890.420
296.049, 10862.270
296.531, 10851.060
297.013, 10846.000
297.495, 10817.190
297.977, 10756.610
298.459, 10679.920
298.942, 10605.050
299.424, 10531.920
299.906, 10461.420
300.388, 10405.350
300.870, 10349.900
301.352, 10267.860
301.834, 10146.100
302.316, 10018.590
302.798, 9927.589
303.281, 9863.029
303.763, 9787.343
304.245, 9665.531
304.727, 9524.404
305.209, 9404.144
305.691, 9315.496
306.173, 9228.446
306.655, 9112.608
307.138, 8976.965
307.620, 8843.398
308.102, 8720.973
308.584, 8606.284
309.066, 8496.235
309.548, 8391.083
310.030, 8288.969
310.512, 8191.282
310.994, 8095.302
311.477, 7997.900
311.959, 7888.860
312.441, 7783.421
312.923, 7695.613
313.405, 7628.330
313.887, 7565.299
314.369, 7498.089
314.851, 7428.678
315.333, 7359.487
315.816, 7293.332
316.298, 7226.412
316.780, 7153.165
317.262, 7072.079
317.744, 6999.489
318.226, 6942.732
318.708, 6896.821
319.190, 6856.267
319.672, 6823.409
320.155, 6792.161
320.637, 6761.166
321.119, 6730.204
321.601, 6697.653
322.083, 6662.246
322.565, 6625.004
323.047, 6586.800
323.530, 6543.168
324.012, 6503.123
324.494, 6470.167
324.976, 6444.016
325.458, 6416.062
325.940, 6377.033
326.422, 6341.042
326.904, 6317.584
327.386, 6323.406
327.868, 6323.211
328.351, 6311.625
328.833, 6290.283
329.315, 6270.417
329.797, 6252.955
330.279, 6236.522
330.761, 6221.009
331.243, 6213.078
331.725, 6194.966
332.208, 6158.290
332.690, 6110.521
333.172, 6079.645
333.654, 6073.353
334.136, 6073.910
334.618, 6073.947
335.100, 6074.909
335.582, 6071.266
336.065, 6060.479
336.547, 6046.333
337.029, 6038.343
337.511, 6040.059
337.993, 6038.876
338.475, 6027.012
338.957, 6001.580
339.439, 5984.561
339.921, 5977.770
340.404, 5976.681
340.886, 5971.489
341.368, 5960.056
341.850, 5958.898
342.332, 5983.209
342.814, 6030.001
343.296, 6045.676
343.778, 6025.034
344.260, 5991.714
344.743, 5972.100
345.225, 5966.180
345.707, 5967.541
346.189, 5978.209
346.671, 5993.900
347.153, 5998.782
347.635, 5991.777
348.117, 5984.941
348.599, 5995.127
349.082, 6016.455
349.564, 6026.413
350.046, 6014.436
350.528, 5990.805
351.010, 5968.892
351.492, 5949.029
351.974, 5935.130
352.457, 5936.889
352.939, 5945.797
353.421, 5946.479
353.903, 5933.499
354.385, 5914.511
354.867, 5890.602
355.349, 5865.409
355.831, 5852.211
356.313, 5873.918
356.796, 5904.789
357.278, 5916.063
357.760, 5896.416
358.242, 5874.610
358.724, 5864.853
359.206, 5866.301
359.688, 5877.222
360.170, 5899.681
360.652, 5929.234
361.135, 5964.788
361.617, 6007.087
362.099, 6048.767
362.581, 6084.835
363.063, 6119.097
363.545, 6156.490
364.027, 6193.030
364.509, 6237.708
364.991, 6294.617
365.474, 6364.813
365.956, 6439.986
366.438, 6538.634
366.920, 6632.249
367.402, 6697.623
367.884, 6707.669
368.366, 6717.034
368.848, 6735.611
369.331, 6762.556
369.813, 6780.774
370.295, 6799.542
370.777, 6801.879
371.259, 6776.650
371.741, 6712.527
372.223, 6641.290
372.705, 6562.929
373.188, 6478.145
373.670, 6389.271
374.152, 6290.220
374.634, 6198.366
375.116, 6126.617
375.598, 6082.095
376.080, 6023.064
376.562, 5943.665
377.044, 5856.553
377.526, 5787.188
378.009, 5738.602
378.491, 5690.994
378.973, 5634.328
379.455, 5569.796
379.937, 5519.123
380.419, 5483.191
380.901, 5456.748
381.384, 5437.060
381.866, 5423.293
382.348, 5404.382
382.830, 5372.856
383.312, 5335.879
383.794, 5310.556
384.276, 5296.823
384.758, 5290.170
385.240, 5293.390
385.723, 5300.671
386.205, 5296.960
386.687, 5271.799
387.169, 5244.656
387.651, 5241.288
388.133, 5256.797
388.615, 5272.146
389.097, 5277.138
389.579, 5274.947
390.062, 5269.433
390.544, 5261.929
391.026, 5248.689
391.508, 5217.864
391.990, 5180.756
392.472, 5157.158
392.954, 5165.974
393.436, 5182.982
393.918, 5197.681
394.401, 5209.976
394.883, 5214.133
395.365, 5201.381
395.847, 5182.396
396.329, 5167.840
396.811, 5158.697
397.293, 5155.317
397.775, 5164.531
398.258, 5184.903
398.740, 5189.156
399.222, 5151.525
399.704, 5113.993
400.186, 5100.838
400.668, 5141.201
401.150, 5161.401
401.632, 5149.399
402.114, 5116.827
402.597, 5097.034
403.079, 5094.608
403.561, 5097.373
404.043, 5101.177
404.525, 5106.609
405.007, 5110.918
405.489, 5115.028
405.971, 5116.778
406.453, 5109.859
406.936, 5091.721
407.418, 5082.788
407.900, 5093.796
408.382, 5120.231
408.864, 5137.269
409.346, 5144.438
409.828, 5145.142
410.310, 5138.556
410.793, 5126.886
411.275, 5121.734
411.757, 5127.256
412.239, 5138.807
412.721, 5151.602
413.203, 5165.000
413.685, 5173.679
414.167, 5169.230
414.650, 5159.529
415.132, 5156.540
415.614, 5162.292
416.096, 5172.960
416.578, 5191.958
417.060, 5213.500
417.542, 5225.191
418.024, 5213.195
418.506, 5195.994
418.988, 5184.318
419.471, 5178.998
419.953, 5178.532
420.435, 5190.300
420.917, 5203.199
421.399, 5206.735
421.881, 5181.210
422.363, 5164.527
422.845, 5170.825
423.328, 5196.147
423.810, 5216.850
424.292, 5225.956
424.774, 5233.333
425.256, 5243.708
425.738, 5258.636
426.220, 5273.918
426.702, 5289.574
427.185, 5305.556
427.667, 5321.476
428.149, 5337.212
428.631, 5352.629
429.113, 5366.046
429.595, 5376.700
430.077, 5397.284
430.559, 5428.679
431.041, 5467.760
431.524, 5511.565
432.006, 5560.178
432.488, 5612.216
432.970, 5667.414
433.452, 5725.875
433.934, 5786.347
434.416, 5848.827
434.898, 5918.863
435.380, 6003.648
435.863, 6099.262
436.345, 6193.070
436.827, 6282.599
437.309, 6375.298
437.791, 6480.251
438.273, 6596.075
438.755, 6719.101
439.237, 6841.200
439.720, 6973.502
440.202, 7135.822
440.684, 7327.979
441.166, 7511.148
441.648, 7639.727
442.130, 7754.863
442.612, 7897.616
443.094, 8106.130
443.576, 8314.727
444.059, 8505.850
444.541, 8680.623
445.023, 8843.719
445.505, 9003.936
445.987, 9145.418
446.469, 9260.735
446.951, 9354.639
447.433, 9412.423
447.915, 9428.115
448.398, 9410.650
448.880, 9376.272
449.362, 9358.689
449.844, 9264.263
450.326, 9046.832
450.808, 8714.557
451.290, 8448.929
451.772, 8272.205
452.254, 8119.738
452.737, 7941.047
453.219, 7733.728
453.701, 7533.283
454.183, 7338.964
454.665, 7157.838
455.147, 7003.569
455.629, 6876.803
456.112, 6756.901
456.594, 6632.739
457.076, 6507.417
457.558, 6394.984
458.040, 6294.473
458.522, 6204.898
459.004, 6127.850
459.486, 6060.057
459.968, 5993.024
460.451, 5919.733
460.933, 5850.901
461.415, 5799.264
461.897, 5762.100
462.379, 5728.252
462.861, 5695.699
463.343, 5662.408
463.825, 5625.766
464.307, 5581.350
464.790, 5544.370
465.272, 5525.561
465.754, 5515.939
466.236, 5502.812
466.718, 5480.862
467.200, 5458.448
467.682, 5435.958
468.164, 5413.304
468.647, 5396.384
469.129, 5388.390
469.611, 5382.838
470.093, 5375.289
470.575, 5364.884
471.057, 5354.625
471.539, 5344.522
472.021, 5334.780
472.503, 5326.878
472.986, 5321.540
473.468, 5313.384
473.950, 5298.250
474.432, 5277.585
474.914, 5260.556
475.396, 5247.282
475.878, 5237.669
476.360, 5234.497
476.842, 5235.476
477.325, 5233.247
477.807, 5226.040
478.289, 5214.913
478.771, 5196.623
479.253, 5174.141
479.735, 5158.673
480.217, 5161.421
480.699, 5171.219
481.181, 5179.034
481.664, 5183.844
482.146, 5185.813
482.628, 5183.807
483.110, 5179.051
483.592, 5173.000
484.074, 5156.825
484.556, 5148.456
485.039, 5158.972
485.521, 5185.484
486.003, 5199.733
486.485, 5191.513
486.967, 5179.682
487.449, 5172.785
487.931, 5171.761
488.413, 5174.850
488.895, 5187.210
489.378, 5199.291
489.860, 5194.059
490.342, 5167.815
490.824, 5142.198
491.306, 5118.225
491.788, 5100.501
492.270, 5118.818
492.752, 5176.745
493.234, 5230.354
493.717, 5243.951
494.199, 5224.972
494.681, 5191.963
495.163, 5143.109
495.645, 5095.839
496.127, 5073.099
496.609, 5068.435
497.091, 5065.734
497.573, 5053.148
498.056, 5042.546
498.538, 5047.406
499.020, 5067.126
499.502, 5081.583
499.984, 5071.611
500.466, 5058.336
500.948, 5059.536
501.430, 5095.399
501.913, 5120.907
502.395, 5121.753
502.877, 5107.463
503.359, 5098.813
503.841, 5101.336
504.323, 5103.443
504.805, 5104.324
505.287, 5104.526
505.770, 5088.116
506.252, 5043.217
506.734, 5001.402
507.216, 4995.420
507.698, 5030.573
508.180, 5049.433
508.662, 5040.341
509.144, 5019.075
509.626, 5017.905
510.108, 5035.313
510.591, 5051.067
511.073, 5053.682
511.555, 5048.212
512.037, 5043.307
512.519, 5039.178
513.001, 5037.382
513.483, 5040.935
513.966, 5046.950
514.448, 5051.582
514.930, 5053.032
515.412, 5054.101
515.894, 5055.702
516.376, 5057.929
516.858, 5061.101
517.340, 5067.359
517.822, 5072.580
518.305, 5076.758
518.787, 5080.767
519.269, 5075.781
519.751, 5050.397
520.233, 5024.410
520.715, 5013.474
521.197, 5026.952
521.679, 5032.983
522.161, 5026.412
522.644, 5013.315
523.126, 5006.587
523.608, 5006.180
524.090, 5012.990
524.572, 5037.206
525.054, 5070.246
525.536, 5060.859
526.018, 5006.232
526.500, 4951.732
526.983, 4945.104
527.465, 4969.148
527.947, 4984.536
528.429, 4979.854
528.911, 4971.765
529.393, 4977.933
529.875, 4992.232
530.357, 5001.683
530.839, 5000.083
531.322, 4992.139
531.804, 4975.819
532.286, 4951.494
532.768, 4937.190
533.250, 4948.686
533.732, 4964.381
534.214, 4970.228
534.696, 4954.247
535.179, 4945.218
535.661, 4947.086
536.143, 4954.205
536.625, 4956.357
537.107, 4950.625
537.589, 4948.113
538.071, 4953.997
538.553, 4966.157
539.036, 4968.181
539.518, 4958.691
540.000, 4948.637
540.482, 4945.916
540.964, 4949.499
541.446, 4957.550
541.928, 4971.122
542.410, 4982.968
542.892, 4982.868
543.375, 4974.971
543.857, 4968.422
544.339, 4972.176
544.821, 4974.139
545.303, 4962.673
545.785, 4940.699
546.267, 4923.023
546.749, 4919.073
547.231, 4918.589
547.714, 4915.455
548.196, 4906.964
548.678, 4902.299
549.160, 4909.034
549.642, 4916.261
550.124, 4911.875
550.606, 4887.016
551.088, 4868.833
551.570, 4861.837
552.053, 4863.990
552.535, 4869.360
553.017, 4878.397
553.499, 4887.965
553.981, 4897.944
554.463, 4907.510
554.945, 4912.167
555.427, 4911.840
555.909, 4907.116
556.392, 4893.723
556.874, 4877.089
557.356, 4869.774
557.838, 4882.034
558.320, 4890.111
558.802, 4862.407
559.284, 4816.674
559.766, 4791.229
560.249, 4799.539
560.731, 4832.332
561.213, 4909.112
561.695, 5031.201
562.177, 5092.903
562.659, 5019.670
563.141, 4927.081
563.623, 4880.661
564.106, 4907.330
564.588, 4918.322
565.070, 4906.151
565.552, 4885.592
566.034, 4881.044
566.516, 4895.119
566.998, 4904.791
567.480, 4902.451
567.963, 4892.092
568.445, 4882.126
568.927, 4872.899
569.409, 4868.060
569.891, 4873.380
570.373, 4883.582
570.855, 4892.349
571.337, 4899.634
571.819, 4899.181
572.302, 4875.534
572.784, 4846.306
573.266, 4831.249
573.748, 4850.972
574.230, 4867.396
574.712, 4862.294
575.194, 4845.530
575.676, 4842.874
576.158, 4881.531
576.641, 4905.598
577.123, 4894.494
577.605, 4847.417
578.087, 4821.452
578.569, 4821.705
579.051, 4831.983
579.533, 4843.818
580.015, 4857.412
580.497, 4860.210
580.980, 4849.231
581.462, 4833.753
581.944, 4824.977
582.426, 4821.918
582.908, 4821.493
583.390, 4821.918
583.872, 4824.920
584.354, 4834.394
584.836, 4848.445
585.319, 4860.572
585.801, 4868.811
586.283, 4872.822
586.765, 4870.696
587.247, 4860.898
587.729, 4854.281
588.211, 4860.731
588.693, 4866.192
589.176, 4859.074
589.658, 4827.294
590.140, 4805.865
590.622, 4798.150
591.104, 4800.425
591.586, 4807.651
592.068, 4821.104
592.550, 4831.037
593.032, 4833.217
593.515, 4829.977
593.997, 4829.351
594.479, 4831.099
594.961, 4830.074
595.443, 4819.318
595.925, 4804.916
596.407, 4796.391
596.890, 4795.357
597.372, 4794.900
597.854, 4786.937
598.336, 4778.582
598.818, 4777.715
599.300, 4793.365
599.782, 4808.397
600.264, 4820.917
600.746, 4830.193
601.229, 4834.466
601.711, 4831.542
602.193, 4826.504
602.675, 4818.199
603.157, 4807.533
603.639, 4811.055
604.121, 4832.863
604.603, 4853.157
605.085, 4854.021
605.568, 4839.253
606.050, 4835.298
606.532, 4845.305
607.014, 4857.717
607.496, 4859.379
607.978, 4854.671
608.460, 4852.747
608.942, 4861.632
609.424, 4866.053
609.907, 4848.734
610.389, 4819.416
610.871, 4799.722
611.353, 4801.121
611.835, 4809.289
612.317, 4824.012
612.799, 4845.250
613.281, 4852.658
613.763, 4834.206
614.246, 4817.318
614.728, 4821.551
615.210, 4854.999
615.692, 4861.617
616.174, 4833.982
616.656, 4798.798
617.138, 4789.601
617.620, 4802.600
618.103, 4816.460
618.585, 4827.470
619.067, 4833.870
619.549, 4828.246
620.031, 4815.689
620.513, 4809.479
620.995, 4821.410
621.477, 4837.300
621.959, 4847.539
622.442, 4852.564
622.924, 4860.130
623.406, 4882.052
623.888, 4898.904
624.370, 4898.635
624.852, 4874.379
625.334, 4856.064
