##NAMES=Stibiotantalite
##RRUFFID=R050599
##IDEAL CHEMISTRY=Sb^3+^Ta^5+^O_4_
##LOCALITY=Shengus, Pakistan
##OWNER=RRUFF
##SOURCE=Wayne Thompson
##DESCRIPTION=Yellow fragment
##STATUS=The identification of this mineral has been confirmed by X-ray diffraction and chemical analysis
##URL=rruff.info/R050599
##MEASURED CHEMISTRY=Sb_1.00_(Ta_0.88_Nb_0.11_)_Î£=1_O_4_
92.06543, 2144.903
92.54755, 2066.966
93.02966, 2058.332
93.51178, 2155.160
93.99390, 2248.183
94.47601, 2333.569
94.95813, 2406.141
95.44025, 2458.706
95.92236, 2485.592
96.40448, 2484.984
96.88660, 2468.138
97.36871, 2425.698
97.85082, 2379.912
98.33294, 2341.749
98.81506, 2311.173
99.29717, 2288.467
99.77929, 2285.685
100.2614, 2300.684
100.7435, 2332.340
101.2256, 2378.725
101.7078, 2440.316
102.1899, 2518.652
102.6720, 2611.935
103.1541, 2727.796
103.6362, 2865.831
104.1183, 3025.407
104.6005, 3202.979
105.0826, 3400.079
105.5647, 3620.282
106.0468, 3836.864
106.5289, 4069.992
107.0110, 4281.011
107.4931, 4455.279
107.9753, 4588.556
108.4574, 4665.246
108.9395, 4652.843
109.4216, 4519.443
109.9037, 4331.427
110.3858, 4074.820
110.8680, 3782.413
111.3501, 3482.554
111.8322, 3188.457
112.3143, 2904.752
112.7964, 2657.146
113.2785, 2449.770
113.7607, 2268.702
114.2428, 2115.701
114.7249, 1987.741
115.2070, 1876.974
115.6891, 1780.245
116.1712, 1697.915
116.6534, 1621.652
117.1355, 1550.510
117.6176, 1485.186
118.0997, 1426.287
118.5818, 1373.732
119.0639, 1326.896
119.5461, 1286.976
120.0282, 1252.772
120.5103, 1222.714
120.9924, 1197.494
121.4745, 1176.115
121.9566, 1156.285
122.4388, 1138.366
122.9209, 1121.440
123.4030, 1104.345
123.8851, 1087.392
124.3672, 1071.466
124.8493, 1057.224
125.3315, 1044.608
125.8136, 1033.912
126.2957, 1026.728
126.7778, 1020.521
127.2599, 1014.187
127.7420, 1007.703
128.2242, 1001.739
128.7063, 997.3718
129.1884, 995.4938
129.6705, 993.4448
130.1526, 990.7039
130.6347, 988.0741
131.1169, 986.1125
131.5990, 985.0129
132.0811, 984.6584
132.5632, 984.8145
133.0453, 985.6642
133.5274, 986.8651
134.0096, 987.9834
134.4917, 989.5358
134.9738, 992.2952
135.4559, 996.6761
135.9380, 1002.426
136.4201, 1008.598
136.9023, 1014.858
137.3844, 1021.845
137.8665, 1029.958
138.3486, 1039.069
138.8307, 1048.676
139.3128, 1058.490
139.7950, 1068.620
140.2771, 1079.013
140.7592, 1089.536
141.2413, 1100.504
141.7234, 1112.078
142.2055, 1124.096
142.6877, 1137.339
143.1698, 1151.705
143.6519, 1167.567
144.1340, 1185.868
144.6161, 1207.392
145.0982, 1231.362
145.5803, 1255.758
146.0625, 1279.836
146.5446, 1305.716
147.0267, 1333.273
147.5088, 1362.912
147.9909, 1395.516
148.4730, 1432.150
148.9552, 1472.657
149.4373, 1512.073
149.9194, 1547.288
150.4015, 1584.741
150.8836, 1627.366
151.3657, 1673.772
151.8479, 1720.814
152.3300, 1764.928
152.8121, 1805.263
153.2942, 1850.595
153.7763, 1900.880
154.2584, 1954.929
154.7406, 2013.127
155.2227, 2074.918
155.7048, 2139.065
156.1869, 2203.728
156.6690, 2267.498
157.1511, 2339.233
157.6333, 2419.895
158.1154, 2507.664
158.5975, 2599.982
159.0796, 2696.269
159.5617, 2798.840
160.0438, 2911.132
160.5260, 3032.144
161.0081, 3163.372
161.4902, 3302.117
161.9723, 3451.476
162.4544, 3617.492
162.9365, 3800.714
163.4187, 4001.730
163.9008, 4219.285
164.3829, 4451.292
164.8650, 4695.350
165.3471, 4956.144
165.8292, 5230.726
166.3113, 5497.975
166.7935, 5767.034
167.2756, 6011.636
167.7577, 6226.422
168.2398, 6409.862
168.7219, 6540.452
169.2040, 6598.404
169.6862, 6582.736
170.1683, 6500.244
170.6504, 6312.566
171.1325, 6082.371
171.6146, 5825.703
172.0967, 5550.396
172.5789, 5274.191
173.0610, 5019.622
173.5431, 4781.489
174.0252, 4581.805
174.5073, 4416.618
174.9894, 4282.962
175.4716, 4179.874
175.9537, 4107.117
176.4358, 4062.302
176.9179, 4041.619
177.4000, 4055.705
177.8821, 4083.717
178.3643, 4129.729
178.8464, 4186.379
179.3285, 4249.120
179.8106, 4316.273
180.2927, 4383.678
180.7748, 4439.166
181.2570, 4491.822
181.7391, 4521.697
182.2212, 4523.062
182.7033, 4500.688
183.1854, 4458.628
183.6675, 4396.594
184.1497, 4320.778
184.6318, 4249.615
185.1139, 4177.363
185.5960, 4116.021
186.0781, 4068.432
186.5602, 4034.904
187.0423, 4016.914
187.5245, 4016.632
188.0066, 4032.698
188.4887, 4058.689
188.9708, 4098.959
189.4529, 4140.663
189.9350, 4178.482
190.4172, 4211.915
190.8993, 4237.646
191.3814, 4255.913
191.8635, 4262.989
192.3456, 4255.616
192.8277, 4232.357
193.3099, 4196.553
193.7920, 4148.997
194.2741, 4088.459
194.7562, 4024.584
195.2383, 3956.590
195.7204, 3889.111
196.2026, 3826.104
196.6847, 3768.146
197.1668, 3715.440
197.6489, 3667.644
198.1310, 3623.860
198.6131, 3588.310
199.0953, 3561.022
199.5774, 3541.917
200.0595, 3532.344
200.5416, 3532.927
201.0237, 3541.907
201.5058, 3556.025
201.9880, 3578.164
202.4701, 3600.697
202.9522, 3620.343
203.4343, 3640.217
203.9164, 3663.079
204.3985, 3690.119
204.8807, 3721.035
205.3628, 3754.709
205.8449, 3788.094
206.3270, 3829.103
206.8091, 3878.990
207.2912, 3936.040
207.7733, 3999.054
208.2555, 4067.267
208.7376, 4140.259
209.2197, 4216.549
209.7018, 4298.585
210.1839, 4381.523
210.6660, 4468.253
211.1482, 4554.693
211.6303, 4636.208
212.1124, 4710.820
212.5945, 4777.594
213.0766, 4833.622
213.5587, 4881.275
214.0409, 4916.917
214.5230, 4935.811
215.0051, 4942.505
215.4872, 4944.399
215.9693, 4944.580
216.4514, 4943.443
216.9336, 4942.191
217.4157, 4933.977
217.8978, 4933.859
218.3799, 4944.112
218.8620, 4965.851
219.3441, 5002.016
219.8263, 5053.871
220.3084, 5122.227
220.7905, 5206.438
221.2726, 5308.010
221.7547, 5420.175
222.2368, 5545.157
222.7190, 5679.846
223.2011, 5813.143
223.6832, 5945.383
224.1653, 6067.688
224.6474, 6170.573
225.1295, 6257.000
225.6117, 6318.727
226.0938, 6351.782
226.5759, 6356.086
227.0580, 6328.870
227.5401, 6263.650
228.0222, 6166.030
228.5043, 6046.181
228.9865, 5903.009
229.4686, 5746.070
229.9507, 5581.671
230.4328, 5410.200
230.9149, 5236.585
231.3970, 5056.335
231.8792, 4880.456
232.3613, 4716.056
232.8434, 4564.394
233.3255, 4425.105
233.8076, 4297.846
234.2897, 4182.602
234.7719, 4079.698
235.2540, 3988.340
235.7361, 3911.154
236.2182, 3852.799
236.7003, 3813.452
237.1824, 3785.063
237.6646, 3761.773
238.1467, 3745.309
238.6288, 3723.267
239.1109, 3696.397
239.5930, 3661.144
240.0751, 3615.483
240.5573, 3558.910
241.0394, 3491.091
241.5215, 3410.510
242.0036, 3314.366
242.4857, 3215.007
242.9678, 3110.575
243.4500, 3005.116
243.9321, 2898.208
244.4142, 2791.304
244.8963, 2688.288
245.3784, 2593.427
245.8605, 2507.388
246.3427, 2428.201
246.8248, 2357.552
247.3069, 2291.931
247.7890, 2229.681
248.2711, 2170.726
248.7532, 2116.627
249.2354, 2068.703
249.7175, 2028.118
250.1996, 1989.635
250.6817, 1951.143
251.1638, 1916.335
251.6459, 1887.534
252.1281, 1864.335
252.6102, 1844.726
253.0923, 1826.613
253.5744, 1809.858
254.0565, 1796.191
254.5386, 1788.054
255.0208, 1780.124
255.5029, 1770.591
255.9850, 1759.142
256.4671, 1746.070
256.9492, 1731.745
257.4313, 1716.431
257.9135, 1696.496
258.3956, 1670.607
258.8777, 1642.611
259.3598, 1613.578
259.8419, 1583.717
260.3240, 1552.833
260.8062, 1520.674
261.2883, 1487.201
261.7704, 1454.148
262.2525, 1421.852
262.7346, 1389.229
263.2167, 1355.216
263.6989, 1320.417
264.1810, 1286.715
264.6631, 1255.001
265.1452, 1225.379
265.6273, 1198.597
266.1094, 1175.392
266.5916, 1153.639
267.0737, 1132.939
267.5558, 1113.240
268.0379, 1094.418
268.5200, 1076.460
269.0021, 1059.293
269.4843, 1042.447
269.9664, 1025.313
270.4485, 1009.114
270.9306, 994.2247
271.4127, 980.5878
271.8948, 968.1967
272.3770, 957.1425
272.8591, 947.1638
273.3412, 937.4970
273.8233, 928.4684
274.3054, 919.0666
274.7875, 908.5311
275.2697, 897.4835
275.7518, 886.9802
276.2339, 877.2621
276.7160, 868.5508
277.1981, 861.8699
277.6802, 857.5897
278.1623, 852.8019
278.6444, 845.7139
279.1266, 837.7728
279.6087, 831.6158
280.0908, 828.1022
280.5729, 825.7867
281.0550, 822.7841
281.5371, 819.0953
282.0193, 815.5400
282.5014, 812.6290
282.9835, 809.8723
283.4656, 806.2625
283.9477, 801.4404
284.4298, 796.8655
284.9120, 794.3682
285.3941, 793.6719
285.8762, 793.2114
286.3583, 792.5592
286.8404, 792.0250
287.3225, 792.1236
287.8047, 792.9631
288.2868, 793.8221
288.7689, 793.9504
289.2510, 793.5955
289.7331, 793.6629
290.2152, 794.8170
290.6974, 796.1435
291.1795, 796.6746
291.6616, 796.3782
292.1437, 795.8190
292.6258, 795.3106
293.1079, 794.7728
293.5901, 794.0696
294.0722, 793.5148
294.5543, 792.4266
295.0364, 789.9861
295.5185, 786.2513
296.0006, 782.4953
296.4828, 779.5856
296.9649, 776.7871
297.4470, 772.8712
297.9291, 767.5245
298.4112, 761.6991
298.8933, 756.1437
299.3755, 750.7570
299.8576, 744.7616
300.3397, 737.8044
300.8218, 730.1744
301.3039, 722.0968
301.7860, 713.4455
302.2682, 705.4184
302.7503, 698.8272
303.2324, 693.3936
303.7145, 688.1072
304.1966, 682.8281
304.6787, 677.4717
305.1609, 671.7574
305.6430, 665.7307
306.1251, 660.1398
306.6072, 655.5190
307.0893, 651.5328
307.5714, 647.4382
308.0536, 643.0998
308.5357, 638.8246
309.0178, 634.8906
309.4999, 631.2339
309.9820, 627.7455
310.4641, 624.0427
310.9463, 620.6330
311.4284, 618.5313
311.9105, 617.9749
312.3926, 617.5518
312.8747, 616.1683
313.3568, 614.3331
313.8390, 612.9334
314.3211, 612.0132
314.8032, 611.7228
315.2853, 612.3061
315.7674, 613.7715
316.2495, 615.6786
316.7317, 618.0319
317.2138, 620.6402
317.6959, 623.2415
318.1780, 625.9144
318.6601, 628.3231
319.1422, 629.9532
319.6243, 630.9578
320.1064, 632.4318
320.5886, 635.0247
321.0707, 637.8724
321.5528, 639.9750
322.0349, 641.3318
322.5170, 642.2616
322.9991, 642.6011
323.4813, 642.6245
323.9634, 643.3026
324.4455, 645.1845
324.9276, 646.9230
325.4097, 647.0241
325.8918, 645.7709
326.3740, 644.2608
326.8561, 642.5351
327.3382, 640.9039
327.8203, 640.0897
328.3024, 640.3555
328.7845, 640.3600
329.2667, 638.8237
329.7488, 636.2425
330.2309, 633.7883
330.7130, 631.7914
331.1951, 629.9366
331.6772, 627.6785
332.1594, 625.0313
332.6415, 623.0958
333.1236, 622.9467
333.6057, 623.6660
334.0878, 623.1873
334.5699, 620.8017
335.0521, 618.4076
335.5342, 617.1682
336.0163, 616.9395
336.4984, 617.1783
336.9805, 617.9628
337.4626, 618.7650
337.9448, 618.6961
338.4269, 617.6727
338.9090, 616.6307
339.3911, 616.1326
339.8732, 615.8353
340.3553, 615.1895
340.8375, 614.1515
341.3196, 612.5079
341.8017, 609.8903
342.2838, 606.3834
342.7659, 602.3623
343.2480, 598.1874
343.7302, 593.3613
344.2123, 586.9160
344.6944, 578.8391
345.1765, 570.9337
345.6586, 564.5831
346.1407, 559.6415
346.6229, 554.4741
347.1050, 548.5798
347.5871, 542.9460
348.0692, 538.2706
348.5513, 534.4172
349.0334, 530.7516
349.5156, 527.0503
349.9977, 523.3072
350.4798, 519.5204
350.9619, 515.5781
351.4440, 511.8294
351.9261, 508.4858
352.4083, 505.4189
352.8904, 502.3790
353.3725, 499.2927
353.8546, 496.2870
354.3367, 493.4756
354.8188, 490.7788
355.3010, 488.6802
355.7831, 488.6001
356.2652, 488.2868
356.7473, 485.0718
357.2294, 478.8939
357.7115, 472.6622
358.1937, 469.0425
358.6758, 468.1873
359.1579, 466.1982
359.6400, 462.0347
360.1221, 457.8651
360.6042, 454.5012
361.0863, 451.9752
361.5685, 450.3439
362.0506, 449.7271
362.5327, 449.8454
363.0148, 449.5498
363.4969, 448.3746
363.9790, 447.4022
364.4612, 446.7399
364.9433, 446.3776
365.4254, 446.4961
365.9075, 447.1274
366.3896, 447.7666
366.8717, 447.6064
367.3539, 446.3848
367.8360, 444.8378
368.3181, 442.5550
368.8002, 440.2909
369.2823, 438.9238
369.7644, 438.2536
370.2466, 437.0362
370.7287, 433.9739
371.2108, 428.8973
371.6929, 424.9387
372.1750, 423.2238
372.6571, 421.3220
373.1393, 418.3402
373.6214, 414.6875
374.1035, 410.9930
374.5856, 407.5831
375.0677, 404.5810
375.5498, 402.3736
376.0320, 401.1772
376.5141, 400.5653
376.9962, 400.7502
377.4783, 401.2948
377.9604, 401.8990
378.4425, 402.4606
378.9247, 402.9477
379.4068, 403.1273
379.8889, 402.5747
380.3710, 403.2341
380.8531, 406.3390
381.3352, 409.5526
381.8174, 411.7114
382.2995, 413.0578
382.7816, 414.5756
383.2637, 417.0518
383.7458, 420.3337
384.2279, 423.3380
384.7101, 425.9169
385.1922, 428.4268
385.6743, 431.0905
386.1564, 433.7184
386.6385, 436.2009
387.1206, 438.5225
387.6028, 440.4247
388.0849, 441.3343
388.5670, 441.0056
389.0491, 440.8462
389.5312, 441.2970
390.0133, 441.9424
390.4955, 442.7311
390.9776, 443.5903
391.4597, 443.9985
391.9418, 443.2112
392.4239, 441.4862
392.9060, 440.3943
393.3882, 440.2336
393.8703, 440.3950
394.3524, 440.6454
394.8345, 440.8981
395.3166, 440.9262
395.7987, 440.3594
396.2809, 439.7539
396.7630, 440.1309
397.2451, 441.5865
397.7272, 442.5434
398.2093, 441.9322
398.6914, 440.6157
399.1736, 439.8690
399.6557, 439.6674
400.1378, 440.2394
400.6199, 442.3051
401.1020, 445.2619
401.5841, 447.2701
402.0662, 447.6180
402.5483, 447.8087
403.0305, 449.7594
403.5126, 453.3409
403.9947, 456.9665
404.4768, 460.4179
404.9589, 463.7554
405.4410, 466.8024
405.9232, 469.6261
406.4053, 472.9743
406.8874, 477.5548
407.3695, 482.9856
407.8516, 487.4381
408.3337, 490.0760
408.8159, 492.8346
409.2980, 496.8021
409.7801, 501.1754
410.2622, 504.6080
410.7443, 506.6570
411.2264, 507.9066
411.7086, 509.3323
412.1907, 511.2919
412.6728, 512.4314
413.1549, 511.8672
413.6370, 511.2108
414.1191, 511.5711
414.6013, 512.9176
415.0834, 514.6726
415.5655, 516.4872
416.0476, 518.3072
416.5297, 519.0593
417.0118, 517.8344
417.4940, 516.5353
417.9761, 515.3570
418.4582, 514.3154
418.9403, 513.5649
419.4224, 513.1360
419.9045, 512.6043
420.3867, 511.1712
420.8688, 508.5503
421.3509, 505.7966
421.8330, 503.2871
422.3151, 500.4029
422.7972, 496.2332
423.2794, 491.2412
423.7615, 487.0013
424.2436, 484.8913
424.7257, 484.6314
425.2078, 484.2531
425.6899, 483.3645
426.1721, 483.0792
426.6542, 483.9612
427.1363, 485.5134
427.6184, 487.2048
428.1005, 488.8880
428.5826, 490.5791
429.0648, 492.0826
429.5469, 493.3928
430.0290, 495.5262
430.5111, 499.1925
430.9932, 503.2187
431.4753, 506.1749
431.9575, 508.2799
432.4396, 511.3361
432.9217, 517.1507
433.4038, 524.1191
433.8859, 529.4954
434.3680, 533.0332
434.8502, 535.8519
435.3323, 537.9534
435.8144, 540.0283
436.2965, 543.8886
436.7786, 550.7205
437.2607, 557.6309
437.7429, 563.0904
438.2250, 567.4555
438.7071, 571.4199
439.1892, 575.1218
439.6713, 578.8406
440.1534, 583.0305
440.6356, 587.9093
441.1177, 592.2390
441.5998, 595.1517
442.0819, 598.1103
442.5640, 602.6952
443.0461, 608.4523
443.5282, 613.3804
444.0103, 616.0348
444.4925, 616.8195
444.9746, 617.9433
445.4567, 619.9456
445.9388, 621.6182
446.4209, 623.1991
446.9030, 624.1926
447.3852, 623.9800
447.8673, 622.4579
448.3494, 620.2076
448.8315, 617.9859
449.3136, 615.9168
449.7957, 613.2377
450.2779, 610.1946
450.7600, 606.2349
451.2421, 600.6487
451.7242, 594.0392
452.2063, 587.4281
452.6884, 581.3537
453.1706, 575.7609
453.6527, 570.7416
454.1348, 566.5881
454.6169, 562.1588
455.0990, 556.7546
455.5811, 551.2499
456.0633, 546.2942
456.5454, 541.9384
457.0275, 537.6485
457.5096, 532.8489
457.9917, 527.7801
458.4738, 523.2974
458.9560, 519.6091
459.4381, 516.0441
459.9202, 512.0139
460.4023, 507.8161
460.8844, 504.0243
461.3665, 500.9470
461.8487, 498.0118
462.3308, 494.6497
462.8129, 491.0435
463.2950, 487.9498
463.7771, 485.7273
464.2592, 483.7305
464.7414, 481.0093
465.2235, 477.4992
465.7056, 473.7640
466.1877, 469.2823
466.6698, 465.0005
467.1519, 461.6525
467.6341, 459.2188
468.1162, 457.4236
468.5983, 456.1380
469.0804, 455.2791
469.5625, 454.5115
470.0446, 454.2948
470.5268, 453.5826
471.0089, 451.6942
471.4910, 449.6281
471.9731, 448.3196
472.4552, 447.9404
472.9373, 448.0815
473.4195, 448.3635
473.9016, 448.8065
474.3837, 449.1033
474.8658, 449.6494
475.3479, 449.5473
475.8300, 448.1070
476.3122, 446.0033
476.7943, 444.1396
477.2764, 442.8883
477.7585, 442.0323
478.2406, 441.2391
478.7227, 440.4976
479.2049, 439.9549
479.6870, 439.7934
480.1691, 439.6865
480.6512, 439.1924
481.1333, 438.4697
481.6154, 438.2548
482.0976, 439.3217
482.5797, 440.9265
483.0618, 441.8256
483.5439, 441.9911
484.0260, 442.2447
484.5081, 443.0551
484.9902, 444.1600
485.4724, 444.9858
485.9545, 445.4571
486.4366, 445.8953
486.9187, 446.3690
487.4008, 446.8919
487.8829, 447.3604
488.3651, 447.7909
488.8472, 448.6014
489.3293, 450.2370
489.8114, 452.6970
490.2935, 454.7608
490.7756, 456.0737
491.2578, 457.4749
491.7399, 459.7320
492.2220, 462.0122
492.7041, 462.7151
493.1862, 461.4431
493.6683, 460.0782
494.1505, 461.5810
494.6326, 466.8583
495.1147, 471.3875
495.5968, 475.1714
496.0789, 478.1372
496.5610, 479.4506
497.0432, 480.0062
497.5253, 481.6308
498.0074, 485.5039
498.4895, 490.1383
498.9716, 492.3943
499.4537, 491.7552
499.9359, 492.0401
500.4180, 494.5524
500.9001, 497.9967
501.3822, 501.4499
501.8643, 504.8716
502.3464, 508.0794
502.8286, 510.9616
503.3107, 513.6169
503.7928, 516.0763
504.2749, 518.3409
504.7570, 521.0778
505.2391, 525.0057
505.7213, 529.3823
506.2034, 532.0854
506.6855, 532.3973
507.1676, 532.9522
507.6497, 534.5007
508.1318, 536.6219
508.6140, 538.8363
509.0961, 541.0825
509.5782, 543.6508
510.0603, 546.8965
510.5424, 550.7459
511.0245, 553.6443
511.5067, 554.7072
511.9888, 555.8753
512.4709, 557.8226
512.9530, 559.8629
513.4351, 561.0153
513.9172, 561.1264
514.3994, 561.2003
514.8815, 562.6254
515.3636, 565.5605
515.8457, 567.7814
516.3278, 568.7962
516.8099, 569.7455
517.2921, 571.0544
517.7742, 572.6139
518.2563, 574.2732
518.7384, 576.0216
519.2205, 577.7503
519.7026, 579.1174
520.1848, 580.2399
520.6669, 582.1730
521.1490, 585.4513
521.6311, 588.9431
522.1132, 591.1708
522.5953, 592.4325
523.0775, 594.4150
523.5596, 598.1797
524.0417, 602.0435
524.5238, 604.3099
525.0059, 605.6553
525.4880, 608.2470
525.9702, 613.0568
526.4523, 618.8154
526.9344, 623.3519
527.4165, 625.7772
527.8986, 629.2625
528.3807, 634.5889
528.8629, 640.1829
529.3450, 645.2948
529.8271, 649.9537
530.3092, 654.4236
530.7913, 658.8482
531.2734, 663.2038
531.7556, 667.3606
532.2377, 671.0125
532.7198, 675.3123
533.2019, 680.4649
533.6840, 686.2960
534.1661, 693.0748
534.6483, 700.5979
535.1304, 708.1091
535.6125, 715.3874
536.0946, 722.2899
536.5767, 728.4830
537.0588, 733.9311
537.5410, 739.3257
538.0231, 744.6207
538.5052, 750.2943
538.9873, 757.1494
539.4694, 765.3295
539.9515, 773.4919
540.4337, 781.8472
540.9158, 789.6654
541.3979, 795.7632
541.8800, 800.4308
542.3621, 805.4431
542.8442, 811.8986
543.3264, 819.4073
543.8085, 826.6530
544.2906, 833.3711
544.7726, 840.1243
545.2548, 847.3036
545.7369, 854.2129
546.2190, 860.1768
546.7011, 865.3047
547.1832, 870.2737
547.6653, 875.6047
548.1475, 881.0906
548.6296, 885.7412
549.1117, 889.2432
549.5938, 892.7130
550.0759, 896.5523
550.5580, 900.4175
551.0402, 904.0441
551.5223, 907.4140
552.0044, 910.7751
552.4865, 914.3516
552.9686, 917.9960
553.4507, 921.6288
553.9329, 925.2474
554.4150, 928.1454
554.8971, 929.6843
555.3792, 930.4691
555.8613, 932.0590
556.3434, 934.7040
556.8256, 937.3429
557.3077, 938.9744
557.7898, 941.0779
558.2719, 945.3098
558.7540, 951.4676
559.2361, 957.9105
559.7183, 963.5066
560.2004, 968.5339
560.6825, 974.3523
561.1646, 981.1994
561.6467, 988.4176
562.1288, 995.8790
562.6110, 1003.695
563.0931, 1011.691
563.5752, 1020.062
564.0573, 1029.553
564.5394, 1040.672
565.0215, 1053.290
565.5037, 1067.335
565.9858, 1083.076
566.4679, 1098.782
566.9500, 1113.013
567.4321, 1127.657
567.9142, 1145.278
568.3964, 1166.029
568.8785, 1187.261
569.3606, 1207.595
569.8427, 1228.312
570.3248, 1251.246
570.8069, 1275.974
571.2891, 1300.745
571.7712, 1324.256
572.2533, 1347.484
572.7354, 1372.572
573.2175, 1400.596
573.6996, 1428.863
574.1818, 1457.133
574.6639, 1485.949
575.1460, 1515.750
575.6281, 1546.459
576.1102, 1577.163
576.5923, 1607.054
577.0745, 1637.667
577.5566, 1673.481
578.0387, 1715.931
578.5208, 1755.378
579.0029, 1787.295
579.4850, 1818.013
579.9672, 1851.808
580.4493, 1888.402
580.9314, 1926.428
581.4135, 1967.965
581.8956, 2008.573
582.3777, 2043.129
582.8599, 2072.939
583.3420, 2103.301
583.8241, 2135.905
584.3062, 2170.451
584.7883, 2206.916
585.2704, 2246.160
585.7526, 2283.619
586.2347, 2321.442
586.7168, 2355.549
587.1989, 2383.510
587.6810, 2406.830
588.1631, 2428.109
588.6453, 2448.242
589.1274, 2465.938
589.6095, 2479.041
