##NAMES=Stibarsen
##RRUFFID=R070299
##IDEAL CHEMISTRY=SbAs
##LOCALITY=Varutrask, Skelleftea, Vasterbotten, Sweden
##OWNER=RRUFF
##SOURCE=James Shigley
##DESCRIPTION=Grey metallic platy fragment associated with arsenic
##STATUS=The identification of this mineral has been confirmed by X-ray diffraction and chemical analysis
##URL=rruff.info/R070299
##MEASURED CHEMISTRY=gray: (Sb_0.92_As_0.08_)_Σ=1_As_1.00_; black rings: (As_0.98_Sb_0.02_)_Σ=1_ (arsenic)
104.6274, 109.2286
105.1096, 112.8143
105.5917, 118.0616
106.0738, 123.8014
106.5559, 128.3411
107.0380, 131.0409
107.5201, 132.6827
108.0023, 134.4521
108.4844, 135.9930
108.9665, 138.5693
109.4486, 141.6782
109.9307, 146.0623
110.4128, 154.0784
110.8950, 167.7206
111.3771, 184.1735
111.8592, 198.2518
112.3413, 209.1565
112.8234, 220.1214
113.3055, 231.5953
113.7877, 243.9687
114.2698, 261.0801
114.7519, 287.4623
115.2340, 317.5709
115.7161, 344.5298
116.1982, 366.8134
116.6804, 388.1587
117.1625, 412.2106
117.6446, 439.4103
118.1267, 466.6261
118.6088, 498.6773
119.0909, 527.2445
119.5731, 543.4166
120.0552, 542.8032
120.5373, 534.5027
121.0194, 529.3309
121.5015, 523.6110
121.9836, 532.5362
122.4658, 565.8115
122.9479, 612.3593
123.4300, 661.7650
123.9121, 709.2947
124.3942, 759.6559
124.8763, 825.0903
125.3585, 917.2797
125.8406, 1006.132
126.3227, 1092.993
126.8048, 1170.876
127.2869, 1229.241
127.7690, 1259.863
128.2512, 1272.327
128.7333, 1303.507
129.2154, 1350.626
129.6975, 1424.406
130.1796, 1537.081
130.6617, 1673.934
131.1439, 1816.686
131.6260, 1955.451
132.1081, 2089.549
132.5902, 2213.423
133.0723, 2301.613
133.5544, 2405.844
134.0366, 2557.004
134.5187, 2729.863
135.0008, 2882.563
135.4829, 2986.337
135.9650, 3042.593
136.4471, 3073.889
136.9293, 3051.936
137.4114, 3036.392
137.8935, 3062.674
138.3756, 3111.748
138.8577, 3139.352
139.3398, 3113.395
139.8220, 3033.052
140.3041, 2925.213
140.7862, 2776.529
141.2683, 2620.147
141.7504, 2452.606
142.2325, 2285.535
142.7147, 2152.008
143.1968, 2078.718
143.6789, 2069.314
144.1610, 2075.934
144.6431, 2092.542
145.1252, 2127.686
145.6074, 2189.525
146.0895, 2276.481
146.5716, 2378.962
147.0537, 2494.151
147.5358, 2621.521
148.0179, 2733.479
148.5001, 2806.503
148.9822, 2881.488
149.4643, 2988.724
149.9464, 3130.091
150.4285, 3290.482
150.9106, 3479.586
151.3928, 3685.335
151.8749, 3816.447
152.3570, 3861.964
152.8391, 3833.744
153.3212, 3727.378
153.8033, 3540.987
154.2855, 3322.722
154.7676, 3097.777
155.2497, 2868.326
155.7318, 2646.940
156.2139, 2416.318
156.6960, 2204.187
157.1782, 2046.250
157.6603, 1947.945
158.1424, 1879.081
158.6245, 1818.174
159.1066, 1769.739
159.5887, 1750.907
160.0709, 1785.476
160.5530, 1845.013
161.0351, 1892.494
161.5172, 1928.037
161.9993, 1947.013
162.4814, 1938.581
162.9636, 1911.524
163.4457, 1878.622
163.9278, 1839.863
164.4099, 1799.217
164.8920, 1764.942
165.3741, 1739.002
165.8563, 1714.175
166.3384, 1685.751
166.8205, 1655.347
167.3026, 1625.815
167.7847, 1601.831
168.2668, 1578.219
168.7490, 1539.958
169.2311, 1476.771
169.7132, 1422.323
170.1953, 1394.806
170.6774, 1386.459
171.1595, 1387.799
171.6417, 1400.881
172.1238, 1418.248
172.6059, 1419.526
173.0880, 1397.135
173.5701, 1373.355
174.0522, 1359.141
174.5344, 1349.755
175.0165, 1338.313
175.4986, 1319.814
175.9807, 1298.028
176.4628, 1283.776
176.9449, 1281.048
177.4271, 1278.802
177.9092, 1273.958
178.3913, 1266.700
178.8734, 1256.910
179.3555, 1243.736
179.8376, 1228.594
180.3197, 1214.794
180.8019, 1199.655
181.2840, 1191.366
181.7661, 1194.461
182.2482, 1203.949
182.7303, 1214.371
183.2124, 1223.773
183.6946, 1231.334
184.1767, 1233.417
184.6588, 1223.031
185.1409, 1219.808
185.6230, 1228.242
186.1051, 1245.491
186.5873, 1269.851
187.0694, 1301.683
187.5515, 1336.930
188.0336, 1364.871
188.5157, 1379.741
188.9978, 1396.691
189.4800, 1424.999
189.9621, 1454.214
190.4442, 1473.944
190.9263, 1479.343
191.4084, 1473.239
191.8905, 1461.862
192.3727, 1442.862
192.8548, 1422.210
193.3369, 1402.563
193.8190, 1381.322
194.3011, 1355.928
194.7832, 1325.358
195.2654, 1290.469
195.7475, 1253.533
196.2296, 1215.103
196.7117, 1172.520
197.1938, 1120.651
197.6759, 1067.739
198.1581, 1020.805
198.6402, 982.0940
199.1223, 949.8035
199.6044, 920.5079
200.0865, 892.9804
200.5686, 871.5684
201.0508, 859.9277
201.5329, 851.1987
202.0150, 840.1408
202.4971, 825.2996
202.9792, 809.2831
203.4613, 795.8622
203.9435, 784.4673
204.4256, 777.4684
204.9077, 779.8919
205.3898, 782.6142
205.8719, 778.6435
206.3540, 766.9811
206.8362, 752.5187
207.3183, 742.1873
207.8004, 738.7451
208.2825, 732.5723
208.7646, 722.0349
209.2467, 710.3369
209.7289, 698.6189
210.2110, 687.4334
210.6931, 677.4132
211.1752, 670.1445
211.6573, 667.8027
212.1395, 660.1506
212.6216, 640.6010
213.1037, 621.7679
213.5858, 610.6010
214.0679, 606.6024
214.5500, 604.5298
215.0322, 599.2587
215.5143, 590.2487
215.9964, 581.6735
216.4785, 573.2557
216.9606, 565.4783
217.4427, 558.6868
217.9249, 552.7230
218.4070, 547.0214
218.8891, 540.9287
219.3712, 534.3836
219.8533, 529.7131
220.3354, 528.2115
220.8176, 527.4554
221.2997, 529.0644
221.7818, 530.9138
222.2639, 528.6679
222.7460, 518.5266
223.2281, 501.5281
223.7103, 489.7782
224.1924, 488.0407
224.6745, 486.7878
225.1566, 485.6773
225.6387, 483.4844
226.1208, 478.0356
226.6030, 467.6219
227.0851, 454.1090
227.5672, 445.5142
228.0493, 445.9989
228.5314, 446.0900
229.0135, 444.2368
229.4957, 441.1333
229.9778, 437.6871
230.4599, 434.3159
230.9420, 430.6944
231.4241, 425.7054
231.9062, 417.3025
232.3884, 411.2259
232.8705, 409.9812
233.3526, 410.0547
233.8347, 407.8656
234.3168, 402.3377
234.7989, 395.9562
235.2811, 393.4799
235.7632, 397.5189
236.2453, 399.2292
236.7274, 397.3189
237.2095, 393.5642
237.6916, 387.4837
238.1738, 379.6885
238.6559, 373.6724
239.1380, 375.1258
239.6201, 387.2874
240.1022, 394.8634
240.5843, 394.9554
241.0665, 392.3010
241.5486, 387.5746
242.0307, 381.6582
242.5128, 376.7053
242.9949, 375.3018
243.4770, 377.8540
243.9592, 379.0706
244.4413, 378.7901
244.9234, 377.1422
245.4055, 373.3444
245.8876, 368.1098
246.3697, 363.1228
246.8519, 359.5452
247.3340, 357.2576
247.8161, 355.4167
248.2982, 354.4026
248.7803, 353.3362
249.2624, 351.0872
249.7446, 348.7026
250.2267, 347.7928
250.7088, 349.1347
251.1909, 352.5958
251.6730, 358.2849
252.1551, 368.0542
252.6373, 376.2725
253.1194, 382.6395
253.6015, 386.1611
254.0836, 384.6444
254.5657, 376.4666
255.0478, 366.1930
255.5300, 362.4871
256.0121, 368.3100
256.4942, 369.4166
256.9763, 354.6410
257.4584, 337.6414
257.9406, 328.6946
258.4227, 330.1108
258.9048, 335.4964
259.3869, 339.2997
259.8690, 341.5524
260.3511, 341.2884
260.8333, 335.9345
261.3154, 330.0221
261.7975, 326.9344
262.2796, 326.6856
262.7617, 326.9384
263.2438, 326.1757
263.7260, 324.5192
264.2081, 322.5374
264.6902, 319.7002
265.1723, 317.5005
265.6544, 316.9129
266.1365, 317.7315
266.6187, 319.4120
267.1008, 323.1305
267.5829, 327.2818
268.0650, 327.9086
268.5471, 323.9382
269.0292, 319.6590
269.5114, 317.9167
269.9935, 317.9010
270.4756, 318.5537
270.9577, 320.6588
271.4398, 322.4585
271.9219, 321.5964
272.4041, 317.9956
272.8862, 314.1955
273.3683, 311.2613
273.8504, 309.0274
274.3325, 307.1559
274.8146, 305.9480
275.2968, 304.5206
275.7789, 301.4304
276.2610, 297.3659
276.7431, 295.5307
277.2252, 298.0075
277.7073, 301.9304
278.1895, 302.1621
278.6716, 297.9763
279.1537, 294.4029
279.6358, 293.9308
280.1179, 295.0961
280.6000, 295.2908
281.0822, 293.8459
281.5643, 292.0070
282.0464, 291.4408
282.5285, 292.3210
283.0106, 292.2820
283.4927, 290.8123
283.9749, 288.4666
284.4570, 285.5253
284.9391, 282.0770
285.4212, 278.4215
285.9033, 274.5699
286.3854, 270.6214
286.8676, 268.2693
287.3497, 268.4658
287.8318, 269.1682
288.3139, 269.7009
288.7960, 269.9655
289.2781, 269.5840
289.7603, 268.1128
290.2424, 266.2211
290.7245, 266.8455
291.2066, 273.0820
291.6887, 277.8355
292.1708, 280.1900
292.6530, 280.4347
293.1351, 277.8674
293.6172, 272.3541
294.0993, 266.7023
294.5814, 266.1235
295.0635, 274.7674
295.5457, 280.8142
296.0278, 283.2863
296.5099, 284.0594
296.9920, 284.2526
297.4741, 284.0847
297.9562, 283.1607
298.4384, 280.6184
298.9205, 275.6994
299.4026, 274.5835
299.8847, 281.5088
300.3668, 287.8839
300.8489, 290.9923
301.3311, 291.2283
301.8131, 289.6465
302.2953, 286.5121
302.7774, 282.5857
303.2595, 281.8651
303.7416, 286.0824
304.2237, 291.2217
304.7058, 297.4658
305.1880, 303.6498
305.6701, 308.3501
306.1522, 311.0033
306.6343, 312.7560
307.1164, 316.2012
307.5985, 322.7555
308.0807, 325.6346
308.5628, 319.3835
309.0449, 311.9821
309.5270, 308.1106
310.0091, 308.1632
310.4912, 309.5947
310.9734, 310.6471
311.4555, 311.3091
311.9376, 311.3767
312.4197, 310.6024
312.9018, 309.5306
313.3839, 307.9073
313.8661, 306.2138
314.3482, 305.8277
314.8303, 308.9848
315.3124, 313.1202
315.7945, 312.7934
316.2766, 307.0552
316.7588, 302.5007
317.2409, 304.3362
317.7230, 309.0949
318.2051, 310.8946
318.6872, 307.8784
319.1693, 303.8693
319.6515, 301.3213
320.1336, 300.1024
320.6157, 299.9432
321.0978, 301.5184
321.5799, 302.9135
322.0620, 300.4581
322.5442, 293.6161
323.0263, 287.4762
323.5084, 282.9392
323.9905, 280.1059
324.4726, 279.3824
324.9547, 280.8258
325.4369, 283.5370
325.9190, 287.2562
326.4011, 292.1556
326.8832, 293.8806
327.3653, 289.5957
327.8474, 284.8769
328.3296, 283.1140
328.8117, 283.6067
329.2938, 283.5438
329.7759, 281.0540
330.2580, 277.1143
330.7401, 276.2474
331.2223, 282.0873
331.7044, 286.5096
332.1865, 288.0091
332.6686, 288.0013
333.1507, 288.0197
333.6328, 288.5276
334.1150, 288.9769
334.5971, 288.6337
335.0792, 287.6812
335.5613, 285.3313
336.0434, 278.2917
336.5255, 272.9012
337.0077, 273.6829
337.4898, 279.3727
337.9719, 285.3073
338.4540, 287.9250
338.9361, 287.4898
339.4182, 286.2621
339.9004, 283.5418
340.3825, 281.0641
340.8646, 279.4358
341.3467, 278.2676
341.8288, 276.9179
342.3109, 275.0242
342.7931, 273.4225
343.2752, 273.8831
343.7573, 276.8801
344.2394, 278.5307
344.7215, 277.1367
345.2036, 274.6094
345.6858, 272.0532
346.1679, 269.5795
346.6500, 267.9969
347.1321, 268.9273
347.6142, 271.1254
348.0963, 270.7387
348.5785, 266.6818
349.0606, 262.2461
349.5427, 260.5284
350.0248, 260.5700
350.5069, 259.5155
350.9890, 254.9660
351.4712, 250.6403
351.9533, 249.9204
352.4354, 252.2892
352.9175, 255.3436
353.3996, 258.6100
353.8817, 261.1113
354.3639, 259.5598
354.8460, 251.3834
355.3281, 245.4457
355.8102, 245.4989
356.2923, 248.0201
356.7744, 248.9491
357.2566, 247.4176
357.7387, 244.8658
358.2208, 242.8920
358.7029, 241.6781
359.1850, 239.9875
359.6671, 236.4961
360.1493, 233.9010
360.6314, 234.1877
361.1135, 236.2919
361.5956, 237.8393
362.0777, 237.4062
362.5598, 235.4860
363.0420, 233.9827
363.5241, 234.1740
364.0062, 232.6100
364.4883, 226.5137
364.9704, 220.1694
365.4525, 217.1110
365.9347, 218.0969
366.4168, 221.5161
366.8989, 227.0260
367.3810, 235.0680
367.8631, 238.0654
368.3452, 231.2482
368.8274, 224.6172
369.3095, 223.9178
369.7916, 227.2977
370.2737, 230.1599
370.7558, 230.1048
371.2379, 228.5112
371.7201, 227.6102
372.2022, 227.4577
372.6843, 227.4519
373.1664, 227.2064
373.6485, 227.0798
374.1306, 227.7921
374.6128, 229.7851
375.0949, 231.1004
375.5770, 229.5290
376.0591, 226.7552
376.5412, 226.7134
377.0233, 230.5071
377.5055, 234.6101
377.9876, 234.9140
378.4697, 230.8854
378.9518, 229.6962
379.4339, 234.0959
379.9160, 238.9594
380.3982, 242.2935
380.8803, 243.6314
381.3624, 241.5068
381.8445, 234.6547
382.3266, 225.4846
382.8087, 221.2885
383.2909, 227.9289
383.7730, 232.1210
384.2551, 233.0127
384.7372, 231.7557
385.2193, 228.2155
385.7014, 222.9992
386.1836, 218.4993
386.6657, 217.6382
387.1478, 220.6927
387.6299, 222.0788
388.1120, 220.2217
388.5941, 218.4493
389.0763, 218.2244
389.5584, 218.7060
390.0405, 218.3770
390.5226, 216.3530
391.0047, 213.9376
391.4868, 213.6294
391.9690, 215.7751
392.4511, 216.5991
392.9332, 213.6823
393.4153, 210.3658
393.8974, 210.5247
394.3795, 214.1307
394.8617, 216.3815
395.3438, 213.3812
395.8259, 208.0587
396.3080, 205.3721
396.7901, 205.8386
397.2722, 207.3985
397.7544, 209.1582
398.2365, 210.8157
398.7186, 211.1290
399.2007, 209.1700
399.6828, 206.9452
400.1649, 205.5592
400.6471, 204.3427
401.1292, 201.6255
401.6113, 196.8293
402.0934, 192.1258
402.5755, 190.8690
403.0576, 194.6505
403.5398, 197.1463
404.0219, 197.4676
404.5040, 197.5408
404.9861, 198.1634
405.4682, 199.3763
405.9503, 201.1512
406.4325, 203.6186
406.9146, 206.2982
407.3967, 207.3920
407.8788, 206.3553
408.3609, 204.7942
408.8430, 201.5082
409.3252, 198.8380
409.8073, 199.2121
410.2894, 202.8120
410.7715, 206.7759
411.2536, 208.6724
411.7357, 208.8216
412.2179, 208.7359
412.7000, 208.4430
413.1821, 208.0775
413.6642, 207.2770
414.1463, 206.5009
414.6284, 206.8801
415.1106, 209.7206
415.5927, 212.4311
416.0748, 212.7681
416.5569, 211.3873
417.0390, 210.2457
417.5211, 209.9693
418.0033, 210.3614
418.4854, 211.5055
418.9675, 214.3575
419.4496, 214.3562
419.9317, 208.6518
420.4138, 202.2480
420.8960, 197.9153
421.3781, 195.8439
421.8602, 195.6591
422.3423, 197.2967
422.8244, 200.2408
423.3065, 202.3120
423.7887, 203.7542
424.2708, 203.8111
424.7529, 200.6179
425.2350, 197.3394
425.7171, 197.0650
426.1992, 199.9414
426.6814, 203.1275
427.1635, 204.4165
427.6456, 203.8006
428.1277, 200.3793
428.6098, 191.5428
429.0919, 184.9744
429.5741, 186.4219
430.0562, 192.0858
430.5383, 196.5941
431.0204, 198.6226
431.5025, 199.3968
431.9846, 200.0473
432.4668, 200.3063
432.9489, 198.9505
433.4310, 195.3686
433.9131, 191.0923
434.3952, 187.7052
434.8773, 185.2506
435.3595, 183.8283
435.8416, 183.0490
436.3237, 183.6806
436.8058, 187.7494
437.2879, 193.6402
437.7701, 197.3194
438.2522, 196.6321
438.7343, 193.0480
439.2164, 190.1680
439.6985, 187.5568
440.1806, 186.5677
440.6628, 188.0410
441.1449, 190.2347
441.6270, 192.6395
442.1091, 194.8216
442.5912, 195.8962
443.0733, 194.8337
443.5555, 192.2757
444.0376, 190.6987
444.5197, 190.2845
445.0018, 190.3484
445.4839, 191.3102
445.9660, 192.2712
446.4482, 192.1974
446.9303, 190.8453
447.4124, 189.3976
447.8945, 188.7825
448.3766, 188.5427
448.8587, 187.4801
449.3409, 185.3487
449.8230, 183.5030
450.3051, 182.7413
450.7872, 183.2015
451.2693, 185.4034
451.7514, 191.9166
452.2336, 197.0523
452.7157, 198.1366
453.1978, 197.0033
453.6799, 196.0228
454.1620, 195.9342
454.6441, 196.3575
455.1263, 196.9518
455.6084, 197.9349
456.0905, 197.8510
456.5726, 195.3414
457.0547, 193.1257
457.5368, 191.9216
458.0190, 191.5835
458.5011, 192.0068
458.9832, 193.3110
459.4653, 194.5666
459.9474, 194.1973
460.4295, 192.1753
460.9117, 190.5585
461.3938, 189.8845
461.8759, 189.5290
462.3580, 188.6706
462.8401, 187.5062
463.3222, 187.1943
463.8044, 188.5202
464.2865, 190.4584
464.7686, 192.4016
465.2507, 194.2256
465.7328, 195.5948
466.2149, 196.3939
466.6971, 196.5502
467.1792, 195.8829
467.6613, 193.9669
468.1434, 192.0505
468.6255, 190.4659
469.1076, 188.5934
469.5898, 185.0558
470.0719, 180.8294
470.5540, 178.7931
471.0361, 181.0733
471.5182, 185.8870
472.0003, 187.8537
472.4825, 185.7793
472.9646, 184.0782
473.4467, 184.2134
473.9288, 184.6385
474.4109, 184.3965
474.8930, 183.4559
475.3752, 182.3077
475.8573, 180.9248
476.3394, 179.6356
476.8215, 178.9116
477.3036, 178.7667
477.7857, 179.5356
478.2679, 182.0049
478.7500, 184.9859
479.2321, 185.1821
479.7142, 180.8567
480.1963, 178.4861
480.6784, 181.5991
481.1606, 185.6483
481.6427, 185.9165
482.1248, 182.6125
482.6069, 179.4147
483.0890, 179.0879
483.5711, 181.1425
484.0533, 182.8897
484.5354, 184.3288
485.0175, 185.4320
485.4996, 186.3026
485.9817, 186.8144
486.4638, 186.5600
486.9460, 185.6551
487.4281, 185.0811
487.9102, 185.5836
488.3923, 187.0059
488.8744, 189.5777
489.3565, 193.8748
489.8387, 195.7742
490.3208, 191.5986
490.8029, 184.4734
491.2850, 181.0540
491.7671, 182.3986
492.2492, 179.5430
492.7314, 185.7475
493.2135, 189.1916
493.6956, 190.0237
494.1777, 180.4203
494.6598, 184.2922
495.1419, 182.7638
495.6241, 181.0140
496.1062, 186.7824
496.5883, 178.6969
497.0704, 184.3461
497.5525, 184.5126
498.0346, 187.1884
498.5168, 184.4306
498.9989, 183.3511
499.4810, 187.7070
499.9631, 189.0532
500.4452, 177.3348
500.9273, 174.0575
501.4095, 172.8591
501.8916, 173.8191
502.3737, 179.5579
502.8558, 185.9136
503.3379, 185.7583
503.8200, 177.1239
504.3022, 169.8169
504.7843, 167.9593
505.2664, 169.1053
505.7485, 171.3255
506.2306, 174.0715
506.7127, 175.9385
507.1949, 175.8363
507.6770, 174.3399
508.1591, 174.0023
508.6412, 176.4971
509.1233, 177.6817
509.6054, 176.9117
510.0876, 175.1573
510.5697, 172.1851
511.0518, 168.6701
511.5339, 166.8701
512.0161, 169.4626
512.4982, 174.2597
512.9803, 174.4013
513.4624, 168.8060
513.9445, 165.2285
514.4266, 167.4885
514.9088, 172.1485
515.3909, 174.6385
515.8730, 174.8074
516.3551, 174.9717
516.8372, 175.8248
517.3193, 176.9862
517.8015, 178.7939
518.2836, 180.7410
518.7657, 180.7296
519.2478, 177.4008
519.7299, 172.5578
520.2120, 170.5371
520.6942, 172.6862
521.1763, 175.1834
521.6584, 179.5041
522.1405, 182.7610
522.6226, 182.2400
523.1047, 179.3759
523.5869, 178.1929
524.0690, 181.5429
524.5511, 185.9662
525.0332, 184.7543
525.5153, 177.9580
525.9974, 174.0719
526.4796, 176.6116
526.9617, 180.2008
527.4438, 177.6991
527.9259, 170.0656
528.4080, 166.3769
528.8901, 171.6816
529.3723, 177.5265
529.8544, 179.1461
530.3365, 177.6534
530.8186, 175.0719
531.3007, 172.1429
531.7828, 169.3509
532.2650, 167.2278
532.7471, 165.6197
533.2292, 165.6409
533.7113, 169.2155
534.1934, 172.2442
534.6755, 173.9037
535.1577, 174.1300
535.6398, 172.3825
536.1219, 168.2572
536.6040, 164.4881
537.0861, 163.9482
537.5682, 165.8227
538.0504, 167.8418
538.5325, 169.8910
539.0146, 170.7409
539.4967, 168.6502
539.9788, 164.6837
540.4609, 164.1481
540.9431, 170.7057
541.4252, 175.2780
541.9073, 174.9335
542.3894, 172.5072
542.8715, 169.8766
543.3536, 167.7617
543.8358, 167.2308
544.3179, 169.5202
544.8000, 173.6970
545.2821, 175.4010
545.7642, 173.4991
546.2463, 172.2417
546.7285, 173.8080
547.2106, 175.5739
547.6927, 175.6647
548.1748, 174.0387
548.6569, 171.3920
549.1390, 166.2847
549.6211, 161.5442
550.1032, 160.5176
550.5853, 162.7331
551.0674, 166.6022
551.5496, 171.9530
552.0317, 176.3576
552.5138, 175.4321
552.9959, 166.4248
553.4780, 161.4252
553.9601, 162.5815
554.4423, 164.8102
554.9244, 166.3791
555.4065, 167.5771
555.8886, 169.1463
556.3707, 171.3745
556.8528, 173.7748
557.3350, 176.7735
557.8171, 179.8999
558.2992, 178.2075
558.7813, 169.2711
559.2634, 161.8358
559.7455, 162.7352
560.2277, 169.5215
560.7098, 173.9091
561.1919, 175.7238
561.6740, 175.3606
562.1561, 170.6652
562.6382, 165.2351
563.1204, 162.9489
563.6025, 164.0130
564.0846, 166.6904
564.5667, 170.1543
565.0488, 173.4863
565.5309, 172.3855
566.0131, 163.6894
566.4952, 158.5670
566.9773, 162.1498
567.4594, 167.3690
567.9415, 170.3582
568.4236, 171.1246
568.9058, 170.8673
569.3879, 169.3423
569.8700, 167.6857
570.3521, 167.2185
570.8342, 167.6077
571.3163, 167.6223
571.7985, 166.8414
572.2806, 166.0871
572.7627, 166.5150
573.2448, 168.3923
573.7269, 168.9101
574.2090, 165.4126
574.6912, 163.7998
575.1733, 168.2025
575.6554, 173.8618
576.1375, 174.6153
576.6196, 169.4800
577.1017, 164.0381
577.5839, 164.1820
578.0660, 168.0591
578.5481, 169.0987
579.0302, 166.8669
579.5123, 164.7737
579.9944, 164.1495
580.4766, 164.7616
580.9587, 166.7395
581.4408, 170.9675
581.9229, 172.8267
582.4050, 168.3219
582.8871, 164.2850
583.3693, 166.7808
583.8514, 173.1769
584.3335, 176.9484
584.8156, 175.0686
585.2977, 170.9255
585.7798, 170.3860
586.2620, 173.9706
586.7441, 174.7521
587.2262, 170.5121
587.7083, 166.5661
588.1904, 166.7653
588.6725, 169.0249
589.1547, 169.9690
589.6368, 168.8098
590.1189, 167.2338
590.6010, 165.5557
591.0831, 164.1837
591.5652, 163.9981
592.0474, 164.8149
592.5295, 165.0238
593.0116, 163.3065
593.4937, 160.9697
593.9758, 162.6514
594.4579, 171.7508
594.9401, 176.7569
595.4222, 173.8373
595.9043, 169.1425
596.3864, 164.5392
596.8685, 160.6025
597.3506, 158.3681
597.8328, 158.7063
598.3149, 159.9295
598.7970, 160.6148
599.2791, 160.9881
599.7612, 161.5870
