##NAMES=Stibiotantalite
##RRUFFID=R050232
##IDEAL CHEMISTRY=Sb^3+^Ta^5+^O_4_
##LOCALITY=Himalaya mine, Mesa Grande, San Diego County, California, USA
##OWNER=RRUFF
##SOURCE=Marcus Origlieri
##DESCRIPTION=Brown crystal fragment
##STATUS=The identification of this mineral has been confirmed by X-ray diffraction and chemical analysis
##URL=rruff.info/R050232
##MEASURED CHEMISTRY=lighter and darker phases: Sb_1.00_(Ta_0.72_Nb_0.28_)_Î£=1_O_4_
98.13892, 9935.423
98.62103, 9930.127
99.10315, 9894.084
99.58527, 9834.248
100.0674, 9815.419
100.5495, 9843.441
101.0316, 9912.118
101.5137, 10015.86
101.9958, 10154.05
102.4780, 10325.96
102.9601, 10530.24
103.4422, 10766.10
103.9243, 11053.62
104.4064, 11396.73
104.8885, 11770.63
105.3707, 12167.75
105.8528, 12587.40
106.3349, 13029.38
106.8170, 13497.64
107.2991, 13995.96
107.7813, 14484.89
108.2634, 14991.11
108.7455, 15477.15
109.2276, 15910.56
109.7097, 16298.05
110.1918, 16588.88
110.6740, 16741.48
111.1561, 16772.37
111.6382, 16666.39
112.1203, 16393.97
112.6024, 15965.14
113.0845, 15458.15
113.5666, 14844.32
114.0488, 14184.52
114.5309, 13506.84
115.0130, 12814.37
115.4951, 12132.75
115.9772, 11482.71
116.4593, 10857.28
116.9415, 10287.99
117.4236, 9783.152
117.9057, 9325.172
118.3878, 8901.921
118.8699, 8510.977
119.3520, 8151.284
119.8342, 7825.892
120.3163, 7547.222
120.7984, 7292.892
121.2805, 7065.155
121.7626, 6858.991
122.2447, 6671.066
122.7269, 6499.723
123.2090, 6344.038
123.6911, 6198.624
124.1732, 6059.226
124.6553, 5930.675
125.1374, 5816.295
125.6196, 5714.960
126.1017, 5621.801
126.5838, 5533.956
127.0659, 5452.936
127.5480, 5379.968
128.0302, 5321.154
128.5123, 5267.500
128.9944, 5208.864
129.4765, 5142.733
129.9586, 5081.628
130.4407, 5037.454
130.9229, 5005.028
131.4050, 4977.037
131.8871, 4949.504
132.3692, 4923.957
132.8513, 4906.390
133.3334, 4900.918
133.8155, 4898.697
134.2977, 4892.832
134.7798, 4885.532
135.2619, 4882.732
135.7440, 4891.188
136.2261, 4912.524
136.7082, 4929.588
137.1904, 4929.667
137.6725, 4935.864
138.1546, 4958.304
138.6367, 4996.951
139.1188, 5045.102
139.6009, 5094.709
140.0831, 5145.913
140.5652, 5198.985
141.0473, 5246.161
141.5294, 5299.445
142.0115, 5367.491
142.4936, 5452.106
142.9758, 5548.508
143.4579, 5647.935
143.9400, 5747.948
144.4221, 5856.164
144.9042, 5972.792
145.3863, 6097.383
145.8685, 6230.825
146.3506, 6374.104
146.8327, 6523.329
147.3148, 6670.206
147.7969, 6814.312
148.2790, 6957.453
148.7612, 7099.123
149.2433, 7239.892
149.7254, 7380.591
150.2075, 7522.664
150.6896, 7665.009
151.1717, 7804.440
151.6539, 7939.403
152.1360, 8076.354
152.6181, 8218.972
153.1002, 8368.080
153.5823, 8523.536
154.0644, 8678.380
154.5466, 8842.680
155.0287, 9026.688
155.5108, 9233.606
155.9929, 9460.250
156.4750, 9699.666
156.9571, 9949.633
157.4393, 10219.13
157.9214, 10505.48
158.4035, 10811.60
158.8856, 11138.85
159.3677, 11487.64
159.8498, 11859.76
160.3320, 12260.74
160.8141, 12694.86
161.2962, 13162.21
161.7783, 13653.38
162.2604, 14178.61
162.7425, 14748.84
163.2247, 15372.39
163.7068, 16050.11
164.1889, 16765.40
164.6710, 17528.38
165.1531, 18312.37
165.6352, 19127.14
166.1174, 19961.25
166.5995, 20783.71
167.0816, 21593.41
167.5637, 22377.90
168.0458, 22983.76
168.5279, 23446.44
169.0101, 23733.94
169.4922, 23830.69
169.9743, 23735.30
170.4564, 23445.29
170.9385, 22922.70
171.4206, 22166.83
171.9028, 21371.31
172.3849, 20505.12
172.8670, 19626.50
173.3491, 18777.97
173.8312, 17958.47
174.3133, 17197.96
174.7955, 16523.19
175.2776, 15923.83
175.7597, 15400.78
176.2418, 14962.01
176.7239, 14600.02
177.2060, 14304.35
177.6882, 14077.87
178.1703, 13918.18
178.6524, 13819.63
179.1345, 13776.27
179.6166, 13784.07
180.0987, 13843.66
180.5809, 13953.53
181.0630, 14103.28
181.5451, 14297.11
182.0272, 14534.49
182.5093, 14810.85
182.9914, 15125.21
183.4736, 15475.85
183.9557, 15861.46
184.4378, 16282.15
184.9199, 16731.54
185.4020, 17221.29
185.8841, 17733.30
186.3663, 18269.95
186.8484, 18826.42
187.3305, 19389.16
187.8126, 19951.18
188.2947, 20514.70
188.7768, 21058.97
189.2590, 21623.76
189.7411, 22135.97
190.2232, 22583.94
190.7053, 22952.64
191.1874, 23221.08
191.6695, 23370.15
192.1517, 23399.63
192.6338, 23253.77
193.1159, 22924.06
193.5980, 22458.04
194.0801, 21861.55
194.5622, 21146.82
195.0444, 20346.12
195.5265, 19487.34
196.0086, 18546.27
196.4907, 17646.64
196.9728, 16777.18
197.4549, 15951.77
197.9371, 15176.80
198.4192, 14453.25
198.9013, 13789.94
199.3834, 13206.74
199.8655, 12698.64
200.3476, 12246.40
200.8298, 11854.77
201.3119, 11512.55
201.7940, 11209.12
202.2761, 10943.69
202.7582, 10711.06
203.2403, 10516.36
203.7225, 10352.57
204.2046, 10209.45
204.6867, 10082.23
205.1688, 9972.283
205.6509, 9882.525
206.1330, 9815.467
206.6152, 9765.382
207.0973, 9723.914
207.5794, 9691.926
208.0615, 9677.027
208.5436, 9684.394
209.0257, 9712.612
209.5079, 9755.156
209.9900, 9812.676
210.4721, 9885.619
210.9542, 9972.907
211.4363, 10073.17
211.9184, 10182.89
212.4006, 10298.55
212.8827, 10420.26
213.3648, 10553.09
213.8469, 10705.32
214.3290, 10860.76
214.8111, 11012.21
215.2933, 11161.48
215.7754, 11314.32
216.2575, 11477.33
216.7396, 11650.92
217.2217, 11818.79
217.7038, 11978.92
218.1859, 12135.15
218.6681, 12288.80
219.1502, 12440.16
219.6323, 12591.39
220.1144, 12745.74
220.5965, 12904.71
221.0786, 13049.44
221.5608, 13162.11
222.0429, 13279.93
222.5250, 13419.52
223.0071, 13577.61
223.4892, 13739.00
223.9713, 13890.04
224.4535, 14028.68
224.9356, 14183.43
225.4177, 14364.91
225.8998, 14549.63
226.3819, 14730.10
226.8640, 14905.04
227.3462, 15074.60
227.8283, 15240.26
228.3104, 15402.93
228.7925, 15542.42
229.2746, 15666.07
229.7567, 15765.33
230.2389, 15837.88
230.7210, 15882.31
231.2031, 15894.02
231.6852, 15869.28
232.1673, 15805.31
232.6494, 15707.82
233.1316, 15578.74
233.6137, 15419.38
234.0958, 15224.20
234.5779, 14996.22
235.0600, 14750.77
235.5421, 14493.56
236.0243, 14226.18
236.5064, 13961.94
236.9885, 13701.24
237.4706, 13445.21
237.9527, 13189.62
238.4348, 12935.66
238.9170, 12696.06
239.3991, 12479.70
239.8812, 12284.33
240.3633, 12096.83
240.8454, 11917.81
241.3275, 11743.57
241.8097, 11570.74
242.2918, 11398.74
242.7739, 11230.86
243.2560, 11069.71
243.7381, 10912.71
244.2202, 10756.11
244.7024, 10601.18
245.1845, 10444.65
245.6666, 10278.64
246.1487, 10103.37
246.6308, 9936.483
247.1129, 9790.326
247.5951, 9656.326
248.0772, 9523.756
248.5593, 9390.321
249.0414, 9260.611
249.5235, 9139.659
250.0056, 9027.819
250.4878, 8919.908
250.9699, 8813.658
251.4520, 8711.688
251.9341, 8620.676
252.4162, 8542.857
252.8983, 8464.987
253.3805, 8371.794
253.8626, 8261.274
254.3447, 8151.712
254.8268, 8052.259
255.3089, 7952.512
255.7910, 7845.959
256.2732, 7731.823
256.7553, 7613.510
257.2374, 7495.756
257.7195, 7379.923
258.2016, 7256.580
258.6837, 7115.117
259.1659, 6972.118
259.6480, 6834.720
260.1301, 6704.150
260.6122, 6577.779
261.0943, 6452.956
261.5764, 6330.138
262.0586, 6209.673
262.5407, 6089.043
263.0228, 5972.213
263.5049, 5860.757
263.9870, 5754.753
264.4691, 5655.462
264.9513, 5565.381
265.4334, 5485.507
265.9155, 5402.898
266.3976, 5309.623
266.8797, 5220.521
267.3618, 5141.868
267.8440, 5072.559
268.3261, 5008.580
268.8082, 4947.608
269.2903, 4889.809
269.7724, 4830.526
270.2545, 4767.007
270.7367, 4704.622
271.2188, 4644.677
271.7009, 4586.975
272.1830, 4531.212
272.6651, 4477.221
273.1472, 4424.901
273.6294, 4370.506
274.1115, 4309.104
274.5936, 4250.677
275.0757, 4200.041
275.5578, 4153.616
276.0399, 4105.813
276.5221, 4053.184
277.0042, 3996.269
277.4863, 3939.167
277.9684, 3879.306
278.4505, 3821.979
278.9326, 3768.633
279.4148, 3717.614
279.8969, 3666.376
280.3790, 3613.371
280.8611, 3559.596
281.3432, 3508.061
281.8253, 3460.254
282.3075, 3412.826
282.7896, 3365.759
283.2717, 3318.934
283.7538, 3271.687
284.2359, 3223.931
284.7180, 3176.827
285.2002, 3133.408
285.6823, 3097.953
286.1644, 3060.466
286.6465, 3018.333
287.1286, 2975.719
287.6107, 2936.278
288.0929, 2900.916
288.5750, 2868.270
289.0571, 2835.843
289.5392, 2802.430
290.0213, 2772.947
290.5034, 2751.069
290.9856, 2730.455
291.4677, 2705.046
291.9498, 2674.933
292.4319, 2646.153
292.9140, 2626.511
293.3961, 2619.252
293.8783, 2607.259
294.3604, 2588.595
294.8425, 2567.536
295.3246, 2545.125
295.8067, 2522.299
296.2888, 2501.414
296.7710, 2484.872
297.2531, 2473.090
297.7352, 2458.695
298.2173, 2439.688
298.6994, 2420.620
299.1815, 2402.901
299.6637, 2386.729
300.1458, 2372.069
300.6279, 2358.935
301.1100, 2347.249
301.5921, 2335.733
302.0742, 2324.162
302.5564, 2313.019
303.0385, 2301.961
303.5206, 2291.499
304.0027, 2282.599
304.4848, 2275.887
304.9669, 2270.674
305.4491, 2264.847
305.9312, 2257.914
306.4133, 2251.073
306.8954, 2243.584
307.3775, 2236.586
307.8596, 2231.992
308.3418, 2230.492
308.8239, 2230.268
309.3060, 2227.926
309.7881, 2220.919
310.2702, 2217.357
310.7523, 2220.271
311.2345, 2225.246
311.7166, 2227.375
312.1987, 2225.913
312.6808, 2224.993
313.1629, 2230.001
313.6451, 2243.280
314.1272, 2252.216
314.6093, 2252.707
315.0914, 2252.086
315.5735, 2255.509
316.0556, 2262.967
316.5378, 2271.215
317.0199, 2277.773
317.5020, 2282.535
317.9841, 2286.864
318.4662, 2291.240
318.9483, 2294.801
319.4305, 2297.955
319.9126, 2300.090
320.3947, 2299.343
320.8768, 2294.191
321.3589, 2285.713
321.8410, 2279.594
322.3232, 2278.103
322.8053, 2275.830
323.2874, 2271.153
323.7695, 2264.983
324.2516, 2259.245
324.7337, 2254.906
325.2159, 2250.180
325.6980, 2240.909
326.1801, 2223.911
326.6622, 2207.894
327.1443, 2193.000
327.6264, 2179.532
328.1086, 2167.983
328.5907, 2158.457
329.0728, 2150.362
329.5549, 2143.318
330.0370, 2138.483
330.5191, 2130.302
331.0013, 2115.315
331.4834, 2099.812
331.9655, 2088.021
332.4476, 2080.113
332.9297, 2073.795
333.4118, 2066.872
333.8940, 2059.201
334.3761, 2055.213
334.8582, 2056.683
335.3403, 2059.190
335.8224, 2061.282
336.3045, 2063.015
336.7867, 2064.890
337.2688, 2067.205
337.7509, 2069.865
338.2330, 2072.399
338.7151, 2076.855
339.1972, 2078.738
339.6793, 2076.665
340.1614, 2071.894
340.6436, 2066.087
341.1257, 2059.813
341.6078, 2052.545
342.0899, 2043.189
342.5720, 2030.583
343.0541, 2017.660
343.5363, 2004.626
344.0184, 1991.115
344.5005, 1976.230
344.9826, 1960.142
345.4647, 1944.480
345.9468, 1931.169
346.4290, 1920.688
346.9111, 1910.084
347.3932, 1898.513
347.8753, 1887.662
348.3574, 1878.431
348.8395, 1870.608
349.3217, 1863.525
349.8038, 1856.807
350.2859, 1850.369
350.7680, 1843.622
351.2501, 1835.008
351.7322, 1827.808
352.2144, 1824.456
352.6965, 1822.320
353.1786, 1817.717
353.6607, 1808.983
354.1428, 1797.784
354.6249, 1787.902
355.1071, 1779.936
355.5892, 1772.568
356.0713, 1765.517
356.5534, 1759.159
357.0355, 1754.347
357.5176, 1750.955
357.9998, 1747.442
358.4819, 1741.598
358.9640, 1732.377
359.4461, 1725.229
359.9282, 1720.227
360.4103, 1717.021
360.8925, 1716.738
361.3746, 1718.296
361.8567, 1719.048
362.3388, 1716.652
362.8209, 1711.713
363.3030, 1710.027
363.7852, 1715.245
364.2673, 1719.154
364.7494, 1718.169
365.2315, 1715.505
365.7136, 1715.575
366.1957, 1720.378
366.6779, 1727.311
367.1600, 1730.764
367.6421, 1728.946
368.1242, 1728.097
368.6063, 1727.916
369.0884, 1729.741
369.5706, 1735.468
370.0527, 1744.932
370.5348, 1755.140
371.0169, 1762.990
371.4990, 1768.258
371.9811, 1773.682
372.4633, 1779.063
372.9454, 1784.952
373.4275, 1791.855
373.9096, 1799.465
374.3917, 1807.059
374.8738, 1813.716
375.3560, 1820.250
375.8381, 1829.137
376.3202, 1840.877
376.8023, 1853.971
377.2844, 1868.870
377.7665, 1884.254
378.2487, 1898.420
378.7308, 1910.675
379.2129, 1922.871
379.6950, 1937.521
380.1771, 1954.736
380.6592, 1971.597
381.1414, 1986.876
381.6235, 2002.160
382.1056, 2019.796
382.5877, 2039.598
383.0698, 2057.164
383.5519, 2068.268
384.0341, 2075.107
384.5162, 2084.957
384.9983, 2099.751
385.4804, 2114.282
385.9625, 2124.356
386.4446, 2131.293
386.9268, 2137.093
387.4089, 2141.652
387.8910, 2145.841
388.3731, 2151.370
388.8552, 2158.111
389.3373, 2162.455
389.8195, 2161.972
390.3016, 2158.422
390.7837, 2155.109
391.2658, 2151.196
391.7479, 2149.864
392.2300, 2155.089
392.7122, 2163.787
393.1943, 2168.622
393.6764, 2167.163
394.1585, 2164.384
394.6406, 2166.851
395.1227, 2174.730
395.6049, 2180.390
396.0870, 2180.655
396.5691, 2179.828
397.0512, 2180.680
397.5333, 2183.630
398.0154, 2189.622
398.4976, 2199.981
398.9797, 2213.822
399.4618, 2225.787
399.9439, 2236.739
400.4260, 2245.234
400.9081, 2247.863
401.3903, 2248.479
401.8724, 2253.390
402.3545, 2264.882
402.8366, 2280.302
403.3187, 2295.199
403.8008, 2309.180
404.2830, 2323.520
404.7651, 2337.562
405.2472, 2352.453
405.7293, 2369.648
406.2114, 2388.653
406.6935, 2407.199
407.1757, 2423.036
407.6578, 2436.211
408.1399, 2453.163
408.6220, 2476.692
409.1041, 2500.805
409.5862, 2525.322
410.0684, 2549.345
410.5505, 2571.407
411.0326, 2590.751
411.5147, 2609.842
411.9968, 2634.480
412.4789, 2669.066
412.9611, 2699.110
413.4432, 2721.790
413.9253, 2742.205
414.4074, 2761.513
414.8895, 2781.053
415.3716, 2803.809
415.8538, 2834.347
416.3359, 2871.800
416.8180, 2901.011
417.3001, 2916.641
417.7822, 2931.199
418.2643, 2948.965
418.7465, 2968.460
419.2286, 2987.439
419.7107, 3004.884
420.1928, 3022.168
420.6749, 3041.531
421.1570, 3063.156
421.6392, 3085.507
422.1213, 3105.956
422.6034, 3129.097
423.0855, 3159.926
423.5676, 3198.170
424.0497, 3235.464
424.5319, 3263.871
425.0140, 3287.499
425.4961, 3318.333
425.9782, 3358.414
426.4603, 3400.845
426.9424, 3439.831
427.4246, 3477.557
427.9067, 3518.639
428.3888, 3564.539
428.8709, 3612.806
429.3530, 3661.503
429.8351, 3710.702
430.3173, 3761.200
430.7994, 3813.674
431.2815, 3866.273
431.7636, 3916.175
432.2457, 3963.218
432.7278, 4008.587
433.2100, 4051.156
433.6921, 4092.836
434.1742, 4136.349
434.6563, 4181.686
435.1384, 4224.757
435.6205, 4261.792
436.1027, 4293.080
436.5848, 4325.069
437.0669, 4363.313
437.5490, 4396.030
438.0311, 4415.096
438.5132, 4427.500
438.9954, 4444.778
439.4775, 4471.153
439.9596, 4500.864
440.4417, 4524.000
440.9238, 4540.070
441.4059, 4549.675
441.8881, 4551.398
442.3702, 4548.916
442.8523, 4543.671
443.3344, 4536.018
443.8165, 4526.167
444.2986, 4514.557
444.7808, 4500.721
445.2629, 4481.853
445.7450, 4456.470
446.2271, 4427.595
446.7092, 4394.418
447.1913, 4359.278
447.6735, 4325.033
448.1556, 4292.378
448.6377, 4258.254
449.1198, 4218.891
449.6019, 4174.247
450.0840, 4126.448
450.5662, 4073.057
451.0483, 4019.247
451.5304, 3968.520
452.0125, 3919.727
452.4946, 3869.514
452.9767, 3815.855
453.4589, 3760.215
453.9410, 3703.272
454.4231, 3644.858
454.9052, 3590.845
455.3873, 3545.458
455.8694, 3504.484
456.3516, 3461.543
456.8337, 3416.339
457.3158, 3371.784
457.7979, 3328.850
458.2800, 3287.768
458.7621, 3249.220
459.2443, 3213.441
459.7264, 3179.434
460.2085, 3146.582
460.6906, 3115.063
461.1727, 3084.117
461.6548, 3052.918
462.1370, 3023.363
462.6191, 2995.958
463.1012, 2970.789
463.5833, 2948.954
464.0654, 2930.802
464.5475, 2913.855
465.0297, 2893.646
465.5118, 2867.473
465.9939, 2844.919
466.4760, 2826.781
466.9581, 2811.244
467.4402, 2798.086
467.9224, 2786.681
468.4045, 2776.098
468.8866, 2765.645
469.3687, 2755.340
469.8508, 2744.977
470.3329, 2733.755
470.8151, 2723.851
471.2972, 2715.001
471.7793, 2707.762
472.2614, 2703.058
472.7435, 2700.821
473.2256, 2699.353
473.7078, 2696.719
474.1899, 2692.971
474.6720, 2690.596
475.1541, 2690.118
475.6362, 2690.249
476.1183, 2690.581
476.6005, 2690.972
477.0826, 2691.177
477.5647, 2691.029
478.0468, 2690.825
478.5289, 2690.300
479.0110, 2689.652
479.4932, 2691.183
479.9753, 2696.331
480.4574, 2702.517
480.9395, 2705.927
481.4216, 2706.932
481.9037, 2710.480
482.3859, 2720.183
482.8680, 2731.374
483.3501, 2739.025
483.8322, 2743.597
484.3143, 2749.629
484.7964, 2760.192
485.2786, 2773.246
485.7607, 2782.304
486.2428, 2783.078
486.7249, 2787.721
487.2070, 2800.851
487.6891, 2816.614
488.1713, 2829.159
488.6534, 2838.054
489.1355, 2846.816
489.6176, 2858.681
490.0997, 2873.597
490.5818, 2887.247
491.0640, 2898.875
491.5461, 2909.861
492.0282, 2918.187
492.5103, 2926.956
492.9924, 2940.318
493.4745, 2959.270
493.9567, 2979.604
494.4388, 2995.548
494.9209, 3006.469
495.4030, 3019.655
495.8851, 3036.844
496.3672, 3054.611
496.8494, 3072.377
497.3315, 3089.306
497.8136, 3103.523
498.2957, 3112.906
498.7778, 3121.604
499.2599, 3135.276
499.7421, 3153.708
500.2242, 3172.244
500.7063, 3190.367
501.1884, 3207.199
501.6705, 3221.176
502.1526, 3232.510
502.6348, 3243.664
503.1169, 3252.743
503.5990, 3263.762
504.0811, 3282.860
504.5632, 3308.562
505.0453, 3332.062
505.5274, 3348.402
506.0096, 3359.743
506.4917, 3372.254
506.9738, 3385.916
507.4559, 3400.737
507.9380, 3418.859
508.4201, 3436.788
508.9023, 3451.213
509.3844, 3462.266
509.8665, 3472.479
510.3486, 3483.531
510.8307, 3495.721
511.3128, 3511.455
511.7950, 3534.110
512.2771, 3555.444
512.7592, 3574.837
513.2413, 3592.068
513.7234, 3606.033
514.2056, 3616.885
514.6877, 3627.027
515.1698, 3638.786
515.6519, 3651.973
516.1340, 3665.182
516.6161, 3678.003
517.0983, 3691.702
517.5804, 3708.177
518.0625, 3725.619
518.5446, 3741.244
519.0267, 3753.327
519.5089, 3766.170
519.9910, 3785.139
520.4731, 3807.313
520.9552, 3823.682
521.4373, 3831.579
521.9194, 3838.051
522.4016, 3850.000
522.8837, 3867.790
523.3658, 3886.105
523.8479, 3904.966
524.3300, 3924.309
524.8121, 3944.705
525.2943, 3965.398
525.7764, 3984.690
526.2585, 4001.907
526.7406, 4019.600
527.2227, 4042.053
527.7048, 4071.925
528.1870, 4096.831
528.6691, 4111.292
529.1512, 4126.608
529.6333, 4147.868
530.1154, 4172.903
530.5975, 4197.278
531.0797, 4218.909
531.5618, 4239.006
532.0439, 4260.009
532.5260, 4282.220
533.0081, 4302.559
533.4902, 4317.960
533.9724, 4334.423
534.4545, 4357.085
534.9366, 4384.563
535.4187, 4411.460
535.9008, 4435.850
536.3829, 4458.760
536.8651, 4480.835
537.3472, 4502.328
537.8293, 4523.875
538.3114, 4545.941
538.7935, 4567.679
539.2756, 4586.721
539.7578, 4601.955
540.2399, 4621.185
540.7220, 4649.958
541.2041, 4678.777
541.6862, 4700.122
542.1683, 4715.960
542.6505, 4732.884
543.1326, 4754.585
543.6147, 4778.453
544.0968, 4797.981
544.5789, 4810.968
545.0610, 4823.984
545.5432, 4837.691
546.0253, 4851.060
546.5074, 4863.617
546.9895, 4875.308
547.4716, 4886.161
547.9537, 4895.983
548.4359, 4905.126
548.9180, 4913.270
549.4001, 4919.701
549.8822, 4930.666
550.3643, 4952.522
550.8464, 4974.915
551.3286, 4986.757
551.8107, 4988.791
552.2928, 4991.065
552.7749, 4996.906
553.2570, 5005.026
553.7391, 5013.847
554.2213, 5023.533
554.7034, 5035.843
555.1855, 5052.290
555.6676, 5070.185
556.1497, 5083.697
556.6318, 5088.034
557.1140, 5099.304
557.5961, 5123.787
558.0782, 5150.131
558.5603, 5170.649
559.0424, 5186.697
559.5245, 5202.620
560.0067, 5220.700
560.4888, 5241.898
560.9709, 5269.459
561.4530, 5306.017
561.9351, 5341.215
562.4172, 5372.229
562.8994, 5402.957
563.3815, 5433.692
563.8636, 5465.653
564.3457, 5501.469
564.8278, 5542.641
565.3099, 5588.214
565.7921, 5636.655
566.2742, 5687.966
566.7563, 5742.316
567.2384, 5800.161
567.7205, 5860.413
568.2026, 5921.385
568.6848, 5982.961
569.1669, 6047.957
569.6490, 6116.013
570.1311, 6188.164
570.6132, 6266.046
571.0953, 6348.899
571.5775, 6436.167
572.0596, 6527.157
572.5417, 6622.327
573.0238, 6722.256
573.5059, 6830.274
573.9880, 6933.653
574.4702, 7023.619
574.9523, 7118.030
575.4344, 7223.540
575.9165, 7338.932
576.3986, 7460.172
576.8807, 7585.977
577.3629, 7715.001
577.8450, 7843.950
578.3271, 7972.926
578.8092, 8110.646
579.2913, 8261.000
579.7734, 8415.667
580.2556, 8568.299
580.7377, 8719.709
581.2198, 8875.541
581.7019, 9038.438
582.1840, 9203.083
582.6661, 9366.975
583.1483, 9530.516
583.6304, 9694.950
584.1125, 9860.871
584.5946, 10031.04
585.0767, 10210.14
585.5588, 10398.15
586.0409, 10585.59
586.5230, 10783.68
587.0051, 10970.21
587.4872, 11134.37
587.9694, 11287.84
588.4515, 11442.56
588.9336, 11601.92
589.4157, 11761.41
589.8978, 11918.86
590.3799, 12072.95
590.8621, 12217.93
591.3442, 12356.63
591.8263, 12480.91
592.3084, 12581.84
592.7905, 12668.14
593.2726, 12749.42
593.7548, 12827.42
