##NAMES=Stibnite
##RRUFFID=R050016
##IDEAL CHEMISTRY=Sb^3+^_2_S^2-^_3_
##LOCALITY=Romania
##OWNER=RRUFF
##SOURCE=Eugene Schlepp
##DESCRIPTION=Group of lead-gray prismatic crystals
##STATUS=The identification of this mineral has been confirmed by X-ray diffraction and chemical analysis
##URL=rruff.info/R050016
##MEASURED CHEMISTRY=(Sb_.996_As_.004_)_2_S_3_
133.576, 386.833
134.058, 384.743
134.540, 384.828
135.022, 387.813
135.504, 393.008
135.986, 398.593
136.469, 404.538
136.951, 410.866
137.433, 417.639
137.915, 424.821
138.397, 432.381
138.879, 440.792
139.361, 449.758
139.843, 456.646
140.326, 460.973
140.808, 464.168
141.290, 467.614
141.772, 471.145
142.254, 475.348
142.736, 480.550
143.218, 487.022
143.700, 492.782
144.182, 497.478
144.665, 501.690
145.147, 506.319
145.629, 512.401
146.111, 517.472
146.593, 520.513
147.075, 520.158
147.557, 520.895
148.039, 523.358
148.521, 526.838
149.004, 529.584
149.486, 527.881
149.968, 528.551
150.450, 534.344
150.932, 550.190
151.414, 565.134
151.896, 579.034
152.378, 591.986
152.861, 604.289
153.343, 617.045
153.825, 628.680
154.307, 638.315
154.789, 645.184
155.271, 650.988
155.753, 655.575
156.235, 659.006
156.717, 662.827
157.200, 666.117
157.682, 670.502
158.164, 677.355
158.646, 690.168
159.128, 702.621
159.610, 711.846
160.092, 717.282
160.574, 723.999
161.057, 733.609
161.539, 745.428
162.021, 758.611
162.503, 777.359
162.985, 794.008
163.467, 803.140
163.949, 802.159
164.431, 802.077
164.913, 809.075
165.396, 820.558
165.878, 831.783
166.360, 841.852
166.842, 850.171
167.324, 855.451
167.806, 855.737
168.288, 857.508
168.770, 865.868
169.253, 879.325
169.735, 893.700
170.217, 908.625
170.699, 922.392
171.181, 932.909
171.663, 938.767
172.145, 942.708
172.627, 945.632
173.109, 948.091
173.592, 952.997
174.074, 951.551
174.556, 960.578
175.038, 967.064
175.520, 971.143
176.002, 965.612
176.484, 972.491
176.966, 974.396
177.449, 976.098
177.931, 984.723
178.413, 980.590
178.895, 989.106
179.377, 991.648
179.859, 994.429
180.341, 1004.148
180.823, 1021.307
181.305, 1036.905
181.788, 1038.217
182.270, 1029.429
182.752, 1025.699
183.234, 1015.415
183.716, 1037.342
184.198, 1051.450
184.680, 1058.160
185.162, 1035.310
185.645, 1050.630
186.127, 1050.653
186.609, 1050.049
187.091, 1070.740
187.573, 1052.191
188.055, 1070.456
188.537, 1086.317
189.019, 1110.522
189.501, 1121.460
189.984, 1119.636
190.466, 1117.781
190.948, 1123.898
191.430, 1136.872
191.912, 1148.458
192.394, 1159.061
192.876, 1166.344
193.358, 1162.606
193.840, 1147.073
194.323, 1133.978
194.805, 1134.833
195.287, 1149.093
195.769, 1159.298
196.251, 1162.825
196.733, 1162.079
197.215, 1164.095
197.697, 1169.620
198.180, 1173.586
198.662, 1170.564
199.144, 1159.890
199.626, 1154.063
200.108, 1156.819
200.590, 1165.064
201.072, 1165.907
201.554, 1157.601
202.036, 1148.169
202.519, 1144.607
203.001, 1147.811
203.483, 1150.242
203.965, 1151.107
204.447, 1150.104
204.929, 1144.759
205.411, 1133.569
205.893, 1121.582
206.376, 1113.614
206.858, 1110.429
207.340, 1107.790
207.822, 1105.472
208.304, 1103.279
208.786, 1098.018
209.268, 1088.920
209.750, 1078.336
210.232, 1069.238
210.714, 1062.960
211.197, 1053.796
211.679, 1038.485
212.161, 1016.825
212.643, 1003.786
213.125, 1002.763
213.607, 1005.963
214.089, 1004.239
214.572, 996.134
215.054, 986.956
215.536, 978.393
216.018, 970.645
216.500, 959.784
216.982, 942.672
217.464, 925.772
217.946, 919.171
218.428, 915.051
218.911, 913.395
219.393, 911.142
219.875, 908.321
220.357, 903.239
220.839, 901.077
221.321, 897.746
221.803, 894.366
222.285, 892.616
222.767, 888.949
223.250, 882.286
223.732, 885.169
224.214, 888.955
224.696, 894.029
225.178, 899.811
225.660, 906.018
226.142, 914.577
226.624, 919.990
227.107, 918.972
227.589, 907.601
228.071, 902.863
228.553, 907.982
229.035, 918.196
229.517, 923.649
229.999, 922.032
230.481, 919.496
230.963, 918.004
231.445, 916.963
231.928, 918.873
232.410, 925.688
232.892, 934.777
233.374, 939.761
233.856, 938.779
234.338, 936.695
234.820, 935.741
235.303, 937.748
235.785, 936.270
236.267, 929.694
236.749, 920.079
237.231, 912.792
237.713, 909.134
238.195, 906.022
238.677, 902.262
239.159, 897.927
239.641, 892.903
240.124, 887.631
240.606, 881.551
241.088, 872.723
241.570, 859.185
242.052, 845.885
242.534, 834.760
243.016, 825.167
243.498, 819.376
243.981, 819.122
244.463, 822.376
244.945, 823.276
245.427, 821.227
245.909, 817.572
246.391, 812.711
246.873, 805.927
247.355, 799.446
247.837, 793.366
248.320, 787.581
248.802, 781.553
249.284, 774.181
249.766, 768.311
250.248, 765.274
250.730, 765.608
251.212, 767.766
251.694, 772.812
252.176, 779.488
252.659, 784.331
253.141, 788.001
253.623, 788.922
254.105, 785.666
254.587, 775.669
255.069, 768.261
255.551, 764.409
256.033, 763.189
256.516, 761.344
256.998, 757.054
257.480, 755.189
257.962, 758.829
258.444, 770.812
258.926, 780.231
259.408, 785.548
259.890, 788.524
260.372, 794.441
260.855, 804.671
261.337, 815.362
261.819, 824.794
262.301, 833.180
262.783, 839.505
263.265, 842.575
263.747, 844.091
264.229, 848.346
264.711, 854.856
265.194, 865.072
265.676, 881.367
266.158, 906.467
266.640, 925.232
267.122, 934.420
267.604, 938.647
268.086, 949.247
268.569, 967.954
269.051, 988.897
269.533, 1009.680
270.015, 1030.516
270.497, 1050.011
270.979, 1067.492
271.461, 1084.220
271.943, 1102.900
272.425, 1124.149
272.908, 1145.143
273.390, 1163.426
273.872, 1177.976
274.354, 1197.590
274.836, 1225.447
275.318, 1255.318
275.800, 1274.026
276.282, 1279.660
276.764, 1282.860
277.247, 1288.777
277.729, 1297.728
278.211, 1305.431
278.693, 1312.566
279.175, 1317.261
279.657, 1314.708
280.139, 1303.883
280.621, 1293.513
281.103, 1290.133
281.586, 1293.554
282.068, 1287.501
282.550, 1270.471
283.032, 1246.809
283.514, 1221.030
283.996, 1192.852
284.478, 1168.404
284.960, 1154.113
285.443, 1148.374
285.925, 1131.103
286.407, 1099.646
286.889, 1065.571
287.371, 1045.901
287.853, 1040.129
288.335, 1035.655
288.817, 1026.523
289.299, 1014.038
289.782, 1004.649
290.264, 998.721
290.746, 994.894
291.228, 992.672
291.710, 991.717
292.192, 989.502
292.674, 982.132
293.156, 972.951
293.638, 972.423
294.121, 981.090
294.603, 983.032
295.085, 993.825
295.567, 1002.468
296.049, 1009.079
296.531, 1007.567
297.013, 1016.402
297.496, 1016.222
297.978, 1029.628
298.460, 1045.273
298.942, 1053.458
299.424, 1055.795
299.906, 1056.011
300.388, 1053.859
300.870, 1051.247
301.352, 1051.059
301.835, 1053.188
302.317, 1056.188
302.799, 1058.900
303.281, 1061.645
303.763, 1065.411
304.245, 1072.719
304.727, 1078.746
305.209, 1078.248
305.691, 1071.494
306.174, 1060.925
306.656, 1045.183
307.138, 1027.388
307.620, 1012.143
308.102, 1003.456
308.584, 993.469
309.066, 977.070
309.548, 954.119
310.030, 925.120
310.513, 885.095
310.995, 841.392
311.477, 801.658
311.959, 769.127
312.441, 737.808
312.923, 704.020
313.405, 668.661
313.887, 634.985
314.370, 602.792
314.852, 573.119
315.334, 547.078
315.816, 526.129
316.298, 505.614
316.780, 480.413
317.262, 454.234
317.744, 434.074
318.226, 427.818
318.709, 424.372
319.191, 418.406
319.673, 408.888
320.155, 398.240
320.637, 384.648
321.119, 370.884
321.601, 360.854
322.083, 357.558
322.565, 356.402
323.048, 356.758
323.530, 359.298
324.012, 359.420
324.494, 355.293
324.976, 348.840
325.458, 342.114
325.940, 332.035
326.422, 325.032
326.905, 324.343
327.387, 331.181
327.869, 333.121
328.351, 324.616
328.833, 314.098
329.315, 308.227
329.797, 313.345
330.279, 314.853
330.762, 308.365
331.244, 294.629
331.726, 288.203
332.208, 294.004
332.690, 302.052
333.172, 305.745
333.654, 303.039
334.136, 299.928
334.618, 296.505
335.100, 293.054
335.583, 290.950
336.065, 291.329
336.547, 291.032
337.029, 287.711
337.511, 279.852
337.993, 274.502
338.475, 272.365
338.957, 272.607
339.440, 274.003
339.922, 277.322
340.404, 278.942
340.886, 276.297
341.368, 269.066
341.850, 263.052
342.332, 258.052
342.814, 255.101
343.297, 257.422
343.779, 265.324
344.261, 271.508
344.743, 272.140
345.225, 268.198
345.707, 265.788
346.189, 265.124
346.671, 264.810
347.153, 262.932
347.635, 259.798
348.118, 257.190
348.600, 255.082
349.082, 254.144
349.564, 256.999
350.046, 263.690
350.528, 269.570
351.010, 270.346
351.492, 267.368
351.975, 263.524
352.457, 259.054
352.939, 254.756
353.421, 250.983
353.903, 247.969
354.385, 246.965
354.867, 252.257
355.349, 258.790
355.832, 259.364
356.314, 250.055
356.796, 240.355
357.278, 238.097
357.760, 241.323
358.242, 244.957
358.724, 247.996
359.206, 249.547
359.688, 248.690
360.171, 244.928
360.653, 240.356
361.135, 233.778
361.617, 227.416
362.099, 224.643
362.581, 229.349
363.063, 235.362
363.545, 241.032
364.027, 246.447
364.510, 248.946
364.992, 244.280
365.474, 238.036
365.956, 235.348
366.438, 242.781
366.920, 247.803
367.402, 247.153
367.884, 241.119
368.366, 235.803
368.849, 230.753
369.331, 227.009
369.813, 225.187
370.295, 225.670
370.777, 227.585
371.259, 232.151
371.741, 238.109
372.224, 241.395
372.706, 240.598
373.188, 239.166
373.670, 238.913
374.152, 240.926
374.634, 240.038
375.116, 234.797
375.598, 228.051
376.080, 225.000
376.562, 226.660
377.045, 228.305
377.527, 227.952
378.009, 225.708
378.491, 225.292
378.973, 227.140
379.455, 229.438
379.937, 230.560
380.419, 230.508
380.902, 228.404
381.384, 222.715
381.866, 215.524
382.348, 212.646
382.830, 214.095
383.312, 217.585
383.794, 223.356
384.276, 229.865
384.759, 232.121
385.241, 227.896
385.723, 221.593
386.205, 218.623
386.687, 218.610
387.169, 220.182
387.651, 224.241
388.133, 228.686
388.615, 230.691
389.098, 229.618
389.580, 227.800
390.062, 226.664
390.544, 226.061
391.026, 225.778
391.508, 226.767
391.990, 227.240
392.472, 225.347
392.954, 221.050
393.437, 218.065
393.919, 219.954
394.401, 222.976
394.883, 223.863
395.365, 219.508
395.847, 215.307
396.329, 212.235
396.811, 210.331
397.293, 209.744
397.776, 211.867
398.258, 214.265
398.740, 215.856
399.222, 216.867
399.704, 216.521
400.186, 213.492
400.668, 209.389
401.151, 207.329
401.633, 208.706
402.115, 210.171
402.597, 210.672
403.079, 210.033
403.561, 209.881
404.043, 210.396
404.525, 211.171
405.007, 211.690
405.490, 211.774
405.972, 212.519
406.454, 214.930
406.936, 218.056
407.418, 216.766
407.900, 210.227
408.382, 203.544
408.864, 199.790
409.346, 198.966
409.828, 202.129
410.311, 211.012
410.793, 220.398
411.275, 220.769
411.757, 213.209
412.239, 205.658
412.721, 202.129
413.203, 201.467
413.685, 201.833
414.168, 203.195
414.650, 204.783
415.132, 205.788
415.614, 206.532
416.096, 207.587
416.578, 210.156
417.060, 212.340
417.542, 212.415
418.025, 210.593
418.507, 208.300
418.989, 204.679
419.471, 201.781
419.953, 201.317
420.435, 204.541
420.917, 208.720
421.399, 214.431
421.881, 220.395
422.364, 223.876
422.846, 222.787
423.328, 220.447
423.810, 217.801
424.292, 214.662
424.774, 212.103
425.256, 210.080
425.738, 208.688
426.220, 208.083
426.703, 208.503
427.185, 209.375
427.667, 211.165
428.149, 213.558
428.631, 213.554
429.113, 209.590
429.595, 206.079
430.077, 206.424
430.560, 211.444
431.042, 214.827
431.524, 215.855
432.006, 215.454
432.488, 215.703
432.970, 216.693
433.452, 216.214
433.934, 211.880
434.417, 205.041
434.899, 201.527
435.381, 201.518
435.863, 203.043
436.345, 204.470
436.827, 205.894
437.309, 207.629
437.791, 210.015
438.273, 212.422
438.755, 214.202
439.238, 215.380
439.720, 216.072
440.202, 216.105
440.684, 215.809
441.166, 215.647
441.648, 215.937
442.130, 215.467
442.612, 212.217
443.095, 208.075
443.577, 205.949
444.059, 209.905
444.541, 213.042
445.023, 211.588
445.505, 205.246
445.987, 201.910
446.469, 206.209
446.952, 211.748
447.434, 214.258
447.916, 210.879
448.398, 208.413
448.880, 207.585
449.362, 207.788
449.844, 207.275
450.326, 205.537
450.808, 204.038
451.290, 203.228
451.773, 203.072
452.255, 204.174
452.737, 206.955
453.219, 210.135
453.701, 212.729
454.183, 214.759
454.665, 214.539
455.147, 210.626
455.630, 204.928
456.112, 202.316
456.594, 202.748
457.076, 204.246
457.558, 206.587
458.040, 208.818
458.522, 208.243
459.004, 203.792
459.487, 199.529
459.969, 200.016
460.451, 203.601
460.933, 206.867
461.415, 208.776
461.897, 209.347
462.379, 207.542
462.861, 203.584
463.343, 201.240
463.826, 203.787
464.308, 207.779
464.790, 210.576
465.272, 211.016
465.754, 211.045
466.236, 211.114
466.718, 211.042
467.200, 210.392
467.682, 209.541
468.165, 207.660
468.647, 203.713
469.129, 196.749
469.611, 193.653
470.093, 196.375
470.575, 200.602
471.057, 201.772
471.539, 198.435
472.022, 197.850
472.504, 202.367
472.986, 209.618
473.468, 212.281
473.950, 210.036
474.432, 206.538
474.914, 203.624
475.396, 201.184
475.878, 198.370
476.361, 194.930
476.843, 192.495
477.325, 194.501
477.807, 199.006
478.289, 201.103
478.771, 197.001
479.253, 191.589
479.735, 189.991
480.217, 191.576
480.700, 193.251
481.182, 191.725
481.664, 190.510
482.146, 193.223
482.628, 202.582
483.110, 209.294
483.592, 208.220
484.074, 203.141
484.556, 199.292
485.039, 198.206
485.521, 197.913
486.003, 198.784
486.485, 200.683
486.967, 200.219
487.449, 195.305
487.931, 190.393
488.414, 188.188
488.896, 189.655
489.378, 191.023
489.860, 192.187
490.342, 193.220
490.824, 194.716
491.306, 196.935
491.788, 197.217
492.270, 192.825
492.753, 185.950
493.235, 186.508
493.717, 194.722
494.199, 202.632
494.681, 202.122
495.163, 196.422
495.645, 192.915
496.127, 193.339
496.609, 195.279
497.092, 196.959
497.574, 198.328
498.056, 199.279
498.538, 199.936
499.020, 200.008
499.502, 199.301
499.984, 197.806
500.466, 195.668
500.948, 191.887
501.431, 188.145
501.913, 185.699
502.395, 185.719
502.877, 185.711
503.359, 184.683
503.841, 183.644
504.323, 184.827
504.805, 190.254
505.288, 194.755
505.770, 196.939
506.252, 196.801
506.734, 195.259
507.216, 191.979
507.698, 188.126
508.180, 184.533
508.662, 181.201
509.145, 178.095
509.627, 174.865
510.109, 172.577
510.591, 173.682
511.073, 177.655
511.555, 181.599
512.037, 184.881
512.519, 186.935
513.001, 186.382
513.484, 183.331
513.966, 180.031
514.448, 176.862
514.930, 174.758
515.412, 174.962
515.894, 179.281
516.376, 183.108
516.858, 184.776
517.341, 184.652
517.823, 183.379
518.305, 179.477
518.787, 176.027
519.269, 173.912
519.751, 173.152
520.233, 173.270
520.715, 175.242
521.197, 176.966
521.680, 176.780
522.162, 173.820
522.644, 172.036
523.126, 171.943
523.608, 172.781
524.090, 173.183
524.572, 173.126
525.054, 173.240
525.536, 174.104
526.019, 175.196
526.501, 174.946
526.983, 173.386
527.465, 171.449
527.947, 169.582
528.429, 167.897
528.911, 166.430
529.393, 165.111
529.875, 164.341
530.358, 165.565
530.840, 167.314
531.322, 167.257
531.804, 162.114
532.286, 157.323
532.768, 155.378
533.250, 156.038
533.732, 156.618
534.214, 156.038
534.697, 155.871
535.179, 157.062
535.661, 160.818
536.143, 162.738
536.625, 161.950
537.107, 160.165
537.589, 160.022
538.071, 162.165
538.554, 162.404
539.036, 158.725
539.518, 153.118
540.000, 151.849
540.482, 154.944
540.964, 159.238
541.446, 163.708
541.928, 167.803
542.411, 170.455
542.893, 171.604
543.375, 171.135
543.857, 167.550
544.339, 162.662
544.821, 159.059
545.303, 158.526
545.785, 158.151
546.268, 155.663
546.750, 152.140
547.232, 150.476
547.714, 152.915
548.196, 156.012
548.678, 159.089
549.160, 162.454
549.642, 163.110
550.124, 158.672
550.606, 153.954
551.089, 152.858
551.571, 156.626
552.053, 160.044
552.535, 163.346
553.017, 165.222
553.499, 161.670
553.981, 152.640
554.463, 145.595
554.945, 144.057
555.428, 146.343
555.910, 148.930
556.392, 151.771
556.874, 154.395
557.356, 157.771
557.838, 160.174
558.320, 158.776
558.802, 152.110
559.284, 145.749
559.767, 142.259
560.249, 141.136
560.731, 141.670
561.213, 146.914
561.695, 150.298
562.177, 149.021
562.659, 144.028
563.141, 140.770
563.624, 140.339
564.106, 140.375
564.588, 139.817
565.070, 138.439
565.552, 138.705
566.034, 141.439
566.516, 143.967
566.998, 142.793
567.481, 138.132
567.963, 135.593
568.445, 136.591
568.927, 139.083
569.409, 140.441
569.891, 140.690
570.373, 139.349
570.855, 140.620
571.338, 141.258
571.820, 141.295
572.302, 138.935
572.784, 139.670
573.266, 139.165
573.748, 138.609
574.230, 139.780
574.712, 137.769
575.194, 138.913
575.677, 138.566
576.159, 131.703
576.641, 128.613
577.123, 132.057
577.605, 134.121
578.087, 132.794
578.569, 129.483
579.051, 129.997
579.533, 135.310
580.016, 139.453
580.498, 137.975
580.980, 132.360
581.462, 131.713
581.944, 136.327
582.426, 140.228
582.908, 135.229
583.390, 126.303
583.872, 122.910
584.355, 129.063
584.837, 135.567
585.319, 134.736
585.801, 130.043
586.283, 127.430
586.765, 131.403
587.247, 135.303
587.729, 136.581
588.211, 135.488
588.694, 135.155
589.176, 136.928
589.658, 138.106
590.140, 137.267
590.622, 133.811
591.104, 131.546
591.586, 130.384
592.068, 130.641
592.551, 134.083
593.033, 140.436
593.515, 142.708
593.997, 138.695
594.479, 132.130
594.961, 127.678
595.443, 125.266
595.925, 124.766
596.407, 127.916
596.890, 131.673
597.372, 133.743
597.854, 134.107
598.336, 132.762
598.818, 126.560
599.300, 120.952
599.782, 120.021
600.265, 126.764
600.747, 130.292
601.229, 126.999
601.711, 122.125
602.193, 120.698
602.675, 124.467
603.157, 127.069
603.639, 127.556
604.121, 126.733
604.604, 126.646
605.086, 127.351
605.568, 126.891
606.050, 123.784
606.532, 119.208
607.014, 115.423
607.496, 112.489
607.978, 110.879
608.460, 111.637
608.943, 113.551
609.425, 115.804
609.907, 118.641
610.389, 119.780
610.871, 115.945
611.353, 110.966
611.835, 108.636
612.317, 111.856
612.799, 114.947
613.282, 118.394
613.764, 121.191
614.246, 120.602
614.728, 114.612
615.210, 110.736
615.692, 112.345
616.174, 117.939
616.656, 118.885
617.138, 114.959
617.621, 110.483
618.103, 108.062
618.585, 107.341
619.067, 107.563
619.549, 108.700
620.031, 110.361
620.513, 113.171
620.995, 115.976
621.477, 117.356
621.960, 116.374
622.442, 114.805
622.924, 113.137
623.406, 111.301
623.888, 109.103
624.370, 104.370
624.852, 102.128
625.334, 104.786
625.817, 111.128
626.299, 112.336
626.781, 106.570
627.263, 101.846
627.745, 103.467
628.227, 110.560
628.709, 116.063
629.191, 120.059
629.674, 121.282
630.156, 115.687
630.638, 107.198
631.120, 103.129
631.602, 106.098
632.084, 109.858
632.566, 109.561
633.048, 107.556
633.531, 107.196
634.013, 111.310
634.495, 115.165
634.977, 119.372
635.459, 122.657
635.941, 119.735
636.423, 104.175
636.905, 93.544
637.387, 96.154
637.870, 110.809
638.352, 117.408
638.834, 115.025
639.316, 110.438
639.798, 108.614
640.280, 108.732
640.762, 108.130
641.244, 106.523
641.726, 104.522
642.209, 101.752
642.691, 99.220
643.173, 98.504
643.655, 101.368
644.137, 104.054
644.619, 104.520
645.101, 103.850
645.583, 104.150
646.065, 107.865
646.548, 109.973
647.030, 108.849
647.512, 105.190
647.994, 103.015
648.476, 102.383
648.958, 103.015
649.440, 105.824
649.922, 110.154
650.404, 111.353
650.887, 105.086
651.369, 111.354
651.851, 114.579
652.333, 114.925
652.815, 103.768
653.297, 107.464
653.779, 105.208
654.261, 102.708
654.744, 108.495
655.226, 99.011
655.708, 104.667
656.190, 104.279
656.672, 106.657
657.154, 103.046
657.636, 101.790
658.118, 102.661
658.601, 103.017
659.083, 102.883
659.565, 100.797
660.047, 101.232
660.529, 100.657
661.011, 100.040
661.493, 100.830
661.975, 99.028
662.458, 99.796
662.940, 99.538
663.422, 99.749
663.904, 98.944
664.386, 98.453
664.868, 98.978
665.350, 98.941
665.832, 97.502
666.314, 97.049
666.797, 96.142
667.279, 95.810
667.761, 95.494
668.243, 97.257
668.725, 102.994
669.207, 109.470
669.689, 108.673
670.171, 100.316
670.653, 93.689
671.135, 92.703
671.618, 94.910
672.100, 95.162
672.582, 94.038
673.064, 94.378
673.546, 101.511
674.028, 108.144
674.510, 107.130
674.992, 98.195
675.474, 90.774
675.957, 88.896
676.439, 88.826
676.921, 88.268
677.403, 86.476
677.885, 86.438
678.367, 88.675
678.849, 91.914
679.331, 95.357
679.814, 99.040
680.296, 101.048
680.778, 100.957
681.260, 99.458
681.742, 96.748
682.224, 93.338
682.706, 90.680
683.188, 88.982
683.670, 88.562
684.153, 90.680
684.635, 94.285
685.117, 96.759
685.599, 97.177
686.081, 96.382
686.563, 93.456
687.045, 88.913
687.528, 87.763
