##NAMES=Stibnite
##RRUFFID=R050016
##IDEAL CHEMISTRY=Sb^3+^_2_S^2-^_3_
##LOCALITY=Romania
##OWNER=RRUFF
##SOURCE=Eugene Schlepp
##DESCRIPTION=Group of lead-gray prismatic crystals
##STATUS=The identification of this mineral has been confirmed by X-ray diffraction and chemical analysis
##URL=rruff.info/R050016
##MEASURED CHEMISTRY=(Sb_.996_As_.004_)_2_S_3_
90.190, 115.898
90.673, 114.495
91.155, 113.554
91.637, 111.223
92.119, 111.344
92.601, 116.814
93.083, 124.790
93.565, 130.561
94.047, 131.400
94.529, 128.520
95.012, 127.627
95.494, 129.600
95.976, 132.192
96.458, 135.173
96.940, 138.241
97.422, 140.137
97.904, 139.523
98.386, 137.094
98.869, 136.750
99.351, 141.644
99.833, 146.394
100.315, 145.253
100.797, 137.859
101.279, 131.912
101.761, 134.801
102.243, 143.806
102.726, 151.370
103.208, 155.578
103.690, 157.616
104.172, 158.899
104.654, 159.128
105.136, 159.590
105.618, 160.332
106.100, 161.807
106.582, 165.651
107.064, 174.042
107.547, 185.634
108.029, 195.730
108.511, 203.433
108.993, 210.334
109.475, 215.714
109.957, 220.589
110.439, 228.578
110.921, 244.303
111.404, 267.647
111.886, 287.601
112.368, 300.170
112.850, 311.646
113.332, 324.648
113.814, 339.391
114.296, 355.180
114.778, 371.279
115.260, 387.735
115.743, 404.596
116.225, 424.618
116.707, 443.175
117.189, 455.069
117.671, 460.507
118.153, 466.484
118.635, 481.786
119.117, 504.007
119.600, 542.814
120.082, 595.833
120.564, 662.999
121.046, 740.547
121.528, 828.302
122.010, 934.038
122.492, 1074.475
122.974, 1257.496
123.456, 1468.607
123.939, 1706.278
124.421, 1968.327
124.903, 2261.686
125.385, 2586.760
125.867, 2931.180
126.349, 3255.345
126.831, 3572.978
127.313, 3853.192
127.796, 4088.769
128.278, 4286.500
128.760, 4455.062
129.242, 4596.902
129.724, 4715.384
130.206, 4819.829
130.688, 4932.949
131.170, 5010.391
131.652, 5031.588
132.135, 5010.199
132.617, 4970.892
133.099, 4926.150
133.581, 4875.407
134.063, 4816.501
134.545, 4731.375
135.027, 4657.533
135.509, 4604.299
135.992, 4573.255
136.474, 4569.357
136.956, 4598.296
137.438, 4659.282
137.920, 4732.568
138.402, 4801.343
138.884, 4894.832
139.366, 5027.227
139.848, 5198.255
140.331, 5407.396
140.813, 5653.890
141.295, 5943.542
141.777, 6268.391
142.259, 6634.383
142.741, 7030.526
143.223, 7447.328
143.705, 7884.403
144.188, 8342.225
144.670, 8832.815
145.152, 9347.737
145.634, 9859.087
146.116, 10357.970
146.598, 10854.080
147.080, 11360.320
147.562, 11881.370
148.044, 12398.100
148.527, 12892.700
149.009, 13374.020
149.491, 13853.980
149.973, 14347.430
150.455, 14842.310
150.937, 15322.580
151.419, 15794.510
151.901, 16237.220
152.383, 16633.170
152.866, 16993.311
153.348, 17332.500
153.830, 17669.631
154.312, 17986.779
154.794, 18253.430
155.276, 18478.830
155.758, 18624.561
156.240, 18671.199
156.723, 18630.150
157.205, 18511.740
157.687, 18295.420
158.169, 18003.561
158.651, 17695.949
159.133, 17344.420
159.615, 17027.500
160.097, 16764.311
160.579, 16558.289
161.062, 16424.670
161.544, 16382.590
162.026, 16423.061
162.508, 16503.660
162.990, 16635.420
163.472, 16796.660
163.954, 16966.449
164.436, 17150.971
164.919, 17367.930
165.401, 17636.631
165.883, 17951.430
166.365, 18264.359
166.847, 18571.150
167.329, 18879.260
167.811, 19195.029
168.293, 19513.320
168.775, 19824.619
169.258, 20118.340
169.740, 20395.770
170.222, 20675.961
170.704, 20960.689
171.186, 21246.699
171.668, 21536.820
172.150, 21828.420
172.632, 22115.789
173.115, 22388.080
173.597, 22647.010
174.079, 22936.070
174.561, 23290.119
175.043, 23645.891
175.525, 23972.990
176.007, 24282.789
176.489, 24601.039
176.971, 24949.650
177.454, 25328.779
177.936, 25717.029
178.418, 26102.160
178.900, 26508.301
179.382, 26926.529
179.864, 27371.619
180.346, 27873.000
180.828, 28462.230
181.311, 29138.910
181.793, 29822.660
182.275, 30461.000
182.757, 31155.789
183.239, 31939.660
183.721, 32805.641
184.203, 33722.961
184.685, 34670.012
185.167, 35644.051
185.650, 36682.359
186.132, 37837.578
186.614, 39010.609
187.096, 40181.461
187.578, 41353.828
188.060, 42537.141
188.542, 43767.148
189.024, 45036.840
189.507, 46200.941
189.989, 47250.270
190.471, 48184.480
190.953, 48981.270
191.435, 49657.840
191.917, 50254.039
192.399, 50807.988
192.881, 51317.031
193.363, 51694.230
193.846, 51886.531
194.328, 51989.559
194.810, 51982.762
195.292, 51903.289
195.774, 51811.281
196.256, 51748.699
196.738, 51713.770
197.220, 51673.672
197.702, 51617.180
198.185, 51567.469
198.667, 51536.379
199.149, 51515.309
199.631, 51491.980
200.113, 51460.422
200.595, 51418.410
201.077, 51344.922
201.559, 51218.809
202.042, 51077.629
202.524, 50942.141
203.006, 50793.559
203.488, 50602.750
203.970, 50351.160
204.452, 50043.191
204.934, 49710.109
205.416, 49360.039
205.898, 48970.699
206.381, 48541.012
206.863, 48068.449
207.345, 47547.301
207.827, 46970.941
208.309, 46351.340
208.791, 45743.680
209.273, 45189.219
209.755, 44593.512
210.238, 43929.238
210.720, 43225.691
211.202, 42514.531
211.684, 41814.051
212.166, 41125.828
212.648, 40451.762
213.130, 39806.852
213.612, 39164.988
214.094, 38510.012
214.577, 37866.578
215.059, 37252.609
215.541, 36680.730
216.023, 36146.328
216.505, 35630.160
216.987, 35102.340
217.469, 34653.090
217.951, 34325.441
218.434, 34051.602
218.916, 33760.711
219.398, 33429.262
219.880, 33099.539
220.362, 32855.250
220.844, 32729.279
221.326, 32636.100
221.808, 32559.711
222.290, 32513.539
222.773, 32503.840
223.255, 32533.480
223.737, 32609.180
224.219, 32744.410
224.701, 32957.910
225.183, 33193.430
225.665, 33416.461
226.147, 33679.102
226.629, 34016.590
227.112, 34434.020
227.594, 34912.230
228.076, 35429.762
228.558, 35978.629
229.040, 36587.988
229.522, 37285.809
230.004, 38015.641
230.486, 38736.961
230.969, 39453.500
231.451, 40203.301
231.933, 41041.910
232.415, 41986.980
232.897, 42910.211
233.379, 43818.699
233.861, 44691.520
234.343, 45530.539
234.825, 46330.090
235.307, 47076.520
235.790, 47766.031
236.272, 48400.012
236.754, 48960.969
237.236, 49516.289
237.718, 49917.852
238.200, 50106.480
238.682, 50105.672
239.165, 49973.691
239.647, 49750.238
240.129, 49429.871
240.611, 48977.602
241.093, 48352.512
241.575, 47630.039
242.057, 46834.020
242.539, 45968.641
243.021, 45037.559
243.503, 44028.922
243.986, 42969.910
244.468, 41940.230
244.950, 40942.141
245.432, 39975.789
245.914, 39026.570
246.396, 38112.711
246.878, 37246.430
247.361, 36430.551
247.843, 35672.512
248.325, 34985.789
248.807, 34371.160
249.289, 33826.359
249.771, 33361.531
250.253, 32956.789
250.735, 32593.939
251.217, 32270.000
251.699, 31993.500
252.182, 31783.650
252.664, 31648.039
253.146, 31522.551
253.628, 31378.820
254.110, 31249.580
254.592, 31170.119
255.074, 31146.051
255.556, 31122.381
256.039, 31045.199
256.521, 30917.381
257.003, 30797.029
257.485, 30688.789
257.967, 30598.180
258.449, 30531.180
258.931, 30486.500
259.413, 30444.881
259.896, 30383.961
260.378, 30315.000
260.860, 30277.131
261.342, 30273.689
261.824, 30305.930
262.306, 30380.920
262.788, 30491.570
263.270, 30616.711
263.752, 30725.430
264.235, 30851.211
264.717, 31040.789
265.199, 31290.699
265.681, 31635.471
266.163, 32122.020
266.645, 32727.859
267.127, 33402.891
267.609, 34104.051
268.091, 34892.730
268.574, 35824.789
269.056, 36898.078
269.538, 38105.512
270.020, 39425.621
270.502, 40891.871
270.984, 42514.070
271.466, 44282.559
271.948, 46219.109
272.431, 48341.371
272.913, 50648.801
273.395, 53114.930
273.877, 55746.090
274.359, 58530.160
274.841, 61483.691
275.323, 64645.852
275.805, 67862.203
276.288, 71117.078
276.770, 74394.109
277.252, 77654.477
277.734, 80911.039
278.216, 84100.453
278.698, 87146.656
279.180, 90103.031
279.662, 92744.539
280.144, 95185.172
280.626, 97235.992
281.109, 98770.930
281.591, 99753.977
282.073, 100121.797
282.555, 99795.938
283.037, 98693.680
283.519, 97056.062
284.001, 94807.094
284.483, 92154.547
284.966, 89098.289
285.448, 85726.102
285.930, 82154.172
286.412, 78481.070
286.894, 74699.852
287.376, 71122.008
287.858, 67796.047
288.340, 64600.879
288.823, 61463.328
289.305, 58465.500
289.787, 55739.641
290.269, 53357.500
290.751, 51292.961
291.233, 49437.719
291.715, 47784.922
292.197, 46401.980
292.679, 45324.051
293.162, 44484.352
293.644, 43823.609
294.126, 43323.891
294.608, 42987.160
295.090, 42820.641
295.572, 42831.012
296.054, 43002.410
296.536, 43365.922
297.018, 43853.551
297.501, 44449.160
297.983, 45140.840
298.465, 45898.371
298.947, 46686.590
299.429, 47506.648
299.911, 48390.711
300.393, 49360.750
300.875, 50372.988
301.358, 51403.328
301.840, 52455.078
302.322, 53540.461
302.804, 54647.730
303.286, 55799.289
303.768, 57065.988
304.250, 58475.852
304.732, 59949.289
305.215, 61451.719
305.697, 62996.820
306.179, 64597.789
306.661, 66276.188
307.143, 68007.594
307.625, 69790.703
308.107, 71620.000
308.589, 73448.297
309.071, 75365.391
309.553, 77167.703
310.036, 78650.727
310.518, 79854.461
311.000, 80576.758
311.482, 80938.844
311.964, 80744.867
312.446, 79467.453
312.928, 76983.773
313.410, 73396.922
313.893, 68487.227
314.375, 62297.461
314.857, 55974.602
315.339, 49396.090
315.821, 43013.371
316.303, 37211.961
316.785, 32064.750
317.267, 27604.100
317.750, 23879.699
318.232, 20937.980
318.714, 18448.570
319.196, 16523.561
319.678, 14910.650
320.160, 13540.970
320.642, 12394.120
321.124, 11427.530
321.606, 10631.810
322.089, 9982.836
322.571, 9413.955
323.053, 8950.108
323.535, 8535.742
324.017, 8182.504
324.499, 7871.358
324.981, 7586.231
325.463, 7322.563
325.945, 7077.732
326.428, 6851.836
326.910, 6644.479
327.392, 6459.313
327.874, 6306.411
328.356, 6163.315
328.838, 6020.863
329.320, 5878.536
329.802, 5740.359
330.284, 5608.273
330.767, 5482.802
331.249, 5372.406
331.731, 5290.163
332.213, 5206.260
332.695, 5100.420
333.177, 4990.194
333.659, 4901.125
334.142, 4848.884
334.624, 4814.584
335.106, 4764.381
335.588, 4694.537
336.070, 4627.296
336.552, 4570.973
337.034, 4519.369
337.516, 4467.135
337.998, 4413.464
338.480, 4361.898
338.963, 4316.225
339.445, 4275.107
339.927, 4230.499
340.409, 4176.836
340.891, 4127.899
341.373, 4103.256
341.855, 4098.100
342.337, 4085.976
342.819, 4051.438
343.302, 4011.085
343.784, 3983.395
344.266, 3968.837
344.748, 3960.392
345.230, 3957.446
345.712, 3956.224
346.194, 3938.147
346.677, 3880.673
347.159, 3832.568
347.641, 3821.412
348.123, 3830.515
348.605, 3827.852
349.087, 3800.616
349.569, 3761.693
350.051, 3735.934
350.533, 3734.568
351.016, 3727.126
351.498, 3707.036
351.980, 3685.791
352.462, 3674.443
352.944, 3672.222
353.426, 3668.028
353.908, 3650.101
354.390, 3617.458
354.872, 3592.294
355.355, 3586.698
355.837, 3576.734
356.319, 3553.061
356.801, 3521.919
357.283, 3493.785
357.765, 3474.246
358.247, 3459.179
358.729, 3439.132
359.211, 3412.825
359.694, 3385.545
360.176, 3350.798
360.658, 3320.479
361.140, 3308.750
361.622, 3317.158
362.104, 3321.485
362.586, 3296.644
363.069, 3248.470
363.551, 3210.426
364.033, 3190.790
364.515, 3173.467
364.997, 3141.584
365.479, 3100.299
365.961, 3067.237
366.443, 3057.474
366.925, 3051.526
367.408, 3026.466
367.890, 2984.075
368.372, 2944.078
368.854, 2916.046
369.336, 2898.886
369.818, 2889.488
370.300, 2894.861
370.782, 2895.558
371.264, 2882.519
371.747, 2863.083
372.229, 2847.562
372.711, 2838.565
373.193, 2830.973
373.675, 2817.621
374.157, 2795.241
374.639, 2779.701
375.121, 2780.652
375.603, 2778.407
376.086, 2758.254
376.568, 2726.483
377.050, 2700.672
377.532, 2693.526
378.014, 2699.807
378.496, 2695.921
378.978, 2673.894
379.460, 2654.680
379.943, 2643.403
380.425, 2635.630
380.907, 2629.602
381.389, 2624.528
381.871, 2614.810
382.353, 2588.301
382.835, 2545.119
383.317, 2519.925
383.799, 2526.746
384.282, 2539.126
384.764, 2538.125
385.246, 2526.788
385.728, 2515.580
386.210, 2511.333
386.692, 2508.122
387.174, 2497.441
387.656, 2479.286
388.138, 2459.257
388.621, 2438.831
389.103, 2419.305
389.585, 2403.534
390.067, 2391.062
390.549, 2382.645
391.031, 2383.874
391.513, 2387.440
391.996, 2381.307
392.478, 2362.741
392.960, 2340.366
393.442, 2324.524
393.924, 2317.048
394.406, 2307.372
394.888, 2292.188
395.370, 2278.386
395.852, 2270.115
396.335, 2265.641
396.817, 2260.510
397.299, 2251.877
397.781, 2241.818
398.263, 2237.811
398.745, 2245.840
399.227, 2247.810
399.709, 2237.854
400.191, 2223.753
400.674, 2210.625
401.156, 2199.490
401.638, 2189.174
402.120, 2178.435
402.602, 2167.481
403.084, 2157.188
403.566, 2145.650
404.048, 2138.832
404.530, 2147.033
405.013, 2162.250
405.495, 2167.821
405.977, 2153.462
406.459, 2134.835
406.941, 2124.636
407.423, 2121.870
407.905, 2122.826
408.387, 2127.288
408.870, 2132.549
409.352, 2132.713
409.834, 2124.521
410.316, 2122.547
410.798, 2137.792
411.280, 2153.746
411.762, 2152.747
412.244, 2136.427
412.727, 2121.677
413.209, 2122.032
413.691, 2136.346
414.173, 2149.690
414.655, 2166.054
415.137, 2176.335
415.619, 2174.898
416.101, 2168.771
416.583, 2165.053
417.065, 2166.045
417.548, 2170.249
418.030, 2176.908
418.512, 2186.617
418.994, 2192.833
419.476, 2191.795
419.958, 2191.003
420.440, 2194.948
420.922, 2202.541
421.405, 2210.600
421.887, 2218.171
422.369, 2225.220
422.851, 2233.765
423.333, 2243.502
423.815, 2244.277
424.297, 2224.739
424.779, 2200.776
425.262, 2206.840
425.744, 2254.483
426.226, 2288.619
426.708, 2285.725
427.190, 2267.283
427.672, 2252.970
428.154, 2246.589
428.636, 2249.193
429.118, 2263.745
429.601, 2289.711
430.083, 2302.760
430.565, 2291.500
431.047, 2280.873
431.529, 2274.644
432.011, 2272.073
432.493, 2272.750
432.975, 2276.354
433.457, 2280.611
433.940, 2281.068
434.422, 2276.359
434.904, 2278.388
435.386, 2296.346
435.868, 2311.477
436.350, 2312.844
436.832, 2303.677
437.314, 2292.693
437.797, 2280.070
438.279, 2270.829
438.761, 2274.368
439.243, 2290.039
439.725, 2303.494
440.207, 2308.214
440.689, 2309.114
441.171, 2316.031
441.654, 2331.402
442.136, 2341.353
442.618, 2339.596
443.100, 2333.142
443.582, 2326.060
444.064, 2320.032
444.546, 2319.080
445.028, 2326.605
445.510, 2341.736
445.992, 2357.730
446.475, 2382.866
446.957, 2398.095
447.439, 2394.540
447.921, 2383.970
448.403, 2376.996
448.885, 2376.247
449.367, 2378.755
449.849, 2382.939
450.332, 2388.717
450.814, 2389.626
451.296, 2382.696
451.778, 2375.614
452.260, 2370.801
452.742, 2368.922
453.224, 2371.611
453.706, 2380.535
454.189, 2392.113
454.671, 2404.329
455.153, 2416.875
455.635, 2429.329
456.117, 2442.181
456.599, 2452.528
457.081, 2455.692
457.563, 2449.449
458.045, 2447.040
458.528, 2453.445
459.010, 2459.309
459.492, 2456.495
459.974, 2448.867
460.456, 2446.338
460.938, 2454.333
461.420, 2468.856
461.902, 2480.109
462.384, 2486.832
462.867, 2493.102
463.349, 2500.844
463.831, 2506.901
464.313, 2509.920
464.795, 2509.600
465.277, 2505.268
465.759, 2491.161
466.241, 2475.112
466.724, 2478.771
467.206, 2505.103
467.688, 2527.214
468.170, 2531.473
468.652, 2526.267
469.134, 2526.541
469.616, 2533.163
470.098, 2541.831
470.581, 2554.962
471.063, 2567.310
471.545, 2571.902
472.027, 2568.552
472.509, 2562.652
472.991, 2558.096
473.473, 2554.742
473.955, 2551.754
474.437, 2550.899
474.919, 2548.127
475.402, 2536.372
475.884, 2526.335
476.366, 2532.330
476.848, 2555.080
477.330, 2577.238
477.812, 2580.298
478.294, 2565.448
478.776, 2547.310
479.259, 2518.984
479.741, 2501.874
480.223, 2520.052
480.705, 2552.973
481.187, 2570.990
481.669, 2565.253
482.151, 2552.846
482.633, 2538.551
483.116, 2526.493
483.598, 2527.805
484.080, 2545.280
484.562, 2565.471
485.044, 2574.952
485.526, 2573.073
486.008, 2573.415
486.490, 2578.684
486.972, 2582.709
487.455, 2580.778
487.937, 2577.528
488.419, 2580.646
488.901, 2592.264
489.383, 2605.040
489.865, 2608.350
490.347, 2601.115
490.829, 2595.378
491.311, 2593.855
491.794, 2590.375
492.276, 2578.259
492.758, 2562.718
493.240, 2554.012
493.722, 2556.755
494.204, 2563.903
494.686, 2571.316
495.168, 2578.269
495.651, 2581.594
496.133, 2580.051
496.615, 2577.561
497.097, 2579.016
497.579, 2585.329
498.061, 2587.560
498.543, 2582.016
499.025, 2576.643
499.508, 2576.194
499.990, 2577.682
500.472, 2575.274
500.954, 2566.872
501.436, 2557.270
501.918, 2553.768
502.400, 2557.162
502.882, 2562.176
503.364, 2572.631
503.846, 2579.579
504.329, 2576.487
504.811, 2567.266
505.293, 2560.333
505.775, 2559.570
506.257, 2559.911
506.739, 2556.466
507.221, 2550.182
507.703, 2544.277
508.186, 2539.634
508.668, 2535.494
509.150, 2531.102
509.632, 2526.415
510.114, 2521.650
510.596, 2516.071
511.078, 2511.221
511.560, 2506.113
512.042, 2502.592
512.525, 2505.670
513.007, 2516.746
513.489, 2527.193
513.971, 2523.139
514.453, 2502.735
514.935, 2485.198
515.417, 2474.359
515.899, 2462.075
516.382, 2439.068
516.864, 2412.715
517.346, 2397.184
517.828, 2399.785
518.310, 2407.497
518.792, 2414.449
519.274, 2418.435
519.756, 2410.792
520.239, 2388.768
520.721, 2367.049
521.203, 2362.641
521.685, 2377.136
522.167, 2376.529
522.649, 2351.611
523.131, 2324.769
523.613, 2295.778
524.096, 2271.191
524.578, 2260.574
525.060, 2265.722
525.542, 2275.634
526.024, 2279.209
526.506, 2276.531
526.988, 2268.022
527.470, 2250.615
527.952, 2233.723
528.435, 2222.016
528.917, 2214.120
529.399, 2209.282
529.881, 2210.367
530.363, 2206.901
530.845, 2187.127
531.327, 2162.083
531.809, 2150.708
532.291, 2154.488
532.774, 2158.288
533.256, 2149.855
533.738, 2130.501
534.220, 2110.818
534.702, 2083.817
535.184, 2066.473
535.666, 2066.836
536.148, 2073.047
536.630, 2075.668
537.113, 2073.517
537.595, 2070.596
538.077, 2070.628
538.559, 2072.039
539.041, 2070.294
539.523, 2065.139
540.005, 2058.559
540.487, 2050.089
540.969, 2041.670
541.452, 2037.755
541.934, 2040.376
542.416, 2038.260
542.898, 2025.955
543.380, 2010.640
543.862, 1997.920
544.344, 1987.413
544.826, 1975.700
545.309, 1960.694
545.791, 1945.026
546.273, 1935.466
546.755, 1934.067
547.237, 1932.540
547.719, 1930.060
548.201, 1927.444
548.683, 1925.070
549.166, 1922.923
549.648, 1920.960
550.130, 1919.850
550.612, 1918.009
551.094, 1914.282
551.576, 1908.535
552.058, 1899.416
552.540, 1886.167
553.023, 1872.444
553.505, 1862.045
553.987, 1855.020
554.469, 1851.305
554.951, 1855.407
555.433, 1857.029
555.915, 1851.167
556.397, 1842.023
556.879, 1835.056
557.362, 1831.642
557.844, 1828.839
558.326, 1823.970
558.808, 1817.052
559.290, 1808.292
559.772, 1797.367
560.254, 1785.487
560.736, 1771.341
561.218, 1757.549
561.701, 1749.471
562.183, 1749.469
562.665, 1748.674
563.147, 1745.868
563.629, 1739.933
564.111, 1727.323
564.593, 1709.797
565.075, 1694.853
565.557, 1687.415
566.040, 1685.348
566.522, 1682.924
567.004, 1681.427
567.486, 1676.158
567.968, 1660.184
568.450, 1645.829
568.932, 1641.009
569.414, 1643.904
569.896, 1647.414
570.379, 1650.020
570.861, 1650.557
571.343, 1648.100
571.825, 1642.630
572.307, 1632.627
572.789, 1617.163
573.271, 1602.254
573.753, 1594.391
574.236, 1594.007
574.718, 1596.130
575.200, 1606.445
575.682, 1612.298
576.164, 1607.374
576.646, 1598.294
577.128, 1592.466
577.610, 1591.449
578.093, 1591.672
578.575, 1589.683
579.057, 1586.356
579.539, 1585.710
580.021, 1588.446
580.503, 1588.370
580.985, 1582.595
581.467, 1572.284
581.950, 1558.245
582.432, 1537.333
582.914, 1523.588
583.396, 1522.562
583.878, 1525.987
584.360, 1531.646
584.842, 1536.771
585.324, 1535.396
585.806, 1524.249
586.289, 1509.882
586.771, 1504.268
587.253, 1508.394
587.735, 1511.428
588.217, 1513.754
588.699, 1512.768
589.181, 1506.049
589.663, 1494.879
590.145, 1481.138
590.628, 1462.468
591.110, 1445.909
591.592, 1436.316
592.074, 1430.043
592.556, 1421.537
593.038, 1410.482
593.520, 1401.170
594.002, 1397.128
594.484, 1397.180
594.967, 1395.861
595.449, 1392.885
595.931, 1389.147
596.413, 1388.517
596.895, 1384.063
597.377, 1368.328
597.859, 1343.673
598.341, 1321.881
598.823, 1308.889
599.306, 1299.718
599.788, 1289.544
600.270, 1279.333
600.752, 1272.697
601.234, 1270.761
601.716, 1269.355
602.198, 1263.953
602.680, 1254.480
603.162, 1242.855
603.645, 1227.648
604.127, 1211.995
604.609, 1192.530
605.091, 1175.314
605.573, 1169.041
606.055, 1173.759
606.537, 1175.930
607.019, 1163.882
607.502, 1144.317
607.984, 1127.515
