##NAMES=Stibnite
##RRUFFID=R050016
##IDEAL CHEMISTRY=Sb^3+^_2_S^2-^_3_
##LOCALITY=Romania
##OWNER=RRUFF
##SOURCE=Eugene Schlepp
##DESCRIPTION=Group of lead-gray prismatic crystals
##STATUS=The identification of this mineral has been confirmed by X-ray diffraction and chemical analysis
##URL=rruff.info/R050016
##MEASURED CHEMISTRY=(Sb_.996_As_.004_)_2_S_3_
119.5731, 544.8766
120.0552, 573.2208
120.5373, 605.7121
121.0194, 645.6140
121.5015, 693.9178
121.9836, 747.2275
122.4658, 800.6510
122.9479, 859.8510
123.4300, 931.8154
123.9121, 1020.765
124.3942, 1120.926
124.8763, 1215.034
125.3585, 1288.031
125.8406, 1384.606
126.3227, 1523.526
126.8048, 1684.452
127.2869, 1846.121
127.7690, 1996.399
128.2512, 2139.775
128.7333, 2290.151
129.2154, 2467.749
129.6975, 2625.841
130.1796, 2758.686
130.6617, 2867.087
131.1439, 2952.646
131.6260, 3016.942
132.1081, 3058.953
132.5902, 3070.061
133.0723, 3021.204
133.5544, 2969.010
134.0366, 2918.948
134.5187, 2873.161
135.0008, 2832.930
135.4829, 2799.329
135.9650, 2772.270
136.4471, 2751.255
136.9293, 2724.719
137.4114, 2715.022
137.8935, 2731.625
138.3756, 2770.941
138.8577, 2823.629
139.3398, 2882.672
139.8220, 2948.217
140.3041, 3032.518
140.7862, 3139.583
141.2683, 3256.530
141.7504, 3375.046
142.2325, 3497.119
142.7147, 3631.004
143.1968, 3784.577
143.6789, 3958.248
144.1610, 4137.555
144.6431, 4326.091
145.1252, 4515.781
145.6074, 4703.272
146.0895, 4888.079
146.5716, 5069.779
147.0537, 5248.174
147.5358, 5422.633
148.0179, 5593.085
148.5001, 5760.216
148.9822, 5922.799
149.4643, 6084.082
149.9464, 6244.385
150.4285, 6391.973
150.9106, 6516.693
151.3928, 6618.122
151.8749, 6713.307
152.3570, 6801.629
152.8391, 6884.862
153.3212, 6960.761
153.8033, 7028.511
154.2855, 7103.381
154.7676, 7205.070
155.2497, 7326.548
155.7318, 7435.915
156.2139, 7522.017
156.6960, 7596.681
157.1782, 7665.757
157.6603, 7725.881
158.1424, 7803.776
158.6245, 7928.562
159.1066, 8087.816
159.5887, 8256.070
160.0709, 8419.897
160.5530, 8591.459
161.0351, 8787.842
161.5172, 9010.742
161.9993, 9250.354
162.4814, 9501.500
162.9636, 9762.928
163.4457, 10041.26
163.9278, 10337.68
164.4099, 10651.25
164.8920, 10981.50
165.3741, 11333.81
165.8563, 11685.81
166.3384, 12016.43
166.8205, 12337.62
167.3026, 12671.14
167.7847, 13031.52
168.2668, 13409.33
168.7490, 13786.01
169.2311, 14163.68
169.7132, 14539.14
170.1953, 14900.04
170.6774, 15259.48
171.1595, 15639.19
171.6417, 16048.11
172.1238, 16484.07
172.6059, 16944.24
173.0880, 17437.03
173.5701, 17939.47
174.0522, 18436.81
174.5344, 18940.28
175.0165, 19461.01
175.4986, 20012.04
175.9807, 20582.16
176.4628, 21142.89
176.9449, 21673.14
177.4271, 22236.72
177.9092, 22869.09
178.3913, 23540.00
178.8734, 24203.22
179.3555, 24833.47
179.8376, 25453.36
180.3197, 26136.83
180.8019, 26897.29
181.2840, 27704.92
181.7661, 28557.09
182.2482, 29440.77
182.7303, 30329.27
183.2124, 31202.77
183.6946, 32085.68
184.1767, 33051.37
184.6588, 34114.58
185.1409, 35233.92
185.6230, 36416.21
186.1051, 37624.81
186.5873, 38829.50
187.0694, 40019.84
187.5515, 41186.45
188.0336, 42340.17
188.5157, 43519.38
188.9978, 44592.50
189.4800, 45559.96
189.9621, 46409.73
190.4442, 47151.87
190.9263, 47788.30
191.4084, 48287.22
191.8905, 48559.94
192.3727, 48523.06
192.8548, 48386.52
193.3369, 48226.13
193.8190, 47986.56
194.3011, 47603.28
194.7832, 47049.66
195.2654, 46372.25
195.7475, 45667.10
196.2296, 44894.65
196.7117, 44160.24
197.1938, 43466.64
197.6759, 42813.51
198.1581, 42211.96
198.6402, 41662.46
199.1223, 41144.93
199.6044, 40621.27
200.0865, 40077.32
200.5686, 39555.44
201.0508, 39058.37
201.5329, 38579.09
202.0150, 38122.60
202.4971, 37686.33
202.9792, 37260.92
203.4613, 36832.50
203.9435, 36408.76
204.4256, 35965.11
204.9077, 35482.09
205.3898, 34993.89
205.8719, 34525.94
206.3540, 34081.83
206.8362, 33644.61
207.3183, 33187.79
207.8004, 32710.28
208.2825, 32223.23
208.7646, 31714.39
209.2467, 31206.04
209.7289, 30718.06
210.2110, 30251.17
210.6931, 29783.16
211.1752, 29281.71
211.6573, 28729.50
212.1395, 28218.94
212.6216, 27771.99
213.1037, 27347.04
213.5858, 26929.76
214.0679, 26518.80
214.5500, 26116.28
215.0322, 25720.55
215.5143, 25327.64
215.9964, 24977.12
216.4785, 24684.88
216.9606, 24417.82
217.4427, 24169.43
217.9249, 23936.11
218.4070, 23709.64
218.8891, 23477.14
219.3712, 23236.78
219.8533, 23057.74
220.3354, 22949.48
220.8176, 22898.90
221.2997, 22934.70
221.7818, 23026.84
222.2639, 23119.98
222.7460, 23173.09
223.2281, 23192.14
223.7103, 23236.11
224.1924, 23292.10
224.6745, 23393.11
225.1566, 23563.16
225.6387, 23778.93
226.1208, 24006.39
226.6030, 24224.69
227.0851, 24441.06
227.5672, 24685.71
228.0493, 24972.98
228.5314, 25274.38
229.0135, 25567.44
229.4957, 25875.94
229.9778, 26230.68
230.4599, 26646.31
230.9420, 27103.97
231.4241, 27564.49
231.9062, 28041.05
232.3884, 28492.88
232.8705, 28913.32
233.3526, 29310.58
233.8347, 29699.63
234.3168, 30083.20
234.7989, 30449.89
235.2811, 30776.67
235.7632, 31056.73
236.2453, 31312.41
236.7274, 31580.95
237.2095, 31808.12
237.6916, 31962.41
238.1738, 32035.69
238.6559, 32036.10
239.1380, 31975.50
239.6201, 31858.14
240.1022, 31658.78
240.5843, 31348.78
241.0665, 30979.61
241.5486, 30566.26
242.0307, 30111.53
242.5128, 29616.81
242.9949, 29078.71
243.4770, 28494.05
243.9592, 27891.82
244.4413, 27242.72
244.9234, 26597.18
245.4055, 25965.78
245.8876, 25351.40
246.3697, 24760.74
246.8519, 24193.20
247.3340, 23647.66
247.8161, 23146.49
248.2982, 22701.53
248.7803, 22288.09
249.2624, 21889.98
249.7446, 21512.92
250.2267, 21169.18
250.7088, 20863.94
251.1909, 20594.38
251.6730, 20354.26
252.1551, 20154.41
252.6373, 19961.56
253.1194, 19759.18
253.6015, 19559.91
254.0836, 19378.28
254.5657, 19220.41
255.0478, 19078.89
255.5300, 18943.99
256.0121, 18819.05
256.4942, 18689.37
256.9763, 18537.03
257.4584, 18386.56
257.9406, 18255.05
258.4227, 18146.49
258.9048, 18051.97
259.3869, 17963.84
259.8690, 17882.11
260.3511, 17802.97
260.8333, 17725.53
261.3154, 17650.12
261.7975, 17565.76
262.2796, 17475.39
262.7617, 17412.32
263.2438, 17402.24
263.7260, 17440.89
264.2081, 17504.03
264.6902, 17592.46
265.1723, 17702.37
265.6544, 17818.71
266.1365, 17948.57
266.6187, 18118.30
267.1008, 18346.16
267.5829, 18621.30
268.0650, 18921.28
268.5471, 19244.11
269.0292, 19594.93
269.5114, 19974.76
269.9935, 20383.68
270.4756, 20834.06
270.9577, 21329.98
271.4398, 21867.74
271.9219, 22437.66
272.4041, 23040.30
272.8862, 23701.43
273.3683, 24449.00
273.8504, 25261.48
274.3325, 26081.73
274.8146, 26897.70
275.2968, 27742.06
275.7789, 28640.57
276.2610, 29585.85
276.7431, 30563.58
277.2252, 31585.84
277.7073, 32616.29
278.1895, 33603.02
278.6716, 34546.50
279.1537, 35455.14
279.6358, 36352.37
280.1179, 37210.19
280.6000, 37989.21
281.0822, 38689.78
281.5643, 39272.11
282.0464, 39682.74
282.5285, 39916.45
283.0106, 40018.61
283.4927, 39992.20
283.9749, 39836.05
284.4570, 39518.21
284.9391, 39046.46
285.4212, 38505.20
285.9033, 37944.18
286.3854, 37368.88
286.8676, 36869.64
287.3497, 36437.86
287.8318, 36081.20
288.3139, 35790.69
288.7960, 35575.98
289.2781, 35458.80
289.7603, 35446.39
290.2424, 35547.22
290.7245, 35807.04
291.2066, 36241.93
291.6887, 36801.43
292.1708, 37517.76
292.6530, 38341.66
293.1351, 39203.81
293.6172, 40080.88
294.0993, 41018.58
294.5814, 42091.91
295.0635, 43348.46
295.5457, 44675.67
296.0278, 46112.36
296.5099, 47577.42
296.9920, 49025.76
297.4741, 50446.50
297.9562, 51818.17
298.4384, 53134.27
298.9205, 54406.89
299.4026, 55547.39
299.8847, 56546.33
300.3668, 57427.41
300.8489, 58221.12
301.3310, 58904.34
301.8131, 59423.95
302.2953, 59741.59
302.7774, 59873.18
303.2595, 59894.02
303.7416, 59753.38
304.2237, 59566.07
304.7058, 59341.58
305.1880, 59095.12
305.6701, 58838.69
306.1522, 58576.30
306.6343, 58313.44
307.1164, 58058.69
307.5985, 57814.27
308.0807, 57573.47
308.5628, 57380.41
309.0449, 57158.29
309.5270, 56910.12
310.0091, 56616.29
310.4912, 56159.29
310.9734, 55493.99
311.4555, 54606.64
311.9376, 53352.30
312.4197, 51741.76
312.9018, 49693.54
313.3839, 47170.59
313.8661, 44226.49
314.3482, 41003.50
314.8303, 37380.66
315.3124, 33596.60
315.7945, 30015.02
316.2766, 26622.98
316.7588, 23531.56
317.2409, 20851.02
317.7230, 18545.77
318.2051, 16564.57
318.6872, 14948.73
319.1693, 13597.39
319.6515, 12490.84
320.1336, 11612.31
320.6157, 10876.89
321.0978, 10283.92
321.5799, 9789.579
322.0620, 9316.953
322.5442, 8857.436
323.0263, 8459.337
323.5084, 8154.483
323.9905, 7909.393
324.4726, 7686.681
324.9547, 7478.976
325.4369, 7282.851
325.9190, 7096.105
326.4011, 6919.928
326.8832, 6744.691
327.3653, 6559.642
327.8474, 6384.378
328.3296, 6231.495
328.8117, 6097.559
329.2938, 5972.124
329.7759, 5848.584
330.2580, 5728.112
330.7401, 5620.082
331.2223, 5538.572
331.7044, 5451.470
332.1865, 5350.451
332.6686, 5244.232
333.1507, 5138.683
333.6328, 5036.856
334.1150, 4944.506
334.5971, 4872.494
335.0792, 4834.698
335.5613, 4780.088
336.0434, 4692.460
336.5255, 4604.534
337.0077, 4532.361
337.4898, 4475.525
337.9719, 4426.271
338.4540, 4381.095
338.9361, 4338.648
339.4182, 4285.415
339.9004, 4209.641
340.3825, 4141.134
340.8646, 4088.275
341.3467, 4046.547
341.8288, 4012.315
342.3109, 3985.391
342.7931, 3959.090
343.2752, 3919.856
343.7573, 3864.279
344.2394, 3820.328
344.7215, 3806.541
345.2036, 3797.296
345.6858, 3769.910
346.1679, 3723.713
346.6500, 3678.463
347.1321, 3648.202
347.6142, 3628.387
348.0963, 3605.975
348.5785, 3578.757
349.0606, 3551.807
349.5427, 3530.954
350.0248, 3513.778
350.5069, 3492.990
350.9890, 3459.177
351.4712, 3427.636
351.9533, 3417.234
352.4354, 3422.911
352.9175, 3416.122
353.3996, 3379.376
353.8817, 3326.572
354.3639, 3296.204
354.8460, 3300.723
355.3281, 3296.615
355.8102, 3265.571
356.2923, 3224.787
356.7744, 3195.890
357.2566, 3183.013
357.7387, 3174.909
358.2208, 3158.712
358.7029, 3132.055
359.1850, 3110.306
359.6671, 3096.485
360.1493, 3083.852
360.6314, 3071.012
361.1135, 3056.930
361.5956, 3039.888
362.0777, 3018.565
362.5598, 2994.237
363.0420, 2971.348
363.5241, 2950.076
364.0062, 2930.155
364.4883, 2913.459
364.9704, 2896.765
365.4525, 2876.778
365.9347, 2853.125
366.4168, 2828.655
366.8989, 2806.482
367.3810, 2786.482
367.8631, 2768.432
368.3452, 2756.241
368.8274, 2741.011
369.3095, 2713.698
369.7916, 2679.971
370.2737, 2653.866
370.7558, 2645.400
371.2379, 2645.425
371.7201, 2638.713
372.2022, 2624.687
372.6843, 2609.505
373.1664, 2594.501
373.6485, 2580.668
374.1306, 2570.409
374.6128, 2565.825
375.0949, 2557.534
375.5770, 2537.002
376.0591, 2510.011
376.5412, 2487.159
377.0233, 2470.315
377.5055, 2460.160
377.9876, 2460.061
378.4697, 2471.458
378.9518, 2473.608
379.4339, 2457.284
379.9160, 2439.731
380.3982, 2431.935
380.8803, 2431.581
381.3624, 2431.830
381.8445, 2429.468
382.3266, 2423.500
382.8087, 2410.548
383.2909, 2380.426
383.7730, 2356.709
384.2551, 2340.224
384.7372, 2330.034
385.2193, 2327.530
385.7014, 2331.655
386.1836, 2337.166
386.6657, 2339.207
387.1478, 2337.825
387.6299, 2331.772
388.1120, 2315.409
388.5941, 2300.748
389.0763, 2294.555
389.5584, 2291.915
390.0405, 2284.731
390.5226, 2268.765
391.0047, 2248.884
391.4868, 2232.332
391.9690, 2219.414
392.4511, 2207.608
392.9332, 2197.090
393.4153, 2186.802
393.8974, 2173.216
394.3795, 2156.475
394.8617, 2147.578
395.3438, 2160.125
395.8259, 2181.134
396.3080, 2188.961
396.7901, 2181.423
397.2722, 2165.864
397.7544, 2143.483
398.2365, 2117.222
398.7186, 2101.058
399.2007, 2105.154
399.6828, 2107.879
400.1649, 2098.706
400.6471, 2083.185
401.1292, 2069.653
401.6113, 2060.781
402.0934, 2056.596
402.5755, 2057.845
403.0576, 2068.299
403.5398, 2072.432
404.0219, 2064.423
404.5040, 2056.442
404.9861, 2057.824
405.4682, 2064.602
405.9503, 2065.109
406.4325, 2050.802
406.9146, 2027.431
407.3967, 2016.754
407.8788, 2027.313
408.3609, 2033.054
408.8430, 2023.186
409.3252, 2010.726
409.8073, 2006.014
410.2894, 2010.527
410.7715, 2018.341
411.2536, 2027.472
411.7357, 2036.472
412.2179, 2036.095
412.7000, 2022.252
413.1821, 2007.430
413.6642, 1999.405
414.1463, 1996.627
414.6284, 1997.267
415.1106, 2003.488
415.5927, 2009.970
416.0748, 2013.219
416.5569, 2013.613
417.0390, 2010.734
417.5211, 2003.121
418.0033, 1997.233
418.4854, 2004.321
418.9675, 2030.756
419.4496, 2048.223
419.9317, 2048.617
420.4138, 2045.527
420.8960, 2049.778
421.3781, 2059.144
421.8602, 2063.160
422.3423, 2054.141
422.8244, 2036.559
423.3065, 2030.500
423.7887, 2049.956
424.2708, 2058.931
424.7529, 2043.698
425.2350, 2024.210
425.7171, 2017.869
426.1992, 2026.400
426.6814, 2037.877
427.1635, 2039.137
427.6456, 2031.598
428.1277, 2033.759
428.6098, 2052.701
429.0919, 2067.664
429.5741, 2062.891
430.0562, 2048.820
430.5383, 2041.316
431.0204, 2046.746
431.5025, 2053.715
431.9846, 2052.133
432.4668, 2044.139
432.9489, 2037.209
433.4310, 2033.167
433.9131, 2030.989
434.3952, 2029.959
434.8773, 2030.275
435.3595, 2029.547
435.8416, 2026.972
436.3237, 2023.932
436.8058, 2019.725
437.2879, 2015.722
437.7701, 2016.122
438.2522, 2023.514
438.7343, 2033.689
439.2164, 2035.087
439.6985, 2016.514
440.1806, 2009.426
440.6628, 2024.592
441.1449, 2041.576
441.6270, 2046.579
442.1091, 2040.508
442.5912, 2032.864
443.0733, 2030.459
443.5555, 2032.172
444.0376, 2033.911
444.5197, 2035.906
445.0018, 2037.279
445.4839, 2037.072
445.9660, 2036.391
446.4482, 2036.415
446.9303, 2037.396
447.4124, 2038.217
447.8945, 2038.879
448.3766, 2038.760
448.8587, 2035.341
449.3409, 2027.913
449.8230, 2022.523
450.3051, 2025.175
450.7872, 2034.679
451.2693, 2038.650
451.7514, 2032.899
452.2336, 2026.957
452.7157, 2023.489
453.1978, 2021.868
453.6799, 2021.457
454.1620, 2021.978
454.6441, 2022.881
455.1263, 2023.361
455.6084, 2023.169
456.0905, 2023.970
456.5726, 2025.752
457.0547, 2028.621
457.5368, 2035.328
458.0190, 2042.507
458.5011, 2043.303
458.9832, 2033.454
459.4653, 2022.957
459.9474, 2030.386
460.4295, 2056.145
460.9117, 2069.108
461.3938, 2056.320
461.8759, 2038.586
462.3580, 2036.089
462.8401, 2045.800
463.3222, 2051.933
463.8044, 2047.583
464.2865, 2039.946
464.7686, 2031.798
465.2507, 2025.117
465.7328, 2029.591
466.2149, 2051.731
466.6971, 2078.964
467.1792, 2085.988
467.6613, 2059.328
468.1434, 2039.952
468.6255, 2031.605
469.1076, 2027.084
469.5898, 2023.857
470.0719, 2020.664
470.5540, 2014.784
471.0361, 2003.362
471.5182, 1991.089
472.0003, 1994.654
472.4825, 2024.333
472.9646, 2041.692
473.4467, 2025.842
473.9288, 2003.923
474.4109, 1991.247
474.8930, 1988.994
475.3752, 1993.179
475.8573, 2007.773
476.3394, 2024.877
476.8215, 2029.174
477.3036, 2020.215
477.7857, 2011.760
478.2679, 2012.787
478.7500, 2016.914
479.2321, 2005.427
479.7142, 1965.336
480.1963, 1943.968
480.6784, 1967.279
481.1606, 2001.764
481.6427, 2018.110
482.1248, 2014.403
482.6069, 2002.022
483.0890, 1988.174
483.5711, 1974.219
484.0533, 1967.963
484.5354, 1975.762
485.0175, 1980.942
485.4996, 1977.784
485.9817, 1973.719
486.4638, 1975.290
486.9460, 1982.795
487.4281, 1991.005
487.9102, 1998.550
488.3923, 2003.553
488.8744, 1997.099
489.3565, 1976.219
489.8387, 1961.094
490.3208, 1964.367
490.8029, 1978.877
491.2850, 1989.618
491.7671, 1997.294
492.2492, 1999.467
492.7314, 1989.626
493.2135, 1976.984
493.6956, 1973.281
494.1777, 1978.750
494.6598, 1984.696
495.1419, 1984.552
495.6241, 1979.170
496.1062, 1974.058
496.5883, 1970.433
497.0704, 1965.323
497.5525, 1956.785
498.0346, 1947.832
498.5168, 1939.558
498.9989, 1932.910
499.4810, 1930.701
499.9631, 1937.716
500.4452, 1950.943
500.9273, 1958.963
501.4095, 1961.275
501.8916, 1960.149
502.3737, 1953.049
502.8558, 1945.179
503.3379, 1945.552
503.8200, 1956.779
504.3022, 1965.813
504.7843, 1968.782
505.2664, 1966.403
505.7485, 1955.937
506.2306, 1939.146
506.7127, 1926.731
507.1949, 1926.300
507.6770, 1935.186
508.1591, 1941.878
508.6412, 1948.294
509.1233, 1949.292
509.6054, 1939.870
510.0876, 1928.876
510.5697, 1922.481
511.0518, 1920.955
511.5339, 1921.614
512.0161, 1924.316
512.4982, 1926.686
512.9803, 1919.730
513.4624, 1900.991
513.9445, 1888.884
514.4266, 1896.231
514.9088, 1907.729
515.3909, 1900.846
515.8730, 1873.664
516.3551, 1853.437
516.8372, 1854.459
517.3193, 1861.512
517.8015, 1859.274
518.2836, 1849.539
518.7657, 1843.941
519.2478, 1849.195
519.7299, 1859.834
520.2120, 1862.270
520.6942, 1848.336
521.1763, 1841.882
521.6584, 1852.964
522.1405, 1861.282
522.6226, 1853.077
523.1047, 1833.022
523.5869, 1814.705
524.0690, 1805.354
524.5511, 1800.888
525.0332, 1794.723
525.5153, 1786.880
525.9974, 1780.262
526.4796, 1774.702
526.9617, 1771.985
527.4438, 1777.515
527.9259, 1789.836
528.4080, 1794.064
528.8901, 1781.335
529.3723, 1766.655
529.8544, 1758.110
530.3365, 1754.160
530.8186, 1752.194
531.3007, 1751.184
531.7828, 1749.476
532.2650, 1744.160
532.7471, 1733.944
533.2292, 1728.086
533.7113, 1729.715
534.1934, 1732.305
534.6755, 1736.402
535.1577, 1739.299
535.6398, 1735.890
536.1219, 1723.907
536.6040, 1713.204
537.0861, 1718.038
537.5682, 1731.721
538.0504, 1729.577
538.5325, 1706.674
539.0146, 1684.049
539.4967, 1676.960
539.9788, 1682.545
540.4609, 1686.179
540.9431, 1688.195
541.4252, 1688.118
541.9073, 1682.403
542.3894, 1676.774
542.8715, 1678.939
543.3536, 1687.904
543.8358, 1694.554
544.3179, 1691.213
544.8000, 1680.117
545.2821, 1671.060
545.7642, 1664.865
546.2463, 1658.449
546.7285, 1649.274
547.2106, 1641.023
547.6926, 1637.447
548.1747, 1638.199
548.6569, 1638.119
549.1390, 1632.308
549.6211, 1626.438
550.1032, 1630.529
550.5853, 1641.196
551.0674, 1641.382
551.5496, 1622.714
552.0317, 1598.725
552.5138, 1592.335
552.9959, 1611.962
553.4780, 1620.619
553.9601, 1611.328
554.4423, 1600.238
554.9244, 1593.621
555.4065, 1589.546
555.8886, 1584.507
556.3707, 1577.207
556.8528, 1568.332
557.3350, 1557.067
557.8171, 1544.183
558.2992, 1536.112
558.7813, 1533.864
559.2634, 1535.294
559.7455, 1541.285
560.2277, 1549.644
560.7098, 1553.572
561.1919, 1552.148
561.6740, 1547.856
562.1561, 1540.234
562.6382, 1530.879
563.1204, 1520.297
563.6025, 1509.328
564.0846, 1500.354
564.5667, 1495.076
565.0488, 1493.038
565.5309, 1493.294
566.0131, 1499.161
566.4952, 1498.899
566.9773, 1481.101
567.4594, 1464.124
567.9415, 1461.172
568.4236, 1470.096
568.9058, 1478.668
569.3879, 1483.543
569.8700, 1484.239
570.3521, 1476.546
570.8342, 1463.839
571.3163, 1459.388
571.7985, 1467.992
572.2806, 1478.152
572.7627, 1474.986
573.2448, 1456.200
573.7269, 1445.769
574.2090, 1449.177
574.6912, 1453.818
575.1733, 1457.720
575.6554, 1460.623
576.1375, 1462.550
576.6196, 1463.477
577.1017, 1463.179
577.5839, 1460.649
578.0660, 1456.740
578.5481, 1454.325
579.0302, 1453.522
579.5123, 1453.375
579.9944, 1452.770
580.4766, 1453.183
580.9587, 1459.480
581.4408, 1475.301
581.9229, 1481.532
582.4050, 1464.566
582.8871, 1447.121
583.3693, 1445.810
583.8514, 1455.890
584.3335, 1465.715
584.8156, 1469.968
585.2977, 1469.458
585.7798, 1464.164
586.2620, 1453.478
586.7441, 1445.426
587.2262, 1441.400
587.7083, 1438.271
588.1904, 1433.620
588.6725, 1428.841
589.1547, 1426.250
589.6368, 1426.150
590.1189, 1428.217
590.6010, 1436.790
591.0831, 1445.009
591.5652, 1442.047
592.0474, 1428.720
592.5295, 1414.858
593.0116, 1406.609
593.4937, 1403.600
593.9758, 1405.349
594.4579, 1415.252
594.9401, 1421.811
595.4222, 1426.356
595.9043, 1425.044
596.3864, 1411.344
596.8685, 1390.225
597.3506, 1374.508
597.8328, 1371.791
598.3149, 1370.412
598.7970, 1356.231
599.2791, 1335.437
599.7612, 1325.625
600.2433, 1330.180
600.7255, 1337.100
601.2076, 1336.490
601.6897, 1329.154
602.1718, 1321.629
602.6539, 1312.603
603.1360, 1305.257
603.6182, 1299.143
604.1003, 1295.299
604.5824, 1298.316
605.0645, 1305.116
605.5466, 1303.932
606.0287, 1283.704
606.5109, 1257.699
606.9930, 1247.034
607.4751, 1249.853
607.9572, 1252.103
608.4393, 1250.851
608.9214, 1245.803
609.4036, 1234.818
609.8857, 1217.873
610.3678, 1209.666
610.8499, 1218.930
611.3320, 1225.022
611.8141, 1223.600
612.2963, 1216.472
612.7784, 1203.033
613.2605, 1185.018
613.7426, 1168.821
614.2247, 1158.671
614.7068, 1154.248
615.1890, 1157.341
615.6711, 1168.518
616.1532, 1173.548
616.6353, 1165.882
617.1174, 1155.092
