##NAMES=Stibnite
##RRUFFID=R050066
##IDEAL CHEMISTRY=Sb^3+^_2_S^2-^_3_
##LOCALITY=Wuling, Jiangxi Province, China
##OWNER=RRUFF
##SOURCE=Rock Currier
##DESCRIPTION=Lead-gray prismatic crystal
##STATUS=The identification of this mineral has been confirmed by X-ray diffraction and chemical analysis
##URL=rruff.info/R050066
##MEASURED CHEMISTRY=Sb_2.00_S_3.00_
101.273, 30.809
101.755, 38.123
102.237, 53.356
102.719, 66.788
103.201, 70.236
103.683, 56.266
104.165, 53.750
104.648, 70.822
105.130, 104.989
105.612, 125.280
106.094, 122.920
106.576, 114.466
107.058, 113.632
107.540, 121.511
108.022, 135.737
108.505, 157.998
108.987, 190.661
109.469, 220.288
109.951, 244.629
110.433, 266.211
110.915, 288.580
111.397, 313.194
111.879, 337.182
112.362, 359.331
112.844, 375.924
113.326, 397.592
113.808, 427.914
114.290, 464.764
114.772, 502.244
115.254, 537.088
115.736, 573.241
116.218, 613.127
116.701, 660.479
117.183, 708.186
117.665, 754.652
118.147, 799.538
118.629, 842.179
119.111, 879.032
119.593, 914.267
120.075, 951.817
120.558, 996.466
121.040, 1041.889
121.522, 1086.145
122.004, 1129.395
122.486, 1165.165
122.968, 1186.686
123.450, 1197.374
123.932, 1203.964
124.414, 1206.965
124.897, 1208.517
125.379, 1212.975
125.861, 1222.504
126.343, 1228.367
126.825, 1217.101
127.307, 1192.225
127.789, 1168.824
128.271, 1161.618
128.753, 1163.178
129.236, 1154.476
129.718, 1128.311
130.200, 1095.724
130.682, 1077.259
131.164, 1073.087
131.646, 1072.327
132.128, 1064.314
132.610, 1050.532
133.093, 1042.419
133.575, 1044.584
134.057, 1054.355
134.539, 1062.163
135.021, 1068.079
135.503, 1071.641
135.985, 1070.070
136.467, 1062.396
136.949, 1059.492
137.432, 1066.634
137.914, 1083.921
138.396, 1097.474
138.878, 1105.843
139.360, 1112.273
139.842, 1102.514
140.324, 1135.896
140.806, 1158.806
141.288, 1171.807
141.771, 1145.220
142.253, 1169.753
142.735, 1173.798
143.217, 1177.004
143.699, 1208.732
144.181, 1187.901
144.663, 1219.179
145.145, 1225.845
145.628, 1230.849
146.110, 1236.206
146.592, 1241.071
147.074, 1246.038
147.556, 1257.052
148.038, 1281.701
148.520, 1306.771
149.002, 1322.531
149.484, 1314.040
149.967, 1314.279
150.449, 1331.375
150.931, 1367.964
151.413, 1395.928
151.895, 1408.952
152.377, 1416.170
152.859, 1425.932
153.342, 1442.122
153.824, 1457.700
154.306, 1469.591
154.788, 1475.481
155.270, 1487.268
155.752, 1514.588
156.234, 1547.101
156.716, 1570.595
157.198, 1569.991
157.680, 1569.506
158.163, 1580.462
158.645, 1612.069
159.127, 1636.712
159.609, 1640.751
160.091, 1632.370
160.573, 1629.390
161.055, 1638.485
161.538, 1654.106
162.020, 1673.808
162.502, 1701.942
162.984, 1726.517
163.466, 1738.378
163.948, 1741.152
164.430, 1748.388
164.912, 1769.918
165.394, 1796.938
165.876, 1822.297
166.359, 1846.302
166.841, 1865.820
167.323, 1876.271
167.805, 1878.835
168.287, 1882.931
168.769, 1894.131
169.251, 1910.088
169.733, 1928.118
170.216, 1948.870
170.698, 1970.353
171.180, 1991.202
171.662, 2011.532
172.144, 2031.214
172.626, 2050.490
173.108, 2069.333
173.590, 2087.365
174.072, 2101.485
174.555, 2116.215
175.037, 2139.710
175.519, 2173.715
176.001, 2205.087
176.483, 2215.499
176.965, 2212.169
177.447, 2214.396
177.929, 2238.485
178.412, 2272.578
178.894, 2297.055
179.376, 2308.418
179.858, 2315.745
180.340, 2327.970
180.822, 2344.712
181.304, 2364.891
181.786, 2388.194
182.268, 2414.159
182.751, 2442.340
183.233, 2473.729
183.715, 2504.560
184.197, 2530.010
184.679, 2550.133
185.161, 2563.100
185.643, 2559.589
186.125, 2545.983
186.607, 2549.036
187.090, 2580.853
187.572, 2622.814
188.054, 2635.957
188.536, 2619.741
189.018, 2597.109
189.500, 2585.673
189.982, 2584.289
190.464, 2584.792
190.947, 2587.125
191.429, 2589.331
191.911, 2585.475
192.393, 2575.332
192.875, 2561.191
193.357, 2544.897
193.839, 2526.421
194.321, 2505.156
194.803, 2480.487
195.286, 2452.721
195.768, 2419.503
196.250, 2378.120
196.732, 2342.151
197.214, 2331.896
197.696, 2349.624
198.178, 2359.359
198.661, 2345.968
199.143, 2312.727
199.625, 2295.288
200.107, 2298.295
200.589, 2305.580
201.071, 2294.340
201.553, 2261.836
202.035, 2228.598
202.517, 2199.602
202.999, 2174.608
203.482, 2163.204
203.964, 2169.908
204.446, 2182.711
204.928, 2181.512
205.410, 2162.514
205.892, 2144.906
206.374, 2137.823
206.857, 2142.864
207.339, 2143.675
207.821, 2141.060
208.303, 2133.250
208.785, 2113.626
209.267, 2076.030
209.749, 2044.804
210.231, 2033.631
210.713, 2049.067
211.195, 2053.454
211.678, 2044.243
212.160, 2025.617
212.642, 2006.267
213.124, 1985.063
213.606, 1965.791
214.088, 1951.150
214.570, 1943.452
215.052, 1931.608
215.535, 1911.454
216.017, 1888.408
216.499, 1880.462
216.981, 1895.811
217.463, 1909.716
217.945, 1906.681
218.427, 1877.379
218.909, 1858.861
219.391, 1857.066
219.874, 1866.538
220.356, 1867.372
220.838, 1855.887
221.320, 1841.813
221.802, 1830.094
222.284, 1819.204
222.766, 1814.813
223.248, 1819.545
223.731, 1831.326
224.213, 1839.692
224.695, 1842.539
225.177, 1845.294
225.659, 1852.732
226.141, 1870.673
226.623, 1879.314
227.105, 1872.725
227.587, 1854.315
228.070, 1844.583
228.552, 1844.543
229.034, 1851.913
229.516, 1866.770
229.998, 1895.623
230.480, 1917.537
230.962, 1927.777
231.444, 1927.918
231.926, 1931.116
232.409, 1940.447
232.891, 1949.047
233.373, 1950.941
233.855, 1939.790
234.337, 1935.258
234.819, 1944.281
235.301, 1964.930
235.783, 1969.317
236.266, 1956.045
236.748, 1972.460
237.230, 1981.669
237.712, 1984.059
238.194, 1959.206
238.676, 1969.054
239.158, 1957.691
239.640, 1947.251
240.122, 1936.216
240.605, 1927.839
241.087, 1925.629
241.569, 1934.739
242.051, 1939.935
242.533, 1936.963
243.015, 1926.284
243.497, 1921.630
243.980, 1925.991
244.462, 1933.101
244.944, 1937.491
245.426, 1937.099
245.908, 1937.682
246.390, 1939.076
246.872, 1941.321
247.354, 1950.177
247.836, 1970.837
248.318, 1992.013
248.801, 2003.046
249.283, 1998.497
249.765, 1994.670
250.247, 1993.681
250.729, 1995.565
251.211, 2001.309
251.693, 2013.635
252.176, 2026.660
252.658, 2034.347
253.140, 2032.448
253.622, 2034.932
254.104, 2045.915
254.586, 2065.216
255.068, 2079.011
255.550, 2081.609
256.032, 2086.097
256.514, 2106.351
256.997, 2152.277
257.479, 2190.972
257.961, 2215.196
258.443, 2225.513
258.925, 2237.898
259.407, 2251.579
259.889, 2268.175
260.371, 2290.203
260.854, 2320.608
261.336, 2348.436
261.818, 2370.215
262.300, 2386.446
262.782, 2409.099
263.264, 2438.393
263.746, 2472.944
264.228, 2512.137
264.711, 2558.646
265.193, 2601.373
265.675, 2633.698
266.157, 2658.125
266.639, 2709.118
267.121, 2799.407
267.603, 2892.603
268.085, 2953.582
268.567, 2969.196
269.050, 3004.232
269.532, 3079.470
270.014, 3185.814
270.496, 3255.450
270.978, 3274.577
271.460, 3286.813
271.942, 3330.836
272.424, 3412.394
272.906, 3494.429
273.389, 3568.827
273.871, 3639.006
274.353, 3728.971
274.835, 3845.561
275.317, 3962.132
275.799, 4064.254
276.281, 4065.627
276.763, 4077.361
277.246, 4086.581
277.728, 4093.421
278.210, 4090.752
278.692, 4100.361
279.174, 4106.184
279.656, 4108.890
280.138, 4113.382
280.620, 4118.730
281.103, 4126.828
281.585, 4134.250
282.067, 4130.309
282.549, 4114.274
283.031, 4091.215
283.513, 4062.167
283.995, 4027.444
284.477, 3996.774
284.959, 3971.391
285.441, 3951.094
285.924, 3936.100
286.406, 3926.603
286.888, 3920.019
287.370, 3914.541
287.852, 3910.403
288.334, 3909.083
288.816, 3911.315
289.298, 3915.724
289.781, 3917.892
290.263, 3917.984
290.745, 3923.265
291.227, 3938.908
291.709, 3963.850
292.191, 3996.191
292.673, 4039.340
293.155, 4081.885
293.638, 4102.082
294.120, 4102.101
294.602, 4102.406
295.084, 4117.837
295.566, 4143.265
296.048, 4165.069
296.530, 4183.372
297.012, 4194.729
297.494, 4195.839
297.977, 4186.576
298.459, 4165.984
298.941, 4128.896
299.423, 4081.062
299.905, 4031.717
300.387, 3980.586
300.869, 3930.939
301.351, 3890.692
301.833, 3854.898
302.316, 3809.968
302.798, 3742.097
303.280, 3662.997
303.762, 3587.831
304.244, 3517.965
304.726, 3448.640
305.208, 3383.156
305.690, 3315.949
306.173, 3234.784
306.655, 3125.004
307.137, 3003.775
307.619, 2888.564
308.101, 2779.983
308.583, 2677.306
309.065, 2587.239
309.547, 2502.288
310.030, 2413.018
310.512, 2305.858
310.994, 2199.744
311.476, 2113.836
311.958, 2047.124
312.440, 1979.838
312.922, 1893.867
313.404, 1803.405
313.886, 1723.647
314.369, 1664.945
314.851, 1613.442
315.333, 1564.989
315.815, 1519.561
316.297, 1473.747
316.779, 1422.364
317.261, 1372.224
317.743, 1328.165
318.225, 1294.407
318.708, 1264.325
319.190, 1236.918
319.672, 1211.978
320.154, 1187.319
320.636, 1162.995
321.118, 1138.356
321.600, 1112.617
322.082, 1079.936
322.565, 1054.079
323.047, 1044.705
323.529, 1045.107
324.011, 1035.400
324.493, 996.815
324.975, 959.727
325.457, 938.019
325.939, 943.023
326.422, 945.191
326.904, 943.267
327.386, 937.250
327.868, 927.247
328.350, 906.081
328.832, 887.864
329.314, 877.929
329.796, 881.316
330.278, 878.862
330.760, 865.662
331.243, 848.856
331.725, 839.722
332.207, 849.101
332.689, 849.943
333.171, 831.128
333.653, 788.040
334.135, 761.469
334.617, 759.272
335.100, 765.893
335.582, 762.922
336.064, 744.104
336.546, 732.681
337.028, 737.513
337.510, 756.927
337.992, 762.890
338.474, 751.782
338.957, 734.372
339.439, 718.518
339.921, 704.058
340.403, 694.021
340.885, 689.901
341.367, 690.314
341.849, 691.227
342.331, 693.170
342.813, 692.892
343.296, 686.594
343.778, 674.573
344.260, 664.220
344.742, 649.973
345.224, 661.928
345.706, 667.522
346.188, 667.098
346.670, 642.630
347.152, 649.210
347.635, 643.348
348.117, 636.975
348.599, 647.925
349.081, 626.954
349.563, 637.629
350.045, 635.671
350.527, 639.495
351.009, 630.800
351.491, 625.972
351.974, 633.667
352.456, 634.427
352.938, 624.291
353.420, 628.483
353.902, 607.075
354.384, 610.212
354.866, 606.859
355.349, 602.357
355.831, 594.740
356.313, 584.373
356.795, 577.675
357.277, 584.434
357.759, 595.292
358.241, 599.125
358.723, 586.285
359.205, 572.087
359.688, 564.724
360.170, 563.443
360.652, 564.491
361.134, 568.051
361.616, 572.237
362.098, 575.843
362.580, 579.249
363.062, 580.981
363.544, 577.377
364.027, 571.660
364.509, 571.271
364.991, 588.161
365.473, 602.519
365.955, 604.415
366.437, 587.337
366.919, 573.227
367.401, 562.838
367.884, 557.156
368.366, 557.430
368.848, 576.139
369.330, 587.800
369.812, 584.739
370.294, 564.372
370.776, 548.870
371.258, 536.569
371.741, 530.609
372.223, 535.309
372.705, 558.888
373.187, 577.091
373.669, 586.126
374.151, 586.650
374.633, 583.661
375.115, 576.635
375.597, 566.976
376.079, 553.830
376.562, 534.996
377.044, 525.377
377.526, 529.394
378.008, 540.724
378.490, 543.132
378.972, 535.468
379.454, 527.459
379.936, 525.144
380.419, 527.845
380.901, 527.289
381.383, 522.294
381.865, 517.104
382.347, 519.443
382.829, 528.070
383.311, 533.835
383.793, 530.670
384.276, 522.589
384.758, 519.789
385.240, 522.500
385.722, 522.914
386.204, 508.319
386.686, 486.569
387.168, 474.583
387.650, 482.620
388.132, 496.992
388.615, 506.753
389.097, 511.588
389.579, 509.521
390.061, 490.521
390.543, 468.363
391.025, 457.419
391.507, 465.227
391.989, 474.439
392.471, 474.318
392.954, 468.815
393.436, 466.011
393.918, 475.477
394.400, 483.320
394.882, 480.684
395.364, 464.058
395.846, 450.853
396.328, 446.221
396.810, 446.626
397.293, 448.127
397.775, 449.440
398.257, 452.507
398.739, 460.376
399.221, 473.188
399.703, 477.706
400.185, 462.049
400.668, 447.623
401.150, 448.887
401.632, 480.204
402.114, 501.559
402.596, 508.724
403.078, 504.615
403.560, 497.838
404.042, 487.539
404.524, 476.474
405.007, 464.426
405.489, 450.080
405.971, 444.313
406.453, 449.874
406.935, 459.246
407.417, 459.363
407.899, 449.197
408.381, 444.853
408.863, 455.142
409.346, 475.431
409.828, 487.123
410.310, 490.260
410.792, 485.469
411.274, 465.411
411.756, 436.310
412.238, 421.977
412.720, 433.536
413.203, 453.050
413.685, 452.368
414.167, 435.834
414.649, 424.779
415.131, 438.158
415.613, 462.204
416.095, 480.918
416.577, 493.305
417.060, 497.030
417.542, 482.624
418.024, 459.718
418.506, 443.815
418.988, 447.492
419.470, 454.939
419.952, 457.818
420.434, 455.873
420.916, 453.682
421.398, 453.139
421.881, 452.788
422.363, 451.496
422.845, 444.508
423.327, 441.735
423.809, 448.138
424.291, 460.857
424.773, 468.720
425.255, 469.100
425.738, 466.706
426.220, 462.405
426.702, 453.660
427.184, 450.622
427.666, 457.755
428.148, 467.306
428.630, 467.263
429.112, 453.095
429.595, 441.848
430.077, 439.202
430.559, 444.237
431.041, 445.916
431.523, 443.369
432.005, 440.322
432.487, 439.863
432.969, 441.930
433.451, 445.345
433.934, 450.799
434.416, 456.078
434.898, 456.144
435.380, 451.499
435.862, 446.966
436.344, 449.705
436.826, 453.637
437.308, 441.846
437.790, 410.936
438.273, 385.621
438.755, 399.377
439.237, 433.725
439.719, 454.730
440.201, 432.744
440.683, 405.850
441.165, 404.117
441.647, 423.867
442.129, 441.707
442.612, 445.025
443.094, 442.516
443.576, 440.298
444.058, 439.526
444.540, 439.204
445.022, 441.163
445.504, 443.213
445.987, 441.110
446.469, 427.418
446.951, 416.074
447.433, 410.835
447.915, 411.945
448.397, 417.991
448.879, 434.088
449.361, 450.734
449.843, 459.067
450.326, 455.428
450.808, 452.658
451.290, 453.242
451.772, 455.622
452.254, 452.688
452.736, 442.432
453.218, 435.016
453.700, 438.902
454.182, 453.417
454.665, 460.124
455.147, 457.100
455.629, 450.654
456.111, 449.223
456.593, 451.884
457.075, 453.538
457.557, 449.834
458.039, 445.534
458.522, 451.553
459.004, 466.806
459.486, 478.743
459.968, 475.321
460.450, 464.754
460.932, 457.330
461.414, 455.906
461.896, 455.808
462.379, 454.316
462.861, 451.976
463.343, 449.861
463.825, 449.577
464.307, 448.576
464.789, 444.634
465.271, 437.230
465.753, 432.653
466.235, 434.160
466.717, 437.842
467.200, 440.736
467.682, 440.611
468.164, 442.404
468.646, 448.148
469.128, 455.985
469.610, 459.743
470.092, 458.578
470.574, 454.803
471.057, 449.501
471.539, 442.836
472.021, 430.892
472.503, 409.944
472.985, 391.474
473.467, 393.753
473.949, 416.833
474.431, 431.402
474.914, 427.097
475.396, 412.398
475.878, 406.549
476.360, 409.024
476.842, 414.156
477.324, 419.788
477.806, 425.109
478.288, 428.107
478.770, 428.090
479.253, 428.421
479.735, 436.334
480.217, 445.895
480.699, 447.311
481.181, 423.916
481.663, 402.341
482.145, 399.333
482.627, 413.034
483.109, 426.815
483.592, 438.668
484.074, 446.055
484.556, 446.723
485.038, 435.478
485.520, 426.315
486.002, 418.910
486.484, 414.651
486.966, 416.244
487.448, 429.082
487.931, 439.353
488.413, 443.985
488.895, 443.107
489.377, 437.117
489.859, 422.777
490.341, 411.076
490.823, 413.754
491.306, 431.763
491.788, 440.272
492.270, 435.084
492.752, 423.197
493.234, 415.109
493.716, 410.620
494.198, 407.618
494.680, 403.562
495.162, 400.908
495.645, 405.555
496.127, 417.281
496.609, 429.005
497.091, 439.403
497.573, 445.297
498.055, 440.967
498.537, 416.552
499.019, 397.860
499.501, 409.629
499.984, 436.526
500.466, 447.883
500.948, 412.136
501.430, 378.832
501.912, 368.747
502.394, 386.007
502.876, 400.815
503.358, 410.212
503.841, 416.988
504.323, 423.077
504.805, 430.007
505.287, 433.150
505.769, 431.202
506.251, 425.853
506.733, 420.358
507.215, 414.022
507.698, 410.216
508.180, 412.551
508.662, 419.390
509.144, 416.005
509.626, 401.188
510.108, 386.884
510.590, 386.310
511.072, 395.814
511.554, 403.589
512.036, 406.996
512.519, 408.526
513.001, 411.790
513.483, 415.530
513.965, 416.412
514.447, 409.533
514.929, 401.566
515.411, 397.148
515.893, 396.533
516.375, 397.292
516.858, 402.045
517.340, 405.687
517.822, 404.186
518.304, 389.758
518.786, 379.459
519.268, 377.785
519.750, 380.962
520.232, 381.959
520.715, 379.358
521.197, 376.940
521.679, 376.855
522.161, 379.063
522.643, 373.460
523.125, 356.389
523.607, 341.799
524.089, 344.731
524.571, 364.282
525.054, 376.406
525.536, 376.561
526.018, 372.083
526.500, 375.848
526.982, 385.495
527.464, 391.307
527.946, 385.805
528.429, 375.595
528.911, 368.128
529.393, 363.346
529.875, 359.409
530.357, 354.477
530.839, 350.329
531.321, 348.757
531.803, 351.098
532.286, 353.630
532.768, 353.814
533.250, 353.792
533.732, 356.730
534.214, 372.829
534.696, 380.834
535.178, 370.884
535.660, 345.809
536.142, 338.083
536.625, 356.981
537.107, 377.525
537.589, 384.600
538.071, 375.566
538.553, 372.879
539.035, 379.550
539.517, 386.392
539.999, 376.994
540.481, 353.811
540.964, 339.214
541.446, 343.258
541.928, 356.089
542.410, 361.654
542.892, 361.225
543.374, 353.465
543.856, 364.951
544.338, 371.765
544.820, 374.158
545.303, 358.891
545.785, 366.429
546.267, 364.827
546.749, 362.851
547.231, 373.598
547.713, 360.900
548.195, 371.445
548.677, 372.712
549.159, 378.226
549.642, 372.645
550.124, 369.703
550.606, 366.231
551.088, 359.234
551.570, 348.404
552.052, 346.263
552.534, 355.688
553.016, 365.928
553.499, 367.063
553.981, 359.633
554.463, 349.765
554.945, 335.984
555.427, 326.466
555.909, 341.809
556.391, 373.213
556.873, 391.434
557.356, 368.083
557.838, 335.060
558.320, 326.169
558.802, 338.547
559.284, 351.004
559.766, 352.069
560.248, 349.739
560.730, 349.934
561.213, 355.487
561.695, 358.198
562.177, 354.792
562.659, 348.415
563.141, 342.875
563.623, 338.675
564.105, 334.303
564.587, 328.708
565.069, 322.913
565.552, 321.518
566.034, 325.735
566.516, 329.861
566.998, 331.196
567.480, 329.959
567.962, 327.454
568.444, 323.463
568.926, 320.516
569.408, 323.369
569.891, 328.932
570.373, 329.333
570.855, 320.339
571.337, 312.061
571.819, 313.855
572.301, 322.543
572.783, 331.981
573.265, 344.430
573.747, 352.630
574.230, 351.749
574.712, 342.223
575.194, 331.806
575.676, 317.871
576.158, 306.620
576.640, 300.760
577.122, 300.029
577.604, 306.753
578.086, 326.111
578.569, 346.102
579.051, 349.842
579.533, 334.864
580.015, 327.582
580.497, 336.743
580.979, 352.210
581.461, 349.811
581.943, 331.584
582.426, 314.524
582.908, 307.342
583.390, 306.699
583.872, 308.578
584.354, 312.804
584.836, 318.711
585.318, 331.946
585.800, 343.204
586.282, 342.926
586.765, 320.334
587.247, 304.716
587.729, 309.795
588.211, 324.394
588.693, 331.917
589.175, 320.638
589.657, 333.625
590.140, 340.722
590.622, 342.245
591.104, 321.500
591.586, 329.509
592.068, 325.996
592.550, 322.009
593.032, 334.066
593.514, 316.559
593.996, 328.361
594.479, 328.464
594.961, 333.922
595.443, 325.389
595.925, 315.862
596.407, 319.288
596.889, 324.236
597.371, 320.245
597.853, 311.718
598.335, 306.133
598.818, 308.031
599.300, 311.515
599.782, 315.921
600.264, 320.784
600.746, 322.302
601.228, 320.992
601.710, 315.447
602.192, 302.869
602.674, 280.323
603.157, 270.013
603.639, 275.509
604.121, 285.700
604.603, 289.081
605.085, 286.015
605.567, 285.654
606.049, 289.946
606.531, 296.093
607.013, 302.233
607.496, 307.175
607.978, 307.261
608.460, 294.392
608.942, 280.895
609.424, 278.152
609.906, 284.268
610.388, 290.122
610.870, 290.237
611.353, 290.393
611.835, 294.781
612.317, 306.246
612.799, 311.661
613.281, 306.649
613.763, 299.018
614.245, 295.350
614.727, 297.613
615.209, 296.549
615.692, 289.854
616.174, 281.813
616.656, 281.590
617.138, 288.744
617.620, 292.362
618.102, 286.933
618.584, 277.280
619.067, 269.068
619.549, 263.132
620.031, 263.629
620.513, 282.972
620.995, 303.056
621.477, 306.109
621.959, 289.294
622.441, 276.397
622.923, 278.229
623.406, 285.511
623.888, 291.432
624.370, 294.017
624.852, 298.013
625.334, 306.739
625.816, 297.683
626.298, 307.322
626.780, 312.423
627.263, 313.230
627.745, 296.880
628.227, 302.684
628.709, 299.610
629.191, 296.172
629.673, 305.095
630.155, 291.241
630.637, 299.967
631.119, 299.680
631.602, 303.517
632.084, 298.422
632.566, 296.086
633.048, 302.686
633.530, 304.338
634.012, 298.215
634.494, 302.315
634.976, 288.149
635.458, 290.012
635.941, 298.790
636.423, 290.044
636.905, 288.239
637.387, 279.119
637.869, 266.544
638.351, 259.479
638.833, 258.209
639.315, 258.160
639.797, 257.740
640.280, 257.227
640.762, 258.291
641.244, 260.471
641.726, 260.235
642.208, 249.811
642.690, 239.191
643.172, 240.822
643.654, 257.294
644.137, 268.631
644.619, 260.873
645.101, 248.104
645.583, 241.288
