##NAMES=Stibnite
##RRUFFID=R050066
##IDEAL CHEMISTRY=Sb^3+^_2_S^2-^_3_
##LOCALITY=Wuling, Jiangxi Province, China
##OWNER=RRUFF
##SOURCE=Rock Currier
##DESCRIPTION=Lead-gray prismatic crystal
##STATUS=The identification of this mineral has been confirmed by X-ray diffraction and chemical analysis
##URL=rruff.info/R050066
##MEASURED CHEMISTRY=Sb_2.00_S_3.00_
121.046, 5918.451
121.528, 6390.039
122.010, 7021.200
122.492, 7789.676
122.974, 8658.349
123.456, 9724.469
123.939, 11009.560
124.421, 12510.430
124.903, 14225.980
125.385, 16185.250
125.867, 18429.439
126.349, 20665.830
126.831, 22990.199
127.313, 25237.260
127.796, 27318.721
128.278, 29232.170
128.760, 31068.410
129.242, 32903.910
129.724, 34740.641
130.206, 36595.871
130.688, 38644.430
131.170, 40598.102
131.652, 42382.461
132.135, 43951.410
132.617, 45178.988
133.099, 45862.820
133.581, 45809.199
134.063, 45522.949
134.545, 44906.852
135.027, 44168.281
135.509, 43409.172
135.992, 42674.328
136.474, 42020.250
136.956, 41554.660
137.438, 41258.961
137.920, 41230.090
138.402, 41406.629
138.884, 41853.520
139.366, 42628.031
139.848, 43748.609
140.331, 45212.789
140.813, 47000.289
141.295, 49167.680
141.777, 51659.629
142.259, 54490.961
142.741, 57639.301
143.223, 61070.500
143.705, 64773.109
144.188, 68723.719
144.670, 72909.938
145.152, 77417.281
145.634, 82029.070
146.116, 86730.773
146.598, 91513.977
147.080, 96373.398
147.562, 101340.398
148.044, 106374.898
148.527, 111343.297
149.009, 116290.602
149.491, 121140.703
149.973, 125931.500
150.455, 130648.398
150.937, 135247.000
151.419, 139739.500
151.901, 144095.500
152.383, 148275.094
152.866, 152456.203
153.348, 156341.594
153.830, 159949.094
154.312, 163186.906
154.794, 165831.594
155.276, 167793.094
155.758, 168960.906
156.240, 169143.906
156.723, 168157.906
157.205, 166486.000
157.687, 164112.000
158.169, 161158.406
158.651, 158132.203
159.133, 155220.594
159.615, 152549.406
160.097, 150407.703
160.579, 148711.797
161.062, 147573.906
161.544, 147120.906
162.026, 147332.797
162.508, 148005.594
162.990, 149053.094
163.472, 150514.406
163.954, 152309.703
164.436, 154576.203
164.919, 157071.094
165.401, 159613.000
165.883, 162203.594
166.365, 164865.203
166.847, 167644.094
167.329, 170502.594
167.811, 173276.297
168.293, 175893.297
168.775, 178457.000
169.258, 181058.500
169.740, 183702.797
170.222, 186319.500
170.704, 188894.094
171.186, 191399.797
171.668, 193783.797
172.150, 195908.000
172.632, 197975.000
173.115, 200244.703
173.597, 202752.500
174.079, 205216.000
174.561, 207401.094
175.043, 209439.797
175.525, 211588.094
176.007, 213956.594
176.489, 216438.703
176.971, 218888.797
177.454, 221279.094
177.936, 223805.703
178.418, 226582.500
178.900, 229576.906
179.382, 232782.000
179.864, 236163.703
180.346, 239775.500
180.828, 243674.094
181.311, 247834.500
181.793, 252355.703
182.275, 257297.406
182.757, 262639.406
183.239, 268406.000
183.721, 274628.594
184.203, 281261.000
184.685, 288276.812
185.167, 295648.688
185.650, 303455.188
186.132, 311913.594
186.614, 320775.094
187.096, 329830.500
187.578, 339154.500
188.060, 348516.812
188.542, 357802.594
189.024, 367016.812
189.507, 375889.906
189.989, 384252.406
190.471, 392145.406
190.953, 399530.906
191.435, 406500.500
191.917, 412838.312
192.399, 418186.594
192.881, 422422.188
193.363, 426083.000
193.846, 429375.000
194.328, 432307.406
194.810, 434809.188
195.292, 436769.812
195.774, 438379.500
196.256, 439880.406
196.738, 441270.594
197.220, 442600.906
197.702, 443990.312
198.185, 445314.500
198.667, 446409.500
199.149, 447233.094
199.631, 447810.906
200.113, 448218.000
200.595, 448487.500
201.077, 448434.906
201.559, 447851.594
202.042, 446912.406
202.524, 445770.812
203.006, 444507.000
203.488, 442985.094
203.970, 441072.094
204.452, 438780.812
204.934, 435980.906
205.416, 432379.312
205.898, 428294.000
206.381, 424029.094
206.863, 419640.094
207.345, 415062.594
207.827, 410216.500
208.309, 405097.188
208.791, 399721.594
209.273, 393946.000
209.755, 387947.812
210.238, 381972.312
210.720, 376037.000
211.202, 370128.406
211.684, 364251.812
212.166, 358403.406
212.648, 352616.406
213.130, 346923.188
213.612, 341345.094
214.094, 335905.906
214.577, 330587.906
215.059, 325528.406
215.541, 320947.406
216.023, 316853.688
216.505, 312991.000
216.987, 309278.594
217.469, 305827.312
217.951, 302702.094
218.434, 299927.906
218.916, 297455.906
219.398, 295190.688
219.880, 293153.312
220.362, 291589.406
220.844, 290633.688
221.326, 290179.188
221.808, 290004.000
222.290, 290095.812
222.773, 290533.906
223.255, 291341.188
223.737, 292531.406
224.219, 294169.906
224.701, 296303.594
225.183, 298913.406
225.665, 301877.312
226.147, 305178.406
226.629, 308917.500
227.112, 313129.594
227.594, 317801.000
228.076, 322971.406
228.558, 328700.500
229.040, 334824.688
229.522, 341081.906
230.004, 347482.188
230.486, 354208.500
230.969, 361550.188
231.451, 369245.094
231.933, 376784.906
232.415, 384064.688
232.897, 391190.406
233.379, 398344.094
233.861, 405486.312
234.343, 412186.312
234.825, 418404.906
235.307, 424031.906
235.790, 429043.406
236.272, 433508.500
236.754, 437027.688
237.236, 439177.688
237.718, 440064.188
238.200, 439862.500
238.682, 438622.000
239.165, 436290.406
239.647, 432783.812
240.129, 428076.312
240.611, 422342.312
241.093, 415487.094
241.575, 407567.406
242.057, 399205.688
242.539, 390212.406
243.021, 380926.000
243.503, 371485.812
243.986, 361925.094
244.468, 352472.406
244.950, 343241.406
245.432, 334259.094
245.914, 325606.812
246.396, 317094.000
246.878, 309123.688
247.361, 301932.188
247.843, 295484.000
248.325, 289642.594
248.807, 284342.406
249.289, 279621.188
249.771, 275462.000
250.253, 271876.906
250.735, 268741.312
251.217, 266132.188
251.699, 263961.812
252.182, 262064.297
252.664, 260401.500
253.146, 258911.500
253.628, 257458.000
254.110, 255864.500
254.592, 254563.797
255.074, 253825.797
255.556, 253370.000
256.039, 252835.000
256.521, 252098.000
257.003, 251250.000
257.485, 250434.500
257.967, 249630.406
258.449, 248912.297
258.931, 248282.906
259.413, 247746.406
259.896, 247273.703
260.378, 246869.094
260.860, 246613.797
261.342, 246608.406
261.824, 246902.203
262.306, 247361.797
262.788, 247805.000
263.270, 248531.094
263.752, 249700.500
264.235, 251338.703
264.717, 253398.406
265.199, 255810.203
265.681, 258507.906
266.163, 262112.406
266.645, 266716.688
267.127, 272010.000
267.609, 277748.000
268.091, 284072.312
268.574, 291297.812
269.056, 299613.000
269.538, 309075.812
270.020, 319681.094
270.502, 331632.312
270.984, 344739.906
271.466, 358980.812
271.948, 374384.000
272.431, 390959.406
272.913, 408735.000
273.395, 427713.188
273.877, 448220.312
274.359, 470453.594
274.841, 493940.000
275.323, 518847.312
275.805, 544663.000
276.288, 571080.875
276.770, 598111.812
277.252, 625240.125
277.734, 652072.312
278.216, 678890.125
278.698, 704271.188
279.180, 729257.688
279.662, 751907.125
280.144, 771383.625
280.626, 787350.312
281.109, 799263.625
281.591, 806834.312
282.073, 810112.812
282.555, 808011.875
283.037, 799311.312
283.519, 785586.688
284.001, 767316.125
284.483, 744934.125
284.966, 719745.625
285.448, 691959.625
285.930, 661863.125
286.412, 631703.188
286.894, 601040.625
287.376, 571043.000
287.858, 542066.812
288.340, 514047.688
288.823, 487617.688
289.305, 462802.812
289.787, 439781.688
290.269, 418857.406
290.751, 400092.594
291.233, 383204.906
291.715, 368369.688
292.197, 355447.312
292.679, 344172.812
293.162, 334622.406
293.644, 326590.406
294.126, 320049.094
294.608, 314961.406
295.090, 311171.906
295.572, 308662.500
296.054, 307427.500
296.536, 307297.094
297.018, 308265.812
297.501, 310129.812
297.983, 312934.594
298.465, 316567.812
298.947, 320785.812
299.429, 325532.188
299.911, 330882.906
300.393, 337017.000
300.875, 344041.188
301.358, 351486.812
301.840, 359065.906
302.322, 367165.688
302.804, 376150.688
303.286, 386059.688
303.768, 396670.094
304.250, 407802.312
304.732, 419409.812
305.215, 432082.312
305.697, 445989.312
306.179, 460587.906
306.661, 475928.812
307.143, 491849.906
307.625, 508195.094
308.107, 524838.812
308.589, 541745.375
309.071, 558119.125
309.553, 575763.375
310.036, 590890.500
310.518, 604845.125
311.000, 615384.000
311.482, 620718.000
311.964, 620126.375
312.446, 612293.375
312.928, 594225.188
313.410, 563799.188
313.893, 526807.625
314.375, 480079.406
314.857, 430359.688
315.339, 380701.312
315.821, 332347.906
316.303, 287271.594
316.785, 247681.094
317.267, 213591.797
317.750, 184300.406
318.232, 161310.500
318.714, 142215.594
319.196, 126488.602
319.678, 113712.000
320.160, 102954.898
320.642, 94065.711
321.124, 86792.570
321.606, 80574.531
322.089, 75533.430
322.571, 71199.906
323.053, 67487.703
323.535, 64249.570
324.017, 61371.398
324.499, 58863.500
324.981, 56640.910
325.463, 54658.570
325.945, 52897.430
326.428, 51277.840
326.910, 49773.531
327.392, 48402.289
327.874, 47175.801
328.356, 46106.648
328.838, 45103.219
329.320, 44121.961
329.802, 43174.230
330.284, 42278.980
330.767, 41439.750
331.249, 40660.660
331.731, 39952.922
332.213, 39326.852
332.695, 38731.922
333.177, 38194.820
333.659, 37668.531
334.142, 37104.430
334.624, 36510.930
335.106, 35959.262
335.588, 35506.359
336.070, 35146.641
336.552, 34789.000
337.034, 34420.391
337.516, 34069.621
337.998, 33751.500
338.480, 33455.340
338.963, 33161.102
339.445, 32860.660
339.927, 32563.240
340.409, 32289.461
340.891, 32038.039
341.373, 31815.990
341.855, 31634.199
342.337, 31469.650
342.819, 31307.400
343.302, 31143.949
343.784, 30983.859
344.266, 30828.461
344.748, 30677.930
345.230, 30537.070
345.712, 30404.779
346.194, 30284.980
346.677, 30192.689
347.159, 30113.820
347.641, 30014.211
348.123, 29861.939
348.605, 29686.080
349.087, 29560.711
349.569, 29501.510
350.051, 29431.410
350.533, 29304.260
351.016, 29151.480
351.498, 29009.539
351.980, 28885.100
352.462, 28766.840
352.944, 28646.770
353.426, 28525.369
353.908, 28407.400
354.390, 28296.730
354.872, 28184.359
355.355, 28053.461
355.837, 27902.131
356.319, 27765.029
356.801, 27668.619
357.283, 27578.920
357.765, 27457.811
358.247, 27303.529
358.729, 27139.779
359.211, 26986.381
359.694, 26843.330
360.176, 26689.461
360.658, 26525.270
361.140, 26352.859
361.622, 26175.230
362.104, 25990.180
362.586, 25790.080
363.069, 25569.920
363.551, 25342.311
364.033, 25137.490
364.515, 24962.350
364.997, 24799.750
365.479, 24670.240
365.961, 24535.359
366.443, 24366.381
366.925, 24160.820
367.408, 23938.221
367.890, 23707.471
368.372, 23466.180
368.854, 23262.080
369.336, 23104.090
369.818, 22975.570
370.300, 22890.410
370.782, 22824.279
371.264, 22732.289
371.747, 22583.750
372.229, 22414.779
372.711, 22281.381
373.193, 22185.490
373.675, 22108.020
374.157, 22060.240
374.639, 22015.180
375.121, 21932.350
375.603, 21800.900
376.086, 21680.971
376.568, 21611.641
377.050, 21574.500
377.532, 21541.141
378.014, 21509.359
378.496, 21456.221
378.978, 21348.990
379.460, 21181.051
379.943, 21047.830
380.425, 20973.330
380.907, 20912.859
381.389, 20840.850
381.871, 20760.359
382.353, 20685.881
382.835, 20626.381
383.317, 20574.900
383.799, 20507.289
384.282, 20405.750
384.764, 20310.150
385.246, 20228.609
385.728, 20150.000
386.210, 20068.770
386.692, 19981.670
387.174, 19882.750
387.656, 19758.740
388.138, 19604.289
388.621, 19473.949
389.103, 19389.039
389.585, 19306.070
390.067, 19202.891
390.549, 19089.811
391.031, 18987.369
391.513, 18906.670
391.996, 18840.039
392.478, 18777.980
392.960, 18721.580
393.442, 18658.340
393.924, 18584.520
394.406, 18500.061
394.888, 18401.881
395.370, 18284.820
395.852, 18181.730
396.335, 18121.689
396.817, 18083.381
397.299, 18025.830
397.781, 17940.920
398.263, 17852.869
398.745, 17781.561
399.227, 17728.330
399.709, 17683.270
400.191, 17683.619
400.674, 17654.971
401.156, 17530.199
401.638, 17351.900
402.120, 17209.039
402.602, 17144.580
403.084, 17134.699
403.566, 17123.869
404.048, 17114.779
404.530, 17099.820
405.013, 17080.480
405.495, 17055.061
405.977, 17013.510
406.459, 16961.480
406.941, 16923.330
407.423, 16927.090
407.905, 16967.170
408.387, 16983.010
408.870, 16958.590
409.352, 16938.301
409.834, 16944.939
410.316, 16964.850
410.798, 16977.770
411.280, 16973.109
411.762, 16973.881
412.244, 17010.920
412.727, 17077.631
413.209, 17130.250
413.691, 17153.980
414.173, 17165.830
414.655, 17185.289
415.137, 17211.561
415.619, 17240.590
416.101, 17261.160
416.583, 17291.131
417.065, 17354.199
417.548, 17444.520
418.030, 17532.170
418.512, 17600.840
418.994, 17650.369
419.476, 17681.410
419.958, 17657.400
420.440, 17661.029
420.922, 17724.080
421.405, 17803.590
421.887, 17857.100
422.369, 17877.029
422.851, 17887.100
423.333, 17912.410
423.815, 17953.820
424.297, 18003.350
424.779, 18075.990
425.262, 18137.430
425.744, 18173.779
426.226, 18190.689
426.708, 18197.350
427.190, 18195.340
427.672, 18188.480
428.154, 18180.189
428.636, 18170.609
429.118, 18160.779
429.601, 18141.650
430.083, 18134.551
430.565, 18179.811
431.047, 18280.980
431.529, 18355.061
432.011, 18365.510
432.493, 18347.680
432.975, 18330.289
433.457, 18317.211
433.940, 18310.119
434.422, 18310.449
434.904, 18317.699
435.386, 18328.820
435.868, 18358.670
436.350, 18373.721
436.832, 18363.359
437.314, 18340.199
437.797, 18308.609
438.279, 18273.350
438.761, 18251.619
439.243, 18265.039
439.725, 18315.670
440.207, 18372.350
440.689, 18445.480
441.171, 18510.939
441.654, 18558.500
442.136, 18592.850
442.618, 18621.289
443.100, 18644.670
443.582, 18666.490
444.064, 18690.600
444.546, 18716.711
445.028, 18742.471
445.510, 18767.301
445.992, 18790.990
446.475, 18806.770
446.957, 18812.760
447.439, 18844.131
447.921, 18935.699
448.403, 19031.971
448.885, 19092.539
449.367, 19118.609
449.849, 19123.400
450.332, 19111.381
450.814, 19091.869
451.296, 19097.080
451.778, 19161.109
452.260, 19199.529
452.742, 19176.590
453.224, 19151.631
453.706, 19180.240
454.189, 19259.199
454.671, 19334.539
455.153, 19349.400
455.635, 19317.980
456.117, 19333.670
456.599, 19417.859
457.081, 19499.961
457.563, 19542.590
458.045, 19567.500
458.528, 19599.131
459.010, 19642.600
459.492, 19688.439
459.974, 19735.070
460.456, 19778.699
460.938, 19804.250
461.420, 19806.551
461.902, 19814.721
462.384, 19858.211
462.867, 19939.180
463.349, 20014.721
463.831, 20092.881
464.313, 20157.920
464.795, 20200.760
465.277, 20227.750
465.759, 20244.789
466.241, 20254.779
466.724, 20266.020
467.206, 20294.930
467.688, 20350.199
468.170, 20391.199
468.652, 20406.461
469.134, 20417.141
469.616, 20429.320
470.098, 20443.840
470.581, 20462.230
471.063, 20488.551
471.545, 20513.961
472.027, 20521.650
472.509, 20512.561
472.991, 20510.170
473.473, 20521.779
473.955, 20542.949
474.437, 20575.070
474.919, 20621.471
475.402, 20643.381
475.884, 20607.010
476.366, 20564.590
476.848, 20559.590
477.330, 20587.270
477.812, 20623.891
478.294, 20658.699
478.776, 20683.270
479.259, 20666.900
479.741, 20559.881
480.223, 20500.199
480.705, 20522.869
481.187, 20567.230
481.669, 20600.850
482.151, 20617.971
482.633, 20619.350
483.116, 20595.760
483.598, 20560.260
484.080, 20552.260
484.562, 20574.801
485.044, 20610.561
485.526, 20659.570
486.008, 20713.820
486.490, 20760.410
486.972, 20798.520
487.455, 20831.279
487.937, 20859.490
488.419, 20883.039
488.901, 20899.580
489.383, 20909.789
489.865, 20919.670
490.347, 20933.020
490.829, 20949.930
491.311, 20971.869
491.794, 21010.930
492.276, 21038.939
492.758, 21050.711
493.240, 21052.170
493.722, 21048.240
494.204, 21039.820
494.686, 21025.400
495.168, 20998.650
495.651, 20963.520
496.133, 20942.240
496.615, 20935.789
497.097, 20940.789
497.579, 20967.439
498.061, 21000.090
498.543, 21015.131
499.025, 21007.830
499.508, 20992.150
499.990, 20967.109
500.472, 20940.980
500.954, 20926.211
501.436, 20924.330
501.918, 20931.420
502.400, 20948.789
502.882, 20973.090
503.364, 20962.520
503.846, 20862.811
504.329, 20794.689
504.811, 20794.400
505.293, 20820.510
505.775, 20833.801
506.257, 20826.801
506.739, 20816.500
507.221, 20831.971
507.703, 20864.250
508.186, 20838.430
508.668, 20730.551
509.150, 20631.721
509.632, 20598.971
510.114, 20600.439
510.596, 20583.580
511.078, 20538.189
511.560, 20491.869
512.042, 20460.381
512.525, 20433.980
513.007, 20401.119
513.489, 20359.369
513.971, 20305.500
514.453, 20233.570
514.935, 20146.801
515.417, 20083.850
515.899, 20087.061
516.382, 20058.949
516.864, 19964.010
517.346, 19848.881
517.828, 19755.160
518.310, 19689.020
518.792, 19632.400
519.274, 19577.859
519.756, 19520.670
520.239, 19432.850
520.721, 19303.820
521.203, 19190.840
521.685, 19133.230
522.167, 19103.760
522.649, 19051.740
523.131, 18981.520
523.613, 18876.449
524.096, 18689.270
524.578, 18489.850
525.060, 18356.619
525.542, 18291.400
526.024, 18253.721
526.506, 18218.971
526.988, 18181.590
527.470, 18112.410
527.952, 17985.381
528.435, 17873.240
528.917, 17795.529
529.399, 17726.320
529.881, 17643.311
530.363, 17548.320
530.845, 17464.480
531.327, 17413.480
531.809, 17380.660
532.291, 17343.170
532.774, 17301.010
533.256, 17240.561
533.738, 17149.840
534.220, 17046.070
534.702, 16961.961
535.184, 16904.580
535.666, 16837.119
536.148, 16721.711
536.630, 16624.029
537.113, 16608.119
537.595, 16648.029
538.077, 16672.471
538.559, 16642.660
539.041, 16576.930
539.523, 16509.039
540.005, 16434.051
540.487, 16379.740
540.969, 16375.330
541.452, 16365.300
541.934, 16307.210
542.416, 16215.400
542.898, 16134.510
543.380, 16085.360
543.862, 16048.230
544.344, 16013.760
544.826, 15977.600
545.309, 15922.260
545.791, 15841.010
546.273, 15756.780
546.755, 15699.150
547.237, 15674.410
547.719, 15631.260
548.201, 15550.450
548.683, 15474.820
549.166, 15417.290
549.648, 15372.470
550.130, 15337.960
550.612, 15312.060
551.094, 15278.750
551.576, 15209.950
552.058, 15113.770
552.540, 15052.260
553.023, 15040.440
553.505, 15020.840
553.987, 14948.150
554.469, 14845.630
554.951, 14779.760
555.433, 14775.900
555.915, 14760.360
556.397, 14705.620
556.879, 14631.030
557.362, 14546.460
557.844, 14459.720
558.326, 14391.440
558.808, 14358.170
559.290, 14352.890
559.772, 14350.480
560.254, 14369.930
560.736, 14347.680
561.218, 14227.600
561.701, 14094.390
562.183, 14001.080
562.665, 13947.000
563.147, 13906.620
563.629, 13881.790
564.111, 13854.510
564.593, 13797.990
565.075, 13718.830
565.557, 13646.810
566.040, 13593.050
566.522, 13547.440
567.004, 13496.050
567.486, 13440.090
567.968, 13373.160
568.450, 13270.370
568.932, 13184.800
569.414, 13150.430
569.896, 13140.570
570.379, 13112.120
570.861, 13050.250
571.343, 12986.200
571.825, 12963.540
572.307, 12972.080
572.789, 12954.810
573.271, 12903.700
573.753, 12842.960
574.236, 12787.360
574.718, 12734.170
575.200, 12672.560
575.682, 12575.980
576.164, 12517.260
576.646, 12540.200
577.128, 12589.630
577.610, 12625.760
578.093, 12639.720
578.575, 12627.000
579.057, 12580.250
579.539, 12513.310
580.021, 12469.770
580.503, 12455.980
580.985, 12437.590
581.467, 12404.320
581.950, 12367.730
582.432, 12341.120
582.914, 12321.320
583.396, 12290.130
583.878, 12229.150
584.360, 12167.500
584.842, 12123.620
585.324, 12094.550
585.806, 12079.770
586.289, 12078.080
586.771, 12068.470
587.253, 12023.580
587.735, 11941.360
588.217, 11870.310
588.699, 11816.900
589.181, 11765.940
589.663, 11706.620
590.145, 11651.740
590.628, 11626.890
591.110, 11635.180
591.592, 11616.330
592.074, 11506.640
592.556, 11358.150
593.038, 11253.850
593.520, 11193.730
594.002, 11138.470
594.484, 11069.490
594.967, 10992.760
595.449, 10919.560
595.931, 10852.940
596.413, 10782.170
596.895, 10704.580
597.377, 10625.660
597.859, 10546.240
598.341, 10468.020
598.823, 10396.460
599.306, 10335.600
599.788, 10266.990
600.270, 10160.810
600.752, 10027.950
601.234, 9914.026
601.716, 9825.958
602.198, 9747.511
602.680, 9673.001
603.162, 9598.534
603.645, 9505.931
604.127, 9376.307
604.609, 9257.693
605.091, 9151.225
605.573, 9060.069
606.055, 8998.501
606.537, 8955.948
607.019, 8900.389
607.502, 8808.772
607.984, 8702.436
608.466, 8623.842
608.948, 8573.298
609.430, 8512.700
609.912, 8430.600
610.394, 8344.206
