##NAMES=Stibnite
##RRUFFID=R050016
##IDEAL CHEMISTRY=Sb^3+^_2_S^2-^_3_
##LOCALITY=Romania
##OWNER=RRUFF
##SOURCE=Eugene Schlepp
##DESCRIPTION=Group of lead-gray prismatic crystals
##STATUS=The identification of this mineral has been confirmed by X-ray diffraction and chemical analysis
##URL=rruff.info/R050016
##MEASURED CHEMISTRY=(Sb_.996_As_.004_)_2_S_3_
90.190, 36.538
90.673, 32.686
91.155, 29.247
91.637, 23.458
92.119, 21.288
92.601, 27.129
93.083, 36.640
93.565, 42.410
94.047, 39.973
94.529, 31.673
95.012, 28.451
95.494, 33.143
95.976, 38.833
96.458, 43.953
96.940, 48.151
97.422, 49.966
97.904, 47.566
98.386, 41.901
98.869, 38.865
99.351, 41.807
99.833, 45.023
100.315, 42.492
100.797, 33.840
101.279, 27.060
101.761, 30.885
102.243, 41.504
102.726, 48.139
103.208, 45.301
103.690, 38.279
104.172, 35.331
104.654, 37.896
105.136, 41.342
105.618, 41.215
106.100, 39.083
106.582, 38.978
107.064, 45.575
107.547, 56.172
108.029, 60.436
108.511, 53.129
108.993, 45.707
109.475, 45.771
109.957, 51.950
110.439, 59.100
110.921, 62.636
111.404, 62.604
111.886, 66.100
112.368, 77.899
112.850, 89.698
113.332, 98.089
113.814, 102.756
114.296, 104.513
114.778, 102.570
115.260, 94.885
115.743, 92.649
116.225, 103.659
116.707, 115.016
117.189, 118.484
117.671, 113.223
118.153, 105.664
118.635, 104.494
119.117, 110.159
119.600, 122.173
120.082, 142.005
120.564, 165.717
121.046, 189.241
121.528, 211.648
122.010, 236.551
122.492, 271.538
122.974, 321.199
123.456, 375.362
123.939, 429.627
124.421, 489.193
124.903, 562.141
125.385, 651.242
125.867, 750.095
126.349, 839.424
126.831, 914.630
127.313, 985.117
127.796, 1057.535
128.278, 1124.094
128.760, 1172.629
129.242, 1195.779
129.724, 1200.317
130.206, 1214.401
130.688, 1255.355
131.170, 1285.528
131.652, 1291.509
132.135, 1280.868
132.617, 1268.427
133.099, 1262.573
133.581, 1261.578
134.063, 1254.770
134.545, 1233.386
135.027, 1216.153
135.509, 1212.482
135.992, 1219.628
136.474, 1228.127
136.956, 1230.984
137.438, 1230.563
137.920, 1240.289
138.402, 1259.410
138.884, 1288.087
139.366, 1327.602
139.848, 1377.360
140.331, 1434.157
140.813, 1494.315
141.295, 1560.668
141.777, 1639.903
142.259, 1735.782
142.741, 1841.918
143.223, 1955.870
143.705, 2077.556
144.188, 2198.220
144.670, 2308.420
145.152, 2412.826
145.634, 2527.668
146.116, 2658.092
146.598, 2798.425
147.080, 2945.749
147.562, 3102.256
148.044, 3255.137
148.527, 3391.883
149.009, 3518.253
149.491, 3644.180
149.973, 3773.045
150.455, 3903.974
150.937, 4036.577
151.419, 4173.267
151.901, 4305.710
152.383, 4431.611
152.866, 4550.290
153.348, 4657.847
153.830, 4753.319
154.312, 4836.222
154.794, 4907.528
155.276, 4970.322
155.758, 5012.657
156.240, 5026.727
156.723, 5017.166
157.205, 4990.496
157.687, 4946.592
158.169, 4887.757
158.651, 4818.689
159.133, 4732.047
159.615, 4647.262
160.097, 4567.589
160.579, 4496.235
161.062, 4442.264
161.544, 4413.780
162.026, 4407.869
162.508, 4409.215
162.990, 4414.389
163.472, 4433.427
163.954, 4471.080
164.436, 4524.137
164.919, 4585.581
165.401, 4651.204
165.883, 4721.195
166.365, 4797.370
166.847, 4886.001
167.329, 4972.868
167.811, 5049.030
168.293, 5117.905
168.775, 5188.641
169.258, 5268.697
169.740, 5357.340
170.222, 5442.374
170.704, 5520.404
171.186, 5598.350
171.668, 5679.769
172.150, 5763.621
172.632, 5847.190
173.115, 5927.093
173.597, 6003.771
174.079, 6087.262
174.561, 6188.623
175.043, 6287.130
175.525, 6372.211
176.007, 6448.169
176.489, 6524.484
176.971, 6606.485
177.454, 6694.147
177.936, 6797.750
178.418, 6932.576
178.900, 7069.630
179.382, 7195.669
179.864, 7316.293
180.346, 7445.138
180.828, 7593.025
181.311, 7759.692
181.793, 7936.955
182.275, 8124.862
182.757, 8324.206
183.239, 8530.385
183.721, 8747.790
184.203, 8984.439
184.685, 9249.314
185.167, 9542.059
185.650, 9843.034
186.132, 10162.230
186.614, 10479.850
187.096, 10786.000
187.578, 11087.040
188.060, 11396.160
188.542, 11731.470
189.024, 12091.100
189.507, 12424.740
189.989, 12735.230
190.471, 13012.020
190.953, 13253.530
191.435, 13458.000
191.917, 13622.420
192.399, 13742.650
192.881, 13819.100
193.363, 13882.750
193.846, 13930.790
194.328, 13968.160
194.810, 13998.250
195.292, 14018.500
195.774, 14022.650
196.256, 14004.560
196.738, 13965.620
197.220, 13931.950
197.702, 13910.070
198.185, 13887.490
198.667, 13862.040
199.149, 13833.810
199.631, 13803.020
200.113, 13768.860
200.595, 13732.270
201.077, 13703.460
201.559, 13703.370
202.042, 13689.330
202.524, 13652.070
203.006, 13595.450
203.488, 13526.080
203.970, 13447.540
204.452, 13360.240
204.934, 13268.070
205.416, 13179.700
205.898, 13075.360
206.381, 12944.050
206.863, 12796.220
207.345, 12648.650
207.827, 12511.360
208.309, 12378.940
208.791, 12226.830
209.273, 12033.870
209.755, 11844.730
210.238, 11671.080
210.720, 11504.230
211.202, 11334.520
211.684, 11158.220
212.166, 10974.980
212.648, 10781.380
213.130, 10562.270
213.612, 10355.500
214.094, 10158.620
214.577, 9979.525
215.059, 9829.779
215.541, 9715.963
216.023, 9622.397
216.505, 9506.804
216.987, 9334.226
217.469, 9196.615
217.951, 9126.772
218.434, 9078.755
218.916, 9006.588
219.398, 8894.695
219.880, 8767.014
220.362, 8669.323
220.844, 8609.778
221.326, 8568.402
221.808, 8542.704
222.290, 8531.778
222.773, 8536.431
223.255, 8556.351
223.737, 8588.363
224.219, 8626.253
224.701, 8664.922
225.183, 8723.036
225.665, 8805.297
226.147, 8900.883
226.629, 9004.626
227.112, 9114.755
227.594, 9231.051
228.076, 9349.493
228.558, 9458.394
229.040, 9605.703
229.522, 9818.996
230.004, 10045.820
230.486, 10256.000
230.969, 10449.650
231.451, 10648.230
231.933, 10879.440
232.415, 11150.850
232.897, 11408.790
233.379, 11645.570
233.861, 11873.210
234.343, 12102.430
234.825, 12328.630
235.307, 12536.070
235.790, 12710.460
236.272, 12851.600
236.754, 12985.990
237.236, 13143.210
237.718, 13261.320
238.200, 13315.500
238.682, 13315.090
239.165, 13283.640
239.647, 13238.670
240.129, 13176.730
240.611, 13073.840
241.093, 12917.840
241.575, 12731.050
242.057, 12513.940
242.539, 12275.630
243.021, 12030.750
243.503, 11786.770
243.986, 11541.820
244.468, 11289.570
244.950, 11027.750
245.432, 10763.340
245.914, 10484.680
246.396, 10210.920
246.878, 9962.408
247.361, 9748.062
247.843, 9560.748
248.325, 9387.786
248.807, 9227.776
249.289, 9086.574
249.771, 8972.745
250.253, 8873.971
250.735, 8779.054
251.217, 8685.125
251.699, 8598.438
252.182, 8524.864
252.664, 8464.354
253.146, 8419.006
253.628, 8397.636
254.110, 8387.314
254.592, 8382.768
255.074, 8383.537
255.556, 8378.463
256.039, 8349.985
256.521, 8300.109
257.003, 8269.875
257.485, 8283.411
257.967, 8300.098
258.449, 8280.201
258.931, 8226.483
259.413, 8181.219
259.896, 8178.815
260.378, 8206.804
260.860, 8217.803
261.342, 8197.722
261.824, 8176.970
262.306, 8175.318
262.788, 8191.615
263.270, 8226.451
263.752, 8288.672
264.235, 8367.412
264.717, 8438.974
265.199, 8497.116
265.681, 8572.492
266.163, 8686.744
266.645, 8836.349
267.127, 9015.991
267.609, 9228.271
268.091, 9468.097
268.574, 9725.401
269.056, 10000.060
269.538, 10313.780
270.020, 10672.940
270.502, 11085.890
270.984, 11547.950
271.466, 12066.120
271.948, 12625.430
272.431, 13217.850
272.913, 13845.580
273.395, 14508.860
273.877, 15210.380
274.359, 15950.400
274.841, 16739.311
275.323, 17576.670
275.805, 18451.830
276.288, 19383.301
276.770, 20347.760
277.252, 21302.100
277.734, 22239.439
278.216, 23154.500
278.698, 24049.170
279.180, 24953.199
279.662, 25744.490
280.144, 26428.039
280.626, 26987.930
281.109, 27418.801
281.591, 27717.119
282.073, 27866.770
282.555, 27852.949
283.037, 27665.980
283.519, 27288.971
284.001, 26684.480
284.483, 25945.301
284.966, 25085.689
285.448, 24132.971
285.930, 23121.760
286.412, 22083.420
286.894, 21015.330
287.376, 19975.260
287.858, 18933.270
288.340, 17948.529
288.823, 17027.830
289.305, 16183.870
289.787, 15441.750
290.269, 14817.640
290.751, 14289.850
291.233, 13777.340
291.715, 13223.150
292.197, 12777.060
292.679, 12483.100
293.162, 12280.580
293.644, 12114.960
294.126, 11968.540
294.608, 11852.450
295.090, 11784.960
295.572, 11768.210
296.054, 11796.580
296.536, 11890.170
297.018, 12009.740
297.501, 12128.720
297.983, 12247.940
298.465, 12390.390
298.947, 12577.690
299.429, 12811.400
299.911, 13074.080
300.393, 13389.800
300.875, 13707.890
301.358, 14003.880
301.840, 14283.360
302.322, 14561.990
302.804, 14838.750
303.286, 15124.320
303.768, 15451.830
304.250, 15831.110
304.732, 16233.100
305.215, 16648.100
305.697, 17076.900
306.179, 17518.680
306.661, 17975.891
307.143, 18448.801
307.625, 18948.561
308.107, 19473.881
308.589, 19990.990
309.071, 20504.279
309.553, 20984.699
310.036, 21410.400
310.518, 21796.420
311.000, 22068.820
311.482, 22245.150
311.964, 22279.150
312.446, 22057.891
312.928, 21570.510
313.410, 20781.650
313.893, 19552.881
314.375, 17901.730
314.857, 16170.880
315.339, 14311.310
315.821, 12476.460
316.303, 10797.500
316.785, 9298.209
317.267, 7990.333
317.750, 6889.716
318.232, 6009.434
318.714, 5254.624
319.196, 4640.302
319.678, 4128.679
320.160, 3725.037
320.642, 3411.404
321.124, 3144.853
321.606, 2905.799
322.089, 2694.603
322.571, 2517.213
323.053, 2389.983
323.535, 2276.777
324.017, 2177.029
324.499, 2089.762
324.981, 2016.945
325.463, 1958.378
325.945, 1906.531
326.428, 1850.559
326.910, 1785.479
327.392, 1730.099
327.874, 1691.946
328.356, 1655.518
328.838, 1610.810
329.320, 1559.895
329.802, 1513.001
330.284, 1479.701
330.767, 1458.943
331.249, 1434.443
331.731, 1402.059
332.213, 1371.458
332.695, 1344.889
333.177, 1322.018
333.659, 1302.299
334.142, 1286.265
334.624, 1271.982
335.106, 1255.154
335.588, 1234.378
336.070, 1217.947
336.552, 1212.904
337.034, 1210.691
337.516, 1205.282
337.998, 1196.100
338.480, 1181.708
338.963, 1156.438
339.445, 1123.808
339.927, 1099.021
340.409, 1085.406
340.891, 1078.713
341.373, 1078.310
341.855, 1082.748
342.337, 1083.004
342.819, 1072.737
343.302, 1059.299
343.784, 1051.020
344.266, 1048.115
344.748, 1046.776
345.230, 1046.008
345.712, 1044.479
346.194, 1036.058
346.677, 1010.103
347.159, 989.532
347.641, 986.237
348.123, 993.618
348.605, 1000.583
349.087, 1003.040
349.569, 1001.161
350.051, 994.841
350.533, 978.133
351.016, 967.777
351.498, 969.262
351.980, 972.951
352.462, 972.057
352.944, 965.921
353.426, 957.403
353.908, 948.713
354.390, 939.668
354.872, 934.073
355.355, 937.204
355.837, 938.592
356.319, 934.096
356.801, 926.493
357.283, 920.551
357.765, 918.918
358.247, 919.267
358.729, 916.648
359.211, 910.920
359.694, 902.619
360.176, 887.218
360.658, 872.221
361.140, 863.683
361.622, 862.464
362.104, 863.287
362.586, 863.338
363.069, 862.199
363.551, 856.778
364.033, 844.658
364.515, 832.317
364.997, 826.688
365.479, 825.514
365.961, 821.508
366.443, 810.806
366.925, 797.559
367.408, 784.951
367.890, 773.222
368.372, 764.171
368.854, 759.496
369.336, 757.825
369.818, 754.698
370.300, 748.216
370.782, 743.531
371.264, 743.413
371.747, 745.406
372.229, 746.361
372.711, 745.429
373.193, 743.418
373.675, 741.587
374.157, 740.962
374.639, 736.292
375.121, 724.162
375.603, 711.853
376.086, 702.528
376.568, 696.003
377.050, 690.600
377.532, 685.046
378.014, 680.070
378.496, 679.676
378.978, 690.000
379.460, 694.477
379.943, 685.864
380.425, 673.249
380.907, 664.637
381.389, 662.001
381.871, 662.668
382.353, 665.308
382.835, 669.893
383.317, 669.791
383.799, 660.656
384.282, 651.515
384.764, 650.788
385.246, 655.781
385.728, 656.982
386.210, 646.047
386.692, 631.635
387.174, 627.619
387.656, 633.996
388.138, 636.126
388.621, 623.995
389.103, 603.953
389.585, 593.135
390.067, 595.601
390.549, 598.757
391.031, 598.219
391.513, 595.811
391.996, 594.749
392.478, 595.750
392.960, 595.807
393.442, 590.924
393.924, 579.489
394.406, 571.225
394.888, 566.261
395.370, 563.912
395.852, 564.510
396.335, 567.433
396.817, 572.079
397.299, 578.396
397.781, 585.125
398.263, 588.546
398.745, 589.330
399.227, 585.137
399.709, 569.036
400.191, 552.839
400.674, 546.316
401.156, 550.526
401.638, 557.883
402.120, 563.179
402.602, 566.234
403.084, 564.740
403.566, 555.620
404.048, 547.823
404.530, 549.528
405.013, 556.534
405.495, 560.657
405.977, 559.244
406.459, 554.917
406.941, 547.678
407.423, 538.757
407.905, 534.818
408.387, 539.784
408.870, 548.108
409.352, 549.170
409.834, 539.771
410.316, 534.550
410.798, 537.989
411.280, 544.572
411.762, 551.409
412.244, 557.297
412.727, 559.291
413.209, 554.040
413.691, 542.629
414.173, 539.179
414.655, 555.502
415.137, 566.276
415.619, 562.441
416.101, 553.948
416.583, 552.634
417.065, 561.967
417.548, 574.505
418.030, 580.570
418.512, 579.613
418.994, 578.026
419.476, 575.695
419.958, 573.434
420.440, 570.575
420.922, 568.030
421.405, 568.510
421.887, 576.033
422.369, 584.970
422.851, 586.430
423.333, 580.724
423.815, 577.042
424.297, 580.790
424.779, 587.203
425.262, 586.061
425.744, 574.172
426.226, 566.549
426.708, 570.119
427.190, 578.227
427.672, 584.186
428.154, 587.030
428.636, 588.528
429.118, 590.089
429.601, 591.708
430.083, 593.013
430.565, 595.409
431.047, 595.831
431.529, 590.662
432.011, 584.447
432.493, 583.294
432.975, 589.042
433.457, 597.137
433.940, 602.056
434.422, 603.879
434.904, 601.415
435.386, 589.641
435.868, 579.191
436.350, 576.695
436.832, 579.951
437.314, 582.858
437.797, 583.282
438.279, 581.612
438.761, 576.676
439.243, 568.752
439.725, 564.462
440.207, 566.727
440.689, 573.493
441.171, 582.416
441.654, 595.086
442.136, 603.224
442.618, 601.184
443.100, 596.275
443.582, 596.138
444.064, 600.661
444.546, 603.717
445.028, 599.665
445.510, 590.462
445.992, 591.851
446.475, 620.156
446.957, 639.169
447.439, 639.959
447.921, 632.558
448.403, 625.539
448.885, 621.284
449.367, 618.992
449.849, 617.554
450.332, 617.004
450.814, 619.406
451.296, 626.722
451.778, 633.826
452.260, 638.844
452.742, 641.717
453.224, 641.942
453.706, 638.158
454.189, 633.766
454.671, 631.391
455.153, 630.778
455.635, 631.622
456.117, 634.438
456.599, 636.295
457.081, 632.280
457.563, 619.964
458.045, 614.807
458.528, 621.506
459.010, 631.361
459.492, 641.835
459.974, 651.372
460.456, 657.176
460.938, 657.584
461.420, 654.692
461.902, 653.432
462.384, 653.654
462.867, 655.924
463.349, 662.635
463.831, 669.344
464.313, 674.695
464.795, 677.899
465.277, 677.170
465.759, 669.522
466.241, 657.945
466.724, 648.301
467.206, 640.285
467.688, 636.930
468.170, 641.223
468.652, 650.019
469.134, 658.108
469.616, 666.111
470.098, 671.127
470.581, 670.048
471.063, 666.615
471.545, 665.480
472.027, 666.921
472.509, 668.048
472.991, 666.509
473.473, 662.665
473.955, 659.898
474.437, 661.392
474.919, 659.999
475.402, 650.869
475.884, 640.880
476.366, 636.456
476.848, 638.851
477.330, 645.234
477.812, 655.851
478.294, 669.859
478.776, 673.110
479.259, 660.723
479.741, 647.627
480.223, 639.296
480.705, 635.840
481.187, 639.097
481.669, 652.132
482.151, 665.372
482.633, 674.612
483.116, 679.313
483.598, 676.167
484.080, 664.164
484.562, 652.659
485.044, 651.472
485.526, 661.245
486.008, 667.891
486.490, 668.933
486.972, 670.116
487.455, 674.750
487.937, 679.971
488.419, 681.331
488.901, 677.503
489.383, 671.892
489.865, 669.119
490.347, 669.487
490.829, 669.524
491.311, 668.731
491.794, 668.167
492.276, 668.722
492.758, 669.799
493.240, 670.356
493.722, 670.399
494.204, 669.295
494.686, 666.418
495.168, 661.931
495.651, 654.929
496.133, 644.296
496.615, 636.609
497.097, 640.339
497.579, 657.412
498.061, 670.911
498.543, 681.311
499.025, 687.904
499.508, 686.914
499.990, 682.859
500.472, 684.513
500.954, 694.966
501.436, 705.591
501.918, 700.444
502.400, 675.211
502.882, 661.712
503.364, 670.165
503.846, 679.684
504.329, 678.753
504.811, 671.312
505.293, 666.076
505.775, 667.563
506.257, 669.171
506.739, 661.925
507.221, 649.265
507.703, 644.848
508.186, 653.517
508.668, 664.219
509.150, 663.627
509.632, 649.551
510.114, 642.498
510.596, 647.470
511.078, 653.525
511.560, 658.388
512.042, 660.891
512.525, 658.730
513.007, 651.260
513.489, 642.317
513.971, 637.195
514.453, 636.133
514.935, 637.061
515.417, 642.818
515.899, 646.460
516.382, 644.069
516.864, 637.344
517.346, 628.372
517.828, 614.278
518.310, 604.864
518.792, 612.354
519.274, 630.268
519.756, 642.741
520.239, 646.258
520.721, 642.917
521.203, 633.459
521.685, 617.349
522.167, 606.354
522.649, 602.301
523.131, 600.428
523.613, 601.070
524.096, 602.421
524.578, 602.091
525.060, 599.560
525.542, 596.886
526.024, 596.900
526.506, 599.427
526.988, 600.481
527.470, 599.875
527.952, 598.112
528.435, 594.916
528.917, 590.874
529.399, 587.057
529.881, 584.405
530.363, 579.876
530.845, 568.747
531.327, 556.072
531.809, 550.234
532.291, 551.980
532.774, 555.502
533.256, 556.352
533.738, 554.723
534.220, 552.167
534.702, 548.637
535.184, 544.145
535.666, 536.108
536.148, 528.905
536.630, 525.763
537.113, 527.226
537.595, 532.658
538.077, 545.500
538.559, 561.105
539.041, 565.007
539.523, 556.047
540.005, 545.182
540.487, 534.437
540.969, 526.484
541.452, 528.303
541.934, 543.978
542.416, 550.536
542.898, 535.076
543.380, 515.517
543.862, 504.568
544.344, 502.410
544.826, 506.682
545.309, 516.684
545.791, 528.018
546.273, 528.994
546.755, 514.877
547.237, 505.024
547.719, 504.258
548.201, 505.287
548.683, 504.739
549.166, 502.896
549.648, 501.231
550.130, 501.686
550.612, 500.736
551.094, 492.609
551.576, 479.751
552.058, 470.472
552.540, 467.001
553.023, 468.541
553.505, 476.107
553.987, 491.391
554.469, 494.993
554.951, 474.303
555.433, 458.525
555.915, 459.945
556.397, 469.400
556.879, 475.774
557.362, 475.935
557.844, 473.181
558.326, 470.778
558.808, 468.517
559.290, 464.582
559.772, 458.237
560.254, 452.541
560.736, 448.819
561.218, 446.950
561.701, 446.554
562.183, 448.118
562.665, 449.763
563.147, 451.440
563.629, 452.555
564.111, 453.424
564.593, 453.371
565.075, 449.430
565.557, 439.188
566.040, 425.597
566.522, 418.147
567.004, 419.736
567.486, 419.884
567.968, 414.106
568.450, 409.447
568.932, 410.563
569.414, 416.298
569.896, 422.232
570.379, 427.715
570.861, 431.396
571.343, 430.546
571.825, 426.610
572.307, 425.300
572.789, 428.575
573.271, 430.469
573.753, 422.968
574.236, 404.601
574.718, 395.912
575.200, 407.287
575.682, 415.328
576.164, 409.956
576.646, 400.966
577.128, 401.277
577.610, 412.849
578.093, 423.918
578.575, 422.034
579.057, 411.192
579.539, 405.616
580.021, 406.131
580.503, 406.997
580.985, 405.814
581.467, 403.172
581.950, 399.709
582.432, 394.227
582.914, 391.904
583.396, 397.035
583.878, 402.381
584.360, 402.461
584.842, 398.564
585.324, 394.067
585.806, 390.472
586.289, 389.019
586.771, 394.490
587.253, 408.549
587.735, 411.012
588.217, 393.122
588.699, 374.520
589.181, 369.935
589.663, 373.774
590.145, 374.253
590.628, 367.505
591.110, 360.985
591.592, 358.341
592.074, 357.962
592.556, 358.387
593.038, 359.036
593.520, 358.364
594.002, 354.802
594.484, 349.425
594.967, 348.020
595.449, 353.853
595.931, 356.419
596.413, 352.376
596.895, 345.745
597.377, 336.518
597.859, 326.221
598.341, 320.775
598.823, 326.058
599.306, 334.012
599.788, 337.978
600.270, 338.304
600.752, 335.410
601.234, 329.362
601.716, 321.939
602.198, 314.619
602.680, 307.260
603.162, 303.622
603.645, 309.587
604.127, 311.898
604.609, 304.163
605.091, 294.133
605.573, 290.597
606.055, 294.274
606.537, 296.601
607.019, 288.015
607.502, 275.898
607.984, 274.234
608.466, 282.394
608.948, 292.228
609.430, 301.708
609.912, 307.646
610.394, 304.261
610.876, 288.318
611.359, 274.842
611.841, 260.704
612.323, 252.117
612.805, 254.271
613.287, 262.295
613.769, 270.556
614.251, 277.293
614.733, 280.929
615.216, 278.087
615.698, 270.937
616.180, 267.809
616.662, 269.668
617.144, 267.240
617.626, 253.276
618.108, 234.564
618.590, 226.410
619.072, 233.548
619.555, 240.189
620.037, 248.514
620.519, 253.613
621.001, 250.605
621.483, 242.702
621.965, 236.046
622.447, 233.286
622.929, 232.069
623.411, 229.893
623.894, 226.728
624.376, 221.984
624.858, 215.092
625.340, 208.700
625.822, 203.783
626.304, 200.746
626.786, 201.197
627.268, 207.348
627.750, 212.086
628.233, 215.566
628.715, 216.391
629.197, 212.348
629.679, 204.855
630.161, 196.859
