##NAMES=Stibiotantalite
##RRUFFID=R050232
##IDEAL CHEMISTRY=Sb^3+^Ta^5+^O_4_
##LOCALITY=Himalaya mine, Mesa Grande, San Diego County, California, USA
##OWNER=RRUFF
##SOURCE=Marcus Origlieri
##DESCRIPTION=Brown crystal fragment
##STATUS=The identification of this mineral has been confirmed by X-ray diffraction and chemical analysis
##URL=rruff.info/R050232
##MEASURED CHEMISTRY=lighter and darker phases: Sb_1.00_(Ta_0.72_Nb_0.28_)_Î£=1_O_4_
100.9778, 1236.419
101.4600, 1338.992
101.9421, 1450.827
102.4242, 1570.083
102.9063, 1698.067
103.3884, 1832.441
103.8705, 1969.302
104.3527, 2108.301
104.8348, 2255.446
105.3169, 2412.712
105.7990, 2579.009
106.2811, 2760.382
106.7632, 2962.573
107.2454, 3172.766
107.7275, 3377.677
108.2096, 3583.917
108.6917, 3779.177
109.1738, 3959.751
109.6559, 4124.900
110.1381, 4290.384
110.6202, 4462.382
111.1023, 4633.591
111.5844, 4796.689
112.0665, 4954.478
112.5486, 5103.405
113.0308, 5245.806
113.5129, 5387.784
113.9950, 5508.163
114.4771, 5604.074
114.9592, 5676.459
115.4413, 5727.931
115.9235, 5748.084
116.4056, 5754.753
116.8877, 5755.834
117.3698, 5753.488
117.8519, 5743.783
118.3340, 5724.474
118.8162, 5696.687
119.2983, 5663.344
119.7804, 5621.904
120.2625, 5576.812
120.7446, 5531.774
121.2267, 5487.011
121.7089, 5442.782
122.1910, 5397.956
122.6731, 5353.253
123.1552, 5311.892
123.6373, 5277.654
124.1194, 5247.518
124.6016, 5216.850
125.0837, 5180.866
125.5658, 5147.260
126.0479, 5124.258
126.5300, 5111.620
127.0121, 5105.288
127.4943, 5099.322
127.9764, 5097.001
128.4585, 5105.818
128.9406, 5132.278
129.4227, 5170.466
129.9048, 5209.034
130.3869, 5247.509
130.8691, 5291.074
131.3512, 5347.280
131.8333, 5414.700
132.3154, 5485.141
132.7975, 5556.256
133.2796, 5627.827
133.7618, 5694.044
134.2439, 5741.167
134.7260, 5760.063
135.2081, 5776.289
135.6902, 5803.560
136.1723, 5832.426
136.6545, 5856.579
137.1366, 5876.063
137.6187, 5904.745
138.1008, 5946.143
138.5829, 5993.200
139.0650, 6029.827
139.5472, 6052.544
140.0293, 6079.235
140.5114, 6118.893
140.9935, 6172.126
141.4756, 6236.924
141.9577, 6316.960
142.4399, 6408.146
142.9220, 6491.933
143.4041, 6562.047
143.8862, 6637.269
144.3683, 6730.601
144.8504, 6845.126
145.3326, 6968.260
145.8147, 7095.695
146.2968, 7229.528
146.7789, 7372.936
147.2610, 7524.348
147.7431, 7687.547
148.2253, 7868.347
148.7074, 8075.029
149.1895, 8285.595
149.6716, 8493.319
150.1537, 8697.959
150.6358, 8910.135
151.1180, 9134.689
151.6001, 9363.211
152.0822, 9585.829
152.5643, 9790.808
153.0464, 10002.59
153.5285, 10227.13
154.0107, 10464.53
154.4928, 10697.31
154.9749, 10913.18
155.4570, 11130.53
155.9391, 11367.38
156.4212, 11641.10
156.9034, 11923.34
157.3855, 12204.94
157.8676, 12479.14
158.3497, 12770.46
158.8318, 13084.46
159.3139, 13419.53
159.7961, 13775.15
160.2782, 14139.33
160.7603, 14533.18
161.2424, 14963.64
161.7245, 15430.22
162.2066, 15936.60
162.6888, 16490.81
163.1709, 17084.20
163.6530, 17702.96
164.1351, 18339.19
164.6172, 19000.61
165.0993, 19693.68
165.5815, 20426.41
166.0636, 21174.57
166.5457, 21967.16
167.0278, 22772.93
167.5099, 23526.69
167.9920, 24250.25
168.4742, 24881.99
168.9563, 25382.62
169.4384, 25763.29
169.9205, 25975.00
170.4026, 25979.60
170.8847, 25792.36
171.3669, 25449.00
171.8490, 24900.52
172.3311, 24235.53
172.8132, 23537.32
173.2953, 22798.65
173.7774, 22069.80
174.2596, 21377.11
174.7417, 20722.87
175.2238, 20127.35
175.7059, 19603.79
176.1880, 19151.06
176.6701, 18770.60
177.1523, 18457.76
177.6344, 18222.08
178.1165, 18087.64
178.5986, 18045.52
179.0807, 18051.63
179.5628, 18072.29
180.0450, 18118.34
180.5271, 18211.11
181.0092, 18358.63
181.4913, 18552.90
181.9734, 18782.53
182.4555, 19047.37
182.9377, 19344.52
183.4198, 19680.19
183.9019, 20050.88
184.3840, 20440.97
184.8661, 20861.12
185.3482, 21290.37
185.8304, 21700.60
186.3125, 22090.04
186.7946, 22465.54
187.2767, 22848.96
187.7588, 23231.71
188.2409, 23557.09
188.7231, 23816.68
189.2052, 24009.24
189.6873, 24133.97
190.1694, 24191.66
190.6515, 24185.13
191.1336, 24119.75
191.6158, 23994.58
192.0979, 23801.58
192.5800, 23535.43
193.0621, 23199.21
193.5442, 22791.44
194.0263, 22302.79
194.5085, 21774.93
194.9906, 21249.58
195.4727, 20726.86
195.9548, 20198.97
196.4369, 19658.56
196.9190, 19114.04
197.4012, 18598.75
197.8833, 18108.92
198.3654, 17666.56
198.8475, 17312.98
199.3296, 17048.12
199.8117, 16829.32
200.2939, 16643.82
200.7760, 16494.03
201.2581, 16396.42
201.7402, 16354.83
202.2223, 16356.87
202.7044, 16391.53
203.1866, 16459.10
203.6687, 16553.26
204.1508, 16671.93
204.6329, 16815.27
205.1150, 16988.89
205.5971, 17196.61
206.0793, 17426.28
206.5614, 17659.97
207.0435, 17889.25
207.5256, 18153.22
208.0077, 18466.18
208.4898, 18827.29
208.9720, 19199.98
209.4541, 19580.48
209.9362, 19978.52
210.4183, 20407.92
210.9004, 20868.93
211.3825, 21350.23
211.8647, 21854.18
212.3468, 22381.00
212.8289, 22913.95
213.3110, 23450.69
213.7931, 23999.51
214.2752, 24566.75
214.7574, 25166.67
215.2395, 25758.49
215.7216, 26340.68
216.2037, 26908.81
216.6858, 27458.54
217.1679, 27988.83
217.6500, 28504.69
218.1322, 29002.69
218.6143, 29479.23
219.0964, 29959.24
219.5785, 30445.09
220.0606, 30942.83
220.5427, 31408.63
221.0249, 31827.56
221.5070, 32226.36
221.9891, 32625.22
222.4712, 33021.01
222.9533, 33432.65
223.4354, 33859.27
223.9176, 34307.47
224.3997, 34748.30
224.8818, 35171.70
225.3639, 35602.96
225.8460, 36084.10
226.3281, 36641.84
226.8103, 37189.07
227.2924, 37703.27
227.7745, 38192.46
228.2566, 38631.53
228.7387, 39017.02
229.2208, 39356.47
229.7030, 39659.84
230.1851, 39966.20
230.6672, 40164.55
231.1493, 40228.46
231.6314, 40156.12
232.1135, 40002.36
232.5957, 39786.91
233.0778, 39469.83
233.5599, 39007.29
234.0420, 38358.33
234.5241, 37646.75
235.0062, 36889.38
235.4884, 36092.74
235.9705, 35267.51
236.4526, 34387.81
236.9347, 33495.45
237.4168, 32623.11
237.8989, 31771.59
238.3811, 30941.43
238.8632, 30137.68
239.3453, 29356.92
239.8274, 28601.13
240.3095, 27858.56
240.7916, 27146.66
241.2738, 26480.15
241.7559, 25865.35
242.2380, 25286.51
242.7201, 24750.75
243.2022, 24254.49
243.6843, 23772.81
244.1665, 23300.71
244.6486, 22845.26
245.1307, 22409.37
245.6128, 21982.39
246.0949, 21598.18
246.5770, 21267.64
247.0592, 20987.01
247.5413, 20719.33
248.0234, 20467.10
248.5055, 20227.40
248.9876, 20000.15
249.4697, 19777.87
249.9519, 19581.86
250.4340, 19424.22
250.9161, 19296.78
251.3982, 19148.92
251.8803, 18969.80
252.3624, 18786.46
252.8446, 18621.58
253.3267, 18491.74
253.8088, 18337.99
254.2909, 18155.57
254.7730, 17945.00
255.2551, 17712.18
255.7373, 17455.87
256.2194, 17180.68
256.7015, 16892.64
257.1836, 16591.17
257.6657, 16274.44
258.1478, 15938.24
258.6299, 15589.09
259.1121, 15235.63
259.5942, 14872.81
260.0763, 14512.55
260.5584, 14151.85
261.0405, 13791.16
261.5226, 13438.56
262.0048, 13089.27
262.4869, 12751.38
262.9690, 12436.28
263.4511, 12151.47
263.9332, 11877.28
264.4153, 11605.75
264.8975, 11331.85
265.3796, 11071.19
265.8617, 10822.40
266.3438, 10585.99
266.8259, 10356.46
267.3080, 10134.25
267.7902, 9922.315
268.2723, 9729.918
268.7544, 9558.160
269.2365, 9376.332
269.7186, 9179.002
270.2007, 8978.823
270.6829, 8800.701
271.1650, 8651.036
271.6471, 8501.486
272.1292, 8343.687
272.6113, 8177.247
273.0934, 8018.417
273.5756, 7868.800
274.0577, 7726.440
274.5398, 7588.202
275.0219, 7455.649
275.5040, 7322.690
275.9861, 7187.185
276.4683, 7049.422
276.9504, 6912.857
277.4325, 6776.877
277.9146, 6643.642
278.3967, 6516.443
278.8788, 6396.427
279.3610, 6275.319
279.8431, 6149.122
280.3252, 6021.438
280.8073, 5906.611
281.2894, 5806.700
281.7715, 5711.208
282.2537, 5610.633
282.7358, 5504.844
283.2179, 5400.151
283.7000, 5296.417
284.1821, 5195.009
284.6642, 5104.315
285.1464, 5024.965
285.6285, 4946.612
286.1106, 4859.183
286.5927, 4763.702
287.0748, 4674.592
287.5569, 4593.864
288.0391, 4520.312
288.5212, 4453.403
289.0033, 4392.852
289.4854, 4336.472
289.9675, 4282.657
290.4496, 4231.501
290.9318, 4186.433
291.4139, 4149.257
291.8960, 4113.710
292.3781, 4068.962
292.8602, 4015.471
293.3423, 3962.616
293.8245, 3913.287
294.3066, 3867.986
294.7887, 3829.906
295.2708, 3800.833
295.7529, 3773.236
296.2350, 3736.547
296.7172, 3692.625
297.1993, 3649.828
297.6814, 3609.802
298.1635, 3573.452
298.6456, 3545.725
299.1277, 3527.183
299.6099, 3508.273
300.0920, 3478.555
300.5741, 3440.847
301.0562, 3403.646
301.5383, 3368.716
302.0204, 3336.383
302.5026, 3308.388
302.9847, 3284.365
303.4668, 3261.648
303.9489, 3236.758
304.4310, 3211.757
304.9131, 3189.344
305.3953, 3171.337
305.8774, 3155.474
306.3595, 3140.117
306.8416, 3125.275
307.3237, 3110.526
307.8058, 3095.173
308.2880, 3080.090
308.7701, 3066.176
309.2522, 3052.929
309.7343, 3042.024
310.2164, 3035.583
310.6985, 3032.657
311.1807, 3030.692
311.6628, 3031.013
312.1449, 3030.200
312.6270, 3023.813
313.1091, 3008.856
313.5912, 2996.536
314.0734, 2996.300
314.5555, 3002.874
315.0376, 3006.686
315.5197, 2999.899
316.0018, 2991.776
316.4839, 2988.517
316.9661, 2991.183
317.4482, 2993.692
317.9303, 2994.749
318.4124, 2993.781
318.8945, 2990.117
319.3766, 2980.852
319.8588, 2971.312
320.3409, 2965.172
320.8230, 2962.388
321.3051, 2955.634
321.7872, 2940.776
322.2693, 2922.266
322.7515, 2903.613
323.2336, 2887.760
323.7157, 2869.489
324.1978, 2845.725
324.6799, 2817.839
325.1620, 2792.605
325.6442, 2774.719
326.1263, 2757.048
326.6084, 2735.834
327.0905, 2706.755
327.5726, 2679.546
328.0547, 2656.607
328.5369, 2636.135
329.0190, 2612.667
329.5011, 2583.117
329.9832, 2553.713
330.4653, 2526.194
330.9474, 2499.956
331.4296, 2477.354
331.9117, 2460.191
332.3938, 2445.903
332.8759, 2430.703
333.3580, 2413.143
333.8401, 2396.689
334.3223, 2382.363
334.8044, 2370.180
335.2865, 2358.800
335.7686, 2346.897
336.2507, 2337.383
336.7328, 2334.930
337.2150, 2344.904
337.6971, 2346.946
338.1792, 2334.813
338.6613, 2311.438
339.1434, 2295.034
339.6255, 2287.552
340.1076, 2282.368
340.5898, 2275.088
341.0719, 2265.719
341.5540, 2255.018
342.0361, 2243.035
342.5182, 2229.917
343.0003, 2215.527
343.4825, 2199.692
343.9646, 2184.644
344.4467, 2172.286
344.9288, 2162.497
345.4109, 2151.331
345.8930, 2138.554
346.3752, 2125.028
346.8573, 2111.471
347.3394, 2097.932
347.8215, 2086.534
348.3036, 2080.345
348.7857, 2076.630
349.2679, 2066.021
349.7500, 2048.258
350.2321, 2030.373
350.7142, 2019.652
351.1963, 2014.480
351.6784, 2010.174
352.1606, 2005.992
352.6427, 2001.432
353.1248, 1995.882
353.6069, 1989.290
354.0890, 1981.620
354.5711, 1973.239
355.0533, 1963.683
355.5354, 1951.359
356.0175, 1934.538
356.4996, 1918.900
356.9817, 1910.396
357.4638, 1906.845
357.9460, 1903.034
358.4281, 1895.646
358.9102, 1887.360
359.3923, 1880.733
359.8744, 1876.219
360.3565, 1871.101
360.8387, 1863.359
361.3208, 1854.291
361.8029, 1845.539
362.2850, 1836.902
362.7671, 1829.342
363.2492, 1823.416
363.7314, 1819.048
364.2135, 1815.376
364.6956, 1812.955
365.1777, 1810.646
365.6598, 1807.645
366.1419, 1802.588
366.6241, 1798.313
367.1062, 1796.354
367.5883, 1795.725
368.0704, 1793.524
368.5525, 1788.809
369.0346, 1783.017
369.5168, 1776.091
369.9989, 1765.724
370.4810, 1759.688
370.9631, 1759.801
371.4452, 1763.439
371.9273, 1767.305
372.4095, 1772.905
372.8916, 1776.388
373.3737, 1776.040
373.8558, 1771.664
374.3379, 1770.022
374.8200, 1772.538
375.3022, 1775.847
375.7843, 1776.663
376.2664, 1773.557
376.7485, 1772.823
377.2306, 1775.527
377.7127, 1781.009
378.1949, 1787.073
378.6770, 1793.500
379.1591, 1801.177
379.6412, 1810.827
380.1233, 1822.537
380.6054, 1834.330
381.0876, 1846.214
381.5697, 1857.846
382.0518, 1868.407
382.5339, 1877.916
383.0160, 1888.503
383.4981, 1901.901
383.9803, 1916.833
384.4624, 1929.009
384.9445, 1938.384
385.4266, 1946.627
385.9087, 1956.099
386.3908, 1965.709
386.8730, 1972.570
387.3551, 1975.381
387.8372, 1976.188
388.3193, 1977.488
388.8014, 1979.029
389.2835, 1979.700
389.7657, 1976.847
390.2478, 1973.719
390.7299, 1974.791
391.2120, 1981.700
391.6941, 1987.798
392.1762, 1986.374
392.6584, 1981.407
393.1405, 1979.203
393.6226, 1987.334
394.1047, 1994.545
394.5868, 1992.536
395.0689, 1981.510
395.5511, 1974.374
396.0332, 1979.100
396.5153, 1987.699
396.9974, 1994.066
397.4795, 1993.355
397.9616, 1994.541
398.4438, 2001.302
398.9259, 2011.474
399.4080, 2018.265
399.8901, 2014.460
400.3722, 2012.983
400.8543, 2019.494
401.3365, 2038.341
401.8186, 2052.480
402.3007, 2059.864
402.7828, 2063.773
403.2649, 2067.824
403.7470, 2070.659
404.2292, 2076.330
404.7113, 2086.378
405.1934, 2100.396
405.6755, 2112.948
406.1576, 2122.945
406.6397, 2133.646
407.1219, 2148.096
407.6040, 2166.965
408.0861, 2183.774
408.5682, 2197.368
409.0503, 2209.530
409.5324, 2224.425
410.0146, 2242.130
410.4967, 2260.356
410.9788, 2276.842
411.4609, 2292.627
411.9430, 2313.704
412.4251, 2340.735
412.9073, 2368.769
413.3894, 2394.172
413.8715, 2417.237
414.3536, 2438.090
414.8357, 2455.211
415.3178, 2472.247
415.8000, 2494.668
416.2821, 2521.542
416.7642, 2547.627
417.2463, 2569.023
417.7284, 2588.338
418.2105, 2607.775
418.6927, 2627.813
419.1748, 2648.240
419.6569, 2669.561
420.1390, 2691.504
420.6211, 2712.999
421.1032, 2733.406
421.5854, 2754.195
422.0675, 2775.110
422.5496, 2796.500
423.0317, 2821.087
423.5138, 2849.796
423.9959, 2881.962
424.4781, 2917.754
424.9602, 2959.082
425.4423, 3000.490
425.9244, 3041.569
426.4065, 3082.700
426.8886, 3124.673
427.3708, 3165.667
427.8529, 3210.456
428.3350, 3261.662
428.8171, 3320.606
429.2992, 3376.821
429.7813, 3429.971
430.2635, 3480.675
430.7456, 3529.174
431.2277, 3573.874
431.7098, 3622.262
432.1919, 3676.363
432.6740, 3734.532
433.1562, 3792.310
433.6383, 3849.829
434.1204, 3905.447
434.6025, 3957.410
435.0846, 4006.250
435.5667, 4055.565
436.0489, 4106.251
436.5310, 4156.124
437.0131, 4202.321
437.4952, 4245.331
437.9773, 4286.033
438.4594, 4323.869
438.9415, 4360.334
439.4236, 4397.750
439.9058, 4436.060
440.3879, 4473.190
440.8700, 4509.520
441.3521, 4543.665
441.8342, 4573.908
442.3163, 4599.404
442.7985, 4622.734
443.2806, 4649.162
443.7627, 4673.644
444.2448, 4688.646
444.7269, 4683.608
445.2090, 4675.610
445.6912, 4672.634
446.1733, 4674.913
446.6554, 4671.531
447.1375, 4660.964
447.6196, 4643.644
448.1017, 4619.665
448.5839, 4585.560
449.0660, 4549.619
449.5481, 4513.422
450.0302, 4475.294
450.5123, 4431.682
450.9944, 4382.185
451.4766, 4328.757
451.9587, 4271.030
452.4408, 4208.244
452.9229, 4148.312
453.4050, 4091.113
453.8871, 4035.060
454.3693, 3977.814
454.8514, 3919.039
455.3335, 3861.185
455.8156, 3803.602
456.2977, 3747.527
456.7798, 3695.794
457.2620, 3647.739
457.7441, 3600.819
458.2262, 3550.591
458.7083, 3500.800
459.1904, 3461.005
459.6725, 3432.159
460.1547, 3402.083
460.6368, 3356.934
461.1189, 3303.982
461.6010, 3255.599
462.0831, 3215.860
462.5652, 3181.153
463.0474, 3150.768
463.5295, 3123.737
464.0116, 3098.085
464.4937, 3071.610
464.9758, 3047.504
465.4579, 3029.452
465.9401, 3019.447
466.4222, 3005.958
466.9043, 2980.561
467.3864, 2953.128
467.8685, 2932.958
468.3506, 2929.332
468.8328, 2923.157
469.3149, 2911.868
469.7970, 2896.643
470.2791, 2881.138
470.7612, 2862.950
471.2433, 2848.379
471.7255, 2841.098
472.2076, 2842.654
472.6897, 2841.551
473.1718, 2837.360
473.6539, 2831.287
474.1360, 2823.727
474.6182, 2814.492
475.1003, 2808.035
475.5824, 2806.266
476.0645, 2806.860
476.5466, 2803.119
477.0287, 2795.519
477.5109, 2790.679
477.9930, 2796.894
478.4751, 2807.742
478.9572, 2809.761
479.4393, 2801.521
479.9214, 2791.015
480.4036, 2782.788
480.8857, 2777.517
481.3678, 2776.519
481.8499, 2783.605
482.3320, 2791.274
482.8141, 2794.674
483.2963, 2794.934
483.7784, 2795.439
484.2605, 2796.921
484.7426, 2799.474
485.2247, 2803.377
485.7068, 2808.935
486.1890, 2814.637
486.6711, 2821.611
487.1532, 2827.994
487.6353, 2831.882
488.1174, 2829.124
488.5995, 2830.342
489.0817, 2837.360
489.5638, 2848.920
490.0459, 2861.222
490.5280, 2874.165
491.0101, 2888.072
491.4922, 2903.541
491.9744, 2920.698
492.4565, 2936.347
492.9386, 2950.167
493.4207, 2964.221
493.9028, 2981.168
494.3849, 3000.556
494.8671, 3018.585
495.3492, 3034.354
495.8313, 3048.899
496.3134, 3063.229
496.7955, 3077.576
497.2776, 3093.115
497.7598, 3110.208
498.2419, 3128.955
498.7240, 3148.770
499.2061, 3169.858
499.6882, 3193.759
500.1703, 3224.260
500.6525, 3256.682
501.1346, 3286.551
501.6167, 3312.588
502.0988, 3336.911
502.5809, 3357.523
503.0630, 3377.059
503.5452, 3400.660
504.0273, 3430.997
504.5094, 3463.063
504.9915, 3496.831
505.4736, 3532.352
505.9557, 3561.771
506.4379, 3580.977
506.9200, 3599.194
507.4021, 3622.907
507.8842, 3653.543
508.3663, 3685.334
508.8484, 3719.501
509.3306, 3752.594
509.8127, 3776.448
510.2948, 3791.301
510.7769, 3810.220
511.2590, 3839.398
511.7411, 3875.314
512.2233, 3909.993
512.7054, 3943.608
513.1875, 3975.797
513.6696, 4005.742
514.1517, 4034.321
514.6339, 4062.687
515.1160, 4091.095
515.5981, 4119.124
516.0802, 4143.950
516.5623, 4169.149
517.0444, 4199.522
517.5266, 4246.335
518.0087, 4288.583
518.4908, 4315.002
518.9729, 4329.249
519.4550, 4348.424
519.9371, 4379.763
520.4193, 4412.417
520.9014, 4441.003
521.3835, 4463.278
521.8656, 4492.032
522.3477, 4530.597
522.8298, 4571.960
523.3120, 4609.829
523.7941, 4643.153
524.2762, 4674.552
524.7583, 4703.676
525.2404, 4731.986
525.7225, 4762.292
526.2047, 4794.732
526.6868, 4828.017
527.1689, 4861.544
527.6510, 4895.545
528.1331, 4930.989
528.6152, 4968.170
529.0974, 5005.792
529.5795, 5041.453
530.0616, 5078.023
530.5437, 5120.147
531.0258, 5171.867
531.5079, 5221.575
531.9901, 5259.215
532.4722, 5291.858
532.9543, 5329.890
533.4364, 5383.681
533.9185, 5436.584
534.4006, 5482.207
534.8828, 5521.056
535.3649, 5563.536
535.8470, 5616.569
536.3291, 5666.517
536.8112, 5705.324
537.2933, 5727.100
537.7755, 5760.732
538.2576, 5809.236
538.7397, 5864.878
539.2218, 5920.730
539.7039, 5976.745
540.1860, 6026.107
540.6682, 6066.252
541.1503, 6099.971
541.6324, 6130.139
542.1145, 6157.583
542.5966, 6191.396
543.0787, 6243.084
543.5609, 6301.545
544.0430, 6348.015
544.5251, 6382.634
545.0072, 6414.500
545.4893, 6447.075
545.9714, 6481.295
546.4536, 6518.971
546.9357, 6562.815
547.4178, 6603.996
547.8999, 6637.273
548.3820, 6666.202
548.8641, 6695.677
549.3463, 6723.784
549.8284, 6755.674
550.3105, 6796.078
550.7926, 6842.370
551.2747, 6878.496
551.7568, 6896.365
552.2390, 6918.337
552.7211, 6957.103
553.2032, 7014.958
553.6853, 7059.617
554.1674, 7087.532
554.6495, 7113.270
555.1317, 7151.219
555.6138, 7199.961
556.0959, 7255.101
556.5780, 7317.950
557.0601, 7381.802
557.5422, 7434.578
558.0244, 7480.462
558.5065, 7531.710
558.9886, 7592.795
559.4707, 7662.397
559.9528, 7739.737
560.4349, 7824.524
560.9171, 7913.464
561.3992, 8007.197
561.8813, 8103.300
562.3634, 8198.172
562.8455, 8289.631
563.3276, 8387.889
563.8098, 8493.549
564.2919, 8607.188
564.7740, 8731.675
565.2561, 8875.303
565.7382, 9012.207
566.2203, 9135.530
566.7025, 9255.195
567.1846, 9391.826
567.6667, 9547.928
568.1488, 9712.260
568.6309, 9878.857
569.1130, 10050.29
569.5952, 10230.61
570.0773, 10422.14
570.5594, 10615.26
571.0415, 10803.99
571.5236, 10994.48
572.0057, 11193.76
572.4879, 11404.95
572.9700, 11623.78
573.4521, 11844.20
573.9342, 12072.69
574.4163, 12314.11
574.8984, 12580.71
575.3806, 12847.13
575.8627, 13097.38
576.3448, 13342.73
576.8269, 13616.53
577.3090, 13949.19
577.7911, 14280.74
578.2733, 14596.54
578.7554, 14893.39
579.2375, 15213.08
579.7196, 15561.74
580.2017, 15916.41
580.6838, 16253.74
581.1660, 16572.76
581.6481, 16915.50
582.1302, 17286.32
582.6123, 17664.18
583.0944, 18017.57
583.5765, 18353.27
584.0587, 18693.16
584.5408, 19041.26
585.0229, 19394.13
585.5050, 19756.14
585.9871, 20122.15
586.4692, 20472.98
586.9513, 20781.04
587.4334, 21093.80
587.9155, 21442.93
588.3976, 21826.26
588.8798, 22187.49
589.3619, 22531.13
589.8440, 22835.86
590.3261, 23085.79
590.8082, 23255.91
591.2903, 23451.38
591.7725, 23690.84
592.2546, 23929.53
592.7367, 24121.86
593.2188, 24265.95
593.7009, 24377.91
594.1830, 24457.21
594.6652, 24510.99
595.1473, 24561.38
595.6294, 24603.12
596.1115, 24608.67
596.5936, 24560.23
