##NAMES=Stibnite
##RRUFFID=R050066
##IDEAL CHEMISTRY=Sb^3+^_2_S^2-^_3_
##LOCALITY=Wuling, Jiangxi Province, China
##OWNER=RRUFF
##SOURCE=Rock Currier
##DESCRIPTION=Lead-gray prismatic crystal
##STATUS=The identification of this mineral has been confirmed by X-ray diffraction and chemical analysis
##URL=rruff.info/R050066
##MEASURED CHEMISTRY=Sb_2.00_S_3.00_
103.683, 1464.063
104.165, 1583.818
104.648, 1740.710
105.130, 1933.815
105.612, 2132.046
106.094, 2318.254
106.576, 2527.113
107.058, 2787.001
107.540, 3109.789
108.022, 3472.125
108.505, 3880.775
108.987, 4338.532
109.469, 4814.493
109.951, 5311.113
110.433, 5819.427
110.915, 6334.922
111.397, 6862.957
111.879, 7385.944
112.362, 7904.350
112.844, 8401.429
113.326, 8919.721
113.808, 9461.040
114.290, 10030.450
114.772, 10626.670
115.254, 11245.340
115.736, 11894.540
116.218, 12582.640
116.701, 13389.390
117.183, 14150.810
117.665, 14802.700
118.147, 15351.580
118.629, 15856.560
119.111, 16342.540
119.593, 16796.010
120.075, 17196.631
120.558, 17513.461
121.040, 17795.471
121.522, 18074.279
122.004, 18350.850
122.486, 18612.699
122.968, 18856.490
123.450, 19077.949
123.932, 19273.641
124.414, 19427.410
124.897, 19555.711
125.379, 19676.740
125.861, 19790.689
126.343, 19899.600
126.825, 19995.070
127.307, 20083.090
127.789, 20189.061
128.271, 20327.461
128.753, 20495.301
129.236, 20684.020
129.718, 20891.910
130.200, 21120.801
130.682, 21367.859
131.164, 21630.930
131.646, 21932.580
132.128, 22296.869
132.610, 22717.279
133.093, 23168.670
133.575, 23644.061
134.057, 24143.250
134.539, 24688.131
135.021, 25282.141
135.503, 25908.480
135.985, 26545.051
136.467, 27197.910
136.949, 27852.420
137.432, 28500.119
137.914, 29143.619
138.396, 29800.699
138.878, 30469.789
139.360, 31144.580
139.842, 31827.811
140.324, 32541.910
140.806, 33191.160
141.288, 33731.160
141.771, 34150.488
142.253, 34523.539
142.735, 34873.660
143.217, 35171.578
143.699, 35316.281
144.181, 35280.539
144.663, 35131.320
145.145, 34896.441
145.628, 34540.641
146.110, 34163.301
146.592, 33774.570
147.074, 33368.570
147.556, 32931.730
148.038, 32420.199
148.520, 31901.539
149.002, 31428.580
149.484, 31011.480
149.967, 30615.609
150.449, 30244.910
150.931, 29899.760
151.413, 29549.301
151.895, 29167.100
152.377, 28791.641
152.859, 28462.289
153.342, 28232.400
153.824, 28007.600
154.306, 27763.510
154.788, 27487.949
155.270, 27247.930
155.752, 27080.770
156.234, 26947.900
156.716, 26793.109
157.198, 26554.660
157.680, 26335.160
158.163, 26179.891
158.645, 26112.820
159.127, 26064.949
159.609, 26022.240
160.091, 25984.600
160.573, 25952.699
161.055, 25927.770
161.538, 25905.500
162.020, 25882.090
162.502, 25848.580
162.984, 25822.350
163.466, 25818.381
163.948, 25828.881
164.430, 25827.500
164.912, 25778.949
165.394, 25723.340
165.876, 25696.461
166.359, 25750.680
166.841, 25796.029
167.323, 25758.449
167.805, 25650.400
168.287, 25568.971
168.769, 25602.900
169.251, 25689.779
169.733, 25755.510
170.216, 25729.561
170.698, 25702.061
171.180, 25760.789
171.662, 25907.779
172.144, 26053.939
172.626, 26104.689
173.108, 26112.109
173.590, 26169.039
174.072, 26338.070
174.555, 26566.789
175.037, 26792.900
175.519, 27009.221
176.001, 27259.619
176.483, 27581.641
176.965, 27969.949
177.447, 28401.811
177.929, 28856.779
178.412, 29349.689
178.894, 29913.240
179.376, 30554.490
179.858, 31229.381
180.340, 31892.750
180.822, 32541.480
181.304, 33196.309
181.786, 33827.711
182.268, 34465.449
182.751, 35171.219
183.233, 35951.488
183.715, 36792.441
184.197, 37642.609
184.679, 38513.820
185.161, 39452.852
185.643, 40559.309
186.125, 41771.148
186.607, 43008.949
187.090, 44412.199
187.572, 45630.859
188.054, 46013.469
188.536, 45553.441
189.018, 44427.109
189.500, 42490.969
189.982, 39893.070
190.464, 37417.141
190.947, 35202.449
191.429, 33261.578
191.911, 31733.420
192.393, 30637.721
192.875, 29806.590
193.357, 29110.039
193.839, 28548.529
194.321, 28088.061
194.803, 27726.631
195.286, 27454.180
195.768, 27216.551
196.250, 27014.891
196.732, 26845.250
197.214, 26705.551
197.696, 26597.340
198.178, 26505.289
198.661, 26424.859
199.143, 26356.439
199.625, 26304.570
200.107, 26272.561
200.589, 26248.711
201.071, 26212.461
201.553, 26159.311
202.035, 26123.949
202.517, 26124.199
202.999, 26159.971
203.482, 26185.850
203.964, 26196.340
204.446, 26203.961
204.928, 26230.770
205.410, 26280.961
205.892, 26328.699
206.374, 26361.641
206.857, 26377.529
207.339, 26395.311
207.821, 26418.160
208.303, 26438.449
208.785, 26439.180
209.267, 26413.391
209.749, 26389.359
210.231, 26384.381
210.713, 26407.820
211.195, 26406.881
211.678, 26370.971
212.160, 26320.020
212.642, 26296.789
213.124, 26302.600
213.606, 26335.039
214.088, 26402.391
214.570, 26522.020
215.052, 26613.131
215.535, 26665.199
216.017, 26691.439
216.499, 26728.090
216.981, 26777.801
217.463, 26830.939
217.945, 26883.830
218.427, 26938.480
218.909, 26979.980
219.391, 26997.930
219.874, 27002.199
220.356, 27032.311
220.838, 27099.311
221.320, 27172.391
221.802, 27230.410
222.284, 27261.410
222.766, 27313.609
223.248, 27406.660
223.731, 27526.131
224.213, 27591.289
224.695, 27568.730
225.177, 27543.631
225.659, 27574.359
226.141, 27692.369
226.623, 27794.039
227.105, 27858.770
227.587, 27896.270
228.070, 27970.869
228.552, 28097.721
229.034, 28239.910
229.516, 28370.150
229.998, 28477.119
230.480, 28594.070
230.962, 28720.869
231.444, 28857.500
231.926, 29008.301
232.409, 29169.381
232.891, 29346.830
233.373, 29546.449
233.855, 29764.590
234.337, 30011.430
234.819, 30285.109
235.301, 30589.000
235.783, 30914.840
236.266, 31240.801
236.748, 31614.430
237.230, 32065.410
237.712, 32582.090
238.194, 33211.352
238.676, 33975.680
239.158, 34864.949
239.640, 35807.879
240.122, 36775.879
240.605, 37830.590
241.087, 39028.359
241.569, 40453.211
242.051, 41886.840
242.533, 43295.289
243.015, 44669.660
243.497, 46105.289
243.980, 47631.129
244.462, 49186.719
244.944, 50710.320
245.426, 52139.180
245.908, 53654.969
246.390, 55291.199
246.872, 57053.191
247.354, 58877.039
247.836, 60812.012
248.318, 62738.031
248.801, 64593.469
249.283, 66571.844
249.765, 68095.781
250.247, 69186.781
250.729, 69836.047
251.211, 69440.203
251.693, 67835.406
252.176, 65410.891
252.658, 62407.480
253.140, 58471.480
253.622, 54704.051
254.104, 51214.070
254.586, 47992.359
255.068, 45181.969
255.550, 42820.520
256.032, 40827.602
256.514, 39162.000
256.997, 37873.672
257.479, 36790.809
257.961, 35893.699
258.443, 35176.672
258.925, 34581.371
259.407, 34137.691
259.889, 33773.230
260.371, 33414.859
260.854, 33034.988
261.336, 32728.770
261.818, 32517.949
262.300, 32399.801
262.782, 32316.289
263.264, 32282.170
263.746, 32260.420
264.228, 32217.109
264.711, 32142.650
265.193, 32073.730
265.675, 32016.010
266.157, 31969.359
266.639, 31928.770
267.121, 31897.189
267.603, 31867.480
268.085, 31838.279
268.567, 31817.609
269.050, 31766.240
269.532, 31663.490
270.014, 31521.971
270.496, 31429.359
270.978, 31398.359
271.460, 31391.439
271.942, 31376.971
272.424, 31352.109
272.906, 31339.221
273.389, 31347.551
273.871, 31371.590
274.353, 31375.400
274.835, 31350.580
275.317, 31330.660
275.799, 31349.289
276.281, 31412.150
276.763, 31464.939
277.246, 31501.051
277.728, 31518.990
278.210, 31504.539
278.692, 31447.721
279.174, 31395.131
279.656, 31390.770
280.138, 31436.381
280.620, 31472.150
281.103, 31487.699
281.585, 31487.039
282.067, 31474.650
282.549, 31446.020
283.031, 31433.131
283.513, 31471.561
283.995, 31558.439
284.477, 31627.301
284.959, 31666.301
285.441, 31684.850
285.924, 31704.070
286.406, 31724.551
286.888, 31742.270
287.370, 31758.109
287.852, 31770.850
288.334, 31766.211
288.816, 31735.061
289.298, 31697.449
289.781, 31698.051
290.263, 31736.010
290.745, 31770.680
291.227, 31771.480
291.709, 31745.090
292.191, 31720.391
292.673, 31700.320
293.155, 31682.369
293.638, 31665.949
294.120, 31650.221
294.602, 31627.100
295.084, 31593.490
295.566, 31548.830
296.048, 31488.510
296.530, 31407.189
297.012, 31327.029
297.494, 31302.561
297.977, 31316.189
298.459, 31287.631
298.941, 31132.721
299.423, 30915.279
299.905, 30749.631
300.387, 30645.471
300.869, 30583.449
301.351, 30573.881
301.833, 30594.270
302.316, 30578.930
302.798, 30467.449
303.280, 30309.400
303.762, 30169.551
304.244, 30052.279
304.726, 29940.180
305.208, 29813.221
305.690, 29680.840
306.172, 29560.840
306.655, 29472.080
307.137, 29393.340
307.619, 29309.779
308.101, 29221.080
308.583, 29122.381
309.065, 29014.730
309.547, 28895.650
310.030, 28763.061
310.512, 28580.730
310.994, 28411.250
311.476, 28327.311
311.958, 28324.770
312.440, 28292.939
312.922, 28135.609
313.404, 27928.570
313.886, 27754.561
314.369, 27650.770
314.851, 27578.080
315.333, 27531.990
315.815, 27508.869
316.297, 27476.500
316.779, 27408.711
317.261, 27333.090
317.743, 27270.949
318.225, 27246.961
318.708, 27218.010
319.190, 27162.900
319.672, 27089.029
320.154, 27026.910
320.636, 27009.869
321.118, 26991.869
321.600, 26942.680
322.082, 26811.590
322.565, 26712.391
323.047, 26685.580
323.529, 26708.750
324.011, 26715.721
324.493, 26664.090
324.975, 26618.369
325.457, 26607.600
325.939, 26653.520
326.422, 26698.961
326.904, 26755.480
327.386, 26808.461
327.868, 26825.199
328.350, 26762.301
328.832, 26705.439
329.314, 26683.449
329.796, 26715.760
330.278, 26728.660
330.760, 26705.150
331.243, 26670.100
331.725, 26661.830
332.207, 26710.730
332.689, 26742.100
333.171, 26730.590
333.653, 26668.711
334.135, 26623.141
334.617, 26595.020
335.100, 26583.160
335.582, 26592.381
336.064, 26638.471
336.546, 26663.109
337.028, 26638.789
337.510, 26571.660
337.992, 26569.529
338.474, 26658.240
338.957, 26759.320
339.439, 26796.971
339.921, 26758.061
340.403, 26732.240
340.885, 26738.449
341.367, 26767.080
341.849, 26780.000
342.331, 26773.551
342.813, 26770.760
343.296, 26794.119
343.778, 26842.631
344.260, 26880.480
344.742, 26902.080
345.224, 26914.270
345.706, 26932.189
346.188, 26956.490
346.670, 26973.711
347.152, 26966.920
347.635, 26945.119
348.117, 26945.119
348.599, 26973.369
349.081, 27010.250
349.563, 27024.320
350.045, 27020.930
350.527, 27026.000
351.009, 27068.920
351.491, 27123.211
351.974, 27136.801
352.456, 27104.529
352.938, 27063.039
353.420, 27042.840
353.902, 27038.250
354.384, 27038.131
354.866, 27035.510
355.349, 27037.160
355.831, 27060.090
356.313, 27102.770
356.795, 27128.650
357.277, 27088.949
357.759, 27029.100
358.241, 27002.359
358.723, 27042.869
359.205, 27103.520
359.688, 27159.420
360.170, 27212.711
360.652, 27274.660
361.134, 27364.680
361.616, 27456.100
362.098, 27526.600
362.580, 27547.740
363.062, 27587.240
363.544, 27678.609
364.027, 27803.039
364.509, 27919.160
364.991, 27995.789
365.473, 28078.850
365.955, 28194.590
366.437, 28371.721
366.919, 28512.039
367.401, 28573.090
367.884, 28600.131
368.366, 28658.820
368.848, 28818.660
369.330, 28941.680
369.812, 28997.520
370.294, 28980.500
370.776, 28940.461
371.258, 28867.211
371.741, 28779.449
372.223, 28698.000
372.705, 28640.650
373.187, 28551.449
373.669, 28411.990
374.151, 28228.250
374.633, 28053.609
375.115, 27880.740
375.597, 27725.750
376.079, 27610.090
376.562, 27541.381
377.044, 27454.100
377.526, 27332.170
378.008, 27197.779
378.490, 27113.301
378.972, 27083.811
379.454, 27063.820
379.936, 27027.850
380.419, 26978.971
380.901, 26940.551
381.383, 26916.900
381.865, 26896.131
382.347, 26857.711
382.829, 26805.240
383.311, 26763.330
383.793, 26744.119
384.276, 26742.520
384.758, 26747.961
385.240, 26760.490
385.722, 26776.180
386.204, 26793.980
386.686, 26811.570
387.168, 26820.010
387.650, 26781.359
388.132, 26730.234
388.615, 26782.416
389.097, 26809.521
389.579, 26812.896
390.061, 26721.471
390.543, 26752.463
391.025, 26734.395
391.507, 26714.314
391.989, 26762.535
392.471, 26730.430
392.954, 26711.971
393.436, 26707.051
393.918, 26747.301
394.400, 26782.920
394.882, 26783.500
395.364, 26738.170
395.846, 26703.320
396.328, 26703.689
396.810, 26717.490
397.293, 26720.551
397.775, 26680.869
398.257, 26659.350
398.739, 26678.990
399.221, 26740.500
399.703, 26780.961
400.185, 26794.699
400.668, 26790.051
401.150, 26768.131
401.632, 26697.070
402.114, 26667.529
402.596, 26707.561
403.078, 26789.590
403.560, 26820.039
404.042, 26771.680
404.524, 26729.221
405.007, 26738.869
405.489, 26813.830
405.971, 26857.859
406.453, 26865.400
406.935, 26852.080
407.417, 26833.439
407.899, 26808.119
408.381, 26799.500
408.863, 26824.971
409.346, 26872.850
409.828, 26888.301
410.310, 26868.740
410.792, 26848.000
411.274, 26864.180
411.756, 26906.820
412.238, 26936.689
412.720, 26939.539
413.203, 26934.939
413.685, 26945.240
414.167, 26970.609
414.649, 27010.980
415.131, 27082.020
415.613, 27162.080
416.095, 27224.131
416.577, 27265.891
417.060, 27287.820
417.542, 27276.340
418.024, 27247.170
418.506, 27226.119
418.988, 27224.539
419.470, 27232.939
419.952, 27252.420
420.434, 27282.641
420.916, 27301.170
421.398, 27276.119
421.881, 27250.500
422.363, 27257.500
422.845, 27349.910
423.327, 27424.211
423.809, 27458.750
424.291, 27461.221
424.773, 27463.330
425.255, 27469.369
425.738, 27472.891
426.220, 27465.350
426.702, 27423.609
427.184, 27441.160
427.666, 27565.359
428.148, 27714.320
428.630, 27757.939
429.112, 27637.439
429.595, 27572.699
430.077, 27638.961
430.559, 27822.830
431.041, 27970.311
431.523, 28075.830
432.005, 28167.100
432.487, 28263.199
432.969, 28364.539
433.451, 28486.000
433.934, 28635.760
434.416, 28797.439
434.898, 28936.020
435.380, 29055.590
435.862, 29183.070
436.344, 29336.211
436.826, 29507.381
437.308, 29672.660
437.790, 29827.199
438.273, 30008.910
438.755, 30278.811
439.237, 30598.930
439.719, 30895.510
440.201, 31111.150
440.683, 31318.391
441.165, 31569.160
441.647, 31858.600
442.129, 32158.820
442.612, 32474.779
443.094, 32780.859
443.576, 33055.949
444.058, 33276.840
444.540, 33495.512
445.022, 33738.801
445.504, 33988.180
445.987, 34204.012
446.469, 34424.840
446.951, 34571.891
447.433, 34610.641
447.915, 34530.211
448.397, 34426.000
448.879, 34283.461
449.361, 34130.160
449.843, 34008.910
450.326, 33990.859
450.808, 33822.109
451.290, 33429.102
451.772, 32872.750
452.254, 32374.920
452.736, 31934.850
453.218, 31560.381
453.700, 31272.131
454.182, 31069.221
454.665, 30867.199
455.147, 30662.539
455.629, 30466.680
456.111, 30296.381
456.593, 30151.250
457.075, 30026.779
457.557, 29942.170
458.039, 29865.900
458.522, 29738.680
459.004, 29563.609
459.486, 29390.650
459.968, 29248.061
460.450, 29128.779
460.932, 29026.891
461.414, 28940.561
461.896, 28870.520
462.379, 28819.340
462.861, 28784.260
463.343, 28761.020
463.825, 28764.461
464.307, 28765.010
464.789, 28746.820
465.271, 28707.490
465.753, 28669.180
466.235, 28629.850
466.717, 28596.949
467.200, 28575.949
467.682, 28581.609
468.164, 28580.051
468.646, 28558.680
469.128, 28528.641
469.610, 28529.189
470.092, 28576.000
470.574, 28624.891
471.057, 28660.230
471.539, 28681.881
472.021, 28685.400
472.503, 28667.141
472.985, 28637.631
473.467, 28608.000
473.949, 28578.080
474.431, 28546.250
474.914, 28507.770
475.396, 28471.039
475.878, 28461.619
476.360, 28477.641
476.842, 28493.689
477.324, 28485.920
477.806, 28469.461
478.288, 28475.090
478.770, 28511.260
479.253, 28547.641
479.735, 28556.689
480.217, 28548.920
480.699, 28540.801
481.181, 28539.311
481.663, 28539.039
482.145, 28530.430
482.627, 28515.961
483.109, 28517.961
483.592, 28546.789
484.074, 28590.910
484.556, 28645.260
485.038, 28728.080
485.520, 28784.410
486.002, 28785.650
486.484, 28762.539
486.966, 28762.100
487.448, 28801.811
487.931, 28836.660
488.413, 28861.221
488.895, 28875.250
489.377, 28852.990
489.859, 28779.980
490.341, 28708.381
490.823, 28685.830
491.306, 28716.039
491.788, 28730.971
492.270, 28724.369
492.752, 28701.350
493.234, 28659.029
493.716, 28601.980
494.198, 28560.859
494.680, 28562.939
495.162, 28585.980
495.645, 28589.301
496.127, 28573.070
496.609, 28555.500
497.091, 28548.730
497.573, 28548.320
498.055, 28548.551
498.537, 28546.010
499.019, 28547.449
499.501, 28566.189
499.984, 28591.359
500.466, 28601.090
500.948, 28577.930
501.430, 28548.311
501.912, 28513.131
502.394, 28468.770
502.876, 28460.359
503.358, 28512.211
503.841, 28585.869
504.323, 28660.000
504.805, 28757.240
505.287, 28808.311
505.769, 28794.539
506.251, 28738.971
506.733, 28691.230
507.215, 28648.609
507.698, 28620.420
508.180, 28615.029
508.662, 28628.539
509.144, 28627.279
509.626, 28608.490
510.108, 28600.320
510.590, 28652.779
511.072, 28741.141
511.554, 28775.971
512.036, 28719.461
512.519, 28649.779
513.001, 28668.930
513.483, 28747.770
513.965, 28808.449
514.447, 28791.699
514.929, 28757.580
515.411, 28749.650
515.893, 28770.080
516.375, 28790.480
516.858, 28798.039
517.340, 28801.119
517.822, 28805.461
518.304, 28794.520
518.786, 28806.850
519.268, 28868.141
519.750, 28951.189
520.232, 29003.480
520.715, 29000.230
521.197, 29006.160
521.679, 29048.490
522.161, 29127.131
522.643, 29159.289
523.125, 29131.830
523.607, 29095.500
524.089, 29106.270
524.571, 29160.869
525.054, 29158.789
525.536, 29071.340
526.018, 28962.711
526.500, 28936.480
526.982, 28978.520
527.464, 29030.570
527.946, 29079.211
528.429, 29114.971
528.911, 29115.920
529.393, 29085.520
529.875, 29062.410
530.357, 29084.721
530.839, 29117.350
531.321, 29128.141
531.803, 29101.881
532.286, 29075.199
532.768, 29062.400
533.250, 29055.980
533.732, 29045.131
534.214, 29013.180
534.696, 28994.770
535.178, 29004.320
535.660, 29038.400
536.142, 29053.420
536.625, 29035.320
537.107, 29023.180
537.589, 29047.770
538.071, 29119.420
538.553, 29153.680
539.035, 29132.455
539.517, 29166.559
539.999, 29187.232
540.481, 29195.195
540.964, 29152.389
541.446, 29175.143
541.928, 29171.621
542.410, 29167.023
542.892, 29184.539
543.374, 29188.309
543.856, 29237.350
544.338, 29275.393
544.820, 29303.045
545.303, 29289.160
545.785, 29328.910
546.267, 29352.119
546.749, 29340.344
547.231, 29365.439
547.713, 29381.584
548.195, 29389.260
548.677, 29363.100
549.159, 29380.631
549.642, 29380.654
550.124, 29379.959
550.606, 29394.000
551.088, 29375.279
551.570, 29357.680
552.052, 29348.760
552.534, 29348.859
553.016, 29356.980
553.499, 29377.980
553.981, 29410.061
554.463, 29428.381
554.945, 29427.100
555.427, 29416.760
555.909, 29415.141
556.391, 29417.740
556.873, 29409.600
557.356, 29361.461
557.838, 29314.391
558.320, 29324.109
558.802, 29381.561
559.284, 29421.750
559.766, 29385.539
560.248, 29337.910
560.730, 29327.551
561.213, 29379.580
561.695, 29420.449
562.177, 29414.141
562.659, 29398.900
563.141, 29421.949
563.623, 29524.801
564.105, 29596.221
564.587, 29605.461
565.069, 29573.039
565.552, 29580.100
566.034, 29636.500
566.516, 29693.650
566.998, 29732.529
567.480, 29752.699
567.962, 29745.830
568.444, 29708.670
568.926, 29676.160
569.408, 29690.330
569.891, 29734.131
570.373, 29768.480
570.855, 29781.689
571.337, 29792.619
571.819, 29832.939
572.301, 29881.660
572.783, 29898.699
573.265, 29814.020
573.747, 29742.699
574.230, 29754.779
574.712, 29845.000
575.194, 29909.270
575.676, 29928.570
576.158, 29918.850
576.640, 29879.449
577.122, 29782.051
577.604, 29746.381
578.086, 29805.980
578.569, 29886.260
579.051, 29890.900
579.533, 29810.061
580.015, 29750.279
580.497, 29739.730
580.979, 29754.230
581.461, 29731.160
581.943, 29677.590
582.426, 29651.551
582.908, 29703.420
583.390, 29791.570
583.872, 29858.711
584.354, 29903.570
584.836, 29947.699
585.318, 30019.811
585.800, 30087.619
586.282, 30121.551
586.765, 30097.971
587.247, 30075.410
587.729, 30064.641
588.211, 30064.420
588.693, 30074.699
589.175, 30125.510
589.657, 30141.410
590.140, 30093.350
590.622, 30000.641
591.104, 29948.539
591.586, 29938.609
592.068, 29964.471
592.550, 30046.570
593.032, 30174.980
593.514, 30235.949
593.996, 30225.510
594.479, 30194.881
594.961, 30187.471
595.443, 30195.570
595.925, 30203.289
596.407, 30207.029
596.889, 30210.631
597.371, 30216.650
597.853, 30224.910
598.335, 30234.990
598.818, 30263.590
599.300, 30277.350
599.782, 30247.461
600.264, 30181.641
600.746, 30154.490
601.228, 30201.721
601.710, 30253.939
