##NAMES=Stichtite
##RRUFFID=R050475
##IDEAL CHEMISTRY=Mg_6_Cr^3+^_2_CO_3_(OH)_16_&#183;4H_2_O
##LOCALITY=near Dundas, Tasmania, Australia
##OWNER=RRUFF
##SOURCE=California Institute of Technology
##DESCRIPTION=Aggregate of purple contorted plates
##STATUS=The identification of this mineral has been confirmed by X-ray diffraction and chemical analysis
##URL=rruff.info/R050475
##MEASURED CHEMISTRY=Mg_6.00_(Cr_0.97_Fe^3+^_0.75_Al_0.28_)_Σ=2_(CO_3_)(OH)_16_·4H_2_O ; (dark phase) C not measured but estimated by difference; light inclusion: chromite (Mg_0.53_Fe^2+^_0.47_)_Σ=1_(Cr^3+^_1.62_Al_0.33_Fe^3+^_0.05_)_Σ=2_O_4_
93.30109, 0.0000000E+00
93.78320, 246.8539
94.26532, 249.1513
94.74744, 250.0116
95.22955, 248.7957
95.71167, 247.0008
96.19379, 245.6319
96.67590, 245.4226
97.15802, 245.0059
97.64014, 244.3767
98.12225, 243.4008
98.60437, 241.7753
99.08649, 239.3112
99.56860, 236.4800
100.0507, 234.0438
100.5328, 231.7236
101.0150, 229.2409
101.4971, 226.0608
101.9792, 222.0881
102.4613, 219.1473
102.9434, 217.8774
103.4255, 217.9239
103.9077, 219.6248
104.3898, 223.4247
104.8719, 227.9262
105.3540, 230.3419
105.8361, 230.1327
106.3182, 228.4955
106.8004, 225.2654
107.2825, 221.1588
107.7646, 216.8816
108.2467, 212.8040
108.7288, 208.9407
109.2109, 205.6687
109.6931, 202.8662
110.1752, 200.7081
110.6573, 199.4917
111.1394, 199.0143
111.6215, 198.7891
112.1036, 198.3949
112.5858, 197.7847
113.0679, 197.3989
113.5500, 197.3777
114.0321, 197.4566
114.5142, 197.4757
114.9964, 197.4082
115.4785, 197.2562
115.9606, 196.9023
116.4427, 196.3555
116.9248, 196.1285
117.4069, 196.5929
117.8891, 197.4416
118.3712, 198.0244
118.8533, 198.1141
119.3354, 198.0550
119.8175, 198.1997
120.2996, 198.5288
120.7818, 198.8479
121.2639, 198.9611
121.7460, 198.8554
122.2281, 198.8861
122.7102, 199.2431
123.1923, 199.6775
123.6745, 200.1448
124.1566, 200.6155
124.6387, 200.9548
125.1208, 200.8860
125.6029, 200.0000
126.0850, 199.5929
126.5672, 199.9964
127.0493, 200.6927
127.5314, 201.3271
128.0135, 201.7530
128.4956, 201.9710
128.9777, 201.9830
129.4599, 201.5181
129.9420, 201.1365
130.4241, 200.8981
130.9062, 200.7652
131.3883, 200.6743
131.8704, 200.5874
132.3526, 200.5208
132.8347, 200.5605
133.3168, 200.9005
133.7989, 201.1363
134.2810, 201.1043
134.7632, 200.8200
135.2453, 200.3601
135.7274, 199.6725
136.2095, 198.8557
136.6916, 198.2511
137.1737, 197.9385
137.6559, 197.8042
138.1380, 197.7433
138.6201, 197.7575
139.1022, 197.8361
139.5843, 198.1156
140.0664, 198.4400
140.5486, 198.5581
141.0307, 198.3318
141.5128, 197.8323
141.9949, 197.2527
142.4770, 196.5173
142.9591, 195.8110
143.4413, 195.2227
143.9234, 194.7183
144.4055, 194.2344
144.8876, 193.7442
145.3697, 193.2495
145.8518, 192.6755
146.3340, 191.9400
146.8161, 191.1933
147.2982, 190.4573
147.7803, 189.7454
148.2624, 189.0697
148.7445, 188.4289
149.2267, 187.8047
149.7088, 187.3321
150.1909, 186.9165
150.6730, 186.6799
151.1551, 186.8472
151.6372, 187.3761
152.1194, 187.8701
152.6015, 187.8041
153.0836, 186.8281
153.5657, 186.2226
154.0478, 186.3662
154.5299, 186.6987
155.0121, 186.6276
155.4942, 185.9889
155.9763, 185.1107
156.4584, 184.4929
156.9405, 184.1586
157.4226, 183.7595
157.9048, 183.0444
158.3869, 182.2044
158.8690, 181.7078
159.3511, 181.8398
159.8332, 182.0884
160.3153, 181.7842
160.7975, 180.9187
161.2796, 180.0321
161.7617, 179.4884
162.2438, 179.2583
162.7259, 178.9933
163.2081, 178.5312
163.6902, 178.0766
164.1723, 177.7922
164.6544, 177.6907
165.1365, 177.6666
165.6186, 177.6254
166.1008, 177.5766
166.5829, 177.4692
167.0650, 177.3850
167.5471, 177.1868
168.0292, 176.7079
168.5113, 175.9250
168.9935, 175.0525
169.4756, 174.4646
169.9577, 174.3532
170.4398, 174.1688
170.9219, 173.8148
171.4040, 173.4124
171.8862, 173.0572
172.3683, 172.7853
172.8504, 172.5729
173.3325, 172.3619
173.8146, 172.1654
174.2967, 171.9550
174.7789, 171.6164
175.2610, 171.2987
175.7431, 171.2217
176.2252, 171.4948
176.7073, 171.9807
177.1894, 172.2205
177.6716, 172.1725
178.1537, 171.9702
178.6358, 171.4214
179.1179, 170.7404
179.6000, 170.3612
180.0821, 170.5439
180.5643, 171.1165
181.0464, 171.5510
181.5285, 171.9824
182.0106, 172.1363
182.4927, 171.7054
182.9748, 170.8153
183.4570, 170.0226
183.9391, 169.5662
184.4212, 169.4203
184.9033, 169.4583
185.3854, 169.8006
185.8675, 170.1264
186.3497, 170.1312
186.8318, 169.8057
187.3139, 169.4935
187.7960, 169.4415
188.2781, 169.4375
188.7602, 169.2222
189.2424, 168.6845
189.7245, 168.0598
190.2066, 167.6294
190.6887, 167.4007
191.1708, 167.3482
191.6530, 167.6470
192.1351, 168.0258
192.6172, 168.2742
193.0993, 168.3262
193.5814, 168.1817
194.0635, 167.7531
194.5457, 166.6882
195.0278, 166.0749
195.5099, 166.4324
195.9920, 167.1416
196.4741, 167.6102
196.9562, 167.5715
197.4384, 167.1682
197.9205, 166.8023
198.4026, 166.4868
198.8847, 166.2000
199.3668, 165.9107
199.8489, 165.6552
200.3311, 165.4802
200.8132, 165.4104
201.2953, 165.4254
201.7774, 165.4453
202.2595, 165.6221
202.7416, 165.6263
203.2238, 165.1851
203.7059, 164.6007
204.1880, 164.3589
204.6701, 164.7499
205.1522, 165.5615
205.6343, 165.8256
206.1165, 165.0580
206.5986, 164.3653
207.0807, 163.9726
207.5628, 163.8160
208.0449, 163.7856
208.5270, 163.8426
209.0092, 163.9592
209.4913, 164.0188
209.9734, 163.9400
210.4555, 163.9120
210.9376, 164.0276
211.4197, 164.2500
211.9019, 164.5281
212.3840, 164.9360
212.8661, 165.2727
213.3482, 164.9933
213.8303, 163.6428
214.3124, 162.4483
214.7946, 162.2784
215.2767, 162.9535
215.7588, 163.4827
216.2409, 163.3236
216.7230, 162.8360
217.2052, 162.7441
217.6873, 163.2456
218.1694, 163.7376
218.6515, 163.6374
219.1336, 162.9734
219.6157, 162.5348
220.0979, 162.8736
220.5800, 163.4233
221.0621, 163.5023
221.5442, 162.9415
222.0263, 162.3074
222.5084, 162.2313
222.9906, 162.7763
223.4727, 163.1773
223.9548, 162.9897
224.4369, 162.6873
224.9190, 162.6790
225.4011, 163.0553
225.8833, 163.4374
226.3654, 163.3089
226.8475, 162.5379
227.3296, 161.8920
227.8117, 161.5206
228.2938, 161.3327
228.7760, 161.3392
229.2581, 161.5309
229.7402, 161.7986
230.2223, 161.9966
230.7044, 162.0983
231.1865, 162.2166
231.6687, 162.5697
232.1508, 162.8015
232.6329, 162.5634
233.1150, 161.8425
233.5971, 161.0361
234.0792, 160.7650
234.5614, 161.4003
235.0435, 161.6481
235.5256, 161.1337
236.0077, 160.5363
236.4898, 160.2843
236.9719, 160.4452
237.4541, 160.7946
237.9362, 161.0620
238.4183, 161.3274
238.9004, 161.2734
239.3825, 160.5629
239.8646, 159.8426
240.3468, 159.5634
240.8289, 159.7632
241.3110, 160.1445
241.7931, 160.3411
242.2752, 160.2651
242.7573, 160.2396
243.2395, 160.2836
243.7216, 160.3542
244.2037, 160.5262
244.6858, 160.7563
245.1679, 160.7878
245.6501, 160.2542
246.1322, 158.8520
246.6143, 158.2197
247.0964, 158.9839
247.5785, 159.9574
248.0606, 160.3714
248.5428, 160.1627
249.0249, 159.6998
249.5070, 159.2926
249.9891, 158.9368
250.4712, 158.8038
250.9533, 159.2381
251.4355, 159.6175
251.9176, 159.4016
252.3997, 158.6230
252.8818, 157.8530
253.3639, 157.5904
253.8460, 157.8572
254.3282, 157.9908
254.8103, 157.9337
255.2924, 157.7943
255.7745, 157.5930
256.2566, 157.3477
256.7387, 157.1804
257.2209, 157.2157
257.7030, 157.4131
258.1851, 157.4790
258.6672, 157.2246
259.1493, 156.9899
259.6314, 157.0466
260.1136, 157.3685
260.5957, 157.7134
261.0778, 157.9887
261.5599, 158.1549
262.0420, 158.1752
262.5241, 158.0654
263.0063, 157.7890
263.4884, 157.1391
263.9705, 156.1834
264.4526, 155.5401
264.9347, 155.6270
265.4168, 156.1472
265.8990, 156.4859
266.3811, 156.6113
266.8632, 156.6156
267.3453, 156.4993
267.8274, 156.2855
268.3095, 156.1559
268.7917, 156.2049
269.2738, 156.3529
269.7559, 156.5118
270.2380, 156.6999
270.7201, 156.7962
271.2022, 156.6366
271.6844, 156.2702
272.1665, 156.0430
272.6486, 156.1413
273.1307, 156.3056
273.6128, 156.2919
274.0949, 156.1001
274.5771, 155.8174
275.0592, 155.4327
275.5413, 154.9773
276.0234, 154.6469
276.5055, 154.5214
276.9876, 154.4659
277.4698, 154.3542
277.9519, 154.2031
278.4340, 154.0981
278.9161, 154.1577
279.3982, 154.3239
279.8803, 154.2755
280.3625, 153.7175
280.8446, 153.3984
281.3267, 154.0462
281.8088, 155.2609
282.2909, 156.0881
282.7730, 155.7163
283.2552, 154.5732
283.7373, 154.1385
284.2194, 154.7785
284.7015, 155.4572
285.1836, 155.7332
285.6658, 155.7245
286.1479, 155.5800
286.6300, 155.3232
287.1121, 155.0145
287.5942, 154.7856
288.0764, 154.6375
288.5585, 154.5743
289.0406, 154.7408
289.5227, 154.9292
290.0048, 154.8773
290.4869, 154.4526
290.9691, 153.8966
291.4512, 153.6612
291.9333, 153.8826
292.4154, 153.9944
292.8975, 153.7610
293.3796, 153.4167
293.8618, 153.0680
294.3439, 152.7437
294.8260, 152.5783
295.3081, 152.9068
295.7902, 153.9411
296.2723, 154.4559
296.7545, 153.5130
297.2366, 152.5055
297.7187, 152.3497
298.2008, 153.0661
298.6829, 153.8865
299.1650, 153.9398
299.6472, 153.1211
300.1293, 152.5210
300.6114, 152.3383
301.0935, 152.2762
301.5756, 152.2856
302.0577, 152.3197
302.5399, 152.2756
303.0220, 152.0135
303.5041, 151.5515
303.9862, 151.3003
304.4683, 151.4790
304.9504, 151.6265
305.4326, 151.4897
305.9147, 151.2110
306.3968, 151.0717
306.8789, 151.2786
307.3610, 151.7360
307.8431, 152.0200
308.3253, 152.0295
308.8074, 152.0157
309.2895, 152.1728
309.7716, 152.3105
310.2537, 152.1399
310.7358, 151.4989
311.2180, 150.6556
311.7001, 150.2314
312.1822, 150.4177
312.6643, 150.6024
313.1464, 150.7597
313.6285, 150.8132
314.1107, 150.6623
314.5928, 150.2854
315.0749, 149.8130
315.5570, 149.3946
316.0391, 148.9914
316.5212, 148.7897
317.0034, 149.0081
317.4855, 149.2781
317.9676, 149.4019
318.4497, 149.3664
318.9318, 149.2811
319.4139, 149.2697
319.8961, 149.3493
320.3782, 149.3386
320.8603, 149.0998
321.3424, 148.8999
321.8245, 148.9308
322.3066, 149.0932
322.7888, 149.1219
323.2709, 148.7597
323.7530, 148.0865
324.2351, 147.7190
324.7172, 147.8564
325.1993, 148.0401
325.6815, 148.2624
326.1636, 148.4021
326.6457, 148.2555
327.1278, 147.6753
327.6099, 146.8764
328.0920, 146.3680
328.5742, 146.1974
329.0563, 146.2371
329.5384, 146.7554
330.0205, 147.2809
330.5026, 147.3365
330.9847, 146.7886
331.4669, 146.0259
331.9490, 145.5885
332.4311, 145.5445
332.9132, 145.5287
333.3953, 145.4804
333.8774, 145.4563
334.3596, 145.5257
334.8417, 145.6740
335.3238, 145.7902
335.8059, 145.7350
336.2880, 145.5051
336.7701, 145.3777
337.2523, 145.5127
337.7344, 145.5755
338.2165, 145.3647
338.6986, 144.9662
339.1807, 144.5799
339.6628, 144.3069
340.1450, 144.1446
340.6271, 144.0874
341.1092, 144.1546
341.5913, 144.2959
342.0735, 144.5945
342.5556, 144.9116
343.0377, 145.0684
343.5198, 144.9842
344.0019, 144.7585
344.4840, 144.5537
344.9662, 144.3872
345.4483, 144.1599
345.9304, 143.6571
346.4125, 143.1927
346.8946, 143.0682
347.3767, 143.3260
347.8589, 143.6039
348.3410, 143.4285
348.8231, 142.8198
349.3052, 142.6255
349.7873, 143.2415
350.2694, 143.9997
350.7516, 144.5696
351.2337, 144.9165
351.7158, 144.9341
352.1979, 144.3619
352.6800, 143.3970
353.1621, 142.6694
353.6443, 142.1786
354.1264, 141.9596
354.6085, 142.2665
355.0906, 142.8052
355.5727, 143.0966
356.0548, 142.8917
356.5370, 142.4854
357.0191, 142.2566
357.5012, 142.2180
357.9833, 142.2388
358.4654, 142.3523
358.9475, 142.4462
359.4297, 142.3704
359.9118, 142.0831
360.3939, 141.7641
360.8760, 141.5580
361.3581, 141.4401
361.8402, 141.2819
362.3224, 141.0546
362.8045, 140.7759
363.2866, 140.4154
363.7687, 139.9875
364.2508, 139.6716
364.7329, 139.5554
365.2151, 139.5885
365.6972, 139.6951
366.1793, 139.8725
366.6614, 140.1087
367.1435, 140.4844
367.6256, 140.9144
368.1078, 141.1331
368.5899, 141.0749
369.0720, 140.8208
369.5541, 140.2894
370.0362, 139.5449
370.5183, 139.0404
371.0005, 139.0533
371.4826, 139.3850
371.9647, 139.5789
372.4468, 139.6103
372.9289, 139.5882
373.4110, 139.5249
373.8932, 139.4411
374.3753, 139.3367
374.8574, 139.1918
375.3395, 139.1532
375.8216, 139.5117
376.3037, 140.3493
376.7859, 140.8026
377.2680, 140.5422
377.7501, 140.0321
378.2322, 139.6227
378.7143, 139.3453
379.1964, 139.1236
379.6786, 138.9004
380.1607, 138.6821
380.6428, 138.5269
381.1249, 138.2673
381.6070, 138.2397
382.0891, 138.8305
382.5713, 139.7073
383.0534, 140.2271
383.5355, 140.1055
384.0176, 139.5668
384.4997, 139.0817
384.9818, 138.6034
385.4640, 138.2723
385.9461, 138.1850
386.4282, 138.1901
386.9103, 138.1504
387.3924, 138.0517
387.8745, 137.9911
388.3567, 138.1030
388.8388, 138.4520
389.3209, 138.4913
389.8030, 137.9737
390.2851, 137.4521
390.7672, 137.1559
391.2494, 137.0158
391.7315, 136.8316
392.2136, 136.4727
392.6957, 136.0385
393.1778, 135.9357
393.6599, 136.5601
394.1421, 136.9599
394.6242, 136.9414
395.1063, 136.7402
395.5884, 136.5661
396.0706, 136.4710
396.5527, 136.3680
397.0348, 136.0983
397.5169, 135.5660
397.9990, 135.2546
398.4811, 135.4212
398.9633, 135.5817
399.4454, 135.5379
399.9275, 135.3258
400.4096, 135.0741
400.8917, 134.8576
401.3738, 134.6780
401.8560, 134.5484
402.3381, 134.5043
402.8202, 134.4453
403.3023, 134.3500
403.7844, 134.2234
404.2665, 134.0415
404.7487, 133.7896
405.2308, 133.5792
405.7129, 133.5879
406.1950, 133.8315
406.6771, 134.0007
407.1592, 133.9735
407.6414, 133.9262
408.1235, 134.0280
408.6056, 134.2443
409.0877, 134.3779
409.5698, 134.1419
410.0519, 132.5096
410.5341, 133.3798
411.0162, 133.8790
411.4983, 134.0270
411.9804, 132.7725
412.4625, 133.3291
412.9446, 133.1599
413.4268, 132.9610
413.9089, 133.7726
414.3910, 134.0263
414.8731, 133.7731
415.3552, 133.5275
415.8373, 133.3592
416.3195, 133.3025
416.8016, 133.4902
417.2837, 133.9465
417.7658, 134.2342
418.2479, 134.0641
418.7300, 133.7572
419.2122, 133.7452
419.6943, 134.0576
420.1764, 134.3029
420.6585, 134.1262
421.1406, 133.5808
421.6227, 133.3113
422.1049, 133.6733
422.5870, 133.8919
423.0691, 133.5269
423.5512, 132.8296
424.0333, 132.2258
424.5154, 131.8828
424.9976, 131.7699
425.4797, 131.8448
425.9618, 132.2218
426.4439, 132.5744
426.9260, 133.1355
427.4081, 133.5002
427.8903, 133.1418
428.3724, 132.2211
428.8545, 131.5387
429.3366, 131.8267
429.8187, 133.0184
430.3008, 133.5865
430.7830, 132.7207
431.2651, 132.1033
431.7472, 132.1351
432.2293, 132.5056
432.7114, 132.8582
433.1935, 133.0559
433.6757, 133.1518
434.1578, 133.2626
434.6399, 133.4657
435.1220, 133.4042
435.6041, 132.6806
436.0862, 131.9953
436.5684, 131.7314
437.0505, 131.8162
437.5326, 131.9265
438.0147, 131.8420
438.4968, 131.6138
438.9789, 131.3997
439.4611, 131.1537
439.9432, 131.0408
440.4253, 131.2587
440.9074, 131.5868
441.3895, 131.8071
441.8716, 131.8740
442.3538, 131.8454
442.8359, 131.6839
443.3180, 131.4358
443.8001, 131.4190
444.2822, 131.7968
444.7643, 132.2322
445.2465, 132.4803
445.7286, 132.5442
446.2107, 132.3087
446.6928, 131.4146
447.1749, 130.4275
447.6570, 129.8948
448.1392, 129.8123
448.6213, 130.0501
449.1034, 130.6843
449.5855, 131.4676
450.0677, 131.6537
450.5498, 130.9323
451.0319, 130.3864
451.5140, 130.4210
451.9961, 130.7185
452.4782, 130.8936
452.9604, 130.8745
453.4425, 130.8237
453.9246, 130.9167
454.4067, 131.1768
454.8888, 131.3345
455.3709, 131.2595
455.8531, 131.2413
456.3352, 131.5716
456.8173, 131.9915
457.2994, 131.9996
457.7815, 131.3597
458.2636, 130.4227
458.7458, 129.9400
459.2279, 130.1607
459.7100, 130.3295
460.1921, 130.3683
460.6742, 130.4027
461.1563, 130.6255
461.6385, 130.9412
462.1206, 130.9983
462.6027, 130.4405
463.0848, 129.4162
463.5669, 128.6914
464.0490, 128.3115
464.5312, 128.1582
465.0133, 128.4053
465.4954, 128.7343
465.9775, 128.8306
466.4596, 128.6187
466.9417, 128.2270
467.4239, 127.5509
467.9060, 126.7034
468.3881, 126.5715
468.8702, 127.6740
469.3523, 128.7463
469.8344, 128.5323
470.3166, 127.4108
470.7987, 126.4124
471.2808, 125.8321
471.7629, 125.4513
472.2450, 125.1285
472.7271, 124.8544
473.2093, 124.5476
473.6914, 124.1239
474.1735, 123.7429
474.6556, 123.8009
475.1377, 124.5005
475.6198, 124.8877
476.1020, 124.6173
476.5841, 124.1158
477.0662, 123.6881
477.5483, 123.3904
478.0304, 123.2132
478.5125, 123.1505
478.9947, 123.2025
479.4768, 123.3800
479.9589, 124.0889
480.4410, 124.4219
480.9231, 123.8382
481.4052, 122.4722
481.8874, 123.2309
482.3695, 123.6186
482.8516, 123.6552
483.3337, 122.2892
483.8158, 122.7344
484.2979, 122.4538
484.7801, 122.1433
485.2622, 122.8435
485.7443, 121.6814
486.2264, 122.3655
486.7085, 122.3127
487.1906, 122.5971
487.6728, 122.1512
488.1549, 121.9309
488.6370, 122.4412
489.1191, 122.5469
489.6012, 122.0169
490.0833, 122.3228
490.5655, 121.1353
491.0476, 121.2582
491.5297, 121.9466
492.0118, 121.4533
492.4939, 121.2132
492.9760, 121.1951
493.4582, 121.0349
493.9403, 120.9119
494.4224, 120.9460
494.9045, 121.0504
495.3866, 120.9848
495.8687, 120.6609
496.3509, 120.4175
496.8330, 120.3380
497.3151, 120.3733
497.7972, 120.5550
498.2793, 120.8425
498.7614, 120.9960
499.2436, 120.7675
499.7257, 120.1931
500.2078, 119.9275
500.6899, 120.3660
501.1720, 120.6346
501.6541, 120.3912
502.1363, 120.0094
502.6184, 119.9545
503.1005, 120.3216
503.5826, 120.7616
504.0647, 120.7927
504.5468, 120.3536
505.0290, 120.1359
505.5111, 120.3000
505.9932, 120.4969
506.4753, 120.6513
506.9575, 120.7314
507.4396, 120.6600
507.9217, 120.3652
508.4038, 120.0581
508.8859, 120.0027
509.3680, 120.1896
509.8502, 120.4550
510.3323, 120.7951
510.8144, 121.1543
511.2965, 121.5347
511.7786, 121.9127
512.2607, 122.1257
512.7429, 121.9002
513.2250, 121.6775
513.7071, 121.9103
514.1892, 122.5049
514.6713, 123.0392
515.1534, 123.3264
515.6356, 123.4618
516.1177, 123.6285
516.5998, 123.8415
517.0819, 124.0615
517.5640, 124.3359
518.0461, 124.5790
518.5283, 124.6860
519.0104, 124.7020
519.4925, 124.7647
519.9746, 124.9622
520.4567, 125.2817
520.9388, 125.6893
521.4210, 126.2751
521.9031, 126.7771
522.3852, 127.0337
522.8673, 127.3056
523.3494, 127.8782
523.8315, 128.6949
524.3137, 129.3715
524.7958, 129.6133
525.2779, 129.4783
525.7600, 129.0259
526.2421, 128.0583
526.7242, 127.5273
527.2064, 128.1835
527.6885, 129.3439
528.1706, 130.2037
528.6527, 130.7086
529.1348, 130.8976
529.6169, 130.5416
530.0991, 129.9723
530.5812, 129.7974
531.0633, 130.0848
531.5454, 130.3792
532.0275, 130.3484
532.5096, 130.0361
532.9918, 129.7430
533.4739, 129.4410
533.9560, 129.1916
534.4381, 129.1084
534.9202, 129.0306
535.4023, 128.7043
535.8845, 128.1292
536.3666, 127.6256
536.8487, 127.5766
537.3308, 127.9796
537.8129, 127.9529
538.2950, 127.1777
538.7772, 126.3655
539.2593, 125.5552
539.7414, 124.8558
540.2235, 124.5013
540.7056, 124.5318
541.1877, 124.4460
541.6699, 123.5353
542.1520, 121.9656
542.6341, 120.9518
543.1162, 120.7661
543.5983, 120.6811
544.0804, 120.2742
544.5626, 119.6367
545.0447, 118.8890
545.5268, 117.9100
546.0089, 117.0868
546.4910, 116.7790
546.9731, 116.7506
547.4553, 116.5372
547.9374, 116.0358
548.4195, 115.4523
548.9016, 114.9771
549.3837, 114.6110
549.8658, 114.2523
550.3480, 113.8472
550.8301, 113.5096
551.3122, 113.3522
551.7943, 113.2443
552.2764, 112.9861
552.7585, 112.5437
553.2407, 112.1061
553.7228, 111.9289
554.2049, 112.0319
554.6870, 112.0280
555.1691, 111.8465
555.6512, 111.6543
556.1334, 111.5790
556.6155, 111.5033
557.0976, 111.2113
557.5797, 110.6066
558.0618, 110.0872
558.5439, 110.2133
559.0261, 110.7497
559.5082, 110.7294
559.9903, 109.9093
560.4724, 109.0368
560.9545, 108.6707
561.4366, 108.7486
561.9188, 108.8249
562.4009, 108.9082
562.8830, 108.9752
563.3651, 109.0328
563.8472, 109.0628
564.3293, 109.0291
564.8115, 108.9291
565.2936, 108.8068
565.7757, 108.7025
566.2578, 108.6161
566.7399, 108.5599
567.2220, 108.7157
567.7042, 108.6726
568.1863, 108.1054
568.6684, 107.4502
569.1505, 107.2267
569.6326, 107.5116
570.1147, 107.8425
570.5969, 107.6859
571.0790, 107.1456
571.5611, 106.9203
572.0432, 107.1321
572.5253, 107.3308
573.0074, 107.2981
573.4896, 107.1047
573.9717, 106.8270
574.4538, 106.4264
574.9359, 106.1040
575.4180, 105.8971
575.9001, 105.8520
576.3823, 106.1847
576.8644, 106.8604
577.3465, 107.3103
577.8286, 107.0796
578.3107, 106.3326
578.7928, 105.8775
579.2750, 105.8670
579.7571, 105.9634
580.2392, 106.4080
580.7213, 106.7642
581.2034, 106.5473
581.6855, 105.8551
582.1677, 105.2685
582.6498, 105.2700
583.1319, 105.6619
583.6140, 105.7152
584.0961, 105.2807
