##NAMES=Stichtite
##RRUFFID=R050328
##IDEAL CHEMISTRY=Mg_6_Cr^3+^_2_CO_3_(OH)_16_&#183;4H_2_O
##LOCALITY=Dundas, Tasmania, Australia
##OWNER=RRUFF
##SOURCE=Marcus Origlieri
##DESCRIPTION=Aggregate of contorted purple plates
##STATUS=The identification of this mineral has been confirmed by X-ray diffraction and chemical analysis
##URL=rruff.info/R050328
##MEASURED CHEMISTRY=Mg_6.00_(Cr_1.11_Al_0.71_Fe^3+^_0.18_)_Σ=2_(CO_3_)(OH)_16_·4H_2_O
92.52344, 2649.863
93.00555, 2628.818
93.48767, 2632.994
93.96979, 2721.207
94.45190, 2809.907
94.93402, 2887.926
95.41614, 2920.066
95.89825, 2921.531
96.38037, 2916.960
96.86249, 2907.098
97.34460, 2895.983
97.82672, 2889.617
98.30884, 2881.162
98.79095, 2869.899
99.27307, 2852.504
99.75519, 2827.911
100.2373, 2803.773
100.7194, 2782.815
101.2015, 2766.391
101.6837, 2754.686
102.1658, 2745.330
102.6479, 2736.077
103.1300, 2726.452
103.6121, 2719.064
104.0942, 2716.405
104.5764, 2716.809
105.0585, 2718.775
105.5406, 2722.300
106.0227, 2726.846
106.5048, 2730.693
106.9869, 2732.126
107.4691, 2733.641
107.9512, 2736.621
108.4333, 2740.633
108.9154, 2744.605
109.3975, 2747.094
109.8796, 2747.396
110.3618, 2750.216
110.8439, 2757.460
111.3260, 2765.418
111.8081, 2772.520
112.2902, 2778.532
112.7723, 2784.221
113.2544, 2790.627
113.7366, 2797.949
114.2187, 2805.816
114.7008, 2814.812
115.1829, 2823.994
115.6650, 2832.340
116.1471, 2839.497
116.6293, 2846.034
117.1114, 2853.353
117.5935, 2861.968
118.0756, 2870.185
118.5577, 2877.235
119.0398, 2883.531
119.5220, 2889.963
120.0041, 2896.368
120.4862, 2903.744
120.9683, 2913.804
121.4504, 2927.727
121.9325, 2942.191
122.4147, 2954.596
122.8968, 2964.823
123.3789, 2974.202
123.8610, 2982.767
124.3431, 2990.971
124.8252, 2999.319
125.3074, 3008.214
125.7895, 3017.010
126.2716, 3023.994
126.7537, 3027.217
127.2358, 3032.095
127.7179, 3041.460
128.2001, 3052.941
128.6822, 3063.594
129.1643, 3071.543
129.6464, 3076.980
130.1285, 3081.867
130.6107, 3087.220
131.0928, 3091.011
131.5749, 3091.394
132.0570, 3089.616
132.5391, 3088.435
133.0212, 3090.426
133.5034, 3096.292
133.9855, 3100.815
134.4676, 3104.465
134.9497, 3106.791
135.4318, 3107.186
135.9139, 3105.748
136.3960, 3103.423
136.8782, 3101.132
137.3603, 3098.840
137.8424, 3096.920
138.3245, 3096.907
138.8066, 3096.699
139.2887, 3093.489
139.7709, 3086.339
140.2530, 3077.478
140.7351, 3069.066
141.2172, 3061.057
141.6993, 3054.189
142.1814, 3049.791
142.6636, 3047.086
143.1457, 3043.192
143.6278, 3037.438
144.1099, 3030.232
144.5920, 3021.624
145.0741, 3011.715
145.5563, 3001.958
146.0384, 2994.092
146.5205, 2988.502
147.0026, 2981.700
147.4847, 2971.415
147.9668, 2960.790
148.4490, 2951.511
148.9311, 2943.964
149.4132, 2937.307
149.8953, 2930.438
150.3774, 2923.523
150.8595, 2915.846
151.3417, 2906.892
151.8238, 2897.582
152.3059, 2888.601
152.7880, 2880.263
153.2701, 2872.346
153.7522, 2864.438
154.2344, 2857.357
154.7165, 2849.286
155.1986, 2839.215
155.6807, 2828.346
156.1628, 2818.379
156.6449, 2810.295
157.1271, 2803.369
157.6092, 2794.562
158.0913, 2782.161
158.5734, 2770.145
159.0555, 2760.702
159.5376, 2752.703
160.0198, 2742.952
160.5019, 2729.162
160.9840, 2712.511
161.4661, 2697.886
161.9482, 2686.093
162.4303, 2675.313
162.9125, 2664.600
163.3946, 2653.953
163.8767, 2643.401
164.3588, 2633.106
164.8409, 2622.937
165.3230, 2612.559
165.8052, 2601.827
166.2873, 2590.991
166.7694, 2580.626
167.2515, 2570.848
167.7336, 2561.020
168.2157, 2550.608
168.6979, 2539.999
169.1800, 2529.551
169.6621, 2519.380
170.1442, 2509.497
170.6263, 2499.708
171.1084, 2489.216
171.5906, 2480.323
172.0727, 2474.731
172.5548, 2470.719
173.0369, 2465.824
173.5190, 2458.396
174.0011, 2448.787
174.4833, 2439.993
174.9654, 2431.964
175.4475, 2424.897
175.9296, 2419.095
176.4117, 2414.298
176.8938, 2410.080
177.3760, 2406.199
177.8581, 2402.671
178.3402, 2398.756
178.8223, 2394.209
179.3044, 2389.586
179.7865, 2384.730
180.2687, 2379.903
180.7508, 2375.815
181.2329, 2373.236
181.7150, 2372.360
182.1971, 2370.510
182.6792, 2367.502
183.1614, 2363.870
183.6435, 2359.563
184.1256, 2354.724
184.6077, 2350.060
185.0898, 2346.183
185.5719, 2343.190
186.0541, 2340.484
186.5362, 2338.692
187.0183, 2336.802
187.5004, 2333.408
187.9825, 2328.243
188.4646, 2323.466
188.9468, 2321.744
189.4289, 2322.295
189.9110, 2321.923
190.3931, 2319.172
190.8752, 2315.308
191.3573, 2312.495
191.8395, 2311.360
192.3216, 2309.917
192.8037, 2305.561
193.2858, 2299.637
193.7679, 2295.336
194.2500, 2295.488
194.7322, 2298.529
195.2143, 2299.340
195.6964, 2297.090
196.1785, 2293.564
196.6606, 2289.075
197.1427, 2284.210
197.6249, 2280.323
198.1070, 2278.500
198.5891, 2278.556
199.0712, 2278.753
199.5533, 2280.188
200.0354, 2280.397
200.5176, 2277.814
200.9997, 2273.267
201.4818, 2268.597
201.9639, 2265.271
202.4460, 2263.319
202.9281, 2261.293
203.4103, 2259.249
203.8924, 2257.084
204.3745, 2254.713
204.8566, 2252.182
205.3387, 2249.616
205.8208, 2247.060
206.3030, 2244.438
206.7851, 2242.575
207.2672, 2241.962
207.7493, 2241.569
208.2314, 2241.347
208.7135, 2241.073
209.1957, 2240.209
209.6778, 2238.109
210.1599, 2234.443
210.6420, 2232.257
211.1241, 2233.235
211.6062, 2233.922
212.0884, 2232.105
212.5705, 2228.038
213.0526, 2223.682
213.5347, 2220.662
214.0168, 2219.149
214.4989, 2218.450
214.9811, 2219.972
215.4632, 2221.159
215.9453, 2220.036
216.4274, 2216.610
216.9095, 2212.632
217.3916, 2209.547
217.8737, 2207.395
218.3559, 2205.110
218.8380, 2201.595
219.3201, 2198.639
219.8022, 2198.564
220.2843, 2201.543
220.7664, 2204.091
221.2486, 2202.895
221.7307, 2198.769
222.2128, 2195.363
222.6949, 2193.579
223.1770, 2192.537
223.6591, 2191.244
224.1413, 2189.613
224.6234, 2188.106
225.1055, 2187.280
225.5876, 2186.796
226.0697, 2186.036
226.5518, 2184.696
227.0340, 2183.057
227.5161, 2181.363
227.9982, 2179.430
228.4803, 2178.070
228.9624, 2178.353
229.4445, 2179.353
229.9267, 2179.900
230.4088, 2179.563
230.8909, 2178.545
231.3730, 2177.183
231.8551, 2175.424
232.3372, 2173.462
232.8194, 2171.395
233.3015, 2169.188
233.7836, 2166.612
234.2657, 2163.310
234.7478, 2160.015
235.2299, 2158.661
235.7121, 2160.571
236.1942, 2161.769
236.6763, 2160.507
237.1584, 2158.286
237.6405, 2156.827
238.1227, 2156.980
238.6048, 2157.854
239.0869, 2157.063
239.5690, 2153.451
240.0511, 2150.130
240.5332, 2147.733
241.0154, 2145.852
241.4975, 2144.179
241.9796, 2142.584
242.4617, 2141.011
242.9438, 2139.235
243.4259, 2136.333
243.9081, 2134.807
244.3902, 2136.354
244.8723, 2138.573
245.3544, 2139.159
245.8365, 2137.227
246.3186, 2133.603
246.8008, 2130.032
247.2829, 2125.481
247.7650, 2122.687
248.2471, 2122.637
248.7292, 2123.792
249.2113, 2125.065
249.6935, 2126.007
250.1756, 2126.370
250.6577, 2125.606
251.1398, 2122.207
251.6219, 2119.835
252.1040, 2119.424
252.5862, 2119.498
253.0683, 2118.720
253.5504, 2116.716
254.0325, 2114.051
254.5146, 2111.569
254.9967, 2108.757
255.4789, 2107.357
255.9610, 2109.198
256.4431, 2111.416
256.9252, 2111.105
257.4073, 2107.700
257.8894, 2103.399
258.3716, 2101.186
258.8537, 2102.200
259.3358, 2102.581
259.8179, 2101.604
260.3000, 2100.438
260.7821, 2100.435
261.2643, 2101.749
261.7464, 2102.902
262.2285, 2102.110
262.7106, 2098.750
263.1927, 2096.292
263.6748, 2095.190
264.1570, 2094.739
264.6391, 2094.483
265.1212, 2094.341
265.6033, 2094.227
266.0854, 2094.186
266.5675, 2094.181
267.0497, 2093.476
267.5318, 2091.499
268.0139, 2089.196
268.4960, 2086.911
268.9781, 2084.753
269.4602, 2083.701
269.9424, 2085.076
270.4245, 2088.425
270.9066, 2090.177
271.3887, 2090.026
271.8708, 2088.439
272.3529, 2084.753
272.8351, 2079.252
273.3172, 2075.092
273.7993, 2074.708
274.2814, 2077.101
274.7635, 2078.464
275.2456, 2078.386
275.7278, 2077.660
276.2099, 2076.124
276.6920, 2074.015
277.1741, 2073.495
277.6562, 2076.606
278.1383, 2081.303
278.6205, 2083.200
279.1026, 2081.151
279.5847, 2078.808
280.0668, 2078.843
280.5489, 2080.851
281.0310, 2082.410
281.5132, 2082.422
281.9953, 2081.831
282.4774, 2082.263
282.9595, 2084.002
283.4416, 2085.074
283.9237, 2083.574
284.4059, 2080.203
284.8880, 2078.039
285.3701, 2078.348
285.8522, 2079.401
286.3343, 2079.231
286.8164, 2077.907
287.2986, 2076.764
287.7807, 2076.614
288.2628, 2077.216
288.7449, 2077.889
289.2270, 2078.764
289.7091, 2079.270
290.1913, 2078.665
290.6734, 2077.254
291.1555, 2076.121
291.6376, 2075.806
292.1197, 2076.123
292.6018, 2076.919
293.0840, 2078.735
293.5661, 2079.678
294.0482, 2077.566
294.5303, 2073.821
295.0124, 2071.041
295.4945, 2071.025
295.9767, 2072.162
296.4588, 2071.204
296.9409, 2067.392
297.4230, 2064.109
297.9051, 2063.749
298.3872, 2064.734
298.8694, 2065.268
299.3515, 2064.688
299.8336, 2063.741
300.3157, 2063.938
300.7978, 2065.761
301.2799, 2065.733
301.7621, 2059.486
302.2442, 2052.332
302.7263, 2049.687
303.2084, 2053.129
303.6905, 2057.414
304.1726, 2056.288
304.6548, 2049.435
305.1369, 2044.854
305.6190, 2046.234
306.1011, 2049.228
306.5832, 2050.695
307.0653, 2050.421
307.5475, 2049.422
308.0296, 2047.981
308.5117, 2046.224
308.9938, 2045.760
309.4759, 2047.813
309.9580, 2050.048
310.4402, 2051.086
310.9223, 2051.015
311.4044, 2050.259
311.8865, 2048.612
312.3686, 2046.385
312.8507, 2044.871
313.3329, 2044.043
313.8150, 2044.073
314.2971, 2046.028
314.7792, 2048.705
315.2613, 2049.753
315.7434, 2047.324
316.2256, 2043.111
316.7077, 2040.724
317.1898, 2040.447
317.6719, 2041.199
318.1540, 2043.633
318.6361, 2046.373
319.1183, 2047.871
319.6004, 2047.568
320.0825, 2046.180
320.5646, 2044.559
321.0467, 2042.690
321.5288, 2040.683
322.0110, 2038.535
322.4931, 2036.273
322.9752, 2033.716
323.4573, 2030.828
323.9394, 2028.351
324.4215, 2027.686
324.9037, 2028.771
325.3858, 2027.813
325.8679, 2022.095
326.3500, 2016.237
326.8321, 2013.766
327.3142, 2014.327
327.7964, 2015.263
328.2785, 2015.081
328.7606, 2013.869
329.2427, 2011.984
329.7248, 2009.300
330.2069, 2006.171
330.6891, 2002.703
331.1712, 1999.011
331.6533, 1995.301
332.1354, 1991.629
332.6175, 1988.016
333.0996, 1984.420
333.5818, 1980.689
334.0639, 1977.407
334.5460, 1975.282
335.0281, 1973.633
335.5102, 1971.645
335.9923, 1968.895
336.4745, 1966.210
336.9566, 1964.894
337.4387, 1965.077
337.9208, 1964.422
338.4029, 1961.427
338.8850, 1957.752
339.3671, 1955.125
339.8492, 1953.736
340.3314, 1952.426
340.8135, 1950.037
341.2956, 1946.814
341.7777, 1944.516
342.2598, 1943.922
342.7419, 1943.670
343.2241, 1942.589
343.7062, 1940.799
344.1883, 1938.875
344.6704, 1936.717
345.1525, 1934.669
345.6346, 1933.647
346.1168, 1933.968
346.5989, 1934.431
347.0810, 1934.250
347.5631, 1933.605
348.0452, 1932.743
348.5273, 1931.972
349.0095, 1930.797
349.4916, 1928.107
349.9737, 1923.861
350.4558, 1920.619
350.9379, 1919.770
351.4200, 1920.645
351.9022, 1922.307
352.3843, 1925.373
352.8664, 1927.390
353.3485, 1925.890
353.8306, 1921.761
354.3127, 1918.662
354.7949, 1918.000
355.2770, 1918.015
355.7591, 1916.270
356.2412, 1912.818
356.7233, 1909.646
357.2054, 1907.074
357.6876, 1905.338
358.1697, 1905.523
358.6518, 1908.142
359.1339, 1909.952
359.6160, 1907.338
360.0981, 1901.153
360.5803, 1896.205
361.0624, 1894.100
361.5445, 1892.676
362.0266, 1889.752
362.5087, 1885.596
362.9908, 1882.574
363.4730, 1882.188
363.9551, 1883.810
364.4372, 1885.377
364.9193, 1887.452
365.4014, 1888.575
365.8835, 1887.772
366.3657, 1885.621
366.8478, 1883.000
367.3299, 1880.023
367.8120, 1877.405
368.2941, 1876.390
368.7762, 1877.175
369.2584, 1878.474
369.7405, 1881.258
370.2226, 1883.815
370.7047, 1884.305
371.1868, 1882.558
371.6689, 1879.803
372.1511, 1876.934
372.6332, 1873.952
373.1153, 1871.657
373.5974, 1870.913
374.0795, 1869.935
374.5616, 1867.182
375.0438, 1863.461
375.5259, 1860.966
376.0080, 1861.046
376.4901, 1862.880
376.9722, 1863.570
377.4543, 1862.543
377.9365, 1861.128
378.4186, 1859.048
378.9007, 1856.815
379.3828, 1854.861
379.8649, 1853.338
380.3470, 1852.451
380.8292, 1852.627
381.3113, 1854.642
381.7934, 1855.319
382.2755, 1853.821
382.7576, 1851.907
383.2397, 1850.572
383.7219, 1849.758
384.2040, 1848.907
384.6861, 1847.583
385.1682, 1845.820
385.6503, 1844.054
386.1324, 1841.906
386.6146, 1840.230
387.0967, 1839.453
387.5788, 1839.168
388.0609, 1839.078
388.5430, 1839.046
389.0251, 1838.625
389.5073, 1836.651
389.9894, 1831.624
390.4715, 1828.206
390.9536, 1827.026
391.4357, 1826.952
391.9178, 1827.974
392.4000, 1829.645
392.8821, 1830.600
393.3642, 1829.262
393.8463, 1825.537
394.3284, 1822.318
394.8105, 1819.121
395.2927, 1817.073
395.7748, 1817.543
396.2569, 1819.188
396.7390, 1819.717
397.2211, 1817.779
397.7032, 1814.524
398.1854, 1812.535
398.6675, 1812.149
399.1496, 1812.022
399.6317, 1811.914
400.1138, 1811.852
400.5959, 1812.208
401.0781, 1813.010
401.5602, 1813.024
402.0423, 1810.070
402.5244, 1804.605
403.0065, 1801.999
403.4886, 1804.584
403.9708, 1807.670
404.4529, 1807.898
404.9350, 1805.979
405.4171, 1803.824
405.8992, 1801.465
406.3813, 1799.738
406.8635, 1800.647
407.3456, 1804.579
407.8277, 1807.544
408.3098, 1807.080
408.7919, 1804.621
409.2740, 1802.589
409.7562, 1801.045
410.2383, 1800.121
410.7204, 1799.911
411.2025, 1800.384
411.6846, 1801.723
412.1667, 1804.344
412.6489, 1806.808
413.1310, 1806.967
413.6131, 1804.915
414.0952, 1803.288
414.5773, 1802.628
415.0594, 1802.526
415.5416, 1802.679
416.0237, 1803.057
416.5058, 1803.749
416.9879, 1805.053
417.4700, 1806.641
417.9521, 1806.744
418.4343, 1803.863
418.9164, 1801.544
419.3985, 1800.532
419.8806, 1800.723
420.3627, 1802.405
420.8448, 1805.643
421.3270, 1809.135
421.8091, 1810.923
422.2912, 1810.366
422.7733, 1809.731
423.2554, 1808.035
423.7375, 1807.100
424.2197, 1809.281
424.7018, 1813.432
425.1839, 1815.743
425.6660, 1813.179
426.1481, 1806.703
426.6302, 1802.861
427.1124, 1805.003
427.5945, 1805.807
428.0766, 1802.560
428.5587, 1798.508
429.0408, 1797.026
429.5229, 1799.090
430.0051, 1803.072
430.4872, 1807.538
430.9693, 1813.586
431.4514, 1815.508
431.9335, 1808.376
432.4156, 1801.208
432.8978, 1797.376
433.3799, 1796.454
433.8620, 1796.674
434.3441, 1797.284
434.8262, 1798.019
435.3083, 1797.911
435.7905, 1796.410
436.2726, 1795.582
436.7547, 1797.394
437.2368, 1799.555
437.7189, 1799.854
438.2010, 1797.803
438.6832, 1795.083
439.1653, 1792.796
439.6474, 1790.973
440.1295, 1789.787
440.6116, 1789.322
441.0938, 1789.410
441.5759, 1789.997
442.0580, 1791.009
442.5401, 1792.319
443.0222, 1794.524
443.5043, 1796.573
443.9865, 1796.737
444.4686, 1795.330
444.9507, 1795.592
445.4328, 1800.106
445.9149, 1806.106
446.3970, 1806.771
446.8792, 1800.262
447.3613, 1794.820
447.8434, 1793.123
448.3255, 1793.501
448.8076, 1794.168
449.2897, 1794.762
449.7719, 1795.269
450.2540, 1795.623
450.7361, 1795.809
451.2182, 1796.413
451.7003, 1797.941
452.1824, 1799.279
452.6646, 1800.347
453.1467, 1800.894
453.6288, 1800.093
454.1109, 1797.574
454.5930, 1794.757
455.0751, 1794.598
455.5573, 1798.848
456.0394, 1802.403
456.5215, 1805.839
457.0036, 1808.213
457.4857, 1808.741
457.9678, 1807.644
458.4500, 1805.621
458.9321, 1802.829
459.4142, 1799.696
459.8963, 1798.932
460.3784, 1802.124
460.8605, 1804.893
461.3427, 1805.946
461.8248, 1806.169
462.3069, 1806.658
462.7890, 1807.688
463.2711, 1807.978
463.7532, 1805.643
464.2354, 1800.909
464.7175, 1797.265
465.1996, 1795.656
465.6817, 1794.314
466.1638, 1792.267
466.6459, 1789.523
467.1281, 1785.937
467.6102, 1780.378
468.0923, 1774.935
468.5744, 1772.934
469.0565, 1773.870
469.5386, 1772.576
470.0208, 1766.220
470.5029, 1757.596
470.9850, 1752.039
471.4671, 1750.179
471.9492, 1747.041
472.4313, 1740.545
472.9135, 1732.615
473.3956, 1724.600
473.8777, 1716.923
474.3598, 1710.907
474.8419, 1707.948
475.3240, 1707.624
475.8062, 1705.775
476.2883, 1701.008
476.7704, 1696.669
477.2525, 1693.596
477.7346, 1691.253
478.2167, 1689.175
478.6989, 1687.160
479.1810, 1684.964
479.6631, 1682.127
480.1452, 1678.398
480.6273, 1675.402
481.1094, 1674.094
481.5916, 1672.538
482.0737, 1669.770
482.5558, 1666.367
483.0379, 1663.362
483.5200, 1661.244
484.0021, 1659.705
484.4843, 1658.330
484.9664, 1657.285
485.4485, 1655.542
485.9306, 1651.465
486.4127, 1647.898
486.8948, 1647.591
487.3770, 1649.929
487.8591, 1651.195
488.3412, 1647.876
488.8233, 1642.504
489.3054, 1640.614
489.7875, 1642.680
490.2697, 1643.947
490.7518, 1641.454
491.2339, 1636.921
491.7160, 1633.867
492.1981, 1632.535
492.6802, 1632.009
493.1624, 1632.455
493.6445, 1633.287
494.1266, 1633.547
494.6087, 1633.084
495.0908, 1632.549
495.5729, 1632.568
496.0551, 1633.127
496.5372, 1633.225
497.0193, 1632.461
497.5014, 1631.781
497.9835, 1631.466
498.4656, 1631.411
498.9478, 1631.612
499.4299, 1632.024
499.9120, 1632.213
500.3941, 1631.371
500.8762, 1628.905
501.3583, 1627.758
501.8405, 1629.411
502.3226, 1630.878
502.8047, 1630.596
503.2868, 1629.435
503.7689, 1628.964
504.2510, 1629.912
504.7331, 1632.088
505.2152, 1635.744
505.6974, 1641.434
506.1795, 1645.125
506.6616, 1643.820
507.1437, 1642.333
507.6258, 1644.297
508.1079, 1649.358
508.5901, 1655.050
509.0722, 1660.926
509.5543, 1666.380
510.0364, 1670.041
510.5185, 1671.943
511.0006, 1674.619
511.4828, 1679.421
511.9649, 1685.561
512.4470, 1691.208
512.9291, 1695.919
513.4113, 1701.649
513.8934, 1709.340
514.3755, 1717.978
514.8576, 1726.534
515.3397, 1734.927
515.8218, 1743.384
516.3040, 1752.053
516.7861, 1761.006
517.2682, 1770.634
517.7503, 1780.667
518.2324, 1791.738
518.7145, 1804.732
519.1967, 1818.393
519.6788, 1830.941
520.1609, 1842.469
520.6430, 1855.408
521.1251, 1872.824
521.6072, 1894.620
522.0894, 1913.715
522.5715, 1928.253
523.0536, 1943.074
523.5357, 1960.413
524.0178, 1978.648
524.4999, 1995.806
524.9821, 2011.343
525.4642, 2026.584
525.9463, 2042.458
526.4284, 2058.996
526.9105, 2077.159
527.3926, 2097.452
527.8748, 2117.936
528.3569, 2137.191
528.8390, 2155.435
529.3211, 2173.683
529.8032, 2192.265
530.2853, 2210.532
530.7675, 2227.360
531.2496, 2243.684
531.7317, 2261.896
532.2138, 2282.809
532.6959, 2303.658
533.1780, 2320.869
533.6602, 2333.846
534.1423, 2346.907
534.6244, 2360.269
535.1065, 2373.540
535.5886, 2387.640
536.0707, 2401.195
536.5529, 2412.490
537.0350, 2420.746
537.5171, 2425.833
537.9992, 2427.469
538.4813, 2425.710
538.9634, 2420.293
539.4456, 2410.835
539.9277, 2397.805
540.4098, 2380.869
540.8919, 2360.842
541.3740, 2339.420
541.8561, 2317.732
542.3383, 2293.967
542.8204, 2265.740
543.3025, 2233.304
543.7846, 2198.685
544.2667, 2161.446
544.7488, 2124.058
545.2310, 2089.591
545.7131, 2057.690
546.1952, 2024.705
546.6773, 1987.862
547.1594, 1952.087
547.6415, 1921.068
548.1237, 1893.678
548.6058, 1866.234
549.0879, 1837.379
549.5700, 1808.500
550.0521, 1781.841
550.5342, 1757.593
551.0164, 1735.550
551.4985, 1716.228
551.9806, 1698.379
552.4627, 1680.834
552.9448, 1664.347
553.4269, 1650.547
553.9091, 1640.316
554.3912, 1631.919
554.8733, 1622.450
555.3554, 1611.735
555.8375, 1600.752
556.3196, 1588.726
556.8018, 1577.528
557.2839, 1568.466
557.7660, 1561.034
558.2481, 1553.870
558.7302, 1546.123
559.2123, 1538.919
559.6945, 1533.974
560.1766, 1530.766
560.6587, 1527.073
561.1408, 1522.288
561.6229, 1516.545
562.1050, 1509.661
562.5872, 1501.371
563.0693, 1494.183
563.5514, 1487.582
564.0335, 1482.671
564.5156, 1481.338
564.9977, 1481.846
565.4799, 1481.031
565.9620, 1477.649
566.4441, 1473.039
566.9262, 1469.329
567.4083, 1466.806
567.8904, 1463.991
568.3726, 1459.579
568.8547, 1456.267
569.3368, 1456.431
569.8189, 1457.942
570.3010, 1457.082
570.7831, 1452.179
571.2653, 1446.108
571.7474, 1442.309
572.2295, 1440.500
572.7116, 1438.097
573.1937, 1434.359
573.6758, 1430.848
574.1580, 1429.238
574.6401, 1429.015
575.1222, 1428.151
575.6043, 1425.995
576.0864, 1423.688
576.5685, 1421.731
577.0507, 1420.029
577.5328, 1418.486
578.0149, 1417.066
578.4970, 1415.620
578.9791, 1413.992
579.4612, 1412.185
579.9434, 1410.253
580.4255, 1408.064
580.9076, 1405.909
581.3897, 1403.501
581.8718, 1401.313
582.3539, 1400.120
582.8361, 1399.971
583.3182, 1399.762
583.8003, 1397.790
584.2824, 1394.502
584.7645, 1393.617
585.2466, 1396.152
585.7288, 1398.201
586.2108, 1397.643
586.6929, 1395.506
587.1750, 1393.007
587.6572, 1389.964
588.1393, 1387.705
