##NAMES=Stilpnomelane
##RRUFFID=R110195
##IDEAL CHEMISTRY=(K,Ca,Na)(Fe^2+^,Mg,Al,Fe^3+^)_8_(Si,Al)_12_(O,OH)_36_&#183;nH_2_O
##LOCALITY=Broughton talc mine, Saint-Pierre-de-Broughton, Quebec, Canada
##OWNER=RRUFF
##SOURCE=Donald Doell
##DESCRIPTION=Aggregates of dark green plates, 180 deg twin around (-2 0 3) = [0 1 2].
##STATUS=The identification of this mineral has been confirmed by single-crystal X-ray diffraction.
##URL=rruff.info/R110195
103.1743, 1389.118
103.6564, 1389.304
104.1385, 1389.773
104.6207, 1390.796
105.1028, 1392.221
105.5849, 1393.615
106.0670, 1394.522
106.5491, 1395.069
107.0313, 1395.433
107.5134, 1395.545
107.9955, 1395.645
108.4776, 1395.948
108.9597, 1396.422
109.4418, 1397.023
109.9240, 1398.176
110.4061, 1399.174
110.8882, 1399.159
111.3703, 1397.702
111.8524, 1395.687
112.3345, 1395.647
112.8167, 1400.148
113.2988, 1403.260
113.7809, 1403.347
114.2630, 1401.772
114.7451, 1400.243
115.2272, 1399.823
115.7094, 1400.456
116.1915, 1401.254
116.6736, 1402.521
117.1557, 1403.611
117.6378, 1404.208
118.1199, 1404.387
118.6021, 1404.453
119.0842, 1404.650
119.5663, 1404.974
120.0484, 1405.197
120.5305, 1404.774
121.0126, 1404.541
121.4948, 1405.563
121.9769, 1408.105
122.4590, 1410.617
122.9411, 1411.227
123.4232, 1410.406
123.9053, 1409.453
124.3875, 1408.539
124.8696, 1407.791
125.3517, 1407.594
125.8338, 1408.120
126.3159, 1409.097
126.7980, 1410.666
127.2802, 1412.622
127.7623, 1414.017
128.2444, 1413.840
128.7265, 1411.920
129.2086, 1410.295
129.6907, 1409.370
130.1729, 1408.612
130.6550, 1408.003
131.1371, 1407.445
131.6192, 1406.623
132.1013, 1405.075
132.5834, 1402.462
133.0656, 1399.684
133.5477, 1396.305
134.0298, 1393.064
134.5119, 1390.634
134.9940, 1389.221
135.4761, 1388.402
135.9583, 1387.236
136.4404, 1384.993
136.9225, 1383.332
137.4046, 1383.151
137.8867, 1383.448
138.3688, 1382.729
138.8510, 1380.214
139.3331, 1376.421
139.8152, 1373.051
140.2973, 1370.337
140.7794, 1367.592
141.2615, 1364.196
141.7437, 1360.388
142.2258, 1357.225
142.7079, 1355.463
143.1900, 1354.684
143.6721, 1353.799
144.1542, 1352.631
144.6364, 1351.497
145.1185, 1350.935
145.6006, 1351.123
146.0827, 1350.786
146.5648, 1348.623
147.0469, 1345.771
147.5291, 1343.380
148.0112, 1341.979
148.4933, 1341.143
148.9754, 1339.826
149.4575, 1337.421
149.9396, 1335.626
150.4218, 1335.173
150.9039, 1335.494
151.3860, 1335.822
151.8681, 1335.661
152.3502, 1335.116
152.8323, 1335.106
153.3145, 1336.620
153.7966, 1337.717
154.2787, 1337.777
154.7608, 1337.103
155.2429, 1336.341
155.7250, 1335.997
156.2072, 1336.106
156.6893, 1336.059
157.1714, 1335.831
157.6535, 1335.493
158.1356, 1335.014
158.6177, 1334.427
159.0999, 1333.824
159.5820, 1333.275
160.0641, 1332.779
160.5462, 1332.447
161.0283, 1331.906
161.5104, 1331.765
161.9926, 1332.841
162.4747, 1335.213
162.9568, 1337.618
163.4389, 1338.607
163.9210, 1338.257
164.4031, 1337.837
164.8853, 1337.375
165.3674, 1337.020
165.8495, 1337.049
166.3316, 1337.586
166.8137, 1338.288
167.2958, 1339.145
167.7780, 1340.034
168.2601, 1340.219
168.7422, 1338.982
169.2243, 1336.661
169.7064, 1334.581
170.1885, 1332.694
170.6707, 1331.389
171.1528, 1331.219
171.6349, 1331.906
172.1170, 1332.315
172.5991, 1331.301
173.0812, 1328.775
173.5634, 1326.774
174.0455, 1325.471
174.5276, 1324.710
175.0097, 1324.823
175.4918, 1325.601
175.9739, 1326.298
176.4561, 1326.004
176.9382, 1324.310
177.4203, 1322.974
177.9024, 1322.315
178.3845, 1321.713
178.8666, 1320.842
179.3488, 1319.667
179.8309, 1318.353
180.3130, 1317.164
180.7951, 1316.298
181.2772, 1315.069
181.7593, 1313.061
182.2415, 1311.011
182.7236, 1309.561
183.2057, 1308.834
183.6878, 1308.378
184.1699, 1307.501
184.6520, 1305.898
185.1342, 1304.471
185.6163, 1303.330
186.0984, 1302.345
186.5805, 1301.418
187.0626, 1300.531
187.5447, 1299.616
188.0269, 1298.465
188.5090, 1296.916
188.9911, 1295.772
189.4732, 1295.685
189.9553, 1296.046
190.4374, 1295.715
190.9196, 1294.199
191.4017, 1292.227
191.8838, 1290.827
192.3659, 1289.992
192.8480, 1289.291
193.3301, 1288.756
193.8123, 1288.243
194.2944, 1287.196
194.7765, 1285.283
195.2586, 1282.972
195.7407, 1280.604
196.2228, 1278.177
196.7050, 1276.224
197.1871, 1275.512
197.6692, 1275.965
198.1513, 1275.770
198.6334, 1274.078
199.1155, 1272.027
199.5977, 1270.347
200.0798, 1269.091
200.5619, 1268.014
201.0440, 1266.854
201.5261, 1265.572
202.0082, 1264.480
202.4904, 1263.774
202.9725, 1263.170
203.4546, 1262.528
203.9367, 1261.835
204.4188, 1261.167
204.9009, 1260.546
205.3831, 1259.811
205.8652, 1259.652
206.3473, 1260.865
206.8294, 1262.028
207.3115, 1262.354
207.7936, 1261.702
208.2758, 1260.386
208.7579, 1258.734
209.2400, 1256.231
209.7221, 1254.580
210.2042, 1254.320
210.6863, 1254.373
211.1685, 1253.947
211.6506, 1252.913
212.1327, 1251.772
212.6148, 1251.299
213.0969, 1252.195
213.5790, 1252.243
214.0612, 1250.676
214.5433, 1248.801
215.0254, 1247.726
215.5075, 1247.691
215.9896, 1248.003
216.4717, 1247.648
216.9539, 1246.084
217.4360, 1245.170
217.9181, 1245.527
218.4002, 1246.251
218.8823, 1246.404
219.3644, 1245.757
219.8466, 1244.831
220.3287, 1244.336
220.8108, 1244.349
221.2929, 1244.336
221.7750, 1244.355
222.2571, 1244.270
222.7393, 1243.797
223.2214, 1242.822
223.7035, 1241.822
224.1856, 1241.541
224.6677, 1241.919
225.1498, 1242.101
225.6320, 1241.823
226.1141, 1241.228
226.5962, 1240.569
227.0783, 1239.919
227.5604, 1239.100
228.0425, 1237.511
228.5247, 1235.417
229.0068, 1234.108
229.4889, 1234.807
229.9710, 1236.583
230.4531, 1237.274
230.9352, 1236.320
231.4174, 1234.982
231.8995, 1234.022
232.3816, 1233.424
232.8637, 1233.227
233.3458, 1233.576
233.8279, 1234.350
234.3101, 1235.323
234.7922, 1237.024
235.2743, 1237.925
235.7564, 1236.582
236.2385, 1233.928
236.7206, 1231.855
237.2028, 1231.704
237.6849, 1233.010
238.1670, 1233.821
238.6491, 1234.116
239.1312, 1233.857
239.6133, 1232.690
240.0955, 1231.092
240.5776, 1229.865
241.0597, 1229.572
241.5418, 1230.006
242.0239, 1230.154
242.5060, 1229.811
242.9882, 1229.445
243.4703, 1229.421
243.9524, 1229.420
244.4345, 1228.861
244.9166, 1227.266
245.3987, 1225.015
245.8809, 1223.986
246.3630, 1225.320
246.8451, 1226.480
247.3272, 1227.151
247.8093, 1227.300
248.2914, 1226.820
248.7736, 1225.615
249.2557, 1223.894
249.7378, 1222.520
250.2199, 1221.854
250.7020, 1221.108
251.1841, 1219.961
251.6663, 1218.756
252.1484, 1217.985
252.6305, 1217.892
253.1126, 1218.210
253.5947, 1218.083
254.0768, 1217.174
254.5590, 1216.182
255.0411, 1214.776
255.5232, 1213.459
256.0053, 1212.854
256.4874, 1213.227
256.9695, 1214.212
257.4517, 1214.924
257.9338, 1215.502
258.4159, 1215.570
258.8980, 1214.706
259.3801, 1213.507
259.8622, 1212.596
260.3444, 1212.184
260.8265, 1212.036
261.3086, 1211.694
261.7907, 1210.557
262.2728, 1210.229
262.7549, 1211.576
263.2371, 1213.318
263.7192, 1214.027
264.2013, 1213.346
264.6834, 1212.217
265.1655, 1212.112
265.6476, 1213.831
266.1298, 1214.590
266.6119, 1213.379
267.0940, 1211.720
267.5761, 1211.148
268.0582, 1211.939
268.5403, 1213.138
269.0225, 1213.688
269.5046, 1213.469
269.9867, 1212.932
270.4688, 1211.534
270.9509, 1210.177
271.4330, 1209.860
271.9152, 1210.646
272.3973, 1211.459
272.8794, 1211.151
273.3615, 1209.621
273.8436, 1208.801
274.3257, 1208.921
274.8079, 1209.609
275.2900, 1210.836
275.7721, 1212.530
276.2542, 1214.051
276.7363, 1214.950
277.2184, 1215.188
277.7006, 1215.167
278.1827, 1214.588
278.6648, 1213.984
279.1469, 1213.761
279.6290, 1213.885
280.1111, 1214.021
280.5933, 1213.895
281.0754, 1213.671
281.5575, 1213.856
282.0396, 1214.826
282.5217, 1215.752
283.0038, 1216.095
283.4860, 1215.936
283.9681, 1215.665
284.4502, 1215.369
284.9323, 1215.148
285.4144, 1215.195
285.8965, 1215.599
286.3787, 1216.032
286.8608, 1216.208
287.3429, 1216.238
287.8250, 1216.587
288.3071, 1217.571
288.7892, 1218.714
289.2714, 1219.282
289.7535, 1219.216
290.2356, 1219.155
290.7177, 1219.504
291.1998, 1220.085
291.6819, 1220.429
292.1641, 1220.406
292.6462, 1220.165
293.1283, 1219.791
293.6104, 1219.305
294.0925, 1218.910
294.5746, 1218.768
295.0568, 1218.761
295.5389, 1218.682
296.0210, 1218.535
296.5031, 1218.239
296.9852, 1217.438
297.4673, 1216.374
297.9495, 1215.784
298.4316, 1216.527
298.9137, 1217.645
299.3958, 1217.404
299.8779, 1215.421
300.3600, 1213.775
300.8422, 1214.596
301.3243, 1216.598
301.8064, 1217.545
302.2885, 1216.531
302.7706, 1214.680
303.2527, 1213.070
303.7349, 1211.679
304.2170, 1210.780
304.6991, 1210.881
305.1812, 1211.386
305.6633, 1211.483
306.1454, 1210.996
306.6276, 1210.293
307.1097, 1209.621
307.5918, 1208.987
308.0739, 1208.474
308.5560, 1208.193
309.0381, 1207.984
309.5203, 1207.691
310.0024, 1207.311
310.4845, 1206.805
310.9666, 1206.077
311.4487, 1205.172
311.9308, 1204.286
312.4130, 1203.357
312.8951, 1202.615
313.3772, 1202.332
313.8593, 1202.440
314.3414, 1202.533
314.8235, 1202.535
315.3057, 1202.366
315.7878, 1201.743
316.2699, 1200.473
316.7520, 1199.156
317.2341, 1198.370
317.7162, 1197.886
318.1984, 1197.183
318.6805, 1195.765
319.1626, 1194.174
319.6447, 1193.411
320.1268, 1193.662
320.6089, 1193.821
321.0911, 1193.024
321.5732, 1191.815
322.0553, 1190.907
322.5374, 1190.406
323.0195, 1190.305
323.5016, 1191.004
323.9838, 1192.522
324.4659, 1193.127
324.9480, 1191.698
325.4301, 1189.282
325.9122, 1186.942
326.3943, 1184.549
326.8765, 1183.111
327.3586, 1184.251
327.8407, 1187.345
328.3228, 1188.761
328.8049, 1187.019
329.2870, 1184.204
329.7692, 1182.399
330.2513, 1181.530
330.7334, 1180.932
331.2155, 1180.296
331.6976, 1179.704
332.1797, 1179.453
332.6619, 1179.752
333.1440, 1179.887
333.6261, 1178.903
334.1082, 1177.268
334.5903, 1176.118
335.0724, 1176.073
335.5546, 1176.560
336.0367, 1176.965
336.5188, 1177.303
337.0009, 1177.343
337.4830, 1176.762
337.9651, 1175.842
338.4473, 1175.095
338.9294, 1174.533
339.4115, 1174.231
339.8936, 1174.472
340.3757, 1175.156
340.8578, 1175.483
341.3400, 1175.067
341.8221, 1174.222
342.3042, 1173.392
342.7863, 1172.533
343.2684, 1171.887
343.7505, 1171.766
344.2327, 1171.936
344.7148, 1171.836
345.1969, 1171.323
345.6790, 1170.579
346.1611, 1169.533
346.6432, 1168.260
347.1254, 1167.603
347.6075, 1168.458
348.0896, 1169.719
348.5717, 1169.906
349.0538, 1168.865
349.5359, 1167.621
350.0181, 1166.838
350.5002, 1166.488
350.9823, 1166.300
351.4644, 1165.965
351.9465, 1166.047
352.4286, 1167.661
352.9108, 1170.315
353.3929, 1171.467
353.8750, 1169.357
354.3571, 1165.498
354.8392, 1163.709
355.3214, 1164.566
355.8035, 1165.785
356.2856, 1167.205
356.7677, 1168.326
357.2498, 1167.915
357.7319, 1165.429
358.2141, 1162.424
358.6962, 1161.102
359.1783, 1161.739
359.6604, 1162.271
360.1425, 1162.551
360.6246, 1162.584
361.1068, 1162.205
361.5889, 1161.456
362.0710, 1160.897
362.5531, 1161.102
363.0352, 1162.048
363.5173, 1162.375
363.9995, 1161.970
364.4816, 1161.134
364.9637, 1159.532
365.4458, 1157.578
365.9279, 1156.293
366.4100, 1156.241
366.8922, 1157.126
367.3743, 1158.031
367.8564, 1158.916
368.3385, 1159.864
368.8206, 1161.362
369.3027, 1162.720
369.7849, 1162.997
370.2670, 1161.962
370.7491, 1160.294
371.2312, 1158.919
371.7133, 1157.986
372.1954, 1156.922
372.6776, 1155.339
373.1597, 1153.962
373.6418, 1153.303
374.1239, 1153.299
374.6060, 1153.531
375.0881, 1153.669
375.5703, 1153.724
376.0524, 1153.990
376.5345, 1155.041
377.0166, 1155.661
377.4987, 1155.396
377.9808, 1154.580
378.4630, 1153.653
378.9451, 1152.816
379.4272, 1152.088
379.9093, 1151.488
380.3914, 1150.845
380.8735, 1150.666
381.3557, 1151.789
381.8378, 1152.753
382.3199, 1152.025
382.8020, 1149.659
383.2841, 1147.347
383.7662, 1147.109
384.2484, 1149.296
384.7305, 1151.053
385.2126, 1152.413
385.6947, 1153.266
386.1768, 1153.329
386.6589, 1152.850
387.1411, 1152.272
387.6232, 1151.831
388.1053, 1151.520
388.5874, 1151.336
389.0695, 1151.411
389.5516, 1151.363
390.0338, 1151.229
390.5159, 1150.891
390.9980, 1150.053
391.4801, 1148.649
391.9622, 1147.354
392.4443, 1147.236
392.9265, 1148.485
393.4086, 1149.074
393.8907, 1148.065
394.3728, 1146.984
394.8549, 1146.933
395.3370, 1147.658
395.8192, 1148.066
396.3013, 1147.248
396.7834, 1145.586
397.2655, 1144.343
397.7476, 1143.605
398.2297, 1143.072
398.7119, 1142.501
399.1940, 1142.060
399.6761, 1142.099
400.1582, 1142.940
400.6403, 1143.745
401.1224, 1143.621
401.6046, 1142.602
402.0867, 1141.312
402.5688, 1139.741
403.0509, 1138.178
403.5330, 1136.906
404.0151, 1135.915
404.4973, 1135.204
404.9794, 1134.943
405.4615, 1134.911
405.9436, 1134.721
406.4257, 1134.322
406.9078, 1133.833
407.3900, 1133.256
407.8721, 1132.661
408.3542, 1132.333
408.8363, 1132.841
409.3184, 1133.137
409.8005, 1132.280
410.2827, 1130.586
410.7648, 1129.183
411.2469, 1128.590
411.7290, 1128.520
412.2111, 1128.435
412.6932, 1128.653
413.1754, 1128.113
413.6575, 1125.833
414.1396, 1123.132
414.6217, 1121.386
415.1038, 1120.822
415.5859, 1120.853
416.0681, 1120.995
416.5502, 1121.288
417.0323, 1121.126
417.5144, 1120.116
417.9965, 1119.137
418.4786, 1118.680
418.9608, 1118.501
419.4429, 1117.970
419.9250, 1116.733
420.4071, 1115.239
420.8892, 1114.799
421.3713, 1116.827
421.8535, 1117.762
422.3356, 1117.179
422.8177, 1115.789
423.2998, 1113.734
423.7819, 1111.272
424.2640, 1109.162
424.7462, 1108.310
425.2283, 1108.825
425.7104, 1108.891
426.1925, 1107.912
426.6746, 1107.115
427.1567, 1107.041
427.6389, 1107.331
428.1210, 1107.422
428.6031, 1107.035
429.0852, 1106.352
429.5673, 1105.773
430.0494, 1105.384
430.5316, 1104.794
431.0137, 1103.625
431.4958, 1102.427
431.9779, 1101.584
432.4600, 1101.108
432.9421, 1100.720
433.4243, 1100.340
433.9064, 1099.901
434.3885, 1099.031
434.8706, 1097.494
435.3527, 1096.026
435.8348, 1095.336
436.3170, 1094.991
436.7991, 1094.210
437.2812, 1092.515
437.7633, 1090.729
438.2454, 1089.729
438.7275, 1089.391
439.2097, 1088.846
439.6918, 1087.669
440.1739, 1086.354
440.6560, 1085.675
441.1381, 1085.635
441.6202, 1085.712
442.1024, 1085.964
442.5845, 1086.147
443.0666, 1085.938
443.5487, 1085.325
444.0308, 1084.571
444.5129, 1083.866
444.9951, 1083.197
445.4772, 1082.424
445.9593, 1081.406
446.4414, 1080.471
446.9235, 1079.847
447.4056, 1079.335
447.8878, 1078.604
448.3699, 1077.547
448.8520, 1076.357
449.3341, 1075.340
449.8162, 1074.638
450.2983, 1073.706
450.7805, 1072.062
451.2626, 1070.666
451.7447, 1070.103
452.2268, 1070.222
452.7089, 1070.579
453.1910, 1070.926
453.6732, 1071.181
454.1553, 1070.980
454.6374, 1070.203
455.1195, 1069.128
455.6016, 1067.342
456.0837, 1065.612
456.5659, 1064.718
457.0480, 1064.738
457.5301, 1064.973
458.0122, 1064.542
458.4943, 1063.467
458.9764, 1063.158
459.4586, 1064.333
459.9407, 1065.255
460.4228, 1064.958
460.9049, 1063.836
461.3870, 1062.534
461.8691, 1061.163
462.3513, 1059.890
462.8334, 1058.907
463.3155, 1058.215
463.7976, 1057.841
464.2797, 1058.009
464.7618, 1058.248
465.2440, 1057.883
465.7261, 1056.904
466.2082, 1056.064
466.6903, 1055.740
467.1724, 1055.620
467.6545, 1055.239
468.1367, 1054.591
468.6188, 1054.223
469.1009, 1054.714
469.5830, 1055.727
470.0651, 1055.549
470.5472, 1052.926
471.0294, 1050.873
471.5115, 1050.174
471.9936, 1050.452
472.4757, 1051.705
472.9578, 1053.787
473.4399, 1055.437
473.9221, 1054.995
474.4042, 1051.945
474.8863, 1049.762
475.3684, 1048.792
475.8505, 1048.183
476.3326, 1047.594
476.8148, 1047.159
477.2969, 1047.291
477.7790, 1048.215
478.2611, 1049.405
478.7432, 1049.676
479.2253, 1048.676
479.7075, 1047.759
480.1896, 1047.074
480.6717, 1046.520
481.1538, 1046.133
481.6359, 1045.856
482.1180, 1045.486
482.6002, 1044.645
483.0823, 1043.686
483.5644, 1043.933
484.0465, 1045.939
484.5286, 1047.070
485.0107, 1044.818
485.4929, 1041.763
485.9750, 1041.327
486.4571, 1044.395
486.9392, 1047.253
487.4213, 1047.067
487.9034, 1045.133
488.3856, 1044.372
488.8677, 1045.309
489.3498, 1046.872
489.8319, 1048.420
490.3140, 1049.849
490.7961, 1050.456
491.2783, 1049.699
491.7604, 1048.708
492.2425, 1047.628
492.7246, 1046.745
493.2067, 1046.663
493.6888, 1047.595
494.1710, 1049.037
494.6531, 1050.258
495.1352, 1051.351
495.6173, 1051.876
496.0994, 1051.242
496.5815, 1050.700
497.0637, 1051.016
497.5458, 1051.887
498.0279, 1052.571
498.5100, 1052.636
498.9921, 1052.315
499.4742, 1052.108
499.9564, 1051.818
500.4385, 1052.155
500.9206, 1054.132
501.4027, 1056.028
501.8848, 1056.570
502.3669, 1055.901
502.8491, 1055.225
503.3312, 1055.350
503.8133, 1056.074
504.2954, 1057.004
504.7775, 1058.278
505.2596, 1059.094
505.7418, 1058.747
506.2239, 1057.898
506.7060, 1057.462
507.1881, 1057.516
507.6702, 1057.872
508.1523, 1058.596
508.6345, 1059.511
509.1166, 1060.395
509.5987, 1061.218
510.0808, 1061.812
510.5629, 1062.050
511.0450, 1061.927
511.5272, 1061.515
512.0093, 1060.312
512.4914, 1059.444
512.9735, 1059.294
513.4556, 1059.636
513.9377, 1060.352
514.4199, 1061.339
514.9020, 1062.198
515.3841, 1062.396
515.8662, 1061.844
516.3483, 1061.253
516.8304, 1060.592
517.3126, 1059.929
517.7947, 1059.140
518.2768, 1058.407
518.7589, 1058.016
519.2410, 1058.086
519.7231, 1058.388
520.2053, 1058.509
520.6874, 1058.406
521.1695, 1058.823
521.6516, 1060.433
522.1337, 1061.821
522.6158, 1061.961
523.0980, 1061.142
523.5801, 1060.153
524.0622, 1058.950
524.5443, 1058.020
525.0264, 1057.963
525.5085, 1058.689
525.9907, 1059.817
526.4728, 1061.469
526.9549, 1062.920
527.4370, 1062.819
527.9191, 1060.813
528.4012, 1059.653
528.8834, 1060.466
529.3655, 1061.483
529.8476, 1061.397
530.3297, 1060.450
530.8118, 1059.515
531.2939, 1059.044
531.7761, 1058.973
532.2582, 1059.174
532.7403, 1059.868
533.2224, 1060.401
533.7045, 1060.171
534.1866, 1060.284
534.6688, 1061.900
535.1509, 1064.499
535.6330, 1066.444
536.1151, 1066.537
536.5972, 1065.426
537.0793, 1064.749
537.5615, 1064.495
538.0436, 1064.775
538.5257, 1066.245
539.0078, 1067.802
539.4899, 1068.361
539.9720, 1067.953
540.4542, 1067.625
540.9363, 1068.220
541.4184, 1069.040
541.9005, 1068.915
542.3826, 1067.863
542.8647, 1066.902
543.3469, 1066.396
543.8290, 1066.488
544.3111, 1067.800
544.7932, 1071.330
545.2753, 1073.553
545.7574, 1073.001
546.2396, 1071.638
546.7217, 1071.046
547.2038, 1071.295
547.6859, 1071.677
548.1680, 1071.648
548.6501, 1071.442
549.1323, 1072.203
549.6144, 1074.865
550.0965, 1076.863
550.5786, 1077.400
551.0607, 1077.672
551.5428, 1078.460
552.0250, 1079.844
552.5071, 1081.605
552.9892, 1084.165
553.4713, 1086.797
553.9534, 1086.879
554.4355, 1083.746
554.9177, 1081.461
555.3998, 1082.060
555.8819, 1084.067
556.3640, 1085.434
556.8461, 1086.058
557.3282, 1086.665
557.8104, 1087.893
558.2925, 1089.047
558.7746, 1088.855
559.2567, 1087.502
559.7388, 1086.865
560.2209, 1088.159
560.7031, 1090.836
561.1852, 1093.157
561.6673, 1095.739
562.1494, 1097.039
562.6315, 1095.590
563.1136, 1093.989
563.5958, 1094.326
564.0779, 1096.371
564.5600, 1098.554
565.0421, 1099.789
565.5242, 1100.304
566.0063, 1100.778
566.4885, 1101.046
566.9706, 1101.741
567.4527, 1103.852
567.9348, 1105.801
568.4169, 1106.035
568.8990, 1104.801
569.3812, 1104.228
569.8633, 1106.004
570.3454, 1108.787
570.8275, 1110.840
571.3096, 1112.147
571.7917, 1112.674
572.2739, 1112.156
572.7560, 1111.266
573.2381, 1111.220
573.7202, 1112.167
574.2023, 1113.320
574.6844, 1114.758
575.1666, 1116.261
575.6487, 1117.730
576.1308, 1119.137
576.6129, 1120.435
577.0950, 1121.598
577.5771, 1122.692
578.0593, 1123.957
578.5414, 1125.738
579.0235, 1126.729
579.5056, 1125.728
579.9877, 1124.977
580.4698, 1125.602
580.9520, 1127.263
581.4341, 1129.132
581.9162, 1130.999
582.3983, 1132.568
582.8804, 1133.302
583.3625, 1133.274
583.8447, 1133.248
584.3268, 1133.364
584.8089, 1133.603
585.2910, 1133.872
585.7731, 1134.207
586.2552, 1134.962
586.7374, 1136.671
587.2195, 1138.289
587.7016, 1138.969
588.1837, 1139.266
588.6658, 1140.213
589.1479, 1142.101
589.6301, 1144.394
590.1122, 1146.602
590.5943, 1148.855
591.0764, 1149.662
591.5585, 1146.863
592.0406, 1145.132
592.5228, 1146.380
593.0049, 1148.889
593.4870, 1150.637
593.9691, 1151.107
594.4512, 1151.153
594.9333, 1151.646
595.4155, 1152.413
595.8976, 1152.557
596.3797, 1151.851
596.8618, 1151.336
597.3439, 1151.782
597.8260, 1152.780
598.3082, 1153.281
598.7903, 1153.078
