##NAMES=Stillwellite-(Ce)
##RRUFFID=R060899
##IDEAL CHEMISTRY=CeBSiO_5_
##LOCALITY=Dara-i-Pioz, Alayskiy Range, South Tien- Shan Mountains, Tajikistan
##OWNER=RRUFF
##SOURCE=Michael Scott
##DESCRIPTION=Red or green (depending upon light source) hexagonal prism associated with aegirine and orthoclase
##STATUS=The identification of this mineral has been made only by X-ray diffraction.
##URL=rruff.info/R060899
169.2525, 9174.073
169.7346, 9134.824
170.2168, 9141.733
170.6989, 9166.352
171.1810, 9179.378
171.6631, 9170.631
172.1452, 9161.119
172.6273, 9172.559
173.1095, 9199.820
173.5916, 9224.281
174.0737, 9231.943
174.5558, 9230.029
175.0379, 9230.018
175.5201, 9239.502
176.0022, 9245.429
176.4843, 9220.701
176.9664, 9170.378
177.4485, 9134.544
177.9306, 9162.248
178.4128, 9226.657
178.8949, 9270.510
179.3770, 9262.241
179.8591, 9232.583
180.3412, 9232.520
180.8233, 9262.238
181.3055, 9297.522
181.7876, 9317.056
182.2697, 9323.854
182.7518, 9328.676
183.2339, 9335.286
183.7160, 9342.590
184.1982, 9348.010
184.6803, 9351.442
185.1624, 9353.087
185.6445, 9355.054
186.1266, 9356.360
186.6087, 9351.365
187.0908, 9329.618
187.5730, 9297.695
188.0551, 9282.451
188.5372, 9285.336
189.0193, 9301.577
189.5014, 9335.329
189.9835, 9385.480
190.4657, 9417.619
190.9478, 9397.552
191.4299, 9335.166
191.9120, 9310.536
192.3941, 9337.993
192.8762, 9386.760
193.3584, 9396.834
193.8405, 9366.319
194.3226, 9335.558
194.8047, 9336.815
195.2868, 9368.395
195.7689, 9375.374
196.2511, 9345.193
196.7332, 9294.955
197.2153, 9266.067
197.6974, 9259.291
198.1795, 9268.063
198.6616, 9295.970
199.1438, 9345.292
199.6259, 9376.095
200.1080, 9375.756
200.5901, 9356.212
201.0722, 9365.523
201.5543, 9411.690
202.0364, 9457.731
202.5186, 9466.415
203.0007, 9430.021
203.4828, 9413.098
203.9649, 9433.950
204.4470, 9484.440
204.9291, 9511.751
205.4113, 9509.994
205.8934, 9498.948
206.3755, 9498.640
206.8576, 9512.980
207.3397, 9518.603
207.8218, 9507.040
208.3040, 9479.940
208.7861, 9463.389
209.2682, 9460.197
209.7503, 9463.586
210.2324, 9467.303
210.7145, 9472.065
211.1967, 9476.422
211.6788, 9481.768
212.1609, 9488.688
212.6430, 9486.088
213.1251, 9469.153
213.6072, 9449.551
214.0894, 9442.953
214.5715, 9454.720
215.0536, 9464.997
215.5357, 9463.889
216.0178, 9447.258
216.4999, 9454.854
216.9820, 9499.464
217.4642, 9554.994
217.9463, 9581.767
218.4284, 9566.141
218.9105, 9550.290
219.3926, 9549.237
219.8747, 9567.722
220.3569, 9578.023
220.8390, 9578.548
221.3211, 9572.088
221.8032, 9560.108
222.2853, 9532.015
222.7674, 9519.772
223.2496, 9540.995
223.7317, 9613.864
224.2138, 9659.636
224.6959, 9666.160
225.1780, 9652.594
225.6601, 9659.758
226.1423, 9701.500
226.6244, 9740.532
227.1065, 9760.067
227.5886, 9749.499
228.0707, 9746.470
228.5528, 9752.310
229.0350, 9764.976
229.5171, 9779.820
229.9992, 9798.792
230.4813, 9816.872
230.9634, 9829.883
231.4455, 9828.160
231.9276, 9844.679
232.4098, 9890.296
232.8919, 9952.861
233.3740, 9993.031
233.8561, 10000.48
234.3382, 10001.29
234.8203, 10006.59
235.3025, 10014.03
235.7846, 10032.03
236.2667, 10065.88
236.7488, 10110.53
237.2309, 10146.82
237.7130, 10171.62
238.1952, 10192.14
238.6773, 10210.14
239.1594, 10217.29
239.6415, 10240.14
240.1236, 10284.49
240.6057, 10346.04
241.0879, 10408.33
241.5700, 10474.82
242.0521, 10536.65
242.5342, 10586.31
243.0163, 10609.86
243.4984, 10649.88
243.9806, 10709.54
244.4627, 10787.41
244.9448, 10880.44
245.4269, 11005.70
245.9090, 11123.29
246.3911, 11207.90
246.8732, 11237.92
247.3554, 11278.99
247.8375, 11335.20
248.3196, 11405.72
248.8017, 11489.76
249.2838, 11597.26
249.7659, 11703.67
250.2481, 11795.18
250.7302, 11869.43
251.2123, 11934.86
251.6944, 11991.29
252.1765, 12039.70
252.6586, 12087.49
253.1408, 12141.70
253.6229, 12187.03
254.1050, 12213.76
254.5871, 12217.18
255.0692, 12214.16
255.5513, 12207.12
256.0334, 12195.31
256.5156, 12174.08
256.9977, 12145.50
257.4798, 12103.79
257.9619, 12039.77
258.4440, 11934.55
258.9261, 11854.71
259.4083, 11814.39
259.8904, 11804.96
260.3725, 11778.88
260.8546, 11726.48
261.3367, 11671.82
261.8188, 11632.07
262.3010, 11612.48
262.7831, 11590.44
263.2652, 11561.73
263.7473, 11528.43
264.2294, 11499.51
264.7115, 11475.02
265.1937, 11455.12
265.6758, 11441.88
266.1579, 11438.66
266.6400, 11430.68
267.1221, 11416.36
267.6042, 11396.31
268.0864, 11371.16
268.5685, 11336.13
269.0506, 11306.62
269.5327, 11294.03
270.0148, 11301.12
270.4969, 11315.23
270.9791, 11340.02
271.4612, 11369.97
271.9433, 11377.39
272.4254, 11353.60
272.9075, 11332.14
273.3896, 11338.34
273.8718, 11376.30
274.3539, 11414.54
274.8360, 11448.35
275.3181, 11480.92
275.8002, 11528.09
276.2823, 11595.71
276.7645, 11655.78
277.2466, 11681.84
277.7287, 11668.20
278.2108, 11677.66
278.6929, 11722.85
279.1750, 11790.38
279.6572, 11842.52
280.1393, 11876.24
280.6214, 11909.77
281.1035, 11955.88
281.5856, 12014.60
282.0677, 12073.76
282.5499, 12133.40
283.0320, 12191.09
283.5141, 12236.60
283.9962, 12267.93
284.4783, 12306.94
284.9604, 12372.34
285.4425, 12462.75
285.9247, 12548.23
286.4068, 12625.37
286.8889, 12697.07
287.3710, 12761.61
287.8531, 12818.78
288.3352, 12890.51
288.8174, 12995.51
289.2995, 13129.15
289.7816, 13264.89
290.2637, 13398.48
290.7458, 13530.58
291.2279, 13660.35
291.7101, 13787.69
292.1922, 13913.75
292.6743, 14035.17
293.1564, 14154.58
293.6385, 14279.48
294.1206, 14409.67
294.6028, 14545.44
295.0849, 14696.74
295.5670, 14859.81
296.0491, 15011.59
296.5312, 15125.66
297.0133, 15220.13
297.4955, 15339.60
297.9776, 15489.13
298.4597, 15646.44
298.9418, 15784.88
299.4239, 15907.97
299.9060, 16025.43
300.3882, 16148.60
300.8703, 16266.55
301.3524, 16357.46
301.8345, 16418.33
302.3166, 16461.25
302.7987, 16493.07
303.2809, 16514.95
303.7630, 16531.41
304.2451, 16543.28
304.7272, 16550.12
305.2093, 16556.16
305.6914, 16562.31
306.1736, 16549.64
306.6557, 16491.57
307.1378, 16405.31
307.6199, 16321.19
308.1020, 16264.96
308.5841, 16207.58
309.0663, 16122.02
309.5484, 16007.09
310.0305, 15884.48
310.5126, 15767.13
310.9947, 15649.59
311.4768, 15526.56
311.9590, 15390.21
312.4411, 15252.27
312.9232, 15122.72
313.4053, 15000.40
313.8874, 14877.53
314.3695, 14749.83
314.8517, 14617.42
315.3337, 14479.92
315.8159, 14350.24
316.2980, 14204.08
316.7801, 14019.96
317.2622, 13804.37
317.7443, 13593.39
318.2264, 13391.06
318.7086, 13206.75
319.1907, 13048.87
319.6728, 12947.77
320.1549, 12839.87
320.6370, 12696.90
321.1191, 12529.85
321.6013, 12380.55
322.0834, 12276.56
322.5655, 12182.43
323.0476, 12079.63
323.5297, 11960.44
324.0118, 11839.44
324.4940, 11710.04
324.9761, 11579.20
325.4582, 11465.96
325.9403, 11377.72
326.4224, 11303.16
326.9045, 11238.18
327.3867, 11188.94
327.8688, 11137.66
328.3509, 11089.72
328.8330, 11038.81
329.3151, 10971.45
329.7972, 10857.03
330.2794, 10759.32
330.7615, 10700.03
331.2436, 10693.88
331.7257, 10679.23
332.2078, 10651.79
332.6899, 10618.39
333.1721, 10589.27
333.6542, 10570.96
334.1363, 10546.17
334.6184, 10505.64
335.1005, 10446.61
335.5826, 10408.45
336.0648, 10397.62
336.5469, 10400.01
337.0290, 10402.27
337.5111, 10406.73
337.9932, 10403.04
338.4753, 10386.62
338.9575, 10358.83
339.4396, 10332.29
339.9217, 10304.90
340.4038, 10283.23
340.8859, 10271.03
341.3680, 10267.77
341.8502, 10282.95
342.3323, 10327.26
342.8144, 10386.57
343.2965, 10408.01
343.7786, 10387.77
344.2607, 10361.79
344.7429, 10355.58
345.2250, 10368.08
345.7071, 10385.75
346.1892, 10408.99
346.6713, 10433.79
347.1534, 10453.17
347.6355, 10467.23
348.1176, 10479.88
348.5998, 10484.93
349.0819, 10489.72
349.5640, 10521.00
350.0461, 10587.35
350.5282, 10659.18
351.0103, 10690.52
351.4925, 10693.83
351.9746, 10714.22
352.4567, 10794.76
352.9388, 10898.83
353.4209, 10971.83
353.9030, 11008.96
354.3852, 11036.32
354.8673, 11071.59
355.3494, 11113.59
355.8315, 11160.06
356.3136, 11217.30
356.7957, 11274.47
357.2779, 11315.67
357.7600, 11342.01
358.2421, 11380.82
358.7242, 11469.51
359.2063, 11571.70
359.6884, 11648.22
360.1706, 11649.63
360.6527, 11658.13
361.1348, 11717.16
361.6169, 11819.43
362.0990, 11923.33
362.5811, 12021.78
363.0633, 12111.56
363.5454, 12189.89
364.0275, 12248.76
364.5096, 12306.64
364.9917, 12370.20
365.4738, 12436.04
365.9560, 12495.59
366.4381, 12549.58
366.9202, 12594.63
367.4023, 12626.86
367.8844, 12632.60
368.3665, 12655.74
368.8487, 12715.26
369.3308, 12789.61
369.8129, 12844.85
370.2950, 12864.07
370.7771, 12884.96
371.2592, 12918.14
371.7414, 12965.69
372.2235, 13008.75
372.7056, 13047.47
373.1877, 13081.26
373.6698, 13109.01
374.1519, 13129.91
374.6341, 13145.69
375.1162, 13156.91
375.5983, 13163.04
376.0804, 13155.76
376.5625, 13126.40
377.0446, 13104.68
377.5267, 13118.52
378.0089, 13172.24
378.4910, 13221.01
378.9731, 13256.39
379.4552, 13286.91
379.9373, 13335.26
380.4194, 13403.45
380.9016, 13470.70
381.3837, 13516.08
381.8658, 13547.05
382.3479, 13605.62
382.8300, 13695.18
383.3121, 13811.29
383.7943, 13956.45
384.2764, 14124.85
384.7585, 14293.18
385.2406, 14431.07
385.7227, 14566.04
386.2048, 14747.61
386.6870, 14977.23
387.1691, 15223.46
387.6512, 15456.36
388.1333, 15682.86
388.6154, 15918.45
389.0975, 16152.90
389.5797, 16409.71
390.0618, 16708.25
390.5439, 17048.50
391.0260, 17408.52
391.5081, 17784.10
391.9902, 18168.89
392.4724, 18557.69
392.9545, 18921.35
393.4366, 19331.26
393.9187, 19862.61
394.4008, 20462.00
394.8829, 21023.11
395.3651, 21467.44
395.8472, 21895.44
396.3293, 22363.94
396.8114, 22907.67
397.2935, 23402.84
397.7756, 23802.28
398.2578, 24148.75
398.7399, 24505.39
399.2220, 24910.29
399.7041, 25288.83
400.1862, 25631.98
400.6683, 25940.38
401.1505, 26200.68
401.6326, 26436.50
402.1147, 26602.18
402.5968, 26659.00
403.0789, 26576.18
403.5610, 26456.08
404.0432, 26316.54
404.5253, 26148.11
405.0074, 25907.64
405.4895, 25582.39
405.9716, 25215.34
406.4537, 24830.10
406.9359, 24425.61
407.4180, 23988.50
407.9001, 23506.70
408.3822, 23011.77
408.8643, 22553.64
409.3464, 22131.69
409.8285, 21694.55
410.3106, 21205.60
410.7928, 20688.33
411.2749, 20215.31
411.7570, 19786.98
412.2391, 19379.36
412.7212, 18961.28
413.2033, 18538.90
413.6855, 18134.91
414.1676, 17756.77
414.6497, 17398.45
415.1318, 17062.88
415.6139, 16745.61
416.0960, 16441.40
416.5782, 16141.28
417.0603, 15850.01
417.5424, 15577.76
418.0245, 15332.34
418.5066, 15090.16
418.9887, 14824.04
419.4709, 14552.32
419.9530, 14302.98
420.4351, 14101.15
420.9172, 13915.13
421.3993, 13731.86
421.8814, 13549.40
422.3636, 13379.43
422.8457, 13239.24
423.3278, 13105.76
423.8099, 12960.61
424.2920, 12771.59
424.7741, 12603.38
425.2563, 12473.27
425.7384, 12374.18
426.2205, 12267.98
426.7026, 12149.38
427.1847, 12028.74
427.6668, 11909.12
428.1490, 11779.01
428.6311, 11681.72
429.1132, 11630.67
429.5953, 11601.00
430.0774, 11542.74
430.5595, 11447.90
431.0417, 11356.43
431.5238, 11282.87
432.0059, 11226.57
432.4880, 11181.73
432.9701, 11150.43
433.4522, 11121.73
433.9344, 11083.20
434.4165, 11036.54
434.8986, 10989.64
435.3807, 10942.04
435.8628, 10898.36
436.3449, 10865.71
436.8271, 10844.13
437.3092, 10833.31
437.7913, 10844.99
438.2734, 10863.53
438.7555, 10862.54
439.2376, 10834.26
439.7197, 10804.95
440.2018, 10795.55
440.6840, 10799.90
441.1661, 10807.05
441.6482, 10820.06
442.1303, 10827.83
442.6124, 10817.87
443.0945, 10790.29
443.5767, 10773.06
444.0588, 10779.60
444.5409, 10798.61
445.0230, 10821.58
445.5051, 10847.13
445.9872, 10876.69
446.4694, 10917.31
446.9515, 10963.37
447.4336, 10995.51
447.9157, 10992.56
448.3978, 10997.78
448.8799, 11027.64
449.3621, 11089.48
449.8442, 11148.99
450.3263, 11201.97
450.8084, 11256.62
451.2905, 11316.21
451.7726, 11369.64
452.2548, 11469.97
452.7369, 11650.10
453.2190, 11884.01
453.7011, 12046.64
454.1832, 12127.20
454.6653, 12195.97
455.1475, 12296.58
455.6296, 12427.57
456.1117, 12588.00
456.5938, 12778.23
457.0759, 12992.60
457.5580, 13221.69
458.0402, 13465.95
458.5223, 13725.80
459.0044, 14006.31
459.4865, 14301.77
459.9686, 14612.08
460.4507, 14934.62
460.9329, 15269.07
461.4150, 15606.98
461.8971, 15951.64
462.3792, 16309.50
462.8613, 16677.34
463.3434, 17060.48
463.8256, 17473.12
464.3077, 17900.37
464.7898, 18309.38
465.2719, 18705.18
465.7540, 19063.36
466.2361, 19374.06
466.7183, 19635.31
467.2004, 19863.27
467.6825, 20099.04
468.1646, 20281.13
468.6467, 20348.85
469.1288, 20281.38
469.6110, 20128.04
470.0930, 19884.02
470.5752, 19558.31
471.0573, 19189.07
471.5394, 18768.64
472.0215, 18326.92
472.5036, 17883.47
472.9857, 17439.55
473.4679, 16963.61
473.9500, 16448.69
474.4321, 15928.04
474.9142, 15446.93
475.3963, 15005.12
475.8784, 14598.20
476.3606, 14228.16
476.8427, 13889.44
477.3248, 13583.60
477.8069, 13308.04
478.2890, 13042.25
478.7711, 12766.68
479.2533, 12493.06
479.7354, 12233.30
480.2175, 11981.13
480.6996, 11763.41
481.1817, 11623.94
481.6638, 11531.36
482.1460, 11427.13
482.6281, 11269.07
483.1102, 11111.52
483.5923, 10981.86
484.0744, 10883.04
484.5565, 10782.05
485.0387, 10677.46
485.5208, 10565.75
486.0029, 10442.59
486.4850, 10276.79
486.9671, 10143.86
487.4492, 10063.88
487.9314, 10016.65
488.4135, 9949.240
488.8956, 9855.312
489.3777, 9756.917
489.8598, 9660.031
490.3419, 9565.659
490.8241, 9477.446
491.3062, 9396.665
491.7883, 9318.461
492.2704, 9233.511
492.7525, 9143.854
493.2346, 9063.969
493.7168, 9001.851
494.1989, 8946.766
494.6810, 8877.261
495.1631, 8797.286
495.6452, 8725.534
496.1273, 8686.925
496.6095, 8657.221
497.0916, 8603.321
497.5737, 8521.012
498.0558, 8436.910
498.5379, 8365.534
499.0201, 8304.289
499.5022, 8251.411
499.9843, 8217.993
500.4664, 8180.056
500.9485, 8126.717
501.4306, 8061.369
501.9127, 7998.926
502.3948, 7939.830
502.8770, 7886.263
503.3591, 7839.231
503.8412, 7798.125
504.3233, 7766.116
504.8054, 7751.301
505.2875, 7738.726
505.7697, 7711.399
506.2518, 7664.520
506.7339, 7615.860
507.2160, 7568.234
507.6981, 7521.076
508.1802, 7469.285
508.6624, 7411.305
509.1445, 7363.094
509.6266, 7339.517
510.1087, 7335.016
510.5908, 7326.646
511.0729, 7313.520
511.5551, 7295.938
512.0372, 7276.913
512.5193, 7253.584
513.0014, 7218.276
513.4835, 7150.550
513.9656, 7089.679
514.4478, 7081.441
514.9299, 7111.710
515.4120, 7128.466
515.8941, 7088.839
516.3762, 7040.533
516.8583, 7015.317
517.3405, 7022.605
517.8226, 7027.326
518.3047, 7021.241
518.7868, 7009.214
519.2689, 6996.110
519.7510, 6976.919
520.2332, 6963.854
520.7153, 6960.736
521.1974, 6964.877
521.6795, 6966.709
522.1616, 6967.487
522.6437, 6963.185
523.1259, 6950.695
523.6080, 6929.728
524.0901, 6908.909
524.5722, 6887.174
525.0543, 6869.181
525.5364, 6861.879
526.0186, 6863.300
526.5007, 6863.563
526.9828, 6861.850
527.4649, 6855.197
527.9470, 6836.472
528.4291, 6808.356
528.9113, 6779.917
529.3934, 6754.022
529.8755, 6731.914
530.3576, 6714.213
530.8397, 6701.026
531.3218, 6694.019
531.8040, 6708.069
532.2861, 6721.969
532.7682, 6716.114
533.2503, 6662.075
533.7324, 6617.273
534.2145, 6595.150
534.6967, 6588.267
535.1788, 6576.150
535.6609, 6558.278
536.1430, 6535.957
536.6251, 6507.802
537.1072, 6472.949
537.5894, 6447.015
538.0715, 6430.593
538.5536, 6421.728
539.0357, 6423.230
539.5178, 6434.533
539.9999, 6434.973
540.4821, 6418.896
540.9642, 6396.784
541.4463, 6386.275
541.9284, 6384.444
542.4105, 6378.565
542.8926, 6354.821
543.3748, 6327.915
543.8569, 6317.979
544.3390, 6323.786
544.8211, 6328.758
545.3032, 6315.982
545.7853, 6302.340
546.2675, 6304.667
546.7495, 6337.963
547.2316, 6360.226
547.7137, 6353.850
548.1959, 6331.530
548.6780, 6311.445
549.1601, 6291.388
549.6422, 6278.553
550.1243, 6274.070
550.6064, 6277.845
551.0886, 6291.000
551.5707, 6319.249
552.0528, 6344.687
552.5349, 6356.532
553.0170, 6354.466
553.4991, 6347.264
553.9813, 6332.585
554.4634, 6321.769
554.9455, 6333.314
555.4276, 6362.250
555.9097, 6386.449
556.3918, 6400.754
556.8740, 6406.061
557.3561, 6397.323
557.8382, 6379.108
558.3203, 6366.447
558.8024, 6380.748
559.2845, 6394.102
559.7667, 6382.456
560.2488, 6342.242
560.7309, 6305.744
561.2130, 6289.755
561.6951, 6278.223
562.1772, 6258.684
562.6594, 6231.063
563.1415, 6192.270
563.6236, 6132.291
564.1057, 6065.057
564.5878, 6018.670
565.0699, 6002.495
565.5521, 5983.291
566.0342, 5948.688
566.5163, 5902.526
566.9984, 5868.174
567.4805, 5846.881
567.9626, 5828.770
568.4448, 5809.822
568.9269, 5788.372
569.4090, 5756.072
569.8911, 5710.676
570.3732, 5664.306
570.8553, 5627.404
571.3375, 5598.531
571.8196, 5576.625
572.3017, 5568.156
572.7838, 5558.524
573.2659, 5534.260
573.7480, 5501.365
574.2302, 5478.458
574.7123, 5483.384
575.1944, 5488.835
575.6765, 5482.541
576.1586, 5461.464
576.6407, 5443.745
577.1229, 5431.230
577.6050, 5420.096
578.0871, 5406.789
578.5692, 5389.730
579.0513, 5377.718
579.5334, 5373.792
580.0156, 5371.889
580.4977, 5359.027
580.9798, 5335.950
581.4619, 5316.008
581.9440, 5305.792
582.4261, 5300.881
582.9083, 5293.913
583.3904, 5285.078
583.8725, 5275.632
584.3546, 5268.166
584.8367, 5259.364
585.3188, 5241.438
585.8010, 5209.223
586.2831, 5192.231
586.7652, 5221.123
587.2473, 5263.156
587.7294, 5285.671
588.2115, 5257.133
588.6937, 5241.273
589.1758, 5252.370
589.6579, 5278.154
590.1400, 5288.042
590.6221, 5277.207
591.1042, 5260.916
591.5864, 5240.942
592.0685, 5218.863
592.5506, 5210.778
593.0327, 5217.953
593.5148, 5229.681
593.9969, 5237.898
594.4791, 5243.927
594.9612, 5250.843
595.4433, 5258.399
595.9254, 5270.623
596.4075, 5297.957
596.8896, 5331.314
597.3718, 5355.275
597.8539, 5353.125
598.3360, 5353.302
598.8181, 5378.483
599.3002, 5417.707
599.7823, 5438.570
600.2645, 5418.880
600.7466, 5394.264
601.2287, 5371.849
601.7108, 5350.273
602.1929, 5353.980
602.6750, 5400.023
603.1572, 5444.302
603.6393, 5452.800
604.1214, 5421.996
604.6035, 5394.590
605.0856, 5371.981
605.5677, 5356.596
606.0499, 5353.527
606.5320, 5360.947
607.0141, 5372.186
607.4962, 5393.030
607.9783, 5406.501
608.4604, 5380.566
608.9425, 5328.350
609.4246, 5291.945
609.9067, 5305.408
610.3889, 5329.819
610.8710, 5345.543
611.3531, 5351.181
611.8352, 5345.644
612.3173, 5307.192
612.7994, 5273.878
613.2816, 5270.054
613.7637, 5315.841
614.2458, 5346.539
614.7279, 5359.443
615.2100, 5360.736
615.6921, 5356.390
616.1743, 5345.793
616.6564, 5337.659
617.1385, 5333.682
617.6206, 5333.802
618.1027, 5338.226
618.5848, 5346.751
619.0670, 5358.454
619.5491, 5382.626
620.0312, 5403.552
620.5133, 5396.783
620.9954, 5364.012
621.4775, 5342.314
621.9597, 5361.550
622.4418, 5391.406
622.9239, 5409.566
623.4060, 5403.947
623.8881, 5408.708
624.3702, 5440.917
624.8524, 5476.784
625.3345, 5491.420
625.8166, 5476.516
626.2987, 5460.656
626.7808, 5445.387
627.2629, 5433.292
627.7451, 5431.708
628.2272, 5440.742
628.7093, 5452.397
629.1914, 5465.727
629.6735, 5478.380
630.1556, 5485.336
630.6378, 5486.891
631.1199, 5483.989
631.6020, 5464.404
632.0841, 5448.473
632.5662, 5460.915
633.0483, 5510.804
633.5305, 5550.630
634.0126, 5554.413
634.4947, 5544.023
634.9768, 5538.075
635.4589, 5533.550
635.9410, 5541.176
636.4232, 5567.891
636.9053, 5602.647
637.3874, 5624.692
637.8695, 5630.242
638.3516, 5640.389
638.8337, 5664.318
639.3159, 5694.112
639.7980, 5705.220
640.2801, 5699.246
640.7622, 5696.053
641.2443, 5710.903
641.7264, 5734.155
642.2086, 5751.575
642.6907, 5763.073
643.1728, 5778.418
643.6549, 5808.836
644.1370, 5842.294
644.6191, 5869.015
645.1013, 5882.646
645.5834, 5900.000
646.0655, 5926.018
646.5476, 5955.590
647.0297, 5982.823
647.5118, 6005.305
647.9940, 6031.749
648.4761, 6064.650
648.9582, 6100.703
649.4403, 6134.439
649.9224, 6165.262
650.4045, 6191.758
650.8867, 6210.771
651.3688, 6226.601
651.8509, 6251.649
652.3330, 6283.687
652.8151, 6306.984
653.2972, 6304.642
653.7794, 6294.009
654.2615, 6285.962
654.7436, 6280.899
655.2257, 6288.563
655.7078, 6331.241
656.1899, 6375.558
656.6721, 6395.602
657.1542, 6372.593
657.6363, 6358.734
658.1184, 6351.311
658.6005, 6355.540
659.0826, 6387.481
659.5648, 6451.591
660.0469, 6489.985
660.5290, 6483.013
661.0111, 6454.344
661.4932, 6446.950
661.9753, 6457.068
662.4575, 6469.266
662.9396, 6476.822
663.4217, 6482.578
663.9038, 6486.461
664.3859, 6489.876
664.8680, 6500.215
665.3502, 6532.932
665.8323, 6563.308
