##NAMES=Stilbite-Ca
##RRUFFID=R050012
##IDEAL CHEMISTRY=NaCa_4_(Si_27_Al_9_)O_72_&#183;28H_2_O
##LOCALITY=Harborville, Nova Scotia, Canada
##OWNER=RRUFF
##SOURCE=University of Arizona Mineral Museum
##DESCRIPTION=Globular aggregate of thin tabular white single crystals
##STATUS=The identification of this mineral has been confirmed by X-ray diffraction and chemical analysis
##URL=rruff.info/R050012
##MEASURED CHEMISTRY=(Na_1.50_K_0.03_)_Σ=1.53_Ca_4.15_(Si_26.17_Al_9.83_)O_72_·27.91H_2_O; H_2_O estimated by difference
125.3585, 2399.622
125.8406, 2492.871
126.3227, 2602.724
126.8048, 2715.440
127.2869, 2814.760
127.7690, 2890.269
128.2512, 2949.383
128.7333, 3020.080
129.2154, 3119.032
129.6975, 3209.048
130.1796, 3274.853
130.6617, 3329.446
131.1439, 3392.492
131.6260, 3477.703
132.1081, 3579.979
132.5902, 3659.108
133.0723, 3698.141
133.5544, 3729.585
134.0366, 3759.121
134.5187, 3784.978
135.0008, 3801.869
135.4829, 3805.125
135.9650, 3795.694
136.4471, 3794.068
136.9293, 3798.126
137.4114, 3811.092
137.8935, 3832.701
138.3756, 3863.964
138.8577, 3908.963
139.3398, 3972.948
139.8220, 4056.363
140.3041, 4123.282
140.7862, 4156.200
141.2683, 4193.090
141.7504, 4248.183
142.2325, 4321.227
142.7147, 4405.471
143.1968, 4495.107
143.6789, 4590.781
144.1610, 4710.251
144.6431, 4867.422
145.1252, 5033.020
145.6074, 5201.619
146.0895, 5368.399
146.5716, 5514.623
147.0537, 5625.475
147.5358, 5696.920
148.0179, 5748.370
148.5001, 5770.059
148.9822, 5779.497
149.4643, 5795.073
149.9464, 5816.483
150.4285, 5819.831
150.9106, 5783.550
151.3928, 5707.535
151.8749, 5619.682
152.3570, 5520.220
152.8391, 5410.250
153.3212, 5284.331
153.8033, 5141.712
154.2855, 5001.986
154.7676, 4878.286
155.2497, 4769.935
155.7318, 4675.477
156.2139, 4596.179
156.6960, 4530.057
157.1782, 4474.786
157.6603, 4430.189
158.1424, 4397.516
158.6245, 4388.621
159.1066, 4393.723
159.5887, 4388.727
160.0709, 4356.741
160.5530, 4315.313
161.0351, 4287.725
161.5172, 4274.192
161.9993, 4276.279
162.4814, 4309.962
162.9636, 4359.901
163.4457, 4398.368
163.9278, 4413.303
164.4099, 4411.398
164.8920, 4402.812
165.3741, 4385.809
165.8563, 4366.956
166.3384, 4352.653
166.8205, 4339.290
167.3026, 4320.302
167.7847, 4294.316
168.2668, 4260.540
168.7490, 4215.184
169.2311, 4152.880
169.7132, 4090.540
170.1953, 4038.249
170.6774, 3991.561
171.1595, 3943.644
171.6417, 3890.774
172.1238, 3834.929
172.6059, 3780.404
173.0880, 3725.692
173.5701, 3675.691
174.0522, 3635.018
174.5344, 3598.968
175.0165, 3561.236
175.4986, 3517.504
175.9807, 3470.639
176.4628, 3427.150
176.9449, 3384.814
177.4271, 3350.855
177.9092, 3333.642
178.3913, 3323.815
178.8734, 3308.228
179.3555, 3278.617
179.8376, 3240.565
180.3197, 3210.262
180.8019, 3190.276
181.2840, 3174.239
181.7661, 3160.241
182.2482, 3148.113
182.7303, 3138.313
183.2124, 3131.761
183.6946, 3126.534
184.1767, 3116.456
184.6588, 3097.306
185.1409, 3080.820
185.6230, 3071.717
186.1051, 3066.030
186.5873, 3059.134
187.0694, 3048.771
187.5515, 3036.314
188.0336, 3024.940
188.5157, 3014.227
188.9978, 3005.786
189.4800, 3002.370
189.9621, 3000.075
190.4442, 2995.517
190.9263, 2987.434
191.4084, 2975.064
191.8905, 2954.605
192.3727, 2914.220
192.8548, 2887.567
193.3369, 2885.323
193.8190, 2894.505
194.3011, 2904.133
194.7832, 2909.939
195.2654, 2912.051
195.7475, 2910.291
196.2296, 2902.196
196.7117, 2894.641
197.1938, 2888.469
197.6759, 2883.141
198.1581, 2879.454
198.6402, 2877.491
199.1223, 2874.289
199.6044, 2862.620
200.0865, 2832.434
200.5686, 2814.470
201.0508, 2823.166
201.5329, 2835.558
202.0150, 2832.778
202.4971, 2810.032
202.9792, 2777.965
203.4613, 2752.547
203.9435, 2733.284
204.4256, 2722.882
204.9077, 2728.381
205.3898, 2736.422
205.8719, 2738.661
206.3540, 2733.180
206.8362, 2722.737
207.3183, 2709.746
207.8004, 2690.844
208.2825, 2678.605
208.7646, 2681.299
209.2467, 2683.529
209.7289, 2674.394
210.2110, 2653.876
210.6931, 2631.247
211.1752, 2618.322
211.6573, 2619.590
212.1395, 2614.201
212.6216, 2598.053
213.1037, 2579.344
213.5858, 2558.284
214.0679, 2537.310
214.5500, 2522.286
215.0322, 2520.507
215.5143, 2534.650
215.9964, 2544.331
216.4785, 2549.298
216.9606, 2550.185
217.4427, 2542.671
217.9249, 2530.408
218.4070, 2523.054
218.8891, 2530.806
219.3712, 2554.453
219.8533, 2564.381
220.3354, 2541.826
220.8176, 2523.194
221.2997, 2520.617
221.7818, 2529.595
222.2639, 2540.290
222.7460, 2546.505
223.2281, 2548.179
223.7103, 2544.038
224.1924, 2523.415
224.6745, 2508.573
225.1566, 2507.368
225.6387, 2514.152
226.1208, 2520.577
226.6030, 2521.902
227.0851, 2519.107
227.5672, 2516.256
228.0493, 2513.423
228.5314, 2510.395
229.0135, 2503.986
229.4957, 2498.502
229.9778, 2500.124
230.4599, 2511.890
230.9420, 2528.808
231.4241, 2538.847
231.9062, 2540.608
232.3884, 2536.824
232.8705, 2519.982
233.3526, 2502.886
233.8347, 2498.983
234.3168, 2512.289
234.7989, 2532.060
235.2811, 2538.466
235.7632, 2522.727
236.2453, 2514.550
236.7274, 2520.800
237.2095, 2531.322
237.6916, 2539.244
238.1738, 2543.371
238.6559, 2547.470
239.1380, 2558.824
239.6201, 2582.928
240.1022, 2593.530
240.5843, 2577.743
241.0665, 2558.085
241.5486, 2542.599
242.0307, 2532.928
242.5128, 2528.973
242.9949, 2534.371
243.4770, 2551.026
243.9592, 2553.760
244.4413, 2527.509
244.9234, 2500.717
245.4055, 2482.353
245.8876, 2472.016
246.3697, 2466.479
246.8519, 2463.690
247.3340, 2463.670
247.8161, 2467.427
248.2982, 2481.913
248.7803, 2490.507
249.2624, 2484.013
249.7446, 2469.023
250.2267, 2455.958
250.7088, 2450.023
251.1909, 2449.936
251.6730, 2452.520
252.1551, 2459.505
252.6373, 2465.674
253.1194, 2471.849
253.6015, 2475.499
254.0836, 2472.067
254.5657, 2458.467
255.0478, 2442.785
255.5300, 2439.328
256.0121, 2451.808
256.4942, 2462.486
256.9763, 2467.466
257.4584, 2467.962
257.9406, 2462.010
258.4227, 2448.871
258.9048, 2437.482
259.3869, 2439.377
259.8690, 2455.291
260.3511, 2467.771
260.8333, 2474.181
261.3154, 2475.194
261.7975, 2469.232
262.2796, 2456.958
262.7617, 2446.062
263.2438, 2442.525
263.7260, 2445.326
264.2081, 2448.831
264.6902, 2453.454
265.1723, 2457.153
265.6544, 2459.477
266.1365, 2460.081
266.6187, 2457.427
267.1008, 2445.856
267.5829, 2431.418
268.0650, 2429.320
268.5471, 2444.010
269.0292, 2457.629
269.5114, 2455.712
269.9935, 2444.434
270.4756, 2433.154
270.9577, 2421.853
271.4398, 2413.512
271.9219, 2413.173
272.4041, 2421.085
272.8862, 2428.757
273.3683, 2432.685
273.8504, 2433.218
274.3325, 2431.437
274.8146, 2426.399
275.2968, 2420.828
275.7789, 2415.542
276.2610, 2410.963
276.7431, 2408.924
277.2252, 2410.406
277.7073, 2414.379
278.1895, 2420.069
278.6716, 2428.597
279.1537, 2433.767
279.6358, 2430.789
280.1179, 2423.547
280.6000, 2417.429
281.0822, 2413.047
281.5643, 2413.370
282.0464, 2424.574
282.5285, 2447.879
283.0106, 2465.649
283.4927, 2476.123
283.9749, 2480.075
284.4570, 2475.361
284.9391, 2462.771
285.4212, 2450.737
285.9033, 2446.641
286.3854, 2450.387
286.8676, 2450.646
287.3497, 2447.219
287.8318, 2440.889
288.3139, 2427.228
288.7960, 2410.461
289.2781, 2402.281
289.7603, 2410.130
290.2424, 2429.814
290.7245, 2443.645
291.2066, 2446.782
291.6887, 2450.517
292.1708, 2460.216
292.6530, 2470.106
293.1351, 2472.525
293.6172, 2464.840
294.0993, 2450.549
294.5814, 2434.782
295.0635, 2407.759
295.5457, 2399.511
296.0278, 2428.237
296.5099, 2461.192
296.9920, 2472.734
297.4741, 2461.906
297.9562, 2446.554
298.4384, 2445.284
298.9205, 2460.359
299.4026, 2474.115
299.8847, 2493.156
300.3668, 2504.400
300.8489, 2496.369
301.3311, 2476.979
301.8131, 2463.240
302.2953, 2467.260
302.7774, 2484.941
303.2595, 2494.914
303.7416, 2489.854
304.2237, 2487.703
304.7058, 2493.714
305.1880, 2503.512
305.6701, 2513.223
306.1522, 2521.515
306.6343, 2527.275
307.1164, 2527.220
307.5985, 2518.688
308.0807, 2514.302
308.5628, 2521.314
309.0449, 2529.712
309.5270, 2534.087
310.0091, 2533.807
310.4912, 2530.702
310.9734, 2526.219
311.4555, 2520.303
311.9376, 2511.425
312.4197, 2494.662
312.9018, 2482.270
313.3839, 2483.431
313.8661, 2494.445
314.3482, 2506.008
314.8303, 2517.929
315.3124, 2526.103
315.7945, 2518.385
316.2766, 2490.672
316.7588, 2471.811
317.2409, 2490.173
317.7230, 2523.055
318.2051, 2530.919
318.6872, 2496.985
319.1693, 2458.823
319.6515, 2445.354
320.1336, 2452.082
320.6157, 2459.604
321.0978, 2463.262
321.5799, 2461.956
322.0620, 2450.474
322.5442, 2425.919
323.0263, 2410.211
323.5084, 2417.887
323.9905, 2434.269
324.4726, 2439.763
324.9547, 2431.121
325.4369, 2417.668
325.9190, 2406.957
326.4011, 2399.220
326.8832, 2397.470
327.3653, 2407.987
327.8474, 2418.486
328.3296, 2421.945
328.8117, 2419.519
329.2938, 2415.871
329.7759, 2413.823
330.2580, 2412.499
330.7401, 2407.967
331.2223, 2397.654
331.7044, 2387.259
332.1865, 2376.963
332.6686, 2367.019
333.1507, 2357.038
333.6328, 2347.114
334.1150, 2338.758
334.5971, 2333.833
335.0792, 2331.358
335.5613, 2335.549
336.0434, 2356.089
336.5255, 2373.968
337.0077, 2378.271
337.4898, 2370.656
337.9719, 2358.901
338.4540, 2347.358
338.9361, 2336.928
339.4182, 2336.887
339.9004, 2357.976
340.3825, 2373.531
340.8646, 2374.947
341.3467, 2367.413
341.8288, 2356.085
342.3109, 2341.949
342.7931, 2329.073
343.2752, 2324.881
343.7573, 2330.814
344.2394, 2335.143
344.7215, 2334.092
345.2036, 2331.163
345.6858, 2328.223
346.1679, 2325.498
346.6500, 2325.000
347.1321, 2330.365
347.6142, 2338.893
348.0963, 2341.603
348.5785, 2335.164
349.0606, 2330.679
349.5427, 2342.198
350.0248, 2363.384
350.5069, 2374.820
350.9890, 2363.734
351.4712, 2349.138
351.9533, 2349.378
352.4354, 2361.249
352.9175, 2366.675
353.3996, 2355.129
353.8817, 2334.233
354.3639, 2324.345
354.8460, 2328.348
355.3281, 2334.329
355.8102, 2342.484
356.2923, 2349.987
356.7744, 2350.943
357.2566, 2344.780
357.7387, 2340.771
358.2208, 2351.003
358.7029, 2380.662
359.1850, 2394.921
359.6671, 2379.140
360.1493, 2364.841
360.6314, 2366.906
361.1135, 2381.512
361.5956, 2398.234
362.0777, 2411.022
362.5598, 2421.358
363.0420, 2435.257
363.5241, 2458.890
364.0062, 2475.819
364.4883, 2478.471
364.9704, 2477.937
365.4525, 2484.190
365.9347, 2498.992
366.4168, 2515.937
366.8989, 2528.322
367.3810, 2536.117
367.8631, 2540.345
368.3452, 2531.669
368.8274, 2531.293
369.3095, 2556.317
369.7916, 2597.276
370.2737, 2630.705
370.7558, 2639.999
371.2379, 2640.162
371.7201, 2660.750
372.2022, 2704.849
372.6843, 2738.771
373.1664, 2741.794
373.6485, 2729.954
374.1306, 2726.925
374.6128, 2733.301
375.0949, 2748.784
375.5770, 2781.251
376.0591, 2821.322
376.5412, 2848.033
377.0233, 2855.895
377.5055, 2860.113
377.9876, 2877.648
378.4697, 2910.313
378.9518, 2933.148
379.4339, 2935.311
379.9160, 2937.001
380.3982, 2950.599
380.8803, 2973.742
381.3624, 2997.573
381.8445, 3017.037
382.3266, 3034.813
382.8087, 3059.642
383.2909, 3103.092
383.7730, 3138.135
384.2551, 3160.782
384.7372, 3177.111
385.2193, 3188.960
385.7014, 3198.425
386.1836, 3211.526
386.6657, 3235.453
387.1478, 3270.709
387.6299, 3304.970
388.1120, 3332.645
388.5941, 3366.530
389.0763, 3417.957
389.5584, 3476.341
390.0405, 3523.271
390.5226, 3549.122
391.0047, 3566.975
391.4868, 3596.950
391.9690, 3639.494
392.4511, 3689.521
392.9332, 3752.157
393.4153, 3815.920
393.8974, 3867.736
394.3795, 3907.850
394.8617, 3950.295
395.3438, 4008.005
395.8259, 4070.318
396.3080, 4114.422
396.7901, 4136.841
397.2722, 4167.303
397.7544, 4229.973
398.2365, 4318.686
398.7186, 4397.194
399.2007, 4465.287
399.6828, 4523.037
400.1649, 4563.736
400.6471, 4595.512
401.1292, 4631.162
401.6113, 4675.116
402.0934, 4726.076
402.5755, 4784.105
403.0576, 4855.405
403.5398, 4913.344
404.0219, 4955.681
404.5040, 4989.342
404.9861, 5016.615
405.4682, 5038.362
405.9503, 5055.764
406.4325, 5070.175
406.9146, 5079.540
407.3967, 5073.548
407.8788, 5037.670
408.3609, 5016.704
408.8430, 5039.245
409.3252, 5065.668
409.8073, 5063.307
410.2894, 5027.813
410.7715, 4980.756
411.2536, 4935.130
411.7357, 4892.189
412.2179, 4864.551
412.7000, 4863.738
413.1821, 4852.684
413.6642, 4794.619
414.1463, 4708.553
414.6284, 4631.833
415.1106, 4574.104
415.5927, 4523.618
416.0748, 4476.033
416.5569, 4429.125
417.0390, 4374.768
417.5211, 4309.102
418.0033, 4239.603
418.4854, 4177.106
418.9675, 4123.156
419.4496, 4072.394
419.9317, 4028.657
420.4138, 3985.205
420.8960, 3935.658
421.3781, 3881.827
421.8602, 3830.479
422.3423, 3785.830
422.8244, 3746.657
423.3065, 3707.668
423.7887, 3666.733
424.2708, 3629.384
424.7529, 3600.643
425.2350, 3572.347
425.7171, 3538.361
426.1992, 3497.555
426.6814, 3452.625
427.1635, 3403.745
427.6456, 3351.337
428.1277, 3304.730
428.6098, 3263.319
429.0919, 3229.197
429.5741, 3209.057
430.0562, 3194.972
430.5383, 3174.349
431.0204, 3140.628
431.5025, 3107.596
431.9846, 3089.514
432.4668, 3082.097
432.9489, 3069.816
433.4310, 3048.277
433.9131, 3022.198
434.3952, 2995.052
434.8773, 2966.310
435.3595, 2945.833
435.8416, 2945.290
436.3237, 2943.242
436.8058, 2921.563
437.2879, 2887.412
437.7701, 2860.537
438.2522, 2851.384
438.7343, 2853.521
439.2164, 2850.678
439.6985, 2838.814
440.1806, 2829.094
440.6628, 2823.775
441.1449, 2818.670
441.6270, 2810.436
442.1091, 2799.652
442.5912, 2789.494
443.0733, 2782.527
443.5555, 2778.029
444.0376, 2772.773
444.5197, 2765.546
445.0018, 2760.972
445.4839, 2762.749
445.9660, 2767.123
446.4482, 2770.420
446.9303, 2771.964
447.4124, 2774.190
447.8945, 2779.770
448.3766, 2786.860
448.8587, 2791.219
449.3409, 2792.155
449.8230, 2792.657
450.3051, 2795.651
450.7872, 2800.513
451.2693, 2801.499
451.7514, 2794.991
452.2336, 2789.138
452.7157, 2784.115
453.1978, 2782.256
453.6799, 2790.262
454.1620, 2808.969
454.6441, 2826.315
455.1263, 2825.197
455.6084, 2801.087
456.0905, 2784.227
456.5726, 2784.146
457.0547, 2781.904
457.5368, 2767.768
458.0190, 2748.654
458.5011, 2737.320
458.9832, 2740.433
459.4653, 2746.804
459.9474, 2739.215
460.4295, 2717.473
460.9117, 2696.594
461.3938, 2678.168
461.8759, 2663.201
462.3580, 2656.211
462.8401, 2654.829
463.3222, 2645.469
463.8044, 2617.963
464.2865, 2585.963
464.7686, 2558.717
465.2507, 2537.019
465.7328, 2524.666
466.2149, 2524.952
466.6971, 2529.612
467.1792, 2522.293
467.6613, 2494.875
468.1434, 2472.025
468.6255, 2453.872
469.1076, 2440.008
469.5898, 2432.837
470.0719, 2430.006
470.5540, 2425.379
471.0361, 2414.497
471.5182, 2400.708
472.0003, 2394.487
472.4825, 2399.471
472.9646, 2402.208
473.4467, 2397.766
473.9288, 2391.622
474.4109, 2385.143
474.8930, 2379.295
475.3752, 2378.807
475.8573, 2388.372
476.3394, 2404.206
476.8215, 2420.436
477.3036, 2436.889
477.7857, 2453.949
478.2679, 2471.924
478.7500, 2490.496
479.2321, 2508.889
479.7142, 2525.919
480.1963, 2545.259
480.6784, 2566.897
481.1606, 2591.613
481.6427, 2620.388
482.1248, 2653.139
482.6069, 2688.655
483.0890, 2726.250
483.5711, 2765.923
484.0533, 2808.519
484.5354, 2854.244
485.0175, 2902.988
485.4996, 2955.372
485.9817, 3009.877
486.4638, 3063.352
486.9460, 3116.530
487.4281, 3174.958
487.9102, 3247.152
488.3923, 3327.806
488.8744, 3401.106
489.3565, 3466.471
489.8387, 3526.084
490.3208, 3576.987
490.8029, 3624.564
491.2850, 3680.154
491.7671, 3747.049
492.2492, 3812.501
492.7314, 3878.129
493.2135, 3936.230
493.6956, 3975.619
494.1777, 3996.540
494.6598, 4011.380
495.1419, 4031.110
495.6241, 4051.694
496.1062, 4046.876
496.5883, 4000.324
497.0704, 3949.737
497.5525, 3906.456
498.0346, 3855.562
498.5168, 3778.356
498.9989, 3676.881
499.4810, 3576.741
499.9631, 3503.175
500.4452, 3447.527
500.9273, 3376.505
501.4095, 3286.047
501.8916, 3197.016
502.3737, 3120.246
502.8558, 3048.652
503.3379, 2971.327
503.8200, 2887.157
504.3022, 2802.390
504.7843, 2714.466
505.2664, 2630.201
505.7485, 2559.723
506.2306, 2502.638
506.7127, 2451.654
507.1949, 2401.332
507.6770, 2353.354
508.1591, 2315.963
508.6412, 2302.747
509.1233, 2279.961
509.6054, 2237.181
510.0876, 2191.328
510.5697, 2153.292
511.0518, 2124.341
511.5339, 2101.948
512.0161, 2087.164
512.4982, 2075.848
512.9803, 2053.883
513.4624, 2018.536
513.9445, 1974.825
514.4266, 1974.361
514.9088, 1968.432
515.3909, 1957.340
515.8730, 1925.610
516.3551, 1920.530
516.8372, 1904.769
517.3193, 1888.572
517.8015, 1887.240
518.2836, 1858.510
518.7657, 1856.947
519.2478, 1844.538
519.7299, 1837.093
520.2120, 1818.902
520.6942, 1804.025
521.1763, 1799.904
521.6584, 1789.828
522.1405, 1772.653
522.6226, 1772.239
523.1047, 1778.398
523.5869, 1783.738
524.0690, 1784.372
524.5511, 1782.316
525.0332, 1782.137
525.5153, 1783.785
525.9974, 1778.826
526.4796, 1763.156
526.9617, 1743.664
527.4438, 1726.818
527.9259, 1712.363
528.4080, 1699.693
528.8901, 1687.988
529.3723, 1678.769
529.8544, 1673.212
530.3365, 1670.712
530.8186, 1670.194
531.3007, 1671.276
531.7828, 1674.366
532.2650, 1681.404
532.7471, 1694.731
533.2292, 1697.260
533.7113, 1674.757
534.1934, 1657.700
534.6755, 1662.552
535.1577, 1675.470
535.6398, 1675.653
536.1219, 1655.986
536.6040, 1634.385
537.0861, 1629.662
537.5682, 1636.507
538.0504, 1636.886
538.5325, 1627.893
539.0146, 1618.651
539.4967, 1615.045
539.9788, 1616.621
540.4609, 1620.909
540.9431, 1636.049
541.4252, 1642.598
541.9073, 1630.649
542.3894, 1612.259
542.8715, 1596.757
543.3536, 1586.336
543.8358, 1581.198
544.3179, 1581.967
544.8000, 1587.654
545.2821, 1595.427
545.7642, 1609.194
546.2463, 1614.191
546.7285, 1596.683
547.2106, 1576.350
547.6927, 1569.051
548.1748, 1574.449
548.6569, 1580.552
549.1390, 1580.285
549.6211, 1579.457
550.1032, 1587.291
550.5853, 1601.072
551.0674, 1607.651
551.5496, 1601.069
552.0317, 1588.840
552.5138, 1583.144
552.9959, 1586.247
553.4780, 1588.303
553.9601, 1592.118
554.4423, 1592.093
554.9244, 1578.864
555.4065, 1562.512
555.8886, 1561.259
556.3707, 1582.226
556.8528, 1606.723
557.3350, 1611.662
557.8171, 1599.112
558.2992, 1584.469
558.7813, 1567.006
559.2634, 1554.353
559.7455, 1554.067
560.2277, 1562.340
560.7098, 1566.089
561.1919, 1561.891
561.6740, 1559.015
562.1561, 1559.373
562.6382, 1563.077
563.1204, 1573.188
563.6025, 1587.857
564.0846, 1598.394
564.5667, 1597.974
565.0488, 1589.498
565.5309, 1584.927
566.0131, 1587.272
566.4952, 1585.899
566.9773, 1572.832
567.4594, 1560.467
567.9415, 1557.965
568.4236, 1563.704
568.9058, 1568.650
569.3879, 1568.493
569.8700, 1566.359
570.3521, 1565.111
570.8342, 1564.538
571.3163, 1564.616
571.7985, 1565.576
572.2806, 1564.385
572.7627, 1555.949
573.2448, 1538.300
573.7269, 1532.046
574.2090, 1548.172
574.6912, 1561.904
575.1733, 1565.790
575.6554, 1564.752
576.1375, 1565.241
576.6196, 1568.388
577.1017, 1569.204
577.5839, 1559.273
578.0660, 1543.429
578.5481, 1539.662
579.0302, 1549.586
579.5123, 1559.178
579.9944, 1560.679
580.4766, 1559.365
580.9587, 1567.366
581.4408, 1588.788
581.9229, 1601.168
582.4050, 1595.041
582.8871, 1584.648
583.3693, 1576.917
583.8514, 1572.788
584.3335, 1572.654
584.8156, 1576.754
585.2977, 1583.145
585.7798, 1589.945
586.2620, 1597.596
586.7441, 1599.319
587.2262, 1589.957
587.7083, 1582.646
588.1904, 1588.091
588.6725, 1599.633
589.1547, 1606.611
589.6368, 1607.040
590.1189, 1604.446
590.6010, 1598.784
591.0831, 1591.989
591.5652, 1585.571
592.0474, 1580.223
592.5295, 1577.653
593.0116, 1578.973
593.4937, 1584.026
593.9758, 1593.210
594.4579, 1610.349
594.9401, 1622.414
595.4222, 1625.498
595.9043, 1625.660
596.3864, 1621.671
596.8685, 1617.206
597.3506, 1622.137
597.8328, 1646.138
598.3149, 1668.766
598.7970, 1666.579
599.2791, 1649.053
599.7612, 1641.220
600.2433, 1647.898
600.7255, 1659.395
601.2076, 1668.992
601.6897, 1675.994
602.1718, 1674.561
602.6539, 1652.756
603.1360, 1638.833
603.6182, 1636.922
604.1003, 1641.890
604.5824, 1653.064
605.0645, 1668.039
605.5466, 1680.386
606.0287, 1686.095
606.5109, 1687.726
606.9930, 1688.946
607.4751, 1689.629
607.9572, 1688.911
608.4393, 1686.677
608.9214, 1682.506
609.4036, 1675.594
609.8857, 1665.910
610.3678, 1656.818
610.8499, 1640.840
611.3320, 1634.794
611.8141, 1651.894
612.2963, 1674.942
612.7784, 1686.748
613.2605, 1685.657
613.7426, 1680.532
614.2247, 1677.540
614.7068, 1675.677
615.1890, 1672.091
615.6711, 1666.655
616.1532, 1662.791
616.6353, 1662.838
617.1174, 1662.333
617.5995, 1654.454
618.0817, 1639.001
618.5638, 1630.315
619.0459, 1636.619
