##NAMES=Stilpnomelane
##RRUFFID=R070696
##IDEAL CHEMISTRY=(K,Ca,Na)(Fe^2+^,Mg,Al,Fe^3+^)_8_(Si,Al)_12_(O,OH)_36_&#183;nH_2_O
##LOCALITY=Brunsjo mine, Grythyttan, Vastmanland, Sweden
##OWNER=RRUFF
##SOURCE=James Shigley
##DESCRIPTION=Radiating black platy
##STATUS=The identification of this mineral has been confirmed by single-crystal X-ray diffraction.
##URL=rruff.info/R070696
149.3690, 6158.773
149.8511, 6186.925
150.3332, 6205.360
150.8153, 6205.584
151.2974, 6202.801
151.7796, 6202.299
152.2617, 6207.312
152.7438, 6210.306
153.2259, 6208.700
153.7080, 6203.884
154.1901, 6201.770
154.6722, 6233.169
155.1544, 6249.866
155.6365, 6221.636
156.1186, 6074.318
156.6007, 5950.823
157.0828, 5894.973
157.5649, 5906.511
158.0471, 5916.999
158.5292, 5902.694
159.0113, 5879.107
159.4934, 5862.515
159.9755, 5861.615
160.4576, 5865.843
160.9398, 5871.549
161.4219, 5878.868
161.9040, 5885.485
162.3861, 5890.080
162.8682, 5893.346
163.3503, 5896.514
163.8325, 5911.666
164.3146, 5919.968
164.7967, 5906.111
165.2788, 5857.921
165.7609, 5804.993
166.2430, 5753.870
166.7252, 5708.956
167.2073, 5686.155
167.6894, 5711.986
168.1715, 5758.100
168.6536, 5795.008
169.1357, 5815.169
169.6179, 5822.337
170.1000, 5807.532
170.5821, 5773.535
171.0642, 5755.077
171.5463, 5813.825
172.0284, 5901.784
172.5106, 5937.609
172.9927, 5840.406
173.4748, 5698.173
173.9569, 5608.792
174.4390, 5578.233
174.9211, 5577.535
175.4033, 5592.130
175.8854, 5617.696
176.3675, 5641.703
176.8496, 5660.544
177.3317, 5673.411
177.8138, 5676.547
178.2959, 5666.890
178.7781, 5655.153
179.2602, 5660.715
179.7423, 5679.907
180.2244, 5689.863
180.7065, 5670.021
181.1886, 5629.257
181.6708, 5590.964
182.1529, 5557.132
182.6350, 5529.727
183.1171, 5508.278
183.5992, 5492.975
184.0813, 5492.790
184.5635, 5535.896
185.0456, 5608.767
185.5277, 5644.220
186.0098, 5605.056
186.4919, 5521.839
186.9740, 5490.346
187.4562, 5517.706
187.9383, 5544.953
188.4204, 5483.266
188.9025, 5342.398
189.3846, 5240.970
189.8667, 5245.655
190.3489, 5337.012
190.8310, 5388.324
191.3131, 5392.032
191.7952, 5378.695
192.2773, 5403.169
192.7594, 5467.684
193.2416, 5512.024
193.7237, 5489.347
194.2058, 5404.126
194.6879, 5355.813
195.1700, 5358.873
195.6521, 5389.228
196.1343, 5395.351
196.6164, 5374.083
197.0985, 5348.488
197.5806, 5333.580
198.0627, 5329.865
198.5448, 5325.801
199.0270, 5322.154
199.5091, 5316.182
199.9912, 5293.330
200.4733, 5248.021
200.9554, 5206.844
201.4375, 5196.819
201.9196, 5223.701
202.4018, 5244.051
202.8839, 5250.878
203.3660, 5244.661
203.8481, 5223.109
204.3302, 5177.323
204.8123, 5134.744
205.2945, 5130.403
205.7766, 5176.445
206.2587, 5211.369
206.7408, 5217.124
207.2229, 5193.216
207.7050, 5164.865
208.1872, 5129.230
208.6693, 5092.766
209.1514, 5064.034
209.6335, 5044.113
210.1156, 5028.384
210.5977, 5015.401
211.0799, 5004.850
211.5620, 4996.976
212.0441, 4988.620
212.5262, 4985.211
213.0083, 5000.992
213.4904, 5045.677
213.9726, 5087.690
214.4547, 5113.423
214.9368, 5120.592
215.4189, 5116.731
215.9010, 5097.033
216.3831, 5067.687
216.8653, 5047.516
217.3474, 5038.385
217.8295, 5034.810
218.3116, 5036.578
218.7937, 5052.126
219.2758, 5049.989
219.7580, 5020.515
220.2401, 4970.028
220.7222, 4933.872
221.2043, 4913.799
221.6864, 4905.218
222.1685, 4905.502
222.6507, 4916.734
223.1328, 4932.774
223.6149, 4955.364
224.0970, 4984.111
224.5791, 5004.403
225.0612, 5011.677
225.5434, 5015.555
226.0255, 5025.438
226.5076, 5045.773
226.9897, 5063.498
227.4718, 5079.220
227.9539, 5093.869
228.4361, 5088.614
228.9182, 5053.036
229.4003, 5006.637
229.8824, 4971.105
230.3645, 4948.483
230.8466, 4933.312
231.3288, 4921.236
231.8109, 4908.191
232.2930, 4922.906
232.7751, 4984.072
233.2572, 5061.064
233.7393, 5106.700
234.2215, 5106.224
234.7036, 5098.945
235.1857, 5100.445
235.6678, 5122.787
236.1499, 5113.405
236.6320, 5054.361
237.1142, 4971.792
237.5963, 4913.990
238.0784, 4887.326
238.5605, 4876.839
239.0426, 4877.618
239.5247, 4891.640
240.0069, 4912.615
240.4890, 4944.030
240.9711, 4981.387
241.4532, 5014.630
241.9353, 5047.813
242.4174, 5070.835
242.8996, 5077.301
243.3817, 5057.717
243.8638, 5041.894
244.3459, 5033.827
244.8280, 5030.256
245.3101, 5017.201
245.7922, 4985.774
246.2744, 4956.945
246.7565, 4943.737
247.2386, 4954.802
247.7207, 4963.541
248.2028, 4967.612
248.6849, 4967.792
249.1671, 4967.949
249.6492, 4965.811
250.1313, 4966.729
250.6134, 4977.810
251.0955, 5014.875
251.5776, 5027.140
252.0598, 4999.281
252.5419, 4936.158
253.0240, 4891.617
253.5061, 4866.625
253.9882, 4859.488
254.4703, 4872.458
254.9525, 4919.063
255.4346, 4955.838
255.9167, 4975.937
256.3988, 4979.612
256.8809, 4975.749
257.3630, 4960.804
257.8452, 4942.705
258.3273, 4925.818
258.8094, 4901.542
259.2915, 4900.589
259.7736, 4941.867
260.2557, 5026.856
260.7379, 5061.771
261.2200, 5027.599
261.7021, 4968.210
262.1842, 4928.620
262.6663, 4913.534
263.1484, 4906.320
263.6306, 4900.316
264.1127, 4894.690
264.5948, 4917.315
265.0769, 4984.275
265.5590, 5058.823
266.0411, 5097.336
266.5233, 5091.183
267.0054, 5073.566
267.4875, 5047.552
267.9696, 5011.710
268.4517, 4999.781
268.9338, 5020.693
269.4160, 5053.217
269.8981, 5069.917
270.3802, 5067.888
270.8623, 5059.282
271.3444, 5044.253
271.8265, 5021.669
272.3087, 5013.119
272.7908, 5022.371
273.2729, 5039.791
273.7550, 5050.145
274.2371, 5051.688
274.7192, 5055.177
275.2014, 5064.645
275.6835, 5080.416
276.1656, 5101.756
276.6477, 5134.554
277.1298, 5163.219
277.6119, 5152.285
278.0940, 5094.114
278.5761, 5052.604
279.0583, 5066.998
279.5404, 5138.719
280.0225, 5174.466
280.5046, 5165.950
280.9867, 5137.053
281.4688, 5125.146
281.9510, 5130.895
282.4331, 5141.738
282.9152, 5159.634
283.3973, 5182.747
283.8794, 5175.488
284.3615, 5127.396
284.8437, 5070.242
285.3258, 5059.137
285.8079, 5094.541
286.2900, 5137.232
286.7721, 5173.826
287.2542, 5203.165
287.7364, 5212.721
288.2185, 5197.663
288.7006, 5174.221
289.1827, 5168.871
289.6648, 5180.716
290.1469, 5192.380
290.6291, 5195.583
291.1112, 5191.393
291.5933, 5183.304
292.0754, 5170.986
292.5575, 5156.289
293.0396, 5137.894
293.5218, 5116.925
294.0039, 5103.626
294.4860, 5103.706
294.9681, 5115.261
295.4502, 5139.661
295.9323, 5183.044
296.4145, 5218.591
296.8966, 5200.918
297.3787, 5140.310
297.8608, 5081.745
298.3429, 5056.668
298.8250, 5049.836
299.3072, 5028.514
299.7893, 4983.382
300.2714, 4946.750
300.7535, 4968.795
301.2356, 5033.603
301.7177, 5088.283
302.1999, 5092.098
302.6820, 5073.270
303.1641, 5074.493
303.6462, 5106.285
304.1283, 5135.628
304.6104, 5121.732
305.0926, 5079.301
305.5747, 5046.836
306.0568, 5068.722
306.5389, 5099.326
307.0210, 5083.378
307.5031, 5003.705
307.9853, 4922.787
308.4674, 4885.753
308.9495, 4882.918
309.4316, 4893.446
309.9137, 4923.644
310.3958, 4953.042
310.8780, 4961.993
311.3601, 4942.076
311.8422, 4925.220
312.3243, 4944.651
312.8064, 4979.043
313.2885, 4989.516
313.7707, 4915.938
314.2528, 4843.743
314.7349, 4838.417
315.2170, 4929.361
315.6991, 4995.163
316.1812, 4957.389
316.6634, 4865.477
317.1455, 4797.002
317.6276, 4796.677
318.1097, 4811.556
318.5918, 4819.170
319.0739, 4815.783
319.5561, 4810.540
320.0382, 4805.209
320.5203, 4799.703
321.0024, 4793.866
321.4845, 4775.246
321.9666, 4767.395
322.4488, 4785.782
322.9308, 4843.056
323.4130, 4877.576
323.8951, 4874.767
324.3772, 4846.591
324.8593, 4807.763
325.3414, 4722.638
325.8235, 4663.140
326.3057, 4654.744
326.7878, 4714.819
327.2699, 4757.300
327.7520, 4773.961
328.2341, 4776.000
328.7162, 4775.797
329.1984, 4779.257
329.6805, 4772.915
330.1626, 4751.229
330.6447, 4711.379
331.1268, 4675.840
331.6089, 4642.185
332.0911, 4614.251
332.5732, 4594.653
333.0553, 4577.195
333.5374, 4580.882
334.0195, 4617.763
334.5016, 4688.227
334.9838, 4740.145
335.4659, 4777.817
335.9480, 4791.348
336.4301, 4763.162
336.9122, 4675.416
337.3943, 4604.178
337.8765, 4563.770
338.3586, 4552.983
338.8407, 4567.609
339.3228, 4616.047
339.8049, 4666.972
340.2870, 4693.229
340.7692, 4693.631
341.2513, 4676.417
341.7334, 4630.472
342.2155, 4572.419
342.6976, 4577.981
343.1797, 4655.611
343.6619, 4733.833
344.1440, 4740.952
344.6261, 4685.142
345.1082, 4648.833
345.5903, 4655.616
346.0724, 4682.518
346.5546, 4674.911
347.0367, 4633.689
347.5188, 4595.796
348.0009, 4593.654
348.4830, 4617.098
348.9651, 4636.993
349.4473, 4648.756
349.9294, 4653.587
350.4115, 4652.506
350.8936, 4645.551
351.3757, 4632.922
351.8578, 4598.999
352.3400, 4563.404
352.8221, 4562.804
353.3042, 4615.842
353.7863, 4672.082
354.2684, 4683.308
354.7505, 4660.022
355.2327, 4631.268
355.7148, 4596.937
356.1969, 4572.981
356.6790, 4583.454
357.1611, 4645.743
357.6432, 4692.234
358.1254, 4662.617
358.6075, 4590.549
359.0896, 4537.889
359.5717, 4549.427
360.0538, 4573.508
360.5359, 4580.284
361.0181, 4563.254
361.5002, 4544.738
361.9823, 4521.571
362.4644, 4504.267
362.9465, 4506.746
363.4286, 4567.701
363.9108, 4616.963
364.3929, 4623.068
364.8750, 4576.233
365.3571, 4544.089
365.8392, 4547.530
366.3214, 4565.941
366.8035, 4578.898
367.2856, 4586.267
367.7677, 4586.554
368.2498, 4578.232
368.7319, 4560.849
369.2140, 4541.165
369.6961, 4516.528
370.1783, 4491.579
370.6604, 4469.222
371.1425, 4445.958
371.6246, 4431.715
372.1067, 4427.206
372.5888, 4432.623
373.0710, 4452.505
373.5531, 4498.022
374.0352, 4538.696
374.5173, 4550.155
374.9994, 4524.753
375.4815, 4505.161
375.9637, 4498.398
376.4458, 4498.917
376.9279, 4487.922
377.4100, 4462.260
377.8921, 4440.003
378.3742, 4433.209
378.8564, 4441.406
379.3385, 4451.486
379.8206, 4466.119
380.3027, 4474.998
380.7848, 4448.271
381.2669, 4388.295
381.7491, 4346.919
382.2312, 4364.346
382.7133, 4420.843
383.1954, 4463.155
383.6775, 4488.227
384.1596, 4497.987
384.6418, 4483.459
385.1239, 4453.047
385.6060, 4432.137
386.0881, 4447.379
386.5702, 4471.336
387.0523, 4466.225
387.5345, 4430.049
388.0166, 4392.950
388.4987, 4370.373
388.9808, 4362.577
389.4629, 4369.762
389.9450, 4414.619
390.4272, 4456.107
390.9093, 4459.586
391.3914, 4428.834
391.8735, 4408.046
392.3556, 4427.771
392.8377, 4461.458
393.3199, 4486.741
393.8020, 4508.314
394.2841, 4509.850
394.7662, 4470.458
395.2483, 4401.935
395.7304, 4355.095
396.2126, 4356.523
396.6947, 4370.354
397.1768, 4380.163
397.6589, 4402.051
398.1410, 4393.476
398.6231, 4312.357
399.1053, 4202.168
399.5874, 4163.587
400.0695, 4249.507
400.5516, 4344.508
401.0337, 4411.684
401.5158, 4448.020
401.9980, 4467.076
402.4801, 4468.472
402.9622, 4452.725
403.4443, 4414.465
403.9264, 4341.282
404.4085, 4283.630
404.8907, 4260.448
405.3728, 4270.230
405.8549, 4274.700
406.3370, 4272.774
406.8191, 4269.455
407.3012, 4271.032
407.7834, 4277.479
408.2655, 4280.799
408.7476, 4278.243
409.2297, 4271.983
409.7118, 4265.759
410.1939, 4259.681
410.6761, 4258.403
411.1582, 4271.638
411.6403, 4292.567
412.1224, 4302.894
412.6045, 4295.933
413.0866, 4283.637
413.5687, 4277.073
414.0508, 4276.207
414.5330, 4281.001
415.0151, 4295.127
415.4972, 4312.913
415.9793, 4331.941
416.4614, 4354.750
416.9435, 4365.121
417.4257, 4340.458
417.9078, 4298.258
418.3899, 4266.338
418.8720, 4267.400
419.3541, 4271.664
419.8362, 4263.805
420.3184, 4241.888
420.8005, 4221.208
421.2826, 4206.125
421.7647, 4194.491
422.2468, 4184.692
422.7289, 4165.587
423.2111, 4160.186
423.6932, 4185.218
424.1753, 4236.526
424.6574, 4258.273
425.1395, 4218.083
425.6216, 4178.896
426.1038, 4178.877
426.5859, 4244.534
427.0680, 4292.873
427.5501, 4318.608
428.0322, 4324.793
428.5143, 4315.909
428.9965, 4285.177
429.4786, 4257.296
429.9607, 4246.726
430.4428, 4255.116
430.9249, 4252.147
431.4070, 4236.791
431.8892, 4212.599
432.3713, 4168.974
432.8534, 4108.493
433.3355, 4091.035
433.8176, 4171.380
434.2997, 4301.811
434.7819, 4352.395
435.2640, 4322.336
435.7461, 4269.405
436.2282, 4238.495
436.7103, 4222.135
437.1924, 4204.843
437.6746, 4179.050
438.1567, 4155.029
438.6388, 4136.384
439.1209, 4125.963
439.6030, 4135.210
440.0851, 4200.779
440.5673, 4271.676
441.0494, 4299.104
441.5315, 4256.821
442.0136, 4219.715
442.4957, 4230.310
442.9778, 4264.878
443.4600, 4282.865
443.9421, 4260.799
444.4242, 4231.219
444.9063, 4203.734
445.3884, 4179.042
445.8705, 4157.130
446.3527, 4131.086
446.8348, 4111.855
447.3169, 4110.720
447.7990, 4150.889
448.2811, 4172.718
448.7632, 4161.138
449.2454, 4122.358
449.7275, 4099.620
450.2096, 4097.572
450.6917, 4101.970
451.1738, 4103.694
451.6559, 4101.964
452.1381, 4105.463
452.6202, 4117.860
453.1023, 4131.386
453.5844, 4125.604
454.0665, 4100.598
454.5486, 4085.118
455.0308, 4103.235
455.5129, 4142.666
455.9950, 4159.829
456.4771, 4152.058
456.9592, 4139.945
457.4413, 4144.769
457.9234, 4160.642
458.4055, 4174.950
458.8877, 4187.562
459.3698, 4192.725
459.8519, 4180.728
460.3340, 4154.126
460.8161, 4128.665
461.2982, 4117.399
461.7804, 4108.882
462.2625, 4090.731
462.7446, 4045.783
463.2267, 4019.088
463.7088, 4037.088
464.1909, 4084.150
464.6731, 4127.301
465.1552, 4173.053
465.6373, 4202.727
466.1194, 4205.600
466.6015, 4173.469
467.0836, 4147.558
467.5658, 4127.026
468.0479, 4113.361
468.5300, 4108.018
469.0121, 4111.306
469.4942, 4123.264
469.9763, 4150.240
470.4585, 4186.503
470.9406, 4198.231
471.4227, 4181.001
471.9048, 4154.423
472.3869, 4126.825
472.8690, 4099.054
473.3512, 4085.180
473.8333, 4089.346
474.3154, 4101.588
474.7975, 4112.259
475.2796, 4119.776
475.7617, 4113.953
476.2439, 4067.728
476.7260, 4012.897
477.2081, 4008.061
477.6902, 4055.048
478.1723, 4107.767
478.6544, 4134.304
479.1366, 4142.906
479.6187, 4143.470
480.1008, 4128.690
480.5829, 4118.452
481.0650, 4128.735
481.5471, 4153.559
482.0293, 4171.390
482.5114, 4169.027
482.9935, 4161.800
483.4756, 4157.496
483.9577, 4158.465
484.4398, 4158.997
484.9220, 4158.677
485.4041, 4157.686
485.8862, 4155.849
486.3683, 4149.375
486.8504, 4148.410
487.3326, 4158.305
487.8147, 4178.468
488.2968, 4187.965
488.7789, 4185.322
489.2610, 4175.592
489.7431, 4157.614
490.2253, 4129.920
490.7074, 4119.604
491.1895, 4132.372
491.6716, 4159.876
492.1537, 4194.111
492.6358, 4233.118
493.1180, 4255.775
493.6001, 4231.537
494.0822, 4188.205
494.5643, 4183.662
495.0464, 4222.515
495.5285, 4267.019
496.0107, 4291.767
496.4928, 4299.685
496.9749, 4294.957
497.4570, 4272.308
497.9391, 4244.359
498.4212, 4210.118
498.9034, 4173.818
499.3855, 4153.667
499.8676, 4164.908
500.3497, 4187.423
500.8318, 4211.235
501.3139, 4238.417
501.7961, 4260.844
502.2782, 4289.374
502.7603, 4308.792
503.2424, 4293.655
503.7245, 4206.328
504.2066, 4147.649
504.6887, 4147.341
505.1708, 4201.117
505.6530, 4237.691
506.1351, 4254.164
506.6172, 4260.771
507.0993, 4264.901
507.5814, 4266.456
508.0635, 4260.225
508.5457, 4241.326
509.0278, 4223.552
509.5099, 4233.455
509.9920, 4266.771
510.4741, 4300.649
510.9562, 4328.694
511.4384, 4347.925
511.9205, 4352.846
512.4026, 4343.437
512.8847, 4324.768
513.3668, 4285.148
513.8489, 4244.173
514.3311, 4225.166
514.8132, 4254.345
515.2953, 4282.192
515.7774, 4286.858
516.2595, 4274.174
516.7416, 4262.602
517.2238, 4256.135
517.7059, 4251.527
518.1880, 4247.696
518.6701, 4244.667
519.1522, 4241.773
519.6343, 4234.732
520.1165, 4231.407
520.5986, 4243.992
521.0807, 4283.679
521.5628, 4304.067
522.0449, 4291.737
522.5270, 4255.686
523.0092, 4225.852
523.4913, 4201.059
523.9734, 4190.496
524.4555, 4206.253
524.9376, 4241.922
525.4197, 4274.976
525.9019, 4304.866
526.3840, 4326.569
526.8661, 4329.180
527.3482, 4319.710
527.8303, 4314.205
528.3124, 4324.198
528.7946, 4336.253
529.2767, 4341.221
529.7588, 4339.548
530.2409, 4333.924
530.7230, 4321.253
531.2051, 4307.928
531.6873, 4297.111
532.1694, 4285.761
532.6515, 4284.528
533.1336, 4307.380
533.6157, 4337.498
534.0978, 4349.424
534.5800, 4324.854
535.0621, 4310.583
535.5442, 4320.011
536.0263, 4350.423
536.5084, 4372.050
536.9905, 4384.787
537.4727, 4389.698
537.9548, 4384.027
538.4369, 4368.269
538.9190, 4357.329
539.4011, 4350.786
539.8832, 4354.478
540.3654, 4385.344
540.8475, 4436.212
541.3296, 4478.883
541.8117, 4500.983
542.2938, 4508.694
542.7759, 4505.836
543.2581, 4493.318
543.7402, 4479.697
544.2223, 4461.296
544.7044, 4448.968
545.1865, 4454.258
545.6686, 4492.921
546.1508, 4522.444
546.6329, 4513.471
547.1150, 4491.112
547.5971, 4500.594
548.0792, 4588.773
548.5613, 4658.898
549.0435, 4685.047
549.5256, 4668.325
550.0077, 4664.310
550.4898, 4680.862
550.9719, 4695.307
551.4540, 4685.184
551.9362, 4647.992
552.4183, 4631.729
552.9004, 4643.168
553.3825, 4670.779
553.8646, 4705.790
554.3467, 4744.885
554.8289, 4768.018
555.3110, 4753.382
555.7931, 4724.149
556.2752, 4714.527
556.7573, 4722.623
557.2394, 4730.797
557.7216, 4720.204
558.2037, 4708.408
558.6858, 4714.568
559.1679, 4755.075
559.6500, 4784.610
560.1321, 4779.583
560.6143, 4756.254
561.0964, 4740.667
561.5785, 4736.781
562.0606, 4740.440
562.5427, 4755.351
563.0248, 4779.892
563.5070, 4793.231
563.9891, 4793.163
564.4712, 4785.875
564.9533, 4769.169
565.4354, 4740.482
565.9175, 4739.204
566.3997, 4774.227
566.8818, 4819.718
567.3639, 4839.780
567.8460, 4837.592
568.3281, 4828.094
568.8102, 4804.184
569.2924, 4785.641
569.7744, 4808.270
570.2565, 4865.334
570.7386, 4916.089
571.2208, 4925.644
571.7029, 4925.275
572.1850, 4943.742
572.6671, 4995.126
573.1492, 5032.261
573.6313, 5022.800
574.1135, 4997.544
574.5956, 4994.827
575.0777, 5049.969
575.5598, 5085.730
576.0419, 5084.764
576.5240, 5055.572
577.0062, 5039.312
577.4883, 5042.660
577.9704, 5042.567
578.4525, 5021.103
578.9346, 4978.921
579.4167, 4959.885
579.8989, 4967.464
580.3810, 4982.062
580.8631, 4976.069
581.3452, 4958.533
581.8273, 4960.365
582.3094, 5003.599
582.7916, 5048.971
583.2737, 5049.656
583.7558, 5018.443
584.2379, 4992.469
584.7200, 4984.898
585.2021, 4991.488
585.6843, 5016.852
586.1664, 5065.095
586.6485, 5097.297
587.1306, 5109.834
587.6127, 5100.738
588.0948, 5066.862
588.5770, 4982.300
589.0591, 4921.105
589.5412, 4889.009
590.0233, 4880.679
590.5054, 4891.759
590.9875, 4927.074
591.4697, 4950.731
591.9518, 4941.278
592.4339, 4911.131
592.9160, 4909.887
593.3981, 4937.627
593.8802, 4965.914
594.3624, 4966.919
594.8445, 4955.872
595.3266, 4960.776
595.8087, 4992.417
596.2908, 5016.083
596.7729, 5002.500
597.2551, 4967.584
597.7372, 4934.105
598.2193, 4908.926
598.7014, 4886.587
599.1835, 4869.383
599.6656, 4855.491
600.1478, 4831.228
600.6299, 4778.436
601.1120, 4738.541
601.5941, 4738.017
602.0762, 4788.489
602.5583, 4789.049
603.0405, 4720.907
603.5226, 4648.405
604.0047, 4653.778
604.4868, 4727.447
604.9689, 4779.448
605.4510, 4790.558
605.9332, 4771.804
606.4153, 4722.269
606.8974, 4653.276
607.3795, 4599.882
607.8616, 4595.965
608.3438, 4604.029
608.8259, 4592.901
609.3080, 4561.595
609.7901, 4538.468
610.2722, 4542.313
610.7543, 4551.876
611.2365, 4553.185
611.7186, 4539.894
612.2007, 4526.815
612.6828, 4515.321
613.1649, 4503.092
613.6470, 4485.920
614.1292, 4461.460
614.6113, 4442.003
615.0934, 4433.915
615.5755, 4431.247
616.0576, 4409.157
616.5397, 4368.078
617.0219, 4337.970
617.5040, 4354.727
617.9861, 4389.640
618.4682, 4391.800
618.9503, 4356.261
619.4324, 4313.097
619.9146, 4283.401
620.3967, 4257.543
620.8788, 4223.721
621.3609, 4153.146
621.8430, 4110.329
622.3251, 4144.787
622.8073, 4215.769
623.2894, 4229.777
623.7715, 4132.686
624.2536, 4055.168
624.7357, 4037.243
625.2178, 4071.651
625.7000, 4073.502
626.1821, 4035.996
626.6642, 3993.835
627.1463, 3973.796
627.6284, 3970.979
628.1105, 3956.568
628.5927, 3926.807
629.0748, 3895.957
629.5569, 3882.491
630.0390, 3877.313
630.5211, 3862.893
631.0032, 3818.135
631.4854, 3782.690
631.9675, 3794.901
632.4496, 3834.903
632.9317, 3850.431
633.4138, 3801.341
633.8959, 3751.353
634.3781, 3720.863
634.8602, 3710.258
635.3423, 3708.093
635.8244, 3724.150
636.3065, 3732.854
636.7886, 3709.504
637.2708, 3651.485
637.7529, 3614.978
638.2350, 3605.282
638.7171, 3610.740
639.1992, 3628.428
639.6813, 3650.775
640.1635, 3649.545
640.6456, 3601.577
641.1277, 3544.550
641.6098, 3509.926
642.0919, 3495.520
642.5740, 3495.980
643.0562, 3528.702
643.5383, 3558.190
644.0204, 3563.940
644.5025, 3541.690
644.9846, 3526.890
645.4667, 3529.055
645.9489, 3531.524
646.4310, 3523.166
