##NAMES=Stilbite-Ca
##RRUFFID=R050012
##IDEAL CHEMISTRY=NaCa_4_(Si_27_Al_9_)O_72_&#183;28H_2_O
##LOCALITY=Harborville, Nova Scotia, Canada
##OWNER=RRUFF
##SOURCE=University of Arizona Mineral Museum
##DESCRIPTION=Globular aggregate of thin tabular white single crystals
##STATUS=The identification of this mineral has been confirmed by X-ray diffraction and chemical analysis
##URL=rruff.info/R050012
##MEASURED CHEMISTRY=(Na_1.50_K_0.03_)_Σ=1.53_Ca_4.15_(Si_26.17_Al_9.83_)O_72_·27.91H_2_O; H_2_O estimated by difference
148.2155, 5512.842
148.6976, 5604.572
149.1797, 5704.666
149.6618, 5804.096
150.1439, 5890.114
150.6261, 5952.438
151.1082, 6009.588
151.5903, 6066.209
152.0724, 6125.664
152.5545, 6177.054
153.0366, 6215.166
153.5188, 6244.555
154.0009, 6274.052
154.4830, 6312.833
154.9651, 6346.386
155.4472, 6368.659
155.9293, 6376.208
156.4115, 6376.325
156.8936, 6365.103
157.3757, 6346.187
157.8578, 6332.046
158.3399, 6327.291
158.8221, 6327.900
159.3042, 6331.265
159.7863, 6348.668
160.2684, 6357.101
160.7505, 6338.859
161.2326, 6298.512
161.7148, 6272.771
162.1969, 6292.986
162.6790, 6329.172
163.1611, 6352.128
163.6432, 6342.063
164.1253, 6324.688
164.6075, 6311.098
165.0896, 6301.602
165.5717, 6297.153
166.0538, 6303.891
166.5359, 6315.049
167.0180, 6320.999
167.5002, 6315.670
167.9823, 6305.011
168.4644, 6291.282
168.9465, 6273.625
169.4286, 6260.015
169.9107, 6262.999
170.3929, 6274.646
170.8750, 6278.311
171.3571, 6258.262
171.8392, 6229.013
172.3213, 6205.124
172.8034, 6188.367
173.2856, 6177.920
173.7677, 6178.959
174.2498, 6187.554
174.7319, 6190.253
175.2140, 6173.047
175.6961, 6146.192
176.1783, 6125.736
176.6604, 6116.375
177.1425, 6111.428
177.6246, 6102.471
178.1067, 6090.317
178.5888, 6079.667
179.0710, 6074.572
179.5531, 6073.616
180.0352, 6073.764
180.5173, 6073.839
180.9994, 6075.167
181.4815, 6082.888
181.9637, 6096.740
182.4458, 6106.479
182.9279, 6101.693
183.4100, 6085.054
183.8921, 6066.228
184.3742, 6045.375
184.8564, 6025.200
185.3385, 6012.789
185.8206, 6008.250
186.3027, 6008.857
186.7848, 6013.185
187.2669, 6020.869
187.7491, 6029.525
188.2312, 6042.211
188.7133, 6055.378
189.1954, 6051.877
189.6775, 6028.439
190.1596, 6003.061
190.6418, 6000.838
191.1239, 6021.197
191.6060, 6039.328
192.0881, 6042.742
192.5702, 6033.530
193.0524, 6031.647
193.5345, 6039.440
194.0166, 6048.492
194.4987, 6041.362
194.9808, 6016.477
195.4629, 5999.174
195.9451, 6007.076
196.4272, 6039.585
196.9093, 6059.669
197.3914, 6064.609
197.8735, 6059.571
198.3556, 6052.490
198.8378, 6042.844
199.3199, 6034.600
199.8020, 6029.084
200.2841, 6026.161
200.7662, 6029.865
201.2483, 6043.219
201.7305, 6060.786
202.2126, 6067.353
202.6947, 6059.825
203.1768, 6052.856
203.6589, 6057.745
204.1410, 6077.183
204.6232, 6088.551
205.1053, 6087.865
205.5874, 6078.707
206.0695, 6073.366
206.5516, 6073.397
207.0337, 6073.169
207.5159, 6066.388
207.9980, 6049.713
208.4801, 6043.893
208.9622, 6055.519
209.4443, 6079.867
209.9264, 6093.411
210.4086, 6093.715
210.8907, 6088.080
211.3728, 6078.826
211.8549, 6060.551
212.3370, 6058.201
212.8191, 6081.929
213.3013, 6126.978
213.7834, 6153.769
214.2655, 6156.409
214.7476, 6150.248
215.2297, 6148.291
215.7118, 6152.412
216.1940, 6155.204
216.6761, 6153.702
217.1582, 6148.384
217.6403, 6151.331
218.1224, 6166.360
218.6045, 6184.492
219.0867, 6197.430
219.5688, 6204.315
220.0509, 6207.650
220.5330, 6207.149
221.0151, 6202.720
221.4972, 6197.780
221.9794, 6189.078
222.4615, 6183.432
222.9436, 6190.065
223.4257, 6218.185
223.9078, 6239.419
224.3899, 6244.205
224.8721, 6230.585
225.3542, 6227.938
225.8363, 6242.333
226.3184, 6261.913
226.8005, 6272.627
227.2827, 6270.792
227.7648, 6266.845
228.2469, 6262.787
228.7290, 6258.443
229.2111, 6255.655
229.6932, 6255.723
230.1754, 6256.327
230.6575, 6252.248
231.1396, 6232.684
231.6217, 6228.399
232.1038, 6255.396
232.5859, 6325.373
233.0681, 6361.165
233.5502, 6344.371
234.0323, 6306.616
234.5144, 6294.908
234.9965, 6325.305
235.4786, 6354.808
235.9608, 6369.422
236.4429, 6364.572
236.9250, 6365.469
237.4071, 6373.989
237.8892, 6387.112
238.3713, 6400.379
238.8535, 6414.457
239.3356, 6427.594
239.8177, 6439.671
240.2998, 6451.492
240.7819, 6458.786
241.2640, 6458.949
241.7462, 6456.215
242.2283, 6457.537
242.7104, 6462.549
243.1925, 6472.386
243.6746, 6490.022
244.1567, 6521.935
244.6389, 6538.711
245.1210, 6534.144
245.6031, 6518.182
246.0852, 6508.083
246.5673, 6505.680
247.0494, 6506.029
247.5316, 6507.462
248.0137, 6509.704
248.4958, 6514.362
248.9779, 6523.457
249.4600, 6533.810
249.9421, 6538.891
250.4243, 6535.894
250.9064, 6532.700
251.3885, 6531.812
251.8706, 6533.012
252.3527, 6538.375
252.8348, 6552.804
253.3170, 6568.377
253.7991, 6567.684
254.2812, 6540.542
254.7633, 6516.662
255.2454, 6507.765
255.7275, 6517.676
256.2097, 6528.758
256.6918, 6540.622
257.1739, 6553.795
257.6560, 6571.714
258.1381, 6601.700
258.6202, 6621.145
259.1024, 6616.646
259.5845, 6577.615
260.0666, 6560.574
260.5487, 6575.043
261.0308, 6604.324
261.5129, 6616.630
261.9951, 6604.009
262.4772, 6593.231
262.9593, 6597.299
263.4414, 6621.851
263.9235, 6633.154
264.4056, 6625.679
264.8878, 6610.217
265.3699, 6605.376
265.8520, 6612.887
266.3341, 6626.097
266.8162, 6646.216
267.2983, 6676.443
267.7805, 6688.707
268.2626, 6673.308
268.7447, 6650.638
269.2268, 6662.076
269.7089, 6720.121
270.1910, 6767.276
270.6732, 6777.218
271.1553, 6745.171
271.6374, 6720.908
272.1195, 6704.328
272.6016, 6695.657
273.0837, 6696.785
273.5659, 6708.825
274.0480, 6724.858
274.5301, 6744.212
275.0122, 6767.072
275.4943, 6785.692
275.9764, 6800.659
276.4586, 6810.283
276.9407, 6808.744
277.4228, 6794.265
277.9049, 6784.181
278.3870, 6786.777
278.8691, 6801.457
279.3513, 6815.139
279.8334, 6828.273
280.3155, 6839.248
280.7976, 6843.325
281.2798, 6839.967
281.7619, 6841.716
282.2440, 6857.811
282.7261, 6885.090
283.2082, 6897.094
283.6903, 6890.983
284.1725, 6880.050
284.6546, 6880.699
285.1367, 6892.571
285.6188, 6906.588
286.1009, 6921.733
286.5830, 6936.638
287.0652, 6943.059
287.5473, 6939.467
288.0294, 6936.171
288.5115, 6947.672
288.9936, 6971.947
289.4757, 6991.819
289.9579, 7000.776
290.4400, 7001.510
290.9221, 7000.681
291.4042, 6998.164
291.8863, 6995.657
292.3684, 6993.595
292.8506, 6992.605
293.3327, 6995.567
293.8148, 7005.790
294.2969, 7019.147
294.7790, 7027.755
295.2611, 7031.629
295.7433, 7033.417
296.2254, 7037.901
296.7075, 7042.442
297.1896, 7037.962
297.6717, 7010.433
298.1538, 6982.344
298.6360, 6994.542
299.1181, 7044.160
299.6002, 7095.885
300.0823, 7126.466
300.5644, 7139.924
301.0465, 7143.453
301.5287, 7135.639
302.0108, 7122.833
302.4929, 7108.597
302.9750, 7093.987
303.4571, 7085.837
303.9392, 7088.995
304.4214, 7101.187
304.9035, 7121.718
305.3856, 7157.895
305.8677, 7189.536
306.3498, 7192.771
306.8319, 7174.401
307.3141, 7158.428
307.7962, 7159.690
308.2783, 7170.029
308.7604, 7182.649
309.2425, 7198.241
309.7246, 7210.883
310.2068, 7214.478
310.6889, 7211.892
311.1710, 7210.646
311.6531, 7216.759
312.1352, 7224.141
312.6173, 7227.169
313.0995, 7222.315
313.5816, 7220.737
314.0637, 7233.291
314.5458, 7252.438
315.0279, 7264.107
315.5100, 7254.688
315.9922, 7242.562
316.4743, 7237.662
316.9564, 7242.456
317.4385, 7249.010
317.9206, 7255.376
318.4027, 7261.787
318.8849, 7268.562
319.3670, 7277.478
319.8491, 7285.290
320.3312, 7289.414
320.8133, 7288.404
321.2954, 7291.640
321.7776, 7307.292
322.2597, 7325.666
322.7418, 7336.426
323.2239, 7333.187
323.7060, 7327.098
324.1881, 7319.354
324.6703, 7309.685
325.1524, 7302.697
325.6345, 7299.498
326.1166, 7298.773
326.5987, 7299.498
327.0808, 7306.298
327.5630, 7308.965
328.0451, 7301.416
328.5272, 7284.704
329.0093, 7282.685
329.4914, 7309.503
329.9735, 7338.197
330.4557, 7350.306
330.9378, 7332.311
331.4199, 7321.760
331.9020, 7326.529
332.3841, 7341.785
332.8662, 7342.536
333.3484, 7320.134
333.8305, 7296.335
334.3126, 7282.819
334.7947, 7282.057
335.2768, 7284.043
335.7589, 7287.110
336.2411, 7293.309
336.7232, 7310.739
337.2053, 7344.607
337.6874, 7374.106
338.1695, 7386.053
338.6516, 7377.110
339.1338, 7380.815
339.6159, 7402.116
340.0980, 7429.165
340.5801, 7442.458
341.0622, 7441.529
341.5443, 7431.736
342.0265, 7407.948
342.5086, 7373.526
342.9907, 7360.352
343.4728, 7371.155
343.9549, 7392.977
344.4370, 7413.413
344.9192, 7432.051
345.4013, 7445.577
345.8834, 7451.392
346.3655, 7451.457
346.8476, 7448.868
347.3297, 7443.463
347.8119, 7440.100
348.2940, 7447.975
348.7761, 7462.224
349.2582, 7467.338
349.7403, 7453.589
350.2225, 7434.314
350.7046, 7427.334
351.1867, 7431.961
351.6688, 7443.401
352.1509, 7458.275
352.6331, 7477.718
353.1152, 7505.800
353.5973, 7550.526
354.0794, 7590.695
354.5615, 7604.531
355.0436, 7597.627
355.5258, 7586.995
356.0079, 7576.089
356.4900, 7568.815
356.9721, 7570.411
357.4542, 7584.797
357.9363, 7597.492
358.4185, 7590.506
358.9006, 7577.366
359.3827, 7581.475
359.8648, 7636.292
360.3469, 7691.419
360.8290, 7715.670
361.3112, 7701.274
361.7933, 7694.419
362.2754, 7714.802
362.7575, 7748.379
363.2396, 7780.022
363.7217, 7813.185
364.2039, 7836.819
364.6860, 7840.582
365.1681, 7824.244
365.6502, 7823.002
366.1323, 7856.101
366.6144, 7896.261
367.0966, 7924.791
367.5787, 7932.389
368.0608, 7938.462
368.5429, 7939.641
369.0250, 7938.822
369.5071, 7950.854
369.9893, 7980.933
370.4714, 8017.625
370.9535, 8056.845
371.4356, 8102.839
371.9177, 8140.759
372.3998, 8169.550
372.8820, 8190.688
373.3641, 8205.121
373.8462, 8208.428
374.3283, 8216.438
374.8104, 8236.388
375.2925, 8269.521
375.7747, 8301.642
376.2568, 8331.828
376.7389, 8363.363
377.2210, 8405.893
377.7031, 8461.312
378.1852, 8498.958
378.6674, 8499.926
379.1495, 8476.188
379.6316, 8480.086
380.1137, 8513.027
380.5958, 8560.571
381.0779, 8614.418
381.5601, 8673.330
382.0422, 8727.694
382.5243, 8777.998
383.0064, 8821.013
383.4885, 8842.762
383.9706, 8847.315
384.4528, 8863.123
384.9349, 8923.041
385.4170, 9003.635
385.8991, 9067.339
386.3812, 9107.643
386.8633, 9135.599
387.3455, 9148.870
387.8276, 9157.081
388.3097, 9182.723
388.7918, 9248.194
389.2739, 9328.428
389.7560, 9408.010
390.2382, 9486.690
390.7203, 9553.167
391.2024, 9585.979
391.6845, 9608.221
392.1666, 9647.000
392.6487, 9719.306
393.1309, 9802.196
393.6130, 9893.114
394.0951, 9990.499
394.5772, 10075.54
395.0593, 10130.15
395.5414, 10179.45
396.0236, 10238.61
396.5057, 10318.80
396.9878, 10398.48
397.4699, 10469.40
397.9520, 10537.30
398.4341, 10619.87
398.9163, 10738.15
399.3984, 10849.06
399.8805, 10933.42
400.3626, 10975.06
400.8447, 11039.39
401.3268, 11138.72
401.8090, 11251.57
402.2911, 11353.50
402.7732, 11450.17
403.2553, 11516.90
403.7374, 11535.36
404.2195, 11509.71
404.7017, 11520.65
405.1838, 11577.98
405.6659, 11645.84
406.1480, 11696.53
406.6301, 11730.43
407.1122, 11741.51
407.5944, 11721.87
408.0765, 11685.78
408.5586, 11670.92
409.0407, 11676.72
409.5228, 11678.04
410.0049, 11660.52
410.4871, 11625.83
410.9692, 11575.67
411.4513, 11507.70
411.9334, 11433.64
412.4155, 11362.07
412.8976, 11293.39
413.3798, 11231.46
413.8619, 11191.58
414.3440, 11150.22
414.8261, 11074.04
415.3082, 10962.33
415.7903, 10857.15
416.2725, 10785.36
416.7546, 10734.72
417.2367, 10690.86
417.7188, 10669.58
418.2009, 10633.10
418.6830, 10551.54
419.1652, 10436.93
419.6473, 10336.57
420.1294, 10273.88
420.6115, 10223.12
421.0937, 10169.63
421.5758, 10110.70
422.0579, 10053.12
422.5400, 9993.294
423.0221, 9936.130
423.5042, 9888.612
423.9864, 9862.499
424.4685, 9833.568
424.9506, 9795.387
425.4327, 9747.743
425.9148, 9697.966
426.3969, 9635.012
426.8791, 9582.488
427.3612, 9568.362
427.8433, 9612.750
428.3254, 9631.662
428.8075, 9608.980
429.2896, 9554.482
429.7718, 9498.503
430.2539, 9439.443
430.7360, 9386.560
431.2181, 9346.537
431.7002, 9318.864
432.1823, 9297.726
432.6645, 9284.430
433.1466, 9272.273
433.6287, 9250.108
434.1108, 9220.207
434.5929, 9193.809
435.0750, 9177.706
435.5572, 9167.317
436.0393, 9155.411
436.5214, 9141.997
437.0035, 9127.233
437.4856, 9106.501
437.9677, 9086.022
438.4499, 9075.834
438.9320, 9084.443
439.4141, 9093.762
439.8962, 9087.718
440.3783, 9072.046
440.8604, 9061.354
441.3426, 9067.883
441.8247, 9076.969
442.3068, 9080.408
442.7889, 9076.505
443.2710, 9070.778
443.7531, 9058.755
444.2353, 9047.987
444.7174, 9046.627
445.1995, 9068.999
445.6816, 9086.465
446.1637, 9090.200
446.6458, 9082.101
447.1280, 9083.298
447.6101, 9098.403
448.0922, 9117.803
448.5743, 9137.484
449.0564, 9161.593
449.5385, 9174.373
450.0207, 9171.380
450.5028, 9160.589
450.9849, 9157.292
451.4670, 9162.897
451.9491, 9168.887
452.4312, 9170.805
452.9134, 9169.790
453.3955, 9174.785
453.8776, 9185.954
454.3597, 9201.620
454.8418, 9225.159
455.3239, 9253.187
455.8061, 9269.936
456.2882, 9269.355
456.7703, 9260.161
457.2524, 9255.168
457.7345, 9252.726
458.2166, 9245.885
458.6988, 9227.367
459.1809, 9203.903
459.6630, 9182.852
460.1451, 9164.959
460.6272, 9147.968
461.1093, 9130.081
461.5915, 9112.434
462.0736, 9096.811
462.5557, 9089.425
463.0378, 9078.622
463.5199, 9058.690
464.0020, 9030.773
464.4842, 9002.953
464.9663, 8965.431
465.4484, 8937.219
465.9305, 8930.416
466.4126, 8972.611
466.8947, 8987.560
467.3769, 8960.951
467.8590, 8913.463
468.3411, 8879.294
468.8232, 8868.198
469.3053, 8850.413
469.7874, 8811.560
470.2696, 8754.141
470.7517, 8728.382
471.2338, 8741.478
471.7159, 8764.127
472.1980, 8768.966
472.6801, 8756.630
473.1623, 8754.560
473.6444, 8768.044
474.1265, 8790.548
474.6086, 8814.338
475.0907, 8838.603
475.5728, 8858.100
476.0550, 8865.734
476.5371, 8868.373
477.0192, 8874.735
477.5013, 8885.037
477.9834, 8904.098
478.4655, 8943.709
478.9477, 8991.956
479.4298, 9031.989
479.9119, 9047.950
480.3940, 9068.940
480.8761, 9113.707
481.3582, 9175.832
481.8404, 9236.438
482.3225, 9287.536
482.8046, 9337.211
483.2867, 9388.717
483.7688, 9441.295
484.2509, 9499.273
484.7331, 9564.633
485.2152, 9634.554
485.6973, 9708.481
486.1794, 9790.655
486.6615, 9869.716
487.1436, 9943.685
487.6258, 10013.69
488.1079, 10083.50
488.5900, 10149.62
489.0721, 10224.30
489.5542, 10320.01
490.0363, 10437.44
490.5185, 10540.43
491.0006, 10627.91
491.4827, 10698.56
491.9648, 10743.68
492.4470, 10766.97
492.9291, 10786.96
493.4112, 10805.50
493.8933, 10827.49
494.3754, 10872.95
494.8575, 10935.61
495.3397, 10973.41
495.8218, 10944.41
496.3039, 10883.27
496.7860, 10828.47
497.2681, 10787.72
497.7502, 10742.74
498.2324, 10693.11
498.7145, 10630.55
499.1966, 10542.75
499.6787, 10398.35
500.1608, 10256.79
500.6429, 10136.28
501.1251, 10036.24
501.6072, 9940.780
502.0893, 9854.120
502.5714, 9765.778
503.0535, 9669.816
503.5356, 9560.788
504.0178, 9456.258
504.4999, 9350.535
504.9820, 9255.551
505.4641, 9194.803
505.9462, 9177.402
506.4283, 9146.099
506.9105, 9075.349
507.3926, 8980.542
507.8747, 8929.050
508.3568, 8922.869
508.8389, 8920.587
509.3210, 8887.943
509.8032, 8835.119
510.2853, 8789.319
510.7674, 8754.046
511.2495, 8725.387
511.7316, 8702.020
512.2137, 8682.075
512.6959, 8662.125
513.1780, 8633.740
513.6601, 8610.426
514.1422, 8608.761
514.6243, 8624.304
515.1064, 8626.681
515.5886, 8592.379
516.0707, 8549.279
516.5528, 8512.298
517.0349, 8474.532
517.5170, 8460.619
517.9991, 8499.778
518.4813, 8553.727
518.9634, 8572.557
519.4455, 8533.168
519.9276, 8497.960
520.4097, 8478.163
520.8918, 8472.872
521.3740, 8475.620
521.8561, 8488.258
522.3382, 8502.799
522.8203, 8518.418
523.3024, 8534.089
523.7845, 8529.673
524.2667, 8499.359
524.7488, 8466.701
525.2309, 8464.778
525.7130, 8485.333
526.1951, 8499.465
526.6772, 8493.506
527.1594, 8479.841
527.6415, 8473.678
528.1236, 8472.981
528.6057, 8468.587
529.0878, 8448.140
529.5699, 8426.723
530.0521, 8418.511
530.5342, 8429.549
531.0163, 8433.998
531.4984, 8412.080
531.9805, 8384.332
532.4626, 8372.487
532.9448, 8394.021
533.4269, 8414.269
533.9090, 8428.856
534.3911, 8439.296
534.8732, 8451.812
535.3553, 8470.954
535.8375, 8483.812
536.3196, 8483.224
536.8017, 8468.493
537.2838, 8453.862
537.7659, 8438.009
538.2480, 8426.183
538.7302, 8425.252
539.2123, 8434.057
539.6944, 8444.154
540.1765, 8452.539
540.6586, 8463.584
541.1407, 8492.241
541.6229, 8531.292
542.1050, 8555.374
542.5871, 8535.885
543.0692, 8505.167
543.5513, 8493.864
544.0334, 8503.552
544.5156, 8512.123
544.9977, 8502.039
545.4798, 8490.729
545.9619, 8493.175
546.4440, 8533.055
546.9261, 8555.679
547.4083, 8543.202
547.8904, 8510.685
548.3725, 8484.270
548.8546, 8457.737
549.3367, 8448.240
549.8188, 8468.338
550.3010, 8513.627
550.7831, 8528.208
551.2652, 8503.790
551.7473, 8476.271
552.2294, 8474.520
552.7115, 8495.411
553.1937, 8506.656
553.6758, 8504.008
554.1579, 8498.735
554.6400, 8503.663
555.1221, 8517.228
555.6042, 8535.052
556.0864, 8559.137
556.5685, 8583.430
557.0506, 8605.029
557.5327, 8622.625
558.0148, 8630.817
558.4969, 8614.557
558.9791, 8597.433
559.4612, 8596.027
559.9433, 8615.887
560.4254, 8631.315
560.9075, 8635.213
561.3896, 8633.982
561.8718, 8633.820
562.3539, 8640.023
562.8360, 8637.131
563.3181, 8616.954
563.8002, 8590.393
564.2823, 8586.146
564.7645, 8609.146
565.2466, 8632.708
565.7287, 8647.992
566.2108, 8655.278
566.6929, 8652.015
567.1750, 8637.682
567.6572, 8625.188
568.1393, 8626.494
568.6214, 8637.375
569.1035, 8650.360
569.5856, 8665.190
570.0677, 8678.703
570.5499, 8689.374
571.0320, 8696.915
571.5141, 8700.987
571.9962, 8691.050
572.4783, 8687.973
572.9604, 8713.278
573.4426, 8757.648
573.9247, 8773.489
574.4068, 8714.366
574.8889, 8660.656
575.3710, 8644.934
575.8531, 8674.998
576.3353, 8703.910
576.8174, 8734.803
577.2995, 8759.476
577.7816, 8768.210
578.2637, 8759.438
578.7458, 8748.788
579.2280, 8734.942
579.7101, 8726.718
580.1922, 8746.664
580.6743, 8789.681
581.1564, 8826.963
581.6385, 8847.860
582.1207, 8854.117
582.6028, 8837.815
583.0849, 8803.006
583.5670, 8780.126
584.0491, 8802.184
584.5313, 8833.785
585.0134, 8844.866
585.4955, 8822.245
585.9776, 8807.529
586.4597, 8815.845
586.9418, 8835.661
587.4240, 8854.148
587.9061, 8872.852
588.3882, 8886.890
588.8703, 8893.357
589.3524, 8895.473
589.8345, 8902.336
590.3167, 8914.083
590.7988, 8930.485
591.2809, 8954.467
591.7630, 8983.326
592.2451, 9001.054
592.7272, 9007.364
593.2094, 9009.445
593.6915, 9016.511
594.1736, 9022.940
594.6557, 9012.653
595.1378, 8977.036
595.6199, 8951.515
596.1021, 8976.917
596.5842, 9025.530
597.0663, 9057.951
597.5485, 9045.730
598.0306, 9030.941
598.5127, 9024.924
598.9948, 9026.837
599.4769, 9032.427
599.9590, 9049.005
600.4412, 9059.826
600.9233, 9055.807
601.4054, 9035.025
601.8875, 9031.241
602.3696, 9049.439
602.8517, 9072.519
603.3339, 9085.450
603.8160, 9089.147
604.2981, 9093.543
604.7802, 9099.522
605.2623, 9107.036
605.7444, 9118.907
606.2266, 9132.459
606.7087, 9139.729
607.1908, 9131.270
607.6729, 9122.427
608.1550, 9126.785
608.6371, 9141.096
609.1193, 9154.947
609.6014, 9163.351
610.0835, 9170.961
610.5656, 9182.096
611.0477, 9198.815
611.5298, 9203.260
612.0120, 9176.587
612.4941, 9155.739
612.9762, 9171.948
613.4583, 9245.434
613.9404, 9279.042
614.4225, 9258.210
614.9047, 9215.127
615.3868, 9195.358
615.8689, 9197.093
616.3510, 9197.047
616.8331, 9182.090
617.3152, 9170.087
617.7974, 9204.287
618.2795, 9269.936
618.7616, 9311.635
619.2437, 9271.670
619.7258, 9216.332
620.2079, 9195.512
620.6901, 9211.952
621.1722, 9233.146
621.6543, 9257.737
622.1364, 9276.518
622.6185, 9282.330
623.1006, 9268.572
623.5828, 9256.543
624.0649, 9249.669
624.5470, 9241.379
625.0291, 9219.294
625.5112, 9177.414
625.9933, 9154.511
626.4755, 9159.766
626.9576, 9184.968
627.4397, 9223.274
627.9218, 9271.310
628.4039, 9303.312
628.8860, 9298.061
629.3682, 9273.896
629.8503, 9251.887
630.3324, 9232.362
630.8145, 9217.263
631.2966, 9209.262
631.7787, 9205.202
632.2609, 9204.136
632.7430, 9207.686
633.2251, 9207.195
633.7072, 9189.681
634.1893, 9174.544
634.6714, 9178.775
635.1536, 9213.012
635.6357, 9244.311
636.1178, 9272.846
636.5999, 9294.407
637.0820, 9298.917
637.5641, 9285.775
638.0463, 9268.505
638.5284, 9249.414
639.0105, 9230.567
639.4926, 9209.538
639.9747, 9189.283
640.4568, 9187.022
640.9390, 9235.980
641.4211, 9292.830
641.9032, 9312.725
