##NAMES=Stilpnomelane
##RRUFFID=R070696
##IDEAL CHEMISTRY=(K,Ca,Na)(Fe^2+^,Mg,Al,Fe^3+^)_8_(Si,Al)_12_(O,OH)_36_&#183;nH_2_O
##LOCALITY=Brunsjo mine, Grythyttan, Vastmanland, Sweden
##OWNER=RRUFF
##SOURCE=James Shigley
##DESCRIPTION=Radiating black platy
##STATUS=The identification of this mineral has been confirmed by single-crystal X-ray diffraction.
##URL=rruff.info/R070696
114.9269, 26502.35
115.4091, 26546.35
115.8912, 26565.98
116.3733, 26559.61
116.8554, 26533.51
117.3375, 26486.45
117.8196, 26419.36
118.3018, 26338.42
118.7839, 26253.29
119.2660, 26140.21
119.7481, 26056.10
120.2302, 26001.83
120.7123, 25975.26
121.1945, 25982.24
121.6766, 26028.92
122.1587, 26099.32
122.6408, 26130.36
123.1229, 26110.88
123.6050, 26075.37
124.0872, 26021.29
124.5693, 25955.58
125.0514, 25906.49
125.5335, 25902.04
126.0156, 25929.18
126.4978, 25922.48
126.9799, 25843.81
127.4620, 25751.55
127.9441, 25706.49
128.4262, 25716.94
128.9083, 25737.83
129.3905, 25738.50
129.8726, 25724.02
130.3547, 25701.06
130.8368, 25675.30
131.3189, 25643.52
131.8010, 25591.38
132.2832, 25499.91
132.7653, 25410.98
133.2474, 25344.73
133.7295, 25300.49
134.2116, 25274.55
134.6937, 25273.17
135.1759, 25302.33
135.6580, 25310.46
136.1401, 25268.77
136.6222, 25222.25
137.1043, 25199.85
137.5864, 25204.27
138.0686, 25209.34
138.5507, 25168.78
139.0328, 25037.42
139.5149, 24945.91
139.9970, 24927.78
140.4791, 24933.88
140.9613, 24919.84
141.4434, 24866.80
141.9255, 24789.65
142.4076, 24737.24
142.8897, 24741.56
143.3718, 24737.46
143.8540, 24700.49
144.3361, 24651.78
144.8182, 24635.04
145.3003, 24685.61
145.7824, 24791.47
146.2645, 24797.88
146.7467, 24622.11
147.2288, 24448.20
147.7109, 24354.31
148.1930, 24337.65
148.6751, 24357.71
149.1572, 24393.84
149.6394, 24444.46
150.1215, 24467.26
150.6036, 24436.58
151.0857, 24390.94
151.5678, 24365.01
152.0499, 24362.56
152.5321, 24378.44
153.0142, 24428.25
153.4963, 24502.06
153.9784, 24546.04
154.4605, 24526.66
154.9426, 24464.64
155.4248, 24405.30
155.9069, 24347.37
156.3890, 24307.83
156.8711, 24299.32
157.3532, 24319.91
157.8353, 24355.56
158.3175, 24402.93
158.7996, 24461.52
159.2817, 24514.04
159.7638, 24570.99
160.2459, 24608.26
160.7280, 24604.96
161.2102, 24558.80
161.6923, 24494.97
162.1744, 24440.39
162.6565, 24395.64
163.1386, 24359.66
163.6208, 24343.72
164.1029, 24329.14
164.5850, 24295.35
165.0671, 24235.11
165.5492, 24170.83
166.0313, 24153.82
166.5135, 24224.88
166.9956, 24283.08
167.4777, 24313.22
167.9598, 24325.90
168.4419, 24330.44
168.9240, 24331.12
169.4062, 24329.75
169.8883, 24335.49
170.3704, 24400.45
170.8525, 24416.17
171.3346, 24323.88
171.8167, 24171.85
172.2989, 24040.78
172.7810, 23984.15
173.2631, 24000.94
173.7452, 24034.98
174.2273, 24113.36
174.7094, 24179.26
175.1916, 24211.34
175.6737, 24210.81
176.1558, 24189.43
176.6379, 24155.35
177.1200, 24106.94
177.6021, 24049.96
178.0843, 23956.59
178.5664, 23874.29
179.0485, 23846.51
179.5306, 23876.09
180.0127, 23916.42
180.4948, 23919.76
180.9770, 23884.38
181.4591, 23857.15
181.9412, 23839.27
182.4233, 23833.77
182.9054, 23854.26
183.3875, 23910.47
183.8697, 23961.37
184.3518, 23948.63
184.8339, 23881.33
185.3160, 23811.99
185.7981, 23749.80
186.2802, 23698.57
186.7624, 23669.71
187.2445, 23673.22
187.7266, 23688.89
188.2087, 23696.38
188.6908, 23696.08
189.1729, 23694.14
189.6551, 23694.25
190.1372, 23696.09
190.6193, 23696.78
191.1014, 23692.88
191.5835, 23690.46
192.0656, 23700.57
192.5478, 23724.15
193.0299, 23736.95
193.5120, 23706.93
193.9941, 23628.01
194.4762, 23565.24
194.9583, 23539.85
195.4405, 23531.94
195.9226, 23541.29
196.4047, 23567.60
196.8868, 23585.83
197.3689, 23545.50
197.8510, 23404.44
198.3332, 23333.71
198.8153, 23460.49
199.2974, 23608.63
199.7795, 23628.71
200.2616, 23469.40
200.7437, 23232.47
201.2259, 23121.54
201.7080, 23216.67
202.1901, 23300.72
202.6722, 23346.38
203.1543, 23367.51
203.6364, 23375.27
204.1186, 23374.42
204.6007, 23366.00
205.0828, 23352.36
205.5649, 23326.13
206.0470, 23304.37
206.5291, 23297.99
207.0113, 23294.51
207.4934, 23276.29
207.9755, 23232.96
208.4576, 23172.36
208.9397, 23131.58
209.4218, 23126.02
209.9040, 23125.39
210.3861, 23132.06
210.8682, 23140.05
211.3503, 23138.28
211.8324, 23118.26
212.3146, 23084.21
212.7967, 23076.51
213.2788, 23127.70
213.7609, 23167.80
214.2430, 23173.55
214.7251, 23153.36
215.2073, 23126.59
215.6894, 23104.73
216.1715, 23087.95
216.6536, 23078.75
217.1357, 23082.02
217.6178, 23086.03
218.1000, 23088.49
218.5821, 23088.08
219.0642, 23080.74
219.5463, 23060.75
220.0284, 23029.27
220.5105, 23014.67
220.9927, 23027.58
221.4748, 23045.88
221.9569, 23057.25
222.4390, 23062.18
222.9211, 23069.36
223.4032, 23088.73
223.8854, 23118.72
224.3675, 23129.57
224.8496, 23109.40
225.3317, 23079.50
225.8138, 23055.67
226.2959, 23038.55
226.7781, 23018.13
227.2602, 22982.99
227.7423, 22935.24
228.2244, 22900.54
228.7065, 22885.26
229.1886, 22880.65
229.6708, 22880.80
230.1529, 22885.43
230.6350, 22890.55
231.1171, 22894.48
231.5992, 22896.43
232.0813, 22892.48
232.5635, 22873.89
233.0456, 22852.85
233.5277, 22847.40
234.0098, 22861.43
234.4919, 22873.87
234.9740, 22855.43
235.4562, 22819.22
235.9383, 22806.28
236.4204, 22845.22
236.9025, 22907.49
237.3846, 22952.54
237.8667, 22978.02
238.3489, 22987.97
238.8310, 22980.79
239.3131, 22960.41
239.7952, 22932.85
240.2773, 22891.60
240.7594, 22846.25
241.2416, 22816.13
241.7237, 22806.47
242.2058, 22800.30
242.6879, 22775.08
243.1700, 22742.52
243.6521, 22732.18
244.1343, 22773.56
244.6164, 22844.19
245.0985, 22893.74
245.5806, 22922.60
246.0627, 22925.48
246.5448, 22887.23
247.0270, 22822.40
247.5091, 22761.41
247.9912, 22719.86
248.4733, 22692.99
248.9554, 22664.76
249.4375, 22627.57
249.9197, 22604.71
250.4018, 22621.08
250.8839, 22660.12
251.3660, 22687.14
251.8481, 22670.60
252.3302, 22627.67
252.8124, 22620.30
253.2945, 22669.35
253.7766, 22720.65
254.2587, 22752.30
254.7408, 22766.30
255.2229, 22765.35
255.7051, 22748.81
256.1872, 22718.47
256.6693, 22675.38
257.1514, 22595.26
257.6335, 22543.79
258.1157, 22560.85
258.5978, 22621.71
259.0799, 22681.58
259.5620, 22719.75
260.0441, 22736.78
260.5262, 22732.82
261.0084, 22692.05
261.4905, 22653.62
261.9726, 22633.23
262.4547, 22625.82
262.9368, 22622.98
263.4189, 22620.30
263.9011, 22618.47
264.3832, 22619.50
264.8653, 22618.05
265.3474, 22629.14
265.8295, 22661.50
266.3116, 22707.52
266.7938, 22756.26
267.2759, 22805.03
267.7580, 22850.88
268.2401, 22883.30
268.7222, 22902.62
269.2043, 22906.01
269.6865, 22880.35
270.1686, 22843.60
270.6507, 22822.91
271.1328, 22837.03
271.6149, 22872.97
272.0970, 22883.74
272.5792, 22842.97
273.0613, 22820.86
273.5434, 22856.64
274.0255, 22915.39
274.5076, 22944.95
274.9897, 22908.08
275.4719, 22843.45
275.9540, 22877.33
276.4361, 23102.53
276.9182, 23259.95
277.4003, 23246.34
277.8824, 23150.18
278.3646, 23068.52
278.8467, 23044.58
279.3288, 23062.13
279.8109, 23083.76
280.2930, 23109.96
280.7751, 23139.89
281.2573, 23179.63
281.7394, 23219.80
282.2215, 23249.10
282.7036, 23261.71
283.1857, 23267.44
283.6678, 23290.56
284.1500, 23349.32
284.6321, 23384.07
285.1142, 23363.10
285.5963, 23325.55
286.0784, 23301.46
286.5605, 23300.63
287.0427, 23323.54
287.5248, 23386.55
288.0069, 23533.87
288.4890, 23604.37
288.9711, 23493.24
289.4532, 23345.86
289.9354, 23280.38
290.4175, 23329.77
290.8996, 23420.74
291.3817, 23441.33
291.8638, 23363.67
292.3459, 23306.43
292.8281, 23311.14
293.3102, 23326.05
293.7923, 23313.45
294.2744, 23267.17
294.7565, 23217.39
295.2386, 23205.83
295.7208, 23243.23
296.2029, 23268.03
296.6850, 23269.54
297.1671, 23258.23
297.6492, 23222.64
298.1313, 23168.26
298.6135, 23134.67
299.0956, 23178.71
299.5777, 23313.57
300.0598, 23413.43
300.5419, 23480.59
301.0240, 23494.60
301.5062, 23409.79
301.9883, 23244.43
302.4704, 23089.76
302.9525, 23033.62
303.4346, 23078.12
303.9167, 23113.71
304.3989, 23141.59
304.8810, 23154.14
305.3631, 23138.53
305.8452, 23103.00
306.3273, 23073.31
306.8094, 23080.25
307.2916, 23116.76
307.7737, 23111.19
308.2558, 23028.90
308.7379, 22949.17
309.2200, 22918.94
309.7021, 22918.84
310.1843, 22904.64
310.6664, 22832.73
311.1485, 22728.49
311.6306, 22690.92
312.1127, 22755.66
312.5948, 22823.57
313.0770, 22847.13
313.5591, 22844.08
314.0412, 22841.25
314.5233, 22853.20
315.0054, 22870.25
315.4875, 22869.97
315.9697, 22845.41
316.4518, 22822.41
316.9339, 22818.44
317.4160, 22820.18
317.8981, 22812.86
318.3802, 22792.09
318.8624, 22760.03
319.3445, 22699.75
319.8266, 22595.55
320.3087, 22555.94
320.7908, 22699.21
321.2729, 22893.83
321.7551, 23014.61
322.2372, 23030.73
322.7193, 22996.28
323.2014, 22955.56
323.6835, 22908.76
324.1656, 22854.76
324.6478, 22768.33
325.1299, 22696.87
325.6120, 22701.04
326.0941, 22795.43
326.5762, 22882.80
327.0583, 22883.62
327.5405, 22812.52
328.0226, 22747.87
328.5047, 22697.99
328.9868, 22673.26
329.4689, 22697.50
329.9510, 22770.18
330.4332, 22815.65
330.9153, 22770.97
331.3974, 22673.14
331.8795, 22615.23
332.3616, 22618.57
332.8438, 22645.64
333.3259, 22673.09
333.8080, 22698.84
334.2901, 22699.02
334.7722, 22637.13
335.2544, 22557.69
335.7365, 22529.24
336.2186, 22562.46
336.7007, 22602.54
337.1828, 22603.48
337.6649, 22572.25
338.1471, 22546.94
338.6292, 22522.03
339.1113, 22511.43
339.5934, 22538.30
340.0755, 22599.23
340.5576, 22652.70
341.0398, 22671.67
341.5219, 22660.79
342.0040, 22650.91
342.4861, 22659.70
342.9682, 22652.33
343.4503, 22585.50
343.9325, 22483.86
344.4146, 22426.29
344.8967, 22458.39
345.3788, 22548.33
345.8609, 22597.94
346.3430, 22598.56
346.8252, 22584.63
347.3073, 22555.73
347.7894, 22519.80
348.2715, 22485.10
348.7536, 22453.59
349.2357, 22433.92
349.7179, 22444.85
350.2000, 22513.14
350.6821, 22556.24
351.1642, 22557.79
351.6463, 22539.21
352.1284, 22508.92
352.6106, 22472.57
353.0927, 22453.52
353.5748, 22486.12
354.0569, 22598.16
354.5390, 22652.33
355.0211, 22609.56
355.5033, 22550.32
355.9854, 22513.40
356.4675, 22502.12
356.9496, 22505.93
357.4317, 22516.79
357.9138, 22534.72
358.3960, 22558.64
358.8781, 22615.65
359.3602, 22649.81
359.8423, 22629.27
360.3244, 22575.65
360.8065, 22526.48
361.2887, 22502.80
361.7708, 22500.71
362.2529, 22503.63
362.7350, 22514.64
363.2171, 22526.63
363.6992, 22550.06
364.1814, 22568.91
364.6635, 22560.48
365.1456, 22516.80
365.6277, 22461.83
366.1098, 22436.80
366.5919, 22445.07
367.0741, 22476.49
367.5562, 22584.57
368.0383, 22674.93
368.5204, 22669.75
369.0025, 22566.65
369.4846, 22442.92
369.9668, 22382.23
370.4489, 22390.16
370.9310, 22387.24
371.4131, 22351.46
371.8952, 22323.48
372.3773, 22332.14
372.8595, 22367.43
373.3416, 22395.74
373.8237, 22386.27
374.3058, 22351.71
374.7879, 22344.18
375.2701, 22374.71
375.7522, 22409.32
376.2343, 22441.35
376.7164, 22463.81
377.1985, 22461.04
377.6806, 22413.47
378.1628, 22354.39
378.6449, 22331.43
379.1270, 22347.16
379.6091, 22362.01
380.0912, 22362.09
380.5733, 22349.20
381.0555, 22323.71
381.5376, 22277.25
382.0197, 22240.44
382.5018, 22244.28
382.9839, 22276.52
383.4660, 22290.29
383.9482, 22266.14
384.4303, 22230.53
384.9124, 22221.92
385.3945, 22240.55
385.8766, 22264.11
386.3587, 22300.11
386.8409, 22331.73
387.3230, 22331.29
387.8051, 22294.37
388.2872, 22253.28
388.7693, 22240.17
389.2514, 22258.58
389.7336, 22262.51
390.2157, 22244.37
390.6978, 22218.78
391.1799, 22181.88
391.6620, 22142.37
392.1441, 22130.60
392.6263, 22171.00
393.1084, 22250.60
393.5905, 22285.59
394.0726, 22228.63
394.5547, 22187.36
395.0368, 22200.69
395.5190, 22234.11
396.0011, 22238.10
396.4832, 22194.18
396.9653, 22128.53
397.4474, 22092.07
397.9295, 22112.40
398.4117, 22112.79
398.8938, 22065.85
399.3759, 22021.88
399.8580, 22026.88
400.3401, 22077.09
400.8222, 22124.45
401.3044, 22114.45
401.7865, 22040.22
402.2686, 21990.32
402.7507, 21976.69
403.2328, 21977.64
403.7149, 21997.99
404.1971, 22026.59
404.6792, 22043.18
405.1613, 22034.02
405.6434, 22007.33
406.1255, 21983.09
406.6076, 21956.59
407.0898, 21944.56
407.5719, 21983.16
408.0540, 22024.57
408.5361, 22013.00
409.0182, 21927.12
409.5003, 21827.99
409.9825, 21772.47
410.4646, 21759.41
410.9467, 21769.95
411.4288, 21816.82
411.9109, 21865.80
412.3930, 21880.62
412.8752, 21862.31
413.3573, 21836.81
413.8394, 21814.61
414.3215, 21792.52
414.8036, 21760.99
415.2857, 21717.20
415.7679, 21682.17
416.2500, 21677.80
416.7321, 21700.80
417.2142, 21713.14
417.6963, 21706.56
418.1784, 21694.84
418.6606, 21684.08
419.1427, 21674.80
419.6248, 21667.45
420.1069, 21661.93
420.5890, 21658.84
421.0711, 21660.73
421.5533, 21688.62
422.0354, 21691.98
422.5175, 21647.68
422.9996, 21584.64
423.4817, 21528.88
423.9638, 21488.24
424.4460, 21463.23
424.9281, 21456.36
425.4102, 21474.70
425.8923, 21486.16
426.3744, 21479.50
426.8565, 21477.83
427.3387, 21498.75
427.8208, 21534.16
428.3029, 21563.14
428.7850, 21571.76
429.2671, 21561.62
429.7492, 21541.24
430.2314, 21512.53
430.7135, 21468.31
431.1956, 21379.71
431.6777, 21289.30
432.1598, 21247.61
432.6420, 21272.06
433.1241, 21322.17
433.6062, 21358.60
434.0883, 21382.78
434.5704, 21360.74
435.0526, 21236.23
435.5347, 21115.86
436.0168, 21099.98
436.4989, 21178.23
436.9810, 21241.15
437.4631, 21207.16
437.9453, 21128.27
438.4274, 21114.39
438.9095, 21183.53
439.3916, 21242.98
439.8737, 21216.92
440.3558, 21128.24
440.8380, 21070.71
441.3201, 21069.40
441.8022, 21080.78
442.2843, 21080.16
442.7664, 21073.13
443.2485, 21077.44
443.7307, 21102.74
444.2128, 21133.69
444.6949, 21139.69
445.1770, 21108.73
445.6591, 21075.80
446.1412, 21031.58
446.6234, 20992.69
447.1055, 20981.21
447.5876, 20994.12
448.0697, 21000.22
448.5518, 20964.88
449.0339, 20884.32
449.5161, 20853.31
449.9982, 20944.04
450.4803, 21007.33
450.9624, 20977.86
451.4445, 20905.81
451.9266, 20871.48
452.4088, 20914.86
452.8909, 20993.28
453.3730, 21023.19
453.8551, 20995.57
454.3372, 20949.27
454.8193, 20856.10
455.3015, 20771.43
455.7836, 20732.40
456.2657, 20740.51
456.7478, 20767.37
457.2299, 20805.58
457.7120, 20847.38
458.1942, 20861.88
458.6763, 20840.48
459.1584, 20810.55
459.6405, 20783.95
460.1226, 20762.88
460.6047, 20754.34
461.0869, 20770.70
461.5690, 20788.51
462.0511, 20792.99
462.5332, 20784.63
463.0153, 20760.84
463.4974, 20714.70
463.9796, 20665.54
464.4617, 20653.93
464.9438, 20694.74
465.4259, 20730.83
465.9080, 20755.62
466.3901, 20773.09
466.8723, 20785.00
467.3544, 20792.43
467.8365, 20799.07
468.3186, 20809.79
468.8007, 20824.55
469.2828, 20820.77
469.7650, 20784.16
470.2471, 20744.37
470.7292, 20689.79
471.2113, 20641.62
471.6934, 20632.54
472.1755, 20675.66
472.6577, 20740.78
473.1398, 20771.44
473.6219, 20753.63
474.1040, 20762.37
474.5861, 20852.20
475.0682, 20932.09
475.5504, 20940.11
476.0325, 20885.20
476.5146, 20826.74
476.9967, 20798.97
477.4788, 20792.96
477.9609, 20786.14
478.4431, 20775.67
478.9252, 20781.03
479.4073, 20829.92
479.8894, 20896.83
480.3715, 20925.99
480.8536, 20901.76
481.3358, 20862.92
481.8179, 20809.56
482.3000, 20758.88
482.7821, 20753.93
483.2642, 20809.39
483.7463, 20878.33
484.2285, 20900.33
484.7106, 20859.52
485.1927, 20836.00
485.6748, 20840.67
486.1569, 20851.08
486.6390, 20847.38
487.1212, 20839.18
487.6033, 20854.74
488.0854, 20913.37
488.5675, 20997.88
489.0496, 21049.52
489.5317, 21047.03
490.0139, 21048.67
490.4960, 21071.66
490.9781, 21093.91
491.4602, 21093.82
491.9423, 21070.94
492.4244, 21048.42
492.9066, 21043.05
493.3887, 21054.99
493.8708, 21093.73
494.3529, 21183.87
494.8350, 21250.31
495.3171, 21206.00
495.7993, 21114.61
496.2814, 21090.54
496.7635, 21194.67
497.2456, 21321.28
497.7277, 21398.72
498.2098, 21430.12
498.6920, 21415.51
499.1741, 21343.10
499.6562, 21261.08
500.1383, 21244.02
500.6204, 21311.85
501.1025, 21362.38
501.5847, 21393.62
502.0668, 21402.70
502.5489, 21362.73
503.0310, 21294.11
503.5131, 21262.50
503.9952, 21314.19
504.4774, 21428.16
504.9595, 21509.35
505.4416, 21548.05
505.9237, 21565.67
506.4058, 21549.88
506.8879, 21525.76
507.3701, 21512.54
507.8522, 21513.98
508.3343, 21523.63
508.8164, 21534.12
509.2985, 21546.29
509.7806, 21573.22
510.2628, 21627.56
510.7449, 21673.07
511.2270, 21688.03
511.7091, 21681.27
512.1912, 21664.15
512.6733, 21632.61
513.1555, 21602.08
513.6376, 21582.42
514.1197, 21573.54
514.6018, 21576.91
515.0839, 21594.75
515.5660, 21618.28
516.0482, 21634.90
516.5303, 21640.92
517.0124, 21658.36
517.4945, 21699.02
517.9766, 21741.47
518.4587, 21774.07
518.9409, 21797.46
519.4230, 21816.81
519.9051, 21835.69
520.3872, 21850.58
520.8693, 21848.05
521.3514, 21809.05
521.8336, 21789.01
522.3157, 21808.70
522.7978, 21834.44
523.2799, 21841.53
523.7620, 21829.72
524.2441, 21816.73
524.7263, 21812.88
525.2084, 21818.82
525.6905, 21840.79
526.1726, 21885.05
526.6547, 21924.53
527.1368, 21947.38
527.6190, 21955.93
528.1011, 21948.48
528.5832, 21909.71
529.0653, 21892.70
529.5474, 21950.61
530.0295, 22042.89
530.5117, 22090.59
530.9938, 22077.50
531.4759, 22052.58
531.9580, 22065.36
532.4401, 22119.52
532.9222, 22154.44
533.4044, 22156.30
533.8865, 22157.39
534.3686, 22170.81
534.8507, 22189.38
535.3328, 22197.34
535.8149, 22189.23
536.2971, 22183.75
536.7792, 22217.38
537.2613, 22302.95
537.7434, 22362.93
538.2255, 22383.81
538.7076, 22386.48
539.1898, 22372.44
539.6719, 22348.92
540.1540, 22332.02
540.6361, 22324.39
541.1182, 22331.35
541.6003, 22370.39
542.0825, 22437.80
542.5646, 22485.58
543.0467, 22488.55
543.5288, 22478.04
544.0109, 22510.89
544.4930, 22598.33
544.9752, 22655.66
545.4573, 22658.13
545.9394, 22636.29
546.4215, 22601.10
546.9036, 22561.09
547.3857, 22532.69
547.8679, 22525.06
548.3500, 22539.47
548.8321, 22583.66
549.3142, 22682.91
549.7963, 22767.49
550.2784, 22840.85
550.7606, 22892.40
551.2427, 22908.87
551.7248, 22893.72
552.2069, 22867.87
552.6890, 22838.30
553.1711, 22811.49
553.6533, 22808.75
554.1354, 22832.76
554.6175, 22867.89
555.0996, 22901.97
555.5817, 22946.90
556.0638, 23029.73
556.5460, 23175.89
557.0281, 23281.79
557.5102, 23265.33
557.9923, 23206.49
558.4744, 23221.52
558.9565, 23317.07
559.4387, 23402.29
559.9208, 23399.34
560.4029, 23319.21
560.8850, 23279.29
561.3671, 23311.26
561.8492, 23346.96
562.3314, 23381.07
562.8135, 23413.99
563.2956, 23446.16
563.7777, 23477.83
564.2598, 23510.19
564.7419, 23551.61
565.2241, 23598.94
565.7062, 23612.57
566.1883, 23570.96
566.6704, 23544.96
567.1525, 23599.08
567.6346, 23684.49
568.1168, 23724.78
568.5989, 23690.74
569.0810, 23658.15
569.5631, 23682.04
570.0452, 23732.27
570.5273, 23749.67
571.0095, 23723.93
571.4916, 23697.44
571.9737, 23713.27
572.4558, 23771.24
572.9379, 23794.93
573.4200, 23726.44
573.9022, 23695.67
574.3843, 23767.71
574.8664, 23873.89
575.3485, 23929.19
575.8306, 23914.26
576.3127, 23885.57
576.7949, 23914.44
577.2770, 23998.45
577.7591, 24050.70
578.2412, 24059.40
578.7233, 24056.07
579.2054, 24040.96
579.6876, 24029.35
580.1697, 24052.45
580.6519, 24137.23
581.1340, 24209.23
581.6161, 24200.98
582.0982, 24153.86
582.5803, 24155.07
583.0624, 24221.55
583.5446, 24291.64
584.0267, 24305.09
584.5088, 24261.44
584.9909, 24241.54
585.4730, 24269.61
585.9551, 24290.85
586.4373, 24282.61
586.9194, 24267.07
587.4015, 24277.89
587.8836, 24320.20
588.3657, 24355.20
588.8478, 24321.46
589.3300, 24227.64
589.8121, 24202.26
590.2942, 24281.08
590.7763, 24352.49
591.2584, 24344.91
591.7405, 24292.45
592.2227, 24243.50
592.7048, 24191.76
593.1869, 24170.67
593.6690, 24232.16
594.1511, 24321.92
594.6332, 24346.52
595.1154, 24294.69
595.5975, 24235.68
596.0796, 24231.70
596.5617, 24277.71
597.0438, 24293.86
597.5259, 24259.94
598.0081, 24219.54
598.4902, 24165.64
598.9723, 24115.28
599.4544, 24081.72
599.9365, 24068.17
600.4186, 24073.40
600.9008, 24111.46
601.3829, 24169.67
601.8650, 24186.93
602.3471, 24152.71
602.8292, 24125.63
603.3113, 24142.16
603.7935, 24179.78
604.2756, 24192.93
604.7577, 24176.57
605.2398, 24151.35
605.7219, 24124.34
606.2040, 24090.82
606.6862, 24037.91
607.1683, 23970.31
607.6504, 23913.21
608.1325, 23884.38
608.6146, 23878.84
609.0967, 23880.59
609.5789, 23915.59
610.0610, 23906.77
610.5431, 23784.24
611.0252, 23666.62
611.5073, 23652.81
611.9894, 23729.30
