##NAMES=Stilbite-Ca
##RRUFFID=R050106
##IDEAL CHEMISTRY=NaCa_4_(Si_27_Al_9_)O_72_&#183;28H_2_O
##LOCALITY=Corea, Sonora, Mexico
##OWNER=RRUFF
##SOURCE=Fred Devito
##DESCRIPTION=White to colorless sheaflike aggregates of flattened single crystals
##STATUS=The identification of this mineral has been confirmed by X-ray diffraction and chemical analysis
##URL=rruff.info/R050106
##MEASURED CHEMISTRY=Na_1.42_Ca_4.28_(Si_26.02_Al_9.98_)O_72_Â·27.61H_2_O; trace amounts of K; H_2_O estimated by difference
101.6312, 8621.020
102.1133, 8774.611
102.5954, 8805.894
103.0775, 8830.542
103.5596, 8850.633
104.0418, 8866.444
104.5239, 8875.501
105.0060, 8867.805
105.4881, 8859.606
105.9702, 8876.708
106.4523, 8934.518
106.9345, 8996.874
107.4166, 9025.010
107.8987, 9014.561
108.3808, 8987.142
108.8629, 8944.019
109.3450, 8892.331
109.8272, 8839.867
110.3093, 8787.088
110.7914, 8735.466
111.2735, 8693.221
111.7556, 8659.035
112.2377, 8636.613
112.7199, 8631.449
113.2020, 8638.652
113.6841, 8647.562
114.1662, 8647.193
114.6483, 8633.291
115.1304, 8627.578
115.6126, 8635.455
116.0947, 8645.614
116.5768, 8659.396
117.0589, 8673.918
117.5410, 8676.946
118.0231, 8647.041
118.5053, 8530.240
118.9874, 8459.755
119.4695, 8465.540
119.9516, 8506.812
120.4337, 8538.470
120.9158, 8540.662
121.3980, 8523.209
121.8801, 8519.549
122.3622, 8548.395
122.8443, 8565.582
123.3264, 8551.289
123.8085, 8511.428
124.2907, 8467.077
124.7728, 8430.190
125.2549, 8398.217
125.7370, 8361.370
126.2191, 8306.373
126.7012, 8253.751
127.1834, 8229.168
127.6655, 8238.251
128.1476, 8245.946
128.6297, 8223.685
129.1118, 8181.859
129.5939, 8136.550
130.0761, 8091.288
130.5582, 8047.056
131.0403, 8004.359
131.5224, 7953.693
132.0045, 7919.852
132.4866, 7925.171
132.9688, 7960.093
133.4509, 7991.904
133.9330, 7992.294
134.4151, 7957.792
134.8972, 7919.071
135.3793, 7856.209
135.8615, 7805.208
136.3436, 7786.739
136.8257, 7802.690
137.3078, 7837.826
137.7899, 7871.082
138.2720, 7904.582
138.7542, 7931.485
139.2363, 7961.352
139.7184, 7981.116
140.2005, 7974.139
140.6826, 7934.283
141.1647, 7875.980
141.6469, 7841.863
142.1290, 7853.599
142.6111, 7867.281
143.0932, 7878.426
143.5753, 7888.974
144.0574, 7902.922
144.5396, 7923.179
145.0217, 7948.618
145.5038, 7969.554
145.9859, 7976.886
146.4680, 7989.147
146.9501, 8023.094
147.4323, 8073.632
147.9144, 8113.858
148.3965, 8119.767
148.8786, 8091.817
149.3607, 8074.901
149.8429, 8080.712
150.3250, 8091.767
150.8071, 8091.419
151.2892, 8077.563
151.7713, 8057.126
152.2534, 8028.867
152.7356, 7996.409
153.2177, 7976.653
153.6998, 7986.713
154.1819, 8013.347
154.6640, 8026.031
155.1461, 8020.673
155.6283, 7999.342
156.1104, 7961.677
156.5925, 7909.762
157.0746, 7857.718
157.5567, 7820.684
158.0388, 7798.005
158.5210, 7758.646
159.0031, 7675.099
159.4852, 7590.828
159.9673, 7535.252
160.4494, 7510.776
160.9315, 7493.047
161.4137, 7453.924
161.8958, 7388.212
162.3779, 7316.816
162.8600, 7220.868
163.3421, 7133.038
163.8242, 7084.185
164.3064, 7083.300
164.7885, 7102.615
165.2706, 7082.572
165.7527, 6984.379
166.2348, 6906.906
166.7169, 6876.637
167.1991, 6864.281
167.6812, 6842.246
168.1633, 6797.055
168.6454, 6731.083
169.1275, 6652.817
169.6096, 6537.439
170.0918, 6436.405
170.5739, 6363.649
171.0560, 6309.620
171.5381, 6258.226
172.0202, 6198.735
172.5023, 6132.021
172.9845, 6073.920
173.4666, 6028.702
173.9487, 5985.730
174.4308, 5944.741
174.9129, 5903.341
175.3951, 5853.861
175.8772, 5787.049
176.3593, 5702.066
176.8414, 5635.755
177.3235, 5595.414
177.8056, 5566.122
178.2878, 5543.230
178.7699, 5525.394
179.2520, 5500.146
179.7341, 5450.394
180.2162, 5376.493
180.6983, 5314.788
181.1805, 5272.541
181.6626, 5243.247
182.1447, 5223.473
182.6268, 5215.830
183.1089, 5205.024
183.5910, 5169.549
184.0732, 5113.879
184.5553, 5059.880
185.0374, 5012.658
185.5195, 4972.489
186.0016, 4941.275
186.4837, 4923.651
186.9659, 4908.567
187.4480, 4885.506
187.9301, 4855.143
188.4122, 4822.848
188.8943, 4787.484
189.3764, 4750.727
189.8586, 4726.008
190.3407, 4725.773
190.8228, 4729.347
191.3049, 4721.696
191.7870, 4702.075
192.2691, 4677.573
192.7513, 4654.891
193.2334, 4634.582
193.7155, 4610.522
194.1976, 4569.731
194.6797, 4532.125
195.1618, 4512.655
195.6440, 4513.712
196.1261, 4520.047
196.6082, 4511.129
197.0903, 4481.514
197.5724, 4452.676
198.0546, 4425.757
198.5367, 4401.971
199.0188, 4380.600
199.5009, 4361.470
199.9830, 4348.818
200.4651, 4353.166
200.9473, 4392.454
201.4294, 4415.146
201.9115, 4408.470
202.3936, 4389.128
202.8757, 4373.710
203.3578, 4369.241
203.8400, 4367.487
204.3221, 4345.016
204.8042, 4272.132
205.2863, 4217.391
205.7684, 4191.060
206.2505, 4184.272
206.7327, 4190.738
207.2148, 4208.096
207.6969, 4230.831
208.1790, 4236.044
208.6611, 4203.593
209.1432, 4174.542
209.6254, 4152.519
210.1075, 4137.399
210.5896, 4128.030
211.0717, 4123.708
211.5538, 4124.660
212.0359, 4132.890
212.5181, 4160.816
213.0002, 4181.910
213.4823, 4186.646
213.9644, 4179.421
214.4465, 4169.329
214.9286, 4161.472
215.4108, 4155.939
215.8929, 4153.528
216.3750, 4150.995
216.8571, 4153.813
217.3392, 4164.553
217.8213, 4182.602
218.3035, 4208.483
218.7856, 4247.830
219.2677, 4296.356
219.7498, 4309.487
220.2319, 4250.690
220.7140, 4193.396
221.1962, 4177.562
221.6783, 4200.748
222.1604, 4240.303
222.6425, 4288.769
223.1246, 4341.118
223.6067, 4360.177
224.0889, 4320.811
224.5710, 4267.980
225.0531, 4225.392
225.5352, 4195.202
226.0173, 4186.603
226.4994, 4217.849
226.9816, 4281.284
227.4637, 4320.475
227.9458, 4320.231
228.4279, 4301.658
228.9100, 4280.330
229.3921, 4256.761
229.8743, 4234.643
230.3564, 4212.892
230.8385, 4194.662
231.3206, 4191.929
231.8027, 4216.928
232.2849, 4253.381
232.7670, 4291.020
233.2491, 4333.601
233.7312, 4351.086
234.2133, 4286.925
234.6954, 4176.608
235.1776, 4109.450
235.6597, 4144.407
236.1418, 4222.743
236.6239, 4257.508
237.1060, 4239.817
237.5881, 4203.318
238.0703, 4160.183
238.5524, 4115.693
239.0345, 4082.651
239.5166, 4070.328
239.9987, 4070.919
240.4808, 4069.459
240.9630, 4063.573
241.4451, 4061.643
241.9272, 4082.000
242.4093, 4110.563
242.8914, 4117.197
243.3735, 4065.850
243.8557, 3987.153
244.3378, 3956.839
244.8199, 3993.778
245.3020, 4039.153
245.7841, 4068.213
246.2662, 4080.695
246.7484, 4072.192
247.2305, 4024.000
247.7126, 3954.878
248.1947, 3921.813
248.6768, 3944.865
249.1589, 3966.529
249.6411, 3951.022
250.1232, 3913.182
250.6053, 3879.777
251.0874, 3867.050
251.5695, 3868.641
252.0516, 3864.258
252.5338, 3850.926
253.0159, 3836.358
253.4980, 3824.210
253.9801, 3813.525
254.4622, 3802.074
254.9443, 3784.813
255.4265, 3766.546
255.9086, 3768.719
256.3907, 3814.650
256.8728, 3841.920
257.3549, 3810.629
257.8370, 3747.967
258.3192, 3700.564
258.8013, 3701.078
259.2834, 3734.052
259.7655, 3740.089
260.2476, 3698.632
260.7297, 3661.951
261.2119, 3652.606
261.6940, 3659.774
262.1761, 3666.667
262.6582, 3662.811
263.1403, 3652.519
263.6224, 3652.759
264.1046, 3671.275
264.5867, 3688.431
265.0688, 3704.007
265.5509, 3713.152
266.0330, 3707.301
266.5151, 3678.174
266.9973, 3633.836
267.4794, 3600.939
267.9615, 3577.081
268.4436, 3570.966
268.9257, 3590.720
269.4078, 3625.167
269.8900, 3662.900
270.3721, 3702.004
270.8542, 3735.288
271.3363, 3735.278
271.8184, 3672.007
272.3005, 3625.665
272.7827, 3626.133
273.2648, 3650.152
273.7469, 3670.077
274.2290, 3671.723
274.7111, 3663.689
275.1932, 3669.962
275.6754, 3699.553
276.1575, 3727.656
276.6396, 3753.751
277.1217, 3773.279
277.6038, 3777.946
278.0859, 3762.022
278.5681, 3738.230
279.0502, 3737.640
279.5323, 3775.811
280.0144, 3807.325
280.4965, 3823.188
280.9786, 3828.793
281.4608, 3827.782
281.9429, 3821.212
282.4250, 3811.479
282.9071, 3800.494
283.3892, 3779.410
283.8713, 3778.451
284.3535, 3824.541
284.8356, 3878.553
285.3177, 3908.558
285.7998, 3904.165
286.2819, 3877.460
286.7640, 3845.333
287.2462, 3802.038
287.7283, 3768.299
288.2104, 3752.712
288.6925, 3743.285
289.1746, 3729.342
289.6567, 3708.584
290.1389, 3691.091
290.6210, 3693.002
291.1031, 3720.917
291.5852, 3746.435
292.0673, 3779.094
292.5495, 3799.475
293.0316, 3786.121
293.5137, 3738.484
293.9958, 3686.170
294.4779, 3667.004
294.9601, 3688.994
295.4422, 3705.171
295.9243, 3714.357
296.4064, 3714.143
296.8885, 3697.766
297.3706, 3667.195
297.8528, 3635.611
298.3349, 3610.885
298.8170, 3591.152
299.2991, 3597.230
299.7812, 3685.287
300.2633, 3751.589
300.7455, 3724.900
301.2276, 3622.566
301.7097, 3528.502
302.1918, 3524.227
302.6739, 3611.218
303.1560, 3676.492
303.6382, 3719.424
304.1203, 3737.992
304.6024, 3717.600
305.0845, 3671.239
305.5666, 3633.040
306.0487, 3634.608
306.5309, 3668.726
307.0130, 3675.834
307.4951, 3628.987
307.9772, 3591.896
308.4593, 3604.487
308.9414, 3644.485
309.4236, 3667.474
309.9057, 3638.564
310.3878, 3577.035
310.8699, 3548.479
311.3520, 3565.271
311.8341, 3593.622
312.3163, 3632.295
312.7984, 3669.343
313.2805, 3685.033
313.7626, 3664.254
314.2447, 3625.510
314.7268, 3606.103
315.2090, 3611.344
315.6911, 3621.280
316.1732, 3632.131
316.6553, 3641.742
317.1374, 3647.664
317.6195, 3648.933
318.1017, 3646.647
318.5838, 3637.459
319.0659, 3617.680
319.5480, 3613.583
320.0301, 3657.948
320.5122, 3709.991
320.9944, 3729.822
321.4765, 3705.780
321.9586, 3672.595
322.4407, 3670.248
322.9228, 3698.696
323.4049, 3707.916
323.8871, 3669.589
324.3692, 3618.902
324.8513, 3589.394
325.3334, 3583.567
325.8155, 3585.729
326.2976, 3592.639
326.7798, 3601.043
327.2619, 3589.225
327.7440, 3538.132
328.2261, 3486.510
328.7082, 3474.099
329.1903, 3498.093
329.6725, 3524.210
330.1546, 3541.525
330.6367, 3548.772
331.1188, 3539.802
331.6009, 3508.869
332.0830, 3474.825
332.5652, 3456.513
333.0473, 3450.078
333.5294, 3442.727
334.0115, 3421.798
334.4936, 3401.598
334.9757, 3407.412
335.4579, 3443.692
335.9400, 3478.274
336.4221, 3485.334
336.9042, 3469.891
337.3863, 3453.142
337.8684, 3430.754
338.3506, 3412.654
338.8327, 3413.157
339.3148, 3430.140
339.7969, 3438.875
340.2790, 3419.311
340.7611, 3382.157
341.2433, 3366.660
341.7254, 3382.920
342.2075, 3408.327
342.6896, 3442.718
343.1717, 3478.966
343.6538, 3494.488
344.1360, 3476.302
344.6181, 3435.977
345.1002, 3401.980
345.5823, 3368.389
346.0644, 3349.084
346.5465, 3360.693
347.0287, 3385.380
347.5108, 3393.449
347.9929, 3374.630
348.4750, 3347.113
348.9571, 3341.770
349.4392, 3374.305
349.9214, 3390.392
350.4035, 3371.856
350.8856, 3344.729
351.3677, 3332.063
351.8498, 3337.542
352.3319, 3350.620
352.8141, 3359.384
353.2962, 3361.065
353.7783, 3372.822
354.2604, 3405.308
354.7425, 3437.243
355.2246, 3458.011
355.7068, 3467.526
356.1889, 3468.309
356.6710, 3459.856
357.1531, 3442.541
357.6352, 3447.862
358.1173, 3504.094
358.5995, 3551.190
359.0816, 3571.163
359.5637, 3571.334
360.0458, 3560.623
360.5279, 3542.045
361.0100, 3524.218
361.4922, 3540.266
361.9743, 3632.471
362.4564, 3700.200
362.9385, 3726.416
363.4206, 3728.466
363.9027, 3719.530
364.3849, 3704.905
364.8670, 3690.412
365.3491, 3684.974
365.8312, 3688.013
366.3133, 3702.398
366.7954, 3732.530
367.2776, 3769.925
367.7597, 3815.852
368.2418, 3867.415
368.7239, 3911.564
369.2060, 3926.356
369.6881, 3907.808
370.1703, 3917.834
370.6524, 3980.320
371.1345, 4049.114
371.6166, 4111.085
372.0987, 4162.517
372.5808, 4196.973
373.0630, 4200.179
373.5451, 4184.163
374.0272, 4195.222
374.5093, 4246.646
374.9915, 4296.319
375.4736, 4318.687
375.9557, 4328.393
376.4378, 4344.188
376.9199, 4369.307
377.4020, 4407.196
377.8842, 4472.936
378.3663, 4569.452
378.8484, 4644.283
379.3305, 4661.348
379.8126, 4654.329
380.2947, 4668.125
380.7769, 4708.528
381.2590, 4758.021
381.7411, 4808.941
382.2232, 4860.512
382.7053, 4906.381
383.1874, 4939.493
383.6696, 4977.639
384.1517, 5055.521
384.6338, 5173.623
385.1159, 5271.934
385.5980, 5320.717
386.0801, 5346.872
386.5623, 5376.839
387.0444, 5414.357
387.5265, 5469.312
388.0086, 5554.204
388.4907, 5671.287
388.9728, 5780.520
389.4550, 5878.680
389.9371, 5972.599
390.4192, 6064.672
390.9013, 6155.871
391.3834, 6245.537
391.8655, 6331.625
392.3477, 6418.518
392.8298, 6526.660
393.3119, 6691.146
393.7940, 6832.648
394.2761, 6924.815
394.7582, 6992.969
395.2404, 7062.197
395.7225, 7142.467
396.2046, 7236.965
396.6867, 7353.968
397.1688, 7508.908
397.6509, 7655.143
398.1331, 7796.189
398.6152, 7927.473
399.0973, 8038.368
399.5794, 8133.338
400.0615, 8233.605
400.5436, 8364.471
401.0258, 8528.649
401.5079, 8664.693
401.9900, 8745.854
402.4721, 8825.109
402.9542, 8927.691
403.4363, 9038.475
403.9185, 9129.685
404.4006, 9183.582
404.8827, 9212.553
405.3648, 9250.109
405.8469, 9304.585
406.3290, 9345.541
406.8112, 9365.995
407.2933, 9367.475
407.7754, 9346.309
408.2575, 9300.060
408.7396, 9244.130
409.2217, 9191.130
409.7039, 9141.107
410.1860, 9097.183
410.6681, 9078.363
411.1502, 9040.754
411.6323, 8932.029
412.1144, 8758.881
412.5966, 8598.084
413.0787, 8494.709
413.5608, 8419.675
414.0429, 8333.904
414.5250, 8235.821
415.0071, 8107.872
415.4893, 7913.805
415.9714, 7672.774
416.4535, 7493.489
416.9356, 7432.391
417.4177, 7388.100
417.8998, 7306.013
418.3820, 7192.525
418.8641, 7065.624
419.3462, 6930.789
419.8283, 6793.820
420.3104, 6671.710
420.7925, 6569.278
421.2747, 6471.883
421.7568, 6374.466
422.2389, 6283.446
422.7210, 6210.531
423.2031, 6156.307
423.6852, 6105.770
424.1674, 6041.586
424.6495, 5963.341
425.1316, 5872.875
425.6137, 5744.047
426.0958, 5630.021
426.5779, 5563.613
427.0601, 5530.275
427.5422, 5491.589
428.0243, 5419.650
428.5064, 5326.349
428.9885, 5265.273
429.4706, 5263.272
429.9528, 5248.333
430.4349, 5202.737
430.9170, 5140.075
431.3991, 5068.364
431.8812, 4989.531
432.3633, 4917.390
432.8455, 4876.979
433.3276, 4870.557
433.8097, 4843.406
434.2918, 4767.029
434.7739, 4690.024
435.2560, 4659.257
435.7382, 4665.538
436.2203, 4651.503
436.7024, 4556.909
437.1845, 4432.393
437.6666, 4377.146
438.1487, 4402.451
438.6309, 4449.136
439.1130, 4502.980
439.5951, 4545.702
440.0772, 4527.399
440.5593, 4379.032
441.0414, 4247.733
441.5236, 4232.251
442.0057, 4297.333
442.4878, 4355.731
442.9699, 4376.750
443.4520, 4375.228
443.9341, 4375.427
444.4163, 4373.620
444.8984, 4383.257
445.3805, 4425.050
445.8626, 4464.778
446.3447, 4469.095
446.8268, 4439.692
447.3090, 4404.729
447.7911, 4387.210
448.2732, 4387.094
448.7553, 4400.210
449.2374, 4449.851
449.7195, 4487.172
450.2017, 4501.575
450.6838, 4497.473
451.1659, 4476.899
451.6480, 4439.970
452.1301, 4400.013
452.6122, 4382.010
453.0944, 4390.565
453.5765, 4405.591
454.0586, 4441.908
454.5407, 4470.459
455.0228, 4469.557
455.5049, 4441.071
455.9871, 4408.480
456.4692, 4389.524
456.9513, 4380.173
457.4334, 4364.934
457.9156, 4340.501
458.3977, 4318.627
458.8798, 4315.278
459.3619, 4318.536
459.8440, 4304.646
460.3261, 4262.639
460.8083, 4211.350
461.2904, 4163.301
461.7725, 4117.326
462.2546, 4066.085
462.7367, 4003.523
463.2188, 3942.908
463.7010, 3912.010
464.1831, 3924.662
464.6652, 3917.817
465.1473, 3871.993
465.6294, 3812.259
466.1115, 3756.507
466.5937, 3707.735
467.0758, 3663.268
467.5579, 3620.674
468.0400, 3586.169
468.5221, 3547.476
469.0042, 3529.419
469.4864, 3510.778
469.9685, 3495.192
470.4506, 3475.106
470.9327, 3435.952
471.4148, 3372.982
471.8969, 3307.625
472.3791, 3277.773
472.8612, 3292.974
473.3433, 3300.923
473.8254, 3276.720
474.3075, 3262.896
474.7896, 3286.766
475.2718, 3342.490
475.7539, 3403.083
476.2360, 3461.659
476.7181, 3511.810
477.2002, 3534.103
477.6823, 3523.529
478.1645, 3513.271
478.6466, 3513.830
479.1287, 3528.650
479.6108, 3563.042
480.0929, 3624.074
480.5750, 3689.954
481.0572, 3751.698
481.5393, 3810.111
482.0214, 3865.684
482.5035, 3918.306
482.9856, 3971.925
483.4677, 4029.158
483.9499, 4088.254
484.4320, 4166.947
484.9141, 4283.861
485.3962, 4401.886
485.8783, 4499.909
486.3604, 4583.730
486.8426, 4671.848
487.3247, 4775.802
487.8068, 4882.905
488.2889, 4950.149
488.7710, 4925.370
489.2531, 4958.935
489.7353, 5111.692
490.2174, 5283.736
490.6995, 5403.787
491.1816, 5465.974
491.6637, 5508.275
492.1458, 5559.801
492.6280, 5619.420
493.1101, 5682.808
493.5922, 5760.939
494.0743, 5818.744
494.5564, 5835.996
495.0385, 5821.322
495.5207, 5782.602
496.0028, 5717.795
496.4849, 5636.236
496.9670, 5536.942
497.4491, 5425.462
497.9312, 5327.083
498.4134, 5253.555
498.8955, 5177.332
499.3776, 5059.198
499.8597, 4891.682
500.3418, 4725.159
500.8239, 4564.441
501.3061, 4403.574
501.7882, 4231.057
502.2703, 4053.828
502.7524, 3895.906
503.2345, 3773.150
503.7166, 3676.240
504.1988, 3575.719
504.6809, 3479.066
505.1630, 3365.840
505.6451, 3211.244
506.1272, 3056.994
506.6093, 2934.443
507.0915, 2848.164
507.5736, 2785.426
508.0557, 2744.998
508.5378, 2722.915
509.0199, 2676.414
509.5020, 2592.007
509.9842, 2509.458
510.4663, 2450.958
510.9484, 2406.087
511.4305, 2360.801
511.9126, 2311.737
512.3948, 2262.106
512.8769, 2215.257
513.3590, 2169.944
513.8411, 2117.197
514.3232, 2050.575
514.8054, 1991.954
515.2875, 1972.196
515.7696, 2000.147
516.2517, 2009.817
516.7338, 1990.184
517.2159, 1960.409
517.6981, 1925.147
518.1802, 1888.881
518.6623, 1861.253
519.1444, 1847.648
519.6265, 1842.633
520.1086, 1831.573
520.5908, 1809.132
521.0729, 1790.916
521.5550, 1783.794
522.0371, 1775.904
522.5192, 1755.107
523.0013, 1724.404
523.4835, 1700.378
523.9656, 1699.855
524.4477, 1714.990
524.9298, 1717.673
525.4119, 1705.474
525.8940, 1689.552
526.3762, 1677.413
526.8583, 1662.914
527.3404, 1632.040
527.8225, 1572.132
528.3046, 1533.764
528.7867, 1566.025
529.2689, 1631.027
529.7510, 1660.498
530.2331, 1642.430
530.7152, 1608.542
531.1973, 1583.879
531.6794, 1568.485
532.1616, 1569.260
532.6437, 1611.083
533.1258, 1637.987
533.6079, 1623.942
534.0900, 1588.219
534.5721, 1556.881
535.0543, 1538.999
535.5364, 1526.681
536.0185, 1508.287
536.5006, 1482.618
536.9827, 1456.405
537.4648, 1409.424
537.9470, 1385.516
538.4291, 1427.368
538.9112, 1504.273
539.3933, 1547.495
539.8754, 1514.808
540.3575, 1457.717
540.8397, 1444.073
541.3218, 1469.633
541.8039, 1487.051
542.2860, 1479.255
542.7681, 1462.145
543.2502, 1458.525
543.7324, 1469.428
544.2145, 1477.484
544.6966, 1477.510
545.1787, 1476.047
545.6608, 1479.168
546.1429, 1485.343
546.6251, 1489.142
547.1072, 1487.600
547.5893, 1481.086
548.0714, 1469.965
548.5535, 1449.638
549.0356, 1433.112
549.5178, 1421.530
549.9999, 1413.109
550.4820, 1407.236
550.9641, 1403.524
551.4462, 1400.932
551.9283, 1397.157
552.4105, 1394.588
552.8926, 1404.045
553.3747, 1430.167
553.8568, 1444.076
554.3389, 1421.469
554.8210, 1388.000
555.3032, 1384.822
555.7853, 1420.099
556.2674, 1451.509
556.7495, 1459.575
557.2316, 1456.314
557.7137, 1457.256
558.1959, 1463.365
558.6780, 1465.939
559.1601, 1458.376
559.6422, 1441.741
560.1243, 1423.425
560.6064, 1399.435
561.0886, 1378.646
561.5707, 1360.058
562.0528, 1346.215
562.5349, 1342.305
563.0170, 1347.456
563.4991, 1351.656
563.9813, 1341.135
564.4634, 1319.383
564.9455, 1316.958
565.4276, 1341.808
565.9097, 1367.051
566.3918, 1376.558
566.8740, 1380.479
567.3561, 1394.362
567.8382, 1425.826
568.3203, 1448.483
568.8024, 1441.682
569.2845, 1418.271
569.7667, 1399.741
570.2488, 1389.639
570.7309, 1382.262
571.2130, 1373.775
571.6951, 1364.005
572.1772, 1348.422
572.6594, 1307.833
573.1415, 1285.522
573.6236, 1302.783
574.1057, 1335.215
574.5878, 1355.594
575.0699, 1358.519
575.5521, 1359.606
576.0342, 1382.026
576.5163, 1423.643
576.9984, 1433.751
577.4805, 1397.881
577.9626, 1359.100
578.4448, 1330.405
578.9269, 1314.388
579.4090, 1319.686
579.8911, 1355.880
580.3732, 1389.763
580.8553, 1401.137
581.3375, 1396.635
581.8196, 1385.448
582.3017, 1369.423
582.7838, 1354.802
583.2659, 1345.892
583.7480, 1342.881
584.2302, 1350.518
584.7123, 1383.883
585.1944, 1408.549
585.6765, 1413.777
586.1586, 1409.708
586.6407, 1407.614
587.1229, 1409.648
587.6050, 1409.273
588.0871, 1395.393
588.5692, 1370.339
589.0513, 1360.976
589.5334, 1370.595
590.0156, 1388.358
590.4977, 1416.213
590.9798, 1446.398
591.4619, 1467.848
591.9440, 1478.982
592.4261, 1483.268
592.9083, 1482.599
593.3904, 1476.242
593.8725, 1455.563
594.3546, 1422.094
594.8367, 1403.418
595.3188, 1425.276
595.8010, 1481.090
