##NAMES=Stillwellite-(Ce)
##RRUFFID=R060899
##IDEAL CHEMISTRY=CeBSiO_5_
##LOCALITY=Dara-i-Pioz, Alayskiy Range, South Tien- Shan Mountains, Tajikistan
##OWNER=RRUFF
##SOURCE=Michael Scott
##DESCRIPTION=Red or green (depending upon light source) hexagonal prism associated with aegirine and orthoclase
##STATUS=The identification of this mineral has been made only by X-ray diffraction.
##URL=rruff.info/R060899
135.0267, 897.3914
135.5088, 894.8636
135.9909, 886.0128
136.4730, 876.5385
136.9552, 877.3300
137.4373, 893.4460
137.9194, 914.3073
138.4015, 938.0550
138.8836, 966.7308
139.3657, 1002.532
139.8479, 1046.476
140.3300, 1096.837
140.8121, 1150.471
141.2942, 1209.910
141.7763, 1269.499
142.2584, 1327.133
142.7406, 1385.482
143.2227, 1449.224
143.7048, 1521.165
144.1869, 1597.360
144.6690, 1665.423
145.1511, 1723.828
145.6333, 1776.109
146.1154, 1820.485
146.5975, 1859.468
147.0796, 1898.743
147.5617, 1942.029
148.0438, 1985.836
148.5260, 2012.447
149.0081, 2010.013
149.4902, 2007.677
149.9723, 2018.976
150.4544, 2036.688
150.9365, 2044.131
151.4187, 2031.123
151.9008, 2001.066
152.3829, 1973.705
152.8650, 1944.316
153.3471, 1921.472
153.8292, 1911.843
154.3114, 1912.333
154.7935, 1913.175
155.2756, 1908.135
155.7577, 1898.966
156.2398, 1895.011
156.7219, 1901.715
157.2041, 1908.114
157.6862, 1904.296
158.1683, 1893.007
158.6504, 1888.924
159.1325, 1902.520
159.6146, 1931.719
160.0968, 1958.820
160.5789, 1981.092
161.0610, 2003.306
161.5431, 2029.456
162.0252, 2059.113
162.5073, 2087.506
162.9895, 2110.121
163.4716, 2128.953
163.9537, 2152.571
164.4358, 2187.122
164.9179, 2222.406
165.4000, 2250.365
165.8822, 2270.885
166.3643, 2287.898
166.8464, 2301.792
167.3285, 2314.205
167.8106, 2330.458
168.2927, 2356.383
168.7749, 2382.951
169.2570, 2402.146
169.7391, 2413.727
170.2212, 2420.635
170.7033, 2421.617
171.1854, 2419.448
171.6676, 2421.176
172.1497, 2432.078
172.6318, 2445.107
173.1139, 2453.074
173.5960, 2455.833
174.0781, 2455.036
174.5603, 2446.777
175.0424, 2436.085
175.5245, 2434.013
176.0066, 2448.768
176.4887, 2470.235
176.9708, 2487.024
177.4530, 2499.202
177.9351, 2506.540
178.4172, 2502.639
178.8993, 2494.223
179.3814, 2493.893
179.8635, 2509.423
180.3457, 2532.137
180.8278, 2550.608
181.3099, 2563.939
181.7920, 2576.701
182.2741, 2591.898
182.7562, 2608.362
183.2384, 2624.337
183.7205, 2638.786
184.2026, 2652.736
184.6847, 2667.684
185.1668, 2683.544
185.6489, 2700.263
186.1311, 2719.268
186.6132, 2738.896
187.0953, 2756.296
187.5774, 2767.006
188.0595, 2777.368
188.5416, 2798.398
189.0238, 2832.769
189.5059, 2867.737
189.9880, 2897.727
190.4701, 2923.671
190.9522, 2945.153
191.4343, 2956.977
191.9165, 2968.262
192.3986, 2996.069
192.8807, 3045.594
193.3628, 3091.881
193.8449, 3114.211
194.3270, 3126.857
194.8092, 3148.104
195.2913, 3188.295
195.7734, 3235.523
196.2555, 3270.010
196.7376, 3288.243
197.2197, 3309.030
197.7019, 3345.280
198.1840, 3389.081
198.6661, 3431.364
199.1482, 3469.097
199.6303, 3505.029
200.1124, 3541.501
200.5946, 3577.718
201.0767, 3618.558
201.5588, 3672.391
202.0409, 3730.439
202.5230, 3783.176
203.0051, 3825.386
203.4873, 3864.837
203.9694, 3912.859
204.4515, 3971.191
204.9336, 4027.546
205.4157, 4077.289
205.8978, 4121.633
206.3800, 4159.591
206.8621, 4188.451
207.3442, 4216.045
207.8263, 4249.951
208.3084, 4289.856
208.7905, 4338.550
209.2727, 4406.749
209.7548, 4479.978
210.2369, 4540.984
210.7190, 4581.489
211.2011, 4621.271
211.6832, 4685.261
212.1654, 4775.139
212.6475, 4858.246
213.1296, 4916.262
213.6117, 4964.833
214.0938, 5021.792
214.5760, 5092.664
215.0581, 5161.156
215.5402, 5208.073
216.0223, 5233.409
216.5044, 5266.650
216.9865, 5324.998
217.4687, 5390.078
217.9508, 5442.457
218.4329, 5479.006
218.9150, 5510.946
219.3971, 5546.036
219.8792, 5584.283
220.3614, 5623.548
220.8435, 5663.274
221.3256, 5704.052
221.8077, 5749.548
222.2898, 5801.549
222.7719, 5845.238
223.2541, 5864.404
223.7362, 5863.807
224.2183, 5870.518
224.7004, 5894.772
225.1825, 5923.345
225.6646, 5941.688
226.1468, 5949.712
226.6289, 5955.145
227.1110, 5964.458
227.5931, 5974.885
228.0752, 5976.625
228.5573, 5965.753
229.0395, 5948.792
229.5216, 5931.767
230.0037, 5914.713
230.4858, 5897.879
230.9679, 5881.635
231.4500, 5865.719
231.9322, 5848.972
232.4143, 5830.337
232.8964, 5813.235
233.3785, 5802.741
233.8606, 5797.526
234.3427, 5790.456
234.8249, 5779.558
235.3070, 5765.307
235.7891, 5748.567
236.2712, 5729.358
236.7533, 5707.295
237.2354, 5679.218
237.7176, 5646.908
238.1997, 5619.884
238.6818, 5605.361
239.1639, 5593.959
239.6460, 5572.125
240.1281, 5538.377
240.6103, 5509.323
241.0924, 5502.441
241.5745, 5512.153
242.0566, 5508.466
242.5387, 5479.659
243.0208, 5443.680
243.5030, 5415.390
243.9851, 5394.313
244.4672, 5370.462
244.9493, 5336.139
245.4314, 5294.125
245.9135, 5258.393
246.3957, 5228.157
246.8778, 5204.625
247.3599, 5191.595
247.8420, 5186.883
248.3241, 5182.250
248.8062, 5172.660
249.2884, 5160.786
249.7705, 5156.375
250.2526, 5171.096
250.7347, 5177.100
251.2168, 5159.164
251.6989, 5125.641
252.1811, 5091.432
252.6632, 5061.230
253.1453, 5037.852
253.6274, 5030.527
254.1095, 5051.965
254.5916, 5064.656
255.0738, 5057.271
255.5559, 5038.579
256.0380, 5018.435
256.5201, 4999.795
257.0022, 4984.227
257.4843, 4974.914
257.9665, 4978.359
258.4486, 4975.047
258.9307, 4957.296
259.4128, 4936.695
259.8949, 4926.438
260.3770, 4928.148
260.8592, 4929.459
261.3413, 4913.835
261.8234, 4871.379
262.3055, 4845.688
262.7876, 4846.472
263.2697, 4854.175
263.7519, 4858.932
264.2340, 4859.229
264.7161, 4856.780
265.1982, 4853.158
265.6803, 4848.476
266.1624, 4841.212
266.6446, 4835.696
267.1267, 4823.871
267.6088, 4794.677
268.0909, 4756.186
268.5730, 4727.375
269.0551, 4722.853
269.5373, 4739.716
270.0194, 4747.158
270.5015, 4731.786
270.9836, 4720.646
271.4657, 4723.970
271.9478, 4732.936
272.4300, 4733.486
272.9121, 4717.784
273.3942, 4692.799
273.8763, 4680.228
274.3584, 4693.915
274.8405, 4697.632
275.3227, 4675.940
275.8048, 4648.458
276.2869, 4634.228
276.7690, 4639.699
277.2511, 4654.222
277.7332, 4661.078
278.2154, 4658.350
278.6975, 4653.535
279.1796, 4642.263
279.6617, 4632.930
280.1438, 4632.848
280.6259, 4642.210
281.1081, 4652.537
281.5902, 4654.561
282.0723, 4647.724
282.5544, 4642.318
283.0365, 4638.292
283.5186, 4636.915
284.0008, 4640.206
284.4829, 4647.092
284.9650, 4653.375
285.4471, 4656.621
285.9292, 4657.040
286.4113, 4656.127
286.8935, 4655.707
287.3756, 4650.332
287.8577, 4631.087
288.3398, 4605.189
288.8219, 4587.568
289.3040, 4589.271
289.7862, 4599.238
290.2683, 4600.217
290.7504, 4590.969
291.2325, 4580.679
291.7146, 4572.778
292.1967, 4567.545
292.6789, 4565.546
293.1610, 4568.223
293.6431, 4572.243
294.1252, 4577.924
294.6073, 4584.045
295.0894, 4581.541
295.5716, 4563.048
296.0537, 4537.764
296.5358, 4523.890
297.0179, 4525.042
297.5000, 4524.742
297.9821, 4510.010
298.4643, 4490.422
298.9464, 4485.698
299.4285, 4502.538
299.9106, 4527.113
300.3927, 4540.284
300.8748, 4538.491
301.3570, 4542.425
301.8391, 4564.136
302.3212, 4586.194
302.8033, 4591.240
303.2854, 4578.178
303.7675, 4559.792
304.2497, 4547.359
304.7318, 4541.609
305.2139, 4533.255
305.6960, 4520.141
306.1781, 4506.958
306.6602, 4494.668
307.1424, 4484.049
307.6245, 4475.698
308.1066, 4469.628
308.5887, 4466.708
309.0708, 4471.959
309.5529, 4506.896
310.0351, 4524.916
310.5172, 4512.996
310.9993, 4484.206
311.4814, 4451.141
311.9635, 4419.035
312.4456, 4389.764
312.9278, 4366.419
313.4099, 4348.398
313.8920, 4338.653
314.3741, 4345.089
314.8562, 4352.979
315.3383, 4350.884
315.8205, 4338.504
316.3026, 4325.557
316.7847, 4323.506
317.2668, 4333.845
317.7489, 4339.748
318.2310, 4342.120
318.7132, 4338.450
319.1953, 4323.166
319.6774, 4300.861
320.1595, 4282.591
320.6416, 4276.240
321.1237, 4278.252
321.6059, 4279.280
322.0880, 4280.062
322.5701, 4277.651
323.0522, 4263.332
323.5343, 4247.088
324.0164, 4243.461
324.4986, 4261.162
324.9807, 4282.719
325.4628, 4286.886
325.9449, 4274.801
326.4270, 4269.602
326.9091, 4283.354
327.3913, 4303.928
327.8734, 4313.138
328.3555, 4309.436
328.8376, 4303.144
329.3197, 4297.392
329.8018, 4292.462
330.2840, 4290.078
330.7661, 4291.328
331.2482, 4290.711
331.7303, 4281.127
332.2124, 4261.589
332.6945, 4244.236
333.1767, 4228.913
333.6588, 4216.820
334.1409, 4209.342
334.6230, 4206.169
335.1051, 4205.559
335.5872, 4206.601
336.0694, 4209.175
336.5515, 4211.681
337.0336, 4209.599
337.5157, 4212.679
337.9979, 4232.042
338.4800, 4255.717
338.9621, 4263.897
339.4442, 4248.270
339.9263, 4221.342
340.4084, 4210.615
340.8906, 4232.990
341.3727, 4241.052
341.8548, 4222.806
342.3369, 4199.741
342.8190, 4184.520
343.3011, 4179.637
343.7833, 4182.518
344.2654, 4192.188
344.7475, 4209.185
345.2296, 4223.984
345.7117, 4237.831
346.1938, 4247.604
346.6760, 4250.183
347.1581, 4248.104
347.6402, 4246.004
348.1223, 4245.545
348.6044, 4247.267
349.0865, 4253.999
349.5687, 4268.148
350.0508, 4277.792
350.5329, 4269.748
351.0150, 4258.833
351.4971, 4262.698
351.9792, 4287.218
352.4614, 4313.889
352.9435, 4329.989
353.4256, 4336.802
353.9077, 4338.471
354.3898, 4334.094
354.8719, 4328.604
355.3541, 4328.053
355.8362, 4332.020
356.3183, 4338.066
356.8004, 4349.131
357.2825, 4359.935
357.7646, 4362.698
358.2468, 4357.841
358.7289, 4355.436
359.2110, 4363.468
359.6931, 4381.083
360.1752, 4396.247
360.6573, 4415.631
361.1395, 4425.699
361.6216, 4412.573
362.1037, 4389.430
362.5858, 4377.588
363.0679, 4386.024
363.5500, 4407.637
364.0322, 4428.289
364.5143, 4448.194
364.9964, 4466.811
365.4785, 4486.577
365.9606, 4503.464
366.4427, 4509.706
366.9249, 4508.122
367.4070, 4513.180
367.8891, 4542.459
368.3712, 4595.449
368.8533, 4631.104
369.3354, 4638.038
369.8176, 4641.841
370.2997, 4647.874
370.7818, 4658.033
371.2639, 4675.098
371.7460, 4700.702
372.2281, 4732.580
372.7103, 4769.898
373.1924, 4813.345
373.6745, 4853.824
374.1566, 4891.063
374.6387, 4921.262
375.1208, 4937.579
375.6030, 4937.464
376.0851, 4943.560
376.5672, 4974.167
377.0493, 5017.475
377.5314, 5049.618
378.0135, 5066.002
378.4957, 5079.458
378.9778, 5103.384
379.4599, 5137.446
379.9420, 5159.590
380.4241, 5155.849
380.9063, 5152.893
381.3884, 5166.463
381.8705, 5193.043
382.3526, 5221.917
382.8347, 5247.291
383.3168, 5272.457
383.7990, 5306.339
384.2811, 5364.133
384.7632, 5410.780
385.2453, 5445.745
385.7274, 5469.822
386.2095, 5476.539
386.6917, 5468.958
387.1738, 5464.833
387.6559, 5484.269
388.1380, 5529.090
388.6201, 5571.410
389.1022, 5607.623
389.5844, 5645.447
390.0665, 5695.796
390.5486, 5748.272
391.0307, 5782.395
391.5128, 5783.797
391.9949, 5773.259
392.4771, 5787.551
392.9592, 5829.689
393.4413, 5869.754
393.9234, 5901.177
394.4055, 5923.897
394.8876, 5933.951
395.3698, 5929.188
395.8519, 5935.097
396.3340, 5976.279
396.8161, 6033.202
397.2982, 6068.940
397.7803, 6077.593
398.2625, 6081.313
398.7446, 6099.583
399.2267, 6131.328
399.7088, 6151.016
400.1909, 6149.230
400.6730, 6145.720
401.1552, 6152.016
401.6373, 6162.548
402.1194, 6164.038
402.6015, 6150.441
403.0836, 6131.265
403.5657, 6126.726
404.0479, 6151.386
404.5300, 6164.492
405.0121, 6159.556
405.4942, 6150.145
405.9763, 6144.859
406.4584, 6143.584
406.9406, 6141.368
407.4227, 6134.249
407.9048, 6122.733
408.3869, 6108.936
408.8690, 6088.183
409.3511, 6074.184
409.8333, 6077.308
410.3154, 6086.958
410.7975, 6090.980
411.2796, 6085.698
411.7617, 6076.581
412.2438, 6068.878
412.7260, 6061.972
413.2081, 6049.387
413.6902, 6023.284
414.1723, 6003.660
414.6544, 6023.601
415.1365, 6078.100
415.6187, 6114.683
416.1008, 6116.678
416.5829, 6102.048
417.0650, 6078.952
417.5471, 6050.840
418.0292, 6029.145
418.5114, 6021.478
418.9935, 6022.846
419.4756, 6016.172
419.9577, 5996.284
420.4398, 5974.661
420.9219, 5947.426
421.4041, 5921.488
421.8862, 5904.119
422.3683, 5895.640
422.8504, 5890.291
423.3325, 5883.743
423.8146, 5876.268
424.2968, 5858.167
424.7789, 5817.269
425.2610, 5781.503
425.7431, 5764.671
426.2252, 5757.282
426.7073, 5745.272
427.1895, 5723.026
427.6716, 5696.335
428.1537, 5669.678
428.6358, 5643.312
429.1179, 5626.316
429.6000, 5623.335
430.0822, 5627.215
430.5643, 5636.666
431.0464, 5651.382
431.5285, 5646.180
432.0106, 5596.413
432.4927, 5535.881
432.9749, 5497.787
433.4570, 5481.460
433.9391, 5469.500
434.4212, 5451.918
434.9033, 5430.651
435.3854, 5413.042
435.8676, 5400.819
436.3497, 5390.275
436.8318, 5383.980
437.3139, 5377.589
437.7960, 5366.840
438.2781, 5351.298
438.7603, 5333.540
439.2424, 5316.299
439.7245, 5299.624
440.2066, 5281.130
440.6887, 5259.234
441.1708, 5237.549
441.6530, 5216.037
442.1351, 5195.814
442.6172, 5180.047
443.0993, 5171.496
443.5814, 5160.908
444.0635, 5132.752
444.5457, 5090.257
445.0278, 5062.110
445.5099, 5060.433
445.9920, 5063.830
446.4741, 5044.876
446.9562, 5005.774
447.4384, 4976.323
447.9205, 4972.733
448.4026, 4971.010
448.8847, 4948.618
449.3668, 4911.620
449.8489, 4884.097
450.3311, 4879.524
450.8132, 4887.324
451.2953, 4879.624
451.7774, 4838.534
452.2595, 4809.069
452.7416, 4797.269
453.2238, 4791.918
453.7059, 4791.500
454.1880, 4791.615
454.6701, 4780.117
455.1522, 4742.269
455.6343, 4686.097
456.1165, 4651.884
456.5986, 4647.268
457.0807, 4646.118
457.5628, 4639.858
458.0449, 4631.368
458.5270, 4622.615
459.0092, 4613.421
459.4913, 4606.627
459.9734, 4609.223
460.4555, 4614.709
460.9376, 4606.165
461.4197, 4580.127
461.9019, 4552.615
462.3840, 4537.795
462.8661, 4534.932
463.3482, 4527.070
463.8303, 4508.381
464.3124, 4491.870
464.7946, 4483.114
465.2767, 4478.970
465.7588, 4475.733
466.2409, 4472.005
466.7230, 4466.841
467.2051, 4458.532
467.6873, 4446.270
468.1694, 4434.842
468.6515, 4422.282
469.1336, 4412.833
469.6157, 4412.080
470.0978, 4414.831
470.5800, 4410.079
471.0621, 4389.793
471.5442, 4368.078
472.0263, 4370.266
472.5084, 4394.333
472.9905, 4398.343
473.4727, 4361.933
473.9548, 4316.631
474.4369, 4305.419
474.9190, 4326.022
475.4011, 4336.594
475.8832, 4322.561
476.3654, 4301.770
476.8475, 4284.031
477.3296, 4270.832
477.8117, 4264.163
478.2938, 4265.354
478.7759, 4272.100
479.2581, 4278.968
479.7402, 4286.656
480.2223, 4293.340
480.7044, 4300.477
481.1865, 4305.542
481.6686, 4304.405
482.1508, 4299.399
482.6329, 4298.289
483.1150, 4308.200
483.5971, 4323.792
484.0792, 4330.765
484.5613, 4327.565
485.0435, 4324.014
485.5256, 4321.261
486.0077, 4321.625
486.4898, 4330.064
486.9719, 4348.264
487.4540, 4359.315
487.9362, 4346.444
488.4183, 4329.058
488.9004, 4333.654
489.3825, 4358.804
489.8646, 4381.079
490.3467, 4385.683
490.8289, 4375.597
491.3110, 4363.437
491.7931, 4344.400
492.2752, 4329.730
492.7573, 4315.865
493.2394, 4309.158
493.7216, 4318.655
494.2037, 4342.228
494.6858, 4366.515
495.1679, 4381.639
495.6500, 4388.490
496.1321, 4388.872
496.6143, 4378.897
497.0964, 4374.650
497.5785, 4385.575
498.0606, 4404.300
498.5427, 4424.053
499.0248, 4445.869
499.5070, 4460.218
499.9891, 4457.136
500.4712, 4446.316
500.9533, 4441.125
501.4355, 4442.813
501.9176, 4446.485
502.3997, 4448.923
502.8818, 4450.291
503.3639, 4451.495
503.8460, 4451.508
504.3282, 4452.743
504.8103, 4456.482
505.2924, 4460.847
505.7745, 4462.335
506.2566, 4461.764
506.7387, 4465.617
507.2209, 4483.172
507.7030, 4510.098
508.1851, 4521.665
508.6672, 4511.020
509.1493, 4505.492
509.6314, 4520.726
510.1136, 4545.391
510.5957, 4565.420
511.0778, 4579.662
511.5599, 4590.794
512.0420, 4601.909
512.5241, 4609.688
513.0062, 4605.698
513.4883, 4591.029
513.9705, 4581.767
514.4526, 4591.180
514.9347, 4613.963
515.4168, 4622.300
515.8989, 4596.756
516.3810, 4582.568
516.8632, 4586.144
517.3453, 4599.481
517.8274, 4620.884
518.3095, 4646.962
518.7916, 4668.092
519.2737, 4673.486
519.7559, 4668.585
520.2380, 4672.990
520.7201, 4689.143
521.2022, 4702.718
521.6843, 4708.993
522.1664, 4708.437
522.6486, 4699.684
523.1307, 4679.145
523.6128, 4669.097
524.0949, 4688.615
524.5770, 4714.004
525.0591, 4719.868
525.5413, 4707.611
526.0234, 4693.133
526.5055, 4685.540
526.9876, 4684.485
527.4697, 4689.668
527.9518, 4709.824
528.4340, 4719.814
528.9161, 4711.413
529.3982, 4699.406
529.8803, 4689.883
530.3624, 4684.846
530.8445, 4687.530
531.3267, 4703.419
531.8088, 4725.053
532.2909, 4740.418
532.7730, 4749.538
533.2551, 4752.445
533.7372, 4747.598
534.2194, 4738.895
534.7015, 4731.113
535.1836, 4723.916
535.6657, 4719.420
536.1478, 4717.810
536.6299, 4718.870
537.1121, 4727.571
537.5942, 4738.307
538.0763, 4737.388
538.5584, 4718.369
539.0405, 4692.243
539.5226, 4680.765
540.0048, 4689.357
540.4869, 4688.125
540.9690, 4662.346
541.4511, 4641.796
541.9332, 4647.875
542.4153, 4669.303
542.8975, 4680.462
543.3796, 4668.643
543.8617, 4652.477
544.3438, 4651.978
544.8259, 4659.781
545.3080, 4651.398
545.7902, 4620.062
546.2723, 4588.036
546.7544, 4579.361
547.2365, 4595.351
547.7186, 4598.863
548.2007, 4582.714
548.6829, 4564.114
549.1650, 4538.892
549.6471, 4517.483
550.1292, 4516.953
550.6113, 4538.597
551.0934, 4557.980
551.5756, 4546.738
552.0577, 4510.515
552.5398, 4481.154
553.0219, 4457.890
553.5040, 4446.306
553.9861, 4457.215
554.4683, 4477.798
554.9504, 4483.845
555.4325, 4473.026
555.9146, 4454.650
556.3967, 4421.207
556.8788, 4388.626
557.3610, 4375.443
557.8431, 4379.337
558.3252, 4383.083
558.8073, 4375.271
559.2894, 4361.448
559.7715, 4360.862
560.2537, 4385.613
560.7358, 4393.741
561.2179, 4365.096
561.7000, 4331.292
562.1821, 4306.769
562.6642, 4291.553
563.1464, 4282.289
563.6285, 4283.221
564.1106, 4283.264
564.5927, 4265.441
565.0748, 4235.312
565.5569, 4217.648
566.0391, 4221.362
566.5212, 4227.915
567.0033, 4214.368
567.4854, 4177.235
567.9675, 4146.992
568.4496, 4121.382
568.9318, 4104.292
569.4139, 4105.755
569.8960, 4112.345
570.3781, 4105.062
570.8602, 4079.817
571.3423, 4054.136
571.8245, 4049.834
572.3066, 4061.438
572.7887, 4059.217
573.2708, 4038.642
573.7529, 4021.586
574.2350, 4023.641
574.7172, 4034.294
575.1993, 4029.301
575.6814, 4003.073
576.1635, 3977.593
576.6456, 3952.272
577.1277, 3933.871
577.6099, 3934.520
578.0920, 3948.087
578.5741, 3952.794
579.0562, 3934.682
579.5383, 3905.760
580.0204, 3896.547
580.5026, 3913.585
580.9847, 3920.728
581.4668, 3907.764
581.9489, 3890.302
582.4310, 3878.585
582.9132, 3870.887
583.3953, 3862.149
583.8774, 3849.270
584.3596, 3837.137
584.8417, 3831.467
585.3238, 3828.231
585.8059, 3818.115
586.2880, 3799.530
586.7701, 3781.424
587.2523, 3773.592
587.7344, 3775.182
588.2165, 3767.962
588.6986, 3740.578
589.1807, 3721.435
589.6628, 3723.965
590.1450, 3730.441
590.6271, 3725.352
591.1092, 3707.538
591.5913, 3686.912
592.0734, 3664.723
592.5555, 3645.942
593.0377, 3642.362
593.5198, 3651.407
594.0019, 3651.684
594.4840, 3632.818
594.9661, 3608.535
595.4482, 3601.376
595.9304, 3618.830
596.4125, 3625.073
596.8946, 3616.228
597.3767, 3601.878
597.8588, 3579.108
598.3409, 3555.521
598.8231, 3542.979
599.3052, 3545.201
599.7873, 3551.166
600.2694, 3548.629
600.7515, 3540.430
601.2336, 3540.756
601.7158, 3552.804
602.1979, 3554.377
602.6800, 3528.051
603.1621, 3486.021
603.6442, 3460.415
604.1263, 3454.623
604.6085, 3456.078
605.0906, 3472.905
605.5727, 3488.494
606.0548, 3489.728
606.5369, 3480.170
607.0190, 3470.962
607.5012, 3467.858
607.9833, 3467.461
608.4654, 3464.662
608.9475, 3459.454
609.4296, 3452.130
609.9117, 3441.009
610.3939, 3431.794
610.8760, 3429.771
611.3581, 3433.208
611.8402, 3434.772
612.3223, 3435.859
612.8044, 3432.792
613.2866, 3421.506
613.7687, 3407.505
614.2508, 3392.102
614.7329, 3378.613
615.2150, 3377.838
615.6971, 3400.196
616.1793, 3434.474
616.6614, 3448.053
617.1435, 3437.303
617.6256, 3427.082
618.1077, 3421.252
618.5898, 3418.438
619.0720, 3418.179
619.5541, 3420.060
620.0362, 3422.504
620.5183, 3426.135
621.0004, 3429.252
621.4825, 3433.001
621.9647, 3434.805
622.4468, 3426.877
622.9289, 3410.292
623.4110, 3400.416
623.8931, 3412.681
624.3752, 3441.970
624.8574, 3462.132
625.3395, 3472.514
625.8216, 3475.432
626.3037, 3465.992
626.7858, 3454.084
627.2679, 3447.721
627.7501, 3446.861
628.2322, 3450.020
628.7143, 3459.081
629.1964, 3469.863
629.6785, 3485.517
630.1606, 3499.392
630.6428, 3493.955
631.1249, 3467.172
631.6070, 3444.472
