##NAMES=Stillwellite-(Ce)
##RRUFFID=R060911
##IDEAL CHEMISTRY=CeBSiO_5_
##LOCALITY=Dimbulah, Queensland, Australia
##OWNER=RRUFF
##SOURCE=Royal Ontario Museum
##DESCRIPTION=Dark orange crystalline blebs intergrown with fluorapatite
##STATUS=The identification of this mineral has been confirmed by single-crystal X-ray diffraction.
##URL=rruff.info/R060911
185.9513, 624.5607
186.4334, 622.4349
186.9155, 621.7674
187.3976, 622.3190
187.8798, 623.6291
188.3619, 625.8887
188.8440, 628.0326
189.3261, 628.1139
189.8082, 626.3000
190.2903, 624.8175
190.7725, 625.0027
191.2546, 626.5799
191.7367, 628.1466
192.2188, 629.8326
192.7009, 631.0449
193.1830, 630.4072
193.6652, 627.9202
194.1473, 625.4134
194.6294, 623.8583
195.1115, 623.1963
195.5936, 622.6776
196.0757, 622.0816
196.5579, 621.8923
197.0400, 623.3839
197.5221, 626.7114
198.0042, 630.0106
198.4863, 632.2715
198.9684, 633.4791
199.4506, 634.4940
199.9327, 635.4037
200.4148, 636.1148
200.8969, 636.2574
201.3790, 635.7090
201.8611, 635.2851
202.3433, 635.4768
202.8254, 636.3212
203.3075, 637.3489
203.7896, 638.5312
204.2717, 639.8531
204.7538, 641.7053
205.2360, 644.5914
205.7181, 646.1396
206.2002, 643.8773
206.6823, 636.7213
207.1644, 633.0645
207.6465, 634.7289
208.1287, 639.6501
208.6108, 641.5195
209.0929, 639.5067
209.5750, 636.7355
210.0571, 635.2018
210.5392, 635.2432
211.0214, 634.8272
211.5035, 633.5594
211.9856, 631.8043
212.4677, 630.8245
212.9498, 630.8425
213.4319, 631.1705
213.9140, 631.4636
214.3962, 631.7908
214.8783, 631.8881
215.3604, 631.7264
215.8425, 631.3270
216.3246, 630.7538
216.8067, 629.9452
217.2889, 629.0630
217.7710, 628.0332
218.2531, 626.4587
218.7352, 625.9151
219.2173, 626.7410
219.6994, 628.6895
220.1816, 630.6945
220.6637, 633.1127
221.1458, 635.0043
221.6279, 635.5112
222.1100, 633.7106
222.5921, 633.0427
223.0743, 634.2858
223.5564, 636.8965
224.0385, 638.3840
224.5206, 638.5194
225.0027, 637.8912
225.4848, 636.6574
225.9670, 634.2187
226.4491, 632.7422
226.9312, 632.7882
227.4133, 633.9681
227.8954, 634.3468
228.3775, 633.5687
228.8597, 632.5120
229.3418, 631.7045
229.8239, 631.2557
230.3060, 630.7794
230.7881, 630.1759
231.2702, 629.4997
231.7524, 629.0742
232.2345, 628.9641
232.7166, 628.9825
233.1987, 629.0184
233.6808, 629.0300
234.1629, 629.1070
234.6451, 629.2134
235.1272, 629.3749
235.6093, 629.7365
236.0914, 630.3797
236.5735, 631.1109
237.0556, 631.8419
237.5378, 632.6262
238.0199, 633.3126
238.5020, 633.8560
238.9841, 634.3154
239.4662, 634.9598
239.9483, 636.2657
240.4305, 637.1490
240.9126, 636.8187
241.3947, 634.0186
241.8768, 632.8928
242.3589, 634.3632
242.8410, 637.5895
243.3232, 639.6572
243.8053, 640.3742
244.2874, 640.1633
244.7695, 639.0253
245.2516, 636.0131
245.7337, 634.1285
246.2159, 633.5498
246.6980, 634.1252
247.1801, 635.5188
247.6622, 638.3616
248.1443, 641.0643
248.6264, 642.7745
249.1086, 642.9523
249.5907, 643.4923
250.0728, 644.7177
250.5549, 646.2473
251.0370, 646.9451
251.5191, 646.1418
252.0013, 645.5952
252.4834, 646.3585
252.9655, 649.6468
253.4476, 650.9562
253.9297, 649.3767
254.4118, 646.2375
254.8940, 644.5578
255.3761, 645.0849
255.8582, 645.7412
256.3403, 645.5959
256.8224, 644.2750
257.3046, 643.3860
257.7867, 643.1131
258.2688, 643.1411
258.7509, 642.8554
259.2330, 642.1263
259.7151, 641.3290
260.1973, 640.5470
260.6794, 639.7316
261.1615, 639.1892
261.6436, 638.9150
262.1257, 638.9289
262.6078, 639.4076
263.0900, 640.7200
263.5721, 641.6366
264.0542, 641.5856
264.5363, 640.3594
265.0184, 639.7839
265.5005, 640.3644
265.9827, 641.0258
266.4648, 639.9372
266.9469, 636.3376
267.4290, 633.2256
267.9111, 631.5412
268.3932, 631.3616
268.8754, 631.5432
269.3575, 632.3286
269.8396, 633.0753
270.3217, 632.7443
270.8038, 630.9231
271.2859, 629.5795
271.7681, 629.3527
272.2502, 630.1948
272.7323, 630.9884
273.2144, 631.7238
273.6965, 632.3916
274.1786, 632.9631
274.6608, 633.4299
275.1429, 633.9299
275.6250, 634.7075
276.1071, 635.6120
276.5892, 635.2313
277.0714, 633.1987
277.5535, 630.9493
278.0356, 630.0793
278.5177, 630.7828
278.9998, 630.6290
279.4819, 628.4212
279.9641, 625.1036
280.4462, 625.4327
280.9283, 630.1154
281.4104, 635.4080
281.8925, 638.4027
282.3746, 639.0839
282.8568, 638.9677
283.3389, 638.0980
283.8210, 636.7764
284.3031, 635.7937
284.7852, 635.1760
285.2673, 634.7910
285.7495, 634.5081
286.2316, 634.3528
286.7137, 634.5670
287.1958, 635.2501
287.6779, 636.2314
288.1600, 637.1558
288.6422, 638.0190
289.1243, 638.9707
289.6064, 640.4216
290.0885, 642.1443
290.5706, 642.6699
291.0527, 641.5356
291.5349, 639.9344
292.0170, 639.6910
292.4991, 640.7371
292.9812, 642.4026
293.4633, 644.4982
293.9454, 646.9290
294.4276, 649.6197
294.9097, 652.7056
295.3918, 655.3231
295.8739, 655.8976
296.3560, 654.8300
296.8381, 654.0307
297.3203, 654.8377
297.8024, 656.4622
298.2845, 657.1131
298.7666, 656.6688
299.2487, 656.1931
299.7308, 656.9352
300.2130, 658.5447
300.6951, 660.0010
301.1772, 660.8510
301.6593, 661.3329
302.1414, 661.9542
302.6235, 662.6927
303.1057, 662.9170
303.5878, 661.5126
304.0699, 659.2709
304.5520, 657.7112
305.0341, 657.7775
305.5162, 658.3251
305.9984, 658.2126
306.4805, 657.4990
306.9626, 656.5734
307.4447, 655.3425
307.9268, 654.1719
308.4089, 653.6843
308.8911, 654.6560
309.3732, 655.3969
309.8553, 654.2820
310.3374, 651.7359
310.8195, 649.1561
311.3016, 647.4402
311.7838, 646.0204
312.2659, 644.3246
312.7480, 642.0947
313.2301, 639.9501
313.7122, 638.8364
314.1943, 638.0610
314.6765, 636.1881
315.1586, 631.0416
315.6407, 625.6830
316.1228, 622.0764
316.6049, 620.7774
317.0870, 620.0273
317.5692, 619.3821
318.0513, 618.7532
318.5334, 618.0192
319.0155, 617.9678
319.4976, 617.0993
319.9797, 614.0450
320.4619, 608.4365
320.9440, 604.2993
321.4261, 604.3674
321.9082, 605.8239
322.3903, 606.0032
322.8724, 603.2540
323.3546, 600.2528
323.8367, 597.3488
324.3188, 594.5900
324.8009, 592.6934
325.2830, 592.4718
325.7651, 592.7448
326.2473, 592.7548
326.7294, 593.5354
327.2115, 592.8069
327.6936, 589.1805
328.1757, 583.4752
328.6578, 579.5744
329.1400, 578.4642
329.6221, 578.3906
330.1042, 578.7039
330.5863, 580.2742
331.0684, 580.7758
331.5505, 579.6316
332.0327, 577.5139
332.5148, 575.9294
332.9969, 575.1985
333.4790, 574.5231
333.9611, 573.5232
334.4432, 571.9498
334.9254, 570.9946
335.4075, 570.8710
335.8896, 571.1642
336.3717, 571.4483
336.8538, 572.0323
337.3359, 571.7392
337.8180, 569.6104
338.3001, 565.7178
338.7823, 564.9576
339.2644, 568.7259
339.7465, 572.9142
340.2286, 573.1305
340.7107, 568.6630
341.1928, 564.4047
341.6750, 560.9760
342.1571, 558.5834
342.6392, 558.9363
343.1213, 562.6226
343.6034, 565.9745
344.0855, 565.8021
344.5677, 562.2815
345.0498, 559.6638
345.5319, 558.4724
346.0140, 558.4022
346.4961, 559.4417
346.9782, 561.5201
347.4604, 562.8984
347.9425, 561.7750
348.4246, 559.0169
348.9067, 558.0594
349.3888, 559.3258
349.8709, 561.1808
350.3531, 561.8160
350.8352, 561.3983
351.3173, 560.5519
351.7994, 559.1821
352.2815, 557.6595
352.7636, 556.3184
353.2458, 555.1558
353.7279, 554.9205
354.2100, 557.3075
354.6921, 560.8917
355.1742, 563.1278
355.6563, 562.3884
356.1385, 560.9033
356.6206, 560.6480
357.1027, 561.4815
357.5848, 562.6993
358.0669, 564.4159
358.5490, 566.0586
359.0312, 567.0883
359.5133, 567.3802
359.9954, 567.1337
360.4775, 565.7090
360.9596, 563.8362
361.4417, 563.0742
361.9239, 565.2242
362.4060, 567.7526
362.8881, 569.1971
363.3702, 569.2092
363.8523, 569.2134
364.3344, 570.0948
364.8166, 571.0678
365.2987, 571.2366
365.7808, 569.1639
366.2629, 567.4929
366.7450, 567.0844
367.2271, 567.9460
367.7093, 568.7639
368.1914, 569.3725
368.6735, 569.8910
369.1556, 570.4010
369.6377, 571.1603
370.1198, 571.5506
370.6020, 571.1562
371.0841, 570.3116
371.5662, 570.3682
372.0483, 572.8264
372.5304, 574.3431
373.0125, 573.1430
373.4947, 567.5426
373.9768, 564.1780
374.4589, 563.8510
374.9410, 565.0787
375.4231, 565.4076
375.9052, 564.3505
376.3874, 563.8032
376.8695, 564.4344
377.3516, 566.2377
377.8337, 568.2786
378.3158, 570.9319
378.7979, 572.9236
379.2801, 572.5222
379.7622, 569.5932
380.2443, 567.3162
380.7264, 566.4691
381.2085, 566.5046
381.6906, 565.6120
382.1728, 563.7525
382.6549, 562.6702
383.1370, 564.2094
383.6191, 567.6512
384.1012, 570.1254
384.5833, 571.2874
385.0655, 571.6550
385.5476, 571.3928
386.0297, 570.7725
386.5118, 570.8217
386.9939, 572.2526
387.4760, 574.5641
387.9582, 577.4998
388.4403, 581.0889
388.9224, 583.8525
389.4045, 583.5056
389.8866, 581.8547
390.3687, 581.4984
390.8509, 584.1730
391.3330, 587.4684
391.8151, 589.8971
392.2972, 591.5674
392.7793, 592.9593
393.2614, 594.2820
393.7436, 595.4271
394.2257, 596.2715
394.7078, 596.5753
395.1899, 597.0878
395.6720, 597.4070
396.1541, 598.2073
396.6363, 600.5778
397.1184, 606.9485
397.6005, 612.9060
398.0826, 616.8623
398.5647, 618.5413
399.0468, 619.8903
399.5290, 621.2454
400.0111, 622.2499
400.4932, 622.6064
400.9753, 621.5672
401.4574, 620.8938
401.9395, 620.8687
402.4217, 621.3599
402.9038, 621.8240
403.3859, 622.6588
403.8680, 622.8878
404.3501, 621.8079
404.8322, 618.7939
405.3144, 616.9278
405.7965, 617.0003
406.2786, 617.3066
406.7607, 614.7739
407.2428, 608.8668
407.7249, 602.9885
408.2071, 598.2197
408.6892, 594.4443
409.1713, 591.1772
409.6534, 588.4470
410.1355, 585.9744
410.6176, 583.4564
411.0998, 580.9332
411.5819, 578.8680
412.0640, 577.6765
412.5461, 576.4178
413.0282, 573.1028
413.5103, 568.0714
413.9925, 563.2780
414.4746, 559.4435
414.9567, 556.6576
415.4388, 555.7197
415.9209, 556.9489
416.4030, 557.5529
416.8852, 554.1130
417.3673, 548.6614
417.8494, 544.5037
418.3315, 544.3730
418.8136, 544.7182
419.2957, 543.1206
419.7779, 539.8533
420.2600, 536.6552
420.7421, 534.3332
421.2242, 532.3953
421.7063, 530.5638
422.1884, 528.8024
422.6706, 527.0612
423.1527, 524.9142
423.6348, 522.8148
424.1169, 521.5968
424.5990, 522.2365
425.0811, 522.9301
425.5633, 523.1131
426.0454, 522.6920
426.5275, 522.3253
427.0096, 521.9564
427.4917, 521.6651
427.9738, 521.6690
428.4560, 522.7981
428.9381, 522.3010
429.4202, 518.8949
429.9023, 513.8635
430.3844, 511.7546
430.8665, 513.4423
431.3487, 515.6140
431.8308, 516.6953
432.3129, 516.6492
432.7950, 516.1957
433.2771, 515.1815
433.7592, 514.2062
434.2414, 514.1176
434.7235, 514.8582
435.2056, 515.7220
435.6877, 516.6182
436.1698, 517.4138
436.6519, 517.8035
437.1341, 517.7989
437.6162, 517.5993
438.0983, 516.9368
438.5804, 516.2770
439.0625, 516.5284
439.5446, 518.0128
440.0268, 519.8380
440.5089, 521.3190
440.9910, 522.5552
441.4731, 523.7276
441.9552, 525.2585
442.4373, 526.4915
442.9195, 526.5554
443.4016, 525.4887
443.8837, 525.3230
444.3658, 527.8902
444.8479, 531.1356
445.3300, 533.4176
445.8122, 533.7960
446.2943, 534.0173
446.7764, 533.7059
447.2585, 533.4182
447.7406, 534.5931
448.2227, 540.0392
448.7049, 544.2422
449.1870, 545.1634
449.6691, 542.0063
450.1512, 540.3326
450.6333, 540.4813
451.1154, 541.7695
451.5976, 543.9553
452.0797, 547.7770
452.5618, 549.8632
453.0439, 549.1231
453.5260, 546.6236
454.0081, 545.4381
454.4903, 545.5956
454.9724, 546.9121
455.4545, 549.7540
455.9366, 553.8554
456.4187, 557.6484
456.9008, 561.1000
457.3830, 563.9640
457.8651, 565.5280
458.3472, 566.1451
458.8293, 566.8474
459.3114, 567.7427
459.7935, 569.1158
460.2757, 571.6877
460.7578, 575.2197
461.2399, 578.5779
461.7220, 580.7092
462.2041, 582.5309
462.6862, 585.1135
463.1684, 588.9149
463.6505, 592.0869
464.1326, 592.7862
464.6147, 592.5411
465.0968, 593.3459
465.5789, 597.3722
466.0611, 600.9164
466.5432, 602.7433
467.0253, 602.9584
467.5074, 603.0965
467.9895, 604.2983
468.4716, 604.6806
468.9538, 603.2064
469.4359, 598.7156
469.9180, 594.9832
470.4001, 592.3676
470.8822, 590.2141
471.3643, 587.5846
471.8465, 584.4906
472.3286, 580.8497
472.8107, 576.5600
473.2928, 571.7307
473.7749, 566.2015
474.2570, 559.6746
474.7392, 554.1659
475.2213, 552.4066
475.7034, 553.5751
476.1855, 551.6778
476.6676, 545.6140
477.1497, 538.0302
477.6319, 531.9967
478.1140, 527.3595
478.5961, 523.7195
479.0782, 521.3817
479.5603, 519.6591
480.0424, 517.7765
480.5246, 515.7607
481.0067, 513.9024
481.4888, 513.3262
481.9709, 512.4659
482.4530, 509.6320
482.9352, 503.4948
483.4173, 497.8913
483.8994, 494.8522
484.3815, 493.1648
484.8636, 491.0147
485.3457, 487.3661
485.8279, 483.8578
486.3100, 480.8185
486.7921, 478.2671
487.2742, 476.2978
487.7563, 475.2177
488.2384, 474.4020
488.7206, 473.6122
489.2027, 473.1496
489.6848, 471.8620
490.1669, 469.4015
490.6490, 466.4837
491.1311, 464.1233
491.6133, 462.3535
492.0954, 461.0855
492.5775, 460.4890
493.0596, 460.3202
493.5417, 459.6205
494.0238, 458.3822
494.5060, 457.0214
494.9881, 455.9180
495.4702, 454.9215
495.9523, 453.5108
496.4344, 451.5036
496.9165, 449.6223
497.3987, 448.8954
497.8808, 448.7780
498.3629, 448.2586
498.8450, 446.3432
499.3271, 444.3772
499.8092, 443.4169
500.2914, 443.2712
500.7735, 442.9295
501.2556, 441.9037
501.7377, 440.6319
502.2198, 439.4303
502.7019, 438.5472
503.1841, 437.1675
503.6662, 434.3505
504.1483, 431.3411
504.6304, 429.6382
505.1125, 430.0364
505.5946, 430.4918
506.0768, 430.7529
506.5589, 430.8318
507.0410, 430.7084
507.5231, 430.1949
508.0052, 429.9908
508.4873, 430.9387
508.9695, 433.0443
509.4516, 433.1231
509.9337, 430.8062
510.4158, 427.9087
510.8979, 426.6182
511.3800, 426.5899
511.8622, 426.3095
512.3443, 425.2272
512.8264, 423.9213
513.3085, 423.0894
513.7906, 422.6747
514.2728, 422.4700
514.7549, 422.6578
515.2370, 422.8170
515.7191, 422.4926
516.2012, 421.6259
516.6833, 420.8578
517.1655, 420.6050
517.6476, 420.5187
518.1297, 420.3015
518.6118, 419.8177
519.0939, 419.2971
519.5760, 418.8045
520.0582, 418.2984
520.5403, 417.6586
521.0224, 416.7245
521.5045, 415.8841
521.9866, 415.2160
522.4688, 414.7163
522.9509, 414.3750
523.4330, 414.0763
523.9151, 414.1807
524.3972, 415.3423
524.8793, 417.5939
525.3615, 418.5389
525.8436, 417.6474
526.3257, 416.2817
526.8078, 416.8575
527.2899, 418.9106
527.7720, 420.1845
528.2542, 419.0363
528.7363, 417.2083
529.2184, 417.3705
529.7005, 419.1507
530.1826, 420.5272
530.6647, 419.7713
531.1469, 418.3712
531.6290, 417.6930
532.1111, 418.1224
532.5932, 418.3357
533.0753, 417.9307
533.5574, 417.0057
534.0396, 415.6704
534.5217, 412.7812
535.0038, 410.8554
535.4859, 410.9492
535.9680, 412.2939
536.4501, 412.3329
536.9323, 410.0154
537.4144, 408.1917
537.8965, 408.1306
538.3786, 409.8845
538.8607, 410.9052
539.3428, 411.0956
539.8250, 410.8095
540.3071, 410.3156
540.7892, 409.6187
541.2713, 408.5312
541.7534, 406.7832
542.2355, 405.3197
542.7177, 405.7701
543.1998, 407.6697
543.6819, 409.5329
544.1640, 410.9513
544.6461, 411.8096
545.1282, 411.9568
545.6104, 411.4214
546.0925, 410.3987
546.5746, 408.0111
547.0567, 405.8662
547.5388, 405.1563
548.0209, 406.4576
548.5031, 407.8301
548.9852, 409.0563
549.4673, 410.0782
549.9494, 410.8266
550.4315, 411.0890
550.9136, 411.4430
551.3958, 412.2286
551.8779, 413.0689
552.3600, 412.6626
552.8421, 410.6121
553.3242, 408.6758
553.8063, 407.4204
554.2885, 406.8696
554.7706, 407.6705
555.2527, 409.9912
555.7348, 411.8998
556.2169, 411.2086
556.6990, 408.8192
557.1812, 406.9813
557.6633, 406.0435
558.1454, 405.7444
558.6275, 406.5396
559.1096, 407.6981
559.5917, 407.9433
560.0739, 405.4473
560.5560, 403.1566
561.0381, 402.8938
561.5202, 404.2080
562.0023, 405.0544
562.4844, 404.6219
562.9666, 403.8574
563.4487, 403.1689
563.9308, 402.6250
564.4129, 401.8266
564.8950, 400.2998
565.3771, 399.0302
565.8593, 399.1159
566.3414, 401.1613
566.8235, 401.8233
567.3056, 400.4194
567.7877, 398.0517
568.2698, 396.7203
568.7520, 396.3632
569.2341, 396.0682
569.7162, 395.1954
570.1983, 394.3682
570.6804, 395.3175
571.1625, 397.7123
571.6447, 399.2535
572.1268, 397.2792
572.6089, 394.4044
573.0910, 393.5467
573.5731, 395.3560
574.0552, 396.5294
574.5374, 394.5737
575.0195, 391.7657
575.5016, 390.2264
575.9837, 391.3199
576.4658, 392.5061
576.9479, 393.8026
577.4301, 394.9797
577.9122, 395.5609
578.3943, 395.2935
578.8764, 394.9253
579.3585, 394.7321
579.8406, 394.6196
580.3228, 393.7679
580.8049, 392.0363
581.2870, 390.4754
581.7691, 389.9269
582.2512, 390.1610
582.7333, 390.2601
583.2155, 390.1808
583.6975, 389.9480
584.1796, 389.3833
584.6617, 388.7340
585.1439, 388.4153
585.6260, 388.6382
586.1081, 389.0528
586.5902, 389.9572
587.0723, 390.8522
587.5544, 390.7687
588.0366, 388.3839
588.5187, 386.0336
589.0008, 384.1486
589.4829, 382.8032
589.9650, 382.7035
590.4471, 384.7071
590.9293, 386.8379
591.4114, 388.3383
591.8935, 389.3079
592.3756, 388.6802
592.8577, 385.9484
593.3398, 382.9727
593.8220, 381.7447
594.3041, 382.0829
594.7862, 382.6140
595.2683, 383.1571
595.7504, 383.6494
596.2325, 384.2831
596.7147, 384.8310
597.1968, 384.6935
597.6789, 382.7968
598.1610, 380.8090
598.6431, 380.2313
599.1252, 380.7267
599.6074, 380.6852
600.0895, 378.8396
600.5716, 376.9087
601.0537, 375.6959
601.5358, 375.3769
602.0179, 375.3685
602.5001, 376.2313
602.9822, 376.8344
603.4643, 376.1794
603.9464, 373.7840
604.4285, 372.1126
604.9106, 371.5580
605.3928, 371.2953
605.8749, 369.7661
606.3570, 367.0986
606.8391, 365.0994
607.3212, 364.5303
607.8033, 364.6378
608.2855, 364.1699
608.7676, 363.3436
609.2497, 362.9489
609.7318, 364.3265
610.2139, 365.6436
610.6960, 364.9962
611.1782, 362.3950
611.6603, 360.5840
612.1424, 361.1326
612.6245, 362.3158
613.1066, 363.1816
613.5887, 363.9892
614.0709, 363.6172
614.5530, 361.1336
615.0351, 358.3140
615.5172, 357.1852
615.9993, 358.2489
616.4814, 358.6220
616.9636, 357.6754
617.4457, 356.1761
617.9278, 355.8065
618.4099, 356.4217
618.8920, 356.5370
619.3741, 355.1048
619.8563, 353.1265
620.3384, 352.1122
620.8205, 351.9184
621.3026, 351.8401
621.7847, 351.4434
622.2668, 351.0221
622.7490, 350.9232
623.2311, 351.2350
623.7132, 351.1535
624.1953, 350.4348
624.6774, 349.2755
625.1595, 347.7450
625.6417, 345.1451
626.1238, 343.6617
626.6059, 343.8552
627.0880, 344.5804
627.5701, 344.2061
628.0522, 342.5918
628.5344, 341.2322
629.0165, 340.3846
629.4986, 340.0396
629.9807, 340.6369
630.4628, 341.9149
630.9449, 342.4668
631.4271, 341.1107
631.9092, 338.9886
632.3913, 337.0931
632.8734, 335.4541
633.3555, 334.2651
633.8376, 333.5242
634.3198, 333.3136
634.8019, 334.0791
635.2840, 336.3300
635.7661, 336.9869
636.2482, 334.0779
636.7303, 330.8743
637.2125, 329.7834
637.6946, 331.9523
638.1767, 332.7876
638.6588, 331.7306
639.1409, 329.9902
639.6230, 329.5175
640.1052, 330.1932
640.5873, 330.0352
641.0694, 328.1169
641.5515, 325.8800
642.0336, 325.8089
642.5157, 327.2823
642.9979, 328.4889
643.4800, 328.3955
643.9621, 327.8229
644.4442, 327.2619
644.9263, 326.7062
645.4084, 326.0550
645.8906, 325.2592
646.3727, 324.3812
646.8548, 323.4276
647.3369, 322.3920
647.8190, 321.3496
648.3011, 320.1410
648.7833, 319.1789
649.2654, 318.8653
649.7475, 319.2562
650.2296, 319.6941
650.7117, 320.2589
651.1938, 320.4289
651.6760, 319.2255
652.1581, 317.0538
652.6402, 315.1811
653.1223, 313.9168
653.6044, 313.0877
654.0865, 312.9881
654.5687, 313.1343
655.0508, 312.6026
655.5329, 310.0568
656.0150, 307.7821
656.4971, 306.6934
656.9792, 306.6339
657.4614, 306.7159
657.9435, 307.2975
658.4256, 307.4310
658.9077, 306.5847
659.3898, 304.8263
659.8719, 304.0028
660.3541, 304.3106
660.8362, 304.6293
661.3183, 304.0014
661.8004, 302.7090
662.2825, 301.9200
662.7646, 301.7260
663.2468, 301.5477
663.7289, 301.1329
664.2110, 300.3278
664.6931, 298.7826
665.1752, 295.9994
665.6573, 293.6000
666.1395, 292.5389
666.6216, 292.1476
667.1037, 291.6028
667.5858, 290.6692
668.0679, 289.7278
668.5500, 288.8561
669.0322, 287.9744
669.5143, 286.8852
669.9964, 285.5132
670.4785, 284.2578
670.9606, 283.2007
671.4427, 282.3641
671.9249, 282.0110
672.4070, 282.0592
672.8891, 281.8617
673.3712, 280.9006
673.8533, 279.5685
674.3354, 278.4924
674.8176, 277.6081
675.2997, 276.1389
675.7818, 272.3084
676.2639, 268.8456
676.7460, 267.7307
677.2281, 270.0010
677.7103, 271.4758
678.1924, 271.9908
678.6745, 271.6815
679.1566, 270.5450
679.6387, 268.4196
680.1208, 266.0970
680.6030, 263.4322
681.0851, 260.9960
681.5672, 259.2788
682.0493, 258.3219
682.5314, 258.4987
683.0135, 260.4747
683.4957, 262.2314
