##NAMES=Stolzite
##RRUFFID=R070552
##IDEAL CHEMISTRY=Pb^2+^W^6+^O_4_
##LOCALITY=Kangaloolah, Tuena, Georgiana County, New South Wales, Australia
##OWNER=RRUFF
##SOURCE=James Shigley
##DESCRIPTION=Colorless to light tan dipyramidal crystals
##STATUS=The identification of this mineral has been confirmed by single-crystal X-ray diffraction.
##URL=rruff.info/R070552
93.26556, 96.10088
93.74768, 94.93975
94.22980, 94.21301
94.71191, 93.76704
95.19403, 93.59679
95.67615, 93.61063
96.15826, 94.46894
96.64038, 95.80921
97.12250, 95.12109
97.60461, 90.30881
98.08674, 83.21076
98.56886, 81.12864
99.05097, 84.83932
99.53309, 90.84692
100.0152, 95.62775
100.4973, 99.22179
100.9794, 100.9902
101.4616, 100.1976
101.9437, 96.56032
102.4258, 93.04829
102.9079, 89.04493
103.3900, 85.65584
103.8721, 86.02854
104.3543, 92.41531
104.8364, 98.43631
105.3185, 100.6633
105.8006, 96.77872
106.2827, 93.93344
106.7648, 92.00867
107.2470, 91.20991
107.7291, 93.64365
108.2112, 104.3033
108.6933, 114.5139
109.1754, 118.0341
109.6575, 107.1673
110.1397, 98.02967
110.6218, 92.70245
111.1039, 91.60082
111.5860, 91.58046
112.0681, 92.70020
112.5502, 94.78945
113.0324, 97.63799
113.5145, 104.3775
113.9966, 109.2448
114.4787, 109.4227
114.9608, 101.7040
115.4429, 96.79625
115.9251, 98.75784
116.4072, 105.3665
116.8893, 111.8332
117.3714, 115.4606
117.8535, 119.1931
118.3356, 125.2887
118.8178, 138.2203
119.2999, 148.4642
119.7820, 148.1841
120.2641, 139.7117
120.7462, 135.0192
121.2283, 143.9688
121.7105, 159.2461
122.1926, 172.4732
122.6747, 178.8542
123.1568, 183.3813
123.6389, 190.2371
124.1210, 199.4825
124.6032, 208.7101
125.0853, 213.3914
125.5674, 216.5336
126.0495, 224.4680
126.5316, 244.4142
127.0137, 269.6859
127.4959, 290.8147
127.9780, 306.9987
128.4601, 319.6641
128.9422, 326.3196
129.4243, 328.8022
129.9064, 337.3339
130.3886, 363.3362
130.8707, 400.9843
131.3528, 432.8474
131.8349, 454.8396
132.3170, 471.9084
132.7991, 493.5292
133.2813, 519.9573
133.7634, 547.9882
134.2455, 574.0781
134.7276, 598.3865
135.2097, 628.0946
135.6918, 666.4604
136.1740, 711.2026
136.6561, 753.9742
137.1382, 794.8957
137.6203, 833.8198
138.1024, 870.4047
138.5845, 904.3702
139.0667, 939.0181
139.5488, 975.9298
140.0309, 1015.375
140.5130, 1054.617
140.9951, 1092.693
141.4772, 1132.161
141.9594, 1176.389
142.4415, 1225.953
142.9236, 1280.177
143.4057, 1342.356
143.8878, 1419.001
144.3699, 1482.105
144.8521, 1524.805
145.3342, 1554.993
145.8163, 1594.562
146.2984, 1648.125
146.7805, 1705.980
147.2626, 1764.627
147.7448, 1823.445
148.2269, 1883.208
148.7090, 1942.820
149.1911, 2003.046
149.6732, 2066.102
150.1554, 2135.664
150.6375, 2206.007
151.1196, 2271.616
151.6017, 2323.520
152.0838, 2381.569
152.5659, 2448.379
153.0481, 2524.900
153.5302, 2604.759
154.0123, 2684.778
154.4944, 2769.168
154.9765, 2861.908
155.4586, 2955.880
155.9408, 3065.211
156.4229, 3193.662
156.9050, 3330.258
157.3871, 3463.057
157.8692, 3606.282
158.3513, 3758.631
158.8335, 3916.087
159.3156, 4082.440
159.7977, 4250.378
160.2798, 4415.251
160.7619, 4571.503
161.2440, 4737.980
161.7262, 4926.581
162.2083, 5129.870
162.6904, 5332.601
163.1725, 5516.057
163.6546, 5703.456
164.1367, 5909.584
164.6189, 6151.705
165.1010, 6395.276
165.5831, 6616.458
166.0652, 6823.074
166.5473, 7047.163
167.0294, 7294.834
167.5116, 7566.651
167.9937, 7861.852
168.4758, 8187.056
168.9579, 8528.264
169.4400, 8887.063
169.9221, 9260.305
170.4043, 9620.689
170.8864, 9934.617
171.3685, 10227.63
171.8506, 10540.40
172.3327, 10911.79
172.8148, 11290.77
173.2970, 11644.29
173.7791, 11972.88
174.2612, 12251.15
174.7433, 12472.91
175.2254, 12628.09
175.7076, 12698.22
176.1897, 12672.28
176.6718, 12559.29
177.1539, 12365.74
177.6360, 12089.51
178.1181, 11748.58
178.6003, 11338.52
179.0824, 10866.99
179.5645, 10378.61
180.0466, 9863.879
180.5287, 9343.085
181.0108, 8859.625
181.4930, 8413.811
181.9751, 8003.283
182.4572, 7626.623
182.9393, 7282.146
183.4214, 6982.863
183.9035, 6740.522
184.3857, 6549.230
184.8678, 6392.340
185.3499, 6272.419
185.8320, 6179.761
186.3141, 6107.393
186.7962, 6053.894
187.2784, 6005.761
187.7605, 5953.724
188.2426, 5898.887
188.7247, 5846.727
189.2068, 5803.714
189.6889, 5759.689
190.1711, 5694.009
190.6532, 5607.489
191.1353, 5497.038
191.6174, 5355.713
192.0995, 5187.402
192.5816, 5007.638
193.0638, 4820.770
193.5459, 4626.484
194.0280, 4420.394
194.5101, 4198.398
194.9922, 3977.484
195.4743, 3771.196
195.9565, 3581.997
196.4386, 3404.318
196.9207, 3238.447
197.4028, 3084.232
197.8849, 2941.068
198.3671, 2807.266
198.8492, 2685.140
199.3313, 2578.635
199.8134, 2488.218
200.2955, 2404.108
200.7776, 2320.953
201.2598, 2239.127
201.7419, 2170.006
202.2240, 2113.981
202.7061, 2068.207
203.1882, 2028.287
203.6703, 1993.776
204.1525, 1966.767
204.6346, 1952.608
205.1167, 1953.186
205.5988, 1935.808
206.0809, 1894.255
206.5630, 1842.975
207.0452, 1808.449
207.5273, 1795.098
208.0094, 1782.781
208.4915, 1760.231
208.9736, 1723.992
209.4557, 1701.109
209.9379, 1696.592
210.4200, 1701.289
210.9021, 1694.897
211.3842, 1673.840
211.8663, 1651.313
212.3484, 1633.462
212.8306, 1620.830
213.3127, 1611.057
213.7948, 1605.141
214.2769, 1601.541
214.7590, 1596.087
215.2411, 1588.691
215.7233, 1579.741
216.2054, 1568.227
216.6875, 1551.541
217.1696, 1541.657
217.6517, 1541.468
218.1338, 1548.133
218.6160, 1551.199
219.0981, 1549.159
219.5802, 1546.194
220.0623, 1544.514
220.5444, 1543.746
221.0265, 1545.586
221.5087, 1551.953
221.9908, 1561.223
222.4729, 1564.790
222.9550, 1560.558
223.4371, 1553.903
223.9192, 1547.837
224.4014, 1541.693
224.8835, 1538.304
225.3656, 1539.101
225.8477, 1543.328
226.3298, 1544.117
226.8119, 1535.627
227.2941, 1531.369
227.7762, 1544.578
228.2583, 1590.286
228.7404, 1618.662
229.2225, 1618.056
229.7046, 1591.414
230.1868, 1571.488
230.6689, 1560.292
231.1510, 1553.589
231.6331, 1547.746
232.1152, 1540.893
232.5974, 1539.081
233.0795, 1545.394
233.5616, 1559.358
234.0437, 1567.382
234.5258, 1566.371
235.0079, 1563.059
235.4901, 1563.766
235.9722, 1572.361
236.4543, 1577.399
236.9364, 1575.054
237.4185, 1565.316
237.9006, 1562.551
238.3828, 1570.740
238.8649, 1581.716
239.3470, 1588.179
239.8291, 1588.680
240.3112, 1586.856
240.7933, 1581.471
241.2755, 1572.147
241.7576, 1570.444
242.2397, 1580.780
242.7218, 1594.288
243.2039, 1601.701
243.6860, 1598.218
244.1682, 1597.868
244.6503, 1605.392
245.1324, 1621.464
245.6145, 1629.554
246.0966, 1625.272
246.5787, 1617.343
247.0609, 1614.645
247.5430, 1618.239
248.0251, 1625.101
248.5072, 1634.994
248.9893, 1647.902
249.4714, 1663.381
249.9536, 1686.696
250.4357, 1707.457
250.9178, 1712.300
251.3999, 1690.175
251.8820, 1674.414
252.3641, 1674.273
252.8463, 1690.947
253.3284, 1703.319
253.8105, 1710.241
254.2926, 1713.959
254.7747, 1716.156
255.2568, 1714.462
255.7390, 1716.453
256.2211, 1725.548
256.7032, 1742.401
257.1853, 1753.368
257.6674, 1755.122
258.1495, 1754.598
258.6317, 1760.342
259.1138, 1776.023
259.5959, 1789.036
260.0780, 1794.431
260.5601, 1791.528
261.0422, 1797.429
261.5244, 1816.923
262.0065, 1839.150
262.4886, 1849.429
262.9707, 1840.392
263.4528, 1839.656
263.9349, 1857.975
264.4171, 1896.580
264.8992, 1918.276
265.3813, 1916.894
265.8634, 1908.169
266.3455, 1909.191
266.8276, 1921.990
267.3098, 1938.714
267.7919, 1961.040
268.2740, 1988.595
268.7561, 1999.783
269.2382, 1987.408
269.7203, 1970.531
270.2025, 1970.597
270.6846, 1991.542
271.1667, 2014.336
271.6488, 2036.151
272.1309, 2056.651
272.6130, 2070.779
273.0952, 2076.933
273.5773, 2080.140
274.0594, 2085.880
274.5415, 2094.848
275.0236, 2102.117
275.5057, 2105.123
275.9879, 2104.854
276.4700, 2110.380
276.9521, 2122.733
277.4342, 2138.144
277.9163, 2151.745
278.3984, 2162.767
278.8806, 2179.619
279.3627, 2205.881
279.8448, 2239.617
280.3269, 2271.967
280.8090, 2303.580
281.2911, 2331.029
281.7733, 2348.998
282.2554, 2357.046
282.7375, 2367.975
283.2196, 2383.964
283.7017, 2405.082
284.1838, 2432.790
284.6660, 2467.873
285.1481, 2505.506
285.6302, 2543.870
286.1123, 2582.697
286.5944, 2614.739
287.0765, 2632.079
287.5587, 2645.173
288.0408, 2691.565
288.5229, 2774.562
289.0050, 2857.373
289.4871, 2902.817
289.9692, 2917.434
290.4514, 2943.016
290.9335, 2990.945
291.4156, 3052.349
291.8977, 3105.383
292.3798, 3150.345
292.8619, 3198.707
293.3441, 3257.077
293.8262, 3325.785
294.3083, 3405.622
294.7904, 3501.596
295.2726, 3602.566
295.7547, 3684.009
296.2368, 3747.510
296.7189, 3819.743
297.2010, 3921.535
297.6831, 4045.264
298.1653, 4173.602
298.6474, 4302.915
299.1295, 4437.679
299.6116, 4587.640
300.0937, 4750.338
300.5758, 4920.669
301.0580, 5082.189
301.5401, 5249.454
302.0222, 5452.649
302.5043, 5698.596
302.9864, 5969.794
303.4685, 6244.043
303.9507, 6526.089
304.4328, 6822.960
304.9149, 7127.067
305.3970, 7452.083
305.8791, 7818.008
306.3612, 8223.152
306.8434, 8672.947
307.3255, 9170.115
307.8076, 9709.622
308.2897, 10289.66
308.7718, 10900.62
309.2539, 11550.68
309.7361, 12249.00
310.2182, 12994.73
310.7003, 13782.31
311.1824, 14598.15
311.6645, 15447.18
312.1466, 16334.22
312.6288, 17272.72
313.1109, 18251.29
313.5930, 19273.02
314.0751, 20347.93
314.5572, 21455.12
315.0393, 22590.35
315.5215, 23751.80
316.0036, 24932.14
316.4857, 26109.04
316.9678, 27335.99
317.4499, 28663.38
317.9320, 30095.13
318.4142, 31557.04
318.8963, 33088.43
319.3784, 34602.89
319.8605, 36035.88
320.3426, 37352.19
320.8247, 38589.55
321.3069, 39755.05
321.7890, 40851.85
322.2711, 41842.74
322.7532, 42700.25
323.2353, 43456.82
323.7174, 44135.70
324.1996, 44922.40
324.6817, 45435.17
325.1638, 45620.89
325.6459, 45482.07
326.1280, 45017.89
326.6101, 44336.07
327.0923, 43252.97
327.5744, 41680.60
328.0565, 39324.07
328.5386, 36826.23
329.0207, 34088.59
329.5028, 31213.99
329.9850, 28465.09
330.4671, 25750.28
330.9492, 23250.28
331.4313, 21021.06
331.9134, 19097.73
332.3955, 17378.83
332.8777, 15869.06
333.3598, 14570.49
333.8419, 13426.92
334.3240, 12452.52
334.8061, 11607.91
335.2882, 10879.38
335.7704, 10277.76
336.2525, 9745.054
336.7346, 9280.641
337.2167, 8879.253
337.6988, 8535.844
338.1809, 8258.211
338.6631, 8007.393
339.1452, 7769.309
339.6273, 7540.891
340.1094, 7366.220
340.5915, 7253.960
341.0736, 7174.578
341.5558, 7093.617
342.0379, 7007.573
342.5200, 6942.542
343.0021, 6905.870
343.4842, 6895.820
343.9663, 6902.312
344.4485, 6925.496
344.9306, 6964.728
345.4127, 7019.153
345.8948, 7088.558
346.3769, 7173.458
346.8590, 7276.809
347.3412, 7392.748
347.8233, 7502.066
348.3054, 7604.671
348.7875, 7718.034
349.2696, 7859.812
349.7517, 8021.094
350.2339, 8183.423
350.7160, 8343.018
351.1981, 8499.855
351.6802, 8660.017
352.1623, 8820.326
352.6444, 8970.072
353.1266, 9101.097
353.6087, 9216.551
354.0908, 9329.054
354.5729, 9450.854
355.0550, 9524.063
355.5371, 9495.531
356.0193, 9378.463
356.5014, 9202.081
356.9835, 8980.028
357.4656, 8708.355
357.9477, 8367.485
358.4298, 7951.409
358.9120, 7536.065
359.3941, 7146.541
359.8762, 6792.377
360.3583, 6480.803
360.8404, 6223.776
361.3225, 6006.363
361.8047, 5823.384
362.2868, 5673.922
362.7689, 5546.140
363.2510, 5438.244
363.7331, 5348.443
364.2152, 5274.973
364.6974, 5220.641
365.1795, 5179.950
365.6616, 5154.885
366.1437, 5143.374
366.6258, 5135.591
367.1079, 5133.500
367.5901, 5132.212
368.0722, 5129.118
368.5543, 5119.162
369.0364, 5114.898
369.5185, 5117.602
370.0006, 5126.362
370.4828, 5139.498
370.9649, 5163.466
371.4470, 5184.785
371.9291, 5198.470
372.4112, 5201.525
372.8933, 5207.097
373.3755, 5214.794
373.8576, 5224.922
374.3397, 5237.839
374.8218, 5253.124
375.3039, 5271.658
375.7861, 5296.769
376.2682, 5327.704
376.7503, 5344.127
377.2324, 5343.325
377.7145, 5333.337
378.1967, 5321.728
378.6788, 5309.118
379.1609, 5289.981
379.6430, 5261.685
380.1251, 5227.310
380.6072, 5195.610
381.0894, 5167.193
381.5715, 5138.697
382.0536, 5108.340
382.5357, 5076.000
383.0178, 5042.597
383.4999, 5008.708
383.9821, 4971.960
384.4642, 4925.088
384.9463, 4869.439
385.4284, 4818.034
385.9105, 4782.565
386.3926, 4753.687
386.8748, 4712.395
387.3569, 4655.644
387.8390, 4597.556
388.3211, 4550.385
388.8032, 4511.052
389.2853, 4475.172
389.7675, 4445.234
390.2496, 4414.478
390.7317, 4373.681
391.2138, 4323.819
391.6959, 4281.124
392.1780, 4257.990
392.6602, 4245.230
393.1423, 4233.735
393.6244, 4222.320
394.1065, 4210.145
394.5886, 4195.724
395.0707, 4179.972
395.5529, 4165.889
396.0350, 4156.164
396.5171, 4147.021
396.9992, 4134.575
397.4813, 4109.170
397.9634, 4099.372
398.4456, 4120.162
398.9277, 4157.133
399.4098, 4185.296
399.8919, 4193.578
400.3740, 4202.071
400.8561, 4216.212
401.3383, 4237.146
401.8204, 4256.141
402.3025, 4274.710
402.7846, 4290.208
403.2667, 4298.828
403.7488, 4294.647
404.2310, 4297.144
404.7131, 4311.245
405.1952, 4334.832
405.6773, 4358.159
406.1594, 4384.099
406.6415, 4402.324
407.1237, 4402.791
407.6058, 4383.912
408.0879, 4368.443
408.5700, 4358.655
409.0521, 4352.339
409.5342, 4345.572
410.0164, 4338.334
410.4985, 4331.604
410.9806, 4324.631
411.4627, 4318.343
411.9448, 4319.645
412.4269, 4330.187
412.9091, 4336.271
413.3912, 4316.577
413.8733, 4279.951
414.3554, 4250.401
414.8375, 4241.428
415.3196, 4240.436
415.8018, 4232.457
416.2839, 4218.461
416.7660, 4204.974
417.2481, 4201.546
417.7302, 4199.067
418.2123, 4185.759
418.6945, 4150.952
419.1766, 4121.070
419.6587, 4114.910
420.1408, 4125.150
420.6229, 4135.602
421.1050, 4140.928
421.5872, 4144.216
422.0693, 4145.004
422.5514, 4141.038
423.0335, 4145.173
423.5156, 4166.771
423.9977, 4195.018
424.4799, 4218.807
424.9620, 4236.779
425.4441, 4249.334
425.9262, 4251.959
426.4083, 4245.771
426.8904, 4251.245
427.3726, 4274.170
427.8547, 4302.595
428.3368, 4330.350
428.8189, 4359.838
429.3010, 4383.637
429.7831, 4401.383
430.2653, 4413.668
430.7474, 4420.992
431.2295, 4422.271
431.7116, 4423.104
432.1937, 4426.500
432.6758, 4432.319
433.1580, 4436.319
433.6401, 4439.361
434.1222, 4437.343
434.6043, 4422.114
435.0864, 4395.528
435.5685, 4372.622
436.0507, 4361.206
436.5328, 4352.459
437.0149, 4328.726
437.4970, 4291.291
437.9791, 4250.460
438.4612, 4217.822
438.9434, 4185.555
439.4255, 4139.727
439.9076, 4074.780
440.3897, 4006.812
440.8718, 3948.047
441.3539, 3897.054
441.8361, 3852.155
442.3182, 3823.740
442.8003, 3792.627
443.2824, 3745.973
443.7645, 3682.919
444.2466, 3617.009
444.7288, 3543.292
445.2109, 3474.357
445.6930, 3421.678
446.1751, 3406.445
446.6572, 3384.984
447.1393, 3349.311
447.6215, 3301.407
448.1036, 3250.662
448.5857, 3184.724
449.0678, 3128.532
449.5499, 3092.872
450.0320, 3085.510
450.5142, 3073.944
450.9963, 3054.522
451.4784, 3034.320
451.9605, 3026.031
452.4426, 3035.814
452.9247, 3034.567
453.4069, 3010.911
453.8890, 2970.081
454.3711, 2941.250
454.8532, 2924.676
455.3353, 2916.972
455.8174, 2918.757
456.2996, 2928.408
456.7817, 2935.581
457.2638, 2938.316
457.7459, 2939.308
458.2281, 2942.605
458.7102, 2947.509
459.1923, 2951.562
459.6744, 2957.650
460.1565, 2960.226
460.6386, 2946.729
461.1208, 2916.736
461.6029, 2894.186
462.0850, 2904.275
462.5671, 2927.925
463.0492, 2942.934
463.5313, 2937.691
464.0135, 2929.049
464.4956, 2926.900
464.9777, 2927.892
465.4598, 2921.656
465.9419, 2898.637
466.4240, 2873.061
466.9062, 2850.457
467.3883, 2829.869
467.8704, 2816.248
468.3525, 2813.559
468.8346, 2815.771
469.3167, 2817.325
469.7989, 2823.539
470.2810, 2819.392
470.7631, 2799.012
471.2452, 2764.981
471.7273, 2735.874
472.2094, 2712.465
472.6916, 2692.167
473.1737, 2674.721
473.6558, 2660.532
474.1379, 2639.946
474.6200, 2608.639
475.1021, 2579.516
475.5843, 2580.601
476.0664, 2607.875
476.5485, 2622.072
477.0306, 2596.967
477.5127, 2552.844
477.9948, 2529.888
478.4770, 2527.168
478.9591, 2529.047
479.4412, 2525.314
479.9233, 2518.065
480.4054, 2510.007
480.8875, 2501.070
481.3697, 2492.742
481.8518, 2485.860
482.3339, 2480.252
482.8160, 2475.627
483.2981, 2474.968
483.7802, 2472.545
484.2624, 2464.604
484.7445, 2450.412
485.2266, 2437.772
485.7087, 2432.051
486.1908, 2426.054
486.6729, 2414.121
487.1551, 2386.978
487.6372, 2367.410
488.1193, 2361.136
488.6014, 2362.549
489.0835, 2355.410
489.5656, 2336.052
490.0478, 2316.107
490.5299, 2299.382
491.0120, 2285.859
491.4941, 2276.008
491.9762, 2270.205
492.4583, 2266.733
492.9405, 2263.523
493.4226, 2260.746
493.9047, 2260.830
494.3868, 2265.844
494.8689, 2271.767
495.3510, 2271.808
495.8332, 2266.471
496.3153, 2258.844
496.7974, 2249.519
497.2795, 2239.437
497.7616, 2227.358
498.2437, 2212.259
498.7259, 2205.370
499.2080, 2225.542
499.6901, 2253.931
500.1722, 2268.290
500.6543, 2245.432
501.1364, 2224.357
501.6186, 2221.888
502.1007, 2232.923
502.5828, 2236.429
503.0649, 2213.465
503.5470, 2195.641
504.0291, 2198.413
504.5113, 2231.044
504.9934, 2253.168
505.4755, 2260.632
505.9576, 2261.385
506.4397, 2263.690
506.9218, 2268.081
507.4040, 2272.540
507.8861, 2277.522
508.3682, 2281.891
508.8503, 2279.573
509.3324, 2269.428
509.8145, 2263.137
510.2967, 2272.349
510.7788, 2292.058
511.2609, 2300.189
511.7430, 2294.450
512.2252, 2286.426
512.7073, 2289.064
513.1894, 2298.388
513.6715, 2305.968
514.1536, 2309.310
514.6357, 2309.446
515.1179, 2305.131
515.6000, 2297.797
516.0821, 2292.683
516.5642, 2293.400
517.0463, 2296.190
517.5284, 2298.678
518.0106, 2300.180
518.4927, 2303.317
518.9748, 2309.888
519.4569, 2317.804
519.9390, 2324.843
520.4211, 2329.959
520.9033, 2335.802
521.3854, 2344.210
521.8675, 2353.580
522.3496, 2356.525
522.8317, 2349.640
523.3138, 2344.675
523.7960, 2347.427
524.2781, 2358.063
524.7602, 2371.874
525.2423, 2390.726
525.7244, 2405.762
526.2065, 2404.672
526.6887, 2390.191
527.1708, 2375.284
527.6529, 2361.385
528.1350, 2351.596
528.6171, 2351.368
529.0992, 2359.157
529.5814, 2369.237
530.0635, 2379.460
530.5456, 2389.894
531.0277, 2403.027
531.5098, 2419.323
531.9919, 2428.174
532.4741, 2417.334
532.9562, 2400.764
533.4383, 2390.405
533.9204, 2389.130
534.4025, 2393.834
534.8846, 2410.152
535.3668, 2432.164
535.8489, 2444.747
536.3310, 2443.982
536.8131, 2439.957
537.2952, 2434.155
537.7773, 2426.544
538.2595, 2424.833
538.7416, 2430.040
539.2237, 2438.761
539.7058, 2448.247
540.1879, 2458.675
540.6700, 2472.003
541.1522, 2490.180
541.6343, 2506.859
542.1164, 2507.563
542.5985, 2496.772
543.0806, 2492.224
543.5627, 2506.983
544.0449, 2529.065
544.5270, 2546.572
545.0091, 2559.688
545.4912, 2569.296
545.9733, 2572.604
546.4554, 2574.626
546.9376, 2580.462
547.4197, 2594.665
547.9018, 2602.972
548.3839, 2592.280
548.8660, 2576.495
549.3481, 2574.693
549.8303, 2604.174
550.3124, 2627.340
550.7945, 2634.664
551.2766, 2630.235
551.7587, 2638.577
552.2408, 2664.681
552.7230, 2691.765
553.2051, 2711.904
553.6872, 2725.027
554.1693, 2732.843
554.6514, 2734.262
555.1335, 2734.854
555.6157, 2740.573
556.0978, 2750.732
556.5799, 2763.234
557.0620, 2779.044
557.5441, 2794.429
558.0262, 2802.663
558.5084, 2806.309
558.9905, 2813.269
559.4726, 2832.185
559.9547, 2852.331
560.4368, 2865.186
560.9189, 2869.984
561.4011, 2877.099
561.8832, 2891.449
562.3653, 2908.419
562.8474, 2924.896
563.3295, 2938.345
563.8116, 2953.962
564.2938, 2972.469
564.7759, 2992.784
565.2580, 3014.068
565.7401, 3038.009
566.2222, 3058.325
566.7043, 3072.496
567.1865, 3081.853
567.6686, 3093.490
568.1507, 3107.629
568.6328, 3122.322
569.1149, 3134.149
569.5970, 3145.530
570.0792, 3166.598
570.5613, 3199.687
571.0434, 3229.837
571.5255, 3236.325
572.0076, 3232.113
572.4897, 3238.606
572.9719, 3271.716
573.4540, 3306.234
573.9361, 3329.023
574.4182, 3342.358
574.9003, 3352.386
575.3824, 3355.904
575.8646, 3361.005
576.3467, 3370.523
576.8288, 3384.606
577.3109, 3402.201
577.7930, 3425.895
578.2751, 3450.013
578.7573, 3470.340
579.2394, 3485.853
579.7215, 3501.966
580.2036, 3518.323
580.6857, 3537.023
581.1678, 3564.314
581.6500, 3599.124
582.1321, 3628.856
582.6142, 3645.990
583.0963, 3657.969
583.5784, 3678.260
584.0605, 3705.421
584.5427, 3732.682
585.0248, 3759.977
585.5069, 3782.616
585.9890, 3791.909
586.4711, 3784.499
586.9532, 3786.739
587.4354, 3818.649
587.9175, 3860.018
588.3996, 3893.432
588.8817, 3898.302
589.3638, 3918.230
589.8459, 3967.132
590.3281, 4028.540
590.8102, 4070.877
