##NAMES=Stolzite
##RRUFFID=R050568
##IDEAL CHEMISTRY=Pb^2+^W^6+^O_4_
##LOCALITY=Broken Hill, New South Wales, Australia
##OWNER=RRUFF
##SOURCE=University of Arizona Mineral Museum
##DESCRIPTION=Yellowish brown tetragonal dipyramidal crystals
##STATUS=The identification of this mineral is confirmed by single-crystal X-ray diffraction and chemical analysis.
##URL=rruff.info/R050568
##MEASURED CHEMISTRY=Pb_1.00_W_1.00_O_4_
92.06543, 661.5652
92.54755, 664.3456
93.02966, 668.2094
93.51178, 666.0670
93.99390, 659.6390
94.47601, 650.6710
94.95813, 640.2839
95.44025, 629.0165
95.92236, 617.1612
96.40448, 604.4384
96.88660, 592.9300
97.36871, 583.6921
97.85082, 575.0994
98.33294, 566.0028
98.81506, 555.9128
99.29717, 544.6752
99.77929, 534.5652
100.2614, 525.5983
100.7435, 517.0712
101.2256, 507.9229
101.7078, 498.9082
102.1899, 492.2317
102.6720, 489.2533
103.1541, 487.4056
103.6362, 484.1451
104.1183, 479.4849
104.6005, 474.4741
105.0826, 469.8884
105.5647, 465.6971
106.0468, 461.8134
106.5289, 458.5525
107.0110, 455.2165
107.4931, 451.2231
107.9753, 446.3971
108.4574, 441.2968
108.9395, 437.0074
109.4216, 433.8114
109.9037, 431.0656
110.3858, 428.7169
110.8680, 426.6840
111.3501, 424.9708
111.8322, 423.5881
112.3143, 422.4565
112.7964, 421.0409
113.2785, 419.3613
113.7607, 417.4087
114.2428, 415.0251
114.7249, 412.3343
115.2070, 409.5843
115.6891, 406.9258
116.1712, 404.3775
116.6534, 402.1732
117.1355, 400.6755
117.6176, 399.2417
118.0997, 397.2261
118.5818, 394.5331
119.0639, 391.9371
119.5461, 390.4286
120.0282, 389.6641
120.5103, 388.6440
120.9924, 386.8634
121.4745, 384.6307
121.9566, 382.6749
122.4388, 381.2235
122.9209, 379.8130
123.4030, 378.0063
123.8851, 375.9276
124.3672, 373.9923
124.8493, 372.4985
125.3315, 371.4461
125.8136, 370.7440
126.2957, 371.0974
126.7778, 371.2826
127.2599, 370.6485
127.7420, 369.1950
128.2242, 367.4547
128.7063, 366.1664
129.1884, 365.6257
129.6705, 364.9362
130.1526, 364.0953
130.6347, 363.1264
131.1169, 361.9687
131.5990, 360.6211
132.0811, 359.2404
132.5632, 358.1775
133.0453, 357.5084
133.5274, 357.0954
134.0096, 357.0981
134.4917, 357.3279
134.9738, 357.5377
135.4559, 357.6246
135.9380, 357.6005
136.4201, 357.4688
136.9023, 356.8050
137.3844, 356.5846
137.8665, 357.3909
138.3486, 359.0680
138.8307, 360.9322
139.3128, 362.6488
139.7950, 364.2870
140.2771, 365.9780
140.7592, 367.7072
141.2413, 369.5213
141.7234, 371.4136
142.2055, 373.3355
142.6877, 375.5527
143.1698, 378.1262
143.6519, 381.0791
144.1340, 384.5711
144.6161, 388.8141
145.0982, 393.5509
145.5803, 398.0733
146.0625, 401.9881
146.5446, 406.3460
147.0267, 411.3419
147.5088, 416.9684
147.9909, 423.1524
148.4730, 429.7100
148.9552, 436.7174
149.4373, 445.3338
149.9194, 457.3904
150.4015, 469.6172
150.8836, 480.7866
151.3657, 491.3604
151.8479, 502.7501
152.3300, 516.1813
152.8121, 532.1378
153.2942, 547.9301
153.7763, 562.6691
154.2584, 578.0540
154.7406, 595.1728
155.2227, 613.9459
155.7048, 633.6658
156.1869, 653.7041
156.6690, 674.2493
157.1511, 693.9813
157.6333, 712.6552
158.1154, 730.6848
158.5975, 748.1179
159.0796, 764.9510
159.5617, 781.7043
160.0438, 799.2052
160.5260, 817.4952
161.0081, 835.4414
161.4902, 852.2285
161.9723, 868.5369
162.4544, 885.7106
162.9365, 904.1286
163.4187, 923.1305
163.9008, 941.6213
164.3829, 959.5391
164.8650, 978.1411
165.3471, 998.4479
165.8292, 1020.212
166.3113, 1041.414
166.7935, 1060.730
167.2756, 1080.327
167.7577, 1102.385
168.2398, 1126.916
168.7219, 1151.239
169.2040, 1172.424
169.6862, 1189.957
170.1683, 1207.576
170.6504, 1227.446
171.1325, 1246.375
171.6146, 1263.484
172.0967, 1278.279
172.5789, 1289.572
173.0610, 1295.556
173.5431, 1295.436
174.0252, 1291.092
174.5073, 1283.986
174.9894, 1272.943
175.4716, 1257.485
175.9537, 1237.410
176.4358, 1212.079
176.9179, 1180.097
177.4000, 1137.955
177.8821, 1092.846
178.3643, 1043.950
178.8464, 992.9361
179.3285, 941.0923
179.8106, 888.7711
180.2927, 836.8919
180.7748, 788.4792
181.2570, 743.6184
181.7391, 702.0087
182.2212, 663.8818
182.7033, 629.0211
183.1854, 597.5346
183.6675, 569.5219
184.1497, 544.7281
184.6318, 522.6847
185.1139, 503.3631
185.5960, 485.8746
186.0781, 470.1126
186.5602, 456.0287
187.0423, 443.6454
187.5245, 433.4621
188.0066, 424.7612
188.4887, 415.4851
188.9708, 405.1808
189.4529, 395.2133
189.9350, 386.0832
190.4172, 377.8788
190.8993, 371.2866
191.3814, 367.6353
191.8635, 365.3292
192.3456, 361.9586
192.8277, 357.0016
193.3099, 351.5663
193.7920, 346.5843
194.2741, 342.0443
194.7562, 337.9920
195.2383, 334.8626
195.7204, 332.0742
196.2026, 329.1014
196.6847, 325.7003
197.1668, 322.3614
197.6489, 319.9322
198.1310, 318.7706
198.6131, 317.5172
199.0953, 315.4742
199.5774, 313.3069
200.0595, 311.6581
200.5416, 310.7857
201.0237, 310.3952
201.5058, 309.8643
201.9880, 309.1666
202.4701, 308.3507
202.9522, 307.0305
203.4343, 305.7785
203.9164, 305.2766
204.3985, 305.8480
204.8807, 307.0961
205.3628, 307.8279
205.8449, 307.6230
206.3270, 307.3887
206.8091, 307.2108
207.2912, 307.0645
207.7733, 306.8773
208.2555, 306.6093
208.7376, 306.3354
209.2197, 306.3379
209.7018, 306.9301
210.1839, 307.4641
210.6660, 307.8332
211.1482, 308.1147
211.6303, 308.3481
212.1124, 308.5285
212.5945, 308.7740
213.0766, 309.6241
213.5587, 311.8947
214.0409, 313.7613
214.5230, 314.7611
215.0051, 315.1224
215.4872, 315.2061
215.9693, 315.1393
216.4514, 315.0028
216.9336, 315.1219
217.4157, 315.6024
217.8978, 316.1295
218.3799, 316.6048
218.8620, 317.0489
219.3441, 317.5228
219.8263, 318.0579
220.3084, 318.6362
220.7905, 319.1828
221.2726, 319.5658
221.7547, 320.1341
222.2368, 321.3621
222.7190, 323.0235
223.2011, 324.1115
223.6832, 323.8971
224.1653, 323.1062
224.6474, 323.1548
225.1295, 324.2546
225.6117, 325.6555
226.0938, 327.0561
226.5759, 328.4211
227.0580, 329.4205
227.5401, 329.8878
228.0222, 329.9071
228.5043, 329.5220
228.9865, 328.5914
229.4686, 327.8352
229.9507, 328.0635
230.4328, 329.2660
230.9149, 330.1864
231.3970, 330.1645
231.8792, 329.8978
232.3613, 330.0860
232.8434, 330.8470
233.3255, 331.5246
233.8076, 331.2625
234.2897, 329.9394
234.7719, 329.1144
235.2540, 329.7039
235.7361, 330.5454
236.2182, 330.8403
236.7003, 330.4948
237.1824, 330.1118
237.6646, 330.4634
238.1467, 331.7423
238.6288, 332.6743
239.1109, 332.7671
239.5930, 332.6779
240.0751, 332.8127
240.5573, 333.1849
241.0394, 333.4388
241.5215, 333.0571
242.0036, 331.8063
242.4857, 330.8590
242.9678, 330.3239
243.4500, 330.0581
243.9321, 330.2265
244.4142, 330.7203
244.8963, 331.0754
245.3784, 330.6126
245.8605, 328.9113
246.3427, 327.9608
246.8248, 328.4469
247.3069, 329.0594
247.7890, 329.2816
248.2711, 329.0267
248.7532, 328.3898
249.2354, 327.3492
249.7175, 325.6356
250.1996, 324.7409
250.6817, 325.1852
251.1638, 325.8744
251.6459, 326.5058
252.1281, 326.9518
252.6102, 327.0723
253.0923, 326.6911
253.5744, 325.7051
254.0565, 324.8457
254.5386, 323.7608
255.0208, 323.0789
255.5029, 323.4110
255.9850, 324.4971
256.4671, 325.4237
256.9492, 325.3226
257.4313, 324.0343
257.9135, 323.6115
258.3956, 324.6428
258.8777, 325.7592
259.3598, 326.4729
259.8419, 326.7806
260.3240, 326.8106
260.8062, 326.5939
261.2883, 326.1375
261.7704, 326.2310
262.2525, 327.2441
262.7346, 328.3001
263.2167, 329.0716
263.6989, 329.6017
264.1810, 330.0584
264.6631, 330.5557
265.1452, 331.0761
265.6273, 331.4549
266.1094, 331.4117
266.5916, 331.5526
267.0737, 332.0721
267.5558, 332.9383
268.0379, 334.1502
268.5200, 335.8093
269.0021, 337.7057
269.4843, 338.9419
269.9664, 338.8751
270.4485, 339.0716
270.9306, 340.3313
271.4127, 342.2024
271.8948, 343.7233
272.3770, 344.4521
272.8591, 344.6132
273.3412, 344.6800
273.8233, 344.2349
274.3054, 344.4852
274.7875, 346.1711
275.2697, 348.7603
275.7518, 351.2504
276.2339, 353.2744
276.7160, 355.1102
277.1981, 357.3853
277.6802, 360.2918
278.1623, 362.7563
278.6444, 364.0677
279.1266, 364.8422
279.6087, 366.1298
280.0908, 368.2388
280.5729, 370.7555
281.0550, 373.1734
281.5371, 375.4955
282.0193, 377.8983
282.5014, 380.1866
282.9835, 382.6636
283.4656, 385.8488
283.9477, 389.8827
284.4298, 394.2970
284.9120, 398.6502
285.3941, 402.9559
285.8762, 407.1924
286.3583, 411.0314
286.8404, 414.9461
287.3225, 419.5118
287.8047, 424.8061
288.2868, 430.5808
288.7689, 436.8361
289.2510, 443.4517
289.7331, 450.1641
290.2152, 456.6954
290.6974, 463.4078
291.1795, 470.3452
291.6616, 477.4833
292.1437, 485.7586
292.6258, 496.3558
293.1079, 508.5425
293.5901, 520.4538
294.0722, 531.0931
294.5543, 542.3299
295.0364, 555.7728
295.5185, 571.4113
296.0006, 588.0204
296.4828, 604.7479
296.9649, 622.4901
297.4470, 642.2897
297.9291, 664.2194
298.4112, 688.1194
298.8933, 713.9327
299.3755, 741.5675
299.8576, 771.1866
300.3397, 803.0302
300.8218, 836.8713
301.3039, 871.9871
301.7860, 908.2014
302.2682, 945.9183
302.7503, 985.7413
303.2324, 1027.463
303.7145, 1071.000
304.1966, 1117.101
304.6787, 1164.182
305.1609, 1210.266
305.6430, 1255.680
306.1251, 1302.286
306.6072, 1351.303
307.0893, 1402.061
307.5714, 1453.128
308.0536, 1504.194
308.5357, 1555.816
309.0178, 1608.804
309.4999, 1662.612
309.9820, 1715.867
310.4641, 1767.058
310.9463, 1817.711
311.4284, 1870.114
311.9105, 1924.561
312.3926, 1978.181
312.8747, 2027.087
313.3568, 2073.990
313.8390, 2123.684
314.3211, 2179.111
314.8032, 2235.555
315.2853, 2289.005
315.7674, 2339.333
316.2495, 2387.317
316.7317, 2434.056
317.2138, 2478.131
317.6959, 2518.489
318.1780, 2556.371
318.6601, 2587.009
319.1422, 2607.144
319.6243, 2617.028
320.1064, 2617.869
320.5886, 2610.040
321.0707, 2592.161
321.5528, 2564.094
322.0349, 2525.735
322.5170, 2480.551
322.9991, 2430.415
323.4813, 2374.966
323.9634, 2311.481
324.4455, 2238.111
324.9276, 2160.250
325.4097, 2084.526
325.8918, 2010.025
326.3740, 1932.830
326.8561, 1850.164
327.3382, 1764.270
327.8203, 1677.271
328.3024, 1588.707
328.7845, 1501.273
329.2667, 1414.804
329.7488, 1331.114
330.2309, 1254.988
330.7130, 1188.361
331.1951, 1129.304
331.6772, 1076.391
332.1594, 1029.601
332.6415, 988.1491
333.1236, 951.4882
333.6057, 920.4961
334.0878, 895.1593
334.5699, 876.3514
335.0521, 861.8820
335.5342, 850.6878
336.0163, 842.7755
336.4984, 838.1561
336.9805, 837.6408
337.4626, 839.4660
337.9448, 840.9315
338.4269, 841.9852
338.9090, 843.1895
339.3911, 844.7180
339.8732, 846.5641
340.3553, 848.6777
340.8375, 851.0262
341.3196, 853.7230
341.8017, 856.9612
342.2838, 860.6934
342.7659, 864.7434
343.2480, 867.9603
343.7302, 872.1118
344.2123, 879.6016
344.6944, 890.5341
345.1765, 902.2208
345.6586, 912.6786
346.1407, 922.1811
346.6229, 932.6727
347.1050, 945.1049
347.5871, 957.5870
348.0692, 968.9844
348.5513, 979.4016
349.0334, 989.5756
349.5156, 999.7264
349.9977, 1009.852
350.4798, 1019.968
350.9619, 1030.704
351.4440, 1040.242
351.9261, 1048.688
352.4083, 1055.342
352.8904, 1059.179
353.3725, 1059.893
353.8546, 1057.606
354.3367, 1052.705
354.8188, 1045.888
355.3010, 1033.070
355.7831, 1012.182
356.2652, 986.2206
356.7473, 956.8148
357.2294, 924.4491
357.7115, 890.3855
358.1937, 854.9221
358.6758, 818.0163
359.1579, 784.7363
359.6400, 755.0240
360.1221, 728.4843
360.6042, 705.0899
361.0863, 684.7441
361.5685, 667.7430
362.0506, 654.3327
362.5327, 644.0254
363.0148, 634.9575
363.4969, 627.6258
363.9790, 620.8342
364.4612, 614.3177
364.9433, 608.2778
365.4254, 602.9935
365.9075, 598.5553
366.3896, 595.0206
366.8717, 592.5303
367.3539, 591.5482
367.8360, 590.6917
368.3181, 589.7773
368.8002, 589.1180
369.2823, 589.2514
369.7644, 589.9885
370.2466, 590.4153
370.7287, 589.6395
371.2108, 587.5751
371.6929, 585.7393
372.1750, 584.4870
372.6571, 583.0565
373.1393, 580.9742
373.6214, 578.5839
374.1035, 576.4516
374.5856, 574.9000
375.0677, 573.8066
375.5498, 572.7929
376.0320, 572.1334
376.5141, 571.1131
376.9962, 570.1523
377.4783, 568.5684
377.9604, 565.3127
378.4425, 560.3094
378.9247, 555.0456
379.4068, 551.6420
379.8889, 550.6966
380.3710, 549.5408
380.8531, 548.3201
381.3352, 546.7565
381.8174, 544.5267
382.2995, 541.8065
382.7816, 539.0858
383.2637, 536.7595
383.7458, 534.7592
384.2279, 532.6625
384.7101, 530.5369
385.1922, 528.1851
385.6743, 525.5516
386.1564, 522.6993
386.6385, 519.5524
387.1206, 516.0358
387.6028, 512.5842
388.0849, 510.1808
388.5670, 509.2654
389.0491, 507.2962
389.5312, 501.8915
390.0133, 496.5087
390.4955, 493.7098
390.9776, 493.5627
391.4597, 493.8725
391.9418, 493.0354
392.4239, 491.2018
392.9060, 489.2343
393.3882, 487.0829
393.8703, 484.9940
394.3524, 483.1406
394.8345, 481.4590
395.3166, 479.8335
395.7987, 478.3679
396.2809, 476.8275
396.7630, 474.7956
397.2451, 472.2162
397.7272, 469.7643
398.2093, 467.6940
398.6914, 465.9619
399.1736, 464.4289
399.6557, 463.0512
400.1378, 461.9582
400.6199, 461.4604
401.1020, 461.3094
401.5841, 460.8353
402.0662, 459.8725
402.5483, 458.5904
403.0305, 456.9689
403.5126, 455.0334
403.9947, 453.6110
404.4768, 452.9071
404.9589, 452.7372
405.4410, 453.2119
405.9232, 454.2267
406.4053, 455.0022
406.8874, 455.0008
407.3695, 454.3409
407.8516, 453.6918
408.3337, 453.0822
408.8159, 452.4516
409.2980, 451.8171
409.7801, 451.1400
410.2622, 450.2745
410.7443, 449.1539
411.2264, 448.0663
411.7086, 447.4531
412.1907, 447.3995
412.6728, 447.7238
413.1549, 449.0629
413.6370, 450.2649
414.1191, 450.4717
414.6013, 449.7513
415.0834, 448.6837
415.5655, 447.6641
416.0476, 446.7144
416.5297, 446.3016
417.0118, 447.0854
417.4940, 447.6646
417.9761, 447.7354
418.4582, 447.4985
418.9403, 447.1439
419.4224, 446.7546
419.9045, 446.4491
420.3867, 446.4815
420.8688, 447.0567
421.3509, 447.4252
421.8330, 447.3929
422.3151, 447.2997
422.7972, 447.3619
423.2794, 447.5426
423.7615, 447.6172
424.2436, 447.2762
424.7257, 446.6586
425.2078, 446.7829
425.6899, 448.1913
426.1721, 449.3931
426.6542, 449.8329
427.1363, 449.8091
427.6184, 449.5379
428.1005, 448.9985
428.5826, 448.6761
429.0648, 449.3432
429.5469, 451.0191
430.0290, 452.4830
430.5111, 453.6731
430.9932, 454.2904
431.4753, 453.6868
431.9575, 452.0850
432.4396, 451.2999
432.9217, 452.9349
433.4038, 455.6836
433.8859, 457.4171
434.3680, 458.0035
434.8502, 457.7725
435.3323, 456.3324
435.8144, 454.3471
436.2965, 453.6485
436.7786, 455.0217
437.2607, 456.5855
437.7429, 457.3120
438.2250, 457.4792
438.7071, 457.7754
439.1892, 458.4467
439.6713, 459.1035
440.1534, 459.1254
440.6356, 458.3026
441.1177, 457.8022
441.5998, 457.5241
442.0819, 457.7141
442.5640, 458.9751
443.0461, 460.9933
443.5282, 462.5692
444.0103, 462.8375
444.4925, 462.0537
444.9746, 461.6347
445.4567, 462.2805
445.9388, 462.4243
446.4209, 460.9587
446.9030, 459.4013
447.3852, 459.6679
447.8673, 462.0733
448.3494, 464.8690
448.8315, 465.7068
449.3136, 464.0750
449.7957, 463.0455
450.2779, 462.8003
450.7600, 462.9915
451.2421, 463.6562
451.7242, 464.6619
452.2063, 465.8992
452.6884, 467.4024
453.1706, 468.8299
453.6527, 469.2711
454.1348, 468.4539
454.6169, 467.5085
455.0990, 466.3948
455.5811, 465.4693
456.0633, 464.9738
456.5454, 464.9398
457.0275, 465.2850
457.5096, 466.1084
457.9917, 467.2813
458.4738, 468.3785
458.9560, 469.4061
459.4381, 470.2794
459.9202, 471.0139
460.4023, 471.5375
460.8844, 471.6362
461.3665, 470.9968
461.8487, 470.3145
462.3308, 470.0060
462.8129, 470.0652
463.2950, 470.5637
463.7771, 471.6362
464.2592, 472.8587
464.7414, 473.6540
465.2235, 474.0081
465.7056, 474.0962
466.1877, 473.8461
466.6698, 473.4059
467.1519, 472.6847
467.6341, 471.8216
468.1162, 471.3632
468.5983, 471.7127
469.0804, 472.6694
469.5625, 473.2884
470.0446, 473.0236
470.5268, 473.1237
471.0089, 473.8562
471.4910, 474.8968
471.9731, 476.1162
472.4552, 477.3940
472.9373, 478.3457
473.4195, 478.3338
473.9016, 477.1842
474.3837, 477.4447
474.8658, 481.6671
475.3479, 484.4429
475.8300, 482.9592
476.3122, 479.5038
476.7943, 477.3371
477.2764, 477.8439
477.7585, 479.8667
478.2406, 481.8205
478.7227, 483.7030
479.2049, 485.5579
479.6870, 488.4359
480.1691, 490.1090
480.6512, 488.3487
481.1333, 483.8228
481.6154, 479.7109
482.0976, 477.4210
482.5797, 476.5025
483.0618, 476.6122
483.5439, 477.7812
484.0260, 478.6469
484.5081, 478.3965
484.9902, 477.5294
485.4724, 477.1069
485.9545, 477.1669
486.4366, 477.5013
486.9187, 478.2047
487.4008, 479.0695
487.8829, 479.7134
488.3651, 480.1073
488.8472, 480.7282
489.3293, 482.0471
489.8114, 484.0627
490.2935, 485.7859
490.7756, 487.5690
491.2578, 488.7094
491.7399, 488.4454
492.2220, 487.6278
492.7041, 487.4403
493.1862, 488.2602
493.6683, 489.4601
494.1505, 490.0128
494.6326, 489.5160
495.1147, 489.9670
495.5968, 492.6535
496.0789, 495.0387
496.5610, 495.7185
497.0432, 495.4693
497.5253, 495.9104
498.0074, 497.9582
498.4895, 500.8214
498.9716, 503.1102
499.4537, 504.7950
499.9359, 506.0861
500.4180, 506.8120
500.9001, 507.3528
501.3822, 507.6444
501.8643, 507.8281
502.3464, 509.0425
502.8286, 512.9272
503.3107, 517.6750
503.7928, 520.2894
504.2749, 520.6731
504.7570, 521.1619
505.2391, 523.0578
505.7213, 525.8365
506.2034, 528.0104
506.6855, 529.1954
507.1676, 530.7402
507.6497, 533.2703
508.1318, 536.2010
508.6140, 539.0159
509.0961, 541.5775
509.5782, 543.6733
510.0603, 544.9977
510.5424, 545.6174
511.0245, 546.9670
511.5067, 549.8290
511.9888, 552.4734
512.4709, 554.7111
512.9530, 556.5499
513.4351, 557.6783
513.9172, 558.1625
514.3994, 558.9876
514.8815, 561.5819
515.3636, 566.1385
515.8457, 570.0715
516.3278, 573.6292
516.8099, 576.1666
517.2921, 577.0397
517.7742, 576.9471
518.2563, 576.9157
518.7384, 577.2662
519.2205, 577.8203
519.7026, 578.3484
520.1848, 578.8807
520.6669, 579.6544
521.1490, 580.7031
521.6311, 582.0330
522.1132, 584.1381
522.5953, 586.7537
523.0775, 588.0938
523.5596, 586.7564
524.0417, 585.0234
524.5238, 584.5184
525.0059, 584.9323
525.4880, 585.2929
525.9702, 585.2020
526.4523, 584.9224
526.9344, 584.9809
527.4165, 585.9229
527.8986, 585.6778
528.3807, 583.0003
528.8629, 580.3973
529.3450, 579.6458
529.8271, 580.0851
530.3092, 579.9161
530.7913, 578.0809
531.2734, 575.2932
531.7556, 573.3420
532.2377, 572.6295
532.7198, 571.6298
533.2019, 570.1996
533.6840, 568.3552
534.1661, 565.3508
534.6483, 561.7119
535.1304, 559.5038
535.6125, 561.2553
536.0946, 564.2990
536.5767, 563.3434
537.0588, 558.1971
537.5410, 552.9607
538.0231, 548.9092
538.5052, 545.9448
538.9873, 544.1634
539.4694, 543.7485
539.9515, 542.8871
540.4337, 540.8442
540.9158, 538.2711
541.3979, 535.6131
541.8800, 532.9942
542.3621, 530.7391
542.8442, 529.1485
543.3264, 527.9002
543.8085, 525.8793
544.2906, 522.1739
544.7726, 518.9646
545.2548, 516.9501
545.7369, 514.9249
546.2190, 511.7108
546.7011, 507.5553
547.1832, 503.7389
547.6653, 501.3595
548.1475, 500.0047
548.6296, 497.9601
549.1117, 494.7544
549.5938, 492.1099
550.0759, 491.5136
550.5580, 491.0156
551.0402, 488.9222
551.5223, 485.1802
552.0044, 481.4028
552.4865, 478.5801
552.9686, 476.2940
553.4507, 473.6930
553.9329, 470.7396
554.4150, 468.2228
554.8971, 466.8081
555.3792, 465.9001
555.8613, 463.8626
556.3434, 460.0925
556.8256, 456.9256
557.3077, 455.4477
557.7898, 454.3022
558.2719, 452.1041
558.7540, 448.9510
559.2361, 445.9930
559.7183, 444.0460
560.2004, 442.8624
560.6825, 441.3646
561.1646, 439.6561
561.6467, 437.4305
562.1288, 433.7841
562.6110, 430.3598
563.0931, 428.7312
563.5752, 428.6154
564.0573, 428.1125
564.5394, 425.5523
565.0215, 421.8535
565.5037, 419.5536
565.9858, 418.8940
566.4679, 417.9760
566.9500, 415.8477
567.4321, 413.3326
567.9142, 411.5570
568.3964, 410.5682
568.8785, 409.6014
569.3606, 408.6773
569.8427, 407.4653
570.3248, 405.3042
570.8069, 402.4234
571.2891, 399.9200
571.7712, 398.4329
572.2533, 397.6409
572.7354, 396.8195
573.2175, 396.5817
573.6996, 395.1328
574.1818, 391.2661
574.6639, 387.3255
575.1460, 384.7186
575.6281, 383.2600
576.1102, 382.0431
576.5923, 380.4643
577.0745, 379.0480
577.5566, 379.6457
578.0387, 383.1357
578.5208, 383.6950
579.0029, 377.9391
579.4850, 371.2473
579.9672, 367.8072
580.4493, 367.0267
580.9314, 366.2083
581.4135, 364.1526
581.8956, 361.8217
582.3777, 360.4517
582.8599, 359.6738
583.3420, 357.7408
583.8241, 353.8165
584.3062, 349.6978
584.7883, 347.9355
585.2704, 349.1788
585.7526, 349.6677
586.2347, 349.1770
586.7168, 348.2346
587.1989, 346.9245
587.6810, 345.3580
588.1631, 343.6195
