##NAMES=Stolzite
##RRUFFID=R070552
##IDEAL CHEMISTRY=Pb^2+^W^6+^O_4_
##LOCALITY=Kangaloolah, Tuena, Georgiana County, New South Wales, Australia
##OWNER=RRUFF
##SOURCE=James Shigley
##DESCRIPTION=Colorless to light tan dipyramidal crystals
##STATUS=The identification of this mineral has been confirmed by single-crystal X-ray diffraction.
##URL=rruff.info/R070552
90.06244, 0.0000000E+00
90.54456, 0.0000000E+00
91.02667, 0.0000000E+00
91.50879, 16.44521
91.99091, 16.28754
92.47302, 19.11183
92.95514, 23.78244
93.43725, 26.61749
93.91936, 26.71772
94.40148, 26.06804
94.88360, 25.18447
95.36572, 24.28764
95.84783, 23.78238
96.32995, 24.10103
96.81207, 25.24025
97.29418, 26.13608
97.77630, 26.58652
98.25842, 26.94021
98.74053, 27.42286
99.22265, 27.95005
99.70477, 28.23242
100.1869, 27.87688
100.6690, 26.62068
101.1511, 25.77393
101.6332, 25.30986
102.1153, 25.21009
102.5975, 25.32561
103.0796, 25.71188
103.5617, 26.70037
104.0438, 28.99184
104.5259, 34.54633
105.0080, 37.38926
105.4902, 35.75315
105.9723, 32.82213
106.4544, 30.63977
106.9365, 29.91432
107.4186, 30.65170
107.9007, 32.90201
108.3829, 37.93736
108.8650, 42.99981
109.3471, 49.26179
109.8292, 55.16183
110.3113, 58.39088
110.7934, 57.83767
111.2756, 54.97639
111.7577, 53.97816
112.2398, 56.49138
112.7219, 58.40610
113.2040, 57.65443
113.6861, 55.68017
114.1683, 55.52106
114.6504, 58.90312
115.1325, 64.93235
115.6146, 70.04849
116.0967, 72.06744
116.5788, 75.71690
117.0610, 84.91962
117.5431, 98.31160
118.0252, 110.1434
118.5073, 116.9222
118.9894, 119.3461
119.4715, 121.5463
119.9537, 120.5478
120.4358, 121.7967
120.9179, 131.3223
121.4000, 149.1855
121.8821, 166.4775
122.3642, 175.7654
122.8464, 180.8148
123.3285, 189.8638
123.8106, 206.8943
124.2927, 227.0958
124.7748, 244.3084
125.2569, 257.7097
125.7391, 271.3146
126.2212, 286.4169
126.7033, 303.5579
127.1854, 324.3409
127.6675, 352.5781
128.1496, 384.0860
128.6317, 409.3287
129.1139, 424.6214
129.5960, 441.4120
130.0781, 466.4286
130.5602, 497.3561
131.0423, 530.0105
131.5244, 563.1615
132.0066, 596.5207
132.4887, 629.1449
132.9708, 661.0548
133.4529, 692.0450
133.9350, 720.4955
134.4171, 747.9379
134.8993, 777.6551
135.3814, 813.8103
135.8635, 855.6932
136.3456, 892.5999
136.8277, 918.0280
137.3098, 944.9651
137.7920, 978.1337
138.2741, 1017.222
138.7562, 1059.983
139.2383, 1106.956
139.7204, 1158.848
140.2025, 1203.652
140.6847, 1225.593
141.1668, 1252.988
141.6489, 1296.903
142.1310, 1356.701
142.6131, 1425.298
143.0952, 1497.827
143.5774, 1576.486
144.0595, 1649.463
144.5416, 1716.078
145.0237, 1777.923
145.5058, 1830.320
145.9879, 1876.071
146.4701, 1926.770
146.9522, 1998.205
147.4343, 2102.571
147.9164, 2190.264
148.3985, 2253.903
148.8806, 2310.376
149.3627, 2368.983
149.8449, 2431.099
150.3270, 2491.986
150.8091, 2545.424
151.2912, 2589.333
151.7733, 2629.645
152.2554, 2668.873
152.7376, 2703.646
153.2197, 2729.855
153.7018, 2747.565
154.1839, 2762.290
154.6660, 2782.256
155.1481, 2812.326
155.6303, 2837.691
156.1124, 2860.362
156.5945, 2877.703
157.0766, 2882.441
157.5587, 2874.356
158.0408, 2866.757
158.5230, 2880.844
159.0051, 2935.736
159.4872, 2980.114
159.9693, 3003.421
160.4514, 3008.504
160.9335, 3010.782
161.4157, 3021.732
161.8978, 3037.435
162.3799, 3051.617
162.8620, 3060.731
163.3441, 3075.879
163.8262, 3104.730
164.3084, 3136.522
164.7905, 3161.974
165.2726, 3178.582
165.7547, 3186.023
166.2368, 3181.581
166.7189, 3155.907
167.2011, 3140.834
167.6832, 3146.871
168.1653, 3161.989
168.6474, 3174.194
169.1295, 3180.435
169.6116, 3179.314
170.0938, 3165.491
170.5759, 3130.856
171.0580, 3106.233
171.5401, 3100.675
172.0222, 3105.976
172.5043, 3110.750
172.9865, 3111.172
173.4686, 3112.247
173.9507, 3125.191
174.4328, 3156.437
174.9149, 3177.604
175.3970, 3173.890
175.8792, 3158.843
176.3613, 3155.222
176.8434, 3171.627
177.3255, 3193.417
177.8076, 3194.260
178.2897, 3171.364
178.7719, 3146.483
179.2540, 3123.679
179.7361, 3102.385
180.2182, 3082.073
180.7003, 3062.723
181.1824, 3043.883
181.6646, 3024.170
182.1467, 3002.385
182.6288, 2984.932
183.1109, 2976.143
183.5930, 2972.387
184.0751, 2967.690
184.5573, 2960.606
185.0394, 2951.856
185.5215, 2939.787
186.0036, 2922.359
186.4857, 2913.979
186.9678, 2923.894
187.4500, 2944.812
187.9321, 2964.891
188.4142, 2982.457
188.8963, 2995.348
189.3784, 2995.075
189.8605, 2979.951
190.3427, 2976.785
190.8248, 3007.260
191.3069, 3052.751
191.7890, 3079.360
192.2711, 3077.744
192.7532, 3061.010
193.2354, 3041.090
193.7175, 3017.783
194.1996, 2999.837
194.6817, 2992.730
195.1638, 2992.325
195.6459, 2991.730
196.1281, 2989.855
196.6102, 2987.044
197.0923, 2981.515
197.5744, 2973.417
198.0565, 2971.137
198.5386, 2982.773
199.0207, 3000.497
199.5029, 3009.667
199.9850, 3006.003
200.4671, 3000.560
200.9492, 3008.094
201.4313, 3026.357
201.9134, 3040.946
202.3956, 3042.151
202.8777, 3038.953
203.3598, 3047.212
203.8419, 3071.271
204.3240, 3097.154
204.8061, 3108.651
205.2883, 3108.705
205.7704, 3112.011
206.2525, 3122.949
206.7346, 3138.876
207.2167, 3159.609
207.6988, 3186.889
208.1810, 3207.570
208.6631, 3200.158
209.1452, 3172.231
209.6273, 3160.151
210.1094, 3187.648
210.5915, 3227.122
211.0737, 3242.112
211.5558, 3227.776
212.0379, 3211.083
212.5200, 3215.672
213.0021, 3236.279
213.4842, 3251.489
213.9664, 3253.046
214.4485, 3250.650
214.9306, 3255.039
215.4127, 3266.877
215.8948, 3279.096
216.3769, 3289.694
216.8591, 3296.567
217.3412, 3293.559
217.8233, 3267.897
218.3054, 3240.579
218.7875, 3232.585
219.2696, 3243.417
219.7518, 3253.929
220.2339, 3253.161
220.7160, 3242.494
221.1981, 3229.507
221.6802, 3206.231
222.1623, 3187.918
222.6445, 3191.578
223.1266, 3213.877
223.6087, 3229.339
224.0908, 3221.822
224.5729, 3198.710
225.0550, 3184.104
225.5371, 3180.594
226.0193, 3181.789
226.5014, 3186.852
226.9835, 3194.462
227.4656, 3198.758
227.9477, 3196.128
228.4298, 3189.419
228.9120, 3186.116
229.3941, 3188.849
229.8762, 3189.746
230.3583, 3183.870
230.8404, 3173.357
231.3225, 3162.625
231.8047, 3151.780
232.2868, 3144.159
232.7689, 3148.180
233.2510, 3166.824
233.7331, 3185.329
234.2152, 3203.050
234.6974, 3216.974
235.1795, 3218.682
235.6616, 3203.521
236.1437, 3183.304
236.6258, 3177.697
237.1079, 3187.917
237.5901, 3203.106
238.0722, 3225.509
238.5543, 3250.179
239.0364, 3269.688
239.5185, 3282.183
240.0006, 3293.744
240.4828, 3313.515
240.9649, 3344.688
241.4470, 3368.148
241.9291, 3376.292
242.4112, 3379.777
242.8933, 3388.163
243.3755, 3402.903
243.8576, 3419.841
244.3397, 3434.200
244.8218, 3444.838
245.3039, 3463.560
245.7860, 3495.385
246.2682, 3531.192
246.7503, 3565.005
247.2324, 3596.680
247.7145, 3628.835
248.1966, 3663.445
248.6787, 3700.851
249.1608, 3737.373
249.6430, 3771.456
250.1251, 3806.423
250.6072, 3844.841
251.0893, 3885.585
251.5714, 3924.529
252.0535, 3957.915
252.5357, 3987.439
253.0178, 4027.237
253.4999, 4085.351
253.9820, 4143.127
254.4641, 4196.580
254.9462, 4246.273
255.4284, 4292.709
255.9105, 4335.840
256.3926, 4377.316
256.8747, 4423.069
257.3568, 4471.978
257.8390, 4526.927
258.3211, 4594.189
258.8032, 4665.246
259.2853, 4729.444
259.7674, 4783.151
260.2495, 4832.958
260.7316, 4891.342
261.2137, 4965.226
261.6959, 5037.699
262.1780, 5117.078
262.6601, 5189.796
263.1422, 5240.449
263.6243, 5268.313
264.1064, 5289.606
264.5886, 5325.971
265.0707, 5384.005
265.5528, 5437.372
266.0349, 5476.001
266.5170, 5519.130
266.9991, 5584.738
267.4813, 5667.340
267.9634, 5743.162
268.4455, 5786.874
268.9276, 5795.348
269.4097, 5818.882
269.8918, 5882.945
270.3740, 5938.726
270.8561, 5965.448
271.3382, 5972.878
271.8203, 5983.302
272.3024, 6012.885
272.7845, 6057.094
273.2667, 6091.173
273.7488, 6113.476
274.2309, 6126.225
274.7130, 6123.851
275.1951, 6115.421
275.6772, 6112.284
276.1594, 6119.835
276.6415, 6134.418
277.1236, 6150.635
277.6057, 6172.625
278.0878, 6184.750
278.5699, 6177.107
279.0521, 6161.396
279.5342, 6144.938
280.0163, 6129.248
280.4984, 6117.718
280.9805, 6117.872
281.4626, 6131.192
281.9448, 6136.337
282.4269, 6124.084
282.9090, 6105.696
283.3911, 6086.949
283.8732, 6068.552
284.3553, 6055.809
284.8375, 6058.325
285.3196, 6071.488
285.8017, 6073.118
286.2838, 6059.340
286.7659, 6034.808
287.2480, 5993.577
287.7302, 5941.881
288.2123, 5907.545
288.6944, 5917.534
289.1765, 5946.499
289.6586, 5947.844
290.1407, 5914.604
290.6229, 5881.597
291.1050, 5879.781
291.5871, 5897.377
292.0692, 5900.150
292.5513, 5863.709
293.0334, 5825.888
293.5156, 5825.444
293.9977, 5856.637
294.4798, 5876.038
294.9619, 5856.930
295.4440, 5813.219
295.9261, 5786.635
296.4083, 5784.865
296.8904, 5786.164
297.3725, 5786.393
297.8546, 5783.248
298.3367, 5769.100
298.8188, 5739.536
299.3010, 5706.210
299.7831, 5692.527
300.2652, 5710.226
300.7473, 5716.885
301.2294, 5697.463
301.7115, 5671.182
302.1937, 5659.327
302.6758, 5664.662
303.1579, 5670.707
303.6400, 5658.023
304.1221, 5620.578
304.6042, 5596.815
305.0864, 5591.188
305.5685, 5593.211
306.0506, 5599.354
306.5327, 5608.699
307.0148, 5620.085
307.4969, 5632.162
307.9791, 5645.639
308.4612, 5669.387
308.9433, 5714.038
309.4254, 5757.653
309.9075, 5797.566
310.3896, 5834.100
310.8717, 5866.227
311.3539, 5893.112
311.8360, 5920.454
312.3181, 5962.978
312.8002, 6032.388
313.2823, 6093.643
313.7644, 6140.518
314.2466, 6181.022
314.7287, 6219.100
315.2108, 6256.314
315.6929, 6294.510
316.1750, 6332.880
316.6571, 6370.026
317.1393, 6422.572
317.6214, 6504.176
318.1035, 6589.349
318.5856, 6663.966
319.0677, 6730.321
319.5498, 6798.859
320.0320, 6875.109
320.5141, 6958.196
320.9962, 7045.758
321.4783, 7139.340
321.9604, 7233.693
322.4425, 7330.274
322.9247, 7425.130
323.4068, 7512.291
323.8889, 7587.737
324.3710, 7658.505
324.8531, 7742.793
325.3352, 7838.459
325.8174, 7902.019
326.2995, 7922.040
326.7816, 7893.174
327.2637, 7816.535
327.7458, 7691.032
328.2279, 7528.168
328.7101, 7321.204
329.1922, 7082.273
329.6743, 6826.370
330.1564, 6554.272
330.6385, 6281.182
331.1206, 6024.374
331.6028, 5781.841
332.0849, 5560.797
332.5670, 5350.826
333.0491, 5169.882
333.5312, 5043.368
334.0133, 4964.128
334.4955, 4889.212
334.9776, 4785.166
335.4597, 4656.436
335.9418, 4560.470
336.4239, 4511.671
336.9060, 4473.137
337.3882, 4445.964
337.8703, 4420.711
338.3524, 4380.636
338.8345, 4318.683
339.3166, 4249.396
339.7987, 4206.951
340.2809, 4215.458
340.7630, 4207.621
341.2451, 4167.548
341.7272, 4123.075
342.2093, 4093.559
342.6914, 4080.813
343.1736, 4074.594
343.6557, 4062.248
344.1378, 4042.468
344.6199, 4041.533
345.1020, 4082.669
345.5841, 4116.796
346.0663, 4121.887
346.5484, 4107.544
347.0305, 4092.110
347.5126, 4084.136
347.9947, 4081.753
348.4768, 4080.872
348.9590, 4080.950
349.4411, 4084.985
349.9232, 4099.024
350.4053, 4115.267
350.8874, 4126.601
351.3695, 4132.223
351.8517, 4132.283
352.3338, 4118.525
352.8159, 4097.310
353.2980, 4098.583
353.7801, 4137.013
354.2622, 4181.881
354.7444, 4193.734
355.2265, 4176.476
355.7086, 4163.961
356.1907, 4173.952
356.6728, 4185.860
357.1549, 4177.643
357.6371, 4149.235
358.1192, 4114.654
358.6013, 4081.937
359.0834, 4051.476
359.5655, 4025.595
360.0476, 4005.362
360.5297, 3987.667
361.0118, 3975.726
361.4940, 3964.721
361.9761, 3944.810
362.4582, 3912.406
362.9403, 3877.740
363.4224, 3859.613
363.9045, 3870.322
364.3867, 3873.216
364.8688, 3864.644
365.3509, 3852.353
365.8330, 3839.259
366.3151, 3826.613
366.7972, 3815.514
367.2794, 3806.804
367.7615, 3800.480
368.2436, 3797.721
368.7257, 3805.605
369.2078, 3806.830
369.6899, 3790.694
370.1721, 3767.591
370.6542, 3751.480
371.1363, 3748.492
371.6184, 3750.914
372.1005, 3745.716
372.5826, 3731.593
373.0648, 3727.519
373.5469, 3751.482
374.0290, 3774.592
374.5111, 3766.354
374.9932, 3726.734
375.4753, 3691.116
375.9575, 3679.027
376.4396, 3682.033
376.9217, 3686.389
377.4038, 3691.285
377.8859, 3693.066
378.3680, 3688.754
378.8502, 3678.423
379.3323, 3665.909
379.8144, 3645.345
380.2965, 3628.492
380.7786, 3625.641
381.2607, 3630.924
381.7429, 3629.726
382.2250, 3615.271
382.7071, 3595.962
383.1892, 3588.978
383.6713, 3610.356
384.1534, 3615.288
384.6356, 3586.082
385.1177, 3553.661
385.5998, 3541.824
386.0819, 3550.586
386.5640, 3565.030
387.0461, 3573.412
387.5283, 3575.639
388.0104, 3568.874
388.4925, 3542.554
388.9746, 3520.107
389.4567, 3509.486
389.9388, 3504.720
390.4210, 3497.816
390.9031, 3485.526
391.3852, 3471.806
391.8673, 3460.479
392.3494, 3450.941
392.8315, 3450.926
393.3137, 3472.282
393.7958, 3493.352
394.2779, 3495.453
394.7600, 3480.384
395.2421, 3464.890
395.7242, 3460.233
396.2064, 3459.183
396.6885, 3448.333
397.1706, 3426.574
397.6527, 3404.114
398.1348, 3384.901
398.6169, 3370.869
399.0991, 3366.859
399.5812, 3378.029
400.0633, 3391.982
400.5454, 3410.052
401.0275, 3426.262
401.5096, 3429.084
401.9918, 3414.962
402.4739, 3393.271
402.9560, 3376.442
403.4381, 3366.150
403.9202, 3355.756
404.4023, 3346.254
404.8845, 3335.631
405.3666, 3321.019
405.8487, 3304.298
406.3308, 3290.119
406.8129, 3281.582
407.2950, 3277.263
407.7772, 3271.579
408.2592, 3260.992
408.7414, 3256.464
409.2235, 3269.934
409.7056, 3283.533
410.1877, 3280.650
410.6698, 3259.028
411.1519, 3234.699
411.6341, 3220.179
412.1162, 3214.538
412.5983, 3214.895
413.0804, 3225.487
413.5625, 3231.825
414.0446, 3217.468
414.5268, 3190.652
415.0089, 3170.334
415.4910, 3161.773
415.9731, 3158.922
416.4552, 3159.723
416.9373, 3162.856
417.4195, 3164.015
417.9016, 3161.600
418.3837, 3156.478
418.8658, 3150.399
419.3479, 3144.892
419.8300, 3134.106
420.3122, 3109.880
420.7943, 3086.521
421.2764, 3075.199
421.7585, 3075.008
422.2406, 3078.861
422.7227, 3082.349
423.2049, 3084.768
423.6870, 3080.978
424.1691, 3065.264
424.6512, 3051.636
425.1333, 3043.042
425.6154, 3036.996
426.0976, 3029.372
426.5797, 3019.633
427.0618, 3014.820
427.5439, 3028.965
428.0260, 3059.671
428.5081, 3069.613
428.9903, 3045.811
429.4724, 3018.590
429.9545, 3009.372
430.4366, 3012.002
430.9187, 3013.304
431.4008, 3010.552
431.8830, 3004.500
432.3651, 2992.938
432.8472, 2977.819
433.3293, 2967.369
433.8114, 2964.642
434.2935, 2967.483
434.7757, 2972.514
435.2578, 2979.372
435.7399, 2989.779
436.2220, 3010.627
436.7041, 3029.719
437.1862, 3039.243
437.6684, 3038.998
438.1505, 3030.204
438.6326, 3012.093
439.1147, 2988.870
439.5968, 2980.892
440.0789, 3002.344
440.5611, 3016.607
441.0432, 3014.561
441.5253, 3006.815
442.0074, 3003.308
442.4895, 3005.149
442.9716, 3003.986
443.4538, 2987.404
443.9359, 2959.251
444.4180, 2944.739
444.9001, 2949.025
445.3822, 2957.060
445.8643, 2962.048
446.3465, 2964.039
446.8286, 2962.604
447.3107, 2957.060
447.7928, 2948.972
448.2749, 2938.789
448.7570, 2926.864
449.2392, 2913.958
449.7213, 2900.093
450.2034, 2885.884
450.6855, 2871.391
451.1676, 2855.763
451.6497, 2845.305
452.1319, 2849.832
452.6140, 2849.412
453.0961, 2827.692
453.5782, 2794.726
454.0603, 2771.872
454.5424, 2770.168
455.0246, 2779.756
455.5067, 2778.498
455.9888, 2761.816
456.4709, 2747.393
456.9530, 2741.252
457.4351, 2734.405
457.9172, 2722.180
458.3994, 2704.777
458.8815, 2684.458
459.3636, 2656.436
459.8457, 2629.153
460.3278, 2624.036
460.8099, 2643.019
461.2921, 2650.458
461.7742, 2624.056
462.2563, 2582.062
462.7384, 2560.826
463.2205, 2567.948
463.7026, 2569.664
464.1848, 2549.723
464.6669, 2523.887
465.1490, 2510.592
465.6311, 2510.316
466.1132, 2509.296
466.5953, 2496.829
467.0775, 2473.982
467.5596, 2449.438
468.0417, 2416.019
468.5238, 2390.159
469.0059, 2377.709
469.4880, 2371.273
469.9702, 2364.634
470.4523, 2356.160
470.9344, 2346.724
471.4165, 2336.972
471.8986, 2326.938
472.3807, 2316.489
472.8629, 2305.153
473.3450, 2294.464
473.8271, 2287.469
474.3092, 2281.245
474.7913, 2270.855
475.2734, 2254.051
475.7556, 2235.799
476.2377, 2217.958
476.7198, 2201.183
477.2019, 2186.958
477.6840, 2175.628
478.1661, 2166.478
478.6483, 2158.873
479.1304, 2152.907
479.6125, 2147.744
480.0946, 2148.586
480.5767, 2144.358
481.0588, 2129.462
481.5410, 2107.864
482.0231, 2082.962
482.5052, 2056.334
482.9873, 2033.316
483.4694, 2024.879
483.9515, 2034.616
484.4337, 2030.841
484.9158, 1999.585
485.3979, 1970.457
485.8800, 1960.880
486.3621, 1964.168
486.8442, 1966.430
487.3264, 1964.761
487.8085, 1957.959
488.2906, 1939.307
488.7727, 1913.200
489.2548, 1900.007
489.7369, 1908.069
490.2191, 1920.558
490.7012, 1916.499
491.1833, 1891.758
491.6654, 1871.559
492.1475, 1857.892
492.6296, 1846.599
493.1118, 1834.386
493.5939, 1823.292
494.0760, 1818.620
494.5581, 1822.773
495.0402, 1830.184
495.5223, 1831.365
496.0045, 1825.704
496.4866, 1816.247
496.9687, 1799.415
497.4508, 1782.556
497.9329, 1770.520
498.4150, 1761.275
498.8972, 1748.958
499.3793, 1727.042
499.8614, 1706.740
500.3435, 1705.391
500.8256, 1719.232
501.3077, 1725.590
501.7899, 1717.013
502.2720, 1700.348
502.7541, 1682.200
503.2362, 1661.265
503.7183, 1648.334
504.2004, 1649.659
504.6826, 1653.199
505.1647, 1655.714
505.6468, 1655.098
506.1289, 1647.077
506.6110, 1629.721
507.0931, 1608.515
507.5752, 1592.907
508.0573, 1583.531
508.5395, 1577.629
509.0216, 1579.198
509.5037, 1579.970
509.9858, 1574.435
510.4679, 1565.132
510.9500, 1558.949
511.4322, 1562.459
511.9143, 1564.014
512.3964, 1546.657
512.8785, 1514.946
513.3607, 1491.263
513.8428, 1482.886
514.3249, 1480.107
514.8070, 1471.634
515.2891, 1456.163
515.7712, 1444.419
516.2534, 1438.238
516.7355, 1433.686
517.2176, 1429.736
517.6997, 1426.036
518.1818, 1422.417
518.6639, 1418.794
519.1461, 1414.626
519.6282, 1408.004
520.1103, 1397.921
520.5924, 1393.200
521.0745, 1398.618
521.5566, 1403.352
522.0388, 1402.923
522.5209, 1398.083
523.0030, 1389.864
523.4851, 1377.387
523.9672, 1364.089
524.4493, 1351.064
524.9315, 1339.318
525.4136, 1332.125
525.8957, 1330.391
526.3778, 1330.374
526.8599, 1329.085
527.3420, 1326.551
527.8242, 1320.445
528.3063, 1305.607
528.7884, 1293.919
529.2705, 1293.784
529.7526, 1295.592
530.2347, 1285.111
530.7169, 1260.496
531.1990, 1236.978
531.6810, 1232.740
532.1631, 1245.891
532.6453, 1255.180
533.1274, 1260.971
533.6095, 1261.882
534.0916, 1255.008
534.5737, 1243.554
535.0558, 1231.139
535.5380, 1216.863
536.0201, 1205.804
536.5022, 1203.212
536.9843, 1203.660
537.4664, 1199.846
537.9485, 1191.329
538.4307, 1182.015
538.9128, 1174.668
539.3949, 1168.824
539.8770, 1162.297
540.3591, 1151.708
540.8412, 1145.871
541.3234, 1150.950
541.8055, 1156.235
542.2876, 1152.369
542.7697, 1140.706
543.2518, 1130.530
543.7339, 1128.700
544.2161, 1131.660
544.6982, 1132.389
545.1803, 1130.849
545.6624, 1130.051
546.1445, 1131.774
546.6266, 1133.635
547.1088, 1131.531
547.5909, 1124.848
548.0730, 1120.082
548.5551, 1118.520
549.0372, 1118.537
549.5193, 1119.893
550.0015, 1121.934
550.4836, 1124.109
550.9657, 1126.182
551.4478, 1126.534
551.9299, 1121.082
552.4120, 1107.764
552.8942, 1100.285
553.3763, 1101.869
553.8584, 1105.935
554.3405, 1112.165
554.8226, 1117.790
555.3047, 1116.933
555.7869, 1105.208
556.2690, 1093.676
556.7511, 1091.205
557.2332, 1094.582
557.7153, 1097.552
558.1974, 1099.004
558.6796, 1099.809
559.1617, 1100.774
559.6438, 1101.793
560.1259, 1101.647
560.6080, 1099.343
561.0901, 1097.107
561.5723, 1095.709
562.0544, 1094.097
562.5365, 1090.349
563.0186, 1084.975
563.5007, 1081.411
563.9828, 1082.772
564.4650, 1087.571
564.9471, 1093.182
565.4292, 1099.890
565.9113, 1102.951
566.3934, 1099.459
566.8755, 1092.807
567.3577, 1087.787
567.8398, 1084.436
568.3219, 1081.589
568.8040, 1075.773
569.2861, 1073.541
569.7682, 1082.689
570.2504, 1097.977
570.7325, 1108.993
571.2146, 1111.322
571.6967, 1108.229
572.1788, 1103.476
572.6609, 1096.319
573.1431, 1093.624
573.6252, 1098.417
574.1073, 1103.440
574.5894, 1106.768
575.0715, 1107.488
575.5536, 1102.825
576.0358, 1089.507
576.5179, 1078.654
577.0000, 1077.774
577.4821, 1083.065
577.9642, 1090.715
578.4464, 1099.432
578.9285, 1104.582
579.4106, 1102.160
579.8927, 1094.261
580.3748, 1090.130
580.8569, 1090.019
581.3391, 1093.526
581.8212, 1105.211
582.3033, 1116.164
582.7854, 1118.729
583.2675, 1114.980
583.7496, 1114.129
584.2318, 1125.442
584.7139, 1136.453
585.1960, 1125.158
585.6781, 1096.438
586.1602, 1078.275
586.6423, 1079.425
587.1245, 1088.656
