##NAMES=Stolzite
##RRUFFID=R050568
##IDEAL CHEMISTRY=Pb^2+^W^6+^O_4_
##LOCALITY=Broken Hill, New South Wales, Australia
##OWNER=RRUFF
##SOURCE=University of Arizona Mineral Museum
##DESCRIPTION=Yellowish brown tetragonal dipyramidal crystals
##STATUS=The identification of this mineral is confirmed by single-crystal X-ray diffraction and chemical analysis.
##URL=rruff.info/R050568
##MEASURED CHEMISTRY=Pb_1.00_W_1.00_O_4_
91.11523, 106.5478
91.59735, 104.7152
92.07947, 105.7557
92.56158, 109.0319
93.04370, 112.5548
93.52582, 115.6728
94.00793, 118.2024
94.49006, 119.4930
94.97218, 119.2415
95.45429, 118.2802
95.93641, 117.5164
96.41853, 116.9661
96.90064, 117.2894
97.38276, 120.4649
97.86488, 125.9638
98.34699, 127.3775
98.82911, 122.2067
99.31123, 113.0416
99.79334, 108.9636
100.2755, 110.9826
100.7576, 114.7137
101.2397, 116.4545
101.7218, 115.9622
102.2039, 114.5676
102.6861, 111.8918
103.1682, 107.9522
103.6503, 106.8558
104.1324, 109.6356
104.6145, 114.1008
105.0966, 117.8252
105.5788, 120.9299
106.0609, 122.9688
106.5430, 123.1601
107.0251, 120.0314
107.5072, 120.4704
107.9893, 127.0679
108.4715, 136.6044
108.9536, 143.3058
109.4357, 144.6212
109.9178, 145.4220
110.3999, 147.4001
110.8820, 152.2845
111.3642, 155.4758
111.8463, 153.1373
112.3284, 148.5344
112.8105, 150.6131
113.2926, 166.9274
113.7747, 185.9246
114.2569, 201.6919
114.7390, 212.5263
115.2211, 221.1318
115.7032, 223.4708
116.1853, 221.9940
116.6674, 229.1008
117.1496, 255.4545
117.6317, 289.3162
118.1138, 320.7076
118.5959, 343.1136
119.0780, 365.7032
119.5602, 392.2293
120.0423, 422.8973
120.5244, 456.3908
121.0065, 494.0583
121.4886, 533.7167
121.9707, 572.6514
122.4529, 608.3710
122.9350, 643.2975
123.4171, 680.3551
123.8992, 719.9966
124.3813, 757.4650
124.8634, 788.0651
125.3456, 813.4665
125.8277, 837.5614
126.3098, 859.2646
126.7919, 881.4948
127.2740, 908.9260
127.7561, 942.5016
128.2383, 978.9694
128.7204, 1013.510
129.2025, 1046.995
129.6846, 1083.998
130.1667, 1129.497
130.6488, 1180.530
131.1310, 1230.610
131.6131, 1278.514
132.0952, 1325.913
132.5773, 1376.297
133.0594, 1429.943
133.5415, 1483.376
134.0237, 1533.793
134.5058, 1581.736
134.9879, 1632.361
135.4700, 1688.579
135.9521, 1747.099
136.4343, 1798.789
136.9164, 1842.867
137.3985, 1883.937
137.8806, 1927.210
138.3627, 1973.990
138.8448, 2015.321
139.3270, 2047.464
139.8091, 2072.306
140.2912, 2107.406
140.7733, 2157.094
141.2554, 2209.974
141.7375, 2252.602
142.2197, 2280.490
142.7018, 2311.236
143.1839, 2348.740
143.6660, 2393.045
144.1481, 2440.749
144.6302, 2492.057
145.1124, 2546.258
145.5945, 2600.982
146.0766, 2653.348
146.5587, 2711.621
147.0408, 2778.113
147.5230, 2853.256
148.0051, 2933.250
148.4872, 3005.610
148.9693, 3063.974
149.4514, 3123.258
149.9335, 3180.849
150.4157, 3242.521
150.8978, 3307.893
151.3799, 3374.740
151.8620, 3452.008
152.3441, 3541.762
152.8262, 3641.807
153.3084, 3746.322
153.7905, 3856.439
154.2726, 3969.303
154.7547, 4084.966
155.2368, 4197.427
155.7189, 4319.124
156.2011, 4451.072
156.6832, 4593.513
157.1653, 4744.005
157.6474, 4909.313
158.1295, 5077.337
158.6116, 5241.585
159.0938, 5394.797
159.5759, 5552.764
160.0580, 5722.655
160.5401, 5901.169
161.0222, 6077.112
161.5044, 6241.702
161.9865, 6405.374
162.4686, 6575.329
162.9507, 6758.426
163.4328, 6942.311
163.9149, 7117.294
164.3971, 7288.423
164.8792, 7472.836
165.3613, 7683.621
165.8434, 7909.277
166.3255, 8140.127
166.8076, 8357.002
167.2898, 8589.171
167.7719, 8856.748
168.2540, 9157.756
168.7361, 9475.642
169.2182, 9803.545
169.7003, 10142.04
170.1825, 10491.80
170.6646, 10857.67
171.1467, 11231.31
171.6288, 11622.75
172.1109, 12027.41
172.5931, 12412.92
173.0752, 12775.71
173.5573, 13100.84
174.0394, 13364.92
174.5215, 13563.83
175.0036, 13692.93
175.4858, 13752.14
175.9679, 13743.09
176.4500, 13641.14
176.9321, 13424.30
177.4142, 13097.99
177.8963, 12679.92
178.3785, 12139.82
178.8606, 11517.72
179.3427, 10882.99
179.8248, 10230.08
180.3069, 9573.339
180.7890, 8916.880
181.2712, 8268.918
181.7533, 7663.469
182.2354, 7124.550
182.7175, 6639.593
183.1996, 6197.625
183.6818, 5792.844
184.1639, 5429.947
184.6460, 5104.448
185.1281, 4817.596
185.6102, 4559.723
186.0923, 4333.314
186.5745, 4133.552
187.0566, 3954.625
187.5387, 3794.870
188.0208, 3653.058
188.5029, 3524.128
188.9850, 3408.288
189.4672, 3301.496
189.9493, 3201.250
190.4314, 3108.252
190.9135, 3020.770
191.3956, 2938.523
191.8777, 2863.529
192.3599, 2798.042
192.8420, 2742.366
193.3241, 2689.663
193.8062, 2636.464
194.2883, 2582.548
194.7704, 2530.962
195.2526, 2481.481
195.7347, 2434.869
196.2168, 2392.265
196.6989, 2353.572
197.1810, 2319.327
197.6632, 2291.421
198.1453, 2269.571
198.6274, 2246.035
199.1095, 2219.331
199.5916, 2192.151
200.0737, 2170.922
200.5559, 2156.166
201.0380, 2143.349
201.5201, 2130.398
202.0022, 2117.214
202.4843, 2104.245
202.9664, 2091.630
203.4486, 2079.210
203.9307, 2066.354
204.4128, 2052.987
204.8949, 2040.095
205.3770, 2027.955
205.8591, 2016.389
206.3413, 2006.855
206.8234, 1999.695
207.3055, 1994.341
207.7876, 1989.457
208.2697, 1985.083
208.7519, 1981.015
209.2340, 1977.177
209.7161, 1973.618
210.1982, 1969.362
210.6803, 1962.744
211.1624, 1956.289
211.6446, 1958.748
212.1267, 1974.414
212.6088, 1988.470
213.0909, 1992.248
213.5730, 1982.664
214.0551, 1975.026
214.5373, 1970.912
215.0194, 1968.934
215.5015, 1964.478
215.9836, 1955.828
216.4657, 1948.223
216.9478, 1944.445
217.4300, 1945.571
217.9121, 1946.961
218.3942, 1948.084
218.8763, 1949.398
219.3584, 1952.699
219.8405, 1959.342
220.3227, 1965.302
220.8048, 1968.192
221.2869, 1966.541
221.7690, 1966.252
222.2511, 1968.822
222.7333, 1972.489
223.2154, 1971.481
223.6975, 1962.859
224.1796, 1954.583
224.6617, 1950.021
225.1438, 1948.518
225.6260, 1953.586
226.1081, 1970.815
226.5902, 1993.285
227.0723, 1998.926
227.5544, 1976.743
228.0365, 1955.297
228.5187, 1948.849
229.0008, 1965.106
229.4829, 1977.651
229.9650, 1986.478
230.4471, 1991.305
230.9292, 1990.450
231.4114, 1978.196
231.8935, 1968.864
232.3756, 1969.985
232.8577, 1988.944
233.3398, 2000.503
233.8220, 2002.095
234.3041, 1997.106
234.7862, 1993.581
235.2683, 1991.558
235.7504, 1990.980
236.2325, 1992.197
236.7147, 1996.531
237.1968, 1999.265
237.6789, 1999.650
238.1610, 1998.844
238.6431, 1999.323
239.1252, 2001.466
239.6074, 2004.461
240.0895, 2008.145
240.5716, 2012.781
241.0537, 2017.472
241.5358, 2023.086
242.0179, 2028.331
242.5001, 2029.954
242.9822, 2023.888
243.4643, 2020.764
243.9464, 2025.575
244.4285, 2042.556
244.9106, 2053.043
245.3928, 2054.478
245.8749, 2050.934
246.3570, 2049.542
246.8391, 2051.568
247.3212, 2053.421
247.8034, 2053.030
248.2855, 2048.490
248.7676, 2050.462
249.2497, 2063.044
249.7318, 2079.192
250.2139, 2087.591
250.6961, 2083.398
251.1782, 2080.494
251.6603, 2083.855
252.1424, 2095.309
252.6245, 2102.021
253.1066, 2101.435
253.5888, 2098.518
254.0709, 2100.192
254.5530, 2109.313
255.0351, 2117.137
255.5172, 2120.522
255.9993, 2118.768
256.4815, 2120.467
256.9636, 2127.317
257.4457, 2135.744
257.9278, 2141.771
258.4099, 2144.817
258.8921, 2146.627
259.3742, 2146.616
259.8563, 2144.691
260.3384, 2147.343
260.8205, 2156.558
261.3026, 2167.673
261.7848, 2176.345
262.2669, 2182.177
262.7490, 2186.183
263.2311, 2186.967
263.7132, 2185.071
264.1953, 2190.026
264.6775, 2204.359
265.1596, 2221.408
265.6417, 2235.778
266.1238, 2247.343
266.6059, 2256.503
267.0880, 2263.004
267.5702, 2267.072
268.0523, 2268.975
268.5344, 2266.825
269.0165, 2266.488
269.4986, 2273.373
269.9807, 2289.507
270.4629, 2304.261
270.9450, 2316.336
271.4271, 2326.066
271.9092, 2334.281
272.3913, 2340.930
272.8734, 2346.180
273.3556, 2349.086
273.8377, 2348.791
274.3198, 2352.173
274.8019, 2360.645
275.2840, 2372.659
275.7661, 2383.999
276.2483, 2394.296
276.7304, 2405.313
277.2125, 2418.185
277.6946, 2433.135
278.1768, 2447.659
278.6589, 2461.760
279.1410, 2475.210
279.6231, 2486.860
280.1052, 2496.415
280.5873, 2507.087
281.0695, 2519.815
281.5516, 2534.662
282.0337, 2554.171
282.5158, 2579.794
282.9979, 2607.122
283.4800, 2627.388
283.9622, 2640.093
284.4443, 2656.030
284.9264, 2682.769
285.4085, 2718.336
285.8906, 2746.009
286.3727, 2764.059
286.8549, 2780.272
287.3370, 2805.643
287.8191, 2839.710
288.3012, 2873.179
288.7833, 2899.777
289.2654, 2922.871
289.7476, 2957.259
290.2297, 3004.044
290.7118, 3053.610
291.1939, 3094.427
291.6760, 3128.010
292.1581, 3165.573
292.6403, 3210.354
293.1224, 3261.315
293.6045, 3317.856
294.0866, 3379.524
294.5687, 3445.248
295.0508, 3512.955
295.5330, 3583.914
296.0151, 3660.559
296.4972, 3743.257
296.9793, 3833.824
297.4614, 3932.293
297.9435, 4039.353
298.4257, 4155.246
298.9078, 4279.123
299.3899, 4411.728
299.8720, 4550.004
300.3541, 4692.378
300.8362, 4846.255
301.3184, 5021.748
301.8005, 5218.466
302.2826, 5427.083
302.7647, 5644.636
303.2469, 5871.157
303.7290, 6110.661
304.2111, 6360.900
304.6932, 6627.428
305.1753, 6909.712
305.6574, 7209.100
306.1396, 7518.070
306.6217, 7834.370
307.1038, 8161.441
307.5859, 8502.205
308.0680, 8859.766
308.5501, 9232.909
309.0323, 9623.326
309.5144, 10029.14
309.9965, 10445.62
310.4786, 10873.03
310.9607, 11313.87
311.4428, 11769.46
311.9250, 12238.06
312.4071, 12730.60
312.8892, 13242.34
313.3713, 13773.89
313.8534, 14330.59
314.3355, 14904.79
314.8177, 15507.40
315.2998, 16153.10
315.7819, 16833.44
316.2640, 17523.82
316.7461, 18213.85
317.2282, 18901.09
317.7104, 19594.25
318.1925, 20322.88
318.6746, 21015.01
319.1567, 21661.86
319.6388, 22258.63
320.1209, 22774.55
320.6031, 23212.96
321.0852, 23558.68
321.5673, 23810.95
322.0494, 23977.64
322.5315, 24032.21
323.0136, 23957.39
323.4958, 23769.62
323.9779, 23495.45
324.4600, 23121.82
324.9421, 22677.31
325.4242, 22183.81
325.9064, 21653.51
326.3885, 21016.01
326.8706, 20247.28
327.3527, 19377.85
327.8348, 18430.57
328.3170, 17332.59
328.7991, 16229.78
329.2812, 15138.19
329.7633, 14051.41
330.2454, 13020.72
330.7275, 12042.38
331.2097, 11133.40
331.6918, 10308.62
332.1739, 9571.291
332.6560, 8908.451
333.1381, 8336.295
333.6202, 7844.233
334.1024, 7407.634
334.5845, 7034.758
335.0666, 6712.079
335.5487, 6435.063
336.0308, 6212.241
336.5129, 6018.701
336.9951, 5854.161
337.4772, 5719.288
337.9593, 5610.635
338.4414, 5531.625
338.9235, 5468.883
339.4056, 5417.163
339.8878, 5376.985
340.3699, 5348.159
340.8520, 5331.750
341.3341, 5324.722
341.8162, 5322.768
342.2983, 5325.731
342.7805, 5335.124
343.2626, 5351.247
343.7447, 5374.088
344.2268, 5402.075
344.7089, 5434.796
345.1910, 5476.117
345.6732, 5526.664
346.1553, 5587.655
346.6374, 5664.968
347.1195, 5761.997
347.6016, 5874.583
348.0837, 5992.856
348.5659, 6118.331
349.0480, 6259.526
349.5301, 6419.103
350.0122, 6598.862
350.4944, 6801.620
350.9765, 7031.068
351.4586, 7270.624
351.9407, 7503.077
352.4228, 7727.341
352.9049, 7939.489
353.3871, 8156.237
353.8692, 8351.808
354.3513, 8504.635
354.8334, 8615.224
355.3155, 8648.209
355.7976, 8578.071
356.2798, 8410.850
356.7619, 8155.426
357.2440, 7782.004
357.7261, 7350.688
358.2082, 6882.187
358.6903, 6383.446
359.1725, 5902.735
359.6546, 5452.731
360.1367, 5038.478
360.6188, 4668.724
361.1009, 4352.366
361.5830, 4076.562
362.0652, 3843.038
362.5473, 3646.987
363.0294, 3476.505
363.5115, 3336.247
363.9936, 3213.358
364.4757, 3103.702
364.9579, 3006.595
365.4400, 2919.744
365.9221, 2845.018
366.4042, 2778.874
366.8863, 2716.813
367.3684, 2656.652
367.8506, 2602.143
368.3327, 2554.181
368.8148, 2513.245
369.2969, 2477.353
369.7790, 2446.001
370.2611, 2419.664
370.7433, 2399.260
371.2254, 2393.446
371.7075, 2379.976
372.1896, 2353.553
372.6717, 2317.688
373.1538, 2287.519
373.6360, 2264.434
374.1181, 2244.755
374.6002, 2226.965
375.0823, 2210.574
375.5645, 2197.883
376.0466, 2190.772
376.5287, 2185.438
377.0108, 2174.933
377.4929, 2158.266
377.9750, 2142.154
378.4572, 2129.007
378.9393, 2118.581
379.4214, 2109.393
379.9035, 2101.851
380.3856, 2094.214
380.8677, 2084.039
381.3499, 2071.640
381.8320, 2061.481
382.3141, 2055.235
382.7962, 2050.816
383.2783, 2043.550
383.7604, 2033.573
384.2426, 2023.119
384.7247, 2012.084
385.2068, 2001.776
385.6889, 1995.405
386.1710, 1994.044
386.6531, 1993.751
387.1353, 1990.981
387.6174, 1985.977
388.0995, 1979.397
388.5816, 1970.835
389.0637, 1961.241
389.5458, 1950.789
390.0280, 1939.496
390.5101, 1929.559
390.9922, 1923.022
391.4743, 1918.420
391.9564, 1914.128
392.4385, 1910.476
392.9207, 1906.080
393.4028, 1898.995
393.8849, 1890.404
394.3670, 1883.856
394.8491, 1883.239
395.3312, 1883.226
395.8134, 1880.731
396.2955, 1874.589
396.7776, 1868.058
397.2597, 1861.279
397.7418, 1854.732
398.2239, 1849.004
398.7061, 1843.783
399.1882, 1839.859
399.6703, 1837.994
400.1524, 1838.311
400.6346, 1837.775
401.1167, 1836.637
401.5988, 1834.458
402.0809, 1830.601
402.5630, 1822.728
403.0451, 1817.947
403.5273, 1818.324
404.0094, 1821.621
404.4915, 1821.077
404.9736, 1814.969
405.4557, 1809.100
405.9378, 1805.895
406.4200, 1805.496
406.9021, 1806.416
407.3842, 1809.278
407.8663, 1812.012
408.3484, 1811.450
408.8305, 1807.533
409.3127, 1804.324
409.7948, 1803.305
410.2769, 1803.617
410.7590, 1802.719
411.2411, 1800.628
411.7232, 1798.706
412.2054, 1798.152
412.6875, 1798.575
413.1696, 1798.706
413.6517, 1798.128
414.1338, 1797.968
414.6159, 1800.457
415.0981, 1804.530
415.5802, 1807.298
416.0623, 1805.944
416.5444, 1803.271
417.0265, 1801.627
417.5086, 1801.067
417.9908, 1802.155
418.4729, 1807.602
418.9550, 1813.911
419.4371, 1817.210
419.9192, 1814.522
420.4013, 1810.969
420.8835, 1807.417
421.3656, 1804.520
421.8477, 1804.182
422.3298, 1811.031
422.8119, 1817.332
423.2940, 1819.130
423.7762, 1814.329
424.2583, 1810.346
424.7404, 1806.123
425.2225, 1803.959
425.7047, 1806.532
426.1868, 1820.305
426.6689, 1830.198
427.1510, 1832.582
427.6331, 1828.205
428.1152, 1825.865
428.5974, 1826.326
429.0795, 1827.646
429.5616, 1829.118
430.0437, 1831.335
430.5258, 1830.684
431.0079, 1825.743
431.4901, 1819.433
431.9722, 1817.178
432.4543, 1819.268
432.9364, 1822.450
433.4185, 1826.620
433.9006, 1830.907
434.3828, 1829.831
434.8649, 1822.912
435.3470, 1816.556
435.8291, 1819.595
436.3112, 1828.371
436.7933, 1829.988
437.2755, 1819.489
437.7576, 1806.253
438.2397, 1802.972
438.7218, 1807.305
439.2039, 1811.382
439.6860, 1809.507
440.1682, 1806.010
440.6503, 1805.589
441.1324, 1808.609
441.6145, 1812.044
442.0966, 1816.142
442.5787, 1818.825
443.0609, 1817.819
443.5430, 1807.933
444.0251, 1798.940
444.5072, 1794.710
444.9893, 1794.228
445.4714, 1793.776
445.9536, 1792.592
446.4357, 1791.205
446.9178, 1790.147
447.3999, 1790.407
447.8820, 1788.347
448.3641, 1780.901
448.8463, 1772.889
449.3284, 1769.733
449.8105, 1775.037
450.2926, 1778.696
450.7747, 1778.348
451.2569, 1774.822
451.7390, 1773.293
452.2211, 1774.203
452.7032, 1775.879
453.1853, 1778.029
453.6674, 1780.819
454.1496, 1780.059
454.6317, 1774.516
455.1138, 1768.026
455.5959, 1766.930
456.0780, 1770.704
456.5602, 1773.678
457.0423, 1773.191
457.5244, 1771.098
458.0065, 1771.898
458.4886, 1775.264
458.9707, 1777.379
459.4529, 1773.109
459.9350, 1766.529
460.4171, 1764.502
460.8992, 1769.199
461.3813, 1774.420
461.8634, 1775.911
462.3456, 1774.621
462.8277, 1772.108
463.3098, 1767.520
463.7919, 1763.126
464.2740, 1759.761
464.7561, 1757.477
465.2383, 1756.610
465.7204, 1758.485
466.2025, 1760.922
466.6846, 1762.590
467.1667, 1763.333
467.6488, 1763.231
468.1310, 1761.512
468.6131, 1759.150
469.0952, 1757.700
469.5773, 1757.736
470.0594, 1757.782
470.5415, 1757.598
471.0237, 1757.180
471.5058, 1756.074
471.9879, 1753.916
472.4700, 1751.912
472.9521, 1751.158
473.4342, 1751.731
473.9164, 1752.311
474.3985, 1753.201
474.8806, 1753.203
475.3627, 1749.442
475.8448, 1742.313
476.3270, 1735.802
476.8091, 1730.846
477.2912, 1728.002
477.7733, 1729.819
478.2554, 1735.972
478.7375, 1741.499
479.2197, 1742.427
479.7018, 1740.507
480.1839, 1737.716
480.6660, 1733.767
481.1481, 1730.972
481.6302, 1732.329
482.1124, 1735.658
482.5945, 1737.276
483.0766, 1733.811
483.5587, 1730.194
484.0408, 1729.361
484.5229, 1731.235
485.0051, 1730.925
485.4872, 1725.390
485.9693, 1718.921
486.4514, 1713.981
486.9335, 1710.154
487.4156, 1708.714
487.8978, 1711.493
488.3799, 1715.703
488.8620, 1716.511
489.3441, 1711.786
489.8262, 1709.075
490.3083, 1710.760
490.7905, 1716.254
491.2726, 1722.039
491.7547, 1728.874
492.2368, 1732.534
492.7189, 1727.358
493.2010, 1714.977
493.6832, 1707.311
494.1653, 1705.750
494.6474, 1707.507
495.1295, 1710.162
495.6116, 1713.351
496.0938, 1715.993
496.5759, 1717.216
497.0580, 1718.034
497.5401, 1719.899
498.0222, 1722.505
498.5044, 1724.210
498.9865, 1723.362
499.4686, 1721.715
499.9507, 1720.404
500.4328, 1719.335
500.9149, 1719.675
501.3971, 1724.204
501.8792, 1729.459
502.3613, 1731.453
502.8434, 1724.540
503.3255, 1720.023
503.8076, 1721.238
504.2898, 1726.720
504.7719, 1729.597
505.2540, 1727.971
505.7361, 1726.494
506.2182, 1727.570
506.7003, 1731.958
507.1825, 1733.417
507.6646, 1730.921
508.1467, 1727.702
508.6288, 1727.386
509.1109, 1729.979
509.5930, 1733.502
510.0752, 1738.381
510.5573, 1742.830
511.0394, 1742.408
511.5215, 1737.876
512.0037, 1733.956
512.4858, 1732.910
512.9679, 1734.212
513.4500, 1737.931
513.9321, 1744.004
514.4142, 1749.651
514.8964, 1753.549
515.3785, 1755.716
515.8606, 1755.806
516.3427, 1751.809
516.8248, 1749.148
517.3069, 1750.123
517.7891, 1753.827
518.2712, 1758.601
518.7533, 1767.916
519.2354, 1774.348
519.7175, 1774.333
520.1996, 1768.065
520.6818, 1763.906
521.1639, 1761.627
521.6460, 1761.752
522.1281, 1764.920
522.6102, 1771.928
523.0923, 1779.258
523.5745, 1787.531
524.0566, 1795.001
524.5387, 1798.786
525.0208, 1798.912
525.5029, 1798.341
525.9850, 1797.560
526.4672, 1796.938
526.9493, 1798.028
527.4314, 1800.514
527.9135, 1801.611
528.3956, 1797.503
528.8777, 1791.864
529.3599, 1790.021
529.8420, 1792.569
530.3241, 1796.235
530.8062, 1800.982
531.2883, 1804.837
531.7704, 1805.379
532.2526, 1798.671
532.7347, 1792.976
533.2168, 1792.058
533.6989, 1793.952
534.1810, 1794.022
534.6631, 1788.672
535.1453, 1784.484
535.6274, 1784.047
536.1095, 1787.528
536.5916, 1788.233
537.0737, 1785.041
537.5558, 1780.816
538.0380, 1777.013
538.5201, 1773.323
539.0022, 1772.441
539.4843, 1775.366
539.9664, 1779.131
540.4485, 1778.496
540.9307, 1774.078
541.4128, 1771.064
541.8949, 1771.130
542.3770, 1773.568
542.8591, 1778.872
543.3412, 1786.169
543.8234, 1791.350
544.3055, 1789.713
544.7876, 1786.006
545.2697, 1784.797
545.7518, 1786.638
546.2339, 1789.220
546.7161, 1793.642
547.1982, 1797.122
547.6803, 1797.199
548.1624, 1787.122
548.6445, 1781.564
549.1266, 1786.966
549.6088, 1797.589
550.0909, 1801.642
550.5730, 1794.746
551.0551, 1788.481
551.5372, 1786.417
552.0193, 1787.957
552.5015, 1786.198
552.9836, 1779.768
553.4657, 1774.903
553.9478, 1777.595
554.4299, 1786.796
554.9120, 1791.342
555.3942, 1790.136
555.8763, 1786.514
556.3584, 1782.186
556.8405, 1778.338
557.3226, 1778.473
557.8047, 1785.911
558.2869, 1794.278
558.7690, 1797.848
559.2511, 1797.696
559.7332, 1796.485
560.2154, 1792.022
560.6975, 1789.763
561.1796, 1794.621
561.6617, 1806.986
562.1439, 1815.028
562.6260, 1811.034
563.1081, 1806.121
563.5902, 1807.098
564.0723, 1818.843
564.5544, 1825.932
565.0366, 1826.492
565.5187, 1824.297
566.0008, 1824.528
566.4829, 1827.671
566.9650, 1830.393
567.4471, 1831.758
567.9293, 1832.427
568.4114, 1833.471
568.8935, 1834.968
569.3756, 1838.319
569.8577, 1846.935
570.3398, 1857.031
570.8220, 1861.234
571.3041, 1859.640
571.7862, 1856.312
572.2683, 1852.090
572.7504, 1848.618
573.2325, 1848.130
573.7147, 1852.950
574.1968, 1855.753
574.6789, 1851.642
575.1610, 1844.751
575.6431, 1840.365
576.1252, 1842.018
576.6074, 1843.082
577.0895, 1842.547
577.5716, 1840.782
578.0537, 1838.840
578.5358, 1835.842
579.0179, 1834.840
579.5001, 1838.281
579.9822, 1845.674
580.4643, 1847.566
580.9464, 1843.148
581.4285, 1838.747
581.9106, 1841.694
582.3928, 1849.223
582.8749, 1851.334
583.3570, 1845.799
583.8391, 1839.305
584.3212, 1839.281
584.8033, 1842.639
585.2855, 1844.024
585.7676, 1837.599
586.2497, 1832.929
586.7318, 1836.448
587.2139, 1845.608
