##NAMES=Strakhovite
##RRUFFID=R080039
##IDEAL CHEMISTRY=NaBa_3_(Mn^2+^,Mn^3+^)_4_[Si_4_O_10_(OH)_2_][Si_2_O_7_]O_2_&#183;(F,OH)&#183;H_2_O
##LOCALITY=Dzhavodi Area, Ir-Nimi manganese deposit, Taikan Ridge, Khabarovskiy Kray, Far-Eastern Region, Russia
##OWNER=RRUFF
##SOURCE=Michael Scott
##DESCRIPTION=Dark green vitreous massive
##STATUS=The identification of this mineral has been confirmed only by single crystal X-ray diffraction.
##URL=rruff.info/R080039
130.3557, 89.00993
130.8378, 89.08602
131.3199, 88.68508
131.8020, 88.11983
132.2842, 87.59546
132.7663, 87.56065
133.2484, 88.00481
133.7305, 88.48342
134.2126, 88.56605
134.6947, 88.31819
135.1769, 88.41219
135.6590, 88.99159
136.1411, 89.95428
136.6232, 91.00130
137.1053, 92.11516
137.5874, 93.35327
138.0696, 94.75576
138.5517, 96.29813
139.0338, 98.11581
139.5159, 100.4439
139.9980, 103.1562
140.4801, 105.0534
140.9623, 105.9714
141.4444, 106.3899
141.9265, 106.7524
142.4086, 106.9329
142.8907, 107.4151
143.3728, 108.3539
143.8550, 109.7729
144.3371, 111.3629
144.8192, 113.2434
145.3013, 115.1986
145.7834, 116.8643
146.2655, 118.3069
146.7477, 119.4222
147.2298, 120.2377
147.7119, 120.8844
148.1940, 120.8459
148.6761, 119.6789
149.1582, 117.9159
149.6404, 116.7366
150.1225, 116.7210
150.6046, 116.6922
151.0867, 116.2449
151.5688, 115.1917
152.0509, 113.9908
152.5331, 112.5464
153.0152, 110.9304
153.4973, 109.3964
153.9794, 108.1019
154.4615, 106.7976
154.9436, 105.3678
155.4258, 103.9604
155.9079, 102.2609
156.3900, 100.0114
156.8721, 97.35366
157.3542, 94.92142
157.8363, 92.63444
158.3185, 90.75459
158.8006, 89.42527
159.2827, 89.21347
159.7648, 89.03017
160.2469, 88.53597
160.7290, 87.77898
161.2112, 87.20963
161.6933, 87.20275
162.1754, 87.33572
162.6575, 87.25687
163.1396, 86.56539
163.6217, 85.90995
164.1039, 85.60409
164.5860, 85.64500
165.0681, 85.68040
165.5502, 85.45984
166.0323, 85.17407
166.5145, 85.03714
166.9966, 85.26708
167.4787, 85.56355
167.9608, 85.72379
168.4429, 85.73003
168.9250, 85.77421
169.4072, 86.13379
169.8893, 86.58606
170.3714, 86.78529
170.8535, 86.39339
171.3356, 85.80556
171.8177, 85.34476
172.2999, 85.04637
172.7820, 84.78273
173.2641, 84.42385
173.7462, 84.02461
174.2283, 83.70069
174.7104, 83.48262
175.1926, 83.37573
175.6747, 83.39012
176.1568, 83.52761
176.6389, 83.77309
177.1210, 84.19734
177.6031, 84.73874
178.0853, 85.20810
178.5674, 85.45499
179.0495, 85.57700
179.5316, 85.71827
180.0137, 85.88549
180.4958, 86.11124
180.9780, 86.53967
181.4601, 87.11475
181.9422, 87.54395
182.4243, 87.52670
182.9064, 87.23885
183.3885, 87.06519
183.8707, 87.06763
184.3528, 87.18896
184.8349, 87.35513
185.3170, 87.56422
185.7991, 87.82403
186.2812, 88.20729
186.7633, 88.65595
187.2455, 88.96854
187.7276, 89.10837
188.2097, 89.10293
188.6918, 88.90756
189.1739, 88.52356
189.6560, 88.25896
190.1382, 88.41340
190.6203, 88.92754
191.1024, 89.38586
191.5845, 89.62617
192.0666, 89.84447
192.5487, 90.59446
193.0309, 91.91040
193.5130, 93.33708
193.9951, 94.47314
194.4772, 95.34193
194.9593, 96.37302
195.4414, 97.68461
195.9236, 99.21062
196.4057, 100.7066
196.8878, 102.1713
197.3699, 103.6103
197.8520, 105.1566
198.3341, 106.8444
198.8163, 108.0056
199.2984, 108.3676
199.7805, 108.1202
200.2626, 108.1947
200.7447, 108.6928
201.2268, 109.1246
201.7090, 108.9686
202.1911, 108.1706
202.6732, 107.3209
203.1553, 106.6294
203.6374, 106.0175
204.1195, 104.8736
204.6017, 103.0317
205.0838, 101.1043
205.5659, 99.73644
206.0480, 99.02207
206.5301, 98.32508
207.0122, 97.47926
207.4944, 96.50877
207.9765, 95.75404
208.4586, 95.29048
208.9407, 94.88709
209.4228, 94.26318
209.9049, 93.33041
210.3871, 92.52099
210.8692, 91.94613
211.3513, 91.60123
211.8334, 91.34895
212.3155, 91.18699
212.7976, 91.12172
213.2798, 91.20801
213.7619, 91.54217
214.2440, 91.72784
214.7261, 91.62513
215.2082, 91.23189
215.6903, 90.94321
216.1725, 90.77066
216.6546, 90.69038
217.1367, 90.66525
217.6188, 90.66111
218.1009, 90.80672
218.5830, 91.17890
219.0652, 91.79842
219.5473, 92.28115
220.0294, 92.53972
220.5115, 92.77574
220.9936, 93.23647
221.4757, 94.03243
221.9579, 94.80283
222.4400, 95.46245
222.9221, 96.00668
223.4042, 96.55462
223.8863, 97.16090
224.3684, 97.72217
224.8506, 98.13097
225.3327, 98.36907
225.8148, 98.48190
226.2969, 98.42115
226.7790, 98.15451
227.2611, 98.12419
227.7433, 98.47903
228.2254, 98.92387
228.7075, 99.11120
229.1896, 98.92626
229.6717, 98.71626
230.1538, 98.54235
230.6360, 98.40327
231.1181, 98.31531
231.6002, 98.22036
232.0823, 98.23025
232.5644, 98.49160
233.0465, 99.14024
233.5287, 99.78814
234.0108, 100.3550
234.4929, 100.8417
234.9750, 101.2679
235.4571, 101.5564
235.9392, 101.8489
236.4214, 102.2771
236.9035, 102.7538
237.3856, 103.5329
237.8677, 104.7297
238.3498, 106.3903
238.8319, 107.9876
239.3141, 109.4727
239.7962, 110.9413
240.2783, 112.5205
240.7604, 114.2812
241.2425, 116.0162
241.7246, 117.6440
242.2068, 119.1651
242.6889, 120.8458
243.1710, 122.7676
243.6531, 124.7691
244.1352, 126.7092
244.6173, 128.5271
245.0995, 130.3898
245.5816, 132.2823
246.0637, 134.1994
246.5458, 136.3848
247.0279, 138.8585
247.5100, 141.5915
247.9922, 144.5826
248.4743, 148.1282
248.9564, 151.3794
249.4385, 154.1125
249.9206, 156.3434
250.4027, 158.8174
250.8848, 161.7335
251.3670, 164.6787
251.8491, 167.2569
252.3312, 169.3887
252.8133, 171.4034
253.2954, 173.5594
253.7775, 175.7891
254.2597, 176.9192
254.7418, 176.6377
255.2239, 175.6419
255.7060, 174.5099
256.1881, 173.4171
256.6703, 171.7153
257.1524, 169.1403
257.6345, 165.8024
258.1166, 162.6881
258.5987, 160.0637
259.0808, 157.3209
259.5630, 153.8762
260.0451, 149.3654
260.5272, 145.3428
261.0093, 142.1475
261.4914, 139.6239
261.9735, 136.9613
262.4557, 134.0356
262.9378, 131.2294
263.4199, 128.8191
263.9020, 126.8399
264.3841, 125.1766
264.8662, 123.9124
265.3484, 122.9358
265.8305, 121.7261
266.3126, 120.1551
266.7947, 118.6505
267.2768, 117.5283
267.7589, 116.8938
268.2411, 116.1742
268.7232, 115.2416
269.2053, 114.2335
269.6874, 113.5454
270.1695, 113.2172
270.6516, 113.0853
271.1338, 113.1687
271.6159, 113.5866
272.0980, 113.5309
272.5801, 112.7920
273.0622, 111.7123
273.5443, 111.1378
274.0265, 111.1807
274.5086, 111.3070
274.9907, 111.2388
275.4728, 110.9420
275.9549, 110.7288
276.4370, 110.6164
276.9192, 110.5731
277.4013, 110.5915
277.8834, 110.7093
278.3655, 110.6886
278.8476, 110.3261
279.3297, 109.6000
279.8118, 109.2444
280.2939, 109.3912
280.7761, 109.6515
281.2582, 109.3484
281.7403, 108.4223
282.2224, 107.6310
282.7045, 107.3274
283.1866, 107.4650
283.6688, 107.4775
284.1509, 107.3355
284.6330, 107.1562
285.1151, 107.1120
285.5972, 107.2009
286.0793, 107.2087
286.5615, 106.9704
287.0436, 106.5815
287.5257, 106.5107
288.0078, 106.7819
288.4899, 107.2410
288.9720, 107.7960
289.4542, 108.4342
289.9363, 109.0200
290.4184, 109.5100
290.9005, 109.9221
291.3826, 110.2635
291.8647, 110.5256
292.3469, 110.8911
292.8290, 111.6786
293.3111, 112.7617
293.7932, 113.5517
294.2753, 113.7692
294.7574, 113.7612
295.2396, 114.2527
295.7217, 115.2217
296.2038, 116.2594
296.6859, 117.0656
297.1680, 117.6881
297.6501, 118.2670
298.1323, 118.8297
298.6144, 119.3586
299.0965, 119.7773
299.5786, 120.1183
300.0607, 120.5540
300.5428, 121.2837
301.0250, 122.1729
301.5071, 122.9753
301.9892, 123.6363
302.4713, 124.2680
302.9534, 124.9699
303.4355, 125.7422
303.9177, 126.6181
304.3998, 127.6958
304.8819, 128.8410
305.3640, 129.8429
305.8461, 130.6783
306.3282, 131.4573
306.8104, 132.3176
307.2925, 133.2014
307.7746, 133.9690
308.2567, 134.4912
308.7388, 134.9087
309.2209, 135.3174
309.7031, 135.7184
310.1852, 136.2092
310.6673, 137.0044
311.1494, 137.9060
311.6315, 138.6329
312.1136, 139.0454
312.5958, 139.2771
313.0779, 139.4076
313.5600, 139.4365
314.0421, 139.3647
314.5242, 139.1929
315.0063, 138.9145
315.4885, 138.5213
315.9706, 137.8827
316.4527, 137.2506
316.9348, 136.7584
317.4169, 136.3756
317.8990, 135.9675
318.3812, 135.4866
318.8633, 134.9587
319.3454, 134.4224
319.8275, 134.0088
320.3096, 133.4009
320.7917, 132.3485
321.2739, 131.0202
321.7560, 129.8369
322.2381, 129.0978
322.7202, 128.3893
323.2023, 127.4939
323.6844, 126.2683
324.1666, 125.1407
324.6487, 124.3556
325.1308, 123.6871
325.6129, 122.7882
326.0950, 121.2878
326.5771, 119.8479
327.0593, 118.7053
327.5414, 117.9680
328.0235, 117.0979
328.5056, 115.7959
328.9877, 114.4631
329.4698, 113.5347
329.9520, 113.3522
330.4341, 113.1609
330.9162, 112.7528
331.3983, 112.1103
331.8804, 111.8603
332.3625, 112.4387
332.8447, 113.0381
333.3268, 113.0247
333.8089, 111.9200
334.2910, 111.0725
334.7731, 110.6927
335.2552, 110.6930
335.7374, 110.6156
336.2195, 110.4553
336.7016, 110.2242
337.1837, 109.9891
337.6658, 109.8990
338.1479, 109.2233
338.6301, 107.6254
339.1122, 105.6444
339.5943, 104.5808
340.0764, 104.6360
340.5585, 104.9698
341.0406, 105.2888
341.5228, 105.6097
342.0049, 105.6506
342.4870, 105.2973
342.9691, 104.9013
343.4512, 105.0709
343.9333, 105.8533
344.4155, 106.5063
344.8976, 106.6739
345.3797, 106.4926
345.8618, 106.6549
346.3439, 107.2035
346.8260, 107.8241
347.3082, 108.1940
347.7903, 108.3477
348.2724, 108.5466
348.7545, 108.9133
349.2366, 109.3076
349.7188, 109.5390
350.2009, 109.5984
350.6830, 109.3085
351.1651, 108.3966
351.6472, 107.0435
352.1293, 105.6621
352.6115, 104.3102
353.0936, 103.0139
353.5757, 101.8407
354.0578, 100.7568
354.5399, 99.62762
355.0220, 98.18564
355.5042, 96.73675
355.9863, 95.74827
356.4684, 95.32284
356.9505, 94.94711
357.4326, 94.11649
357.9147, 93.08629
358.3969, 92.27297
358.8790, 91.91148
359.3611, 91.76785
359.8432, 91.79967
360.3253, 91.98523
360.8074, 91.98230
361.2896, 91.36727
361.7717, 90.59787
362.2538, 90.09991
362.7359, 90.25893
363.2180, 90.41248
363.7001, 90.28446
364.1823, 89.94580
364.6644, 89.65958
365.1465, 89.34251
365.6286, 89.21542
366.1107, 89.46425
366.5928, 90.49937
367.0750, 91.14843
367.5571, 90.83691
368.0392, 90.09311
368.5213, 89.82829
369.0034, 90.41434
369.4855, 91.21674
369.9677, 92.13697
370.4498, 93.21683
370.9319, 94.12649
371.4140, 94.67928
371.8961, 95.17921
372.3782, 95.92044
372.8604, 97.00877
373.3425, 98.14500
373.8246, 99.30258
374.3067, 100.4690
374.7888, 101.6551
375.2709, 102.9652
375.7531, 104.1282
376.2352, 104.8949
376.7173, 105.0879
377.1994, 105.6560
377.6815, 106.7964
378.1636, 108.2344
378.6458, 109.2980
379.1279, 109.9347
379.6100, 110.5492
380.0921, 111.4897
380.5742, 112.7179
381.0563, 113.2240
381.5385, 112.8786
382.0206, 112.2956
382.5027, 112.2964
382.9848, 112.8114
383.4669, 113.2162
383.9490, 113.3523
384.4312, 113.2202
384.9133, 112.7561
385.3954, 111.9706
385.8775, 111.0904
386.3596, 110.2599
386.8417, 109.4827
387.3239, 108.7894
387.8060, 108.2693
388.2881, 107.6728
388.7702, 106.6164
389.2523, 105.2321
389.7344, 103.9289
390.2166, 103.1228
390.6987, 102.3847
391.1808, 101.1890
391.6629, 99.40030
392.1450, 97.74480
392.6271, 96.95206
393.1093, 96.51086
393.5914, 95.75652
394.0735, 94.00227
394.5556, 92.27831
395.0377, 91.14747
395.5198, 90.56032
396.0020, 89.88427
396.4841, 88.69604
396.9662, 87.48537
397.4483, 86.58043
397.9304, 86.24118
398.4125, 85.92575
398.8947, 85.38689
399.3768, 84.81037
399.8589, 84.65578
400.3410, 85.40117
400.8231, 86.15370
401.3052, 86.65504
401.7874, 86.85767
402.2695, 86.97178
402.7516, 86.85756
403.2337, 86.75750
403.7158, 86.95495
404.1979, 87.56374
404.6800, 88.22231
405.1621, 88.81857
405.6443, 89.40128
406.1264, 90.35496
406.6085, 91.81890
407.0906, 93.30338
407.5727, 94.52612
408.0548, 95.49368
408.5370, 96.06127
409.0191, 96.08211
409.5012, 95.91171
409.9833, 96.29736
410.4654, 97.23159
410.9475, 97.98907
411.4297, 98.10925
411.9118, 97.76897
412.3939, 97.61602
412.8760, 97.67207
413.3581, 97.66519
413.8402, 97.28956
414.3224, 96.64681
414.8045, 95.97495
415.2866, 95.31848
415.7687, 94.69563
416.2508, 94.13689
416.7329, 93.63105
417.2151, 93.11752
417.6972, 92.44350
418.1793, 91.80332
418.6614, 91.41857
419.1435, 91.38937
419.6256, 91.35372
420.1078, 91.07303
420.5899, 90.66597
421.0720, 90.29760
421.5541, 90.07131
422.0362, 89.85728
422.5183, 89.62642
423.0005, 89.37686
423.4826, 89.04200
423.9647, 88.36620
424.4468, 87.75023
424.9289, 87.46745
425.4110, 87.73666
425.8932, 88.09858
426.3753, 88.69537
426.8574, 89.35943
427.3395, 89.65889
427.8216, 89.08632
428.3037, 88.83348
428.7859, 89.42017
429.2680, 91.02903
429.7501, 92.15625
430.2322, 92.57761
430.7143, 92.83437
431.1964, 93.53239
431.6786, 94.75761
432.1607, 95.98492
432.6428, 97.14726
433.1249, 98.22591
433.6070, 99.16879
434.0891, 99.97933
434.5713, 100.6377
435.0534, 101.0615
435.5355, 101.3038
436.0176, 101.6720
436.4997, 102.2395
436.9818, 102.7201
437.4640, 102.7095
437.9461, 102.3176
438.4282, 101.8909
438.9103, 101.5671
439.3924, 101.2849
439.8745, 100.9046
440.3567, 100.4561
440.8388, 100.1614
441.3209, 100.3299
441.8030, 100.6507
442.2851, 100.7650
442.7672, 100.4550
443.2494, 100.2517
443.7315, 100.5744
444.2136, 101.1818
444.6957, 101.6302
445.1778, 101.5169
445.6599, 101.4565
446.1421, 101.8187
446.6242, 102.6862
447.1063, 103.1843
447.5884, 103.0601
448.0705, 102.5987
448.5526, 102.0032
449.0348, 100.9971
449.5169, 100.2776
449.9990, 100.1832
450.4811, 100.3565
450.9632, 99.71595
451.4453, 97.84029
451.9275, 95.95162
452.4096, 94.54288
452.8917, 93.68448
453.3738, 92.68316
453.8559, 91.48035
454.3380, 90.29874
454.8202, 89.40331
455.3023, 88.80386
455.7844, 88.26467
456.2665, 87.75778
456.7486, 87.26546
457.2307, 86.70822
457.7129, 86.09991
458.1950, 85.55747
458.6771, 85.16657
459.1592, 84.89482
459.6413, 84.69405
460.1234, 84.56217
460.6056, 84.48186
461.0877, 84.43100
461.5698, 84.42142
462.0519, 84.47349
462.5340, 84.66179
463.0161, 84.85208
463.4983, 84.92489
463.9804, 84.91364
464.4625, 84.96491
464.9446, 85.26049
465.4267, 85.55264
465.9088, 85.68471
466.3910, 85.59274
466.8731, 85.46780
467.3552, 85.12713
467.8373, 84.84713
468.3194, 84.98523
468.8015, 85.97437
469.2837, 86.87978
469.7658, 87.51876
470.2479, 87.92894
470.7300, 88.42646
471.2121, 88.99767
471.6942, 89.67442
472.1764, 90.52853
472.6585, 91.62131
473.1406, 92.50271
473.6227, 93.10025
474.1048, 93.58070
474.5869, 94.24133
475.0691, 95.08878
475.5512, 95.78268
476.0333, 96.19054
476.5154, 96.38512
476.9975, 96.48994
477.4796, 96.51438
477.9618, 96.64413
478.4439, 97.20335
478.9260, 97.92236
479.4081, 98.28724
479.8902, 98.18913
480.3723, 97.89067
480.8545, 97.53481
481.3366, 97.14635
481.8187, 96.76872
482.3008, 96.58649
482.7829, 96.27358
483.2650, 95.58217
483.7472, 94.55005
484.2293, 93.51315
484.7114, 92.39706
485.1935, 91.43237
485.6756, 90.78141
486.1577, 90.57958
486.6399, 90.43806
487.1220, 90.45766
487.6041, 90.47273
488.0862, 90.24447
488.5683, 89.47926
489.0504, 88.95423
489.5326, 88.86753
490.0147, 89.16939
490.4968, 89.49700
490.9789, 89.85655
491.4610, 90.21456
491.9431, 90.50854
492.4253, 90.72897
492.9074, 91.15427
493.3895, 91.83988
493.8716, 92.61370
494.3537, 93.13858
494.8358, 93.49578
495.3180, 94.21764
495.8001, 95.73071
496.2822, 97.49426
496.7643, 98.56038
497.2464, 99.05410
497.7285, 99.63073
498.2107, 100.7247
498.6928, 102.1157
499.1749, 103.6392
499.6570, 105.2940
500.1391, 106.9154
500.6212, 108.4204
501.1034, 109.8309
501.5855, 111.1915
502.0676, 112.4230
502.5497, 113.6787
503.0318, 115.0352
503.5139, 116.4721
503.9961, 117.8540
504.4782, 119.0137
504.9603, 120.3094
505.4424, 121.9434
505.9245, 124.1042
506.4066, 125.8544
506.8888, 127.0049
507.3709, 127.9825
507.8530, 129.3098
508.3351, 131.0614
508.8172, 132.6219
509.2993, 133.8244
509.7815, 134.8317
510.2636, 136.0827
510.7457, 137.5827
511.2278, 138.9769
511.7099, 140.1216
512.1920, 141.0057
512.6741, 141.5835
513.1563, 141.8496
513.6384, 141.9876
514.1205, 142.0443
514.6026, 142.1040
515.0847, 142.3290
515.5668, 142.9279
516.0490, 143.3867
516.5311, 143.1697
517.0132, 142.5962
517.4953, 142.3097
517.9774, 143.0286
518.4595, 143.6250
518.9417, 143.4469
519.4238, 142.4142
519.9059, 141.8884
520.3880, 142.5658
520.8701, 143.3633
521.3522, 143.6739
521.8344, 143.1048
522.3165, 142.8614
522.7986, 143.0602
523.2807, 143.4971
523.7628, 143.8387
524.2449, 144.0738
524.7271, 144.2837
525.2092, 144.4433
525.6913, 144.6118
526.1734, 145.0259
526.6555, 145.6889
527.1376, 146.4732
527.6198, 147.4209
528.1019, 148.3993
528.5840, 149.0600
529.0661, 149.3323
529.5482, 149.5504
530.0303, 150.0438
530.5125, 150.6734
530.9946, 151.2402
531.4767, 151.7186
531.9588, 152.0463
532.4409, 152.0515
532.9230, 151.8576
533.4052, 151.8264
533.8873, 152.3925
534.3694, 152.8612
534.8515, 152.8632
535.3336, 152.2579
535.8157, 151.8718
536.2979, 151.9113
536.7800, 152.0083
537.2621, 151.8325
537.7442, 151.0757
538.2263, 150.8929
538.7084, 151.4779
539.1906, 152.5610
539.6727, 153.6532
540.1548, 154.7741
540.6369, 155.8461
541.1190, 156.7534
541.6011, 157.6297
542.0833, 158.8216
542.5654, 160.3275
543.0475, 162.1136
543.5296, 164.1587
544.0117, 166.4648
544.4938, 169.1547
544.9760, 172.3525
545.4581, 175.3613
545.9402, 177.3114
546.4223, 178.8838
546.9044, 180.9492
547.3865, 184.1767
547.8687, 187.5283
548.3508, 190.7096
548.8329, 193.7536
549.3150, 196.7713
549.7971, 199.3376
550.2792, 202.3318
550.7614, 206.1697
551.2435, 210.8989
551.7256, 215.3387
552.2077, 219.2533
552.6898, 223.2034
553.1719, 227.6334
553.6541, 232.5879
554.1362, 237.7042
554.6183, 242.9609
555.1004, 248.4026
555.5825, 254.0284
556.0646, 259.8375
556.5468, 265.5127
557.0289, 270.8338
557.5110, 276.0409
557.9931, 281.4838
558.4752, 287.1608
558.9573, 292.9103
559.4395, 298.9218
559.9216, 304.8334
560.4037, 310.5610
560.8858, 316.1625
561.3679, 320.9217
561.8500, 324.4673
562.3322, 327.0781
562.8143, 329.0493
563.2964, 330.3868
563.7785, 331.1055
564.2606, 331.5212
564.7427, 331.2618
565.2249, 329.4600
565.7070, 325.5746
566.1891, 321.3563
566.6712, 317.2782
567.1533, 313.3138
567.6354, 308.7197
568.1176, 303.3945
568.5997, 297.9568
569.0818, 292.7643
569.5639, 287.7928
570.0460, 282.6125
570.5281, 277.2387
571.0103, 272.0928
571.4924, 267.5773
571.9745, 263.6374
572.4566, 260.0998
572.9387, 257.0482
573.4208, 254.2418
573.9030, 251.5852
574.3851, 249.0379
574.8672, 246.4864
575.3493, 243.6629
575.8314, 241.0469
576.3135, 238.8156
576.7957, 236.9883
577.2778, 235.4818
577.7599, 234.6367
578.2420, 233.7359
578.7241, 232.3784
579.2062, 230.3735
579.6884, 228.6978
580.1705, 227.4239
580.6526, 226.3060
581.1347, 225.0550
581.6168, 223.6667
582.0989, 222.3559
582.5811, 221.3116
583.0632, 220.0987
583.5453, 217.6981
584.0274, 214.4180
584.5095, 211.4690
584.9916, 209.9181
585.4738, 208.6609
585.9559, 206.6581
586.4380, 203.9663
586.9201, 201.1106
587.4022, 198.0540
587.8843, 195.0841
588.3665, 192.4423
588.8486, 190.3372
589.3307, 187.9838
589.8128, 185.2285
590.2949, 182.2047
590.7770, 179.0206
591.2592, 175.5111
591.7413, 172.2047
592.2234, 169.2507
592.7055, 166.4465
593.1876, 163.2705
593.6697, 159.6803
594.1519, 156.2551
594.6340, 153.3625
595.1161, 150.7744
595.5982, 147.9802
596.0803, 145.0014
596.5624, 142.0413
597.0446, 139.1800
597.5267, 136.4203
598.0088, 133.8495
598.4909, 131.4515
598.9730, 129.1556
599.4551, 127.0479
599.9373, 124.9477
600.4194, 122.7031
600.9015, 120.0446
601.3836, 117.5533
601.8657, 115.3979
602.3478, 113.4560
602.8300, 111.5361
603.3121, 109.6093
603.7942, 107.7610
604.2763, 106.0190
604.7584, 104.3613
605.2405, 102.5971
605.7227, 100.6855
606.2048, 98.88393
606.6869, 97.21702
607.1690, 95.74673
607.6511, 94.80437
608.1332, 94.38805
608.6154, 93.81577
609.0975, 92.12425
609.5796, 90.09127
610.0617, 88.83813
610.5438, 88.75637
611.0259, 88.74051
611.5081, 88.26270
611.9902, 87.49214
612.4723, 86.62183
612.9544, 85.53407
613.4365, 84.54462
613.9186, 83.70566
614.4008, 83.01041
614.8829, 82.47649
615.3650, 82.22234
615.8471, 81.88767
616.3292, 81.32800
616.8113, 80.58510
617.2935, 79.89746
617.7756, 79.24024
618.2577, 78.78115
618.7398, 78.82985
619.2219, 79.14607
619.7040, 78.96416
620.1862, 78.21456
620.6683, 77.47312
621.1504, 77.36905
621.6325, 77.50632
622.1146, 77.36520
622.5967, 76.70330
623.0789, 76.02795
623.5610, 75.55215
624.0431, 75.20025
624.5252, 74.86349
625.0073, 74.60976
625.4894, 74.26759
