##NAMES=Strengite
##RRUFFID=R070590
##IDEAL CHEMISTRY=Fe^3+^PO_4_&#183;2H_2_O
##LOCALITY=Foddersack Mountain, near Norman, Montgomery County, Arkansas, USA
##OWNER=RRUFF
##SOURCE=James Shigley
##DESCRIPTION=Radiating aggregates of bladed pale purple crystals
##STATUS=The identification of this mineral has been confirmed by single-crystal X-ray diffraction.
##URL=rruff.info/R070590
137.3161, 3157.645
137.7982, 3272.505
138.2803, 3385.873
138.7624, 3484.485
139.2445, 3563.858
139.7266, 3651.674
140.2088, 3750.383
140.6909, 3859.027
141.1730, 3972.368
141.6551, 4092.709
142.1372, 4205.128
142.6193, 4289.797
143.1015, 4387.937
143.5836, 4459.168
144.0657, 4493.537
144.5478, 4491.818
145.0299, 4493.445
145.5120, 4506.489
145.9942, 4517.383
146.4763, 4511.889
146.9584, 4469.040
147.4405, 4435.873
147.9226, 4421.724
148.4047, 4428.553
148.8869, 4446.921
149.3690, 4483.871
149.8511, 4530.984
150.3332, 4574.493
150.8153, 4606.764
151.2974, 4641.456
151.7796, 4684.560
152.2617, 4758.625
152.7438, 4809.616
153.2259, 4832.479
153.7080, 4829.214
154.1901, 4808.228
154.6722, 4769.035
155.1544, 4713.716
155.6365, 4644.454
156.1186, 4531.079
156.6007, 4433.635
157.0828, 4365.911
157.5649, 4327.973
158.0471, 4308.266
158.5292, 4316.824
159.0113, 4337.548
159.4934, 4353.548
159.9755, 4338.512
160.4576, 4334.468
160.9398, 4358.078
161.4219, 4410.862
161.9040, 4489.930
162.3861, 4601.469
162.8682, 4737.839
163.3503, 4886.137
163.8325, 5032.370
164.3146, 5191.781
164.7967, 5376.187
165.2788, 5594.868
165.7609, 5824.758
166.2430, 6053.895
166.7252, 6283.294
167.2073, 6517.726
167.6894, 6783.325
168.1715, 7044.620
168.6536, 7262.798
169.1357, 7419.647
169.6179, 7536.805
170.1000, 7620.520
170.5821, 7673.188
171.0642, 7716.764
171.5463, 7762.239
172.0284, 7809.811
172.5106, 7859.877
172.9927, 7899.193
173.4748, 7947.684
173.9569, 8028.799
174.4390, 8143.334
174.9211, 8281.961
175.4033, 8436.161
175.8854, 8607.287
176.3675, 8799.965
176.8496, 9012.183
177.3317, 9250.515
177.8138, 9522.234
178.2959, 9829.480
178.7781, 10171.54
179.2602, 10551.41
179.7423, 10970.34
180.2244, 11398.71
180.7065, 11830.20
181.1886, 12265.48
181.6708, 12705.65
182.1529, 13176.90
182.6350, 13627.81
183.1171, 13969.66
183.5992, 14200.36
184.0813, 14385.09
184.5635, 14553.20
185.0456, 14712.52
185.5277, 14884.96
186.0098, 15059.11
186.4919, 15257.14
186.9740, 15544.18
187.4562, 15925.91
187.9383, 16374.63
188.4204, 16879.02
188.9025, 17435.84
189.3846, 18000.77
189.8667, 18605.53
190.3489, 19224.94
190.8310, 19727.82
191.3131, 20129.73
191.7952, 20389.55
192.2773, 20450.75
192.7594, 20312.81
193.2416, 20001.04
193.7237, 19499.15
194.2058, 18814.99
194.6879, 18038.00
195.1700, 17148.37
195.6521, 16205.92
196.1343, 15324.68
196.6164, 14516.08
197.0985, 13760.40
197.5806, 13058.74
198.0627, 12411.56
198.5448, 11804.67
199.0269, 11231.68
199.5091, 10699.95
199.9912, 10242.18
200.4733, 9875.170
200.9554, 9542.856
201.4375, 9205.039
201.9196, 8857.676
202.4018, 8533.991
202.8839, 8239.704
203.3660, 7974.595
203.8481, 7735.753
204.3302, 7521.781
204.8123, 7336.296
205.2945, 7181.261
205.7766, 7058.129
206.2587, 6959.139
206.7408, 6884.742
207.2229, 6834.685
207.7050, 6800.491
208.1872, 6782.328
208.6693, 6779.608
209.1514, 6787.557
209.6335, 6798.985
210.1156, 6841.806
210.5977, 6927.544
211.0799, 7060.833
211.5620, 7214.126
212.0441, 7393.915
212.5262, 7590.387
213.0083, 7782.600
213.4904, 7982.830
213.9726, 8156.790
214.4547, 8295.856
214.9368, 8410.168
215.4189, 8450.843
215.9010, 8405.556
216.3831, 8288.232
216.8653, 8140.069
217.3474, 7956.453
217.8295, 7748.032
218.3116, 7512.913
218.7937, 7231.862
219.2758, 6971.206
219.7580, 6729.329
220.2401, 6509.917
220.7222, 6329.165
221.2043, 6191.741
221.6864, 6084.216
222.1685, 5995.664
222.6507, 5925.339
223.1328, 5879.172
223.6149, 5868.974
224.0970, 5892.064
224.5791, 5889.249
225.0612, 5854.753
225.5434, 5801.081
226.0255, 5737.188
226.5076, 5658.336
226.9897, 5579.588
227.4718, 5504.706
227.9539, 5435.186
228.4361, 5354.458
228.9182, 5256.354
229.4003, 5154.170
229.8824, 5063.249
230.3645, 4990.711
230.8466, 4918.159
231.3288, 4838.472
231.8109, 4748.692
232.2930, 4669.599
232.7751, 4603.326
233.2572, 4546.508
233.7393, 4493.365
234.2215, 4439.337
234.7036, 4396.789
235.1857, 4369.717
235.6678, 4360.575
236.1499, 4360.472
236.6320, 4371.562
237.1142, 4390.735
237.5963, 4411.983
238.0784, 4431.424
238.5605, 4458.373
239.0426, 4495.974
239.5247, 4543.570
240.0069, 4603.524
240.4890, 4679.366
240.9711, 4766.426
241.4532, 4855.808
241.9353, 4953.750
242.4174, 5044.892
242.8996, 5121.223
243.3817, 5176.861
243.8638, 5229.634
244.3459, 5278.596
244.8280, 5325.238
245.3101, 5375.121
245.7922, 5434.158
246.2744, 5489.178
246.7565, 5533.193
247.2386, 5566.278
247.7207, 5588.521
248.2028, 5599.524
248.6849, 5599.661
249.1671, 5590.080
249.6492, 5565.524
250.1313, 5538.275
250.6134, 5516.954
251.0955, 5504.824
251.5776, 5491.264
252.0598, 5472.415
252.5419, 5449.551
253.0240, 5438.250
253.5061, 5440.849
253.9882, 5452.146
254.4703, 5469.280
254.9525, 5495.849
255.4346, 5520.047
255.9167, 5538.323
256.3988, 5551.089
256.8809, 5569.819
257.3630, 5590.787
257.8452, 5622.205
258.3273, 5672.074
258.8094, 5744.664
259.2915, 5826.348
259.7736, 5915.479
260.2557, 6012.902
260.7379, 6109.611
261.2200, 6204.867
261.7021, 6299.988
262.1842, 6398.740
262.6663, 6503.253
263.1484, 6604.269
263.6306, 6702.628
264.1127, 6800.143
264.5948, 6872.337
265.0769, 6920.333
265.5590, 6942.767
266.0411, 6937.022
266.5233, 6898.907
267.0054, 6845.179
267.4875, 6778.081
267.9696, 6697.755
268.4517, 6608.508
268.9338, 6503.748
269.4160, 6400.042
269.8981, 6317.590
270.3802, 6260.401
270.8623, 6211.727
271.3444, 6166.301
271.8265, 6124.245
272.3087, 6086.019
272.7908, 6051.213
273.2729, 6020.805
273.7550, 5997.033
274.2371, 5979.764
274.7192, 5969.274
275.2014, 5966.739
275.6835, 5972.481
276.1656, 5979.675
276.6477, 5986.853
277.1298, 5998.296
277.6119, 6022.656
278.0940, 6061.694
278.5761, 6101.449
279.0583, 6129.028
279.5404, 6143.654
280.0225, 6193.656
280.5046, 6288.082
280.9867, 6400.680
281.4688, 6484.019
281.9510, 6535.946
282.4331, 6592.779
282.9152, 6664.845
283.3973, 6752.946
283.8794, 6876.405
284.3615, 7042.908
284.8437, 7228.474
285.3258, 7394.402
285.8079, 7539.107
286.2900, 7685.471
286.7721, 7845.578
287.2542, 8017.411
287.7364, 8182.852
288.2185, 8339.565
288.7006, 8494.164
289.1827, 8660.604
289.6648, 8837.383
290.1469, 9008.448
290.6291, 9170.408
291.1112, 9321.688
291.5933, 9454.806
292.0754, 9568.232
292.5575, 9667.474
293.0396, 9761.961
293.5218, 9851.846
294.0039, 9931.519
294.4860, 10002.02
294.9681, 10061.42
295.4502, 10104.48
295.9323, 10129.85
296.4145, 10140.50
296.8966, 10143.41
297.3787, 10136.12
297.8608, 10107.13
298.3429, 10038.99
298.8250, 9946.647
299.3072, 9862.726
299.7893, 9794.129
300.2714, 9716.984
300.7535, 9602.294
301.2356, 9456.458
301.7177, 9301.396
302.1999, 9139.779
302.6820, 8978.435
303.1641, 8823.906
303.6462, 8679.135
304.1283, 8538.420
304.6104, 8394.859
305.0926, 8252.279
305.5747, 8120.625
306.0568, 8019.793
306.5389, 7925.386
307.0210, 7807.814
307.5031, 7656.767
307.9853, 7512.633
308.4674, 7407.331
308.9495, 7332.826
309.4316, 7271.839
309.9137, 7218.334
310.3958, 7173.612
310.8780, 7139.555
311.3601, 7118.343
311.8422, 7100.918
312.3243, 7084.360
312.8064, 7067.647
313.2885, 7049.216
313.7707, 7022.461
314.2528, 6998.048
314.7349, 6984.285
315.2170, 6984.765
315.6991, 6984.099
316.1812, 6967.356
316.6634, 6946.508
317.1455, 6940.400
317.6276, 6968.903
318.1097, 7002.711
318.5918, 7026.041
319.0739, 7031.603
319.5561, 7049.295
320.0382, 7095.490
320.5203, 7156.851
321.0024, 7214.934
321.4845, 7242.729
321.9666, 7286.112
322.4487, 7365.328
322.9308, 7490.913
323.4130, 7613.943
323.8951, 7725.274
324.3772, 7831.292
324.8593, 7940.396
325.3414, 8045.291
325.8235, 8159.895
326.3057, 8292.697
326.7878, 8451.579
327.2699, 8596.792
327.7520, 8720.108
328.2341, 8833.366
328.7162, 8948.375
329.1984, 9076.605
329.6805, 9193.245
330.1626, 9290.923
330.6447, 9366.760
331.1268, 9446.382
331.6089, 9529.383
332.0911, 9616.624
332.5732, 9711.901
333.0553, 9827.619
333.5374, 9925.868
334.0195, 9994.565
334.5016, 10032.74
334.9838, 10083.14
335.4659, 10152.94
335.9480, 10225.79
336.4301, 10289.11
336.9122, 10345.53
337.3943, 10384.75
337.8765, 10401.20
338.3586, 10397.71
338.8407, 10397.28
339.3228, 10401.64
339.8049, 10404.78
340.2870, 10403.00
340.7692, 10396.73
341.2513, 10378.75
341.7334, 10344.11
342.2155, 10297.73
342.6976, 10259.54
343.1797, 10230.22
343.6619, 10203.42
344.1440, 10183.54
344.6261, 10167.15
345.1082, 10120.99
345.5903, 10029.58
346.0724, 9913.143
346.5546, 9814.402
347.0367, 9732.052
347.5188, 9645.793
348.0009, 9536.560
348.4830, 9410.432
348.9651, 9288.712
349.4473, 9179.073
349.9294, 9071.178
350.4115, 8951.240
350.8936, 8821.354
351.3757, 8693.421
351.8578, 8577.986
352.3400, 8467.567
352.8221, 8345.720
353.3042, 8204.092
353.7863, 8068.677
354.2684, 7968.214
354.7505, 7893.900
355.2327, 7823.926
355.7148, 7751.268
356.1969, 7674.591
356.6790, 7591.325
357.1611, 7498.801
357.6432, 7407.030
358.1254, 7314.129
358.6075, 7225.942
359.0896, 7153.217
359.5717, 7119.660
360.0538, 7088.519
360.5359, 7035.053
361.0181, 6949.686
361.5002, 6873.546
361.9823, 6828.271
362.4644, 6797.634
362.9465, 6760.151
363.4286, 6685.032
363.9108, 6625.493
364.3929, 6608.960
364.8750, 6645.514
365.3571, 6663.338
365.8392, 6640.226
366.3214, 6598.023
366.8035, 6558.670
367.2856, 6509.187
367.7677, 6477.748
368.2498, 6476.476
368.7319, 6507.246
369.2140, 6522.864
369.6961, 6510.874
370.1783, 6493.469
370.6604, 6487.641
371.1425, 6496.497
371.6246, 6511.383
372.1067, 6533.271
372.5888, 6561.203
373.0710, 6586.739
373.5531, 6610.050
374.0352, 6630.979
374.5173, 6648.722
374.9994, 6662.777
375.4815, 6677.055
375.9637, 6691.238
376.4458, 6706.587
376.9279, 6729.395
377.4100, 6763.226
377.8921, 6789.255
378.3742, 6795.626
378.8564, 6782.722
379.3385, 6763.523
379.8206, 6738.021
380.3027, 6708.028
380.7848, 6672.833
381.2669, 6632.809
381.7491, 6598.146
382.2312, 6576.318
382.7133, 6563.478
383.1954, 6546.208
383.6775, 6522.312
384.1596, 6502.103
384.6418, 6505.553
385.1239, 6524.185
385.6060, 6532.388
386.0881, 6505.333
386.5702, 6467.896
387.0523, 6448.873
387.5345, 6449.497
388.0166, 6462.476
388.4987, 6497.570
388.9808, 6538.649
389.4629, 6561.439
389.9450, 6532.763
390.4272, 6502.823
390.9093, 6510.293
391.3914, 6551.516
391.8735, 6583.771
392.3556, 6580.357
392.8377, 6562.654
393.3199, 6548.546
393.8020, 6542.150
394.2841, 6540.163
394.7662, 6542.884
395.2483, 6549.735
395.7304, 6558.066
396.2126, 6578.591
396.6947, 6592.445
397.1768, 6589.058
397.6589, 6546.537
398.1410, 6518.524
398.6231, 6512.045
399.1053, 6521.020
399.5874, 6532.996
400.0695, 6561.276
400.5516, 6576.350
401.0337, 6563.224
401.5158, 6508.937
401.9980, 6476.050
402.4801, 6472.877
402.9622, 6483.352
403.4443, 6484.090
403.9264, 6471.488
404.4085, 6460.203
404.8907, 6457.760
405.3728, 6463.179
405.8549, 6446.686
406.3370, 6399.583
406.8191, 6358.107
407.3012, 6368.932
407.7834, 6431.460
408.2655, 6482.625
408.7476, 6503.446
409.2297, 6505.885
409.7118, 6520.607
410.1939, 6547.493
410.6761, 6577.006
411.1582, 6596.867
411.6403, 6613.512
412.1224, 6644.393
412.6045, 6695.150
413.0866, 6756.958
413.5687, 6824.340
414.0508, 6896.370
414.5330, 6968.122
415.0151, 7033.542
415.4972, 7099.326
415.9793, 7174.897
416.4614, 7262.603
416.9435, 7351.474
417.4257, 7435.406
417.9078, 7514.539
418.3899, 7590.378
418.8720, 7654.567
419.3541, 7722.093
419.8362, 7800.781
420.3184, 7891.514
420.8005, 7984.729
421.2826, 8090.984
421.7647, 8191.271
422.2468, 8266.360
422.7289, 8283.497
423.2111, 8309.460
423.6932, 8360.642
424.1753, 8435.155
424.6574, 8501.624
425.1395, 8563.602
425.6216, 8614.396
426.1038, 8644.828
426.5859, 8623.655
427.0680, 8650.122
427.5501, 8741.008
428.0322, 8877.268
428.5143, 9013.548
428.9965, 9155.790
429.4786, 9285.317
429.9607, 9388.829
430.4428, 9463.720
430.9249, 9549.543
431.4070, 9643.166
431.8892, 9754.208
432.3713, 9907.829
432.8534, 10102.09
433.3355, 10278.23
433.8176, 10401.59
434.2997, 10496.49
434.7819, 10627.91
435.2640, 10796.44
435.7461, 10976.81
436.2282, 11152.06
436.7103, 11323.65
437.1924, 11491.41
437.6746, 11656.50
438.1567, 11819.01
438.6388, 11984.27
439.1209, 12148.90
439.6030, 12299.00
440.0851, 12420.97
440.5673, 12528.71
441.0494, 12634.04
441.5315, 12744.65
442.0136, 12839.26
442.4957, 12915.27
442.9778, 12968.21
443.4600, 12990.68
443.9421, 12974.93
444.4242, 12932.69
444.9063, 12867.29
445.3884, 12779.48
445.8705, 12667.19
446.3527, 12539.28
446.8348, 12382.71
447.3169, 12185.16
447.7990, 11929.83
448.2811, 11658.40
448.7632, 11365.80
449.2454, 11058.08
449.7275, 10772.74
450.2096, 10522.16
450.6917, 10264.86
451.1738, 9972.144
451.6559, 9636.593
452.1381, 9309.452
452.6202, 8991.534
453.1023, 8691.654
453.5844, 8432.338
454.0665, 8212.190
454.5486, 8004.148
455.0308, 7804.462
455.5129, 7607.131
455.9950, 7392.610
456.4771, 7154.482
456.9592, 6928.922
457.4413, 6746.491
457.9234, 6599.763
458.4055, 6468.106
458.8877, 6353.711
459.3698, 6245.243
459.8519, 6122.441
460.3340, 5990.748
460.8161, 5880.417
461.2982, 5822.075
461.7804, 5785.132
462.2625, 5743.142
462.7446, 5684.508
463.2267, 5632.964
463.7088, 5600.264
464.1909, 5580.502
464.6731, 5561.988
465.1552, 5541.147
465.6373, 5521.710
466.1194, 5499.129
466.6015, 5464.524
467.0836, 5465.473
467.5658, 5526.723
468.0479, 5606.257
468.5300, 5662.767
469.0121, 5685.978
469.4942, 5706.912
469.9763, 5726.674
470.4585, 5747.868
470.9406, 5785.524
471.4227, 5841.054
471.9048, 5908.417
472.3869, 5990.776
472.8690, 6086.118
473.3512, 6164.360
473.8333, 6217.774
474.3154, 6264.366
474.7975, 6334.801
475.2796, 6425.576
475.7617, 6514.563
476.2439, 6583.871
476.7260, 6647.009
477.2081, 6728.423
477.6902, 6828.776
478.1723, 6935.785
478.6544, 7042.576
479.1366, 7148.203
479.6187, 7250.761
480.1008, 7348.575
480.5829, 7444.115
481.0650, 7543.833
481.5471, 7644.091
482.0293, 7732.305
482.5114, 7800.510
482.9935, 7857.068
483.4756, 7906.674
483.9577, 7953.389
484.4398, 7985.438
484.9220, 7998.585
485.4041, 7997.804
485.8862, 7988.589
486.3683, 7970.056
486.8504, 7945.199
487.3326, 7917.427
487.8147, 7886.122
488.2968, 7832.625
488.7789, 7751.559
489.2610, 7661.059
489.7431, 7576.989
490.2253, 7499.241
490.7074, 7418.791
491.1895, 7338.487
491.6716, 7247.110
492.1537, 7117.540
492.6358, 6952.497
493.1180, 6783.912
493.6001, 6625.874
494.0822, 6475.664
494.5643, 6326.187
495.0464, 6178.667
495.5285, 6027.120
496.0107, 5861.735
496.4928, 5691.893
496.9749, 5532.377
497.4570, 5397.154
497.9391, 5263.156
498.4212, 5108.250
498.9034, 4939.881
499.3855, 4789.168
499.8676, 4679.213
500.3497, 4579.425
500.8318, 4472.833
501.3139, 4355.975
501.7961, 4233.475
502.2781, 4088.513
502.7603, 3943.827
503.2424, 3834.548
503.7245, 3784.655
504.2066, 3730.200
504.6887, 3654.423
505.1708, 3559.039
505.6530, 3467.659
506.1351, 3379.010
506.6172, 3297.817
507.0993, 3228.356
507.5814, 3170.901
508.0635, 3115.964
508.5457, 3063.340
509.0278, 3012.045
509.5099, 2960.543
509.9920, 2909.333
510.4741, 2859.542
510.9562, 2814.448
511.4384, 2770.399
511.9205, 2719.376
512.4026, 2660.937
512.8847, 2609.630
513.3668, 2580.065
513.8489, 2561.744
514.3311, 2542.864
514.8132, 2521.207
515.2953, 2496.961
515.7774, 2466.601
516.2595, 2433.168
516.7416, 2405.843
517.2238, 2392.351
517.7059, 2380.067
518.1880, 2363.644
518.6701, 2341.122
519.1522, 2321.070
519.6343, 2303.971
520.1165, 2288.924
520.5986, 2275.294
521.0807, 2263.713
521.5628, 2251.087
522.0449, 2235.586
522.5270, 2219.016
523.0092, 2210.097
523.4913, 2209.762
523.9734, 2208.100
524.4555, 2196.013
524.9376, 2176.919
525.4197, 2165.160
525.9019, 2162.744
526.3840, 2162.480
526.8661, 2154.781
527.3482, 2143.162
527.8303, 2135.913
528.3124, 2143.201
528.7946, 2150.356
529.2767, 2143.487
529.7588, 2125.065
530.2409, 2110.008
530.7230, 2103.895
531.2051, 2104.007
531.6873, 2108.890
532.1694, 2119.558
532.6515, 2132.251
533.1336, 2153.708
533.6157, 2174.578
534.0978, 2180.918
534.5800, 2164.431
535.0621, 2145.645
535.5442, 2125.495
536.0263, 2105.188
536.5084, 2100.218
536.9905, 2114.870
537.4727, 2132.888
537.9548, 2144.058
538.4369, 2148.532
538.9190, 2145.449
539.4011, 2131.717
539.8832, 2118.921
540.3654, 2130.773
540.8475, 2160.061
541.3296, 2178.543
541.8117, 2162.948
542.2938, 2136.298
542.7759, 2123.611
543.2581, 2124.535
543.7402, 2133.414
544.2223, 2153.926
544.7044, 2177.010
545.1865, 2194.823
545.6686, 2203.536
546.1508, 2211.295
546.6329, 2218.931
547.1150, 2227.294
547.5971, 2237.786
548.0792, 2248.092
548.5613, 2263.545
549.0435, 2286.981
549.5256, 2318.176
550.0077, 2346.411
550.4898, 2371.201
550.9719, 2394.052
551.4540, 2415.225
551.9362, 2434.681
552.4183, 2454.641
552.9004, 2474.678
553.3825, 2496.774
553.8646, 2524.262
554.3467, 2556.775
554.8289, 2592.219
555.3110, 2633.058
555.7931, 2674.412
556.2752, 2707.230
556.7573, 2732.480
557.2394, 2757.713
557.7216, 2787.313
558.2037, 2819.430
558.6858, 2851.861
559.1679, 2880.651
559.6500, 2916.136
560.1321, 2963.014
560.6143, 3018.469
561.0964, 3077.274
561.5785, 3155.094
562.0606, 3218.178
562.5427, 3254.448
563.0248, 3265.649
563.5070, 3288.659
563.9891, 3330.135
564.4712, 3371.194
564.9533, 3401.290
565.4354, 3420.298
565.9175, 3430.139
566.3997, 3430.392
566.8818, 3423.180
567.3639, 3406.756
567.8460, 3383.856
568.3281, 3368.120
568.8102, 3371.032
569.2924, 3379.116
569.7744, 3374.614
570.2565, 3358.692
570.7386, 3338.629
571.2208, 3319.423
571.7029, 3297.467
572.1850, 3268.223
572.6671, 3227.345
573.1492, 3191.845
573.6313, 3169.693
574.1135, 3154.830
574.5956, 3140.587
575.0777, 3128.008
575.5598, 3113.392
576.0419, 3093.433
576.5240, 3070.787
577.0062, 3059.391
577.4883, 3064.567
577.9704, 3067.923
578.4525, 3057.168
578.9346, 3032.642
579.4167, 3016.518
579.8989, 3009.455
580.3810, 3008.271
580.8631, 3012.350
581.3452, 3019.863
581.8273, 3024.499
582.3094, 3021.544
582.7916, 3019.495
583.2737, 3029.415
583.7558, 3047.684
584.2379, 3063.771
584.7200, 3073.563
585.2021, 3078.934
585.6843, 3080.460
586.1664, 3077.981
586.6485, 3073.469
587.1306, 3066.953
587.6127, 3058.660
588.0948, 3048.730
588.5770, 3036.143
589.0591, 3023.627
589.5412, 3010.818
590.0233, 2998.418
590.5054, 2988.782
590.9875, 2982.526
591.4697, 2975.059
591.9518, 2965.895
592.4339, 2954.085
592.9160, 2934.873
593.3981, 2908.188
593.8802, 2879.708
594.3624, 2855.090
594.8445, 2831.029
595.3266, 2800.514
595.8087, 2760.408
596.2908, 2721.668
596.7729, 2691.746
597.2551, 2667.937
597.7372, 2645.734
598.2193, 2627.514
598.7014, 2606.995
599.1835, 2580.650
599.6656, 2549.461
600.1478, 2521.821
600.6299, 2499.010
601.1120, 2478.704
601.5941, 2461.306
602.0762, 2448.565
602.5583, 2427.552
603.0405, 2395.646
603.5226, 2361.669
604.0047, 2333.161
604.4868, 2310.406
604.9689, 2295.177
605.4510, 2291.133
605.9332, 2288.781
606.4153, 2272.436
606.8974, 2245.888
607.3795, 2220.852
607.8616, 2206.013
608.3438, 2193.445
608.8259, 2176.075
609.3080, 2153.562
609.7901, 2134.862
610.2722, 2127.091
610.7543, 2121.396
611.2365, 2112.238
611.7186, 2098.991
612.2007, 2081.568
612.6828, 2054.608
613.1649, 2026.954
613.6470, 2014.223
614.1292, 2021.230
614.6113, 2023.720
615.0934, 2015.716
615.5755, 1999.088
616.0576, 1977.544
616.5397, 1951.036
617.0219, 1926.029
617.5040, 1905.793
617.9861, 1890.264
618.4682, 1881.389
618.9503, 1879.820
619.4324, 1876.458
619.9146, 1859.574
620.3967, 1839.768
620.8788, 1829.023
621.3609, 1842.013
621.8430, 1848.203
622.3251, 1834.839
622.8073, 1809.692
623.2894, 1790.242
623.7715, 1781.061
624.2536, 1771.611
624.7357, 1758.683
625.2178, 1742.796
625.7000, 1730.117
626.1821, 1720.379
626.6642, 1714.556
627.1463, 1715.885
627.6284, 1722.547
628.1105, 1724.311
628.5927, 1720.123
629.0748, 1713.087
629.5569, 1705.803
630.0390, 1697.947
630.5211, 1688.993
631.0032, 1677.947
631.4854, 1666.735
631.9675, 1656.434
632.4496, 1646.772
632.9317, 1637.192
633.4138, 1628.920
633.8959, 1619.324
634.3781, 1605.391
