##NAMES=Strengite
##RRUFFID=R070590
##IDEAL CHEMISTRY=Fe^3+^PO_4_&#183;2H_2_O
##LOCALITY=Foddersack Mountain, near Norman, Montgomery County, Arkansas, USA
##OWNER=RRUFF
##SOURCE=James Shigley
##DESCRIPTION=Radiating aggregates of bladed pale purple crystals
##STATUS=The identification of this mineral has been confirmed by single-crystal X-ray diffraction.
##URL=rruff.info/R070590
89.85687, 10037.56
90.33899, 10146.73
90.82111, 10268.41
91.30322, 10393.23
91.78534, 10529.06
92.26746, 10690.39
92.74957, 10871.81
93.23169, 11093.70
93.71381, 11388.66
94.19592, 11716.20
94.67804, 12033.63
95.16016, 12319.45
95.64227, 12576.24
96.12439, 12710.04
96.60651, 12670.64
97.08862, 12563.83
97.57074, 12400.75
98.05286, 12194.83
98.53497, 11971.18
99.01709, 11754.92
99.49921, 11539.22
99.98132, 11357.06
100.4634, 11222.50
100.9456, 11113.34
101.4277, 11003.83
101.9098, 10833.84
102.3919, 10431.54
102.8740, 10095.59
103.3561, 9814.774
103.8383, 9565.813
104.3204, 9332.928
104.8025, 9119.186
105.2846, 8949.374
105.7667, 8849.766
106.2488, 8789.007
106.7310, 8709.822
107.2131, 8595.837
107.6952, 8475.962
108.1773, 8383.447
108.6594, 8323.578
109.1415, 8265.813
109.6237, 8192.729
110.1058, 8111.524
110.5879, 8031.192
111.0700, 7950.990
111.5521, 7873.393
112.0342, 7813.000
112.5164, 7775.542
112.9985, 7750.716
113.4806, 7739.120
113.9627, 7736.839
114.4448, 7735.284
114.9269, 7721.998
115.4091, 7685.977
115.8912, 7680.501
116.3733, 7707.067
116.8554, 7756.661
117.3375, 7824.906
117.8196, 7911.022
118.3018, 8016.485
118.7839, 8144.445
119.2660, 8308.659
119.7481, 8480.347
120.2302, 8652.064
120.7123, 8832.180
121.1945, 9044.301
121.6766, 9305.441
122.1587, 9585.465
122.6408, 9761.193
123.1229, 9849.916
123.6050, 9849.639
124.0872, 9741.681
124.5693, 9537.660
125.0514, 9273.417
125.5335, 8947.587
126.0156, 8576.516
126.4977, 8250.157
126.9799, 7967.363
127.4620, 7729.567
127.9441, 7549.521
128.4262, 7433.048
128.9083, 7339.088
129.3905, 7231.212
129.8726, 7119.955
130.3547, 7034.157
130.8368, 6995.649
131.3189, 6992.919
131.8010, 6986.514
132.2832, 6967.792
132.7653, 6954.408
133.2474, 6949.970
133.7295, 6956.529
134.2116, 6981.528
134.6937, 7039.324
135.1759, 7135.908
135.6580, 7219.707
136.1401, 7263.471
136.6222, 7309.874
137.1043, 7380.815
137.5864, 7480.007
138.0686, 7595.827
138.5507, 7710.747
139.0328, 7826.042
139.5149, 7938.376
139.9970, 8047.143
140.4791, 8153.561
140.9613, 8258.457
141.4434, 8361.639
141.9255, 8464.858
142.4076, 8573.409
142.8897, 8705.760
143.3718, 8822.810
143.8540, 8921.587
144.3361, 9001.683
144.8182, 9063.870
145.3003, 9109.620
145.7824, 9137.491
146.2645, 9133.775
146.7467, 9077.616
147.2288, 9017.252
147.7109, 8966.262
148.1930, 8927.300
148.6751, 8905.186
149.1572, 8903.533
149.6394, 8925.733
150.1215, 8966.771
150.6036, 9048.266
151.0857, 9137.510
151.5678, 9202.516
152.0499, 9238.825
152.5321, 9259.521
153.0142, 9281.754
153.4963, 9303.082
153.9784, 9298.242
154.4605, 9259.325
154.9426, 9188.397
155.4248, 9085.359
155.9069, 8937.883
156.3890, 8775.478
156.8711, 8621.602
157.3532, 8475.656
157.8354, 8340.824
158.3175, 8215.818
158.7996, 8101.062
159.2817, 8007.872
159.7638, 7945.331
160.2459, 7903.184
160.7281, 7873.625
161.2102, 7856.025
161.6923, 7857.008
162.1744, 7883.655
162.6565, 7935.797
163.1386, 8017.365
163.6208, 8126.509
164.1029, 8263.380
164.5850, 8431.809
165.0671, 8633.551
165.5492, 8862.408
166.0313, 9108.327
166.5135, 9373.479
166.9956, 9653.722
167.4777, 9965.528
167.9598, 10282.71
168.4419, 10580.40
168.9240, 10847.80
169.4062, 11083.84
169.8883, 11288.05
170.3704, 11460.63
170.8525, 11596.99
171.3346, 11684.93
171.8167, 11736.08
172.2989, 11766.68
172.7810, 11785.64
173.2631, 11793.31
173.7452, 11811.39
174.2273, 11828.83
174.7094, 11863.81
175.1916, 11911.09
175.6737, 11978.47
176.1558, 12088.00
176.6379, 12257.13
177.1200, 12493.67
177.6021, 12782.28
178.0843, 13115.01
178.5664, 13501.42
179.0485, 13957.99
179.5306, 14484.31
180.0127, 15058.12
180.4948, 15681.42
180.9770, 16358.54
181.4591, 16982.52
181.9412, 17550.41
182.4233, 18054.73
182.9054, 18492.78
183.3875, 18864.30
183.8697, 19159.60
184.3518, 19330.87
184.8339, 19396.16
185.3160, 19447.45
185.7981, 19492.76
186.2802, 19547.04
186.7624, 19642.53
187.2445, 19776.39
187.7266, 19974.12
188.2087, 20253.21
188.6908, 20609.68
189.1729, 21020.23
189.6551, 21516.95
190.1372, 22080.60
190.6193, 22575.13
191.1014, 23005.31
191.5835, 23306.61
192.0656, 23458.01
192.5478, 23456.94
193.0299, 23289.47
193.5120, 22922.66
193.9941, 22345.94
194.4762, 21675.21
194.9583, 20851.89
195.4405, 19977.89
195.9226, 19088.08
196.4047, 18190.37
196.8868, 17319.26
197.3689, 16522.84
197.8510, 15807.71
198.3332, 15141.04
198.8153, 14516.52
199.2974, 13934.51
199.7795, 13401.02
200.2616, 12914.78
200.7438, 12473.76
201.2259, 12067.25
201.7080, 11693.77
202.1901, 11364.43
202.6722, 11088.03
203.1543, 10843.12
203.6365, 10607.10
204.1186, 10370.31
204.6007, 10143.58
205.0828, 9957.471
205.5649, 9840.244
206.0470, 9733.494
206.5292, 9621.044
207.0113, 9517.693
207.4934, 9439.536
207.9755, 9395.431
208.4576, 9383.936
208.9397, 9399.098
209.4219, 9437.358
209.9040, 9509.253
210.3861, 9625.546
210.8682, 9775.656
211.3503, 9943.727
211.8324, 10120.68
212.3146, 10308.42
212.7967, 10524.82
213.2788, 10809.19
213.7609, 11078.60
214.2430, 11338.45
214.7251, 11568.31
215.2073, 11728.84
215.6894, 11794.44
216.1715, 11765.86
216.6536, 11667.43
217.1357, 11487.28
217.6178, 11267.79
218.1000, 11011.15
218.5821, 10725.81
219.0642, 10430.34
219.5463, 10132.14
220.0284, 9833.820
220.5105, 9561.788
220.9927, 9315.109
221.4748, 9092.054
221.9569, 8885.683
222.4390, 8698.760
222.9211, 8545.891
223.4032, 8442.928
223.8854, 8392.365
224.3675, 8345.348
224.8496, 8309.345
225.3317, 8271.482
225.8138, 8223.699
226.2959, 8165.652
226.7781, 8097.780
227.2602, 8019.477
227.7423, 7929.974
228.2244, 7836.766
228.7065, 7737.493
229.1886, 7635.918
229.6708, 7532.446
230.1529, 7426.520
230.6350, 7327.477
231.1171, 7247.271
231.5992, 7182.351
232.0813, 7115.602
232.5635, 7037.013
233.0456, 6958.417
233.5277, 6894.652
234.0098, 6847.619
234.4919, 6809.064
234.9740, 6770.141
235.4562, 6733.955
235.9383, 6713.186
236.4204, 6716.757
236.9025, 6735.887
237.3846, 6756.653
237.8667, 6776.700
238.3489, 6804.637
238.8310, 6846.407
239.3131, 6900.701
239.7952, 6968.878
240.2773, 7059.785
240.7595, 7163.106
241.2416, 7258.456
241.7237, 7340.211
242.2058, 7427.071
242.6879, 7537.407
243.1700, 7663.222
243.6522, 7787.845
244.1343, 7918.055
244.6164, 8041.502
245.0985, 8124.934
245.5806, 8153.779
246.0627, 8171.044
246.5449, 8207.743
247.0270, 8254.783
247.5091, 8291.803
247.9912, 8308.442
248.4733, 8307.852
248.9554, 8297.811
249.4376, 8275.040
249.9197, 8248.602
250.4018, 8226.051
250.8839, 8204.412
251.3660, 8176.569
251.8481, 8131.795
252.3303, 8077.799
252.8124, 8041.096
253.2945, 8024.724
253.7766, 8022.563
254.2587, 8036.832
254.7408, 8060.693
255.2230, 8080.616
255.7051, 8084.985
256.1872, 8079.431
256.6693, 8083.402
257.1514, 8089.109
257.6335, 8119.693
258.1157, 8185.062
258.5978, 8278.048
259.0799, 8386.339
259.5620, 8507.025
260.0441, 8637.101
260.5262, 8766.387
261.0084, 8894.034
261.4905, 9023.517
261.9726, 9157.745
262.4547, 9293.966
262.9368, 9428.184
263.4189, 9560.355
263.9011, 9688.237
264.3832, 9800.923
264.8653, 9913.168
265.3474, 9982.888
265.8295, 10001.35
266.3116, 9974.287
266.7938, 9908.507
267.2759, 9801.194
267.7580, 9660.940
268.2401, 9519.347
268.7222, 9380.896
269.2043, 9233.349
269.6865, 9057.645
270.1686, 8875.413
270.6507, 8717.948
271.1328, 8604.447
271.6149, 8524.411
272.0970, 8443.444
272.5792, 8350.030
273.0613, 8276.434
273.5434, 8239.229
274.0255, 8222.084
274.5076, 8204.700
274.9897, 8176.349
275.4719, 8142.467
275.9540, 8118.632
276.4361, 8106.714
276.9182, 8102.912
277.4003, 8102.142
277.8824, 8108.512
278.3646, 8128.124
278.8467, 8164.999
279.3288, 8212.998
279.8109, 8254.588
280.2930, 8272.020
280.7751, 8319.044
281.2573, 8424.544
281.7394, 8553.601
282.2215, 8668.369
282.7036, 8750.924
283.1857, 8824.351
283.6678, 8936.958
284.1500, 9100.016
284.6321, 9279.757
285.1142, 9475.586
285.5963, 9679.454
286.0784, 9886.119
286.5605, 10093.61
287.0427, 10303.71
287.5248, 10516.54
288.0069, 10731.43
288.4890, 10956.00
288.9711, 11206.14
289.4532, 11457.89
289.9354, 11695.37
290.4175, 11914.26
290.8996, 12118.11
291.3817, 12313.06
291.8638, 12497.82
292.3459, 12675.92
292.8281, 12854.68
293.3102, 13023.23
293.7923, 13173.91
294.2744, 13305.13
294.7565, 13418.65
295.2386, 13514.59
295.7208, 13590.65
296.2029, 13659.54
296.6850, 13748.96
297.1671, 13811.51
297.6492, 13815.16
298.1313, 13758.39
298.6135, 13668.59
299.0956, 13573.19
299.5777, 13475.09
300.0598, 13350.89
300.5419, 13187.47
301.0240, 13004.75
301.5062, 12808.11
301.9883, 12599.12
302.4704, 12383.02
302.9525, 12169.61
303.4347, 11959.89
303.9168, 11714.76
304.3989, 11384.96
304.8810, 11067.99
305.3631, 10812.78
305.8452, 10610.28
306.3274, 10422.29
306.8095, 10221.86
307.2916, 10010.53
307.7737, 9808.581
308.2558, 9603.007
308.7379, 9427.686
309.2201, 9310.893
309.7022, 9231.675
310.1843, 9145.165
310.6664, 9016.501
311.1485, 8861.386
311.6306, 8738.433
312.1128, 8659.230
312.5949, 8593.815
313.0770, 8537.623
313.5591, 8483.262
314.0412, 8417.654
314.5233, 8326.361
315.0055, 8227.246
315.4876, 8160.446
315.9697, 8137.350
316.4518, 8115.414
316.9339, 8063.762
317.4160, 8006.904
317.8982, 7974.602
318.3803, 7981.098
318.8624, 8007.377
319.3445, 8028.247
319.8266, 8042.662
320.3087, 8057.682
320.7909, 8072.902
321.2730, 8091.914
321.7551, 8117.175
322.2372, 8147.570
322.7193, 8189.227
323.2014, 8251.003
323.6836, 8332.705
324.1657, 8419.184
324.6478, 8507.917
325.1299, 8597.702
325.6120, 8686.759
326.0941, 8775.012
326.5763, 8863.787
327.0584, 8948.514
327.5405, 9032.576
328.0226, 9136.257
328.5047, 9278.296
328.9868, 9423.079
329.4690, 9530.979
329.9511, 9602.386
330.4332, 9674.583
330.9153, 9775.941
331.3974, 9891.178
331.8795, 9979.796
332.3617, 10028.39
332.8438, 10067.04
333.3259, 10124.77
333.8080, 10198.30
334.2901, 10274.59
334.7722, 10360.37
335.2544, 10442.15
335.7365, 10495.23
336.2186, 10514.31
336.7007, 10532.20
337.1828, 10578.59
337.6649, 10647.74
338.1471, 10707.23
338.6292, 10752.12
339.1113, 10787.26
339.5934, 10816.68
340.0755, 10840.28
340.5576, 10855.75
341.0398, 10860.81
341.5219, 10855.77
342.0040, 10846.29
342.4861, 10814.67
342.9682, 10795.86
343.4503, 10822.74
343.9325, 10879.17
344.4146, 10917.58
344.8967, 10915.51
345.3788, 10880.68
345.8609, 10834.98
346.3430, 10783.63
346.8252, 10716.88
347.3073, 10624.71
347.7894, 10517.35
348.2715, 10409.78
348.7536, 10307.60
349.2357, 10207.30
349.7179, 10104.22
350.2000, 9999.030
350.6821, 9888.097
351.1642, 9770.774
351.6463, 9648.514
352.1284, 9520.372
352.6106, 9387.347
353.0927, 9252.520
353.5748, 9119.772
354.0569, 8988.255
354.5390, 8863.881
355.0211, 8747.691
355.5033, 8636.795
355.9854, 8529.546
356.4675, 8426.344
356.9496, 8328.804
357.4317, 8237.809
357.9138, 8153.249
358.3960, 8080.443
358.8781, 8027.752
359.3602, 7976.994
359.8423, 7925.841
360.3244, 7872.626
360.8065, 7814.589
361.2887, 7748.579
361.7708, 7678.739
362.2529, 7620.786
362.7350, 7575.344
363.2171, 7543.389
363.6992, 7535.762
364.1814, 7535.631
364.6635, 7522.922
365.1456, 7490.399
365.6277, 7451.805
366.1098, 7431.333
366.5919, 7432.472
367.0741, 7443.579
367.5562, 7479.533
368.0383, 7512.804
368.5204, 7519.847
369.0025, 7500.304
369.4846, 7479.119
369.9668, 7484.378
370.4489, 7518.168
370.9310, 7548.938
371.4131, 7565.608
371.8952, 7589.466
372.3773, 7634.487
372.8595, 7696.059
373.3416, 7759.272
373.8237, 7818.204
374.3058, 7871.507
374.7879, 7911.806
375.2701, 7933.950
375.7522, 7953.646
376.2343, 7979.485
376.7164, 8008.548
377.1985, 8037.082
377.6806, 8067.854
378.1628, 8093.040
378.6449, 8101.141
379.1270, 8091.491
379.6091, 8075.198
380.0912, 8060.670
380.5733, 8039.069
381.0555, 7997.051
381.5376, 7927.907
382.0197, 7853.918
382.5018, 7786.717
382.9839, 7725.888
383.4660, 7671.379
383.9482, 7624.354
384.4303, 7581.046
384.9124, 7533.662
385.3945, 7481.154
385.8766, 7436.104
386.3588, 7404.587
386.8409, 7381.422
387.3230, 7362.200
387.8051, 7346.191
388.2872, 7328.728
388.7693, 7305.689
389.2515, 7276.304
389.7336, 7243.512
390.2157, 7190.417
390.6978, 7148.452
391.1799, 7139.547
391.6620, 7159.263
392.1442, 7190.783
392.6263, 7225.639
393.1084, 7262.184
393.5905, 7288.725
394.0726, 7300.328
394.5547, 7308.761
395.0369, 7319.557
395.5190, 7327.304
396.0011, 7319.871
396.4832, 7293.073
396.9653, 7262.595
397.4474, 7261.044
397.9296, 7322.183
398.4117, 7350.526
398.8938, 7320.137
399.3759, 7280.777
399.8580, 7268.410
400.3401, 7284.407
400.8223, 7304.686
401.3044, 7304.932
401.7865, 7283.582
402.2686, 7260.262
402.7507, 7224.752
403.2328, 7198.351
403.7150, 7192.522
404.1971, 7200.673
404.6792, 7209.743
405.1613, 7213.220
405.6434, 7211.672
406.1255, 7203.836
406.6077, 7182.565
407.0898, 7173.285
407.5719, 7190.061
408.0540, 7220.497
408.5361, 7254.025
409.0182, 7288.595
409.5004, 7325.060
409.9825, 7364.002
410.4646, 7405.451
410.9467, 7450.453
411.4288, 7496.509
411.9109, 7550.509
412.3931, 7619.899
412.8752, 7704.241
413.3573, 7792.258
413.8394, 7880.633
414.3215, 7969.364
414.8036, 8058.917
415.2858, 8149.850
415.7679, 8236.594
416.2500, 8309.148
416.7321, 8371.029
417.2142, 8452.480
417.6964, 8571.801
418.1785, 8695.058
418.6606, 8806.040
419.1427, 8903.912
419.6248, 8990.229
420.1069, 9065.960
420.5891, 9130.044
421.0712, 9177.756
421.5533, 9204.703
422.0354, 9222.806
422.5175, 9230.725
422.9996, 9231.552
423.4818, 9226.443
423.9639, 9216.430
424.4460, 9205.746
424.9281, 9199.783
425.4102, 9199.627
425.8923, 9200.763
426.3745, 9200.311
426.8566, 9203.750
427.3387, 9218.185
427.8208, 9239.011
428.3029, 9254.202
428.7850, 9253.898
429.2672, 9242.265
429.7493, 9238.521
430.2314, 9230.807
430.7135, 9253.003
431.1956, 9327.363
431.6777, 9424.111
432.1599, 9509.453
432.6420, 9572.110
433.1241, 9633.619
433.6062, 9723.316
434.0883, 9843.058
434.5704, 9961.294
435.0526, 10070.92
435.5347, 10178.47
436.0168, 10288.89
436.4989, 10401.90
436.9810, 10515.89
437.4631, 10629.99
437.9453, 10744.42
438.4274, 10864.09
438.9095, 10991.34
439.3916, 11108.67
439.8737, 11201.64
440.3558, 11273.55
440.8380, 11341.07
441.3201, 11406.77
441.8022, 11466.31
442.2843, 11523.71
442.7664, 11573.79
443.2485, 11603.61
443.7307, 11608.92
444.2128, 11589.16
444.6949, 11542.62
445.1770, 11464.93
445.6591, 11366.73
446.1412, 11244.07
446.6234, 11102.90
447.1055, 10947.04
447.5876, 10777.28
448.0697, 10593.02
448.5518, 10393.33
449.0339, 10176.99
449.5161, 9954.569
449.9982, 9723.308
450.4803, 9488.342
450.9624, 9245.342
451.4445, 9000.460
451.9266, 8764.311
452.4088, 8541.443
452.8909, 8328.154
453.3730, 8113.764
453.8551, 7894.671
454.3372, 7686.583
454.8193, 7493.711
455.3015, 7312.461
455.7836, 7137.512
456.2657, 6970.567
456.7478, 6819.922
457.2299, 6697.009
457.7120, 6597.322
458.1942, 6506.154
458.6763, 6426.335
459.1584, 6345.605
459.6405, 6249.424
460.1226, 6145.857
460.6047, 6053.188
461.0869, 5973.729
461.5690, 5907.114
462.0511, 5850.057
462.5332, 5804.726
463.0153, 5781.108
463.4974, 5786.023
463.9796, 5808.290
464.4617, 5826.864
464.9438, 5839.125
465.4259, 5855.196
465.9080, 5872.926
466.3902, 5897.019
466.8723, 5933.059
467.3544, 5980.549
467.8365, 6034.279
468.3186, 6090.500
468.8008, 6149.003
469.2829, 6205.044
469.7650, 6243.483
470.2471, 6296.502
470.7292, 6379.506
471.2113, 6478.041
471.6935, 6572.324
472.1756, 6654.688
472.6577, 6733.898
473.1398, 6823.327
473.6219, 6923.373
474.1040, 7032.613
474.5862, 7156.597
475.0683, 7285.860
475.5504, 7415.592
476.0325, 7545.658
476.5146, 7675.873
476.9967, 7805.046
477.4789, 7935.042
477.9610, 8069.067
478.4431, 8206.772
478.9252, 8352.642
479.4073, 8517.063
479.8894, 8689.566
480.3716, 8849.714
480.8537, 9000.036
481.3358, 9132.454
481.8179, 9240.539
482.3000, 9328.228
482.7821, 9397.586
483.2643, 9447.657
483.7464, 9499.395
484.2285, 9585.209
484.7106, 9724.247
485.1927, 9809.498
485.6748, 9815.603
486.1570, 9795.443
486.6391, 9777.158
487.1212, 9756.266
487.6033, 9714.344
488.0854, 9639.363
488.5675, 9539.822
489.0497, 9445.549
489.5318, 9372.711
490.0139, 9275.111
490.4960, 9140.560
490.9781, 8987.952
491.4602, 8830.500
491.9424, 8670.347
492.4245, 8506.835
492.9066, 8344.272
493.3887, 8179.879
493.8708, 7990.375
494.3529, 7762.561
494.8351, 7536.802
495.3172, 7340.893
495.7993, 7162.923
496.2814, 6981.468
496.7635, 6786.147
497.2456, 6595.446
497.7278, 6429.658
498.2099, 6281.710
498.6920, 6125.332
499.1741, 5947.879
499.6562, 5768.359
500.1383, 5616.744
500.6205, 5503.481
501.1026, 5376.362
501.5847, 5210.445
502.0668, 5047.299
502.5489, 4923.151
503.0310, 4829.938
503.5132, 4733.992
503.9953, 4612.521
504.4774, 4473.253
504.9595, 4355.598
505.4416, 4273.584
505.9237, 4193.210
506.4059, 4107.215
506.8880, 4023.471
507.3701, 3950.768
507.8522, 3889.632
508.3343, 3831.262
508.8164, 3764.139
509.2986, 3690.081
509.7807, 3630.003
510.2628, 3591.082
510.7449, 3553.677
511.2270, 3505.464
511.7091, 3451.343
512.1913, 3399.193
512.6734, 3351.026
513.1555, 3304.864
513.6376, 3258.255
514.1198, 3212.111
514.6019, 3168.060
515.0840, 3125.794
515.5661, 3088.549
516.0482, 3061.011
516.5303, 3045.361
517.0125, 3031.043
517.4946, 3021.132
517.9767, 3009.469
518.4588, 2991.815
518.9409, 2969.079
519.4230, 2944.057
519.9052, 2917.976
520.3873, 2892.044
520.8694, 2869.777
521.3515, 2848.317
521.8336, 2836.567
522.3157, 2848.225
522.7979, 2858.747
523.2800, 2847.737
523.7621, 2816.337
524.2442, 2783.936
524.7263, 2764.527
525.2084, 2756.292
525.6906, 2753.961
526.1727, 2759.900
526.6548, 2763.635
527.1369, 2758.792
527.6190, 2748.777
528.1011, 2738.555
528.5833, 2727.313
529.0654, 2718.952
529.5475, 2717.014
530.0296, 2718.966
530.5117, 2720.506
530.9938, 2720.752
531.4760, 2720.780
531.9581, 2722.192
532.4402, 2725.380
532.9223, 2723.428
533.4044, 2713.511
533.8865, 2702.486
534.3687, 2690.255
534.8508, 2679.051
535.3329, 2671.882
535.8150, 2669.873
536.2971, 2671.534
536.7792, 2676.362
537.2614, 2686.576
537.7435, 2688.277
538.2256, 2668.168
538.7077, 2652.632
539.1898, 2661.958
539.6719, 2686.179
540.1541, 2698.316
540.6362, 2679.216
541.1183, 2650.945
541.6004, 2645.512
542.0825, 2660.580
542.5646, 2666.679
543.0468, 2649.580
543.5289, 2625.361
544.0110, 2621.564
544.4931, 2641.701
544.9752, 2656.386
545.4573, 2658.897
545.9395, 2656.470
546.4216, 2652.098
546.9037, 2647.474
547.3858, 2645.287
547.8679, 2646.828
548.3500, 2653.102
548.8322, 2668.746
549.3143, 2703.438
549.7964, 2730.260
550.2785, 2744.519
550.7606, 2753.053
551.2427, 2757.467
551.7249, 2759.813
552.2070, 2766.135
552.6891, 2781.276
553.1712, 2803.784
553.6533, 2830.686
554.1354, 2863.558
554.6176, 2893.496
555.0997, 2912.212
555.5818, 2927.823
556.0639, 2953.958
556.5460, 2993.056
557.0281, 3035.974
557.5103, 3081.844
557.9924, 3128.448
558.4745, 3173.165
558.9566, 3215.609
559.4387, 3255.261
559.9208, 3291.299
560.4030, 3324.132
560.8851, 3358.775
561.3672, 3394.068
561.8493, 3433.069
562.3314, 3482.161
562.8135, 3531.442
563.2957, 3571.826
563.7778, 3601.434
564.2599, 3624.693
564.7420, 3646.652
565.2241, 3666.732
565.7062, 3679.232
566.1884, 3683.497
566.6705, 3681.628
567.1526, 3671.465
567.6347, 3656.677
568.1168, 3642.080
568.5989, 3627.860
569.0811, 3615.177
569.5632, 3611.901
570.0453, 3608.592
570.5274, 3585.270
571.0095, 3538.710
571.4916, 3486.303
571.9738, 3443.797
572.4559, 3411.321
572.9380, 3376.281
573.4201, 3337.077
573.9022, 3297.586
574.3843, 3255.564
574.8665, 3215.006
575.3486, 3179.094
575.8307, 3149.052
576.3128, 3126.398
576.7949, 3117.233
577.2770, 3120.835
577.7592, 3112.952
578.2413, 3089.032
578.7234, 3061.569
579.2055, 3033.455
579.6876, 3007.229
580.1697, 2987.467
580.6519, 2975.912
581.1340, 2968.727
581.6161, 2964.281
582.0982, 2962.353
582.5803, 2964.158
583.0624, 2969.842
583.5446, 2973.101
584.0267, 2966.834
584.5088, 2950.969
584.9909, 2943.008
585.4730, 2954.320
585.9551, 2959.390
586.4373, 2949.205
586.9194, 2931.817
