##NAMES=Strengite
##RRUFFID=R040177
##IDEAL CHEMISTRY=Fe^3+^PO_4_&#183;2H_2_O
##LOCALITY=Plegstein, Oberpfalz, Bavaria, Germany
##OWNER=RRUFF
##SOURCE=University of Arizona Mineral Museum
##DESCRIPTION=Light purple crystals
##STATUS=The identification of this mineral is confirmed by single-crystal X-ray diffraction and chemical analysis.
##URL=rruff.info/R040177
##MEASURED CHEMISTRY=Fe^3+^PO_4_Â·2H_2_O
132.7877, 831.5581
133.2699, 866.9584
133.7520, 908.1648
134.2341, 954.0569
134.7162, 1005.614
135.1983, 1063.060
135.6804, 1117.922
136.1626, 1167.152
136.6447, 1217.069
137.1268, 1282.492
137.6089, 1367.511
138.0910, 1451.930
138.5731, 1522.383
139.0553, 1576.386
139.5374, 1632.199
140.0195, 1691.058
140.5016, 1752.347
140.9837, 1811.520
141.4658, 1869.417
141.9480, 1924.789
142.4301, 1975.518
142.9122, 2017.788
143.3943, 2063.708
143.8764, 2118.473
144.3585, 2181.238
144.8407, 2232.360
145.3228, 2263.480
145.8049, 2288.958
146.2870, 2321.816
146.7691, 2365.393
147.2512, 2411.245
147.7334, 2454.337
148.2155, 2490.483
148.6976, 2544.871
149.1797, 2624.045
149.6618, 2719.877
150.1439, 2820.712
150.6261, 2932.103
151.1082, 3042.352
151.5903, 3149.787
152.0724, 3260.530
152.5545, 3353.908
153.0366, 3437.501
153.5188, 3501.831
154.0009, 3528.167
154.4830, 3487.070
154.9651, 3427.568
155.4472, 3370.530
155.9293, 3320.503
156.4115, 3270.667
156.8936, 3209.501
157.3757, 3144.730
157.8578, 3101.880
158.3399, 3096.161
158.8221, 3110.297
159.3042, 3132.865
159.7863, 3155.782
160.2684, 3192.023
160.7505, 3240.987
161.2326, 3304.497
161.7148, 3393.662
162.1969, 3524.942
162.6790, 3680.291
163.1611, 3840.461
163.6432, 3988.991
164.1253, 4150.254
164.6075, 4338.894
165.0896, 4555.497
165.5717, 4785.520
166.0538, 5038.378
166.5359, 5296.687
167.0180, 5536.211
167.5002, 5761.465
167.9823, 5957.399
168.4644, 6115.281
168.9465, 6235.389
169.4286, 6311.021
169.9107, 6325.030
170.3929, 6290.176
170.8750, 6233.576
171.3571, 6155.762
171.8392, 6069.488
172.3213, 5984.902
172.8034, 5900.643
173.2856, 5829.646
173.7677, 5779.096
174.2498, 5750.579
174.7319, 5749.998
175.2140, 5772.239
175.6961, 5826.142
176.1783, 5929.712
176.6604, 6094.336
177.1425, 6292.648
177.6246, 6481.202
178.1067, 6665.228
178.5888, 6892.160
179.0710, 7206.213
179.5531, 7584.740
180.0352, 7977.344
180.5173, 8376.495
180.9994, 8775.521
181.4815, 9163.138
181.9637, 9542.034
182.4458, 9889.375
182.9279, 10189.46
183.4100, 10444.81
183.8921, 10666.13
184.3742, 10826.55
184.8564, 10968.55
185.3385, 11176.84
185.8206, 11453.01
186.3027, 11798.08
186.7848, 12225.09
187.2669, 12729.62
187.7491, 13290.59
188.2312, 13923.15
188.7133, 14604.64
189.1954, 15282.88
189.6775, 15963.30
190.1596, 16596.24
190.6418, 17168.54
191.1239, 17674.16
191.6060, 18004.38
192.0881, 18131.56
192.5702, 18052.56
193.0524, 17725.62
193.5345, 17136.64
194.0166, 16341.41
194.4987, 15378.61
194.9808, 14236.68
195.4629, 13097.39
195.9451, 12038.68
196.4272, 11047.14
196.9093, 10157.81
197.3914, 9369.457
197.8735, 8686.821
198.3556, 8135.131
198.8378, 7727.076
199.3199, 7378.900
199.8020, 7059.839
200.2841, 6774.254
200.7662, 6491.664
201.2483, 6204.114
201.7305, 5924.410
202.2126, 5685.515
202.6947, 5491.497
203.1768, 5323.128
203.6589, 5167.434
204.1410, 5023.965
204.6232, 4906.975
205.1053, 4820.600
205.5874, 4760.326
206.0695, 4710.497
206.5516, 4668.906
207.0337, 4643.572
207.5159, 4642.825
207.9980, 4670.731
208.4801, 4702.144
208.9622, 4728.120
209.4443, 4755.373
209.9264, 4818.483
210.4086, 4923.509
210.8907, 5052.828
211.3728, 5192.378
211.8549, 5343.049
212.3370, 5507.386
212.8191, 5698.403
213.3013, 5907.526
213.7834, 6082.409
214.2655, 6235.426
214.7476, 6334.410
215.2297, 6349.392
215.7118, 6271.214
216.1940, 6131.524
216.6761, 5923.561
217.1582, 5649.749
217.6403, 5376.246
218.1224, 5095.171
218.6045, 4829.098
219.0867, 4598.549
219.5688, 4405.417
220.0509, 4247.990
220.5330, 4131.838
221.0151, 4055.815
221.4972, 4001.021
221.9794, 3965.864
222.4615, 3953.081
222.9436, 3968.901
223.4257, 4028.157
223.9078, 4086.268
224.3899, 4133.166
224.8721, 4168.989
225.3542, 4201.261
225.8363, 4235.898
226.3184, 4261.699
226.8005, 4263.071
227.2827, 4225.971
227.7648, 4191.634
228.2469, 4175.440
228.7290, 4183.315
229.2111, 4163.220
229.6932, 4106.230
230.1754, 4028.793
230.6575, 3950.574
231.1396, 3872.324
231.6217, 3792.616
232.1038, 3708.317
232.5859, 3615.690
233.0681, 3538.189
233.5502, 3474.993
234.0323, 3427.654
234.5144, 3398.622
234.9965, 3392.234
235.4786, 3397.374
235.9608, 3410.970
236.4429, 3432.340
236.9250, 3463.815
237.4071, 3504.020
237.8892, 3555.062
238.3713, 3621.366
238.8535, 3709.063
239.3356, 3801.875
239.8177, 3895.698
240.2998, 3991.909
240.7819, 4084.728
241.2640, 4176.134
241.7462, 4264.488
242.2283, 4348.101
242.7104, 4428.798
243.1925, 4501.686
243.6746, 4564.033
244.1567, 4612.942
244.6389, 4663.495
245.1210, 4724.460
245.6031, 4781.842
246.0852, 4809.937
246.5673, 4802.221
247.0494, 4776.239
247.5316, 4737.075
248.0137, 4683.604
248.4958, 4619.160
248.9779, 4537.858
249.4600, 4449.194
249.9421, 4373.604
250.4243, 4317.604
250.9064, 4261.994
251.3885, 4197.699
251.8706, 4117.604
252.3527, 4052.597
252.8348, 4007.876
253.3170, 3975.086
253.7991, 3937.214
254.2812, 3887.047
254.7633, 3846.356
255.2454, 3824.319
255.7275, 3825.073
256.2097, 3829.525
256.6918, 3835.651
257.1739, 3846.790
257.6560, 3869.683
258.1381, 3906.537
258.6202, 3950.812
259.1024, 4000.536
259.5845, 4054.813
260.0666, 4116.382
260.5487, 4186.629
261.0308, 4263.020
261.5129, 4343.308
261.9951, 4424.634
262.4772, 4515.285
262.9593, 4623.132
263.4414, 4758.148
263.9235, 4866.646
264.4056, 4946.259
264.8878, 5002.651
265.3699, 5047.662
265.8520, 5082.612
266.3341, 5103.538
266.8162, 5109.484
267.2983, 5100.597
267.7805, 5071.714
268.2626, 5012.735
268.7447, 4945.257
269.2268, 4908.535
269.7089, 4909.333
270.1910, 4916.652
270.6732, 4918.251
271.1553, 4912.894
271.6374, 4914.122
272.1195, 4922.646
272.6016, 4936.740
273.0837, 4959.449
273.5659, 4996.449
274.0480, 5013.642
274.5301, 4986.677
275.0122, 4913.111
275.4943, 4874.685
275.9764, 4881.287
276.4586, 4904.433
276.9407, 4897.212
277.4228, 4855.242
277.9049, 4821.700
278.3870, 4815.498
278.8691, 4835.536
279.3513, 4856.466
279.8334, 4877.558
280.3155, 4901.423
280.7976, 4929.786
281.2798, 4962.135
281.7619, 5004.777
282.2440, 5057.055
282.7261, 5120.416
283.2082, 5209.228
283.6903, 5326.803
284.1725, 5457.637
284.6546, 5582.647
285.1367, 5701.258
285.6188, 5826.689
286.1009, 5964.196
286.5830, 6112.233
287.0652, 6265.641
287.5473, 6423.395
288.0294, 6584.243
288.5115, 6749.801
288.9936, 6919.398
289.4757, 7081.185
289.9579, 7238.015
290.4400, 7383.403
290.9221, 7500.085
291.4042, 7586.820
291.8863, 7660.331
292.3684, 7732.757
292.8506, 7804.763
293.3327, 7881.618
293.8148, 7977.125
294.2969, 8072.061
294.7790, 8126.712
295.2611, 8141.137
295.7433, 8140.635
296.2254, 8150.818
296.7075, 8164.134
297.1896, 8159.339
297.6717, 8127.940
298.1538, 8077.418
298.6360, 8018.609
299.1181, 7950.895
299.6002, 7873.426
300.0823, 7785.617
300.5644, 7686.797
301.0465, 7574.436
301.5287, 7444.966
302.0108, 7305.503
302.4929, 7161.583
302.9750, 7013.518
303.4571, 6871.313
303.9392, 6736.433
304.4214, 6611.897
304.9035, 6498.854
305.3856, 6400.536
305.8677, 6313.338
306.3498, 6241.220
306.8319, 6180.941
307.3141, 6119.417
307.7962, 6040.562
308.2783, 5961.603
308.7604, 5898.595
309.2425, 5857.926
309.7246, 5829.723
310.2068, 5812.654
310.6889, 5803.708
311.1710, 5794.823
311.6531, 5775.611
312.1352, 5758.909
312.6173, 5756.480
313.0995, 5775.354
313.5816, 5793.427
314.0637, 5795.005
314.5458, 5788.969
315.0279, 5792.032
315.5100, 5818.965
315.9922, 5850.376
316.4743, 5875.102
316.9564, 5889.578
317.4385, 5906.820
317.9206, 5921.869
318.4027, 5944.344
318.8849, 5987.685
319.3670, 6072.344
319.8491, 6163.670
320.3312, 6247.175
320.8133, 6319.356
321.2954, 6400.558
321.7776, 6492.160
322.2597, 6596.177
322.7418, 6714.754
323.2239, 6868.205
323.7060, 7016.280
324.1881, 7140.405
324.6703, 7236.057
325.1524, 7361.021
325.6345, 7548.934
326.1166, 7750.544
326.5987, 7927.870
327.0808, 8060.705
327.5630, 8192.745
328.0451, 8334.798
328.5272, 8485.433
329.0093, 8613.905
329.4914, 8708.013
329.9735, 8788.205
330.4557, 8867.741
330.9378, 8956.488
331.4199, 9027.049
331.9020, 9073.031
332.3841, 9098.789
332.8662, 9124.001
333.3484, 9143.142
333.8305, 9169.746
334.3126, 9214.156
334.7947, 9284.181
335.2768, 9347.146
335.7589, 9402.977
336.2411, 9449.884
336.7232, 9483.343
337.2053, 9500.261
337.6874, 9512.020
338.1695, 9526.439
338.6516, 9545.421
339.1338, 9548.861
339.6159, 9534.806
340.0980, 9507.604
340.5801, 9471.168
341.0622, 9423.570
341.5443, 9380.606
342.0265, 9352.455
342.5086, 9336.717
342.9907, 9307.637
343.4728, 9264.280
343.9549, 9212.182
344.4370, 9159.767
344.9192, 9106.509
345.4013, 9044.241
345.8834, 8972.963
346.3655, 8890.623
346.8476, 8792.211
347.3297, 8677.918
347.8119, 8555.077
348.2940, 8421.971
348.7761, 8285.149
349.2582, 8169.428
349.7403, 8092.838
350.2225, 8026.087
350.7046, 7924.850
351.1867, 7791.608
351.6688, 7652.477
352.1509, 7525.572
352.6331, 7404.670
353.1152, 7278.168
353.5973, 7136.289
354.0794, 7001.830
354.5615, 6902.575
355.0436, 6829.087
355.5258, 6752.646
356.0079, 6650.532
356.4900, 6542.406
356.9721, 6446.006
357.4542, 6366.424
357.9363, 6290.541
358.4185, 6206.154
358.9006, 6120.999
359.3827, 6048.450
359.8648, 6001.284
360.3469, 5962.077
360.8290, 5922.911
361.3112, 5882.955
361.7933, 5842.804
362.2754, 5799.643
362.7575, 5757.168
363.2396, 5719.241
363.7217, 5694.045
364.2039, 5666.690
364.6860, 5631.958
365.1681, 5589.525
365.6502, 5549.292
366.1323, 5508.394
366.6144, 5472.111
367.0966, 5444.025
367.5787, 5426.572
368.0608, 5414.906
368.5429, 5411.822
369.0250, 5415.279
369.5071, 5414.795
369.9893, 5407.828
370.4714, 5399.904
370.9535, 5393.540
371.4356, 5388.986
371.9177, 5385.180
372.3998, 5380.171
372.8820, 5376.908
373.3641, 5381.568
373.8462, 5394.035
374.3283, 5414.856
374.8104, 5449.025
375.2925, 5499.531
375.7747, 5527.782
376.2568, 5526.566
376.7389, 5517.865
377.2210, 5538.605
377.7031, 5592.155
378.1852, 5625.381
378.6674, 5613.222
379.1495, 5568.283
379.6316, 5546.914
380.1137, 5551.561
380.5958, 5559.250
381.0779, 5545.123
381.5601, 5514.009
382.0422, 5491.707
382.5243, 5486.801
383.0064, 5489.192
383.4885, 5480.705
383.9706, 5462.796
384.4528, 5446.811
384.9349, 5438.304
385.4170, 5437.207
385.8991, 5444.046
386.3812, 5460.267
386.8633, 5480.187
387.3455, 5503.833
387.8276, 5527.355
388.3097, 5542.250
388.7918, 5530.559
389.2739, 5517.056
389.7560, 5526.720
390.2382, 5563.904
390.7203, 5594.500
391.2024, 5596.005
391.6845, 5582.196
392.1666, 5568.899
392.6487, 5555.760
393.1309, 5549.351
393.6130, 5558.823
394.0951, 5581.964
394.5772, 5593.598
395.0593, 5579.235
395.5414, 5556.480
396.0236, 5536.420
396.5057, 5517.609
396.9878, 5505.013
397.4699, 5500.070
397.9520, 5501.924
398.4341, 5508.053
398.9163, 5525.940
399.3984, 5540.423
399.8805, 5547.802
400.3626, 5551.976
400.8447, 5534.695
401.3268, 5477.037
401.8090, 5411.948
402.2911, 5389.409
402.7732, 5427.649
403.2553, 5460.975
403.7374, 5468.811
404.2195, 5453.169
404.7017, 5451.294
405.1838, 5465.521
405.6659, 5487.412
406.1480, 5510.923
406.6301, 5536.203
407.1122, 5557.395
407.5944, 5567.020
408.0765, 5578.769
408.5586, 5632.767
409.0407, 5728.398
409.5228, 5824.408
410.0049, 5888.822
410.4871, 5931.604
410.9692, 5979.104
411.4513, 6032.509
411.9334, 6097.362
412.4155, 6186.947
412.8976, 6295.592
413.3798, 6403.035
413.8619, 6500.811
414.3440, 6594.265
414.8261, 6691.433
415.3082, 6792.828
415.7903, 6890.460
416.2725, 6981.268
416.7546, 7065.444
417.2367, 7145.224
417.7188, 7222.424
418.2009, 7291.843
418.6830, 7347.838
419.1652, 7393.029
419.6473, 7434.819
420.1294, 7484.298
420.6115, 7525.157
421.0937, 7548.329
421.5758, 7546.498
422.0579, 7538.983
422.5400, 7526.466
423.0221, 7510.146
423.5042, 7491.592
423.9864, 7466.025
424.4685, 7443.862
424.9506, 7427.056
425.4327, 7415.951
425.9148, 7408.369
426.3969, 7402.148
426.8791, 7401.891
427.3612, 7412.982
427.8433, 7439.266
428.3254, 7463.065
428.8075, 7475.688
429.2896, 7486.646
429.7718, 7532.065
430.2539, 7617.231
430.7360, 7708.529
431.2181, 7781.889
431.7002, 7839.434
432.1823, 7913.172
432.6645, 8006.213
433.1466, 8110.783
433.6287, 8218.077
434.1108, 8327.346
434.5929, 8435.592
435.0750, 8536.776
435.5572, 8637.220
436.0393, 8751.374
436.5214, 8878.524
437.0035, 9003.981
437.4856, 9111.338
437.9677, 9210.153
438.4499, 9313.086
438.9320, 9424.395
439.4141, 9538.779
439.8962, 9665.816
440.3783, 9793.725
440.8604, 9895.879
441.3426, 9960.304
441.8247, 9994.299
442.3068, 9997.281
442.7889, 9964.598
443.2710, 9923.313
443.7531, 9888.188
444.2353, 9845.247
444.7174, 9778.391
445.1995, 9673.232
445.6816, 9558.156
446.1637, 9442.028
446.6458, 9323.913
447.1280, 9178.185
447.6101, 8988.585
448.0922, 8788.503
448.5743, 8598.030
449.0564, 8419.541
449.5385, 8239.965
450.0207, 8061.372
450.5028, 7880.031
450.9849, 7685.987
451.4670, 7476.959
451.9491, 7275.741
452.4312, 7091.375
452.9134, 6923.148
453.3955, 6758.325
453.8776, 6596.888
454.3597, 6442.838
454.8418, 6300.913
455.3239, 6170.438
455.8061, 6054.979
456.2882, 5955.413
456.7703, 5868.664
457.2524, 5792.559
457.7345, 5726.090
458.2166, 5663.388
458.6988, 5596.437
459.1809, 5534.369
459.6630, 5489.345
460.1451, 5463.320
460.6272, 5445.447
461.1093, 5430.531
461.5915, 5419.285
462.0736, 5412.960
462.5557, 5402.750
463.0378, 5406.497
463.5199, 5432.914
464.0020, 5480.324
464.4842, 5537.085
464.9663, 5613.936
465.4484, 5689.396
465.9305, 5750.520
466.4126, 5773.277
466.8947, 5825.011
467.3769, 5918.778
467.8590, 6035.393
468.3411, 6143.364
468.8232, 6229.759
469.3053, 6333.262
469.7874, 6469.952
470.2696, 6637.557
470.7517, 6791.050
471.2338, 6924.073
471.7159, 7061.180
472.1980, 7222.948
472.6801, 7409.706
473.1623, 7604.232
473.6444, 7809.583
474.1265, 8013.729
474.6086, 8189.421
475.0907, 8341.328
475.5728, 8499.631
476.0550, 8686.383
476.5371, 8888.359
477.0192, 9077.206
477.5013, 9252.497
477.9834, 9437.869
478.4655, 9671.782
478.9477, 9921.329
479.4298, 10140.66
479.9119, 10314.89
480.3940, 10461.22
480.8761, 10582.67
481.3582, 10681.79
481.8404, 10764.06
482.3225, 10820.33
482.8046, 10869.06
483.2867, 10925.57
483.7688, 11005.30
484.2509, 11043.32
484.7331, 11015.21
485.2152, 10952.33
485.6973, 10882.44
486.1794, 10811.17
486.6615, 10722.95
487.1436, 10614.91
487.6258, 10487.87
488.1079, 10344.64
488.5900, 10185.13
489.0721, 10011.59
489.5542, 9826.423
490.0363, 9628.946
490.5185, 9415.123
491.0006, 9186.442
491.4827, 8942.003
491.9648, 8675.204
492.4470, 8390.565
492.9291, 8117.891
493.4112, 7881.269
493.8933, 7656.057
494.3754, 7407.798
494.8575, 7138.250
495.3397, 6873.509
495.8218, 6625.264
496.3039, 6388.956
496.7860, 6164.186
497.2681, 5949.631
497.7502, 5737.408
498.2324, 5513.060
498.7145, 5290.006
499.1966, 5082.146
499.6787, 4902.576
500.1608, 4732.198
500.6429, 4562.819
501.1251, 4395.245
501.6072, 4245.035
502.0893, 4119.264
502.5714, 4003.689
503.0535, 3892.433
503.5356, 3788.885
504.0178, 3681.381
504.4999, 3565.748
504.9820, 3450.896
505.4641, 3348.872
505.9462, 3261.427
506.4283, 3179.316
506.9105, 3100.809
507.3926, 3026.083
507.8747, 2956.485
508.3568, 2891.888
508.8389, 2830.332
509.3210, 2768.431
509.8032, 2707.462
510.2853, 2649.242
510.7674, 2593.143
511.2495, 2543.473
511.7316, 2510.658
512.2137, 2487.102
512.6959, 2457.918
513.1780, 2410.765
513.6601, 2360.665
514.1422, 2314.165
514.6243, 2272.061
515.1064, 2238.698
515.5886, 2220.538
516.0707, 2208.240
516.5528, 2197.191
517.0349, 2190.059
517.5170, 2177.123
517.9991, 2152.786
518.4813, 2124.054
518.9634, 2099.758
519.4455, 2081.716
519.9276, 2065.018
520.4097, 2048.630
520.8918, 2032.920
521.3740, 2018.525
521.8561, 2005.624
522.3382, 1993.446
522.8203, 1979.785
523.3024, 1965.207
523.7845, 1959.056
524.2667, 1963.381
524.7488, 1970.233
525.2309, 1970.976
525.7130, 1966.263
526.1951, 1957.995
526.6772, 1942.451
527.1594, 1927.773
527.6415, 1926.481
528.1236, 1935.664
528.6057, 1942.508
529.0878, 1936.945
529.5699, 1928.009
530.0521, 1922.653
530.5342, 1922.502
531.0163, 1922.379
531.4984, 1920.901
531.9805, 1918.486
532.4626, 1915.583
532.9448, 1912.115
533.4269, 1908.304
533.9090, 1904.162
534.3911, 1899.694
534.8732, 1894.836
535.3553, 1888.478
535.8375, 1883.785
536.3196, 1883.544
536.8017, 1888.233
537.2838, 1885.657
537.7659, 1873.629
538.2480, 1861.471
538.7302, 1859.630
539.2123, 1867.003
539.6944, 1877.067
540.1765, 1890.715
540.6586, 1902.203
541.1407, 1900.878
541.6229, 1889.924
542.1050, 1880.803
542.5871, 1878.902
543.0692, 1882.075
543.5513, 1890.505
544.0334, 1904.026
544.5156, 1915.422
544.9977, 1917.987
545.4798, 1918.948
545.9619, 1924.304
546.4440, 1941.790
546.9261, 1953.867
547.4083, 1951.052
547.8904, 1942.783
548.3725, 1945.941
548.8546, 1963.989
549.3367, 1987.939
549.8188, 2016.973
550.3010, 2050.629
550.7831, 2084.738
551.2652, 2120.793
551.7473, 2152.419
552.2294, 2170.175
552.7115, 2176.376
553.1937, 2194.379
553.6758, 2227.107
554.1579, 2267.180
554.6400, 2308.776
555.1221, 2350.809
555.6042, 2389.292
556.0864, 2421.524
556.5685, 2451.538
557.0506, 2479.152
557.5327, 2506.573
558.0148, 2541.714
558.4969, 2596.864
558.9791, 2654.764
559.4612, 2704.732
559.9433, 2744.575
560.4254, 2781.240
560.9075, 2812.310
561.3896, 2842.671
561.8718, 2877.340
562.3539, 2922.009
562.8360, 2961.441
563.3181, 2994.054
563.8002, 3020.607
564.2823, 3043.596
564.7645, 3063.242
565.2466, 3077.188
565.7287, 3081.510
566.2108, 3079.048
566.6929, 3086.828
567.1750, 3105.428
567.6572, 3119.658
568.1393, 3113.904
568.6214, 3094.917
569.1035, 3075.269
569.5856, 3056.035
570.0677, 3039.279
570.5499, 3028.585
571.0320, 3020.909
571.5141, 3011.359
571.9962, 2999.113
572.4783, 2983.699
572.9604, 2956.264
573.4426, 2922.346
573.9247, 2909.535
574.4068, 2950.048
574.8889, 2987.153
575.3710, 2995.377
575.8531, 2965.595
576.3353, 2955.469
576.8174, 2972.020
577.2995, 2997.963
577.7816, 3017.854
578.2637, 3031.123
578.7458, 3043.078
579.2280, 3054.161
579.7101, 3064.843
580.1922, 3073.726
580.6743, 3081.965
581.1564, 3096.079
581.6385, 3128.503
582.1207, 3163.513
582.6028, 3174.544
583.0849, 3164.960
583.5670, 3161.815
584.0491, 3190.237
584.5313, 3225.600
585.0134, 3247.239
585.4955, 3246.476
585.9776, 3250.125
586.4597, 3272.506
586.9418, 3299.557
587.4240, 3315.158
587.9061, 3316.356
588.3882, 3310.001
588.8703, 3293.122
589.3524, 3270.156
589.8345, 3256.714
590.3167, 3257.427
590.7988, 3249.374
591.2809, 3218.356
591.7630, 3169.861
592.2451, 3133.887
592.7272, 3110.792
593.2094, 3091.541
593.6915, 3073.629
594.1736, 3053.201
594.6557, 3019.782
595.1378, 2968.868
595.6199, 2919.865
596.1021, 2891.947
596.5842, 2874.108
597.0663, 2850.550
597.5485, 2811.037
598.0306, 2770.557
598.5127, 2733.302
598.9948, 2698.922
599.4769, 2665.292
599.9590, 2636.036
600.4412, 2602.342
600.9233, 2559.444
601.4054, 2506.012
601.8875, 2461.256
602.3696, 2426.402
602.8517, 2398.022
603.3339, 2377.189
603.8160, 2362.809
604.2981, 2341.521
604.7802, 2310.804
605.2623, 2277.250
605.7444, 2248.452
606.2266, 2223.686
606.7087, 2202.536
607.1908, 2187.842
607.6729, 2172.955
608.1550, 2151.841
608.6371, 2125.986
609.1193, 2099.488
609.6014, 2074.869
610.0835, 2049.374
610.5656, 2018.998
611.0477, 1981.179
611.5298, 1957.932
612.0120, 1959.875
612.4941, 1966.639
612.9762, 1965.204
613.4583, 1954.065
613.9404, 1940.345
614.4225, 1924.572
614.9047, 1905.865
615.3868, 1878.755
615.8689, 1844.301
616.3510, 1820.278
616.8331, 1815.305
617.3152, 1818.878
617.7974, 1816.290
618.2795, 1808.462
618.7616, 1798.913
619.2437, 1789.879
619.7258, 1779.695
620.2079, 1764.143
620.6901, 1743.304
621.1722, 1730.019
621.6543, 1739.810
622.1364, 1750.843
622.6185, 1747.534
623.1006, 1717.752
623.5828, 1699.318
624.0649, 1698.050
624.5470, 1702.792
625.0291, 1699.648
625.5112, 1686.768
625.9933, 1676.530
626.4755, 1672.974
626.9576, 1670.946
627.4397, 1656.766
627.9218, 1632.365
628.4039, 1612.483
628.8860, 1606.351
629.3682, 1607.870
