##NAMES=Stringhamite
##RRUFFID=R060934
##IDEAL CHEMISTRY=CaCu^2+^SiO_4_&#183;H_2_O
##LOCALITY=Santos mine, Tierra Amarilla, Chile
##OWNER=RRUFF
##SOURCE=Bob Jenkins
##DESCRIPTION=Azure blue crust, there is no diffraction from this material
##STATUS=The identification of this mineral is not yet confirmed.
##URL=rruff.info/R060934
143.2233, 865.4958
143.7054, 899.6352
144.1875, 932.7061
144.6696, 970.4523
145.1518, 1014.105
145.6339, 1055.003
146.1160, 1090.633
146.5981, 1123.273
147.0802, 1156.475
147.5623, 1191.309
148.0445, 1224.648
148.5266, 1251.324
149.0087, 1271.308
149.4908, 1289.705
149.9729, 1311.626
150.4550, 1332.082
150.9372, 1340.468
151.4193, 1331.226
151.9014, 1316.145
152.3835, 1312.817
152.8656, 1321.616
153.3477, 1330.141
153.8299, 1333.829
154.3120, 1333.781
154.7941, 1332.167
155.2762, 1328.662
155.7583, 1325.238
156.2404, 1324.679
156.7226, 1327.214
157.2047, 1329.828
157.6868, 1329.910
158.1689, 1328.540
158.6510, 1329.154
159.1331, 1330.843
159.6153, 1337.675
160.0974, 1356.296
160.5795, 1388.627
161.0616, 1417.200
161.5437, 1428.684
162.0258, 1425.499
162.5080, 1423.599
162.9901, 1426.583
163.4722, 1433.390
163.9543, 1441.918
164.4364, 1452.099
164.9185, 1464.689
165.4007, 1482.352
165.8828, 1504.507
166.3649, 1523.031
166.8470, 1533.241
167.3291, 1541.051
167.8112, 1552.579
168.2934, 1568.651
168.7755, 1584.547
169.2576, 1596.384
169.7397, 1604.143
170.2218, 1610.912
170.7039, 1619.047
171.1861, 1625.038
171.6682, 1625.406
172.1503, 1619.486
172.6324, 1611.618
173.1145, 1604.531
173.5966, 1598.045
174.0788, 1595.828
174.5609, 1604.646
175.0430, 1614.146
175.5251, 1615.038
176.0072, 1605.513
176.4893, 1595.402
176.9715, 1596.804
177.4536, 1611.378
177.9357, 1621.630
178.4178, 1618.747
178.8999, 1612.956
179.3820, 1611.140
179.8642, 1614.507
180.3463, 1619.317
180.8284, 1622.150
181.3105, 1623.038
181.7926, 1621.530
182.2747, 1614.419
182.7569, 1606.650
183.2390, 1600.513
183.7211, 1596.430
184.2032, 1595.281
184.6853, 1598.733
185.1674, 1607.435
185.6496, 1616.695
186.1317, 1629.431
186.6138, 1639.945
187.0959, 1643.131
187.5780, 1638.316
188.0601, 1631.519
188.5423, 1629.784
189.0244, 1633.980
189.5065, 1638.368
189.9886, 1644.834
190.4707, 1649.259
190.9528, 1646.386
191.4350, 1635.995
191.9171, 1627.083
192.3992, 1631.101
192.8813, 1650.400
193.3634, 1669.645
193.8455, 1691.202
194.3277, 1708.923
194.8098, 1716.629
195.2919, 1714.208
195.7740, 1709.997
196.2561, 1713.527
196.7382, 1726.057
197.2204, 1738.644
197.7025, 1754.357
198.1846, 1766.780
198.6667, 1769.082
199.1488, 1761.824
199.6309, 1755.293
200.1131, 1763.564
200.5952, 1790.393
201.0773, 1807.178
201.5594, 1797.838
202.0415, 1787.287
202.5236, 1788.002
203.0058, 1800.480
203.4879, 1816.078
203.9700, 1826.473
204.4521, 1830.996
204.9342, 1835.707
205.4163, 1840.626
205.8985, 1846.150
206.3806, 1851.495
206.8627, 1857.180
207.3448, 1865.415
207.8269, 1880.036
208.3090, 1901.876
208.7912, 1918.993
209.2733, 1928.314
209.7554, 1934.705
210.2375, 1938.255
210.7196, 1940.191
211.2017, 1944.097
211.6839, 1954.271
212.1660, 1970.808
212.6481, 1984.890
213.1302, 1994.286
213.6123, 2003.282
214.0944, 2012.701
214.5765, 2023.119
215.0587, 2035.608
215.5408, 2051.309
216.0229, 2070.049
216.5050, 2089.868
216.9871, 2109.226
217.4692, 2131.839
217.9514, 2162.898
218.4335, 2198.500
218.9156, 2230.142
219.3977, 2252.394
219.8798, 2265.851
220.3619, 2273.875
220.8441, 2275.620
221.3262, 2272.391
221.8083, 2264.980
222.2904, 2253.777
222.7725, 2239.485
223.2546, 2222.736
223.7368, 2203.169
224.2189, 2178.494
224.7010, 2143.841
225.1831, 2112.710
225.6652, 2089.329
226.1473, 2072.698
226.6295, 2062.308
227.1116, 2059.550
227.5937, 2061.378
228.0758, 2060.190
228.5579, 2053.998
229.0400, 2049.544
229.5222, 2048.693
230.0043, 2051.208
230.4864, 2057.511
230.9685, 2068.660
231.4506, 2082.203
231.9327, 2092.934
232.4149, 2098.841
232.8970, 2109.328
233.3791, 2133.595
233.8612, 2162.080
234.3433, 2185.075
234.8254, 2199.080
235.3076, 2210.151
235.7897, 2226.111
236.2718, 2247.653
236.7539, 2269.007
237.2360, 2288.292
237.7181, 2306.365
238.2003, 2322.326
238.6824, 2335.053
239.1645, 2350.905
239.6466, 2382.922
240.1287, 2430.843
240.6108, 2460.128
241.0930, 2448.927
241.5751, 2424.237
242.0572, 2412.734
242.5393, 2416.605
243.0214, 2424.865
243.5035, 2434.657
243.9857, 2444.182
244.4678, 2441.298
244.9499, 2418.543
245.4320, 2388.223
245.9141, 2361.010
246.3962, 2336.879
246.8784, 2318.575
247.3605, 2311.345
247.8426, 2311.226
248.3247, 2307.704
248.8068, 2299.200
249.2889, 2286.651
249.7710, 2266.285
250.2532, 2239.932
250.7353, 2223.145
251.2174, 2228.298
251.6995, 2244.224
252.1816, 2252.934
252.6637, 2252.036
253.1459, 2246.543
253.6280, 2238.011
254.1101, 2227.545
254.5922, 2221.073
255.0743, 2221.812
255.5564, 2225.812
256.0386, 2229.725
256.5207, 2233.356
257.0028, 2235.868
257.4849, 2235.576
257.9670, 2233.498
258.4492, 2234.923
258.9313, 2241.974
259.4134, 2250.964
259.8955, 2259.768
260.3776, 2268.435
260.8597, 2277.458
261.3419, 2287.703
261.8240, 2298.246
262.3061, 2305.625
262.7882, 2306.606
263.2703, 2308.449
263.7524, 2316.541
264.2346, 2327.598
264.7167, 2333.877
265.1988, 2331.465
265.6809, 2323.528
266.1630, 2318.128
266.6451, 2316.085
267.1272, 2314.763
267.6093, 2313.228
268.0915, 2312.309
268.5736, 2313.279
269.0557, 2316.561
269.5378, 2321.190
270.0199, 2325.440
270.5020, 2326.948
270.9842, 2333.244
271.4663, 2349.882
271.9484, 2367.947
272.4305, 2380.234
272.9126, 2385.465
273.3947, 2386.213
273.8769, 2384.887
274.3590, 2380.219
274.8411, 2378.685
275.3232, 2389.044
275.8053, 2394.516
276.2874, 2381.197
276.7696, 2353.109
277.2517, 2326.403
277.7338, 2314.765
278.2159, 2318.490
278.6980, 2321.933
279.1801, 2329.258
279.6623, 2331.907
280.1444, 2323.125
280.6265, 2308.308
281.1086, 2296.846
281.5907, 2294.266
282.0728, 2299.364
282.5550, 2307.167
283.0371, 2322.562
283.5192, 2333.744
284.0013, 2337.935
284.4834, 2337.664
284.9655, 2335.022
285.4477, 2330.771
285.9298, 2326.166
286.4119, 2324.067
286.8940, 2326.538
287.3761, 2326.237
287.8582, 2317.605
288.3404, 2309.081
288.8225, 2307.103
289.3046, 2312.700
289.7867, 2321.108
290.2688, 2326.236
290.7509, 2327.382
291.2331, 2333.851
291.7152, 2350.877
292.1973, 2369.793
292.6794, 2387.526
293.1615, 2403.240
293.6436, 2415.041
294.1258, 2419.878
294.6079, 2419.257
295.0900, 2420.160
295.5721, 2423.810
296.0542, 2426.946
296.5363, 2424.015
297.0185, 2419.003
297.5006, 2420.864
297.9827, 2434.731
298.4648, 2456.251
298.9469, 2481.536
299.4290, 2511.338
299.9112, 2537.439
300.3933, 2554.982
300.8754, 2565.585
301.3575, 2571.952
301.8396, 2569.156
302.3217, 2569.886
302.8039, 2590.084
303.2860, 2624.365
303.7681, 2645.485
304.2502, 2640.408
304.7323, 2620.749
305.2144, 2606.652
305.6966, 2596.634
306.1787, 2594.672
306.6608, 2610.354
307.1429, 2632.435
307.6250, 2643.641
308.1071, 2639.607
308.5893, 2627.333
309.0714, 2613.397
309.5535, 2595.655
310.0356, 2587.500
310.5177, 2598.425
310.9998, 2612.454
311.4820, 2618.829
311.9641, 2616.751
312.4462, 2609.962
312.9283, 2601.197
313.4104, 2590.501
313.8925, 2577.093
314.3747, 2548.612
314.8568, 2531.019
315.3389, 2540.685
315.8210, 2566.181
316.3031, 2585.877
316.7852, 2587.768
317.2674, 2578.774
317.7495, 2582.554
318.2316, 2621.192
318.7137, 2640.721
319.1958, 2621.171
319.6779, 2590.494
320.1601, 2572.569
320.6422, 2574.268
321.1243, 2588.353
321.6064, 2608.341
322.0885, 2640.216
322.5706, 2656.332
323.0528, 2634.135
323.5349, 2613.285
324.0170, 2614.977
324.4991, 2636.952
324.9812, 2662.629
325.4633, 2681.119
325.9455, 2692.480
326.4276, 2696.112
326.9097, 2686.015
327.3918, 2677.970
327.8739, 2678.657
328.3560, 2686.279
328.8382, 2698.914
329.3203, 2719.073
329.8024, 2740.135
330.2845, 2752.377
330.7666, 2755.313
331.2487, 2754.805
331.7309, 2751.909
332.2130, 2747.459
332.6951, 2741.909
333.1772, 2733.801
333.6593, 2729.237
334.1414, 2732.772
334.6236, 2742.796
335.1057, 2756.172
335.5878, 2774.063
336.0699, 2789.929
336.5520, 2791.727
337.0341, 2777.963
337.5162, 2773.119
337.9984, 2790.149
338.4805, 2812.461
338.9626, 2823.378
339.4447, 2822.102
339.9268, 2818.645
340.4089, 2821.191
340.8911, 2829.559
341.3732, 2833.684
341.8553, 2828.093
342.3374, 2824.786
342.8195, 2827.059
343.3016, 2834.802
343.7838, 2850.440
344.2659, 2875.882
344.7480, 2903.021
345.2301, 2909.204
345.7122, 2866.762
346.1943, 2844.937
346.6765, 2861.168
347.1586, 2887.761
347.6407, 2903.615
348.1228, 2904.688
348.6049, 2899.886
349.0870, 2898.473
349.5692, 2900.592
350.0513, 2905.057
350.5334, 2911.137
351.0155, 2920.659
351.4976, 2937.980
351.9797, 2959.247
352.4619, 2976.383
352.9440, 2983.997
353.4261, 2984.718
353.9082, 2984.724
354.3903, 2983.467
354.8724, 2983.221
355.3546, 2982.883
355.8367, 2985.033
356.3188, 2994.661
356.8009, 3015.450
357.2830, 3034.106
357.7651, 3036.434
358.2473, 3025.749
358.7294, 3019.008
359.2115, 3020.564
359.6936, 3027.215
360.1757, 3035.646
360.6578, 3045.696
361.1400, 3057.587
361.6221, 3075.248
362.1042, 3092.600
362.5863, 3101.380
363.0684, 3101.547
363.5505, 3101.437
364.0327, 3107.113
364.5148, 3118.373
364.9969, 3130.601
365.4790, 3145.692
365.9611, 3159.527
366.4432, 3169.112
366.9254, 3176.783
367.4075, 3187.306
367.8896, 3202.664
368.3717, 3219.402
368.8538, 3229.827
369.3359, 3225.617
369.8181, 3229.770
370.3002, 3249.790
370.7823, 3271.302
371.2644, 3286.916
371.7465, 3294.947
372.2286, 3295.375
372.7108, 3285.043
373.1929, 3264.655
373.6750, 3256.640
374.1571, 3270.149
374.6392, 3283.997
375.1213, 3291.056
375.6035, 3293.438
376.0856, 3294.248
376.5677, 3294.517
377.0498, 3294.157
377.5319, 3293.124
378.0140, 3291.437
378.4962, 3288.739
378.9783, 3284.643
379.4604, 3279.657
379.9425, 3273.555
380.4246, 3266.034
380.9067, 3261.385
381.3889, 3261.724
381.8710, 3266.219
382.3531, 3275.674
382.8352, 3290.705
383.3173, 3302.632
383.7994, 3301.853
384.2816, 3289.181
384.7637, 3287.143
385.2458, 3304.366
385.7279, 3323.396
386.2100, 3336.661
386.6921, 3345.406
387.1743, 3351.482
387.6564, 3355.303
388.1385, 3360.094
388.6206, 3373.682
389.1027, 3408.624
389.5848, 3432.891
390.0670, 3438.414
390.5491, 3439.968
391.0312, 3446.871
391.5133, 3460.503
391.9954, 3477.975
392.4775, 3497.000
392.9597, 3517.535
393.4418, 3541.024
393.9239, 3572.912
394.4060, 3600.060
394.8881, 3621.212
395.3702, 3634.644
395.8524, 3635.502
396.3345, 3618.404
396.8166, 3599.374
397.2987, 3604.104
397.7808, 3632.954
398.2629, 3650.583
398.7451, 3643.841
399.2272, 3626.504
399.7093, 3614.987
400.1914, 3609.178
400.6735, 3598.927
401.1556, 3574.887
401.6378, 3546.965
402.1199, 3529.255
402.6020, 3522.629
403.0841, 3516.392
403.5662, 3502.379
404.0483, 3482.221
404.5305, 3468.669
405.0126, 3466.219
405.4947, 3464.062
405.9768, 3460.494
406.4589, 3454.979
406.9410, 3444.884
407.4231, 3429.755
407.9052, 3415.811
408.3874, 3413.177
408.8695, 3427.092
409.3516, 3436.811
409.8337, 3437.803
410.3158, 3439.216
410.7979, 3444.601
411.2801, 3453.864
411.7622, 3465.932
412.2443, 3480.927
412.7264, 3497.337
413.2085, 3512.899
413.6906, 3531.447
414.1728, 3537.386
414.6549, 3507.715
415.1370, 3472.459
415.6191, 3459.733
416.1012, 3474.497
416.5833, 3495.396
417.0655, 3508.623
417.5476, 3516.867
418.0297, 3529.083
418.5118, 3548.293
418.9939, 3562.171
419.4760, 3556.208
419.9582, 3532.304
420.4403, 3519.112
420.9224, 3523.832
421.4045, 3533.252
421.8866, 3540.985
422.3687, 3548.180
422.8509, 3558.707
423.3330, 3574.479
423.8151, 3591.704
424.2972, 3603.308
424.7793, 3608.201
425.2614, 3608.811
425.7436, 3598.515
426.2257, 3589.977
426.7078, 3594.408
427.1899, 3608.576
427.6720, 3618.912
428.1541, 3612.837
428.6363, 3596.061
429.1184, 3596.416
429.6005, 3622.896
430.0826, 3647.076
430.5647, 3657.751
431.0468, 3662.695
431.5290, 3668.284
432.0111, 3675.591
432.4932, 3684.681
432.9753, 3700.502
433.4574, 3718.495
433.9395, 3722.487
434.4217, 3707.812
434.9038, 3687.502
435.3859, 3670.490
435.8680, 3657.294
436.3501, 3650.110
436.8322, 3647.032
437.3144, 3651.971
437.7965, 3674.627
438.2786, 3706.290
438.7607, 3726.931
439.2428, 3727.767
439.7249, 3719.991
440.2071, 3725.591
440.6892, 3757.983
441.1713, 3774.445
441.6534, 3766.408
442.1355, 3752.380
442.6176, 3736.512
443.0998, 3723.226
443.5819, 3721.209
444.0640, 3739.004
444.5461, 3769.316
445.0282, 3787.949
445.5103, 3789.974
445.9925, 3794.401
446.4746, 3813.418
446.9567, 3833.844
447.4388, 3843.993
447.9209, 3842.310
448.4030, 3835.291
448.8852, 3820.746
449.3673, 3805.034
449.8494, 3802.851
450.3315, 3816.564
450.8136, 3834.247
451.2957, 3848.341
451.7779, 3858.859
452.2600, 3866.617
452.7421, 3873.336
453.2242, 3875.738
453.7063, 3869.385
454.1884, 3859.335
454.6706, 3851.638
455.1527, 3848.305
455.6348, 3849.454
456.1169, 3855.885
456.5990, 3868.866
457.0811, 3880.711
457.5633, 3892.844
458.0454, 3902.192
458.5275, 3903.069
459.0096, 3901.168
459.4917, 3907.212
459.9738, 3927.559
460.4560, 3952.813
460.9381, 3969.731
461.4202, 3978.062
461.9023, 3983.352
462.3844, 3985.805
462.8665, 3986.901
463.3487, 3986.515
463.8308, 3984.977
464.3129, 3988.578
464.7950, 4004.167
465.2771, 4021.944
465.7592, 4032.508
466.2414, 4036.757
466.7235, 4040.375
467.2056, 4046.302
467.6877, 4053.565
468.1698, 4059.611
468.6519, 4063.097
469.1341, 4067.228
469.6162, 4071.394
470.0983, 4076.602
470.5804, 4084.663
471.0625, 4094.783
471.5446, 4103.711
472.0268, 4108.621
472.5089, 4110.522
472.9910, 4113.991
473.4731, 4119.299
473.9552, 4125.428
474.4373, 4132.158
474.9195, 4139.487
475.4016, 4148.410
475.8837, 4159.433
476.3658, 4167.739
476.8479, 4168.317
477.3300, 4164.862
477.8121, 4162.999
478.2943, 4163.302
478.7764, 4168.788
479.2585, 4183.192
479.7406, 4204.805
480.2227, 4221.502
480.7048, 4237.416
481.1870, 4244.183
481.6691, 4225.709
482.1512, 4204.510
482.6333, 4210.500
483.1154, 4247.006
483.5975, 4287.262
484.0797, 4300.896
484.5618, 4287.068
485.0439, 4288.167
485.5260, 4317.097
486.0081, 4342.476
486.4902, 4355.057
486.9724, 4358.084
487.4545, 4352.773
487.9366, 4337.350
488.4187, 4325.765
488.9008, 4332.246
489.3829, 4352.888
489.8651, 4375.228
490.3472, 4398.215
490.8293, 4418.066
491.3114, 4429.948
491.7935, 4434.461
492.2756, 4443.737
492.7578, 4463.987
493.2399, 4482.049
493.7220, 4489.515
494.2041, 4492.739
494.6862, 4503.644
495.1683, 4525.042
495.6505, 4544.894
496.1326, 4545.731
496.6147, 4523.668
497.0968, 4510.268
497.5789, 4508.979
498.0610, 4513.242
498.5432, 4521.164
499.0253, 4532.814
499.5074, 4549.692
499.9895, 4573.546
500.4716, 4597.484
500.9537, 4615.168
501.4359, 4626.844
501.9180, 4632.282
502.4001, 4629.323
502.8822, 4626.988
503.3643, 4634.412
503.8464, 4651.421
504.3286, 4666.635
504.8107, 4679.394
505.2928, 4690.701
505.7749, 4703.991
506.2570, 4715.237
506.7391, 4715.366
507.2213, 4702.055
507.7034, 4686.244
508.1855, 4682.971
508.6676, 4694.059
509.1497, 4707.154
509.6318, 4731.373
510.1140, 4746.606
510.5961, 4735.838
511.0782, 4714.507
511.5603, 4707.344
512.0424, 4724.160
512.5245, 4750.283
513.0067, 4778.890
513.4888, 4805.877
513.9709, 4808.708
514.4530, 4777.825
514.9351, 4746.191
515.4172, 4747.429
515.8994, 4780.538
516.3815, 4795.801
516.8636, 4771.652
517.3457, 4754.487
517.8278, 4767.843
518.3099, 4796.090
518.7921, 4817.883
519.2742, 4826.947
519.7563, 4830.158
520.2384, 4835.957
520.7205, 4844.729
521.2026, 4849.260
521.6848, 4846.146
522.1669, 4843.650
522.6490, 4845.722
523.1311, 4849.892
523.6132, 4852.966
524.0953, 4854.230
524.5775, 4854.208
525.0596, 4850.686
525.5417, 4846.517
526.0238, 4850.349
526.5059, 4863.971
526.9880, 4876.726
527.4702, 4878.885
527.9523, 4872.114
528.4344, 4874.507
528.9165, 4906.148
529.3986, 4920.377
529.8807, 4885.347
530.3629, 4842.354
530.8450, 4840.781
531.3271, 4883.564
531.8092, 4927.615
532.2913, 4928.890
532.7734, 4895.417
533.2556, 4881.912
533.7377, 4896.064
534.2198, 4909.945
534.7019, 4909.143
535.1840, 4904.266
535.6661, 4907.727
536.1483, 4921.288
536.6304, 4936.908
537.1125, 4952.507
537.5946, 4967.292
538.0767, 4980.505
538.5588, 4991.998
539.0410, 4999.601
539.5231, 5000.342
540.0052, 4999.471
540.4873, 5015.672
540.9694, 5075.322
541.4515, 5108.765
541.9337, 5090.008
542.4158, 5067.160
542.8979, 5078.192
543.3800, 5114.508
543.8621, 5136.745
544.3442, 5114.105
544.8264, 5073.316
545.3085, 5067.151
545.7906, 5095.858
546.2727, 5117.041
546.7548, 5113.805
547.2369, 5105.773
547.7191, 5122.295
548.2012, 5164.686
548.6833, 5189.268
549.1654, 5171.927
549.6475, 5154.439
550.1296, 5164.265
550.6118, 5191.042
551.0939, 5212.570
551.5760, 5220.352
552.0581, 5222.240
552.5402, 5229.237
553.0223, 5241.354
553.5045, 5258.647
553.9866, 5285.382
554.4687, 5311.828
554.9508, 5336.200
555.4329, 5356.835
555.9150, 5369.090
556.3972, 5367.577
556.8793, 5370.724
557.3614, 5400.130
557.8435, 5441.601
558.3256, 5461.473
558.8077, 5455.197
559.2899, 5454.095
559.7720, 5486.292
560.2541, 5545.338
560.7362, 5581.862
561.2183, 5568.268
561.7004, 5566.950
562.1826, 5591.258
562.6647, 5623.781
563.1468, 5651.454
563.6289, 5672.670
564.1110, 5691.807
564.5931, 5711.417
565.0753, 5731.442
565.5574, 5752.293
566.0395, 5774.172
566.5216, 5794.640
567.0037, 5814.096
567.4858, 5830.126
567.9680, 5835.801
568.4501, 5829.290
568.9322, 5833.194
569.4143, 5862.831
569.8964, 5892.017
570.3785, 5900.303
570.8607, 5896.638
571.3428, 5903.600
571.8249, 5930.318
572.3070, 5958.883
572.7891, 5962.001
573.2712, 5937.629
573.7534, 5901.209
574.2355, 5831.393
574.7176, 5781.862
575.1997, 5801.580
575.6818, 5851.760
576.1639, 5867.596
576.6461, 5825.912
577.1282, 5781.051
577.6103, 5762.834
578.0924, 5761.482
578.5745, 5764.460
579.0566, 5769.299
579.5388, 5774.049
580.0209, 5777.440
580.5030, 5779.365
580.9851, 5779.016
581.4672, 5772.136
581.9493, 5770.390
582.4314, 5786.280
582.9135, 5797.443
583.3956, 5780.729
583.8777, 5743.725
584.3599, 5719.157
584.8420, 5730.526
585.3241, 5755.867
585.8062, 5766.815
586.2883, 5765.354
586.7704, 5762.992
587.2526, 5763.024
587.7347, 5763.008
588.2168, 5759.700
588.6989, 5752.489
589.1810, 5748.510
589.6631, 5747.959
590.1453, 5750.085
590.6274, 5751.268
591.1095, 5756.733
591.5916, 5778.409
592.0737, 5816.388
592.5558, 5848.145
593.0380, 5846.063
593.5201, 5819.410
594.0022, 5806.237
594.4843, 5807.542
594.9664, 5817.065
595.4485, 5838.026
595.9307, 5860.556
596.4128, 5862.836
596.8949, 5838.329
597.3770, 5826.341
597.8591, 5847.459
598.3412, 5869.253
598.8234, 5867.943
599.3055, 5850.597
599.7876, 5832.696
600.2697, 5820.922
600.7518, 5819.244
601.2339, 5837.920
601.7161, 5878.231
602.1982, 5910.177
602.6803, 5928.428
603.1624, 5945.223
603.6445, 5961.924
604.1266, 5983.684
604.6088, 6026.070
605.0909, 6111.967
605.5730, 6166.808
606.0551, 6137.141
606.5372, 6077.107
607.0193, 6039.606
607.5015, 6029.870
607.9836, 6035.230
608.4657, 6048.945
608.9478, 6067.130
609.4299, 6078.868
609.9120, 6081.618
610.3942, 6086.771
610.8763, 6099.002
611.3584, 6110.057
611.8405, 6116.313
612.3226, 6117.534
612.8047, 6112.022
613.2869, 6089.732
613.7690, 6075.370
614.2511, 6091.919
614.7332, 6124.683
615.2153, 6150.193
615.6974, 6163.983
616.1796, 6170.533
616.6617, 6172.658
617.1438, 6171.613
617.6259, 6175.020
618.1080, 6184.947
618.5901, 6195.222
619.0723, 6200.891
619.5544, 6209.810
620.0365, 6228.937
620.5186, 6256.589
621.0007, 6284.492
621.4828, 6317.438
621.9650, 6340.772
622.4471, 6332.262
622.9292, 6303.926
623.4113, 6284.664
623.8934, 6282.042
624.3755, 6292.839
624.8577, 6316.468
625.3398, 6352.233
625.8219, 6374.161
626.3040, 6368.426
626.7861, 6369.914
627.2682, 6396.500
627.7504, 6424.014
628.2325, 6427.210
628.7146, 6407.691
629.1967, 6395.011
629.6788, 6409.824
630.1609, 6435.691
630.6431, 6456.570
631.1252, 6472.283
631.6073, 6480.869
632.0894, 6481.394
632.5715, 6479.812
633.0536, 6483.221
633.5358, 6491.907
634.0179, 6500.834
634.5000, 6504.204
634.9821, 6515.683
635.4642, 6547.747
635.9464, 6582.678
636.4285, 6602.613
636.9106, 6605.926
637.3927, 6605.646
637.8748, 6603.466
638.3569, 6605.710
638.8391, 6628.877
639.3212, 6666.109
639.8033, 6684.251
640.2854, 6670.136
640.7675, 6645.718
641.2496, 6641.173
641.7318, 6659.870
