##NAMES=Stringhamite
##RRUFFID=R110018
##IDEAL CHEMISTRY=CaCu^2+^SiO_4_&#183;H_2_O
##LOCALITY=Christmas mine, Gila County, Arizona, USA
##OWNER=RRUFF
##SOURCE=Bob Jenkins
##DESCRIPTION=Deep blue platy crystals
##STATUS=The identification of this mineral has been confirmed by single-crystal X-ray diffraction.
##URL=rruff.info/R110018
177.3802, 443.9044
177.8624, 444.8804
178.3445, 445.6316
178.8266, 446.0260
179.3087, 446.0898
179.7908, 446.0131
180.2729, 446.0594
180.7551, 446.3529
181.2372, 446.4771
181.7193, 446.1480
182.2014, 445.8521
182.6835, 446.0668
183.1656, 446.8663
183.6478, 447.8137
184.1299, 448.2269
184.6120, 447.6795
185.0941, 447.4272
185.5762, 447.3390
186.0583, 447.6223
186.5405, 448.7953
187.0226, 451.0778
187.5047, 453.5160
187.9868, 454.2344
188.4689, 452.7447
188.9510, 451.8616
189.4332, 452.4812
189.9153, 454.0658
190.3974, 455.8133
190.8795, 457.6671
191.3616, 459.2498
191.8438, 459.7865
192.3259, 459.1732
192.8080, 458.9610
193.2901, 460.1420
193.7722, 462.3664
194.2543, 464.2991
194.7365, 465.3193
195.2186, 466.3025
195.7007, 468.3900
196.1828, 471.6012
196.6649, 474.4839
197.1470, 475.8078
197.6292, 475.6415
198.1113, 475.5118
198.5934, 475.7024
199.0755, 476.0365
199.5576, 476.2919
200.0397, 476.4852
200.5219, 476.9478
201.0040, 478.0270
201.4861, 479.7866
201.9682, 481.8113
202.4503, 484.4038
202.9324, 487.0200
203.4146, 489.3606
203.8967, 491.4087
204.3788, 493.3963
204.8609, 495.6861
205.3430, 498.5347
205.8251, 500.8602
206.3073, 502.4180
206.7894, 503.6530
207.2715, 504.7125
207.7536, 505.6617
208.2357, 506.5745
208.7178, 507.5459
209.2000, 508.5946
209.6821, 509.6612
210.1642, 510.3575
210.6463, 511.3183
211.1284, 513.0052
211.6105, 515.4941
212.0927, 518.4960
212.5748, 521.5748
213.0569, 524.2548
213.5390, 528.1634
214.0211, 534.9236
214.5032, 541.8121
214.9854, 546.2685
215.4675, 547.7947
215.9496, 548.4996
216.4317, 551.3090
216.9138, 557.0938
217.3960, 563.3526
217.8781, 571.0295
218.3602, 578.6879
218.8423, 585.1669
219.3244, 590.1681
219.8065, 593.7437
220.2887, 596.2328
220.7708, 598.1455
221.2529, 596.1648
221.7350, 587.3278
222.2171, 575.3007
222.6992, 564.2120
223.1814, 554.8339
223.6635, 546.9723
224.1456, 540.8518
224.6277, 536.3121
225.1098, 532.5880
225.5919, 529.5967
226.0741, 527.2814
226.5562, 525.5207
227.0383, 524.2560
227.5204, 523.6879
228.0025, 524.3970
228.4846, 526.0846
228.9668, 527.6413
229.4489, 528.4677
229.9310, 528.8716
230.4131, 529.5583
230.8952, 530.6615
231.3773, 531.9091
231.8595, 533.1456
232.3416, 534.3571
232.8237, 535.4932
233.3058, 536.4134
233.7879, 537.2272
234.2700, 538.2463
234.7522, 539.2723
235.2343, 540.9047
235.7164, 543.7055
236.1985, 547.2577
236.6806, 550.7640
237.1627, 553.8298
237.6449, 556.4785
238.1270, 558.8297
238.6091, 560.6889
239.0912, 562.5237
239.5733, 564.8880
240.0554, 567.3383
240.5376, 569.1906
241.0197, 570.0775
241.5018, 570.0300
241.9839, 569.1088
242.4660, 566.6689
242.9481, 564.1705
243.4303, 561.6861
243.9124, 559.4865
244.3945, 557.9439
244.8766, 557.3057
245.3587, 557.4467
245.8408, 557.8048
246.3230, 558.4516
246.8051, 559.2552
247.2872, 560.1681
247.7693, 561.2126
248.2514, 562.4664
248.7335, 563.9936
249.2157, 565.6802
249.6978, 567.0642
250.1799, 568.3815
250.6620, 569.0179
251.1441, 568.2056
251.6262, 566.9152
252.1084, 566.4383
252.5905, 567.4158
253.0726, 569.2324
253.5547, 569.9437
254.0368, 567.9932
254.5189, 566.7582
255.0011, 566.9240
255.4832, 567.7160
255.9653, 568.1329
256.4474, 567.7578
256.9295, 567.1514
257.4116, 567.6658
257.8937, 570.4640
258.3759, 573.1022
258.8580, 575.8403
259.3401, 578.2939
259.8222, 579.7222
260.3043, 579.9083
260.7864, 579.9041
261.2686, 581.7748
261.7507, 588.1742
262.2328, 592.2054
262.7149, 592.4942
263.1970, 591.0172
263.6791, 589.4553
264.1613, 588.2969
264.6434, 587.5003
265.1255, 587.0599
265.6076, 587.2614
266.0897, 587.1121
266.5718, 586.1455
267.0540, 585.0690
267.5361, 584.3602
268.0182, 584.1426
268.5003, 584.6602
268.9824, 586.2832
269.4645, 589.2905
269.9467, 592.4431
270.4288, 595.0463
270.9109, 598.1991
271.3930, 604.3714
271.8751, 613.4930
272.3572, 620.4592
272.8394, 619.5198
273.3215, 609.9020
273.8036, 602.9773
274.2857, 600.3008
274.7678, 599.3645
275.2499, 598.8034
275.7321, 598.4084
276.2142, 597.4189
276.6963, 594.8979
277.1784, 591.1408
277.6605, 588.6383
278.1426, 588.2662
278.6248, 588.4749
279.1069, 588.1622
279.5890, 587.3973
280.0711, 586.9267
280.5532, 587.3685
281.0353, 588.3967
281.5175, 588.8193
281.9996, 588.1072
282.4817, 587.4413
282.9638, 587.4461
283.4459, 588.0922
283.9280, 589.1253
284.4102, 590.1407
284.8923, 591.8264
285.3744, 595.6393
285.8565, 602.6863
286.3386, 609.0974
286.8207, 612.9569
287.3029, 614.4777
287.7850, 614.1857
288.2671, 611.4713
288.7492, 608.0379
289.2313, 606.3618
289.7134, 606.5413
290.1956, 607.1777
290.6777, 607.5132
291.1598, 607.8046
291.6419, 608.8832
292.1240, 611.2405
292.6061, 613.8212
293.0883, 614.9315
293.5704, 614.8002
294.0525, 615.9443
294.5346, 621.1971
295.0167, 628.0896
295.4988, 631.2067
295.9810, 629.0049
296.4631, 625.7697
296.9452, 624.9202
297.4273, 625.9088
297.9094, 627.6425
298.3915, 630.2278
298.8737, 633.1770
299.3558, 635.8287
299.8379, 638.1816
300.3200, 640.1595
300.8021, 641.1760
301.2842, 641.8499
301.7664, 643.3234
302.2485, 646.4633
302.7306, 649.9256
303.2127, 652.3006
303.6948, 653.5782
304.1769, 654.0414
304.6591, 653.7156
305.1412, 652.6256
305.6233, 650.6756
306.1054, 647.5211
306.5875, 644.3358
307.0696, 642.2665
307.5518, 641.2529
308.0339, 640.0814
308.5160, 637.8762
308.9981, 635.8478
309.4802, 635.4029
309.9623, 636.6892
310.4445, 638.3428
310.9266, 639.7127
311.4087, 640.7523
311.8908, 641.0401
312.3729, 639.8535
312.8550, 638.8405
313.3372, 639.6548
313.8193, 642.0555
314.3014, 644.5546
314.7835, 646.7552
315.2656, 648.4990
315.7477, 649.2359
316.2299, 648.5668
316.7120, 647.7243
317.1941, 647.4172
317.6762, 647.6070
318.1583, 648.3451
318.6404, 650.3066
319.1226, 652.5302
319.6047, 653.2090
320.0868, 651.9902
320.5689, 651.0106
321.0510, 651.5637
321.5331, 653.1110
322.0153, 655.1315
322.4974, 657.9753
322.9795, 660.5368
323.4616, 661.2245
323.9437, 660.0225
324.4258, 659.4720
324.9080, 660.9117
325.3901, 663.2667
325.8722, 665.2097
326.3543, 666.6536
326.8364, 667.8642
327.3185, 668.8933
327.8007, 669.8044
328.2828, 670.9919
328.7649, 672.7813
329.2470, 674.5323
329.7291, 675.5332
330.2112, 675.8445
330.6934, 676.1033
331.1755, 676.4972
331.6576, 677.0650
332.1397, 677.9452
332.6218, 679.2296
333.1039, 680.6074
333.5861, 681.9174
334.0682, 683.1349
334.5503, 684.1668
335.0324, 684.5602
335.5145, 684.9543
335.9966, 686.4610
336.4788, 689.2145
336.9609, 691.5896
337.4430, 692.2098
337.9251, 691.9677
338.4072, 692.5995
338.8894, 694.7662
339.3715, 697.0858
339.8536, 698.3904
340.3357, 698.8036
340.8178, 699.1821
341.3000, 699.7625
341.7821, 700.5560
342.2642, 701.5944
342.7463, 702.9327
343.2284, 704.2117
343.7105, 705.2018
344.1927, 706.0042
344.6748, 706.9697
345.1569, 708.3215
345.6390, 709.4423
346.1211, 709.0603
346.6032, 707.4601
347.0854, 706.8634
347.5675, 708.3703
348.0496, 710.9338
348.5317, 713.5375
349.0138, 716.1320
349.4959, 718.1339
349.9781, 718.8615
350.4602, 718.5817
350.9423, 718.6667
351.4244, 718.9055
351.9065, 719.7715
352.3886, 722.2236
352.8708, 725.8328
353.3529, 728.5316
353.8350, 729.1270
354.3171, 728.3480
354.7992, 727.9080
355.2813, 727.4139
355.7635, 727.9742
356.2456, 731.1149
356.7277, 735.3752
357.2098, 737.8955
357.6919, 737.6959
358.1740, 736.5471
358.6562, 736.9319
359.1383, 739.1297
359.6204, 741.0554
360.1025, 742.2487
360.5846, 743.2216
361.0667, 744.4512
361.5489, 745.9871
362.0310, 747.5381
362.5131, 748.7950
362.9952, 749.7918
363.4773, 751.3320
363.9594, 754.1175
364.4416, 756.7087
364.9237, 758.1866
365.4058, 758.8995
365.8879, 759.7247
366.3700, 761.0786
366.8521, 762.9357
367.3343, 765.2460
367.8164, 768.6850
368.2985, 771.5918
368.7806, 773.6144
369.2627, 775.0539
369.7448, 776.2413
370.2270, 777.2637
370.7091, 777.9764
371.1912, 778.0951
371.6733, 777.2015
372.1554, 777.0297
372.6375, 777.7664
373.1197, 778.9987
373.6018, 781.0771
374.0839, 783.5813
374.5660, 785.1497
375.0481, 784.5331
375.5302, 781.8301
376.0124, 780.4102
376.4945, 781.4864
376.9766, 782.4203
377.4587, 782.4431
377.9408, 782.0073
378.4229, 781.6207
378.9051, 781.5108
379.3872, 781.9879
379.8693, 783.9362
380.3514, 789.1309
380.8335, 792.8189
381.3156, 793.8508
381.7978, 794.1775
382.2799, 795.1321
382.7620, 796.9559
383.2441, 799.1960
383.7262, 801.4460
384.2083, 803.7916
384.6905, 805.5722
385.1726, 805.4874
385.6547, 806.0941
386.1368, 808.8807
386.6189, 812.9493
387.1010, 816.3790
387.5832, 817.8736
388.0653, 818.1345
388.5474, 819.8029
389.0295, 823.9580
389.5116, 827.4781
389.9937, 829.0881
390.4759, 830.1551
390.9580, 831.9806
391.4401, 834.9266
391.9222, 838.2245
392.4043, 841.1078
392.8864, 843.6058
393.3686, 845.3793
393.8507, 845.6931
394.3328, 845.8983
394.8149, 847.0231
395.2970, 848.8041
395.7791, 850.1293
396.2613, 850.0591
396.7434, 848.9971
397.2255, 848.3373
397.7076, 848.3189
398.1897, 848.0839
398.6718, 847.0060
399.1540, 845.4919
399.6361, 844.0103
400.1182, 842.6455
400.6003, 841.4081
401.0824, 840.3802
401.5645, 839.5358
402.0467, 838.5385
402.5288, 836.9847
403.0109, 835.5950
403.4930, 835.2024
403.9751, 835.8055
404.4572, 836.7504
404.9394, 838.0245
405.4215, 839.3796
405.9036, 840.3256
406.3857, 840.7638
406.8678, 841.1149
407.3499, 841.7469
407.8321, 842.5902
408.3142, 843.2673
408.7963, 843.8265
409.2784, 844.1511
409.7605, 843.5102
410.2426, 842.4270
410.7248, 843.0041
411.2069, 846.5707
411.6890, 851.5104
412.1711, 854.0149
412.6532, 853.3408
413.1353, 852.5543
413.6175, 851.8951
414.0996, 851.5167
414.5817, 851.5725
415.0638, 852.0886
415.5459, 853.0328
416.0280, 854.4402
416.5102, 856.3734
416.9923, 858.0500
417.4744, 859.1699
417.9565, 860.3834
418.4386, 862.0060
418.9207, 863.9071
419.4029, 865.9030
419.8850, 867.9175
420.3671, 869.8018
420.8492, 871.1193
421.3313, 871.3484
421.8134, 871.7752
422.2956, 872.2420
422.7777, 873.0432
423.2598, 874.4316
423.7419, 876.4232
424.2240, 878.8871
424.7061, 881.9966
425.1883, 885.9374
425.6704, 887.8821
426.1525, 885.4785
426.6346, 883.5400
427.1167, 883.2860
427.5988, 884.4229
428.0810, 886.5755
428.5631, 889.7041
429.0452, 893.1955
429.5273, 895.7792
430.0094, 897.2892
430.4915, 898.5219
430.9737, 899.3273
431.4558, 900.1270
431.9379, 901.2119
432.4200, 902.5925
432.9021, 904.0365
433.3842, 905.5683
433.8664, 907.0607
434.3485, 907.8923
434.8306, 907.8206
435.3127, 907.5918
435.7948, 907.3136
436.2769, 907.2552
436.7591, 908.0593
437.2412, 910.4883
437.7233, 912.9647
438.2054, 913.7298
438.6875, 913.0476
439.1696, 912.7516
439.6518, 913.5064
440.1339, 914.8593
440.6160, 916.0129
441.0981, 916.8593
441.5802, 918.4648
442.0623, 922.0349
442.5445, 926.0182
443.0266, 928.4900
443.5087, 929.3401
443.9908, 929.8279
444.4729, 930.8817
444.9550, 932.4166
445.4372, 933.6395
445.9193, 934.1536
446.4014, 934.8588
446.8835, 936.1544
447.3656, 937.7781
447.8477, 939.4138
448.3299, 940.9455
448.8120, 942.2638
449.2941, 943.1696
449.7762, 943.4244
450.2583, 943.9348
450.7404, 944.2487
451.2226, 945.1802
451.7047, 947.6951
452.1868, 951.2269
452.6689, 954.3301
453.1510, 955.9935
453.6331, 956.5423
454.1153, 957.2907
454.5974, 958.1683
455.0795, 959.3990
455.5616, 961.6132
456.0437, 963.7620
456.5258, 964.6496
457.0080, 964.1923
457.4901, 963.7332
457.9722, 964.8308
458.4543, 967.4529
458.9364, 969.7262
459.4185, 971.5551
459.9007, 973.0598
460.3828, 974.0888
460.8649, 974.9085
461.3470, 976.0701
461.8291, 978.0242
462.3112, 979.9667
462.7934, 980.4926
463.2755, 979.6898
463.7576, 979.9533
464.2397, 982.5341
464.7218, 985.9041
465.2039, 988.0524
465.6861, 988.9738
466.1682, 989.9994
466.6503, 991.9283
467.1324, 994.0209
467.6145, 995.1223
468.0966, 995.2203
468.5788, 995.6912
469.0609, 997.6570
469.5430, 1000.679
470.0251, 1002.572
470.5072, 1002.070
470.9893, 1002.183
471.4715, 1004.245
471.9536, 1007.097
472.4357, 1009.373
472.9178, 1010.695
473.3999, 1011.328
473.8820, 1011.448
474.3642, 1010.785
474.8463, 1011.195
475.3284, 1013.534
475.8105, 1015.902
476.2926, 1017.746
476.7747, 1019.105
477.2569, 1019.959
477.7390, 1020.261
478.2211, 1020.548
478.7032, 1022.213
479.1853, 1026.139
479.6674, 1028.906
480.1496, 1028.927
480.6317, 1028.695
481.1138, 1029.501
481.5959, 1031.321
482.0780, 1033.515
482.5602, 1036.001
483.0423, 1038.434
483.5244, 1039.541
484.0065, 1038.784
484.4886, 1038.691
484.9707, 1041.204
485.4529, 1044.559
485.9350, 1046.649
486.4171, 1047.099
486.8992, 1047.079
487.3813, 1046.309
487.8634, 1045.719
488.3456, 1048.192
488.8277, 1054.641
489.3098, 1060.524
489.7919, 1061.275
490.2740, 1057.359
490.7561, 1056.130
491.2383, 1060.100
491.7204, 1064.061
492.2025, 1065.167
492.6846, 1064.693
493.1667, 1065.235
493.6488, 1067.701
494.1310, 1070.806
494.6131, 1072.474
495.0952, 1071.986
495.5773, 1072.318
496.0594, 1073.512
496.5415, 1075.349
497.0237, 1078.167
497.5058, 1081.508
497.9879, 1084.572
498.4700, 1086.940
498.9521, 1088.608
499.4342, 1089.478
499.9164, 1089.125
500.3985, 1089.036
500.8806, 1088.866
501.3627, 1089.451
501.8448, 1091.997
502.3269, 1096.089
502.8091, 1099.557
503.2912, 1100.486
503.7733, 1099.815
504.2554, 1100.049
504.7375, 1101.309
505.2196, 1102.941
505.7018, 1104.868
506.1839, 1106.887
506.6660, 1108.734
507.1481, 1110.389
507.6302, 1111.892
508.1123, 1112.949
508.5945, 1113.970
509.0766, 1115.844
509.5587, 1118.713
510.0408, 1121.487
510.5229, 1123.190
511.0050, 1123.937
511.4872, 1125.223
511.9693, 1127.403
512.4514, 1129.621
512.9335, 1131.753
513.4156, 1133.730
513.8977, 1135.438
514.3798, 1136.855
514.8619, 1138.181
515.3441, 1139.651
515.8262, 1141.297
516.3083, 1142.875
516.7904, 1144.741
517.2725, 1146.145
517.7546, 1146.678
518.2368, 1146.665
518.7189, 1146.424
519.2010, 1146.052
519.6831, 1145.963
520.1652, 1146.795
520.6473, 1148.583
521.1295, 1150.819
521.6116, 1154.036
522.0937, 1156.898
522.5758, 1158.203
523.0579, 1158.449
523.5400, 1159.098
524.0222, 1161.081
524.5043, 1163.266
524.9864, 1164.284
525.4685, 1164.351
525.9506, 1164.623
526.4327, 1165.429
526.9149, 1166.812
527.3970, 1169.110
527.8791, 1172.633
528.3612, 1175.224
528.8433, 1175.664
529.3254, 1175.978
529.8076, 1177.824
530.2897, 1180.777
530.7718, 1183.331
531.2539, 1184.652
531.7360, 1185.225
532.2181, 1186.323
532.7003, 1188.475
533.1824, 1190.132
533.6645, 1190.503
534.1466, 1191.072
534.6287, 1193.026
535.1108, 1196.002
535.5930, 1198.684
536.0751, 1200.107
536.5572, 1200.798
537.0393, 1202.309
537.5214, 1204.909
538.0035, 1207.192
538.4857, 1208.236
538.9678, 1209.214
539.4499, 1211.535
539.9320, 1215.130
540.4141, 1217.909
540.8962, 1217.748
541.3784, 1216.726
541.8605, 1218.540
542.3426, 1223.098
542.8247, 1226.088
543.3068, 1224.587
543.7889, 1220.782
544.2711, 1220.528
544.7532, 1225.245
545.2353, 1229.534
545.7174, 1232.617
546.1995, 1235.007
546.6816, 1236.752
547.1638, 1238.134
547.6459, 1239.902
548.1280, 1242.603
548.6101, 1246.081
549.0922, 1249.726
549.5743, 1254.178
550.0565, 1257.606
550.5386, 1258.957
551.0207, 1260.032
551.5028, 1262.226
551.9849, 1265.520
552.4670, 1268.863
552.9492, 1271.243
553.4313, 1273.197
553.9134, 1276.642
554.3955, 1281.998
554.8776, 1286.668
555.3597, 1289.194
555.8419, 1290.800
556.3240, 1293.194
556.8061, 1296.480
557.2882, 1299.848
557.7703, 1302.775
558.2524, 1305.758
558.7346, 1309.737
559.2167, 1314.579
559.6988, 1318.506
560.1809, 1320.129
560.6630, 1320.644
561.1451, 1323.880
561.6273, 1332.820
562.1094, 1340.422
562.5915, 1345.987
563.0736, 1350.667
563.5557, 1355.294
564.0378, 1359.865
564.5200, 1363.659
565.0021, 1365.937
565.4842, 1367.493
565.9663, 1371.266
566.4484, 1378.178
566.9305, 1384.544
567.4127, 1390.110
567.8948, 1394.292
568.3769, 1396.179
568.8590, 1395.996
569.3411, 1395.492
569.8232, 1396.001
570.3054, 1396.493
570.7875, 1395.340
571.2696, 1392.613
571.7517, 1389.324
572.2338, 1385.543
572.7159, 1381.949
573.1981, 1380.058
573.6802, 1380.619
574.1623, 1379.824
574.6444, 1375.279
575.1265, 1371.045
575.6086, 1370.541
576.0908, 1372.703
576.5729, 1374.415
577.0550, 1374.061
577.5371, 1372.285
578.0192, 1370.332
578.5013, 1367.790
578.9835, 1366.188
579.4656, 1365.974
579.9477, 1366.380
580.4298, 1367.464
580.9119, 1368.886
581.3940, 1369.998
581.8762, 1370.510
582.3583, 1370.579
582.8404, 1369.950
583.3225, 1368.788
583.8046, 1368.986
584.2867, 1371.235
584.7689, 1374.391
585.2510, 1377.682
585.7332, 1381.019
586.2153, 1383.366
586.6974, 1383.682
587.1795, 1383.991
587.6616, 1385.940
588.1437, 1388.443
588.6259, 1389.108
589.1080, 1387.344
589.5901, 1385.504
590.0722, 1386.662
590.5543, 1391.225
591.0364, 1394.891
591.5186, 1397.215
592.0007, 1399.097
592.4828, 1400.347
592.9649, 1401.450
593.4470, 1403.150
593.9291, 1405.609
594.4113, 1407.773
594.8934, 1408.093
595.3755, 1407.182
595.8576, 1407.893
596.3397, 1410.665
596.8218, 1413.793
597.3040, 1416.352
597.7861, 1418.572
598.2682, 1421.089
598.7503, 1424.230
599.2324, 1426.853
599.7145, 1428.054
600.1967, 1428.898
600.6788, 1430.692
601.1609, 1433.381
601.6430, 1435.807
602.1251, 1437.116
602.6072, 1437.765
603.0894, 1439.619
603.5715, 1444.494
604.0536, 1447.152
604.5357, 1445.538
605.0178, 1443.344
605.4999, 1442.512
605.9821, 1443.091
606.4642, 1444.473
606.9463, 1446.472
607.4284, 1448.859
607.9105, 1451.120
608.3926, 1453.285
608.8748, 1456.541
609.3569, 1462.014
609.8390, 1467.170
610.3211, 1468.441
610.8032, 1466.249
611.2853, 1465.810
611.7675, 1469.198
612.2496, 1472.872
612.7317, 1475.286
613.2138, 1476.634
613.6959, 1477.144
614.1780, 1476.943
614.6602, 1476.444
615.1423, 1475.894
615.6244, 1475.183
616.1065, 1476.721
616.5886, 1482.453
617.0707, 1487.785
617.5529, 1491.675
618.0350, 1494.527
618.5171, 1496.529
618.9992, 1497.761
619.4813, 1498.956
619.9634, 1500.795
620.4456, 1502.961
620.9277, 1504.661
621.4098, 1505.844
621.8919, 1507.185
622.3740, 1508.990
622.8561, 1511.192
623.3383, 1513.799
623.8204, 1517.135
624.3025, 1519.837
624.7846, 1521.177
625.2667, 1522.329
625.7488, 1524.260
626.2310, 1526.646
626.7131, 1528.558
627.1952, 1529.517
627.6773, 1530.026
628.1594, 1530.842
628.6415, 1531.850
629.1237, 1533.865
629.6058, 1538.145
630.0879, 1541.816
630.5700, 1542.697
631.0521, 1542.250
631.5342, 1543.084
632.0164, 1546.011
632.4985, 1549.792
632.9806, 1554.368
633.4627, 1558.953
633.9448, 1561.789
634.4269, 1562.649
634.9091, 1562.947
635.3912, 1563.651
635.8733, 1564.682
636.3554, 1565.653
636.8375, 1565.497
637.3196, 1566.779
637.8018, 1570.981
638.2839, 1575.499
638.7660, 1578.605
639.2481, 1580.324
639.7302, 1581.334
640.2123, 1581.861
640.6945, 1582.381
641.1766, 1583.934
641.6587, 1586.570
642.1408, 1589.236
642.6229, 1592.112
643.1050, 1594.355
643.5872, 1594.167
644.0693, 1592.487
644.5514, 1592.981
645.0335, 1597.789
645.5156, 1602.982
645.9977, 1607.155
646.4799, 1610.428
646.9620, 1612.820
647.4441, 1614.392
647.9262, 1615.404
648.4083, 1615.972
648.8904, 1616.232
649.3726, 1617.176
649.8547, 1618.967
650.3368, 1621.147
650.8189, 1624.161
651.3010, 1627.087
651.7831, 1628.948
652.2653, 1629.988
652.7474, 1631.648
653.2295, 1635.323
653.7116, 1639.318
654.1937, 1641.119
654.6758, 1641.254
655.1580, 1642.352
655.6401, 1645.295
656.1222, 1648.603
656.6043, 1650.687
657.0864, 1651.484
657.5685, 1652.159
658.0507, 1651.961
658.5328, 1652.597
659.0149, 1655.253
659.4970, 1658.484
659.9791, 1660.752
660.4612, 1661.898
660.9434, 1662.825
661.4255, 1664.076
661.9076, 1665.790
662.3897, 1668.693
662.8718, 1673.031
663.3539, 1676.604
663.8361, 1678.594
664.3182, 1679.691
664.8003, 1680.311
665.2824, 1680.517
665.7645, 1681.548
666.2466, 1683.808
666.7288, 1686.719
667.2109, 1690.559
667.6930, 1694.630
668.1751, 1697.795
668.6572, 1699.788
669.1393, 1701.160
669.6215, 1702.421
670.1036, 1703.595
670.5857, 1704.944
671.0678, 1706.197
671.5499, 1708.193
672.0320, 1712.015
672.5142, 1716.097
672.9963, 1719.375
673.4784, 1721.766
673.9605, 1723.465
674.4426, 1723.486
674.9247, 1723.719
675.4069, 1727.030
675.8890, 1732.164
