##NAMES=Stringhamite
##RRUFFID=R110018
##IDEAL CHEMISTRY=CaCu^2+^SiO_4_&#183;H_2_O
##LOCALITY=Christmas mine, Gila County, Arizona, USA
##OWNER=RRUFF
##SOURCE=Bob Jenkins
##DESCRIPTION=Deep blue platy crystals
##STATUS=The identification of this mineral has been confirmed by single-crystal X-ray diffraction.
##URL=rruff.info/R110018
187.6822, 29.20829
188.1643, 29.51639
188.6464, 31.50829
189.1285, 34.86233
189.6107, 37.47681
190.0928, 38.82984
190.5749, 39.17389
191.0570, 38.85578
191.5391, 37.80593
192.0212, 36.91931
192.5034, 36.98386
192.9855, 37.96137
193.4676, 39.60860
193.9497, 42.40413
194.4318, 45.72166
194.9139, 46.55607
195.3961, 44.45620
195.8782, 42.23888
196.3603, 43.19961
196.8424, 47.40068
197.3245, 50.83219
197.8066, 52.43052
198.2888, 52.41778
198.7709, 51.87364
199.2530, 50.56654
199.7351, 49.52063
200.2172, 49.84381
200.6993, 51.60665
201.1815, 54.09018
201.6636, 57.49309
202.1457, 61.64307
202.6278, 64.28137
203.1099, 64.88630
203.5920, 65.19704
204.0742, 67.19918
204.5563, 71.08463
205.0384, 75.55980
205.5205, 80.40308
206.0026, 85.60034
206.4847, 90.81187
206.9669, 96.29709
207.4490, 101.3411
207.9311, 105.1600
208.4132, 107.6403
208.8953, 109.3651
209.3774, 110.4285
209.8596, 110.8386
210.3417, 110.8155
210.8238, 110.4265
211.3059, 109.5148
211.7880, 107.4122
212.2701, 103.1968
212.7523, 100.6250
213.2344, 100.8636
213.7165, 104.0243
214.1986, 107.9832
214.6807, 112.4871
215.1628, 118.0550
215.6450, 125.4848
216.1271, 135.5062
216.6092, 145.6322
217.0913, 155.1360
217.5734, 163.9310
218.0555, 173.4994
218.5377, 184.4951
219.0198, 195.7358
219.5019, 205.6918
219.9840, 215.2307
220.4661, 221.9655
220.9482, 226.1326
221.4304, 228.4596
221.9125, 221.7083
222.3946, 202.4018
222.8767, 177.3704
223.3588, 154.8531
223.8409, 135.6449
224.3231, 118.1444
224.8052, 101.3579
225.2873, 84.81633
225.7694, 73.58836
226.2515, 69.68055
226.7336, 69.18443
227.2158, 66.70441
227.6979, 60.64868
228.1800, 55.85860
228.6621, 54.03798
229.1442, 55.70095
229.6263, 56.46697
230.1085, 56.15108
230.5906, 55.08583
231.0727, 53.53411
231.5548, 50.87703
232.0369, 48.91869
232.5190, 48.03662
233.0012, 48.20129
233.4833, 49.85012
233.9654, 54.24470
234.4475, 59.08948
234.9296, 61.29543
235.4117, 58.85540
235.8939, 57.43962
236.3760, 58.57460
236.8581, 62.53973
237.3402, 66.61213
237.8223, 70.76015
238.3044, 75.04471
238.7866, 79.65694
239.2687, 85.55153
239.7508, 90.05605
240.2329, 92.32989
240.7150, 92.15199
241.1971, 92.09801
241.6793, 92.03647
242.1614, 92.21680
242.6435, 93.28340
243.1256, 97.19070
243.6077, 98.31229
244.0898, 94.41335
244.5720, 84.98006
245.0541, 78.47254
245.5362, 75.98599
246.0183, 75.35024
246.5004, 74.37476
246.9825, 72.65001
247.4647, 71.40040
247.9468, 71.14407
248.4289, 71.92508
248.9110, 71.67527
249.3931, 69.71530
249.8752, 67.46117
250.3574, 66.39067
250.8395, 67.39462
251.3216, 67.68835
251.8037, 66.20893
252.2858, 63.05455
252.7679, 62.41898
253.2501, 66.16369
253.7322, 70.17524
254.2143, 70.46174
254.6964, 64.42751
255.1785, 60.63946
255.6606, 61.40471
256.1428, 66.21309
256.6249, 68.54396
257.1070, 67.18582
257.5891, 65.04851
258.0712, 64.33711
258.5533, 65.25100
259.0355, 67.17935
259.5176, 70.64919
259.9997, 75.19764
260.4818, 77.85649
260.9639, 77.57587
261.4460, 77.12569
261.9282, 78.74788
262.4103, 83.36510
262.8924, 87.33630
263.3745, 90.65225
263.8566, 93.01118
264.3387, 92.47085
264.8209, 88.12395
265.3030, 82.75297
265.7851, 77.74252
266.2672, 72.76713
266.7493, 69.53205
267.2314, 68.36172
267.7136, 68.94894
268.1957, 70.37894
268.6778, 72.81979
269.1599, 75.64719
269.6420, 78.88610
270.1241, 82.97304
270.6063, 84.92813
271.0884, 83.69624
271.5705, 80.82035
272.0526, 80.43567
272.5347, 83.21689
273.0168, 86.26320
273.4990, 88.48174
273.9811, 90.05744
274.4632, 89.47444
274.9453, 86.56905
275.4274, 81.65493
275.9095, 74.40636
276.3917, 64.20866
276.8738, 55.20342
277.3559, 49.90804
277.8380, 48.54436
278.3201, 46.13832
278.8022, 42.38331
279.2844, 38.10710
279.7665, 34.39399
280.2486, 31.14001
280.7307, 29.28959
281.2128, 29.82283
281.6949, 32.55828
282.1771, 34.10894
282.6592, 34.31754
283.1413, 33.81019
283.6234, 33.31839
284.1055, 32.84184
284.5876, 32.29585
285.0698, 31.29234
285.5519, 30.11166
286.0340, 30.61149
286.5161, 33.04817
286.9982, 35.88190
287.4803, 37.13850
287.9625, 36.96300
288.4446, 37.34095
288.9267, 38.89672
289.4088, 41.41897
289.8909, 44.71454
290.3730, 48.88626
290.8552, 52.49989
291.3373, 53.45989
291.8194, 52.36037
292.3015, 52.54686
292.7836, 55.58334
293.2657, 59.78249
293.7479, 61.01793
294.2300, 59.36842
294.7121, 58.14273
295.1942, 60.35487
295.6763, 65.13789
296.1584, 70.08193
296.6406, 74.93412
297.1227, 79.29556
297.6048, 81.81491
298.0869, 82.86682
298.5690, 85.01261
299.0511, 90.65500
299.5333, 98.56499
300.0154, 106.1542
300.4975, 112.9463
300.9796, 119.5441
301.4617, 127.1170
301.9438, 135.2290
302.4260, 142.6157
302.9081, 148.8206
303.3902, 153.7089
303.8723, 157.1705
304.3544, 159.3258
304.8365, 159.4079
305.3187, 156.9490
305.8008, 151.9260
306.2829, 144.2020
306.7650, 131.7174
307.2471, 117.6243
307.7292, 105.0769
308.2114, 94.29403
308.6935, 84.39742
309.1756, 74.69615
309.6577, 65.52139
310.1398, 57.22877
310.6219, 49.05222
311.1041, 42.60728
311.5862, 40.02253
312.0683, 41.15175
312.5504, 41.64417
313.0325, 37.77354
313.5146, 32.51828
313.9968, 29.02769
314.4789, 30.28943
314.9610, 31.66389
315.4431, 30.24160
315.9252, 26.66384
316.4073, 24.37243
316.8895, 26.61193
317.3716, 29.69245
317.8537, 30.85293
318.3358, 27.88752
318.8179, 25.24022
319.3000, 24.59376
319.7822, 25.41510
320.2643, 26.20856
320.7464, 26.24257
321.2285, 26.34788
321.7106, 26.95386
322.1927, 28.26731
322.6749, 29.74491
323.1570, 31.80727
323.6391, 33.89770
324.1212, 35.06420
324.6033, 33.86476
325.0854, 32.87758
325.5676, 33.06018
326.0497, 34.87008
326.5318, 36.32318
327.0139, 37.72636
327.4960, 38.55103
327.9781, 38.20462
328.4603, 35.68911
328.9424, 33.09266
329.4245, 30.40851
329.9066, 27.53686
330.3887, 26.14001
330.8708, 27.43361
331.3530, 29.24133
331.8351, 29.81792
332.3172, 28.05509
332.7993, 26.91634
333.2814, 26.93153
333.7635, 27.89978
334.2457, 28.51058
334.7278, 28.68643
335.2099, 28.60918
335.6920, 28.30495
336.1741, 27.58743
336.6563, 27.18679
337.1384, 27.09469
337.6205, 27.37052
338.1026, 28.32052
338.5847, 30.20191
339.0668, 31.94772
339.5490, 33.03826
340.0311, 33.39971
340.5132, 33.76183
340.9953, 34.25964
341.4774, 34.49961
341.9595, 33.47741
342.4417, 31.00059
342.9238, 29.42775
343.4059, 30.07691
343.8880, 32.46902
344.3701, 33.47368
344.8522, 32.91876
345.3344, 31.83837
345.8165, 31.12650
346.2986, 30.77962
346.7807, 30.86894
347.2628, 31.82521
347.7449, 32.91431
348.2271, 31.99154
348.7092, 29.13107
349.1913, 26.52956
349.6734, 26.07801
350.1555, 27.17673
350.6376, 28.45880
351.1198, 29.93234
351.6019, 30.98074
352.0840, 30.51150
352.5661, 28.83872
353.0482, 27.16769
353.5303, 25.89681
354.0125, 25.14817
354.4946, 25.13507
354.9767, 25.91669
355.4588, 27.17352
355.9409, 28.92148
356.4230, 30.94177
356.9052, 32.80770
357.3873, 34.78765
357.8694, 36.24131
358.3515, 36.32535
358.8336, 35.07154
359.3157, 34.11329
359.7979, 34.33516
360.2800, 35.31347
360.7621, 36.61998
361.2442, 38.61852
361.7263, 40.41821
362.2084, 41.62598
362.6906, 42.32851
363.1727, 42.88476
363.6548, 42.62874
364.1369, 42.80256
364.6190, 44.24111
365.1011, 47.80701
365.5833, 51.21054
366.0654, 54.37460
366.5475, 57.09459
367.0296, 58.98266
367.5117, 59.30869
367.9938, 59.43120
368.4760, 59.71988
368.9581, 60.19845
369.4402, 60.75518
369.9223, 61.08595
370.4044, 61.66618
370.8865, 63.15180
371.3687, 67.37991
371.8508, 69.58426
372.3329, 68.27109
372.8150, 63.76505
373.2971, 60.44236
373.7792, 58.57687
374.2614, 57.43357
374.7435, 56.55920
375.2256, 55.94027
375.7077, 55.69097
376.1898, 56.06183
376.6719, 56.64302
377.1541, 55.99287
377.6362, 53.64093
378.1183, 52.23484
378.6004, 53.60343
379.0825, 57.75243
379.5646, 60.83662
380.0468, 62.79976
380.5289, 63.92274
381.0110, 64.10750
381.4931, 63.47262
381.9752, 63.64859
382.4573, 65.75029
382.9395, 68.86584
383.4216, 70.21336
383.9037, 69.79089
384.3858, 69.46049
384.8679, 71.00440
385.3500, 73.85546
385.8322, 76.68539
386.3143, 79.35829
386.7964, 81.67665
387.2785, 83.01012
387.7606, 83.68891
388.2427, 84.84991
388.7249, 87.01257
389.2070, 90.04327
389.6891, 94.19937
390.1712, 99.73752
390.6533, 104.8416
391.1354, 108.2895
391.6176, 110.5751
392.0997, 112.4673
392.5818, 112.8202
393.0639, 114.0983
393.5460, 118.5616
394.0281, 125.9658
394.5103, 131.8796
394.9924, 134.9990
395.4745, 135.8498
395.9566, 134.7963
396.4387, 131.4059
396.9208, 126.7504
397.4030, 120.4974
397.8851, 113.0560
398.3672, 105.6057
398.8493, 96.87537
399.3314, 89.40726
399.8135, 84.55331
400.2957, 83.97788
400.7778, 81.01212
401.2599, 74.03821
401.7420, 65.71815
402.2241, 59.24319
402.7062, 55.22160
403.1884, 51.92833
403.6705, 49.22494
404.1526, 47.06155
404.6347, 44.38602
405.1168, 40.78551
405.5989, 37.64516
406.0811, 36.38258
406.5632, 37.35146
407.0453, 37.14673
407.5274, 35.14180
408.0095, 32.21255
408.4916, 29.97614
408.9738, 28.42591
409.4559, 27.62249
409.9380, 28.52654
410.4201, 30.38715
410.9022, 29.22261
411.3843, 24.56636
411.8665, 20.06355
412.3486, 20.60106
412.8307, 24.55407
413.3128, 26.89462
413.7949, 25.38525
414.2770, 22.19153
414.7592, 19.70642
415.2413, 17.90486
415.7234, 16.78418
416.2055, 16.27772
416.6876, 16.46086
417.1697, 17.75355
417.6519, 20.80946
418.1340, 23.09525
418.6161, 22.34765
419.0982, 19.91018
419.5803, 17.99008
420.0624, 17.46068
420.5446, 17.63513
421.0267, 18.52792
421.5088, 20.14974
421.9909, 21.26144
422.4730, 20.81965
422.9551, 20.17074
423.4373, 20.31843
423.9194, 22.83153
424.4015, 24.44994
424.8836, 24.19526
425.3657, 22.76056
425.8478, 22.24865
426.3300, 23.55920
426.8121, 24.71837
427.2942, 24.82961
427.7763, 23.39481
428.2584, 23.26108
428.7405, 25.28926
429.2227, 27.64917
429.7048, 27.95266
430.1869, 25.47983
430.6690, 23.87136
431.1511, 24.30855
431.6332, 26.12066
432.1154, 26.39659
432.5975, 24.94004
433.0796, 23.10278
433.5617, 21.75977
434.0438, 20.84728
434.5259, 19.76655
435.0081, 18.27119
435.4902, 17.24209
435.9723, 19.04116
436.4544, 22.75076
436.9365, 24.44308
437.4186, 20.08620
437.9008, 13.74966
438.3829, 11.56351
438.8650, 13.34099
439.3471, 15.74863
439.8292, 16.63879
440.3113, 16.67844
440.7935, 16.67107
441.2756, 16.87931
441.7577, 16.95973
442.2398, 16.60774
442.7219, 15.98373
443.2040, 15.43923
443.6862, 14.82069
444.1683, 14.54807
444.6504, 15.03069
445.1325, 16.46697
445.6146, 17.44856
446.0967, 17.61168
446.5789, 17.27772
447.0610, 16.72032
447.5431, 15.53068
448.0252, 14.65096
448.5073, 14.37778
448.9894, 14.48835
449.4716, 14.01610
449.9537, 12.29193
450.4358, 11.07474
450.9179, 11.40919
451.4000, 13.76888
451.8821, 14.87907
452.3643, 14.41292
452.8464, 13.26049
453.3285, 12.42868
453.8106, 11.92985
454.2927, 11.48559
454.7748, 10.78942
455.2570, 10.24840
455.7391, 11.42472
456.2212, 14.28313
456.7033, 16.91434
457.1854, 17.97024
457.6675, 17.76841
458.1497, 16.71741
458.6318, 14.65411
459.1139, 12.81374
459.5960, 12.43728
460.0781, 13.18647
460.5602, 14.35938
461.0424, 16.76079
461.5245, 18.63038
462.0066, 17.87999
462.4887, 14.98713
462.9708, 12.95898
463.4529, 14.51961
463.9351, 16.68483
464.4172, 17.17938
464.8993, 14.38346
465.3814, 12.51009
465.8635, 13.05547
466.3456, 14.98061
466.8278, 16.65895
467.3099, 18.75507
467.7920, 19.65722
468.2741, 18.38417
468.7562, 15.00815
469.2383, 13.19401
469.7205, 13.69984
470.2026, 14.78256
470.6847, 15.27520
471.1668, 14.87130
471.6489, 15.17098
472.1310, 16.77375
472.6132, 18.46313
473.0953, 17.34039
473.5774, 13.03157
474.0595, 10.45742
474.5416, 12.55408
475.0237, 17.69121
475.5059, 19.67592
475.9880, 18.44897
476.4701, 16.21079
476.9522, 14.17665
477.4343, 12.58049
477.9164, 12.11092
478.3986, 13.13796
478.8807, 14.61816
479.3628, 15.65809
479.8449, 16.36184
480.3270, 16.94987
480.8091, 17.46439
481.2913, 17.94621
481.7734, 18.44625
482.2555, 18.96017
482.7376, 19.37436
483.2197, 19.55362
483.7018, 19.67192
484.1840, 19.86905
484.6661, 20.40698
485.1482, 20.65378
485.6303, 20.07856
486.1124, 19.23477
486.5945, 19.16067
487.0767, 20.10463
487.5588, 21.51882
488.0409, 23.61819
488.5230, 26.36766
489.0051, 27.69530
489.4872, 27.13170
489.9694, 26.05474
490.4515, 25.48421
490.9336, 25.48324
491.4157, 25.22120
491.8978, 24.45382
492.3799, 23.73617
492.8621, 24.13063
493.3442, 25.53878
493.8263, 27.03110
494.3084, 28.26977
494.7905, 29.30964
495.2726, 30.06014
495.7548, 30.56979
496.2369, 31.54511
496.7190, 34.00939
497.2011, 37.04921
497.6832, 39.42818
498.1653, 40.75512
498.6475, 41.91759
499.1296, 43.67464
499.6117, 45.58052
500.0938, 46.88297
500.5759, 46.08413
501.0580, 45.90900
501.5402, 48.06478
502.0223, 52.31871
502.5044, 55.06639
502.9865, 53.97411
503.4686, 52.75463
503.9507, 53.28663
504.4329, 56.53482
504.9150, 59.29322
505.3971, 61.87406
505.8792, 63.72811
506.3613, 63.95947
506.8434, 62.23661
507.3256, 60.10754
507.8077, 57.64762
508.2898, 55.14044
508.7719, 53.80294
509.2540, 53.71852
509.7361, 53.47539
510.2183, 51.83587
510.7004, 49.27184
511.1825, 47.29988
511.6646, 46.00770
512.1467, 45.38650
512.6288, 45.62907
513.1110, 46.49406
513.5931, 47.54861
514.0752, 48.80644
514.5573, 50.01805
515.0394, 51.25779
515.5215, 52.35128
516.0037, 52.73902
516.4858, 51.62785
516.9679, 50.22203
517.4500, 48.99317
517.9321, 47.90465
518.4142, 47.50060
518.8964, 49.26849
519.3785, 50.92002
519.8606, 50.52161
520.3427, 45.98056
520.8248, 43.03020
521.3069, 43.09584
521.7891, 44.54827
522.2712, 43.00127
522.7533, 37.34436
523.2354, 32.37662
523.7175, 29.87602
524.1996, 29.66627
524.6818, 30.66949
525.1639, 33.10624
525.6460, 34.87976
526.1281, 33.21580
526.6102, 29.30832
527.0923, 27.28021
527.5745, 28.21928
528.0566, 29.62592
528.5387, 28.44116
529.0208, 25.72287
529.5029, 23.67804
529.9850, 23.53831
530.4672, 24.17264
530.9493, 25.32160
531.4314, 26.78026
531.9135, 27.43992
532.3956, 26.57759
532.8777, 25.02847
533.3599, 22.99493
533.8420, 19.74951
534.3241, 18.07934
534.8062, 19.20273
535.2883, 21.39556
535.7704, 23.09534
536.2526, 24.72814
536.7347, 24.81018
537.2168, 22.28514
537.6989, 18.42475
538.1810, 17.36453
538.6631, 19.58632
539.1453, 22.11487
539.6274, 23.59624
540.1095, 24.15386
540.5916, 24.37752
541.0737, 24.22846
541.5558, 24.27512
542.0380, 25.63103
542.5201, 27.49809
543.0022, 27.79074
543.4843, 25.37566
543.9664, 23.33184
544.4485, 25.18791
544.9307, 29.18568
545.4128, 32.02990
545.8949, 30.84979
546.3770, 29.63470
546.8591, 30.69329
547.3412, 33.74190
547.8234, 35.80868
548.3055, 34.92287
548.7876, 34.03008
549.2697, 34.74343
549.7518, 37.98114
550.2339, 39.90532
550.7161, 39.33871
551.1982, 38.65417
551.6803, 40.90682
552.1624, 47.06104
552.6445, 51.37577
553.1266, 52.19006
553.6088, 51.40280
554.0909, 53.72010
554.5730, 59.05095
555.0551, 64.57938
555.5372, 68.78255
556.0193, 72.20698
556.5015, 76.04249
556.9836, 80.28251
557.4657, 84.70879
557.9478, 89.09519
558.4299, 93.59767
558.9120, 98.47149
559.3942, 103.7319
559.8763, 109.3060
560.3584, 114.8371
560.8405, 120.7377
561.3226, 127.6355
561.8047, 136.7600
562.2869, 145.7267
562.7690, 153.7488
563.2511, 161.0678
563.7332, 168.9991
564.2153, 178.8915
564.6974, 187.2690
565.1796, 191.9641
565.6617, 192.5778
566.1438, 197.1772
566.6259, 206.8318
567.1080, 217.2334
567.5901, 224.7582
568.0723, 229.5869
568.5544, 232.6297
569.0365, 234.1363
569.5186, 233.6762
570.0007, 230.3631
570.4828, 224.6191
570.9650, 217.5535
571.4471, 209.1216
571.9292, 199.9784
572.4113, 190.4248
572.8934, 180.5363
573.3755, 171.0663
573.8577, 162.4644
574.3398, 154.1237
574.8219, 145.4580
575.3040, 136.0371
575.7861, 128.0402
576.2682, 122.3680
576.7504, 117.5452
577.2325, 112.6140
577.7146, 107.9249
578.1967, 101.9549
578.6788, 93.89409
579.1609, 85.22618
579.6431, 78.97044
580.1252, 75.27334
580.6073, 71.69416
581.0894, 67.18314
581.5715, 62.33055
582.0536, 58.65477
582.5358, 56.06401
583.0179, 53.80311
583.5000, 51.56329
583.9821, 49.22369
584.4642, 46.51830
584.9464, 43.39589
585.4285, 40.41040
585.9106, 37.57117
586.3927, 35.17256
586.8748, 33.56043
587.3569, 33.34446
587.8391, 33.05895
588.3212, 32.65041
588.8033, 31.95247
589.2854, 30.63938
589.7675, 28.05877
590.2496, 25.91771
590.7318, 24.57306
591.2139, 23.96317
591.6960, 24.02203
592.1781, 24.96417
592.6602, 25.57583
593.1423, 24.78146
593.6245, 22.95709
594.1066, 22.28692
594.5887, 22.86270
595.0708, 23.58979
595.5529, 23.34425
596.0350, 22.60723
596.5172, 22.35846
596.9993, 23.15166
597.4814, 23.45696
597.9635, 21.20066
598.4456, 18.03030
598.9277, 16.44280
599.4099, 18.94444
599.8920, 21.20174
600.3741, 21.92719
600.8562, 21.33110
601.3383, 20.65617
601.8204, 19.47457
602.3026, 18.85839
602.7847, 19.56335
603.2668, 21.65084
603.7489, 21.87269
604.2310, 19.80429
604.7131, 17.31870
605.1953, 15.83368
605.6774, 15.25417
606.1595, 14.91018
606.6416, 14.70043
607.1237, 14.89630
607.6058, 16.40958
608.0880, 18.47945
608.5701, 19.56963
609.0522, 18.69304
609.5343, 17.32176
610.0164, 16.05062
610.4985, 15.03598
610.9807, 14.64255
611.4628, 15.99492
611.9449, 16.98900
612.4270, 16.45727
612.9091, 14.43304
613.3912, 13.67209
613.8734, 15.34535
614.3555, 16.68877
614.8376, 16.04025
615.3197, 12.97062
615.8018, 11.39533
616.2839, 11.61378
616.7661, 12.33923
617.2482, 12.10311
617.7303, 11.14143
618.2124, 10.84758
618.6945, 11.63080
619.1766, 12.59707
619.6588, 12.45121
620.1409, 11.72448
620.6230, 11.50991
621.1051, 13.15330
621.5872, 14.60447
622.0693, 14.25699
622.5515, 12.66770
623.0336, 11.78704
623.5157, 12.96416
623.9978, 14.10927
624.4799, 14.39922
624.9620, 13.78926
625.4442, 13.35506
625.9263, 13.11200
626.4084, 13.02427
626.8905, 13.13316
627.3726, 13.45883
627.8547, 13.59077
628.3369, 13.47838
628.8190, 13.32690
629.3011, 13.45424
629.7832, 13.74778
630.2653, 13.85002
630.7474, 13.67787
631.2296, 13.29057
631.7117, 12.32232
632.1938, 11.21853
632.6759, 10.85508
633.1580, 12.49520
633.6401, 14.01482
634.1223, 14.54382
634.6044, 14.19302
635.0865, 13.61788
635.5686, 11.88335
636.0507, 11.10461
636.5328, 12.42840
637.0150, 16.01724
637.4971, 17.86407
637.9792, 17.67803
638.4613, 16.60905
638.9434, 14.90769
639.4255, 12.80846
639.9077, 12.74098
640.3898, 15.13256
640.8719, 17.73554
641.3540, 18.26749
641.8361, 17.28859
642.3182, 15.60738
642.8004, 12.82212
643.2825, 10.70105
643.7646, 11.24477
644.2467, 13.03704
644.7288, 13.78110
645.2109, 10.82109
645.6931, 8.949350
646.1752, 10.37117
646.6573, 13.92994
647.1394, 15.51917
647.6215, 14.28031
648.1036, 12.74934
648.5858, 11.69886
649.0679, 11.13446
649.5500, 11.38769
650.0321, 12.51952
650.5142, 13.69809
650.9963, 14.49903
651.4785, 14.84777
651.9606, 14.34899
652.4427, 12.91835
652.9248, 11.50831
653.4069, 10.49962
653.8890, 10.04219
654.3712, 10.42240
654.8533, 12.35475
655.3354, 13.78606
655.8175, 13.48171
656.2996, 12.53480
656.7817, 12.51902
657.2639, 14.71419
657.7460, 15.69288
658.2281, 14.45761
658.7102, 12.06981
659.1923, 11.36835
659.6744, 12.57632
660.1566, 13.56756
660.6387, 13.24672
661.1208, 12.34838
661.6029, 13.31018
662.0850, 15.78234
662.5671, 17.19272
663.0493, 14.31540
663.5314, 10.57053
664.0135, 10.01207
664.4956, 12.80613
664.9777, 14.57829
665.4598, 11.73282
665.9420, 8.501372
666.4241, 7.794214
666.9062, 11.43139
667.3883, 13.85617
667.8704, 14.70634
668.3525, 14.69551
668.8347, 14.43167
669.3168, 13.91762
669.7989, 13.01428
670.2810, 11.51835
670.7631, 10.07841
671.2452, 9.896458
671.7274, 10.68785
672.2095, 11.27172
672.6916, 10.99769
673.1737, 10.76458
673.6558, 11.63888
674.1379, 13.26018
674.6201, 14.80331
675.1022, 16.87692
675.5843, 17.84788
676.0664, 16.16902
676.5485, 12.30187
677.0306, 10.08687
677.5128, 10.27982
677.9949, 11.30697
678.4770, 13.09840
678.9591, 15.61338
679.4412, 15.53714
679.9233, 12.28933
680.4055, 9.314076
680.8876, 9.643909
681.3697, 12.24430
681.8518, 13.81769
682.3339, 14.10341
682.8160, 13.93091
683.2982, 13.49397
683.7803, 13.21369
684.2624, 13.80484
684.7445, 16.07284
685.2266, 17.44583
685.7087, 16.06663
686.1909, 13.74934
