##NAMES=Strontianite
##RRUFFID=R040037
##IDEAL CHEMISTRY=SrCO_3_
##LOCALITY=Alston Moor, Cumbria, England
##OWNER=RRUFF
##SOURCE=University of Arizona Mineral Museum
##DESCRIPTION=Group of tan colored crystals
##STATUS=The identification of this mineral has been confirmed by X-ray diffraction and chemical analysis
##URL=rruff.info/R040037
##MEASURED CHEMISTRY=(Sr_0.91_Ca_0.09_)_Î£=1_CO_3_; CO_2_ estimated by difference
132.0572, 411.0800
132.5394, 418.7623
133.0215, 427.5795
133.5036, 437.5351
133.9857, 449.4517
134.4678, 461.6776
134.9499, 473.6017
135.4321, 485.8270
135.9142, 499.4091
136.3963, 515.0378
136.8784, 532.4755
137.3605, 550.0427
137.8426, 566.7295
138.3248, 584.5164
138.8069, 604.2922
139.2890, 626.0530
139.7711, 649.2640
140.2532, 673.4783
140.7353, 699.3224
141.2175, 727.3969
141.6996, 757.7164
142.1817, 790.3694
142.6638, 825.4876
143.1459, 862.7775
143.6280, 903.2660
144.1102, 949.0691
144.5923, 998.4231
145.0744, 1049.260
145.5565, 1103.206
146.0386, 1157.968
146.5207, 1208.284
147.0029, 1259.110
147.4850, 1296.234
147.9671, 1319.116
148.4492, 1326.139
148.9313, 1313.814
149.4134, 1276.883
149.8955, 1214.829
150.3777, 1146.537
150.8598, 1062.923
151.3419, 980.2126
151.8240, 901.0906
152.3061, 826.9781
152.7882, 759.9745
153.2704, 701.8752
153.7525, 653.2108
154.2346, 612.9361
154.7167, 580.7653
155.1988, 554.5838
155.6809, 533.7485
156.1631, 517.7821
156.6452, 506.0908
157.1273, 497.9122
157.6094, 494.3412
158.0915, 492.9241
158.5736, 494.2687
159.0558, 497.4053
159.5379, 501.4077
160.0200, 505.9871
160.5021, 511.5168
160.9842, 518.9736
161.4663, 528.8475
161.9485, 538.5880
162.4306, 547.2664
162.9127, 555.4770
163.3948, 564.3310
163.8769, 573.9740
164.3590, 584.8896
164.8412, 597.5738
165.3233, 612.0558
165.8054, 627.7889
166.2875, 644.2833
166.7696, 661.6843
167.2517, 680.4633
167.7339, 700.2134
168.2160, 722.2101
168.6981, 747.1177
169.1802, 775.0258
169.6623, 805.5101
170.1444, 837.8536
170.6266, 871.8307
171.1087, 908.7207
171.5908, 950.3302
172.0729, 994.0847
172.5550, 1038.739
173.0371, 1083.889
173.5193, 1129.675
174.0014, 1176.867
174.4835, 1224.875
174.9656, 1275.600
175.4477, 1328.772
175.9298, 1384.478
176.4120, 1442.807
176.8941, 1503.797
177.3762, 1567.634
177.8583, 1634.444
178.3404, 1708.558
178.8225, 1780.289
179.3047, 1854.772
179.7868, 1924.992
180.2689, 1985.141
180.7510, 2032.057
181.2331, 2065.196
181.7152, 2080.104
182.1974, 2081.110
182.6795, 2059.408
183.1616, 2009.752
183.6437, 1936.337
184.1258, 1844.410
184.6079, 1735.767
185.0900, 1612.154
185.5722, 1487.052
186.0543, 1355.242
186.5364, 1227.629
187.0185, 1105.337
187.5006, 990.3404
187.9827, 885.5490
188.4649, 793.5499
188.9470, 714.9363
189.4291, 645.8222
189.9112, 587.8983
190.3933, 536.8202
190.8754, 490.8178
191.3576, 449.7200
191.8397, 413.8848
192.3218, 384.3325
192.8039, 360.4403
193.2860, 339.6273
193.7681, 322.4845
194.2503, 307.6280
194.7324, 293.5785
195.2145, 280.1699
195.6966, 268.3083
196.1787, 259.2656
196.6608, 251.8965
197.1430, 245.1616
197.6251, 238.9814
198.1072, 233.0627
198.5893, 226.8434
199.0714, 220.0512
199.5535, 213.6128
200.0357, 208.1236
200.5178, 203.1021
200.9999, 197.9240
201.4820, 192.1710
201.9641, 186.2140
202.4462, 181.1683
202.9284, 177.5664
203.4105, 174.0148
203.8926, 169.7897
204.3747, 165.4408
204.8568, 161.6808
205.3389, 158.9641
205.8211, 157.0652
206.3032, 155.0152
206.7853, 152.4409
207.2674, 150.1812
207.7495, 148.4608
208.2316, 147.1206
208.7138, 145.9137
209.1959, 144.6855
209.6780, 143.4749
210.1601, 142.6056
210.6422, 142.6062
211.1243, 142.4053
211.6065, 141.4702
212.0886, 140.2420
212.5707, 139.4371
213.0528, 139.5147
213.5349, 140.4157
214.0170, 141.6303
214.4992, 143.5760
214.9813, 145.3482
215.4634, 146.7492
215.9455, 147.7898
216.4276, 148.5431
216.9097, 149.0467
217.3919, 149.2984
217.8740, 149.2524
218.3561, 148.8171
218.8382, 148.2587
219.3203, 147.5843
219.8024, 146.8511
220.2845, 146.1718
220.7667, 145.5569
221.2488, 145.0889
221.7309, 145.0998
222.2130, 145.5461
222.6951, 146.4317
223.1772, 147.9705
223.6594, 150.0447
224.1415, 152.0518
224.6236, 153.5210
225.1057, 154.7587
225.5878, 156.7072
226.0699, 159.7219
226.5521, 163.0337
227.0342, 166.1351
227.5163, 169.0647
227.9984, 172.0954
228.4805, 175.0664
228.9626, 178.4636
229.4448, 183.0856
229.9269, 189.3821
230.4090, 196.2705
230.8911, 202.7725
231.3732, 208.8563
231.8553, 215.4824
232.3375, 222.9487
232.8196, 231.3098
233.3017, 240.6025
233.7838, 250.9527
234.2659, 261.9210
234.7480, 273.0565
235.2302, 284.3586
235.7123, 295.8738
236.1944, 308.9646
236.6765, 321.5031
237.1586, 331.7447
237.6407, 339.3423
238.1229, 344.6165
238.6050, 347.5150
239.0871, 347.6640
239.5692, 347.3701
240.0513, 346.0039
240.5334, 345.1476
241.0156, 345.9668
241.4977, 348.7271
241.9798, 352.8125
242.4619, 357.6092
242.9440, 363.3269
243.4261, 369.0081
243.9083, 374.7938
244.3904, 380.2790
244.8725, 385.6317
245.3546, 390.7610
245.8367, 394.6378
246.3188, 395.7868
246.8010, 393.7813
247.2831, 390.2095
247.7652, 385.0193
248.2473, 378.5682
248.7294, 370.9413
249.2115, 362.1928
249.6937, 352.5088
250.1758, 342.0615
250.6579, 330.5634
251.1400, 318.8634
251.6221, 306.0461
252.1042, 293.6804
252.5864, 282.7265
253.0685, 273.1973
253.5506, 264.6876
254.0327, 256.4950
254.5148, 248.1474
254.9969, 241.9036
255.4790, 238.1651
255.9612, 235.7308
256.4433, 234.1405
256.9254, 233.2789
257.4075, 233.2124
257.8896, 234.1359
258.3718, 236.4066
258.8539, 238.0675
259.3360, 239.2648
259.8181, 239.8815
260.3002, 239.9051
260.7823, 239.3059
261.2645, 238.0765
261.7466, 236.3063
262.2287, 234.1638
262.7108, 229.9490
263.1929, 222.6003
263.6750, 214.6891
264.1572, 207.0055
264.6393, 199.7117
265.1214, 192.8631
265.6035, 186.4808
266.0856, 180.5936
266.5677, 174.8840
267.0499, 169.0555
267.5320, 163.5932
268.0141, 158.6770
268.4962, 154.2808
268.9783, 150.2775
269.4604, 146.6073
269.9426, 143.2503
270.4247, 140.1169
270.9068, 137.1885
271.3889, 134.4274
271.8710, 131.7431
272.3531, 129.2070
272.8352, 127.0298
273.3174, 125.3802
273.7995, 124.1377
274.2816, 122.7118
274.7637, 120.7558
275.2458, 119.0453
275.7279, 117.9881
276.2101, 117.3398
276.6922, 116.5789
277.1743, 115.4377
277.6564, 114.0877
278.1385, 113.0135
278.6206, 112.3588
279.1028, 111.6563
279.5849, 110.6347
280.0670, 109.5028
280.5491, 108.6838
281.0312, 108.3823
281.5133, 108.2929
281.9955, 107.7692
282.4776, 106.6785
282.9597, 105.7349
283.4418, 105.2292
283.9239, 104.9390
284.4060, 104.4963
284.8882, 103.7868
285.3703, 102.9964
285.8524, 102.4135
286.3345, 102.0559
286.8166, 101.6156
287.2987, 100.8420
287.7809, 100.0265
288.2630, 99.63795
288.7451, 99.79810
289.2272, 100.0102
289.7093, 99.66946
290.1914, 98.81545
290.6736, 98.15954
291.1557, 97.99116
291.6378, 97.97141
292.1199, 97.73131
292.6020, 97.23197
293.0841, 96.65279
293.5663, 96.08565
294.0484, 95.55164
294.5305, 95.14587
295.0126, 94.96946
295.4947, 94.86411
295.9768, 94.69478
296.4590, 94.46069
296.9411, 94.22179
297.4232, 94.01839
297.9053, 93.83717
298.3874, 93.63570
298.8695, 93.41318
299.3517, 93.16788
299.8338, 92.81972
300.3159, 92.40434
300.7980, 92.20975
301.2801, 92.50680
301.7622, 92.99860
302.2444, 93.05560
302.7265, 92.49596
303.2086, 91.94978
303.6907, 91.78435
304.1728, 91.92843
304.6549, 92.15841
305.1371, 92.47816
305.6192, 92.74451
306.1013, 92.75213
306.5834, 92.49824
307.0655, 92.13239
307.5476, 91.61027
308.0298, 91.02724
308.5119, 90.59425
308.9940, 90.35240
309.4761, 90.27571
309.9582, 90.43969
310.4403, 90.80470
310.9225, 91.04139
311.4046, 90.99681
311.8867, 90.77708
312.3688, 90.46821
312.8509, 90.03055
313.3330, 89.76499
313.8152, 90.14596
314.2973, 90.95234
314.7794, 91.44540
315.2615, 91.31178
315.7436, 90.89835
316.2257, 90.58207
316.7079, 90.37505
317.1900, 90.08863
317.6721, 89.54558
318.1542, 88.85352
318.6363, 88.26379
319.1184, 87.72362
319.6006, 87.38152
320.0827, 87.44634
320.5648, 87.86780
321.0469, 88.27212
321.5290, 88.51223
322.0111, 87.94142
322.4933, 88.72849
322.9754, 89.13480
323.4575, 89.18082
323.9396, 87.78742
324.4217, 88.25274
324.9038, 87.97316
325.3860, 87.66302
325.8681, 88.38995
326.3502, 87.20591
326.8323, 87.91638
327.3144, 87.87061
327.7965, 88.17094
328.2787, 87.72178
328.7608, 87.50412
329.2429, 88.03619
329.7250, 88.15313
330.2071, 87.61771
330.6892, 87.94004
331.1714, 86.72980
331.6535, 86.86443
332.1356, 87.57929
332.6177, 87.08154
333.0998, 87.41759
333.5819, 87.43608
334.0641, 86.01141
334.5462, 87.09653
335.0283, 87.09625
335.5104, 85.98151
335.9925, 86.98064
336.4746, 86.01955
336.9568, 85.75811
337.4389, 86.02325
337.9210, 85.73947
338.4031, 86.32111
338.8852, 86.06904
339.3673, 85.74247
339.8495, 85.74096
340.3316, 84.81830
340.8137, 85.60459
341.2958, 85.22353
341.7779, 85.42273
342.2600, 84.43046
342.7421, 84.41090
343.2242, 85.30885
343.7064, 85.81087
344.1885, 85.30226
344.6706, 84.46256
345.1527, 84.07578
345.6348, 84.25235
346.1169, 84.58997
346.5991, 84.77882
347.0812, 84.79470
347.5633, 84.60487
348.0454, 83.68748
348.5275, 82.99440
349.0096, 83.46836
349.4918, 84.86974
349.9739, 85.97960
350.4560, 86.00993
350.9381, 85.17937
351.4202, 84.61223
351.9023, 84.45040
352.3845, 84.34020
352.8666, 84.14909
353.3487, 83.93839
353.8308, 83.82722
354.3129, 83.86600
354.7950, 84.00141
355.2772, 84.15184
355.7593, 84.42587
356.2414, 84.47151
356.7235, 84.01684
357.2056, 83.44878
357.6877, 83.18375
358.1699, 83.28337
358.6520, 83.48250
359.1341, 83.48218
359.6162, 83.22013
360.0983, 83.10392
360.5804, 83.29555
361.0626, 83.47143
361.5447, 83.46706
362.0268, 83.29110
362.5089, 82.99369
362.9910, 82.57607
363.4731, 82.08041
363.9553, 81.92720
364.4374, 82.53826
364.9195, 82.97068
365.4016, 82.86520
365.8837, 82.51294
366.3658, 82.36813
366.8480, 82.61758
367.3301, 83.02086
367.8122, 83.04450
368.2943, 82.25181
368.7764, 81.75015
369.2585, 81.69109
369.7407, 81.79395
370.2228, 81.91188
370.7049, 81.98925
371.1870, 81.97272
371.6691, 81.78333
372.1512, 81.37919
372.6334, 81.06356
373.1155, 80.90349
373.5976, 80.76235
374.0797, 80.59990
374.5618, 80.41766
375.0439, 80.21101
375.5261, 79.96110
376.0082, 79.70767
376.4903, 79.66038
376.9724, 80.00242
377.4545, 80.30006
377.9366, 80.53416
378.4188, 80.66975
378.9009, 80.62256
379.3830, 80.37267
379.8651, 80.08287
380.3472, 80.07738
380.8293, 80.53308
381.3115, 80.68377
381.7936, 80.15456
382.2757, 79.55705
382.7578, 79.18713
383.2399, 79.05750
383.7220, 79.02590
384.2042, 78.96346
384.6863, 78.87990
385.1684, 78.94749
385.6505, 79.39816
386.1326, 79.66051
386.6147, 79.28408
387.0969, 78.63737
387.5790, 78.36610
388.0611, 78.87864
388.5432, 79.66734
389.0253, 79.72646
389.5074, 78.86260
389.9896, 78.12325
390.4717, 77.93224
390.9538, 77.97489
391.4359, 78.01519
391.9180, 78.01864
392.4001, 78.06727
392.8823, 78.25668
393.3644, 78.56242
393.8465, 78.85425
394.3286, 79.16133
394.8107, 79.36023
395.2928, 79.25756
395.7750, 78.94426
396.2571, 78.75615
396.7392, 78.96209
397.2213, 79.30161
397.7034, 79.37942
398.1855, 79.17165
398.6677, 78.92970
399.1498, 78.78134
399.6319, 78.70303
400.1140, 78.62545
400.5961, 78.51435
401.0782, 78.45834
401.5604, 78.56834
402.0425, 78.77975
402.5246, 78.90315
403.0067, 78.87431
403.4888, 78.74973
403.9709, 78.58273
404.4531, 78.35823
404.9352, 78.20279
405.4173, 78.24974
405.8994, 78.30878
406.3815, 78.12774
406.8636, 77.71201
407.3458, 77.34592
407.8279, 77.26498
408.3100, 77.45593
408.7921, 77.62977
409.2742, 77.85801
409.7563, 77.99478
410.2385, 77.93616
410.7206, 77.75630
411.2027, 77.56004
411.6848, 77.38742
412.1669, 77.28214
412.6490, 77.34164
413.1311, 77.70515
413.6133, 78.00340
414.0954, 78.26222
414.5775, 78.44031
415.0596, 78.53116
415.5417, 78.51841
416.0238, 78.33363
416.5060, 77.86173
416.9881, 77.08786
417.4702, 76.67984
417.9523, 77.04267
418.4344, 77.34388
418.9165, 77.34927
419.3987, 77.18560
419.8808, 77.04910
420.3629, 77.03028
420.8450, 77.07549
421.3271, 77.07870
421.8092, 77.04199
422.2914, 76.95492
422.7735, 76.66567
423.2556, 76.44327
423.7377, 76.53618
424.2198, 76.90977
424.7019, 77.25668
425.1841, 77.30993
425.6662, 77.09077
426.1483, 76.77996
426.6304, 76.18504
427.1125, 75.83033
427.5946, 76.06479
428.0768, 76.63065
428.5589, 77.20017
429.0410, 77.75015
429.5231, 78.06930
430.0052, 77.69896
430.4873, 76.61720
430.9695, 75.86726
431.4516, 75.90575
431.9337, 76.27694
432.4158, 76.45650
432.8979, 76.44240
433.3800, 76.43057
433.8622, 76.56264
434.3443, 76.74394
434.8264, 76.79866
435.3085, 76.70128
435.7906, 76.54295
436.2727, 76.35777
436.7549, 76.16374
437.2370, 76.03780
437.7191, 76.08721
438.2012, 76.09742
438.6833, 75.86398
439.1654, 75.50193
439.6476, 75.32820
440.1297, 75.48568
440.6118, 75.76960
441.0939, 75.82775
441.5760, 75.57373
442.0581, 75.32040
442.5403, 75.01521
443.0224, 74.76437
443.5045, 74.67243
443.9866, 74.72553
444.4687, 74.83672
444.9508, 74.95363
445.4330, 75.06607
445.9151, 75.05919
446.3972, 74.88234
446.8793, 74.64304
447.3614, 74.20445
447.8435, 73.77818
448.3257, 73.65323
448.8078, 73.90100
449.2899, 74.27650
449.7720, 74.43421
450.2541, 74.34219
450.7362, 74.13796
451.2184, 73.57890
451.7005, 73.13436
452.1826, 73.08696
452.6647, 73.31105
453.1468, 73.47767
453.6289, 73.36455
454.1111, 73.09277
454.5932, 73.00356
455.0753, 73.15473
455.5574, 73.31184
456.0395, 73.36346
456.5216, 73.40923
457.0038, 73.58181
457.4859, 73.90190
457.9680, 74.11465
458.4501, 73.91499
458.9322, 73.43247
459.4143, 73.21278
459.8965, 73.43433
460.3786, 73.58620
460.8607, 73.00626
461.3428, 72.02908
461.8249, 71.55798
462.3070, 72.18592
462.7892, 72.94282
463.2713, 73.03284
463.7534, 72.61289
464.2355, 72.27707
464.7176, 72.25970
465.1997, 72.39760
465.6819, 72.40897
466.1640, 72.25588
466.6461, 72.13261
467.1282, 72.10486
467.6103, 72.08304
468.0924, 71.94910
468.5746, 71.73019
469.0567, 71.59573
469.5388, 71.68713
470.0209, 71.95863
470.5030, 72.09534
470.9851, 71.93214
471.4673, 71.83205
471.9494, 71.88682
472.4315, 71.99629
472.9136, 72.06351
473.3957, 72.06296
473.8778, 72.02880
474.3600, 72.01953
474.8421, 72.05721
475.3242, 71.95164
475.8063, 71.47942
476.2884, 71.09846
476.7705, 71.03014
477.2527, 71.13872
477.7348, 71.17908
478.2169, 71.02354
478.6990, 70.81181
479.1811, 70.82670
479.6632, 71.11345
480.1454, 71.23148
480.6275, 70.94711
481.1096, 70.58395
481.5917, 70.43739
482.0738, 70.48680
482.5559, 70.49495
483.0380, 70.23595
483.5201, 69.91199
484.0023, 69.90517
484.4844, 70.23951
484.9665, 70.54799
485.4486, 70.64644
485.9307, 70.56422
486.4128, 70.38251
486.8950, 69.99978
487.3771, 69.73757
487.8592, 69.73927
488.3413, 69.91258
488.8234, 70.20483
489.3055, 70.58958
489.7877, 70.87328
490.2698, 70.83997
490.7519, 70.46719
491.2340, 70.21450
491.7161, 70.21261
492.1982, 70.15751
492.6804, 69.84653
493.1625, 69.45754
493.6446, 69.28169
494.1267, 69.41970
494.6088, 69.67809
495.0909, 69.73072
495.5731, 69.50077
496.0552, 69.30885
496.5373, 69.17778
497.0194, 69.06466
497.5015, 68.98531
497.9836, 68.90984
498.4658, 68.75062
498.9479, 68.40285
499.4300, 68.05329
499.9121, 68.14597
500.3942, 68.77239
500.8763, 69.27648
501.3585, 69.47978
501.8406, 69.47160
502.3227, 69.28411
502.8048, 68.92934
503.2869, 68.63522
503.7690, 68.53690
504.2512, 68.55382
504.7333, 68.56401
505.2154, 68.56075
505.6975, 68.60796
506.1796, 68.78860
506.6617, 69.02098
507.1439, 69.04189
507.6260, 68.76271
508.1081, 68.47282
508.5902, 68.25267
509.0723, 68.06078
509.5544, 67.79269
510.0366, 67.45876
510.5187, 67.25895
511.0008, 67.41204
511.4829, 67.91624
511.9650, 68.23090
512.4471, 68.25147
512.9293, 68.20554
513.4114, 68.06621
513.8935, 67.91432
514.3756, 67.87104
514.8577, 67.95900
515.3398, 68.03643
515.8220, 67.85691
516.3041, 67.37326
516.7862, 67.15236
517.2683, 67.32215
517.7504, 67.61115
518.2325, 68.07773
518.7147, 68.52876
519.1968, 68.58308
519.6789, 67.98867
520.1610, 67.26751
520.6431, 67.03458
521.1252, 67.23333
521.6074, 67.40508
522.0895, 67.43401
522.5716, 67.42222
523.0537, 67.54399
523.5358, 67.76717
524.0179, 67.77156
524.5001, 67.27037
524.9822, 66.73991
525.4643, 66.50507
525.9464, 66.52370
526.4285, 66.68471
526.9106, 66.96128
527.3928, 67.22536
527.8749, 67.21687
528.3570, 66.69491
528.8391, 66.46679
529.3212, 66.82658
529.8033, 67.18779
530.2855, 67.17001
530.7676, 66.87811
531.2497, 66.63973
531.7318, 66.65366
532.2139, 66.81982
532.6960, 66.87420
533.1782, 66.77872
533.6603, 66.67974
534.1424, 66.76402
534.6245, 66.71712
535.1066, 66.18685
535.5887, 65.29565
536.0709, 64.61169
536.5530, 64.57199
537.0351, 64.90052
537.5172, 65.13126
537.9993, 65.26450
538.4814, 65.25584
538.9636, 64.97710
539.4457, 64.64851
539.9278, 64.65451
540.4099, 65.04229
540.8920, 65.42107
541.3741, 65.72210
541.8563, 65.94056
542.3384, 66.06605
542.8205, 66.10284
543.3026, 66.07481
543.7847, 66.00185
544.2668, 65.86767
544.7490, 65.60950
545.2311, 64.91393
545.7132, 64.53910
546.1953, 64.75657
546.6774, 65.09649
547.1595, 65.27540
547.6417, 65.24393
548.1238, 65.01389
548.6059, 64.52225
549.0880, 63.89737
549.5701, 63.68865
550.0522, 64.06931
550.5344, 64.42185
551.0165, 64.57668
551.4986, 64.61816
551.9807, 64.53334
552.4628, 64.33813
552.9449, 64.26082
553.4271, 64.61141
553.9092, 65.10023
554.3913, 65.18156
554.8734, 64.82813
555.3555, 64.39278
555.8376, 64.01012
556.3198, 63.71126
556.8019, 63.60196
557.2840, 63.77089
557.7661, 63.87482
558.2482, 63.74406
558.7303, 63.59412
559.2125, 63.64953
559.6946, 63.89185
560.1767, 64.14104
560.6588, 64.27936
561.1409, 64.30992
561.6230, 64.24258
562.1052, 64.01003
562.5873, 63.78943
563.0694, 63.64458
563.5515, 63.47980
564.0336, 63.15751
564.5157, 62.72589
564.9979, 62.42452
565.4800, 62.48166
565.9621, 62.75180
566.4442, 62.85063
566.9263, 62.75207
567.4084, 62.65715
567.8906, 62.62981
568.3727, 62.65179
568.8548, 62.70900
569.3369, 62.80579
569.8190, 62.86983
570.3011, 62.85726
570.7833, 62.81382
571.2654, 62.76910
571.7475, 62.73251
572.2296, 62.74877
572.7117, 62.85722
573.1938, 62.98372
573.6760, 62.94314
574.1581, 62.58689
574.6402, 62.33404
575.1223, 62.14090
575.6044, 62.08105
576.0865, 62.29647
576.5687, 62.68004
577.0508, 62.96788
577.5329, 62.99712
578.0150, 62.89393
578.4971, 62.95748
578.9792, 63.23842
579.4614, 63.38266
579.9435, 63.14031
580.4256, 62.95036
580.9077, 63.34843
581.3898, 64.11502
581.8719, 64.39309
582.3541, 63.48956
582.8362, 62.32508
583.3183, 61.71564
583.8004, 61.59352
584.2825, 61.80397
584.7646, 62.35762
585.2468, 62.91632
585.7289, 63.02696
586.2110, 62.59317
586.6931, 62.23384
587.1752, 61.96006
587.6573, 61.74558
588.1394, 61.60488
588.6215, 61.50771
589.1036, 61.39465
589.5858, 61.24934
590.0679, 61.13892
590.5500, 61.15351
591.0321, 61.29788
591.5142, 61.52885
591.9963, 61.95797
592.4785, 62.30458
592.9606, 62.55488
593.4427, 62.62268
593.9248, 62.28262
594.4069, 61.37231
594.8890, 60.59121
595.3712, 60.57055
595.8533, 61.04049
596.3354, 61.36556
596.8175, 61.45695
597.2996, 61.55609
597.7817, 61.88700
598.2639, 62.36509
598.7460, 62.51246
599.2281, 62.10170
599.7102, 61.72272
600.1923, 61.44591
600.6744, 61.24810
601.1566, 61.12477
601.6387, 61.06562
602.1208, 61.05745
602.6029, 61.10811
603.0850, 61.17710
603.5671, 61.06969
604.0493, 60.66457
604.5314, 60.40748
605.0135, 60.47032
605.4956, 60.66058
605.9777, 60.92485
606.4598, 61.22525
606.9420, 61.41104
607.4241, 61.32247
607.9062, 61.14072
608.3883, 61.12154
608.8704, 61.22256
609.3525, 61.19081
609.8347, 60.91430
610.3168, 60.55034
610.7989, 60.29444
611.2810, 60.14292
611.7631, 60.16176
612.2452, 60.54708
612.7274, 60.88331
613.2095, 60.91425
613.6916, 60.80989
614.1737, 60.88546
614.6558, 61.23074
615.1379, 61.57353
615.6201, 61.50893
616.1022, 61.02155
616.5843, 60.71368
617.0664, 60.68385
617.5485, 60.66194
618.0306, 60.42729
618.5128, 60.17186
618.9949, 60.18726
619.4770, 60.57549
619.9591, 60.88145
620.4412, 60.72772
620.9233, 60.38555
621.4055, 60.26213
621.8876, 60.38484
622.3697, 60.63336
622.8518, 60.98500
623.3339, 61.32734
623.8160, 61.32264
624.2982, 60.70075
624.7803, 60.15779
625.2624, 59.53001
625.7445, 59.12468
626.2266, 59.29277
626.7087, 59.83062
627.1909, 60.24641
627.6730, 60.26958
628.1551, 60.10212
