##NAMES=Stromeyerite
##RRUFFID=R060909
##IDEAL CHEMISTRY=Cu^1+^Ag^1+^S^2-^
##LOCALITY=Gowganda, Ontario, Canada
##OWNER=RRUFF
##SOURCE=Royal Ontario Museum
##DESCRIPTION=Grey, metallic, pseudohexagonal flakes, conchoidal fracture
##STATUS=The identification of this mineral has been confirmed by X-ray diffraction and chemical analysis
##URL=rruff.info/R060909
##MEASURED CHEMISTRY=Ag_1.00_Cu_1.00_S_1.00_
166.8464, 5324.482
167.3285, 5398.764
167.8106, 5459.005
168.2927, 5496.861
168.7749, 5523.234
169.2570, 5547.041
169.7391, 5568.396
170.2212, 5587.966
170.7033, 5607.525
171.1854, 5625.643
171.6676, 5638.282
172.1497, 5634.205
172.6318, 5630.262
173.1139, 5648.786
173.5960, 5692.809
174.0781, 5736.763
174.5603, 5764.864
175.0424, 5779.876
175.5245, 5786.388
176.0066, 5776.174
176.4887, 5762.203
176.9708, 5764.065
177.4530, 5785.154
177.9351, 5802.760
178.4172, 5793.203
178.8993, 5769.722
179.3814, 5757.743
179.8635, 5768.601
180.3457, 5791.838
180.8278, 5814.283
181.3099, 5835.462
181.7920, 5857.325
182.2741, 5883.025
182.7562, 5909.997
183.2384, 5933.686
183.7205, 5951.132
184.2026, 5965.320
184.6847, 5979.430
185.1668, 5992.375
185.6489, 6009.066
186.1311, 6040.622
186.6132, 6077.120
187.0953, 6102.215
187.5774, 6103.072
188.0595, 6094.251
188.5416, 6097.821
189.0238, 6115.599
189.5059, 6138.967
189.9880, 6175.491
190.4701, 6212.668
190.9522, 6228.346
191.4343, 6195.940
191.9165, 6151.978
192.3986, 6157.524
192.8807, 6224.021
193.3628, 6296.340
193.8449, 6349.070
194.3270, 6387.640
194.8092, 6415.426
195.2913, 6428.463
195.7734, 6435.638
196.2555, 6450.525
196.7376, 6474.629
197.2197, 6500.469
197.7019, 6524.390
198.1840, 6547.782
198.6661, 6572.011
199.1482, 6597.466
199.6303, 6624.158
200.1124, 6653.798
200.5946, 6688.221
201.0767, 6717.364
201.5588, 6733.766
202.0409, 6742.359
202.5230, 6746.788
203.0051, 6744.766
203.4873, 6743.060
203.9694, 6748.695
204.4515, 6760.939
204.9336, 6784.810
205.4157, 6844.109
205.8978, 6908.773
206.3800, 6941.598
206.8621, 6924.861
207.3442, 6889.441
207.8263, 6867.931
208.3084, 6860.113
208.7905, 6867.470
209.2727, 6907.929
209.7548, 6956.797
210.2369, 6984.633
210.7190, 6979.022
211.2011, 6966.862
211.6832, 6977.446
212.1654, 7012.039
212.6475, 7049.496
213.1296, 7084.864
213.6117, 7117.403
214.0938, 7146.783
214.5760, 7173.585
215.0581, 7195.476
215.5402, 7209.307
216.0223, 7215.098
216.5044, 7218.820
216.9865, 7220.464
217.4687, 7222.479
217.9508, 7224.963
218.4329, 7225.853
218.9150, 7236.601
219.3971, 7273.808
219.8792, 7335.052
220.3614, 7385.625
220.8435, 7408.480
221.3256, 7422.590
221.8077, 7452.718
222.2898, 7502.542
222.7719, 7546.935
223.2541, 7560.428
223.7362, 7549.799
224.2183, 7554.481
224.7004, 7590.713
225.1825, 7637.879
225.6646, 7674.071
226.1468, 7699.469
226.6289, 7715.857
227.1110, 7717.971
227.5931, 7710.785
228.0752, 7710.561
228.5573, 7720.124
229.0395, 7738.457
229.5216, 7768.465
230.0037, 7809.282
230.4858, 7843.554
230.9679, 7858.601
231.4500, 7861.990
231.9322, 7869.909
232.4143, 7884.549
232.8964, 7904.781
233.3785, 7933.890
233.8606, 7970.081
234.3427, 8000.325
234.8249, 8012.779
235.3070, 8019.345
235.7891, 8042.939
236.2712, 8090.276
236.7533, 8134.548
237.2354, 8146.595
237.7176, 8132.392
238.1997, 8120.045
238.6818, 8112.273
239.1639, 8110.379
239.6460, 8115.672
240.1281, 8128.285
240.6103, 8148.602
241.0924, 8183.354
241.5745, 8228.063
242.0566, 8256.248
242.5387, 8254.247
243.0208, 8243.580
243.5030, 8242.175
243.9851, 8249.595
244.4672, 8253.912
244.9493, 8244.734
245.4314, 8226.136
245.9135, 8219.683
246.3957, 8235.396
246.8778, 8253.740
247.3599, 8263.393
247.8420, 8266.160
248.3241, 8269.177
248.8062, 8276.289
249.2884, 8286.302
249.7705, 8294.624
250.2526, 8296.987
250.7347, 8302.739
251.2168, 8304.842
251.6989, 8312.796
252.1811, 8356.076
252.6632, 8455.394
253.1453, 8576.645
253.6274, 8629.746
254.1095, 8586.684
254.5916, 8532.356
255.0738, 8466.397
255.5559, 8402.632
256.0380, 8362.085
256.5201, 8352.064
257.0022, 8359.695
257.4843, 8363.503
257.9665, 8360.587
258.4486, 8359.302
258.9307, 8361.828
259.4128, 8365.117
259.8949, 8365.895
260.3770, 8363.695
260.8592, 8361.145
261.3413, 8361.598
261.8234, 8366.435
262.3055, 8370.527
262.7876, 8379.928
263.2697, 8384.174
263.7519, 8371.934
264.2340, 8345.812
264.7161, 8320.052
265.1982, 8307.979
265.6803, 8310.564
266.1624, 8319.493
266.6446, 8338.342
267.1267, 8359.110
267.6088, 8384.324
268.0909, 8409.369
268.5730, 8424.140
269.0551, 8420.385
269.5373, 8399.710
270.0194, 8382.227
270.5015, 8364.489
270.9836, 8354.312
271.4657, 8359.507
271.9478, 8371.864
272.4300, 8378.106
272.9121, 8370.460
273.3942, 8355.896
273.8763, 8358.098
274.3584, 8396.746
274.8405, 8420.171
275.3227, 8402.877
275.8048, 8377.184
276.2869, 8378.969
276.7690, 8420.750
277.2511, 8474.394
277.7332, 8486.638
278.2154, 8434.177
278.6975, 8411.504
279.1796, 8460.731
279.6617, 8522.874
280.1438, 8562.826
280.6259, 8574.729
281.1081, 8572.630
281.5902, 8566.848
282.0723, 8556.727
282.5544, 8553.688
283.0365, 8560.168
283.5186, 8573.396
284.0008, 8595.191
284.4829, 8623.310
284.9650, 8648.903
285.4471, 8669.352
285.9292, 8683.166
286.4113, 8682.290
286.8935, 8661.122
287.3756, 8635.165
287.8577, 8610.827
288.3398, 8589.081
288.8219, 8572.250
289.3040, 8559.308
289.7862, 8552.921
290.2683, 8557.715
290.7504, 8574.407
291.2325, 8599.444
291.7146, 8644.909
292.1967, 8693.426
292.6789, 8712.153
293.1610, 8678.424
293.6431, 8638.534
294.1252, 8631.415
294.6073, 8652.622
295.0894, 8672.191
295.5716, 8674.634
296.0537, 8672.384
296.5358, 8692.014
297.0179, 8743.011
297.5000, 8787.264
297.9821, 8802.576
298.4643, 8801.469
298.9464, 8808.579
299.4285, 8831.659
299.9106, 8858.554
300.3927, 8871.015
300.8748, 8864.154
301.3570, 8863.474
301.8391, 8867.700
302.3212, 8881.419
302.8033, 8917.524
303.2854, 8974.472
303.7675, 9024.721
304.2497, 9041.023
304.7318, 9018.783
305.2139, 9006.965
305.6960, 9007.521
306.1781, 9014.938
306.6602, 9026.004
307.1424, 9041.771
307.6245, 9068.621
308.1066, 9113.219
308.5887, 9169.288
309.0708, 9196.692
309.5529, 9162.089
310.0351, 9135.521
310.5172, 9126.926
310.9993, 9130.532
311.4814, 9141.880
311.9635, 9158.980
312.4456, 9176.297
312.9278, 9182.007
313.4099, 9168.959
313.8920, 9159.151
314.3741, 9155.432
314.8562, 9154.089
315.3383, 9152.757
315.8205, 9151.143
316.3026, 9150.404
316.7847, 9153.211
317.2668, 9160.484
317.7489, 9161.476
318.2310, 9139.422
318.7132, 9129.342
319.1953, 9160.593
319.6774, 9217.857
320.1595, 9259.035
320.6416, 9246.944
321.1237, 9202.594
321.6059, 9190.040
322.0880, 9217.453
322.5701, 9255.615
323.0522, 9295.868
323.5343, 9336.230
324.0164, 9375.234
324.4986, 9416.078
324.9807, 9449.393
325.4628, 9458.309
325.9449, 9444.380
326.4270, 9440.665
326.9091, 9463.471
327.3913, 9498.657
327.8734, 9522.251
328.3555, 9530.666
328.8376, 9542.939
329.3197, 9575.012
329.8018, 9615.232
330.2840, 9640.941
330.7661, 9646.028
331.2482, 9643.352
331.7303, 9647.654
332.2124, 9660.410
332.6945, 9667.501
333.1767, 9664.742
333.6588, 9658.614
334.1409, 9648.767
334.6230, 9638.205
335.1051, 9640.914
335.5872, 9671.519
336.0694, 9725.994
336.5515, 9746.896
337.0336, 9698.870
337.5157, 9663.046
337.9979, 9667.463
338.4800, 9694.696
338.9621, 9717.526
339.4442, 9724.123
339.9263, 9722.601
340.4084, 9731.435
340.8906, 9760.928
341.3727, 9782.523
341.8548, 9789.989
342.3369, 9793.943
342.8190, 9801.919
343.3011, 9814.723
343.7833, 9827.774
344.2654, 9831.424
344.7475, 9823.025
345.2296, 9841.381
345.7117, 9915.498
346.1938, 9984.906
346.6760, 10022.80
347.1581, 10037.76
347.6402, 10049.19
348.1223, 10068.83
348.6044, 10090.12
349.0865, 10094.24
349.5687, 10073.96
350.0508, 10064.86
350.5329, 10095.31
351.0150, 10139.15
351.4971, 10166.27
351.9792, 10168.12
352.4614, 10166.51
352.9435, 10176.47
353.4256, 10196.53
353.9077, 10223.25
354.3898, 10259.92
354.8719, 10294.54
355.3541, 10309.30
355.8362, 10305.30
356.3183, 10297.55
356.8004, 10282.14
357.2825, 10268.87
357.7646, 10271.64
358.2468, 10290.12
358.7289, 10307.20
359.2110, 10308.30
359.6931, 10294.84
360.1752, 10294.65
360.6573, 10313.41
361.1395, 10336.75
361.6216, 10366.56
362.1037, 10396.58
362.5858, 10414.69
363.0679, 10415.42
363.5500, 10408.71
364.0322, 10416.09
364.5143, 10445.50
364.9964, 10476.55
365.4785, 10523.18
365.9606, 10560.66
366.4427, 10564.10
366.9249, 10536.69
367.4070, 10507.28
367.8891, 10503.01
368.3712, 10523.80
368.8533, 10550.21
369.3354, 10586.99
369.8176, 10623.37
370.2997, 10658.63
370.7818, 10690.02
371.2639, 10711.71
371.7460, 10718.13
372.2281, 10719.16
372.7103, 10723.62
373.1924, 10729.31
373.6745, 10763.74
374.1566, 10858.98
374.6387, 10970.51
375.1208, 11050.41
375.6030, 11097.06
376.0851, 11112.44
376.5672, 11077.78
377.0493, 11016.71
377.5314, 10973.20
378.0135, 10954.40
378.4957, 10953.93
378.9778, 10972.30
379.4599, 11010.10
379.9420, 11031.25
380.4241, 11016.20
380.9063, 11001.99
381.3884, 11015.66
381.8705, 11048.15
382.3526, 11072.63
382.8347, 11074.19
383.3168, 11061.35
383.7990, 11059.43
384.2811, 11083.11
384.7632, 11098.97
385.2453, 11094.79
385.7274, 11090.06
386.2095, 11106.74
386.6917, 11145.24
387.1738, 11182.44
387.6559, 11188.69
388.1380, 11159.88
388.6201, 11152.86
389.1022, 11187.02
389.5844, 11222.20
390.0665, 11236.98
390.5486, 11243.74
391.0307, 11268.21
391.5128, 11330.51
391.9949, 11402.09
392.4771, 11428.21
392.9592, 11402.15
393.4413, 11387.39
393.9234, 11409.80
394.4055, 11449.71
394.8876, 11485.81
395.3698, 11517.68
395.8519, 11542.99
396.3340, 11554.45
396.8161, 11559.84
397.2982, 11576.07
397.7803, 11606.45
398.2625, 11632.79
398.7446, 11635.63
399.2267, 11615.58
399.7088, 11615.22
400.1909, 11655.65
400.6730, 11693.09
401.1552, 11699.75
401.6373, 11689.69
402.1194, 11694.51
402.6015, 11728.76
403.0836, 11777.31
403.5657, 11807.72
404.0479, 11811.30
404.5300, 11811.11
405.0121, 11799.96
405.4942, 11791.56
405.9763, 11796.00
406.4584, 11812.59
406.9406, 11833.87
407.4227, 11855.91
407.9048, 11877.63
408.3869, 11888.59
408.8690, 11880.46
409.3511, 11877.03
409.8333, 11893.22
410.3154, 11916.38
410.7975, 11927.23
411.2796, 11915.01
411.7617, 11910.75
412.2438, 11955.43
412.7260, 12039.81
413.2081, 12106.19
413.6902, 12139.39
414.1723, 12154.07
414.6544, 12158.62
415.1365, 12153.78
415.6187, 12161.44
416.1008, 12193.02
416.5829, 12233.03
417.0650, 12271.14
417.5471, 12306.41
418.0292, 12338.29
418.5114, 12365.94
418.9935, 12390.86
419.4756, 12418.60
419.9577, 12457.83
420.4398, 12489.05
420.9219, 12516.41
421.4041, 12532.29
421.8862, 12521.42
422.3683, 12486.01
422.8504, 12452.19
423.3325, 12448.67
423.8146, 12476.63
424.2968, 12507.55
424.7789, 12542.94
425.2610, 12579.61
425.7431, 12620.64
426.2252, 12661.08
426.7073, 12692.39
427.1895, 12709.65
427.6716, 12721.42
428.1537, 12739.75
428.6358, 12764.16
429.1179, 12780.48
429.6000, 12780.54
430.0822, 12777.33
430.5643, 12787.10
431.0464, 12809.41
431.5285, 12831.22
432.0106, 12852.23
432.4927, 12869.09
432.9749, 12876.26
433.4570, 12874.91
433.9391, 12871.82
434.4212, 12869.46
434.9033, 12870.33
435.3854, 12885.70
435.8676, 12935.95
436.3497, 12974.36
436.8318, 12987.97
437.3139, 12993.50
437.7960, 13002.43
438.2781, 13018.96
438.7603, 13047.90
439.2424, 13100.42
439.7245, 13177.51
440.2066, 13227.30
440.6887, 13231.77
441.1708, 13231.99
441.6530, 13242.67
442.1351, 13259.12
442.6172, 13272.38
443.0993, 13276.38
443.5814, 13285.61
444.0635, 13321.50
444.5457, 13380.35
445.0278, 13433.30
445.5099, 13475.21
445.9920, 13505.44
446.4741, 13513.75
446.9562, 13501.43
447.4384, 13507.38
447.9205, 13559.65
448.4026, 13614.94
448.8847, 13640.19
449.3668, 13639.01
449.8489, 13624.29
450.3311, 13599.51
450.8132, 13577.50
451.2953, 13595.39
451.7774, 13708.96
452.2595, 13778.56
452.7416, 13776.30
453.2238, 13752.55
453.7059, 13731.39
454.1880, 13721.13
454.6701, 13731.40
455.1522, 13782.02
455.6343, 13858.58
456.1165, 13877.59
456.5986, 13806.85
457.0807, 13753.67
457.5628, 13772.23
458.0449, 13825.41
458.5270, 13881.85
459.0092, 13939.38
459.4913, 13985.79
459.9734, 14003.77
460.4555, 14005.89
460.9376, 14022.97
461.4197, 14060.92
461.9019, 14099.78
462.3840, 14120.75
462.8661, 14124.38
463.3482, 14136.49
463.8303, 14163.70
464.3124, 14191.42
464.7946, 14215.67
465.2767, 14236.95
465.7588, 14255.08
466.2409, 14270.41
466.7230, 14286.16
467.2051, 14307.99
467.6873, 14338.56
468.1694, 14364.01
468.6515, 14381.78
469.1336, 14396.68
469.6157, 14406.31
470.0978, 14414.85
470.5800, 14431.57
471.0621, 14464.33
471.5442, 14498.97
472.0263, 14511.10
472.5084, 14502.26
472.9905, 14509.14
473.4727, 14551.16
473.9548, 14597.98
474.4369, 14599.80
474.9190, 14557.17
475.4011, 14543.86
475.8832, 14599.59
476.3654, 14667.66
476.8475, 14709.46
477.3296, 14725.97
477.8117, 14725.95
478.2938, 14711.80
478.7759, 14694.84
479.2581, 14705.53
479.7402, 14765.38
480.2223, 14816.13
480.7044, 14854.67
481.1865, 14886.33
481.6686, 14913.64
482.1508, 14937.08
482.6329, 14955.89
483.1150, 14966.17
483.5971, 14973.89
484.0792, 14998.20
484.5613, 15043.17
485.0435, 15081.57
485.5256, 15098.77
486.0077, 15107.52
486.4898, 15124.22
486.9719, 15149.21
487.4540, 15179.85
487.9362, 15216.72
488.4183, 15257.49
488.9004, 15301.45
489.3825, 15347.50
489.8646, 15392.13
490.3467, 15435.18
490.8289, 15472.88
491.3110, 15488.24
491.7931, 15450.45
492.2752, 15430.00
492.7573, 15429.39
493.2394, 15447.76
493.7216, 15495.70
494.2037, 15566.76
494.6858, 15629.39
495.1679, 15653.09
495.6500, 15646.81
496.1321, 15654.01
496.6143, 15679.79
497.0964, 15703.73
497.5785, 15716.94
498.0606, 15723.60
498.5427, 15727.59
499.0248, 15727.91
499.5070, 15731.52
499.9891, 15738.67
500.4712, 15752.42
500.9533, 15781.77
501.4355, 15826.01
501.9176, 15868.25
502.3997, 15897.21
502.8818, 15912.92
503.3639, 15914.73
503.8460, 15870.15
504.3282, 15853.13
504.8103, 15893.32
505.2924, 15949.55
505.7745, 15979.96
506.2566, 15982.58
506.7387, 15992.51
507.2209, 16051.00
507.7030, 16145.35
508.1851, 16202.11
508.6672, 16208.99
509.1493, 16214.42
509.6314, 16244.97
510.1136, 16283.50
510.5957, 16301.55
511.0778, 16287.98
511.5599, 16291.88
512.0420, 16349.58
512.5241, 16431.12
513.0062, 16502.34
513.4883, 16557.53
513.9705, 16592.60
514.4526, 16600.95
514.9347, 16588.22
515.4168, 16587.86
515.8989, 16603.93
516.3810, 16628.01
516.8632, 16673.11
517.3453, 16716.33
517.8274, 16732.83
518.3095, 16724.36
518.7916, 16718.85
519.2737, 16740.72
519.7559, 16783.21
520.2380, 16826.14
520.7201, 16871.55
521.2022, 16904.77
521.6843, 16904.81
522.1664, 16898.66
522.6486, 16935.68
523.1307, 17030.66
523.6128, 17103.09
524.0949, 17113.85
524.5770, 17098.39
525.0591, 17087.20
525.5413, 17084.11
526.0234, 17086.74
526.5055, 17093.90
526.9876, 17105.29
527.4697, 17118.77
527.9518, 17124.95
528.4340, 17151.66
528.9161, 17231.26
529.3982, 17305.40
529.8803, 17322.77
530.3624, 17295.37
530.8445, 17284.53
531.3267, 17345.50
531.8088, 17431.79
532.2909, 17444.28
532.7730, 17384.30
533.2551, 17362.24
533.7372, 17435.45
534.2194, 17536.11
534.7015, 17544.21
535.1836, 17432.84
535.6657, 17398.03
536.1478, 17537.21
536.6299, 17687.71
537.1121, 17733.10
537.5942, 17706.29
538.0763, 17700.42
538.5584, 17760.23
539.0405, 17848.81
539.5226, 17892.60
540.0048, 17876.47
540.4869, 17881.18
540.9690, 17935.40
541.4511, 17985.05
541.9332, 17993.89
542.4153, 17977.43
542.8975, 17972.89
543.3796, 17992.88
543.8617, 18027.96
544.3438, 18083.00
544.8259, 18147.19
545.3080, 18188.16
545.7902, 18197.31
546.2723, 18190.44
546.7544, 18178.99
547.2365, 18160.79
547.7186, 18175.44
548.2007, 18264.56
548.6829, 18333.62
549.1650, 18341.21
549.6471, 18325.02
550.1292, 18329.21
550.6113, 18364.38
551.0934, 18409.17
551.5756, 18444.41
552.0577, 18470.76
552.5398, 18492.06
553.0219, 18505.50
553.5040, 18523.93
553.9861, 18558.89
554.4683, 18601.10
554.9504, 18629.37
555.4325, 18634.45
555.9146, 18650.57
556.3967, 18696.47
556.8788, 18752.90
557.3610, 18803.85
557.8431, 18847.15
558.3252, 18885.79
558.8073, 18922.29
559.2894, 18953.96
559.7715, 18968.10
560.2537, 18947.81
560.7358, 18950.91
561.2179, 19012.16
561.7000, 19076.44
562.1821, 19110.09
562.6642, 19118.10
563.1464, 19127.26
563.6285, 19149.54
564.1106, 19177.99
564.5927, 19209.56
565.0748, 19241.58
565.5569, 19256.81
566.0391, 19246.26
566.5212, 19242.29
567.0033, 19291.25
567.4854, 19408.38
567.9675, 19480.33
568.4496, 19483.86
568.9318, 19475.46
569.4139, 19461.75
569.8960, 19451.25
570.3781, 19454.27
570.8602, 19473.52
571.3423, 19500.54
571.8245, 19529.47
572.3066, 19559.34
572.7887, 19585.99
573.2708, 19609.68
573.7529, 19627.70
574.2350, 19631.04
574.7172, 19631.53
575.1993, 19659.43
575.6814, 19728.88
576.1635, 19790.12
576.6456, 19831.68
577.1277, 19860.75
577.6099, 19874.56
578.0920, 19880.52
578.5741, 19899.95
579.0562, 19946.93
579.5383, 20010.95
580.0204, 20070.44
580.5026, 20129.99
580.9847, 20162.99
581.4668, 20136.64
581.9489, 20115.36
582.4310, 20152.79
582.9132, 20232.53
583.3953, 20298.44
583.8774, 20330.83
584.3596, 20350.48
584.8417, 20361.90
585.3238, 20372.83
585.8059, 20405.71
586.2880, 20463.93
586.7701, 20514.71
587.2523, 20519.65
587.7344, 20480.85
588.2165, 20477.50
588.6986, 20534.33
589.1807, 20591.63
589.6628, 20641.49
590.1450, 20684.02
590.6271, 20720.00
591.1092, 20749.32
591.5913, 20770.58
592.0734, 20772.80
592.5555, 20771.81
593.0377, 20795.16
593.5198, 20840.32
594.0019, 20883.08
594.4840, 20913.11
594.9661, 20936.21
595.4482, 20960.16
595.9304, 20981.28
596.4125, 21016.58
596.8946, 21089.98
597.3767, 21150.00
597.8588, 21160.78
598.3409, 21150.67
598.8231, 21166.00
599.3052, 21222.69
599.7873, 21285.41
600.2694, 21314.90
600.7515, 21319.76
601.2336, 21331.84
601.7158, 21353.22
602.1979, 21387.40
602.6800, 21443.46
603.1621, 21509.99
603.6442, 21552.33
604.1263, 21553.44
604.6085, 21566.16
605.0906, 21604.51
605.5727, 21648.51
606.0548, 21683.45
606.5369, 21711.81
607.0190, 21745.07
607.5012, 21789.64
607.9833, 21838.91
608.4654, 21885.11
608.9475, 21927.82
609.4296, 21951.70
609.9117, 21943.07
610.3939, 21940.82
610.8760, 21979.52
611.3581, 22050.87
611.8402, 22113.58
612.3223, 22165.10
612.8044, 22209.84
613.2866, 22241.04
613.7687, 22271.34
614.2508, 22323.71
614.7329, 22392.46
615.2150, 22441.24
615.6971, 22438.88
616.1793, 22406.09
616.6614, 22403.69
617.1435, 22436.05
617.6256, 22474.88
618.1077, 22516.58
618.5898, 22560.31
619.0720, 22616.20
619.5541, 22677.82
620.0362, 22704.68
620.5183, 22637.38
621.0004, 22592.06
621.4825, 22644.83
621.9647, 22747.20
622.4468, 22835.29
622.9289, 22893.74
623.4110, 22933.77
623.8931, 22963.02
624.3752, 22983.88
624.8574, 23013.17
625.3395, 23057.17
625.8216, 23089.67
626.3037, 23093.48
626.7858, 23091.97
627.2679, 23102.19
627.7501, 23125.02
628.2322, 23169.43
628.7143, 23257.25
629.1964, 23348.84
629.6785, 23427.05
630.1606, 23488.33
630.6428, 23523.67
631.1249, 23532.46
631.6070, 23529.83
632.0891, 23526.62
632.5712, 23525.09
633.0533, 23567.36
633.5355, 23683.59
634.0176, 23773.27
634.4997, 23782.78
634.9818, 23765.11
635.4639, 23769.56
635.9460, 23797.83
636.4282, 23829.69
636.9103, 23846.44
637.3924, 23875.18
637.8745, 23958.11
638.3566, 24065.38
638.8387, 24129.16
639.3209, 24128.64
639.8030, 24104.63
640.2851, 24105.08
640.7672, 24129.69
641.2493, 24158.32
641.7314, 24190.28
642.2136, 24228.28
642.6957, 24283.29
643.1778, 24338.53
643.6599, 24374.63
644.1420, 24390.09
644.6241, 24406.42
645.1063, 24428.55
645.5884, 24456.67
646.0705, 24488.86
646.5526, 24527.89
647.0347, 24585.80
647.5168, 24665.21
647.9990, 24740.89
648.4811, 24776.76
648.9632, 24773.30
649.4453, 24786.74
649.9274, 24820.94
650.4095, 24864.07
650.8917, 24920.52
651.3738, 24978.03
651.8559, 25020.91
652.3380, 25047.68
652.8201, 25071.78
653.3022, 25084.93
653.7844, 25107.30
654.2665, 25159.67
654.7486, 25231.12
655.2307, 25299.13
655.7128, 25355.95
656.1949, 25408.23
656.6771, 25470.72
657.1592, 25540.55
657.6413, 25557.51
658.1234, 25489.61
658.6055, 25463.28
659.0876, 25557.89
659.5698, 25694.39
660.0519, 25763.59
660.5340, 25760.74
661.0161, 25765.29
661.4982, 25810.21
661.9803, 25850.72
662.4625, 25856.51
662.9446, 25839.87
663.4267, 25808.46
