##NAMES=Stromeyerite
##RRUFFID=R060908
##IDEAL CHEMISTRY=Cu^1+^Ag^1+^S^2-^
##LOCALITY=Cobalt, Ontario, Canada
##OWNER=RRUFF
##SOURCE=Royal Ontario Museum
##DESCRIPTION=Black metallic massive with conchoidal fracture
##STATUS=The identification of this mineral has been confirmed by X-ray diffraction and chemical analysis
##URL=rruff.info/R060908
##MEASURED CHEMISTRY=Cu_1.01_Ag_0.99_S
144.1825, 1714.181
144.6646, 1703.720
145.1467, 1699.027
145.6288, 1702.074
146.1110, 1707.988
146.5931, 1717.086
147.0752, 1734.900
147.5573, 1740.442
148.0394, 1723.453
148.5215, 1695.658
149.0037, 1681.952
149.4858, 1697.317
149.9679, 1713.552
150.4500, 1720.518
150.9321, 1707.694
151.4142, 1700.117
151.8964, 1700.879
152.3785, 1707.877
152.8606, 1713.133
153.3427, 1716.628
153.8248, 1718.275
154.3069, 1718.084
154.7890, 1713.479
155.2712, 1710.002
155.7533, 1710.642
156.2354, 1714.591
156.7175, 1714.005
157.1996, 1701.516
157.6817, 1686.775
158.1639, 1677.133
158.6460, 1677.870
159.1281, 1680.461
159.6102, 1682.262
160.0923, 1683.040
160.5744, 1684.474
161.0566, 1686.521
161.5387, 1689.547
162.0208, 1693.982
162.5029, 1703.259
162.9850, 1711.314
163.4671, 1714.110
163.9493, 1710.389
164.4314, 1707.084
164.9135, 1710.631
165.3956, 1716.463
165.8777, 1717.207
166.3598, 1701.024
166.8420, 1683.897
167.3241, 1679.790
167.8062, 1695.331
168.2883, 1709.345
168.7704, 1705.186
169.2525, 1688.576
169.7346, 1673.564
170.2168, 1667.755
170.6989, 1667.516
171.1810, 1670.255
171.6631, 1677.979
172.1452, 1683.919
172.6273, 1679.590
173.1095, 1667.361
173.5916, 1656.990
174.0737, 1654.858
174.5558, 1658.527
175.0379, 1665.208
175.5201, 1678.123
176.0022, 1689.391
176.4843, 1686.987
176.9664, 1672.246
177.4485, 1656.929
177.9306, 1648.067
178.4128, 1645.360
178.8949, 1648.371
179.3770, 1661.002
179.8591, 1676.925
180.3412, 1686.221
180.8233, 1688.921
181.3055, 1687.951
181.7876, 1681.418
182.2697, 1672.372
182.7518, 1671.066
183.2339, 1687.926
183.7160, 1714.265
184.1982, 1728.281
184.6803, 1728.963
185.1624, 1724.827
185.6445, 1726.330
186.1266, 1732.139
186.6087, 1734.160
187.0908, 1723.559
187.5730, 1705.145
188.0551, 1700.131
188.5372, 1711.387
189.0193, 1727.234
189.5014, 1729.604
189.9835, 1719.243
190.4657, 1711.444
190.9478, 1716.764
191.4299, 1732.955
191.9120, 1743.168
192.3941, 1746.033
192.8762, 1744.011
193.3584, 1739.803
193.8405, 1733.267
194.3226, 1728.337
194.8047, 1728.833
195.2868, 1734.449
195.7689, 1736.431
196.2511, 1732.981
196.7332, 1726.956
197.2153, 1724.107
197.6974, 1724.247
198.1795, 1728.683
198.6616, 1742.376
199.1438, 1766.469
199.6259, 1778.003
200.1080, 1770.851
200.5901, 1751.722
201.0722, 1741.189
201.5543, 1739.989
202.0364, 1744.016
202.5186, 1752.648
203.0007, 1767.118
203.4828, 1775.305
203.9649, 1772.881
204.4470, 1763.121
204.9291, 1761.491
205.4113, 1769.275
205.8934, 1781.376
206.3755, 1795.993
206.8576, 1815.187
207.3397, 1825.995
207.8218, 1823.591
208.3040, 1810.124
208.7861, 1802.542
209.2682, 1802.622
209.7503, 1805.350
210.2324, 1806.583
210.7145, 1806.373
211.1967, 1804.556
211.6788, 1799.948
212.1609, 1792.931
212.6430, 1790.984
213.1251, 1795.391
213.6072, 1803.054
214.0894, 1812.620
214.5715, 1827.568
215.0536, 1833.892
215.5357, 1823.135
216.0178, 1794.321
216.4999, 1787.574
216.9820, 1813.331
217.4642, 1848.546
217.9463, 1866.053
218.4284, 1857.521
218.9105, 1850.767
219.3926, 1855.517
219.8747, 1874.103
220.3569, 1878.007
220.8390, 1858.851
221.3211, 1832.945
221.8032, 1822.223
222.2853, 1835.521
222.7674, 1845.879
223.2496, 1844.260
223.7317, 1827.746
224.2138, 1817.503
224.6959, 1815.605
225.1780, 1818.324
225.6601, 1820.012
226.1423, 1818.776
226.6244, 1820.136
227.1065, 1826.662
227.5886, 1840.335
228.0707, 1850.252
228.5528, 1855.521
229.0350, 1857.604
229.5171, 1858.953
229.9992, 1860.178
230.4813, 1859.523
230.9634, 1855.784
231.4455, 1847.366
231.9276, 1841.490
232.4098, 1837.975
232.8919, 1837.102
233.3740, 1839.854
233.8561, 1848.563
234.3382, 1857.106
234.8203, 1863.756
235.3025, 1868.693
235.7846, 1870.983
236.2667, 1869.966
236.7488, 1866.652
237.2309, 1862.654
237.7130, 1856.492
238.1952, 1852.132
238.6773, 1852.154
239.1594, 1860.591
239.6415, 1860.954
240.1236, 1846.435
240.6057, 1826.602
241.0879, 1822.747
241.5700, 1846.818
242.0521, 1868.485
242.5342, 1875.476
243.0163, 1860.870
243.4984, 1849.885
243.9806, 1842.586
244.4627, 1838.816
244.9448, 1838.746
245.4269, 1844.895
245.9090, 1850.785
246.3911, 1854.086
246.8732, 1854.563
247.3554, 1852.679
247.8375, 1847.514
248.3196, 1840.249
248.8017, 1833.117
249.2838, 1824.327
249.7659, 1818.667
250.2481, 1819.150
250.7302, 1830.323
251.2123, 1835.723
251.6944, 1834.884
252.1765, 1828.633
252.6586, 1817.679
253.1408, 1797.905
253.6229, 1780.487
254.1050, 1771.032
254.5871, 1774.646
255.0692, 1771.644
255.5513, 1758.493
256.0334, 1740.433
256.5156, 1729.133
256.9977, 1727.354
257.4798, 1727.319
257.9619, 1725.900
258.4440, 1722.474
258.9261, 1719.182
259.4083, 1715.215
259.8904, 1711.688
260.3725, 1712.144
260.8546, 1720.105
261.3367, 1724.798
261.8188, 1719.704
262.3010, 1699.389
262.7831, 1688.967
263.2652, 1691.384
263.7473, 1701.547
264.2294, 1710.195
264.7115, 1718.680
265.1937, 1722.256
265.6758, 1717.380
266.1579, 1701.620
266.6400, 1689.566
267.1221, 1683.346
267.6042, 1679.122
268.0864, 1668.603
268.5685, 1648.915
269.0506, 1630.754
269.5327, 1617.308
270.0148, 1607.896
270.4969, 1609.301
270.9791, 1626.444
271.4612, 1648.750
271.9433, 1656.620
272.4254, 1647.721
272.9075, 1633.229
273.3896, 1614.583
273.8718, 1590.567
274.3539, 1578.616
274.8360, 1582.762
275.3181, 1592.857
275.8002, 1590.393
276.2823, 1572.366
276.7645, 1557.387
277.2466, 1555.186
277.7287, 1566.430
278.2108, 1568.866
278.6929, 1560.306
279.1750, 1547.415
279.6572, 1540.147
280.1393, 1539.081
280.6214, 1538.096
281.1035, 1534.638
281.5856, 1528.884
282.0677, 1525.025
282.5499, 1524.394
283.0320, 1521.925
283.5141, 1505.799
283.9962, 1475.274
284.4783, 1456.191
284.9604, 1464.232
285.4425, 1494.259
285.9247, 1509.791
286.4068, 1509.127
286.8889, 1501.572
287.3710, 1496.911
287.8531, 1495.015
288.3352, 1493.629
288.8174, 1492.431
289.2995, 1491.139
289.7816, 1487.776
290.2637, 1481.988
290.7458, 1477.199
291.2279, 1479.576
291.7101, 1487.489
292.1922, 1490.559
292.6743, 1483.305
293.1564, 1469.685
293.6385, 1458.935
294.1206, 1451.162
294.6028, 1445.475
295.0849, 1442.825
295.5670, 1441.998
296.0491, 1438.076
296.5312, 1426.504
297.0133, 1413.378
297.4955, 1412.360
297.9776, 1423.019
298.4597, 1432.854
298.9418, 1427.446
299.4239, 1413.345
299.9060, 1406.227
300.3882, 1413.909
300.8703, 1426.706
301.3524, 1431.199
301.8345, 1428.123
302.3166, 1423.558
302.7987, 1420.043
303.2809, 1418.195
303.7630, 1419.574
304.2451, 1426.634
304.7272, 1433.750
305.2093, 1435.631
305.6914, 1432.516
306.1736, 1425.654
306.6557, 1411.400
307.1378, 1395.416
307.6199, 1384.554
308.1020, 1380.695
308.5841, 1380.937
309.0663, 1387.083
309.5484, 1396.299
310.0305, 1400.099
310.5126, 1388.752
310.9947, 1372.993
311.4768, 1362.152
311.9590, 1358.355
312.4411, 1357.672
312.9232, 1357.932
313.4053, 1359.640
313.8874, 1363.782
314.3695, 1377.536
314.8517, 1389.265
315.3337, 1390.617
315.8159, 1378.823
316.2980, 1364.428
316.7801, 1347.044
317.2622, 1330.730
317.7443, 1321.496
318.2264, 1333.582
318.7086, 1343.282
319.1907, 1336.134
319.6728, 1307.354
320.1549, 1286.654
320.6370, 1287.690
321.1191, 1299.548
321.6013, 1310.095
322.0834, 1316.715
322.5655, 1321.368
323.0476, 1323.891
323.5297, 1324.097
324.0118, 1324.902
324.4940, 1328.760
324.9761, 1332.366
325.4582, 1332.962
325.9403, 1326.795
326.4224, 1321.277
326.9045, 1318.027
327.3867, 1316.975
327.8688, 1314.890
328.3509, 1312.047
328.8330, 1307.908
329.3151, 1301.985
329.7972, 1290.702
330.2794, 1282.547
330.7615, 1279.245
331.2436, 1279.861
331.7257, 1279.311
332.2078, 1276.360
332.6899, 1273.668
333.1721, 1272.776
333.6542, 1274.942
334.1363, 1276.448
334.6184, 1277.861
335.1005, 1278.385
335.5826, 1275.313
336.0648, 1266.438
336.5469, 1258.237
337.0290, 1253.855
337.5111, 1254.423
337.9932, 1254.422
338.4753, 1254.180
338.9575, 1252.953
339.4396, 1247.722
339.9217, 1236.260
340.4038, 1230.118
340.8859, 1237.174
341.3680, 1257.303
341.8502, 1266.282
342.3323, 1262.417
342.8144, 1251.517
343.2965, 1238.287
343.7786, 1222.500
344.2607, 1212.384
344.7429, 1214.116
345.2250, 1223.527
345.7071, 1220.789
346.1892, 1204.397
346.6713, 1187.658
347.1534, 1184.158
347.6355, 1191.837
348.1176, 1199.887
348.5998, 1206.169
349.0819, 1210.686
349.5640, 1213.928
350.0461, 1215.801
350.5282, 1214.905
351.0103, 1207.016
351.4925, 1195.885
351.9746, 1189.760
352.4567, 1191.965
352.9388, 1196.568
353.4209, 1197.846
353.9030, 1195.985
354.3852, 1191.682
354.8673, 1181.296
355.3494, 1170.511
355.8315, 1166.019
356.3136, 1169.314
356.7957, 1176.677
357.2779, 1191.990
357.7600, 1209.214
358.2421, 1216.309
358.7242, 1195.774
359.2063, 1172.092
359.6884, 1164.110
360.1706, 1174.889
360.6527, 1183.373
361.1348, 1174.676
361.6169, 1159.739
362.0990, 1151.579
362.5811, 1160.676
363.0633, 1170.945
363.5454, 1177.449
364.0275, 1180.007
364.5096, 1179.383
364.9917, 1171.667
365.4738, 1163.189
365.9560, 1158.446
366.4381, 1161.491
366.9202, 1164.645
367.4023, 1165.851
367.8844, 1165.959
368.3665, 1169.307
368.8487, 1187.187
369.3308, 1199.489
369.8129, 1196.402
370.2950, 1162.668
370.7771, 1140.431
371.2592, 1133.804
371.7414, 1137.605
372.2235, 1141.195
372.7056, 1144.695
373.1877, 1147.756
373.6698, 1150.191
374.1519, 1151.914
374.6341, 1153.365
375.1162, 1154.673
375.5983, 1155.463
376.0804, 1154.935
376.5625, 1152.596
377.0446, 1151.130
377.5267, 1152.269
378.0089, 1155.238
378.4910, 1152.546
378.9731, 1142.823
379.4552, 1133.182
379.9373, 1132.192
380.4194, 1139.366
380.9016, 1141.156
381.3837, 1132.096
381.8658, 1119.466
382.3479, 1122.172
382.8300, 1139.529
383.3121, 1155.583
383.7943, 1156.822
384.2764, 1148.252
384.7585, 1143.109
385.2406, 1143.237
385.7227, 1146.201
386.2048, 1152.461
386.6870, 1159.745
387.1691, 1161.270
387.6512, 1144.808
388.1333, 1124.914
388.6154, 1120.195
389.0975, 1132.405
389.5797, 1147.085
390.0618, 1155.492
390.5439, 1159.239
391.0260, 1160.308
391.5081, 1157.030
391.9902, 1153.423
392.4724, 1154.707
392.9545, 1159.478
393.4366, 1156.980
393.9187, 1132.494
394.4008, 1105.086
394.8829, 1088.105
395.3651, 1088.204
395.8472, 1093.905
396.3293, 1108.609
396.8114, 1127.359
397.2935, 1137.048
397.7756, 1125.224
398.2578, 1112.596
398.7399, 1107.649
399.2220, 1115.274
399.7041, 1119.093
400.1862, 1117.164
400.6683, 1112.166
401.1505, 1107.353
401.6326, 1101.987
402.1147, 1097.863
402.5968, 1094.812
403.0789, 1092.831
403.5610, 1095.618
404.0432, 1106.561
404.5253, 1117.122
405.0074, 1119.528
405.4895, 1111.851
405.9716, 1103.800
406.4537, 1095.291
406.9359, 1088.175
407.4180, 1089.981
407.9001, 1102.242
408.3822, 1113.128
408.8643, 1114.248
409.3464, 1106.819
409.8285, 1101.684
410.3106, 1099.582
410.7928, 1099.713
411.2749, 1102.751
411.7570, 1107.837
412.2391, 1110.281
412.7212, 1106.223
413.2033, 1098.778
413.6855, 1093.031
414.1676, 1088.997
414.6497, 1086.970
415.1318, 1086.799
415.6139, 1088.912
416.0960, 1094.704
416.5782, 1109.517
417.0603, 1121.627
417.5424, 1120.126
418.0245, 1107.647
418.5066, 1093.515
418.9887, 1076.891
419.4709, 1063.729
419.9530, 1059.464
420.4351, 1068.721
420.9172, 1075.957
421.3993, 1071.480
421.8814, 1062.678
422.3636, 1060.416
422.8457, 1079.844
423.3278, 1093.691
423.8099, 1089.477
424.2920, 1064.307
424.7741, 1050.805
425.2563, 1060.201
425.7384, 1075.075
426.2205, 1082.945
426.7026, 1078.772
427.1847, 1076.253
427.6668, 1076.722
428.1490, 1079.656
428.6311, 1083.630
429.1132, 1089.971
429.5953, 1094.645
430.0774, 1095.158
430.5595, 1090.876
431.0417, 1086.513
431.5238, 1081.248
432.0059, 1077.550
432.4880, 1081.729
432.9701, 1094.001
433.4522, 1100.063
433.9344, 1091.056
434.4165, 1073.411
434.8986, 1067.445
435.3807, 1073.312
435.8628, 1083.113
436.3449, 1095.660
436.8271, 1106.998
437.3092, 1104.944
437.7913, 1080.644
438.2734, 1055.293
438.7555, 1054.207
439.2376, 1071.612
439.7197, 1090.122
440.2018, 1105.036
440.6840, 1114.024
441.1661, 1112.658
441.6482, 1099.246
442.1303, 1086.942
442.6124, 1083.491
443.0945, 1084.483
443.5767, 1084.910
444.0588, 1080.077
444.5409, 1077.770
445.0230, 1084.759
445.5051, 1098.879
445.9872, 1103.259
446.4694, 1081.282
446.9515, 1059.572
447.4336, 1051.928
447.9157, 1067.076
448.3978, 1081.498
448.8799, 1097.879
449.3621, 1112.403
449.8442, 1116.989
450.3263, 1106.494
450.8084, 1096.853
451.2905, 1093.502
451.7726, 1096.307
452.2548, 1093.869
452.7369, 1083.109
453.2190, 1074.951
453.7011, 1083.673
454.1832, 1109.500
454.6653, 1124.424
455.1475, 1121.882
455.6296, 1108.769
456.1117, 1095.951
456.5938, 1083.855
457.0759, 1076.054
457.5580, 1078.495
458.0402, 1086.019
458.5223, 1087.453
459.0044, 1081.579
459.4865, 1075.481
459.9686, 1075.055
460.4507, 1078.768
460.9329, 1084.135
461.4150, 1094.500
461.8971, 1102.275
462.3792, 1100.052
462.8613, 1089.898
463.3434, 1081.975
463.8256, 1085.160
464.3077, 1089.154
464.7898, 1086.787
465.2719, 1073.448
465.7540, 1061.557
466.2361, 1048.383
466.7183, 1039.175
467.2004, 1042.339
467.6825, 1073.918
468.1646, 1100.511
468.6467, 1115.424
469.1288, 1118.496
469.6110, 1118.079
470.0930, 1111.914
470.5752, 1105.399
471.0573, 1103.658
471.5394, 1109.551
472.0215, 1106.567
472.5036, 1088.771
472.9857, 1066.623
473.4679, 1065.103
473.9500, 1085.450
474.4321, 1103.690
474.9142, 1108.935
475.3963, 1103.329
475.8784, 1090.755
476.3606, 1070.361
476.8427, 1056.499
477.3248, 1072.263
477.8069, 1104.026
478.2890, 1121.650
478.7711, 1111.868
479.2533, 1094.279
479.7354, 1084.747
480.2175, 1082.313
480.6996, 1084.114
481.1817, 1091.979
481.6638, 1101.174
482.1460, 1109.357
482.6281, 1116.561
483.1102, 1119.819
483.5923, 1114.451
484.0744, 1106.161
484.5565, 1100.530
485.0387, 1102.351
485.5208, 1102.601
486.0029, 1095.689
486.4850, 1084.888
486.9671, 1085.656
487.4492, 1109.132
487.9314, 1129.762
488.4135, 1134.693
488.8956, 1118.177
489.3777, 1112.858
489.8598, 1123.617
490.3419, 1137.900
490.8241, 1138.609
491.3062, 1124.426
491.7883, 1111.628
492.2704, 1103.355
492.7525, 1099.730
493.2346, 1104.004
493.7168, 1115.740
494.1989, 1124.052
494.6810, 1117.807
495.1631, 1103.352
495.6452, 1093.151
496.1273, 1088.638
496.6095, 1088.350
497.0916, 1093.431
497.5737, 1101.453
498.0558, 1108.501
498.5379, 1113.460
499.0201, 1116.543
499.5022, 1116.801
499.9843, 1114.802
500.4664, 1113.676
500.9485, 1114.714
501.4306, 1116.862
501.9127, 1119.369
502.3948, 1121.140
502.8770, 1125.464
503.3591, 1138.395
503.8412, 1151.605
504.3233, 1153.721
504.8054, 1135.104
505.2875, 1121.708
505.7697, 1119.372
506.2518, 1126.771
506.7339, 1134.485
507.2160, 1143.313
507.6981, 1149.961
508.1802, 1150.949
508.6624, 1146.518
509.1445, 1145.406
509.6266, 1149.166
510.1087, 1153.022
510.5908, 1148.448
511.0729, 1137.698
511.5551, 1130.378
512.0372, 1132.482
512.5193, 1138.179
513.0014, 1140.202
513.4835, 1138.927
513.9656, 1136.324
514.4478, 1130.030
514.9299, 1124.999
515.4120, 1126.713
515.8941, 1138.289
516.3762, 1148.690
516.8583, 1153.039
517.3405, 1153.674
517.8226, 1153.500
518.3047, 1151.642
518.7868, 1150.559
519.2689, 1152.001
519.7510, 1155.326
520.2332, 1155.029
520.7153, 1147.110
521.1974, 1140.897
521.6795, 1142.654
522.1616, 1156.604
522.6437, 1159.452
523.1259, 1147.051
523.6080, 1130.914
524.0901, 1127.331
524.5722, 1136.581
525.0543, 1146.168
525.5364, 1154.664
526.0186, 1159.858
526.5007, 1151.572
526.9828, 1131.999
527.4649, 1119.939
527.9470, 1138.762
528.4291, 1168.147
528.9113, 1178.011
529.3934, 1163.540
529.8755, 1146.287
530.3576, 1140.128
530.8397, 1139.986
531.3218, 1139.584
531.8040, 1132.209
532.2861, 1129.223
532.7682, 1139.313
533.2503, 1157.885
533.7324, 1168.380
534.2145, 1156.813
534.6967, 1147.965
535.1788, 1152.493
535.6609, 1174.637
536.1430, 1187.018
536.6251, 1187.485
537.1072, 1180.700
537.5894, 1167.567
538.0715, 1144.914
538.5536, 1136.111
539.0357, 1148.333
539.5178, 1171.349
539.9999, 1185.703
540.4821, 1191.276
540.9642, 1190.397
541.4463, 1178.519
541.9284, 1162.309
542.4105, 1155.785
542.8926, 1158.926
543.3748, 1166.337
543.8569, 1180.086
544.3390, 1193.133
544.8211, 1195.661
545.3032, 1179.607
545.7853, 1165.647
546.2675, 1169.215
546.7495, 1180.984
547.2316, 1184.974
547.7137, 1168.521
548.1959, 1152.494
548.6780, 1143.408
549.1601, 1141.326
549.6422, 1136.961
550.1243, 1124.732
550.6064, 1116.887
551.0886, 1121.766
551.5707, 1144.279
552.0528, 1161.183
552.5349, 1171.748
553.0170, 1177.421
553.4991, 1179.937
553.9813, 1179.288
554.4634, 1174.526
554.9455, 1162.825
555.4276, 1149.345
555.9097, 1144.575
556.3918, 1147.712
556.8740, 1154.087
557.3561, 1163.757
557.8382, 1173.627
558.3203, 1180.651
558.8024, 1184.623
559.2845, 1185.088
559.7667, 1177.253
560.2488, 1168.005
560.7309, 1164.021
561.2130, 1173.299
561.6951, 1180.130
562.1772, 1180.764
562.6594, 1176.921
563.1415, 1172.842
563.6236, 1165.800
564.1057, 1162.701
564.5878, 1167.884
565.0699, 1180.851
565.5521, 1183.131
566.0342, 1171.187
566.5163, 1158.219
566.9984, 1155.835
567.4805, 1163.158
567.9626, 1164.487
568.4448, 1156.783
568.9269, 1148.919
569.4090, 1156.194
569.8911, 1173.000
570.3732, 1182.903
570.8553, 1173.541
571.3375, 1160.185
571.8196, 1158.772
572.3017, 1166.423
572.7838, 1172.314
573.2659, 1168.220
573.7480, 1163.252
574.2302, 1163.274
574.7123, 1170.086
575.1944, 1175.788
575.6765, 1182.734
576.1586, 1185.723
576.6407, 1179.577
577.1229, 1153.309
577.6050, 1139.895
578.0871, 1146.131
578.5692, 1163.171
579.0513, 1172.406
579.5334, 1173.032
580.0156, 1171.090
580.4977, 1168.576
580.9798, 1165.198
581.4619, 1158.728
581.9440, 1149.327
582.4261, 1141.574
582.9083, 1138.836
583.3904, 1140.123
583.8725, 1145.586
584.3546, 1156.456
584.8367, 1163.747
585.3188, 1156.449
585.8010, 1143.677
586.2831, 1136.796
586.7652, 1146.137
587.2473, 1154.239
587.7294, 1155.827
588.2115, 1152.546
588.6937, 1149.621
589.1758, 1142.550
589.6579, 1142.143
590.1400, 1155.266
590.6221, 1182.513
591.1042, 1194.982
591.5864, 1189.270
592.0685, 1177.647
592.5506, 1168.585
593.0327, 1161.977
593.5148, 1155.585
593.9969, 1148.652
594.4791, 1143.923
594.9612, 1146.099
595.4433, 1153.229
595.9254, 1160.444
596.4075, 1167.150
596.8896, 1172.012
597.3718, 1173.577
597.8539, 1172.283
598.3360, 1169.453
598.8181, 1160.159
599.3002, 1154.123
599.7823, 1157.937
600.2645, 1173.645
600.7466, 1186.231
601.2287, 1196.348
601.7108, 1201.394
602.1929, 1198.377
602.6750, 1182.605
603.1572, 1172.288
603.6393, 1168.862
604.1214, 1169.836
604.6035, 1172.311
605.0856, 1176.292
605.5677, 1179.215
606.0499, 1180.265
606.5320, 1179.901
607.0141, 1178.757
607.4962, 1176.913
607.9783, 1174.729
608.4604, 1168.742
608.9425, 1164.852
609.4246, 1172.146
609.9067, 1191.329
610.3889, 1204.311
610.8710, 1197.065
611.3531, 1184.149
611.8352, 1176.462
612.3173, 1178.924
612.7994, 1180.862
613.2816, 1181.650
613.7637, 1181.792
614.2458, 1181.804
614.7279, 1181.347
615.2100, 1181.916
615.6921, 1184.140
616.1743, 1187.401
616.6564, 1190.432
617.1385, 1193.254
617.6206, 1193.839
618.1027, 1189.079
618.5848, 1181.845
619.0670, 1178.487
619.5491, 1178.935
620.0312, 1179.370
620.5133, 1174.800
620.9954, 1169.985
621.4775, 1170.534
621.9597, 1179.745
622.4418, 1187.427
622.9239, 1187.240
623.4060, 1184.756
623.8881, 1186.807
624.3702, 1203.445
624.8524, 1211.442
625.3345, 1203.760
625.8166, 1187.147
626.2987, 1181.852
626.7808, 1190.702
627.2629, 1199.407
627.7451, 1201.753
628.2272, 1199.566
628.7093, 1202.124
629.1914, 1209.439
629.6735, 1214.824
630.1556, 1210.923
630.6378, 1202.530
631.1199, 1196.074
631.6020, 1192.014
632.0841, 1192.339
632.5662, 1203.979
633.0483, 1218.223
633.5305, 1225.710
634.0126, 1219.120
634.4947, 1211.920
634.9768, 1205.017
635.4589, 1199.284
635.9410, 1196.621
636.4232, 1199.011
636.9053, 1200.826
637.3874, 1201.462
637.8695, 1200.424
638.3516, 1193.961
638.8337, 1181.195
639.3159, 1170.166
639.7980, 1167.038
640.2801, 1169.154
640.7622, 1167.682
641.2443, 1162.387
