##NAMES=Strontiojoaquinite
##RRUFFID=R060331
##IDEAL CHEMISTRY=(Na,Fe^2+^)_2_Ba_2_Sr_2_Ti^4+^_2_(SiO_3_)_8_(O,OH)_2_&#183;H_2_O
##LOCALITY=Mina Numero Uno, San Benito County, California, USA
##OWNER=RRUFF
##SOURCE=Michael Scott
##DESCRIPTION=Pale yellow tapering pseudotetragonal prisms
##STATUS=The identification of this mineral is confirmed by single-crystal X-ray diffraction and chemical analysis.
##URL=rruff.info/R060331
##MEASURED CHEMISTRY=(Na_1.00_Fe_0.69_Zn_0.20_Mn_0.11_)_Σ=2_Ba_2.00_(Sr_1.89_Ba_0.08_Ca_0.03_)_Σ=2_Ti_2.00_Si_8.00_O_24_(O_1.00_(OH)_1.00_)_Σ=2_·1.50H_2_O; OH estimated by charge balance
92.35352, 181.5104
92.83563, 182.9302
93.31775, 183.5434
93.79987, 184.4497
94.28198, 183.2938
94.76410, 181.5795
95.24622, 179.8132
95.72833, 178.0346
96.21045, 176.1646
96.69257, 174.2441
97.17468, 172.1068
97.65680, 169.6554
98.13892, 167.2002
98.62103, 165.0136
99.10315, 163.0322
99.58527, 161.0143
100.0674, 158.8127
100.5495, 156.0472
101.0316, 153.6025
101.5137, 151.6132
101.9958, 149.9708
102.4780, 148.5071
102.9601, 147.0866
103.4422, 145.6792
103.9243, 144.6803
104.4064, 144.1204
104.8885, 143.7615
105.3707, 143.5355
105.8528, 143.4118
106.3349, 143.3305
106.8170, 143.2233
107.2991, 143.0802
107.7813, 142.8634
108.2634, 142.3873
108.7455, 141.8904
109.2276, 141.7141
109.7097, 141.9843
110.1918, 142.3989
110.6740, 142.5578
111.1561, 142.4888
111.6382, 142.5455
112.1203, 142.9180
112.6024, 143.5859
113.0845, 144.4075
113.5666, 145.5289
114.0488, 146.6563
114.5309, 147.6331
115.0130, 148.4390
115.4951, 149.0585
115.9772, 149.3867
116.4593, 149.2087
116.9415, 149.3660
117.4236, 150.0529
117.9057, 151.0108
118.3878, 152.1642
118.8699, 153.4672
119.3520, 154.7872
119.8342, 155.7464
120.3163, 155.8537
120.7984, 156.1481
121.2805, 156.7285
121.7626, 157.5318
122.2447, 158.4768
122.7269, 159.5238
123.2090, 160.6644
123.6911, 161.8406
124.1732, 163.2160
124.6553, 164.4607
125.1374, 165.3332
125.6196, 165.9164
126.1017, 166.5789
126.5838, 167.6347
127.0659, 169.0256
127.5480, 170.1907
128.0302, 171.0064
128.5123, 171.6473
128.9944, 172.2117
129.4765, 172.6744
129.9586, 173.2289
130.4407, 174.1911
130.9229, 175.3712
131.4050, 176.3917
131.8871, 177.0272
132.3692, 177.3812
132.8513, 177.7581
133.3334, 178.1050
133.8155, 178.5790
134.2977, 179.4495
134.7798, 180.5359
135.2619, 181.3697
135.7440, 181.4060
136.2261, 180.5149
136.7082, 180.1214
137.1904, 180.7084
137.6725, 181.4230
138.1546, 182.0725
138.6367, 182.5753
139.1188, 182.8382
139.6009, 182.6862
140.0831, 181.7785
140.5652, 181.3052
141.0473, 181.4263
141.5294, 181.7868
142.0115, 182.1897
142.4936, 182.5690
142.9758, 182.9269
143.4579, 183.2621
143.9400, 183.5567
144.4221, 183.8569
144.9042, 184.1696
145.3863, 184.4859
145.8685, 184.7654
146.3506, 184.9734
146.8327, 185.2027
147.3148, 185.7092
147.7969, 186.5977
148.2790, 187.4122
148.7612, 187.8902
149.2433, 188.1250
149.7254, 188.4518
150.2075, 189.0704
150.6896, 189.8038
151.1717, 190.3182
151.6539, 190.5023
152.1360, 190.7323
152.6181, 191.3841
153.1002, 192.5000
153.5823, 193.6136
154.0644, 194.6735
154.5466, 195.5708
155.0287, 196.1225
155.5108, 196.2085
155.9929, 196.1410
156.4750, 196.4620
156.9571, 197.2988
157.4393, 198.2714
157.9214, 199.3672
158.4035, 200.4940
158.8856, 201.5627
159.3677, 202.5332
159.8498, 203.4130
160.3320, 204.2168
160.8141, 204.7433
161.2962, 205.4503
161.7783, 206.5261
162.2604, 207.8020
162.7425, 209.0513
163.2247, 210.1417
163.7068, 211.0803
164.1889, 211.8885
164.6710, 212.1455
165.1531, 212.7098
165.6352, 214.0639
166.1174, 215.9541
166.5995, 217.7328
167.0816, 218.9295
167.5637, 219.5328
168.0458, 220.1636
168.5279, 220.6356
169.0101, 221.2803
169.4922, 222.4158
169.9743, 223.9901
170.4564, 225.5382
170.9385, 226.6714
171.4206, 227.4039
171.9028, 228.1817
172.3849, 229.0420
172.8670, 229.9452
173.3491, 230.8169
173.8312, 231.6360
174.3133, 232.5616
174.7955, 234.0088
175.2776, 235.7035
175.7597, 236.9585
176.2418, 237.1898
176.7239, 236.9046
177.2060, 237.1097
177.6882, 237.9756
178.1703, 239.0600
178.6524, 240.1217
179.1345, 241.1664
179.6166, 242.1951
180.0987, 243.2452
180.5809, 244.2949
181.0630, 245.1877
181.5451, 245.7299
182.0272, 246.3499
182.5093, 247.2931
182.9914, 248.4556
183.4736, 249.5944
183.9557, 250.4920
184.4378, 251.1366
184.9199, 251.8844
185.4020, 253.1463
185.8841, 254.1462
186.3663, 254.5883
186.8484, 254.5305
187.3305, 254.1668
187.8126, 253.5717
188.2947, 252.5703
188.7768, 252.4498
189.2590, 254.2033
189.7411, 255.8474
190.2232, 256.4304
190.7053, 255.9805
191.1874, 255.1373
191.6695, 254.5519
192.1517, 254.3039
192.6338, 254.0171
193.1159, 253.4353
193.5980, 253.0061
194.0801, 253.2019
194.5622, 253.9980
195.0444, 254.7723
195.5265, 254.7777
196.0086, 253.7055
196.4907, 253.0573
196.9728, 253.3015
197.4549, 253.7023
197.9371, 253.5298
198.4192, 252.6507
198.9013, 251.5662
199.3834, 250.8432
199.8655, 250.4778
200.3476, 250.1094
200.8298, 249.4451
201.3119, 248.8235
201.7940, 248.8596
202.2761, 249.7991
202.7582, 250.8103
203.2403, 250.7475
203.7225, 249.8694
204.2046, 249.3262
204.6867, 249.7778
205.1688, 250.8351
205.6509, 251.5714
206.1330, 251.7520
206.6152, 251.8528
207.0973, 252.3294
207.5794, 253.0710
208.0615, 253.6921
208.5436, 253.8238
209.0257, 253.6064
209.5079, 253.7436
209.9900, 254.4951
210.4721, 255.3307
210.9542, 255.8547
211.4363, 256.1810
211.9184, 256.6502
212.4006, 257.6645
212.8827, 259.1811
213.3648, 260.2255
213.8469, 260.1452
214.3290, 260.2452
214.8111, 261.2073
215.2933, 262.8085
215.7754, 264.4087
216.2575, 265.4260
216.7396, 265.8154
217.2217, 266.5178
217.7038, 267.8561
218.1859, 269.2452
218.6681, 270.5145
219.1502, 271.6885
219.6323, 272.8937
220.1144, 274.2409
220.5965, 275.7402
221.0786, 277.2774
221.5608, 278.9422
222.0429, 280.5805
222.5250, 282.0718
223.0071, 283.4785
223.4892, 284.9627
223.9713, 286.6756
224.4535, 288.6472
224.9356, 290.6410
225.4177, 292.4908
225.8998, 294.5113
226.3819, 297.0646
226.8640, 299.9704
227.3462, 302.6160
227.8283, 304.4172
228.3104, 305.2751
228.7925, 306.6349
229.2746, 308.6810
229.7567, 310.9546
230.2389, 313.2810
230.7210, 315.6367
231.2031, 318.0267
231.6852, 320.5269
232.1673, 323.0983
232.6494, 325.1079
233.1316, 325.7869
233.6137, 326.5970
234.0958, 328.5799
234.5779, 331.6094
235.0600, 334.6799
235.5421, 337.1077
236.0243, 338.9046
236.5064, 340.6982
236.9885, 342.3599
237.4706, 344.1069
237.9527, 346.1692
238.4348, 348.5195
238.9170, 350.8334
239.3991, 352.9413
239.8812, 354.8419
240.3633, 356.5978
240.8454, 358.1045
241.3275, 359.5780
241.8097, 361.2953
242.2918, 363.2466
242.7739, 364.9520
243.2560, 366.0562
243.7381, 366.7641
244.2202, 367.4806
244.7024, 368.1861
245.1845, 368.9832
245.6666, 370.1765
246.1487, 371.7831
246.6308, 372.8871
247.1129, 372.5069
247.5951, 371.6743
248.0772, 371.8151
248.5593, 373.4996
249.0414, 375.2093
249.5235, 375.2574
250.0056, 373.5270
250.4878, 371.7400
250.9699, 370.3304
251.4520, 369.2411
251.9341, 368.5382
252.4162, 368.2720
252.8983, 368.0829
253.3805, 367.6088
253.8626, 366.8318
254.3447, 365.9126
254.8268, 364.5213
255.3089, 363.2497
255.7910, 362.6156
256.2732, 362.6799
256.7553, 362.9017
257.2374, 362.6756
257.7195, 361.9257
258.2016, 361.2617
258.6837, 360.9537
259.1659, 360.6302
259.6480, 360.0506
260.1301, 359.2160
260.6122, 358.3466
261.0943, 357.6214
261.5764, 357.0276
262.0586, 356.6868
262.5407, 357.1901
263.0228, 357.4880
263.5049, 356.9773
263.9870, 355.7472
264.4691, 354.3785
264.9513, 353.4414
265.4334, 353.0050
265.9155, 352.4208
266.3976, 351.5610
266.8797, 350.6555
267.3618, 349.7713
267.8440, 348.9108
268.3261, 348.0338
268.8082, 347.0433
269.2903, 345.9167
269.7724, 345.2852
270.2545, 345.7023
270.7367, 346.1188
271.2188, 346.1801
271.7009, 346.0113
272.1830, 345.9399
272.6651, 346.2230
273.1472, 346.8326
273.6294, 347.2998
274.1115, 347.5735
274.5936, 347.7367
275.0757, 347.7326
275.5578, 347.6358
276.0399, 347.4873
276.5221, 347.2752
277.0042, 347.1042
277.4863, 347.5913
277.9684, 349.7936
278.4505, 351.5432
278.9326, 352.3531
279.4148, 352.6275
279.8969, 352.8595
280.3790, 353.2869
280.8611, 353.9333
281.3432, 354.8788
281.8253, 356.5542
282.3075, 358.0322
282.7896, 359.0905
283.2717, 359.9990
283.7538, 361.0954
284.2359, 362.4992
284.7180, 364.0137
285.2002, 365.2044
285.6823, 365.7417
286.1644, 366.3885
286.6465, 366.9927
287.1286, 367.7823
287.6107, 369.0355
288.0929, 370.8044
288.5750, 372.8109
289.0571, 374.6477
289.5392, 376.1357
290.0213, 377.8481
290.5034, 379.9596
290.9856, 382.1466
291.4677, 384.1252
291.9498, 385.8716
292.4319, 387.6248
292.9140, 389.6627
293.3961, 392.1178
293.8783, 394.2437
294.3604, 395.6727
294.8425, 397.1230
295.3246, 399.1743
295.8067, 401.7142
296.2888, 404.0565
296.7710, 405.5479
297.2531, 406.1161
297.7352, 407.2249
298.2173, 409.2513
298.6994, 411.3295
299.1815, 413.0260
299.6637, 414.4491
300.1458, 415.9812
300.6279, 417.8994
301.1100, 420.1377
301.5921, 422.2357
302.0742, 423.8677
302.5564, 425.7374
303.0385, 428.2744
303.5206, 431.1523
304.0027, 433.7749
304.4848, 435.8181
304.9669, 437.4974
305.4491, 439.4832
305.9312, 442.0509
306.4133, 444.5445
306.8954, 446.6916
307.3775, 448.7830
307.8596, 451.2810
308.3418, 454.3447
308.8239, 457.6035
309.3060, 460.3664
309.7881, 462.3560
310.2702, 464.4146
310.7523, 466.4916
311.2345, 468.7048
311.7166, 471.2091
312.1987, 474.0092
312.6808, 476.9290
313.1629, 479.7876
313.6451, 482.5754
314.1272, 485.1856
314.6093, 487.5584
315.0914, 489.7779
315.5735, 491.7516
316.0556, 493.5563
316.5378, 495.5772
317.0199, 498.2146
317.5020, 501.4774
317.9841, 504.4344
318.4662, 506.7237
318.9483, 509.1055
319.4305, 512.0284
319.9126, 515.3446
320.3947, 518.6229
320.8768, 521.5988
321.3589, 524.3434
321.8410, 527.2162
322.3232, 530.1952
322.8053, 533.3322
323.2874, 536.6964
323.7695, 540.2083
324.2516, 543.7606
324.7337, 547.2907
325.2159, 550.8010
325.6980, 554.2470
326.1801, 557.5909
326.6622, 560.9115
327.1443, 564.1218
327.6264, 567.3638
328.1086, 570.9486
328.5907, 574.9065
329.0728, 578.7070
329.5549, 581.5677
330.0370, 582.9438
330.5191, 585.2134
331.0013, 589.4610
331.4834, 593.7259
331.9655, 596.3840
332.4476, 597.5461
332.9297, 598.6757
333.4118, 601.1052
333.8940, 604.9268
334.3761, 608.1611
334.8582, 610.3640
335.3403, 612.5628
335.8224, 615.3948
336.3045, 618.5569
336.7867, 621.3114
337.2688, 623.1666
337.7509, 624.3443
338.2330, 625.8790
338.7151, 628.2283
339.1972, 630.3687
339.6793, 632.2220
340.1614, 633.7687
340.6436, 634.9513
341.1257, 635.7614
341.6078, 636.3095
342.0899, 636.7959
342.5720, 637.0098
343.0541, 637.5579
343.5363, 638.8255
344.0184, 640.1625
344.5005, 641.0406
344.9826, 641.3923
345.4647, 641.5109
345.9468, 641.7292
346.4290, 642.1141
346.9111, 642.2526
347.3932, 642.1627
347.8753, 641.8609
348.3574, 641.3800
348.8395, 640.6931
349.3217, 639.6992
349.8038, 638.2976
350.2859, 636.5296
350.7680, 634.9398
351.2501, 634.0892
351.7322, 632.7606
352.2144, 630.3694
352.6965, 627.4836
353.1786, 625.0096
353.6607, 623.3546
354.1428, 621.9603
354.6249, 619.4091
355.1071, 614.4537
355.5892, 610.3766
356.0713, 608.0650
356.5534, 606.1086
357.0355, 603.4161
357.5176, 599.7949
357.9998, 595.7761
358.4819, 591.9916
358.9640, 588.4983
359.4461, 585.0098
359.9282, 581.5167
360.4103, 577.9988
360.8925, 574.2836
361.3746, 570.5184
361.8567, 567.1584
362.3388, 564.6451
362.8209, 562.8145
363.3030, 560.1188
363.7852, 555.7419
364.2673, 551.5002
364.7494, 547.8377
365.2315, 544.5208
365.7136, 541.3252
366.1957, 538.1653
366.6779, 534.9442
367.1600, 531.4140
367.6421, 527.2825
368.1242, 523.5967
368.6063, 520.7889
369.0884, 518.2448
369.5706, 515.6888
370.0527, 513.0245
370.5348, 510.1527
371.0169, 506.7414
371.4990, 502.7293
371.9811, 499.3982
372.4633, 497.4111
372.9454, 495.4790
373.4275, 492.8970
373.9096, 489.8997
374.3917, 487.0532
374.8738, 484.7354
375.3560, 482.8074
375.8381, 480.8649
376.3202, 478.8416
376.8023, 476.9520
377.2844, 475.2602
377.7665, 473.7499
378.2487, 472.5063
378.7308, 471.6199
379.2129, 470.6763
379.6950, 468.9521
380.1771, 466.3896
380.6592, 464.4511
381.1414, 463.8867
381.6235, 463.7322
382.1056, 463.0724
382.5877, 461.9175
383.0698, 460.9598
383.5519, 460.7413
384.0341, 461.0466
384.5162, 461.2226
384.9983, 461.2073
385.4804, 461.0780
385.9625, 460.9074
386.4446, 460.6700
386.9268, 460.2690
387.4089, 459.3315
387.8910, 458.4955
388.3731, 458.6327
388.8552, 459.7065
389.3373, 460.6958
389.8195, 461.1304
390.3016, 461.1808
390.7837, 461.2348
391.2658, 461.3016
391.7479, 461.3431
392.2300, 461.2792
392.7122, 461.1813
393.1943, 461.2025
393.6764, 461.3810
394.1585, 461.6823
394.6406, 462.1699
395.1227, 462.8571
395.6049, 463.2138
396.0870, 462.7211
396.5691, 462.1820
397.0512, 462.4100
397.5333, 463.3548
398.0154, 464.2541
398.4976, 464.5610
398.9797, 464.3994
399.4618, 464.5698
399.9439, 465.5833
400.4260, 466.2825
400.9081, 466.0086
401.3903, 465.2746
401.8724, 464.9843
402.3545, 465.4723
402.8366, 466.2105
403.3187, 466.2970
403.8008, 465.3710
404.2830, 464.5375
404.7651, 463.4739
405.2472, 462.7451
405.7293, 463.1320
406.2114, 464.3921
406.6935, 465.3607
407.1757, 465.0101
407.6578, 463.3795
408.1399, 461.9825
408.6220, 460.8619
409.1041, 459.9320
409.5862, 459.3406
410.0684, 458.8756
410.5505, 458.2454
411.0326, 457.3286
411.5147, 456.2482
411.9968, 455.2033
412.4789, 454.0612
412.9611, 453.2781
413.4432, 453.1685
413.9253, 453.1359
414.4074, 452.8611
414.8895, 452.3120
415.3716, 451.5861
415.8538, 450.6653
416.3359, 449.5851
416.8180, 448.9951
417.3001, 449.3939
417.7822, 449.5790
418.2643, 448.8175
418.7465, 447.7179
419.2286, 447.2081
419.7107, 447.7586
420.1928, 448.6210
420.6749, 448.5360
421.1570, 447.3336
421.6392, 446.4375
422.1213, 446.3891
422.6034, 446.6235
423.0855, 446.7592
423.5676, 446.7745
424.0497, 446.7022
424.5319, 446.4479
425.0140, 446.1255
425.4961, 446.1037
425.9782, 446.4931
426.4603, 446.8785
426.9424, 447.0027
427.4246, 446.9043
427.9067, 446.6035
428.3888, 445.8326
428.8709, 445.1989
429.3530, 445.3349
429.8351, 446.0819
430.3173, 446.7578
430.7994, 447.1949
431.2815, 447.3108
431.7636, 446.7100
432.2457, 445.2222
432.7278, 444.3250
433.2100, 444.9619
433.6921, 446.0072
434.1742, 446.3328
434.6563, 445.8182
435.1384, 444.7913
435.6205, 443.4442
436.1027, 441.8028
436.5848, 440.2270
437.0669, 439.0321
437.5490, 437.5423
438.0311, 435.5168
438.5132, 433.0707
438.9954, 430.3813
439.4775, 427.5214
439.9596, 424.4426
440.4417, 421.0831
440.9238, 417.3974
441.4059, 413.4843
441.8881, 408.7231
442.3702, 404.2843
442.8523, 401.1100
443.3344, 398.9352
443.8165, 396.7201
444.2986, 393.6660
444.7808, 389.9613
445.2629, 386.8778
445.7450, 385.1616
446.2271, 382.9188
446.7092, 379.1964
447.1913, 375.1647
447.6735, 371.9934
448.1556, 369.9902
448.6377, 368.4905
449.1198, 366.7398
449.6019, 364.7250
450.0840, 362.7823
450.5662, 360.9975
451.0483, 359.2061
451.5304, 357.0997
452.0125, 354.9180
452.4946, 353.2469
452.9767, 352.5926
453.4589, 352.3525
453.9410, 351.5145
454.4231, 350.0367
454.9052, 348.5990
455.3873, 347.4583
455.8694, 346.5060
456.3516, 345.5241
456.8337, 344.4767
457.3158, 343.6513
457.7979, 343.5379
458.2800, 343.6358
458.7621, 342.8844
459.2443, 341.0750
459.7264, 339.3506
460.2085, 338.7354
460.6906, 339.1350
461.1727, 339.1382
461.6548, 338.3163
462.1370, 337.5493
462.6191, 337.4341
463.1012, 337.6295
463.5833, 337.4351
464.0654, 336.5785
464.5475, 335.3594
465.0297, 334.2569
465.5118, 333.2434
465.9939, 332.4497
466.4760, 331.9307
466.9581, 331.5645
467.4402, 331.4275
467.9224, 331.3965
468.4045, 331.1430
468.8866, 330.4008
469.3687, 329.3366
469.8508, 328.7310
470.3329, 328.9347
470.8151, 329.0530
471.2972, 329.0946
471.7793, 328.9366
472.2614, 328.3353
472.7435, 327.3206
473.2256, 326.3547
473.7078, 325.9889
474.1899, 326.2040
474.6720, 326.2054
475.1541, 325.8361
475.6362, 325.4917
476.1183, 325.3255
476.6005, 325.3059
477.0826, 325.4445
477.5647, 325.8527
478.0468, 326.1593
478.5289, 325.8252
479.0110, 324.9300
479.4932, 324.2243
479.9753, 323.9085
480.4574, 323.8486
480.9395, 323.9101
481.4216, 324.0839
481.9037, 324.4013
482.3859, 325.0108
482.8680, 325.6710
483.3501, 326.2293
483.8322, 326.6541
484.3143, 326.8013
484.7964, 326.5349
485.2786, 326.0150
485.7607, 325.7257
486.2428, 325.7691
486.7249, 325.8441
487.2070, 325.8886
487.6891, 325.9655
488.1713, 326.1906
488.6534, 326.5414
489.1355, 326.8296
489.6176, 326.8733
490.0997, 326.6776
490.5818, 326.5054
491.0640, 326.0418
491.5461, 325.9845
492.0282, 326.9570
492.5103, 328.1578
492.9924, 328.5499
493.4745, 327.8659
493.9567, 326.9438
494.4388, 326.9690
494.9209, 328.0655
495.4030, 328.6994
495.8851, 328.5395
496.3672, 328.2253
496.8494, 328.0305
497.3315, 327.9326
497.8136, 327.8669
498.2957, 327.7781
498.7778, 327.7675
499.2599, 328.0931
499.7421, 328.7239
500.2242, 328.9944
500.7063, 328.5317
501.1884, 327.8886
501.6705, 327.8070
502.1526, 328.2510
502.6348, 328.5971
503.1169, 328.8019
503.5990, 328.7547
504.0811, 328.2092
504.5632, 327.2511
505.0453, 326.3559
505.5274, 325.7823
506.0096, 325.4384
506.4917, 325.0686
506.9738, 324.7898
507.4559, 324.2915
507.9380, 323.5751
508.4201, 322.6129
508.9023, 321.2588
509.3844, 319.5946
509.8665, 317.9496
510.3486, 316.6199
510.8307, 315.5450
511.3128, 314.2245
511.7950, 312.4431
512.2771, 310.7298
512.7592, 309.2802
513.2413, 307.8649
513.7234, 306.2194
514.2056, 304.3130
514.6877, 302.4756
515.1698, 301.0154
515.6519, 299.9121
516.1340, 299.0359
516.6161, 298.6826
517.0983, 297.9218
517.5804, 295.8082
518.0625, 293.0770
518.5446, 290.7193
519.0267, 288.9548
519.5089, 287.5582
519.9910, 286.6620
520.4731, 286.0048
520.9552, 284.7894
521.4373, 282.7647
521.9194, 280.5572
522.4016, 278.7337
522.8837, 277.3239
523.3658, 276.0538
523.8479, 275.0201
524.3300, 274.0225
524.8121, 273.1194
525.2943, 272.1576
525.7764, 270.7406
526.2585, 268.7516
526.7406, 266.6902
527.2227, 265.4204
527.7048, 265.2926
528.1870, 264.7068
528.6691, 263.2428
529.1512, 261.7783
529.6333, 260.6555
530.1154, 259.7729
530.5975, 258.9330
531.0797, 258.0499
531.5618, 257.1198
532.0439, 256.0569
532.5260, 254.8090
533.0081, 253.8732
533.4902, 253.5455
533.9724, 253.3107
534.4545, 252.8549
534.9366, 252.1855
535.4187, 251.3364
535.9008, 250.0576
536.3829, 248.8094
536.8651, 248.1742
537.3472, 248.0763
537.8293, 248.0680
538.3114, 248.0155
538.7935, 247.9106
539.2756, 247.7566
539.7578, 247.5785
540.2399, 247.2207
540.7220, 246.3653
541.2041, 245.5879
541.6862, 245.3502
542.1683, 245.5292
542.6505, 245.7779
543.1326, 245.9259
543.6147, 245.9092
544.0968, 245.5184
544.5789, 244.3591
545.0610, 243.6430
545.5432, 243.6457
546.0253, 243.8269
546.5074, 243.9946
546.9895, 244.0879
547.4716, 244.0112
547.9537, 243.6210
548.4359, 243.1680
548.9180, 243.3423
549.4001, 244.2923
549.8822, 244.8082
550.3643, 244.2151
550.8464, 243.3928
551.3286, 243.1992
551.8107, 243.5992
552.2928, 244.1407
552.7749, 244.8597
553.2570, 245.4972
553.7391, 245.7525
554.2213, 245.6507
554.7034, 245.3396
555.1855, 244.8235
555.6676, 244.2849
556.1497, 244.1129
556.6318, 244.5563
557.1140, 244.7950
557.5961, 244.5809
558.0782, 244.3637
558.5603, 244.5429
559.0424, 244.9712
559.5245, 245.1661
560.0067, 244.8289
560.4888, 244.2560
560.9709, 244.2664
561.4530, 245.1994
561.9351, 245.7569
562.4172, 245.5602
562.8994, 245.1384
563.3815, 244.5960
563.8636, 244.0367
564.3457, 243.7066
564.8278, 243.7925
565.3099, 244.1026
565.7921, 244.3820
566.2742, 244.6312
566.7563, 244.8551
567.2384, 245.0457
567.7205, 245.2253
568.2026, 245.3492
568.6848, 245.4077
569.1669, 245.7701
569.6490, 246.8686
570.1311, 247.9444
570.6132, 248.4658
571.0953, 248.5552
571.5775, 248.4977
572.0596, 248.4057
572.5417, 248.4587
573.0238, 249.0228
573.5059, 250.3910
573.9880, 251.3735
574.4702, 251.5502
574.9523, 251.7973
575.4344, 252.5436
575.9165, 253.5891
576.3986, 254.5483
576.8807, 255.2557
577.3629, 255.8353
577.8450, 256.3536
578.3271, 256.8160
578.8092, 257.7362
579.2913, 259.5032
579.7734, 261.1883
580.2556, 261.7990
580.7377, 261.7645
581.2198, 262.1779
581.7019, 263.5004
582.1840, 264.9738
582.6661, 266.1794
583.1483, 267.1908
583.6304, 268.1370
