##NAMES=Strontioginorite
##RRUFFID=R110149
##IDEAL CHEMISTRY=SrCaB_14_O_20_(OH)_6_&#183;5H_2_O
##LOCALITY=Potash Corporation of Saskatchewan mine, Penobsquis, Kings County, New Brunswick, Canada
##OWNER=RRUFF
##SOURCE=Donald M Doell and Brian Roulston
##DESCRIPTION=Colorless elongated tetragonal prisms, extracted by dissolving the matrix of sylvite/halite, associated with howlite R110150, volkovskite R110151, ruitenbergite R110152, congolite R110153, and hilgardite
##STATUS=The identification of this mineral has been confirmed by single-crystal X-ray diffraction.
##URL=rruff.info/R110149
9.049219e+001, 1.615284e+002
9.097430e+001, 1.629194e+002
9.145642e+001, 1.625211e+002
9.193854e+001, 1.604973e+002
9.242065e+001, 1.582149e+002
9.290277e+001, 1.568128e+002
9.338489e+001, 1.559796e+002
9.386700e+001, 1.550007e+002
9.434912e+001, 1.535882e+002
9.483124e+001, 1.518945e+002
9.531335e+001, 1.502862e+002
9.579547e+001, 1.487826e+002
9.627759e+001, 1.471780e+002
9.675970e+001, 1.450520e+002
9.724182e+001, 1.424603e+002
9.772394e+001, 1.400527e+002
9.820605e+001, 1.381492e+002
9.868817e+001, 1.367063e+002
9.917029e+001, 1.352202e+002
9.965240e+001, 1.335686e+002
1.001345e+002, 1.320385e+002
1.006166e+002, 1.314394e+002
1.010988e+002, 1.320397e+002
1.015809e+002, 1.323701e+002
1.020630e+002, 1.314739e+002
1.025451e+002, 1.290239e+002
1.030272e+002, 1.269375e+002
1.035093e+002, 1.253506e+002
1.039915e+002, 1.242100e+002
1.044736e+002, 1.233171e+002
1.049557e+002, 1.229779e+002
1.054378e+002, 1.224507e+002
1.059199e+002, 1.211307e+002
1.064020e+002, 1.182808e+002
1.068842e+002, 1.159915e+002
1.073663e+002, 1.146382e+002
1.078484e+002, 1.142452e+002
1.083305e+002, 1.137469e+002
1.088126e+002, 1.131147e+002
1.092947e+002, 1.123963e+002
1.097769e+002, 1.116350e+002
1.102590e+002, 1.107748e+002
1.107411e+002, 1.099283e+002
1.112232e+002, 1.091688e+002
1.117053e+002, 1.085686e+002
1.121874e+002, 1.077515e+002
1.126696e+002, 1.064394e+002
1.131517e+002, 1.049639e+002
1.136338e+002, 1.037548e+002
1.141159e+002, 1.032415e+002
1.145980e+002, 1.027091e+002
1.150801e+002, 1.018338e+002
1.155623e+002, 1.003575e+002
1.160444e+002, 9.909074e+001
1.165265e+002, 9.845325e+001
1.170086e+002, 9.817317e+001
1.174907e+002, 9.771300e+001
1.179728e+002, 9.667027e+001
1.184550e+002, 9.551091e+001
1.189371e+002, 9.457753e+001
1.194192e+002, 9.425330e+001
1.199013e+002, 9.368662e+001
1.203834e+002, 9.203297e+001
1.208655e+002, 8.962271e+001
1.213477e+002, 8.774123e+001
1.218298e+002, 8.747048e+001
1.223119e+002, 8.798068e+001
1.227940e+002, 8.841662e+001
1.232761e+002, 8.860592e+001
1.237582e+002, 8.854841e+001
1.242404e+002, 8.826154e+001
1.247225e+002, 8.774105e+001
1.252046e+002, 8.693078e+001
1.256867e+002, 8.558756e+001
1.261688e+002, 8.394007e+001
1.266509e+002, 8.241293e+001
1.271331e+002, 8.115176e+001
1.276152e+002, 8.011243e+001
1.280973e+002, 7.921634e+001
1.285794e+002, 7.845864e+001
1.290615e+002, 7.790348e+001
1.295436e+002, 7.786309e+001
1.300258e+002, 7.818018e+001
1.305079e+002, 7.817296e+001
1.309900e+002, 7.701036e+001
1.314721e+002, 7.523717e+001
1.319542e+002, 7.473814e+001
1.324363e+002, 7.584452e+001
1.329185e+002, 7.737825e+001
1.334006e+002, 7.746066e+001
1.338827e+002, 7.609008e+001
1.343648e+002, 7.462328e+001
1.348469e+002, 7.377664e+001
1.353290e+002, 7.350996e+001
1.358112e+002, 7.330039e+001
1.362933e+002, 7.321835e+001
1.367754e+002, 7.304964e+001
1.372575e+002, 7.211973e+001
1.377396e+002, 7.022582e+001
1.382217e+002, 6.845840e+001
1.387039e+002, 6.757948e+001
1.391860e+002, 6.772997e+001
1.396681e+002, 6.775273e+001
1.401502e+002, 6.747296e+001
1.406323e+002, 6.697871e+001
1.411144e+002, 6.669864e+001
1.415966e+002, 6.679111e+001
1.420787e+002, 6.679129e+001
1.425608e+002, 6.627170e+001
1.430429e+002, 6.498745e+001
1.435250e+002, 6.388589e+001
1.440071e+002, 6.313912e+001
1.444893e+002, 6.273943e+001
1.449714e+002, 6.232222e+001
1.454535e+002, 6.182935e+001
1.459356e+002, 6.137836e+001
1.464177e+002, 6.111393e+001
1.468998e+002, 6.124214e+001
1.473820e+002, 6.121653e+001
1.478641e+002, 6.079671e+001
1.483462e+002, 5.984966e+001
1.488283e+002, 5.948140e+001
1.493104e+002, 6.020858e+001
1.497925e+002, 6.127016e+001
1.502747e+002, 6.179282e+001
1.507568e+002, 6.138963e+001
1.512389e+002, 6.083669e+001
1.517210e+002, 6.018613e+001
1.522031e+002, 5.925348e+001
1.526852e+002, 5.881658e+001
1.531674e+002, 5.917973e+001
1.536495e+002, 5.997880e+001
1.541316e+002, 6.068624e+001
1.546137e+002, 6.075702e+001
1.550958e+002, 6.116507e+001
1.555779e+002, 6.230344e+001
1.560601e+002, 6.456876e+001
1.565422e+002, 6.668913e+001
1.570243e+002, 6.777682e+001
1.575064e+002, 6.861990e+001
1.579885e+002, 7.074436e+001
1.584706e+002, 7.619370e+001
1.589528e+002, 8.174283e+001
1.594349e+002, 8.577500e+001
1.599170e+002, 8.703980e+001
1.603991e+002, 8.856019e+001
1.608812e+002, 9.101727e+001
1.613633e+002, 9.433479e+001
1.618455e+002, 9.831232e+001
1.623276e+002, 1.030242e+002
1.628097e+002, 1.082583e+002
1.632918e+002, 1.140124e+002
1.637739e+002, 1.204856e+002
1.642560e+002, 1.271321e+002
1.647382e+002, 1.337295e+002
1.652203e+002, 1.403081e+002
1.657024e+002, 1.469832e+002
1.661845e+002, 1.542646e+002
1.666666e+002, 1.614932e+002
1.671487e+002, 1.679611e+002
1.676309e+002, 1.728977e+002
1.681130e+002, 1.777309e+002
1.685951e+002, 1.831635e+002
1.690772e+002, 1.891879e+002
1.695593e+002, 1.956377e+002
1.700414e+002, 2.026697e+002
1.705236e+002, 2.100281e+002
1.710057e+002, 2.173025e+002
1.714878e+002, 2.241696e+002
1.719699e+002, 2.311555e+002
1.724520e+002, 2.383315e+002
1.729341e+002, 2.457749e+002
1.734163e+002, 2.541455e+002
1.738984e+002, 2.643600e+002
1.743805e+002, 2.758669e+002
1.748626e+002, 2.874106e+002
1.753447e+002, 2.987319e+002
1.758268e+002, 3.099653e+002
1.763090e+002, 3.212977e+002
1.767911e+002, 3.326323e+002
1.772732e+002, 3.439979e+002
1.777553e+002, 3.539227e+002
1.782374e+002, 3.622006e+002
1.787195e+002, 3.700327e+002
1.792017e+002, 3.780304e+002
1.796838e+002, 3.859926e+002
1.801659e+002, 3.932987e+002
1.806480e+002, 3.999855e+002
1.811301e+002, 4.066306e+002
1.816122e+002, 4.142512e+002
1.820944e+002, 4.225188e+002
1.825765e+002, 4.301385e+002
1.830586e+002, 4.360391e+002
1.835407e+002, 4.410151e+002
1.840228e+002, 4.472320e+002
1.845049e+002, 4.548249e+002
1.849871e+002, 4.627487e+002
1.854692e+002, 4.697338e+002
1.859513e+002, 4.759242e+002
1.864334e+002, 4.816844e+002
1.869155e+002, 4.874272e+002
1.873976e+002, 4.929406e+002
1.878798e+002, 4.975923e+002
1.883619e+002, 5.013235e+002
1.888440e+002, 5.043214e+002
1.893261e+002, 5.069366e+002
1.898082e+002, 5.091511e+002
1.902903e+002, 5.103149e+002
1.907725e+002, 5.097197e+002
1.912546e+002, 5.076423e+002
1.917367e+002, 5.057565e+002
1.922188e+002, 5.042018e+002
1.927009e+002, 5.026834e+002
1.931830e+002, 5.005744e+002
1.936652e+002, 4.978774e+002
1.941473e+002, 4.954258e+002
1.946294e+002, 4.939917e+002
1.951115e+002, 4.934500e+002
1.955936e+002, 4.920652e+002
1.960757e+002, 4.894873e+002
1.965579e+002, 4.864639e+002
1.970400e+002, 4.845343e+002
1.975221e+002, 4.837878e+002
1.980042e+002, 4.831417e+002
1.984863e+002, 4.816004e+002
1.989684e+002, 4.791437e+002
1.994506e+002, 4.782762e+002
1.999327e+002, 4.795633e+002
2.004148e+002, 4.820147e+002
2.008969e+002, 4.834845e+002
2.013790e+002, 4.838682e+002
2.018611e+002, 4.839478e+002
2.023433e+002, 4.839716e+002
2.028254e+002, 4.838756e+002
2.033075e+002, 4.845071e+002
2.037896e+002, 4.860081e+002
2.042717e+002, 4.881790e+002
2.047538e+002, 4.907737e+002
2.052360e+002, 4.940597e+002
2.057181e+002, 4.967652e+002
2.062002e+002, 4.977400e+002
2.066823e+002, 4.965563e+002
2.071644e+002, 4.964476e+002
2.076465e+002, 4.979381e+002
2.081287e+002, 5.004980e+002
2.086108e+002, 5.025482e+002
2.090929e+002, 5.038715e+002
2.095750e+002, 5.052779e+002
2.100571e+002, 5.075171e+002
2.105392e+002, 5.110277e+002
2.110214e+002, 5.132907e+002
2.115035e+002, 5.137307e+002
2.119856e+002, 5.129073e+002
2.124677e+002, 5.128356e+002
2.129498e+002, 5.138475e+002
2.134319e+002, 5.149005e+002
2.139141e+002, 5.151805e+002
2.143962e+002, 5.142203e+002
2.148783e+002, 5.142515e+002
2.153604e+002, 5.157264e+002
2.158425e+002, 5.183007e+002
2.163246e+002, 5.204979e+002
2.168067e+002, 5.221293e+002
2.172889e+002, 5.237768e+002
2.177710e+002, 5.258344e+002
2.182531e+002, 5.284411e+002
2.187352e+002, 5.309896e+002
2.192173e+002, 5.332020e+002
2.196994e+002, 5.353342e+002
2.201816e+002, 5.385117e+002
2.206637e+002, 5.430649e+002
2.211458e+002, 5.481351e+002
2.216279e+002, 5.531530e+002
2.221100e+002, 5.581071e+002
2.225921e+002, 5.631432e+002
2.230743e+002, 5.683718e+002
2.235564e+002, 5.736988e+002
2.240385e+002, 5.791039e+002
2.245206e+002, 5.850570e+002
2.250027e+002, 5.902029e+002
2.254848e+002, 5.937750e+002
2.259670e+002, 5.958243e+002
2.264491e+002, 5.961504e+002
2.269312e+002, 5.946482e+002
2.274133e+002, 5.914367e+002
2.278954e+002, 5.867504e+002
2.283775e+002, 5.800342e+002
2.288597e+002, 5.728035e+002
2.293418e+002, 5.659276e+002
2.298239e+002, 5.592037e+002
2.303060e+002, 5.533065e+002
2.307881e+002, 5.483405e+002
2.312702e+002, 5.442321e+002
2.317524e+002, 5.408770e+002
2.322345e+002, 5.383347e+002
2.327166e+002, 5.364771e+002
2.331987e+002, 5.353184e+002
2.336808e+002, 5.351112e+002
2.341629e+002, 5.349879e+002
2.346451e+002, 5.347123e+002
2.351272e+002, 5.344552e+002
2.356093e+002, 5.350412e+002
2.360914e+002, 5.369130e+002
2.365735e+002, 5.390175e+002
2.370556e+002, 5.407148e+002
2.375378e+002, 5.415673e+002
2.380199e+002, 5.430131e+002
2.385020e+002, 5.453466e+002
2.389841e+002, 5.483581e+002
2.394662e+002, 5.510413e+002
2.399483e+002, 5.530565e+002
2.404305e+002, 5.552457e+002
2.409126e+002, 5.580829e+002
2.413947e+002, 5.617443e+002
2.418768e+002, 5.657247e+002
2.423589e+002, 5.701921e+002
2.428410e+002, 5.749434e+002
2.433232e+002, 5.792903e+002
2.438053e+002, 5.828156e+002
2.442874e+002, 5.864818e+002
2.447695e+002, 5.909131e+002
2.452516e+002, 5.971386e+002
2.457337e+002, 6.017958e+002
2.462159e+002, 6.042109e+002
2.466980e+002, 6.050549e+002
2.471801e+002, 6.064014e+002
2.476622e+002, 6.082658e+002
2.481443e+002, 6.106024e+002
2.486264e+002, 6.134568e+002
2.491086e+002, 6.172274e+002
2.495907e+002, 6.205923e+002
2.500728e+002, 6.234872e+002
2.505549e+002, 6.259836e+002
2.510370e+002, 6.282743e+002
2.515191e+002, 6.304343e+002
2.520013e+002, 6.323008e+002
2.524834e+002, 6.340477e+002
2.529655e+002, 6.364416e+002
2.534476e+002, 6.367101e+002
2.539297e+002, 6.346331e+002
2.544118e+002, 6.305500e+002
2.548940e+002, 6.250936e+002
2.553761e+002, 6.181328e+002
2.558582e+002, 6.099880e+002
2.563403e+002, 6.006638e+002
2.568224e+002, 5.898084e+002
2.573046e+002, 5.789168e+002
2.577867e+002, 5.677639e+002
2.582688e+002, 5.567994e+002
2.587509e+002, 5.470283e+002
2.592330e+002, 5.388752e+002
2.597151e+002, 5.312299e+002
2.601973e+002, 5.235935e+002
2.606794e+002, 5.159692e+002
2.611615e+002, 5.088911e+002
2.616436e+002, 5.022906e+002
2.621257e+002, 4.963774e+002
2.626078e+002, 4.915899e+002
2.630900e+002, 4.881552e+002
2.635721e+002, 4.854453e+002
2.640542e+002, 4.835114e+002
2.645363e+002, 4.825513e+002
2.650184e+002, 4.808621e+002
2.655005e+002, 4.780808e+002
2.659827e+002, 4.749856e+002
2.664648e+002, 4.726075e+002
2.669469e+002, 4.710343e+002
2.674290e+002, 4.699888e+002
2.679111e+002, 4.694661e+002
2.683932e+002, 4.694966e+002
2.688754e+002, 4.695653e+002
2.693575e+002, 4.697205e+002
2.698396e+002, 4.698193e+002
2.703217e+002, 4.696839e+002
2.708038e+002, 4.692943e+002
2.712859e+002, 4.686855e+002
2.717681e+002, 4.676983e+002
2.722502e+002, 4.663622e+002
2.727323e+002, 4.657310e+002
2.732144e+002, 4.659960e+002
2.736965e+002, 4.665929e+002
2.741786e+002, 4.669526e+002
2.746608e+002, 4.670536e+002
2.751429e+002, 4.670225e+002
2.756250e+002, 4.667294e+002
2.761071e+002, 4.662859e+002
2.765892e+002, 4.667950e+002
2.770714e+002, 4.686219e+002
2.775535e+002, 4.703379e+002
2.780356e+002, 4.703547e+002
2.785177e+002, 4.684767e+002
2.789998e+002, 4.668955e+002
2.794819e+002, 4.660475e+002
2.799641e+002, 4.658287e+002
2.804462e+002, 4.659423e+002
2.809283e+002, 4.664687e+002
2.814104e+002, 4.669748e+002
2.818925e+002, 4.670077e+002
2.823746e+002, 4.665595e+002
2.828568e+002, 4.664077e+002
2.833389e+002, 4.668071e+002
2.838210e+002, 4.675004e+002
2.843031e+002, 4.677201e+002
2.847852e+002, 4.674338e+002
2.852673e+002, 4.670572e+002
2.857495e+002, 4.667413e+002
2.862316e+002, 4.665211e+002
2.867137e+002, 4.668705e+002
2.871958e+002, 4.680401e+002
2.876779e+002, 4.695366e+002
2.881600e+002, 4.702479e+002
2.886422e+002, 4.701606e+002
2.891243e+002, 4.700521e+002
2.896064e+002, 4.703028e+002
2.900885e+002, 4.709051e+002
2.905706e+002, 4.719382e+002
2.910527e+002, 4.735023e+002
2.915349e+002, 4.752336e+002
2.920170e+002, 4.767056e+002
2.924991e+002, 4.778822e+002
2.929812e+002, 4.785833e+002
2.934633e+002, 4.784506e+002
2.939454e+002, 4.777322e+002
2.944276e+002, 4.772489e+002
2.949097e+002, 4.770918e+002
2.953918e+002, 4.769867e+002
2.958739e+002, 4.763599e+002
2.963560e+002, 4.753919e+002
2.968381e+002, 4.749004e+002
2.973203e+002, 4.759608e+002
2.978024e+002, 4.776483e+002
2.982845e+002, 4.778181e+002
2.987666e+002, 4.763078e+002
2.992487e+002, 4.745332e+002
2.997308e+002, 4.740685e+002
3.002130e+002, 4.745068e+002
3.006951e+002, 4.746814e+002
3.011772e+002, 4.739132e+002
3.016593e+002, 4.727195e+002
3.021414e+002, 4.717916e+002
3.026235e+002, 4.711324e+002
3.031057e+002, 4.706031e+002
3.035878e+002, 4.700732e+002
3.040699e+002, 4.695980e+002
3.045520e+002, 4.692847e+002
3.050341e+002, 4.691062e+002
3.055162e+002, 4.691629e+002
3.059984e+002, 4.697204e+002
3.064805e+002, 4.707014e+002
3.069626e+002, 4.716071e+002
3.074447e+002, 4.720266e+002
3.079268e+002, 4.721840e+002
3.084089e+002, 4.723523e+002
3.088911e+002, 4.725861e+002
3.093732e+002, 4.728764e+002
3.098553e+002, 4.731266e+002
3.103374e+002, 4.734012e+002
3.108195e+002, 4.739290e+002
3.113016e+002, 4.752848e+002
3.117838e+002, 4.767129e+002
3.122659e+002, 4.774253e+002
3.127480e+002, 4.769020e+002
3.132301e+002, 4.765208e+002
3.137122e+002, 4.770588e+002
3.141943e+002, 4.783325e+002
3.146765e+002, 4.799495e+002
3.151586e+002, 4.823228e+002
3.156407e+002, 4.845669e+002
3.161228e+002, 4.859583e+002
3.166049e+002, 4.861253e+002
3.170870e+002, 4.866285e+002
3.175692e+002, 4.882894e+002
3.180513e+002, 4.906702e+002
3.185334e+002, 4.931527e+002
3.190155e+002, 4.955594e+002
3.194976e+002, 4.980096e+002
3.199797e+002, 5.004064e+002
3.204619e+002, 5.027022e+002
3.209440e+002, 5.055111e+002
3.214261e+002, 5.092665e+002
3.219082e+002, 5.134785e+002
3.223903e+002, 5.176693e+002
3.228724e+002, 5.220344e+002
3.233546e+002, 5.260563e+002
3.238367e+002, 5.292430e+002
3.243188e+002, 5.316493e+002
3.248009e+002, 5.348168e+002
3.252830e+002, 5.401561e+002
3.257651e+002, 5.455911e+002
3.262473e+002, 5.497676e+002
3.267294e+002, 5.518035e+002
3.272115e+002, 5.534791e+002
3.276936e+002, 5.549575e+002
3.281757e+002, 5.562137e+002
3.286578e+002, 5.571517e+002
3.291400e+002, 5.584085e+002
3.296221e+002, 5.588441e+002
3.301042e+002, 5.579333e+002
3.305863e+002, 5.548094e+002
3.310684e+002, 5.517462e+002
3.315505e+002, 5.486239e+002
3.320327e+002, 5.455888e+002
3.325148e+002, 5.430416e+002
3.329969e+002, 5.413759e+002
3.334790e+002, 5.396209e+002
3.339611e+002, 5.373411e+002
3.344432e+002, 5.343078e+002
3.349254e+002, 5.316176e+002
3.354075e+002, 5.295409e+002
3.358896e+002, 5.275819e+002
3.363717e+002, 5.248779e+002
3.368538e+002, 5.207957e+002
3.373359e+002, 5.175882e+002
3.378180e+002, 5.162626e+002
3.383001e+002, 5.167807e+002
3.387823e+002, 5.160612e+002
3.392644e+002, 5.138361e+002
3.397465e+002, 5.109521e+002
3.402286e+002, 5.080227e+002
3.407107e+002, 5.049688e+002
3.411928e+002, 5.025612e+002
3.416750e+002, 5.010784e+002
3.421571e+002, 5.003515e+002
3.426392e+002, 4.999349e+002
3.431213e+002, 4.999076e+002
3.436034e+002, 4.997812e+002
3.440855e+002, 4.990208e+002
3.445677e+002, 4.976749e+002
3.450498e+002, 4.967343e+002
3.455319e+002, 4.963032e+002
3.460140e+002, 4.963664e+002
3.464961e+002, 4.969131e+002
3.469782e+002, 4.979352e+002
3.474604e+002, 4.993908e+002
3.479425e+002, 5.013098e+002
3.484246e+002, 5.036530e+002
3.489067e+002, 5.063121e+002
3.493888e+002, 5.093463e+002
3.498709e+002, 5.123787e+002
3.503531e+002, 5.149142e+002
3.508352e+002, 5.170460e+002
3.513173e+002, 5.191127e+002
3.517994e+002, 5.212389e+002
3.522815e+002, 5.234114e+002
3.527636e+002, 5.255834e+002
3.532458e+002, 5.277502e+002
3.537279e+002, 5.300472e+002
3.542100e+002, 5.327050e+002
3.546921e+002, 5.355468e+002
3.551742e+002, 5.382299e+002
3.556563e+002, 5.403928e+002
3.561385e+002, 5.426589e+002
3.566206e+002, 5.455668e+002
3.571027e+002, 5.491003e+002
3.575848e+002, 5.530865e+002
3.580669e+002, 5.577611e+002
3.585490e+002, 5.627080e+002
3.590312e+002, 5.675300e+002
3.595133e+002, 5.722043e+002
3.599954e+002, 5.767521e+002
3.604775e+002, 5.810687e+002
3.609596e+002, 5.853030e+002
3.614417e+002, 5.896905e+002
3.619239e+002, 5.944747e+002
3.624060e+002, 5.993824e+002
3.628881e+002, 6.041866e+002
3.633702e+002, 6.087777e+002
3.638523e+002, 6.137526e+002
3.643344e+002, 6.193573e+002
3.648166e+002, 6.254313e+002
3.652987e+002, 6.318453e+002
3.657808e+002, 6.381353e+002
3.662629e+002, 6.450267e+002
3.667450e+002, 6.528798e+002
3.672271e+002, 6.616887e+002
3.677093e+002, 6.705209e+002
3.681914e+002, 6.796543e+002
3.686735e+002, 6.885273e+002
3.691556e+002, 6.968273e+002
3.696377e+002, 7.033256e+002
3.701198e+002, 7.105519e+002
3.706020e+002, 7.192482e+002
3.710841e+002, 7.288210e+002
3.715662e+002, 7.371993e+002
3.720483e+002, 7.443197e+002
3.725304e+002, 7.501989e+002
3.730125e+002, 7.549064e+002
3.734947e+002, 7.586300e+002
3.739768e+002, 7.605517e+002
3.744589e+002, 7.607584e+002
3.749410e+002, 7.591158e+002
3.754231e+002, 7.553448e+002
3.759052e+002, 7.491740e+002
3.763874e+002, 7.416083e+002
3.768695e+002, 7.329319e+002
3.773516e+002, 7.230484e+002
3.778337e+002, 7.123184e+002
3.783158e+002, 7.004738e+002
3.787979e+002, 6.881995e+002
3.792801e+002, 6.761661e+002
3.797622e+002, 6.642626e+002
3.802443e+002, 6.528591e+002
3.807264e+002, 6.418079e+002
3.812085e+002, 6.313251e+002
3.816906e+002, 6.218672e+002
3.821728e+002, 6.134633e+002
3.826549e+002, 6.058492e+002
3.831370e+002, 5.990590e+002
3.836191e+002, 5.929625e+002
3.841012e+002, 5.873002e+002
3.845833e+002, 5.819256e+002
3.850655e+002, 5.771224e+002
3.855476e+002, 5.736689e+002
3.860297e+002, 5.712032e+002
3.865118e+002, 5.686193e+002
3.869939e+002, 5.649056e+002
3.874760e+002, 5.609191e+002
3.879582e+002, 5.579682e+002
3.884403e+002, 5.560656e+002
3.889224e+002, 5.545164e+002
3.894045e+002, 5.528925e+002
3.898866e+002, 5.512590e+002
3.903687e+002, 5.496911e+002
3.908509e+002, 5.482135e+002
3.913330e+002, 5.468531e+002
3.918151e+002, 5.455060e+002
3.922972e+002, 5.442530e+002
3.927793e+002, 5.433796e+002
3.932614e+002, 5.429456e+002
3.937436e+002, 5.429968e+002
3.942257e+002, 5.435703e+002
3.947078e+002, 5.447101e+002
3.951899e+002, 5.462709e+002
3.956720e+002, 5.483069e+002
3.961541e+002, 5.507047e+002
3.966363e+002, 5.532843e+002
3.971184e+002, 5.558388e+002
3.976005e+002, 5.587130e+002
3.980826e+002, 5.622249e+002
3.985647e+002, 5.665151e+002
3.990468e+002, 5.703096e+002
3.995290e+002, 5.730877e+002
4.000111e+002, 5.755426e+002
4.004932e+002, 5.782313e+002
4.009753e+002, 5.812282e+002
4.014574e+002, 5.843753e+002
4.019395e+002, 5.875934e+002
4.024217e+002, 5.909329e+002
4.029038e+002, 5.945147e+002
4.033859e+002, 5.980908e+002
4.038680e+002, 6.022783e+002
4.043501e+002, 6.074570e+002
4.048322e+002, 6.137842e+002
4.053144e+002, 6.204745e+002
4.057965e+002, 6.276456e+002
4.062786e+002, 6.349449e+002
4.067607e+002, 6.416467e+002
4.072428e+002, 6.475963e+002
4.077249e+002, 6.538284e+002
4.082071e+002, 6.607424e+002
4.086892e+002, 6.682205e+002
4.091713e+002, 6.757117e+002
4.096534e+002, 6.834462e+002
4.101355e+002, 6.899607e+002
4.106176e+002, 6.939981e+002
4.110998e+002, 6.956857e+002
4.115819e+002, 6.954465e+002
4.120640e+002, 6.930000e+002
4.125461e+002, 6.892601e+002
