##NAMES=Stromeyerite
##RRUFFID=R060909
##IDEAL CHEMISTRY=Cu^1+^Ag^1+^S^2-^
##LOCALITY=Gowganda, Ontario, Canada
##OWNER=RRUFF
##SOURCE=Royal Ontario Museum
##DESCRIPTION=Grey, metallic, pseudohexagonal flakes, conchoidal fracture
##STATUS=The identification of this mineral has been confirmed by X-ray diffraction and chemical analysis
##URL=rruff.info/R060909
##MEASURED CHEMISTRY=Ag_1.00_Cu_1.00_S_1.00_
196.2511, 1002.901
196.7332, 990.9041
197.2153, 985.5823
197.6974, 987.5441
198.1795, 991.2040
198.6616, 993.6580
199.1438, 994.8997
199.6259, 995.9271
200.1080, 997.1779
200.5901, 997.9860
201.0722, 995.6966
201.5543, 989.3663
202.0364, 983.8083
202.5186, 982.9404
203.0007, 987.4528
203.4828, 990.3607
203.9649, 989.6897
204.4470, 987.1324
204.9291, 990.6107
205.4113, 1002.608
205.8934, 1013.428
206.3755, 1013.909
206.8576, 1001.085
207.3397, 993.0269
207.8218, 993.5543
208.3040, 1001.228
208.7861, 1007.508
209.2682, 1012.293
209.7503, 1015.848
210.2324, 1019.056
210.7145, 1023.027
211.1967, 1022.251
211.6788, 1013.706
212.1609, 998.3702
212.6430, 989.7616
213.1251, 990.1098
213.6072, 993.8008
214.0894, 995.3353
214.5715, 993.2969
215.0536, 993.2357
215.5357, 996.9006
216.0178, 1004.280
216.4999, 1010.418
216.9820, 1015.423
217.4642, 1018.865
217.9463, 1019.907
218.4284, 1017.283
218.9105, 1015.143
219.3926, 1014.147
219.8747, 1014.227
220.3569, 1016.685
220.8390, 1023.222
221.3211, 1030.446
221.8032, 1034.847
222.2853, 1037.032
222.7674, 1034.933
223.2496, 1026.516
223.7317, 1010.217
224.2138, 998.7042
224.6959, 991.6611
225.1780, 989.6151
225.6601, 994.3939
226.1423, 1011.219
226.6244, 1024.907
227.1065, 1030.822
227.5886, 1027.891
228.0707, 1022.174
228.5528, 1010.948
229.0350, 998.6358
229.5171, 992.5421
229.9992, 995.8708
230.4813, 999.6072
230.9634, 1000.562
231.4455, 997.2914
231.9276, 997.0391
232.4098, 1001.287
232.8919, 1007.714
233.3740, 1012.451
233.8561, 1015.851
234.3382, 1017.035
234.8203, 1014.977
235.3025, 1007.724
235.7846, 1003.849
236.2667, 1004.279
236.7488, 1007.634
237.2309, 1012.046
237.7130, 1020.689
238.1952, 1025.278
238.6773, 1021.228
239.1594, 1002.711
239.6415, 993.3841
240.1236, 996.9511
240.6057, 1008.122
241.0879, 1016.850
241.5700, 1024.408
242.0521, 1027.383
242.5342, 1023.168
243.0163, 1007.015
243.4984, 997.0173
243.9806, 995.3953
244.4627, 999.0170
244.9448, 1001.327
245.4269, 1001.286
245.9090, 1001.436
246.3911, 1003.188
246.8732, 1008.375
247.3554, 1009.772
247.8375, 1004.820
248.3196, 997.0117
248.8017, 994.8242
249.2838, 1003.091
249.7659, 1009.318
250.2481, 1007.560
250.7302, 992.7922
251.2123, 983.8080
251.6944, 982.6987
252.1765, 986.5851
252.6586, 989.5107
253.1408, 992.8475
253.6229, 993.0492
254.1050, 987.2469
254.5871, 970.6354
255.0692, 962.3970
255.5513, 965.9373
256.0334, 976.3017
256.5156, 982.1138
256.9977, 980.3314
257.4798, 979.4334
257.9619, 984.3920
258.4440, 1000.227
258.9261, 1005.921
259.4083, 996.7982
259.8904, 979.9379
260.3725, 971.8456
260.8546, 975.5562
261.3367, 981.8229
261.8188, 987.3701
262.3010, 992.9358
262.7831, 994.9844
263.2652, 992.2173
263.7473, 986.7825
264.2294, 983.2884
264.7115, 982.6495
265.1937, 981.8995
265.6758, 979.7322
266.1579, 975.9212
266.6400, 971.7162
267.1221, 966.7042
267.6042, 961.7090
268.0864, 958.8125
268.5685, 958.8582
269.0506, 958.6594
269.5327, 956.8728
270.0148, 953.3329
270.4969, 948.8806
270.9791, 942.6357
271.4612, 936.4740
271.9433, 934.5761
272.4254, 938.0546
272.9075, 941.7747
273.3896, 942.7049
273.8718, 940.0880
274.3539, 942.3458
274.8360, 951.5953
275.3181, 962.7985
275.8002, 966.5751
276.2823, 961.4860
276.7645, 956.2003
277.2466, 955.9637
277.7287, 961.4075
278.2108, 957.3187
278.6929, 940.1915
279.1750, 920.1306
279.6572, 914.4461
280.1393, 924.7816
280.6214, 935.0578
281.1035, 937.9576
281.5856, 933.8808
282.0677, 933.2025
282.5499, 937.0352
283.0320, 941.3761
283.5141, 940.2432
283.9962, 933.4738
284.4783, 925.8173
284.9604, 917.5797
285.4425, 909.3982
285.9247, 907.8304
286.4068, 914.2140
286.8889, 921.8630
287.3710, 920.1003
287.8531, 909.6688
288.3352, 904.3641
288.8174, 913.6638
289.2995, 932.5800
289.7816, 939.2726
290.2637, 932.4262
290.7458, 921.0602
291.2279, 913.6324
291.7101, 909.9360
292.1922, 908.7665
292.6743, 910.7816
293.1564, 914.7410
293.6385, 917.4368
294.1206, 918.7993
294.6028, 919.7328
295.0849, 922.2771
295.5670, 925.4735
296.0491, 925.5643
296.5312, 920.0607
297.0133, 911.5261
297.4955, 903.5813
297.9776, 896.4047
298.4597, 891.7882
298.9418, 893.0593
299.4239, 898.2294
299.9060, 902.4842
300.3882, 903.7866
300.8703, 903.9329
301.3524, 905.7737
301.8345, 909.0738
302.3166, 911.6207
302.7987, 911.1127
303.2809, 908.7949
303.7630, 906.7885
304.2451, 905.7289
304.7272, 905.0377
305.2093, 902.5429
305.6914, 899.0678
306.1736, 899.2699
306.6557, 912.5522
307.1378, 929.0602
307.6199, 935.3189
308.1020, 923.3723
308.5841, 909.3595
309.0663, 908.7172
309.5484, 917.5683
310.0305, 923.0211
310.5126, 912.6801
310.9947, 898.4592
311.4768, 892.1554
311.9590, 899.1790
312.4411, 906.8956
312.9232, 906.0685
313.4053, 899.9606
313.8874, 896.3607
314.3695, 903.1960
314.8517, 910.7513
315.3337, 911.8556
315.8159, 903.6422
316.2980, 894.8461
316.7801, 888.2015
317.2622, 883.5583
317.7443, 880.5714
318.2264, 880.6099
318.7086, 881.1468
319.1907, 881.8729
319.6728, 865.1600
320.1549, 890.2581
320.6370, 904.3336
321.1191, 907.9786
321.6013, 869.9532
322.0834, 885.7366
322.5655, 879.9559
323.0476, 873.2909
323.5297, 896.6477
324.0118, 864.6832
324.4940, 887.5639
324.9761, 891.0138
325.4582, 895.4804
325.9403, 885.6346
326.4224, 881.2924
326.9045, 890.4866
327.3867, 914.4845
327.8688, 927.5370
328.3509, 919.9368
328.8330, 906.8083
329.3151, 898.6223
329.7972, 899.0809
330.2794, 899.6896
330.7615, 900.0530
331.2436, 900.0829
331.7257, 898.7814
332.2078, 894.6060
332.6899, 890.7460
333.1721, 889.6168
333.6542, 894.4946
334.1363, 895.1252
334.6184, 888.6190
335.1005, 877.7393
335.5826, 871.8034
336.0648, 871.9687
336.5469, 874.9753
337.0290, 879.8690
337.5111, 887.7545
337.9932, 893.6225
338.4753, 897.8326
338.9575, 899.4620
339.4396, 894.6600
339.9217, 880.7191
340.4038, 870.7385
340.8859, 874.1526
341.3680, 892.0618
341.8502, 895.3568
342.3323, 879.5047
342.8144, 859.0640
343.2965, 857.3708
343.7786, 875.0974
344.2607, 891.4579
344.7429, 898.6184
345.2250, 897.8472
345.7071, 895.3398
346.1892, 890.8523
346.6713, 886.0199
347.1534, 881.9665
347.6355, 878.8047
348.1176, 877.0043
348.5998, 876.3058
349.0819, 877.2446
349.5640, 882.9918
350.0461, 893.4475
350.5282, 901.1662
351.0103, 897.0129
351.4925, 885.7603
351.9746, 877.8583
352.4567, 876.6136
352.9388, 878.9073
353.4209, 882.5038
353.9030, 886.9252
354.3852, 889.9160
354.8673, 889.3111
355.3494, 886.7758
355.8315, 884.2192
356.3136, 881.9339
356.7957, 879.9256
357.2779, 878.4371
357.7600, 877.2863
358.2421, 876.0405
358.7242, 875.1920
359.2063, 873.7047
359.6884, 870.0930
360.1706, 863.4678
360.6527, 858.5459
361.1348, 857.4082
361.6169, 859.3512
362.0990, 863.3774
362.5811, 870.5897
363.0633, 878.5289
363.5454, 889.1194
364.0275, 902.9490
364.5096, 907.1912
364.9917, 887.2590
365.4738, 861.8798
365.9560, 847.2291
366.4381, 857.3223
366.9202, 866.3032
367.4023, 869.7004
367.8844, 867.8389
368.3665, 865.1693
368.8487, 859.0250
369.3308, 854.2322
369.8129, 853.5289
370.2950, 861.8852
370.7771, 866.7242
371.2592, 865.9906
371.7414, 861.6487
372.2235, 859.2251
372.7056, 857.8763
373.1877, 859.7256
373.6698, 866.9683
374.1519, 882.6952
374.6341, 892.1595
375.1162, 894.1540
375.5983, 890.9589
376.0804, 885.2874
376.5625, 876.2586
377.0446, 868.2092
377.5267, 862.1877
378.0089, 858.2202
378.4910, 857.6729
378.9731, 860.6710
379.4552, 866.6613
379.9373, 879.0417
380.4194, 897.5266
380.9016, 904.0040
381.3837, 888.0704
381.8658, 860.9875
382.3479, 856.0019
382.8300, 873.0211
383.3121, 890.2681
383.7943, 886.9370
384.2764, 870.0912
384.7585, 860.5123
385.2406, 863.6025
385.7227, 871.4324
386.2048, 873.0693
386.6870, 870.1725
387.1691, 868.8807
387.6512, 876.7438
388.1333, 886.4353
388.6154, 887.7491
389.0975, 878.4218
389.5797, 868.2556
390.0618, 863.4893
390.5439, 863.1455
391.0260, 865.8322
391.5081, 876.7491
391.9902, 885.9244
392.4724, 885.2432
392.9545, 874.7085
393.4366, 866.5201
393.9187, 868.1014
394.4008, 873.4106
394.8829, 877.3192
395.3651, 880.7004
395.8472, 880.2350
396.3293, 872.4106
396.8114, 859.1982
397.2935, 849.0281
397.7756, 843.4059
398.2578, 841.0903
398.7399, 841.5861
399.2220, 846.2496
399.7041, 851.4115
400.1862, 858.4476
400.6683, 865.5906
401.1505, 869.5413
401.6326, 867.9636
402.1147, 866.4178
402.5968, 865.6281
403.0789, 865.1043
403.5610, 870.7558
404.0432, 887.0063
404.5253, 903.6620
405.0074, 909.3452
405.4895, 901.7287
405.9716, 891.9380
406.4537, 880.8254
406.9359, 869.4820
407.4180, 863.1953
407.9001, 862.4457
408.3822, 864.1582
408.8643, 867.2836
409.3464, 871.5099
409.8285, 873.3273
410.3106, 871.8428
410.7928, 868.8658
411.2749, 867.0163
411.7570, 866.1890
412.2391, 865.6651
412.7212, 864.0371
413.2033, 862.6866
413.6855, 865.1424
414.1676, 871.7903
414.6497, 878.4371
415.1318, 880.5447
415.6139, 880.0522
416.0960, 880.3610
416.5782, 883.6330
417.0603, 887.4296
417.5424, 890.0521
418.0245, 891.5323
418.5066, 892.1161
418.9887, 889.7337
419.4709, 887.7591
419.9530, 889.5190
420.4351, 899.6995
420.9172, 906.4891
421.3993, 904.3463
421.8814, 896.0491
422.3636, 887.3253
422.8457, 874.2702
423.3278, 865.6635
423.8099, 866.2607
424.2920, 879.3936
424.7741, 889.4252
425.2563, 895.8376
425.7384, 898.8196
426.2205, 897.9391
426.7026, 888.1381
427.1847, 882.6662
427.6668, 884.5944
428.1490, 892.9705
428.6311, 901.4532
429.1132, 912.3185
429.5953, 919.1737
430.0774, 915.9668
430.5595, 900.3749
431.0417, 890.6250
431.5238, 889.6306
432.0059, 892.4683
432.4880, 888.7850
432.9701, 878.2028
433.4522, 870.2720
433.9344, 869.4915
434.4165, 874.8454
434.8986, 883.9040
435.3807, 897.2639
435.8628, 908.0679
436.3449, 907.0131
436.8271, 897.8243
437.3092, 890.3849
437.7913, 887.0463
438.2734, 887.4511
438.7555, 893.0815
439.2376, 902.8445
439.7197, 911.8971
440.2018, 919.5316
440.6840, 923.8541
441.1661, 921.2471
441.6482, 908.3702
442.1303, 898.6420
442.6124, 902.5945
443.0945, 913.4078
443.5767, 920.6517
444.0588, 919.5067
444.5409, 915.7582
445.0230, 911.0604
445.5051, 905.4794
445.9872, 899.3867
446.4694, 888.8030
446.9515, 880.3234
447.4336, 878.6459
447.9157, 891.6543
448.3978, 900.3347
448.8799, 901.2250
449.3621, 897.6270
449.8442, 899.0085
450.3263, 907.8512
450.8084, 917.0433
451.2905, 925.2342
451.7726, 933.1475
452.2548, 930.5948
452.7369, 913.3820
453.2190, 894.1654
453.7011, 888.3511
454.1832, 896.3441
454.6653, 907.4200
455.1475, 922.2153
455.6296, 935.9831
456.1117, 932.2361
456.5938, 911.6676
457.0759, 894.3932
457.5580, 901.5231
458.0402, 921.7637
458.5223, 929.1874
459.0044, 918.1293
459.4865, 904.1229
459.9686, 901.4245
460.4507, 907.0369
460.9329, 914.6999
461.4150, 923.7314
461.8971, 931.9839
462.3792, 938.9612
462.8613, 944.4153
463.3434, 945.8672
463.8256, 936.7137
464.3077, 926.1664
464.7898, 921.6074
465.2719, 932.5112
465.7540, 938.7632
466.2361, 930.9708
466.7183, 915.6583
467.2004, 909.3015
467.6825, 923.2590
468.1646, 935.8663
468.6467, 940.5234
469.1288, 935.5894
469.6110, 931.7595
470.0930, 929.2617
470.5752, 927.5316
471.0573, 925.6608
471.5394, 922.9720
472.0215, 922.9764
472.5036, 927.1596
472.9857, 933.8547
473.4679, 938.3130
473.9500, 940.4799
474.4321, 940.6381
474.9142, 939.0154
475.3963, 935.5561
475.8784, 928.8525
476.3606, 918.1901
476.8427, 908.3376
477.3248, 904.5529
477.8069, 905.8242
478.2890, 909.8735
478.7711, 918.2245
479.2533, 926.9641
479.7354, 934.0507
480.2175, 938.8170
480.6996, 937.7715
481.1817, 918.0040
481.6638, 898.1720
482.1460, 895.1843
482.6281, 918.8049
483.1102, 940.1218
483.5923, 950.6940
484.0744, 952.6776
484.5565, 949.1417
485.0387, 930.9451
485.5208, 917.2689
486.0029, 914.5400
486.4850, 922.2859
486.9671, 927.7653
487.4492, 929.2007
487.9314, 930.3010
488.4135, 933.7451
488.8956, 941.4350
489.3777, 946.0499
489.8598, 947.9305
490.3419, 946.1238
490.8241, 935.6860
491.3062, 914.7082
491.7883, 901.6541
492.2704, 906.5444
492.7525, 924.3351
493.2346, 935.7000
493.7168, 940.3473
494.1989, 941.6122
494.6810, 941.0864
495.1631, 939.2779
495.6452, 937.1736
496.1273, 934.6716
496.6095, 932.6537
497.0916, 932.2659
497.5737, 933.0713
498.0558, 934.1315
498.5379, 934.9998
499.0201, 935.9907
499.5022, 938.8785
499.9843, 943.7251
500.4664, 943.7457
500.9485, 929.1280
501.4306, 913.1241
501.9127, 905.6484
502.3948, 916.1338
502.8770, 925.0839
503.3591, 931.5455
503.8412, 935.4825
504.3233, 936.2817
504.8054, 930.1337
505.2875, 926.8376
505.7697, 930.8926
506.2518, 942.7111
506.7339, 947.1559
507.2160, 942.1141
507.6981, 934.8006
508.1802, 931.4108
508.6624, 931.9272
509.1445, 933.2339
509.6266, 934.7217
510.1087, 937.1239
510.5908, 942.8633
511.0729, 951.2255
511.5551, 958.0864
512.0372, 961.8097
512.5193, 962.5950
513.0014, 959.1310
513.4835, 951.5765
513.9656, 945.5750
514.4478, 947.5215
514.9299, 951.9451
515.4120, 952.3128
515.8941, 941.5739
516.3762, 935.6884
516.8583, 946.4500
517.3405, 966.1599
517.8226, 979.3193
518.3047, 976.2590
518.7868, 972.3137
519.2689, 973.6438
519.7510, 981.2132
520.2332, 981.9331
520.7153, 970.2694
521.1974, 957.9426
521.6795, 953.8648
522.1616, 960.9706
522.6437, 966.0179
523.1259, 967.0740
523.6080, 966.7715
524.0901, 971.8770
524.5722, 982.9309
525.0543, 989.3530
525.5364, 983.6769
526.0186, 971.2418
526.5007, 968.6107
526.9828, 975.6229
527.4649, 983.5723
527.9470, 986.1436
528.4291, 984.8661
528.9113, 981.0679
529.3934, 973.1307
529.8755, 968.5847
530.3576, 978.7063
530.8397, 994.9751
531.3218, 1003.161
531.8040, 987.4941
532.2861, 972.4641
532.7682, 971.1201
533.2503, 982.4672
533.7324, 987.2887
534.2145, 973.9439
534.6967, 960.5864
535.1788, 956.8163
535.6609, 969.8690
536.1430, 975.4081
536.6251, 969.0363
537.1072, 959.2006
537.5894, 959.2807
538.0715, 971.9916
538.5536, 980.9442
539.0357, 981.4034
539.5178, 975.4923
539.9999, 967.1423
540.4821, 956.3875
540.9642, 951.9865
541.4463, 967.0087
541.9284, 991.5594
542.4105, 1001.853
542.8926, 995.0099
543.3748, 984.0457
543.8569, 978.6191
544.3390, 976.9664
544.8211, 976.4206
545.3032, 976.2487
545.7853, 976.8014
546.2675, 981.5104
546.7495, 987.5908
547.2316, 986.4636
547.7137, 962.2886
548.1959, 942.5665
548.6780, 940.2224
549.1601, 960.3699
549.6422, 975.2740
550.1243, 983.7579
550.6064, 988.1744
551.0886, 990.1743
551.5707, 989.5218
552.0528, 986.2986
552.5349, 978.0063
553.0170, 970.1215
553.4991, 978.4118
553.9813, 1003.235
554.4634, 1019.860
554.9455, 1012.456
555.4276, 990.6589
555.9097, 978.9637
556.3918, 976.9778
556.8740, 977.8403
557.3561, 976.5516
557.8382, 975.0730
558.3203, 976.6187
558.8024, 983.1088
559.2845, 988.1712
559.7667, 986.2256
560.2488, 981.1687
560.7309, 978.3932
561.2130, 980.7353
561.6951, 984.1232
562.1772, 988.8251
562.6594, 994.2366
563.1415, 996.1086
563.6236, 989.9786
564.1057, 985.7591
564.5878, 989.1429
565.0699, 1002.533
565.5521, 1007.112
566.0342, 1000.034
566.5163, 990.0909
566.9984, 988.6844
567.4805, 995.3193
567.9626, 993.5601
568.4448, 976.4845
568.9269, 956.5602
569.4090, 955.7767
569.8911, 970.3564
570.3732, 985.0991
570.8553, 992.3995
571.3375, 995.7222
571.8196, 997.6829
572.3017, 998.4893
572.7838, 999.1067
573.2659, 999.6077
573.7480, 1000.384
574.2302, 1001.332
574.7123, 1000.431
575.1944, 1003.853
575.6765, 1018.680
576.1586, 1036.038
576.6407, 1044.466
577.1229, 1041.420
577.6050, 1033.455
578.0871, 1018.240
578.5692, 999.2963
579.0513, 993.9894
579.5334, 1005.163
580.0156, 1016.179
580.4977, 1017.398
580.9798, 1010.476
581.4619, 1003.568
581.9440, 996.5524
582.4261, 992.3896
582.9083, 998.5640
583.3904, 1008.766
583.8725, 1010.051
584.3546, 994.8704
584.8367, 980.5710
585.3188, 982.9017
585.8010, 994.3710
586.2831, 1001.028
586.7652, 993.2596
587.2473, 984.4271
587.7294, 977.4485
588.2115, 972.7258
588.6937, 974.4400
589.1758, 989.3417
589.6579, 1003.285
590.1400, 1009.537
590.6221, 1006.431
591.1042, 1002.591
591.5864, 997.2169
592.0685, 992.7966
592.5506, 992.6600
593.0327, 996.6760
593.5148, 1001.345
593.9969, 1006.585
594.4791, 1011.049
594.9612, 1013.154
595.4433, 1012.821
595.9254, 1009.677
596.4075, 997.0106
596.8896, 985.9499
597.3718, 989.7721
597.8539, 1006.995
598.3360, 1021.801
598.8181, 1025.441
599.3002, 1025.318
599.7823, 1025.985
600.2645, 1028.032
600.7466, 1030.926
601.2287, 1038.804
601.7108, 1044.835
602.1929, 1040.980
602.6750, 1022.571
603.1572, 1005.731
603.6393, 990.8075
604.1214, 980.1274
604.6035, 981.9523
605.0856, 996.9163
605.5677, 1010.094
606.0499, 1013.175
606.5320, 1009.995
607.0141, 1009.461
607.4962, 1011.490
607.9783, 1015.104
608.4604, 1023.121
608.9425, 1030.559
609.4246, 1029.481
609.9067, 1015.320
610.3889, 1007.540
610.8710, 1025.571
611.3531, 1050.154
611.8352, 1060.235
612.3173, 1037.287
612.7994, 1018.049
613.2816, 1005.334
613.7637, 998.9102
614.2458, 998.7353
614.7279, 1006.924
615.2100, 1016.273
615.6921, 1026.025
616.1743, 1035.242
616.6564, 1035.197
617.1385, 1025.265
617.6206, 1014.898
618.1027, 1011.741
618.5848, 1013.249
619.0670, 1012.601
619.5491, 1008.668
620.0312, 1006.783
620.5133, 1016.884
620.9954, 1029.629
621.4775, 1032.525
621.9597, 1011.232
622.4418, 994.2094
622.9239, 994.1708
623.4060, 1004.699
623.8881, 1012.320
624.3702, 1016.042
624.8524, 1015.857
625.3345, 1008.528
625.8166, 995.7668
626.2987, 996.6772
626.7808, 1016.671
627.2629, 1033.155
627.7451, 1028.386
628.2272, 1005.561
628.7093, 995.1229
629.1914, 998.3770
629.6735, 1007.139
630.1556, 1018.152
630.6378, 1027.920
631.1199, 1027.349
631.6020, 1008.055
632.0841, 994.7925
632.5662, 1013.878
633.0483, 1048.127
633.5305, 1070.580
634.0126, 1063.904
634.4947, 1053.614
634.9768, 1044.174
635.4589, 1036.069
635.9410, 1031.371
636.4232, 1032.230
636.9053, 1032.914
637.3874, 1031.552
637.8695, 1028.128
638.3516, 1021.321
638.8337, 1010.007
639.3159, 1000.922
639.7980, 1002.197
640.2801, 1010.454
640.7622, 1013.367
641.2443, 1008.837
641.7264, 1003.361
642.2086, 1003.101
642.6907, 1005.896
643.1728, 1008.532
643.6549, 1009.643
644.1370, 1010.952
644.6191, 1014.472
645.1013, 1018.678
645.5834, 1020.084
646.0655, 1018.739
646.5476, 1013.511
647.0297, 1000.984
647.5118, 982.8721
647.9940, 976.6940
648.4761, 985.7548
648.9582, 996.5569
649.4403, 1001.446
649.9224, 1001.058
650.4045, 1002.106
650.8867, 1004.793
651.3688, 1006.637
651.8509, 1004.652
652.3330, 1000.471
652.8151, 996.7213
653.2972, 993.8683
653.7794, 991.8837
654.2615, 990.9368
654.7436, 990.8643
655.2257, 991.4413
655.7078, 994.6560
656.1899, 996.1656
656.6721, 992.4957
657.1542, 986.7547
657.6363, 987.2701
658.1184, 996.6962
658.6005, 1006.184
659.0826, 1013.202
659.5648, 1017.900
660.0469, 1021.211
660.5290, 1023.147
661.0111, 1023.315
661.4932, 1023.138
661.9753, 1020.600
662.4575, 1007.193
662.9396, 982.0555
663.4217, 965.3121
663.9038, 977.3256
664.3859, 1001.941
664.8680, 1024.455
665.3502, 1046.758
665.8323, 1056.652
666.3144, 1041.353
666.7965, 1015.986
667.2786, 999.6488
667.7607, 995.8106
668.2429, 994.5900
668.7250, 995.8279
669.2071, 998.1179
669.6892, 997.4783
670.1713, 993.6909
670.6534, 991.1459
671.1355, 992.4589
671.6176, 995.5910
672.0997, 996.8742
672.5818, 996.2639
673.0640, 993.4094
673.5461, 982.2582
674.0282, 972.8732
674.5103, 977.1065
674.9924, 996.6564
675.4745, 1009.291
675.9567, 996.7517
676.4388, 982.6445
676.9209, 984.9034
677.4030, 1016.876
677.8851, 1029.857
678.3672, 1014.642
678.8494, 992.4021
679.3315, 988.9208
679.8136, 1005.174
680.2957, 1017.540
680.7778, 1021.663
681.2599, 1020.880
681.7421, 1019.423
682.2242, 1016.984
682.7063, 1012.704
683.1884, 1004.212
683.6705, 995.6144
684.1526, 987.4035
684.6348, 981.2786
685.1169, 982.3457
685.5990, 1002.314
686.0811, 1020.110
686.5632, 1026.179
687.0453, 1021.153
687.5275, 1020.016
688.0096, 1027.600
688.4917, 1030.233
688.9738, 1016.035
689.4559, 985.1410
689.9380, 972.6959
690.4202, 980.6122
690.9023, 990.9616
691.3844, 983.1699
691.8665, 966.3126
692.3486, 959.1172
692.8307, 966.1419
