##NAMES=Strontianite
##RRUFFID=R050476
##IDEAL CHEMISTRY=SrCO_3_
##LOCALITY=Fidalgo Island, Puget Sound, Washington, USA
##OWNER=RRUFF
##SOURCE=California Institute of Technology
##DESCRIPTION=Aggregate of colorless spheres
##STATUS=The identification of this mineral has been confirmed by X-ray diffraction and chemical analysis
##URL=rruff.info/R050476
##MEASURED CHEMISTRY=(Sr_0.86_Ca_0.14_)CO_3_
91.00781, 26.57082
91.48993, 24.47995
91.97205, 23.64471
92.45416, 25.10258
92.93628, 27.76908
93.41840, 29.04959
93.90051, 28.04806
94.38263, 26.34804
94.86475, 26.75930
95.34686, 29.26283
95.82898, 32.03901
96.31110, 33.61481
96.79321, 34.09321
97.27533, 34.38774
97.75745, 34.37141
98.23956, 34.35304
98.72168, 35.94326
99.20380, 39.48277
99.68591, 43.51137
100.1680, 46.28698
100.6501, 47.46049
101.1323, 48.94732
101.6144, 51.11010
102.0965, 53.89787
102.5786, 58.17864
103.0607, 64.72894
103.5428, 72.12054
104.0250, 77.88136
104.5071, 80.53396
104.9892, 83.95839
105.4713, 89.69805
105.9534, 98.93957
106.4355, 107.8835
106.9177, 116.5849
107.3998, 124.9898
107.8819, 133.2267
108.3640, 141.0396
108.8461, 148.7946
109.3282, 156.7688
109.8104, 164.7690
110.2925, 173.0237
110.7746, 181.2985
111.2567, 189.6414
111.7388, 198.7990
112.2209, 209.7348
112.7031, 220.9288
113.1852, 231.4561
113.6673, 239.8288
114.1494, 248.6624
114.6315, 259.0154
115.1136, 271.0640
115.5958, 282.7093
116.0779, 293.0163
116.5600, 302.6664
117.0421, 312.3812
117.5242, 322.7680
118.0063, 333.1221
118.4885, 342.8745
118.9706, 351.7134
119.4527, 361.4026
119.9348, 373.3396
120.4169, 386.7373
120.8990, 400.3597
121.3812, 412.9208
121.8633, 425.6677
122.3454, 439.8773
122.8275, 456.3609
123.3096, 473.0027
123.7917, 486.5536
124.2739, 498.1932
124.7560, 512.2511
125.2381, 532.4786
125.7202, 556.9183
126.2023, 581.7302
126.6844, 605.5525
127.1666, 630.3672
127.6487, 659.3184
128.1308, 692.3988
128.6129, 726.9911
129.0950, 760.6106
129.5771, 794.1033
130.0593, 830.8729
130.5414, 872.8401
131.0235, 918.0262
131.5056, 960.0430
131.9877, 994.6079
132.4698, 1023.633
132.9520, 1053.553
133.4341, 1084.405
133.9162, 1117.140
134.3983, 1151.322
134.8804, 1187.052
135.3625, 1227.349
135.8447, 1273.218
136.3268, 1321.383
136.8089, 1367.804
137.2910, 1412.251
137.7731, 1457.697
138.2552, 1506.516
138.7374, 1559.106
139.2195, 1609.240
139.7016, 1655.620
140.1837, 1701.426
140.6658, 1752.862
141.1479, 1812.199
141.6301, 1872.705
142.1122, 1931.543
142.5943, 1987.875
143.0764, 2045.763
143.5585, 2107.028
144.0406, 2170.032
144.5228, 2231.798
145.0049, 2293.656
145.4870, 2352.080
145.9691, 2404.863
146.4512, 2455.910
146.9333, 2496.566
147.4155, 2529.246
147.8976, 2553.284
148.3797, 2558.380
148.8618, 2540.953
149.3439, 2507.587
149.8260, 2462.792
150.3082, 2405.609
150.7903, 2337.702
151.2724, 2255.483
151.7545, 2158.949
152.2366, 2061.558
152.7188, 1958.692
153.2009, 1857.314
153.6830, 1764.184
154.1651, 1683.274
154.6472, 1606.773
155.1293, 1533.083
155.6115, 1460.967
156.0936, 1397.691
156.5757, 1346.932
157.0578, 1304.506
157.5399, 1266.593
158.0220, 1232.526
158.5042, 1202.430
158.9863, 1176.130
159.4684, 1152.993
159.9505, 1135.935
160.4326, 1128.618
160.9147, 1127.609
161.3969, 1127.807
161.8790, 1126.069
162.3611, 1126.062
162.8432, 1129.820
163.3253, 1137.906
163.8074, 1148.647
164.2896, 1162.461
164.7717, 1178.360
165.2538, 1194.386
165.7359, 1208.540
166.2180, 1223.080
166.7001, 1239.404
167.1823, 1256.869
167.6644, 1277.674
168.1465, 1305.000
168.6286, 1337.085
169.1107, 1369.002
169.5928, 1398.332
170.0750, 1425.932
170.5571, 1452.882
171.0392, 1478.144
171.5213, 1504.348
172.0034, 1533.539
172.4855, 1565.639
172.9677, 1599.416
173.4498, 1635.861
173.9319, 1673.406
174.4140, 1709.695
174.8961, 1743.664
175.3782, 1776.718
175.8604, 1812.272
176.3425, 1850.042
176.8246, 1886.079
177.3067, 1916.855
177.7888, 1944.262
178.2709, 1971.772
178.7531, 2001.866
179.2352, 2031.844
179.7173, 2057.900
180.1994, 2080.217
180.6815, 2099.977
181.1636, 2119.898
181.6458, 2138.387
182.1279, 2150.031
182.6100, 2152.916
183.0921, 2148.104
183.5742, 2137.776
184.0563, 2122.165
184.5385, 2100.249
185.0206, 2071.408
185.5027, 2035.480
185.9848, 1993.137
186.4669, 1943.683
186.9490, 1888.013
187.4312, 1826.187
187.9133, 1759.029
188.3954, 1687.571
188.8775, 1612.751
189.3596, 1535.278
189.8417, 1458.122
190.3239, 1383.289
190.8060, 1309.938
191.2881, 1236.156
191.7702, 1161.819
192.2523, 1090.569
192.7344, 1026.840
193.2166, 970.9198
193.6987, 919.1392
194.1808, 868.9680
194.6629, 820.9371
195.1450, 779.1547
195.6271, 744.3160
196.1093, 713.8857
196.5914, 684.4013
197.0735, 655.7850
197.5556, 628.9380
198.0377, 604.2762
198.5198, 581.5815
199.0020, 561.0174
199.4841, 542.6631
199.9662, 526.2191
200.4483, 511.1549
200.9304, 497.6170
201.4125, 484.5402
201.8947, 471.4235
202.3768, 458.2230
202.8589, 445.5278
203.3410, 433.3371
203.8231, 421.6120
204.3052, 410.5872
204.7874, 400.3466
205.2695, 390.2115
205.7516, 379.7440
206.2337, 368.7928
206.7158, 358.4501
207.1979, 348.5282
207.6801, 339.3727
208.1622, 332.2485
208.6443, 327.8525
209.1264, 323.2013
209.6085, 316.3885
210.0906, 306.4128
210.5728, 298.9961
211.0549, 294.9553
211.5370, 293.0293
212.0191, 290.4795
212.5012, 287.0073
212.9833, 283.6048
213.4655, 280.7284
213.9476, 278.3746
214.4297, 276.6085
214.9118, 275.8604
215.3939, 275.4849
215.8760, 273.4290
216.3581, 268.3860
216.8403, 264.3865
217.3224, 263.9606
217.8045, 269.0035
218.2866, 271.6197
218.7687, 270.8176
219.2508, 267.7922
219.7330, 265.7657
220.2151, 265.0766
220.6972, 264.7476
221.1793, 264.2515
221.6614, 263.2522
222.1435, 263.0653
222.6257, 264.2446
223.1078, 266.0841
223.5899, 266.4796
224.0720, 264.4293
224.5541, 262.5449
225.0362, 262.0425
225.5184, 263.3937
226.0005, 264.9501
226.4826, 266.4812
226.9647, 268.2561
227.4468, 271.2007
227.9289, 275.9384
228.4111, 280.8708
228.8932, 285.1162
229.3753, 287.8034
229.8574, 291.9164
230.3395, 297.9734
230.8216, 305.3278
231.3038, 312.2385
231.7859, 317.9498
232.2680, 324.2602
232.7501, 332.0327
233.2322, 341.7931
233.7143, 351.8033
234.1965, 362.2034
234.6786, 372.8766
235.1607, 383.5313
235.6428, 393.6512
236.1249, 404.4915
236.6070, 416.8724
237.0892, 432.3082
237.5713, 445.8102
238.0534, 456.4526
238.5355, 465.3932
239.0176, 475.8108
239.4997, 489.6563
239.9819, 502.3734
240.4640, 511.6233
240.9461, 515.4634
241.4282, 520.6804
241.9103, 528.1870
242.3924, 536.7843
242.8746, 543.4741
243.3567, 547.1296
243.8388, 550.6028
244.3209, 555.1310
244.8030, 561.2800
245.2851, 566.8474
245.7673, 571.5753
246.2494, 575.8371
246.7315, 580.3907
247.2136, 585.1502
247.6957, 590.3604
248.1778, 596.5001
248.6600, 604.6113
249.1421, 610.3147
249.6242, 613.1224
250.1063, 613.8341
250.5884, 614.0692
251.0705, 614.3973
251.5527, 613.2472
252.0348, 609.8714
252.5169, 603.6614
252.9990, 597.3640
253.4811, 591.3185
253.9632, 584.8846
254.4454, 577.0002
254.9275, 567.2504
255.4096, 556.7129
255.8917, 545.2096
256.3738, 532.0582
256.8560, 521.5156
257.3381, 514.0944
257.8202, 508.7661
258.3023, 503.8474
258.7844, 499.2069
259.2665, 495.3869
259.7487, 492.7262
260.2308, 491.4376
260.7129, 489.9575
261.1950, 488.2880
261.6771, 486.4326
262.1592, 484.6417
262.6414, 483.5692
263.1235, 480.9542
263.6056, 476.2356
264.0877, 469.3458
264.5698, 460.4441
265.0519, 448.8197
265.5341, 436.2070
266.0162, 424.5251
266.4983, 414.1887
266.9804, 403.7848
267.4625, 392.9808
267.9446, 381.8652
268.4268, 369.7455
268.9089, 356.3533
269.3910, 342.8568
269.8731, 330.2560
270.3552, 318.6240
270.8373, 307.9607
271.3195, 298.3725
271.8016, 289.7907
272.2837, 281.0334
272.7658, 271.8222
273.2479, 262.8110
273.7300, 254.3474
274.2122, 246.4145
274.6943, 239.3218
275.1764, 233.2847
275.6585, 228.1818
276.1406, 223.4597
276.6227, 219.1950
277.1049, 215.0637
277.5870, 210.6241
278.0691, 205.7854
278.5512, 201.7167
279.0333, 198.6914
279.5154, 196.5169
279.9976, 194.7189
280.4797, 193.3856
280.9618, 191.9443
281.4439, 190.0443
281.9260, 187.6908
282.4081, 184.6078
282.8903, 180.4158
283.3724, 175.8492
283.8545, 172.7103
284.3366, 171.0727
284.8187, 170.0730
285.3008, 169.4393
285.7830, 169.1077
286.2651, 168.3943
286.7472, 167.2224
287.2293, 165.6691
287.7114, 163.5456
288.1935, 160.8609
288.6757, 158.7352
289.1578, 158.1412
289.6399, 158.7666
290.1220, 159.0547
290.6041, 158.8824
291.0862, 158.4802
291.5684, 158.3468
292.0505, 158.4037
292.5326, 157.9434
293.0147, 156.2134
293.4968, 153.6884
293.9789, 151.7538
294.4611, 150.5022
294.9432, 149.6090
295.4253, 148.9261
295.9074, 148.3591
296.3895, 147.5166
296.8716, 145.6212
297.3538, 143.4722
297.8359, 142.9809
298.3180, 144.2087
298.8001, 145.6339
299.2822, 145.7211
299.7643, 144.8761
300.2465, 144.1801
300.7286, 144.4190
301.2107, 144.7482
301.6928, 143.7254
302.1749, 141.4465
302.6570, 139.2384
303.1392, 138.2183
303.6213, 137.9866
304.1034, 137.9065
304.5855, 137.9102
305.0676, 137.8526
305.5497, 137.5221
306.0319, 136.9676
306.5140, 136.4273
306.9961, 135.9167
307.4782, 135.5644
307.9603, 135.6193
308.4424, 136.4592
308.9246, 137.1079
309.4067, 136.6173
309.8888, 135.2885
310.3709, 133.9677
310.8530, 132.8110
311.3351, 132.0376
311.8173, 131.9693
312.2994, 132.8992
312.7815, 133.7755
313.2636, 134.0022
313.7457, 133.7387
314.2278, 133.2642
314.7100, 132.1976
315.1921, 131.3244
315.6742, 131.2802
316.1563, 132.2814
316.6384, 133.1370
317.1205, 133.5038
317.6027, 133.3775
318.0848, 132.7455
318.5669, 130.7043
319.0490, 128.9582
319.5311, 128.2835
320.0132, 128.7481
320.4954, 129.3976
320.9775, 130.2560
321.4596, 131.0399
321.9417, 131.4937
322.4238, 131.4184
322.9059, 131.1609
323.3881, 130.7739
323.8702, 130.2638
324.3523, 129.6490
324.8344, 128.4785
325.3165, 127.5040
325.7986, 127.1575
326.2808, 128.2098
326.7629, 129.0251
327.2450, 129.4728
327.7271, 129.5997
328.2092, 129.5879
328.6913, 129.0218
329.1735, 128.6865
329.6556, 128.9539
330.1377, 130.4848
330.6198, 131.3558
331.1019, 131.3371
331.5840, 130.7238
332.0662, 130.0516
332.5483, 129.2588
333.0304, 128.4725
333.5125, 127.5923
333.9946, 126.3925
334.4767, 126.3311
334.9589, 128.0413
335.4410, 130.2680
335.9231, 131.4122
336.4052, 131.1765
336.8873, 130.5845
337.3694, 129.6978
337.8516, 128.5664
338.3336, 128.0935
338.8158, 128.4529
339.2979, 129.1076
339.7800, 129.6397
340.2621, 130.0544
340.7442, 130.2855
341.2263, 130.2865
341.7085, 130.1119
342.1906, 129.8921
342.6727, 129.6022
343.1548, 129.4115
343.6369, 129.4640
344.1190, 129.7456
344.6012, 130.0876
345.0833, 130.5322
345.5654, 130.9047
346.0475, 130.8256
346.5296, 130.3194
347.0117, 129.7692
347.4939, 129.4440
347.9760, 129.2448
348.4581, 128.7110
348.9402, 127.7295
349.4223, 126.9466
349.9044, 127.3838
350.3866, 128.6917
350.8687, 129.6762
351.3508, 129.7399
351.8329, 129.2448
352.3150, 128.6230
352.7971, 127.8801
353.2793, 127.2728
353.7614, 126.9406
354.2435, 126.8784
354.7256, 127.0986
355.2077, 127.7691
355.6898, 128.5124
356.1720, 129.1436
356.6541, 129.6137
357.1362, 129.7258
357.6183, 128.8925
358.1004, 127.9059
358.5826, 127.5739
359.0647, 128.3378
359.5468, 129.0142
360.0289, 128.9911
360.5110, 128.4317
360.9931, 127.6434
361.4753, 125.7138
361.9574, 124.4166
362.4395, 125.1314
362.9216, 128.4197
363.4037, 130.8381
363.8858, 130.7425
364.3680, 129.5072
364.8501, 128.5758
365.3322, 128.3377
365.8143, 128.3551
366.2964, 128.9816
366.7785, 130.1691
367.2607, 130.1061
367.7428, 126.3343
368.2249, 122.7855
368.7070, 121.8884
369.1891, 126.9476
369.6712, 130.2789
370.1534, 131.1281
370.6355, 130.0940
371.1176, 128.9775
371.5997, 127.4427
372.0818, 126.2531
372.5639, 125.7592
373.0461, 126.1923
373.5282, 126.5477
374.0103, 126.7478
374.4924, 126.9448
374.9745, 127.5014
375.4566, 128.7184
375.9388, 129.3369
376.4209, 128.7959
376.9030, 127.1826
377.3851, 125.9694
377.8672, 125.1040
378.3493, 124.7476
378.8315, 125.4340
379.3136, 127.2043
379.7957, 128.0581
380.2778, 127.3560
380.7599, 125.8014
381.2420, 124.9215
381.7242, 124.7293
382.2063, 125.1633
382.6884, 126.7220
383.1705, 128.9539
383.6526, 130.1489
384.1347, 130.0140
384.6169, 129.3509
385.0990, 129.2765
385.5811, 129.5409
386.0632, 129.3382
386.5453, 127.5757
387.0274, 125.4516
387.5096, 124.6292
387.9917, 125.1242
388.4738, 126.1680
388.9559, 127.8378
389.4380, 129.4918
389.9201, 130.2373
390.4023, 129.1578
390.8844, 127.8125
391.3665, 127.1926
391.8486, 127.1644
392.3307, 127.2595
392.8128, 127.2943
393.2950, 127.3445
393.7771, 127.4275
394.2592, 127.4665
394.7413, 127.7449
395.2234, 128.8051
395.7055, 130.0694
396.1877, 130.6454
396.6698, 129.6643
397.1519, 128.6069
397.6340, 127.9086
398.1161, 127.6215
398.5982, 127.3940
399.0804, 127.3680
399.5625, 127.2967
400.0446, 126.9944
400.5267, 126.2332
401.0088, 125.5652
401.4909, 124.9213
401.9731, 124.3974
402.4552, 124.4723
402.9373, 125.5552
403.4194, 126.5708
403.9015, 126.9237
404.3836, 126.3521
404.8658, 126.1273
405.3479, 126.2151
405.8300, 126.6953
406.3121, 128.1092
406.7942, 130.7554
407.2763, 132.1578
407.7585, 131.0016
408.2406, 127.8710
408.7227, 126.1335
409.2048, 125.8921
409.6869, 126.1923
410.1690, 126.3054
410.6512, 126.2611
411.1333, 126.2114
411.6154, 126.1931
412.0975, 126.1677
412.5796, 125.9904
413.0617, 125.7168
413.5439, 125.6159
414.0260, 125.9646
414.5081, 126.5327
414.9902, 127.0166
415.4723, 127.3988
415.9544, 127.6813
416.4366, 127.8699
416.9187, 127.9570
417.4008, 127.9307
417.8829, 127.4492
418.3650, 127.1426
418.8471, 127.7948
419.3293, 129.1490
419.8114, 129.7163
420.2935, 127.5821
420.7756, 125.2517
421.2577, 124.5786
421.7398, 126.8921
422.2220, 128.8220
422.7041, 129.5861
423.1862, 129.5226
423.6683, 129.2539
424.1504, 128.5486
424.6325, 127.9450
425.1147, 127.5979
425.5968, 127.5228
426.0789, 127.5438
426.5610, 127.9476
427.0431, 128.1886
427.5252, 127.6885
428.0074, 125.7802
428.4895, 124.7281
428.9716, 125.0365
429.4537, 126.2846
429.9358, 127.1470
430.4179, 127.5260
430.9001, 127.8547
431.3822, 128.4007
431.8643, 129.1706
432.3464, 129.7162
432.8285, 130.0495
433.3106, 130.1184
433.7928, 129.6461
434.2749, 128.7249
434.7570, 128.1685
435.2391, 128.4442
435.7212, 129.0670
436.2033, 128.9710
436.6855, 128.2304
437.1676, 127.5789
437.6497, 127.4854
438.1318, 127.8337
438.6139, 128.5963
439.0960, 129.9492
439.5782, 131.0482
440.0603, 131.0234
440.5424, 130.2635
441.0245, 129.5010
441.5066, 128.9715
441.9887, 128.5879
442.4709, 128.3249
442.9530, 128.1773
443.4351, 128.0779
443.9172, 127.6981
444.3993, 127.5362
444.8814, 127.9975
445.3636, 130.2673
445.8457, 131.6552
446.3278, 130.8989
446.8099, 128.9980
447.2920, 128.4522
447.7741, 131.1109
448.2563, 133.1135
448.7384, 133.0436
449.2205, 130.5307
449.7026, 128.9514
450.1847, 128.5907
450.6668, 128.8253
451.1490, 129.1691
451.6311, 129.6948
452.1132, 130.0658
452.5953, 130.2580
453.0774, 130.2516
453.5595, 129.8395
454.0417, 128.9464
454.5238, 128.3383
455.0059, 128.6458
455.4880, 129.6583
455.9701, 130.2952
456.4522, 130.5031
456.9344, 130.4512
457.4165, 130.0886
457.8986, 129.5896
458.3807, 129.4803
458.8628, 130.1445
459.3449, 131.0252
459.8271, 131.5065
460.3092, 131.6508
460.7913, 131.7390
461.2734, 132.1198
461.7555, 132.4052
462.2376, 132.2711
462.7198, 131.6540
463.2019, 130.7061
463.6840, 128.8844
464.1661, 126.9789
464.6482, 125.9455
465.1303, 126.7724
465.6125, 127.7234
466.0946, 128.3415
466.5767, 128.6625
467.0588, 129.0653
467.5409, 129.8612
468.0230, 130.4951
468.5052, 130.6990
468.9873, 130.2794
469.4694, 129.8940
469.9515, 129.4697
470.4336, 129.1449
470.9157, 129.1671
471.3979, 129.6618
471.8800, 130.0832
472.3621, 130.3038
472.8442, 130.3416
473.3263, 130.1960
473.8084, 129.8213
474.2906, 129.6147
474.7727, 130.1638
475.2548, 131.2161
475.7369, 131.4859
476.2190, 130.7537
476.7011, 129.5785
477.1833, 128.2994
477.6654, 127.0811
478.1475, 126.3812
478.6296, 126.7810
479.1117, 127.5193
479.5938, 127.5972
480.0760, 127.1750
480.5581, 127.3107
481.0402, 129.5304
481.5223, 132.0107
482.0044, 133.2676
482.4865, 132.8172
482.9687, 131.7010
483.4508, 129.2337
483.9329, 126.5728
484.4150, 125.3944
484.8971, 127.7027
485.3792, 129.7007
485.8614, 130.4281
486.3435, 129.9721
486.8256, 129.5131
487.3077, 128.8697
487.7898, 128.4414
488.2719, 128.5714
488.7541, 129.6567
489.2362, 129.8633
489.7183, 128.6796
490.2004, 127.2810
490.6825, 127.8008
491.1646, 130.5069
491.6468, 132.3545
492.1289, 132.0687
492.6110, 130.5023
493.0931, 130.4834
493.5752, 131.9845
494.0573, 132.9810
494.5395, 131.1215
495.0216, 127.8640
495.5037, 126.4190
495.9858, 127.4174
496.4679, 128.9142
496.9500, 129.2945
497.4322, 128.9529
497.9143, 128.5351
498.3964, 128.1449
498.8785, 127.8872
499.3606, 127.8646
499.8427, 128.0445
500.3249, 128.2740
500.8070, 128.3463
501.2891, 128.5753
501.7712, 129.1626
502.2533, 130.2687
502.7354, 131.3301
503.2176, 132.7899
503.6997, 133.9238
504.1818, 133.9066
504.6639, 131.9493
505.1460, 130.3001
505.6281, 129.3259
506.1103, 128.8821
506.5924, 128.4320
507.0745, 127.9223
507.5566, 127.5875
508.0387, 127.5565
508.5208, 127.8216
509.0030, 128.3371
509.4851, 129.1636
509.9672, 129.8975
510.4493, 130.0750
510.9314, 129.7987
511.4135, 129.3204
511.8957, 128.4419
512.3778, 127.8571
512.8599, 128.9061
513.3420, 131.0099
513.8242, 132.4652
514.3063, 131.7275
514.7884, 130.4843
515.2705, 130.2018
515.7526, 130.9863
516.2347, 131.3826
516.7169, 130.0022
517.1990, 128.4799
517.6811, 128.0944
518.1632, 130.5611
518.6453, 132.1155
519.1274, 131.7383
519.6096, 130.3277
520.0917, 129.5373
520.5738, 129.8263
521.0559, 129.9680
521.5380, 129.5734
522.0201, 128.6874
522.5023, 128.0827
522.9844, 127.7665
523.4665, 127.7144
523.9486, 127.9664
524.4307, 128.5105
524.9128, 129.1550
525.3950, 129.9489
525.8771, 130.5925
526.3592, 130.4573
526.8413, 129.7756
527.3234, 129.4381
527.8055, 130.2943
528.2877, 131.1493
528.7698, 129.9902
529.2519, 127.3937
529.7340, 125.7701
530.2161, 127.6324
530.6982, 130.2090
531.1804, 131.4202
531.6625, 130.8269
532.1446, 129.8940
532.6267, 128.6658
533.1088, 127.5326
533.5909, 126.8728
534.0731, 126.8607
534.5552, 127.1838
535.0373, 128.1265
535.5194, 129.3384
536.0015, 129.8605
536.4836, 129.1103
536.9658, 128.8802
537.4479, 130.1088
537.9300, 132.6793
538.4121, 133.8635
538.8942, 133.3919
539.3763, 132.6221
539.8585, 133.0834
540.3406, 134.4048
540.8227, 134.1942
541.3048, 131.8240
541.7869, 129.0462
542.2690, 128.0612
542.7512, 128.3820
543.2333, 128.7893
543.7154, 128.7541
544.1975, 128.6196
544.6796, 128.7961
545.1617, 129.1658
545.6439, 129.2001
546.1260, 127.8852
546.6081, 126.7547
547.0902, 126.9181
547.5723, 128.9226
548.0544, 130.3899
548.5366, 130.7897
549.0187, 130.6290
549.5008, 130.3214
549.9829, 129.5737
550.4650, 129.2319
550.9471, 129.4975
551.4293, 130.1391
551.9114, 130.6716
552.3935, 131.1187
552.8756, 131.3399
553.3577, 131.2295
553.8398, 130.8506
554.3220, 130.3915
554.8041, 129.8407
555.2862, 129.5269
555.7683, 129.9546
556.2504, 130.7526
556.7325, 131.1511
557.2147, 131.0052
557.6968, 130.6977
558.1789, 130.3585
558.6610, 130.1102
559.1431, 130.1362
559.6252, 131.1273
560.1074, 131.7620
560.5895, 131.0956
561.0716, 129.5753
561.5537, 128.7106
562.0358, 129.2164
562.5179, 130.0232
563.0001, 130.9348
563.4822, 132.0251
563.9643, 132.3553
564.4464, 131.6346
564.9285, 130.5626
565.4106, 129.4801
565.8928, 128.2661
566.3749, 127.9574
566.8570, 128.8425
567.3391, 130.1891
567.8212, 130.9689
568.3033, 131.2232
568.7855, 131.1801
569.2676, 130.7774
569.7497, 130.2644
570.2318, 129.9451
570.7139, 129.8245
571.1960, 129.8992
571.6782, 130.1185
572.1603, 130.5671
572.6424, 131.5581
573.1245, 133.1917
573.6066, 134.1912
574.0887, 133.5838
574.5709, 132.4458
575.0530, 131.6087
575.5351, 131.1213
576.0172, 131.0376
576.4993, 131.6880
576.9814, 132.5810
577.4636, 132.8618
577.9457, 132.2558
578.4278, 131.7800
578.9099, 131.7472
579.3920, 132.0065
579.8741, 131.8345
580.3563, 131.1746
580.8384, 130.8722
581.3205, 131.9914
581.8026, 133.8355
582.2847, 134.0877
582.7668, 132.6561
583.2490, 131.1500
583.7311, 131.0675
584.2132, 131.6607
584.6953, 131.8751
585.1774, 131.1393
585.6595, 130.7804
586.1416, 132.1567
586.6237, 134.1815
587.1058, 135.2315
587.5880, 133.7646
