##NAMES=Strontianite
##RRUFFID=R050564
##IDEAL CHEMISTRY=SrCO_3_
##LOCALITY=Winfield Quarry, Lancaster County, Pennsylvania, USA
##OWNER=RRUFF
##SOURCE=Dave Bunk Minerals
##DESCRIPTION=Colorless prismatic crystals
##STATUS=The identification of this mineral has been confirmed by X-ray diffraction and chemical analysis
##URL=rruff.info/R050564
##MEASURED CHEMISTRY=(Sr_0.85_Ca_0.15_)CO_3_
125.3456, 527.8387
125.8277, 563.0536
126.3098, 601.4915
126.7919, 643.5086
127.2740, 688.7287
127.7561, 736.5706
128.2383, 789.8652
128.7204, 852.3520
129.2025, 923.5034
129.6846, 1000.546
130.1667, 1083.528
130.6488, 1170.535
131.1310, 1260.804
131.6131, 1354.234
132.0952, 1450.737
132.5773, 1550.120
133.0594, 1652.829
133.5415, 1758.182
134.0237, 1868.031
134.5058, 1982.535
134.9879, 2095.597
135.4700, 2206.903
135.9521, 2316.531
136.4343, 2428.112
136.9164, 2542.243
137.3985, 2657.416
137.8806, 2773.862
138.3627, 2892.691
138.8448, 3010.860
139.3270, 3128.045
139.8091, 3245.485
140.2912, 3368.132
140.7733, 3495.382
141.2554, 3630.870
141.7375, 3775.190
142.2197, 3927.051
142.7018, 4095.140
143.1839, 4280.558
143.6660, 4482.083
144.1481, 4707.030
144.6302, 4959.026
145.1124, 5229.852
145.5945, 5507.479
146.0766, 5812.124
146.5587, 6098.279
147.0408, 6363.767
147.5230, 6623.018
148.0051, 6803.292
148.4872, 6878.075
148.9693, 6832.268
149.4514, 6699.924
149.9335, 6463.460
150.4157, 6165.172
150.8978, 5816.321
151.3799, 5378.459
151.8620, 4962.000
152.3441, 4560.583
152.8262, 4177.638
153.3084, 3829.113
153.7905, 3513.845
154.2726, 3232.936
154.7547, 2982.683
155.2368, 2770.063
155.7189, 2581.738
156.2011, 2417.934
156.6832, 2275.612
157.1653, 2152.573
157.6474, 2053.461
158.1295, 1968.838
158.6116, 1894.009
159.0938, 1828.782
159.5759, 1771.841
160.0580, 1723.050
160.5401, 1682.095
161.0222, 1648.247
161.5044, 1623.905
161.9865, 1604.840
162.4686, 1588.191
162.9507, 1572.973
163.4328, 1560.269
163.9149, 1550.325
164.3971, 1543.009
164.8792, 1538.310
165.3613, 1536.212
165.8434, 1536.663
166.3255, 1539.623
166.8076, 1544.591
167.2898, 1552.412
167.7719, 1563.193
168.2540, 1577.013
168.7361, 1594.769
169.2182, 1617.844
169.7003, 1644.871
170.1825, 1674.221
170.6646, 1705.345
171.1467, 1738.469
171.6288, 1774.225
172.1109, 1812.286
172.5931, 1852.685
173.0752, 1894.668
173.5573, 1938.965
174.0394, 1986.993
174.5215, 2039.666
175.0036, 2095.842
175.4858, 2153.137
175.9679, 2211.966
176.4500, 2273.056
176.9321, 2338.980
177.4142, 2408.567
177.8963, 2477.921
178.3785, 2547.294
178.8606, 2616.027
179.3427, 2682.361
179.8248, 2747.286
180.3069, 2806.905
180.7890, 2858.890
181.2712, 2902.503
181.7533, 2934.382
182.2354, 2956.225
182.7175, 2964.811
183.1996, 2953.364
183.6818, 2921.684
184.1639, 2869.448
184.6460, 2790.629
185.1281, 2688.425
185.6102, 2575.028
186.0923, 2453.116
186.5745, 2324.502
187.0566, 2198.804
187.5387, 2074.593
188.0208, 1954.434
188.5029, 1835.911
188.9850, 1719.903
189.4672, 1611.215
189.9493, 1510.347
190.4314, 1418.278
190.9135, 1335.480
191.3956, 1262.560
191.8777, 1198.592
192.3599, 1140.470
192.8420, 1088.444
193.3241, 1041.818
193.8062, 1000.667
194.2883, 964.5318
194.7704, 932.9066
195.2526, 906.0652
195.7347, 883.0305
196.2168, 862.3444
196.6989, 844.0204
197.1810, 827.6071
197.6632, 813.0216
198.1453, 800.1290
198.6274, 788.9630
199.1095, 780.0451
199.5916, 772.0820
200.0737, 762.5521
200.5559, 751.2755
201.0380, 739.4091
201.5201, 727.5839
202.0022, 715.7249
202.4843, 703.4995
202.9664, 690.4945
203.4486, 677.5399
203.9307, 666.6811
204.4128, 658.3541
204.8949, 650.7784
205.3770, 642.8171
205.8591, 634.2226
206.3413, 627.0737
206.8234, 621.7419
207.3055, 617.6959
207.7876, 613.5815
208.2697, 609.3104
208.7519, 605.2767
209.2340, 601.5500
209.7161, 598.0170
210.1982, 595.3267
210.6803, 593.5777
211.1624, 592.6490
211.6446, 592.2348
212.1267, 592.3553
212.6088, 592.9667
213.0909, 594.0358
213.5730, 595.5370
214.0551, 597.6569
214.5373, 600.5190
215.0194, 603.9677
215.5015, 607.5896
215.9836, 611.2831
216.4657, 615.4175
216.9478, 620.6656
217.4300, 628.0449
217.9121, 633.1887
218.3942, 635.4197
218.8763, 635.4310
219.3584, 635.3389
219.8405, 635.7733
220.3227, 634.8903
220.8048, 631.5604
221.2869, 624.9211
221.7690, 618.1407
222.2511, 611.1089
222.7333, 604.0764
223.2154, 597.9122
223.6975, 592.3489
224.1796, 588.0168
224.6617, 585.3146
225.1438, 584.6741
225.6260, 584.5240
226.1081, 584.6243
226.5902, 585.2722
227.0723, 587.3937
227.5544, 591.6638
228.0365, 596.4014
228.5187, 600.7549
229.0008, 604.2011
229.4829, 608.5185
229.9650, 613.8867
230.4471, 620.1086
230.9292, 626.6699
231.4114, 633.4191
231.8935, 640.8495
232.3756, 649.0434
232.8577, 658.0741
233.3398, 668.0101
233.8220, 679.1110
234.3041, 691.0441
234.7862, 702.6671
235.2683, 713.5244
235.7504, 724.7307
236.2325, 737.2242
236.7147, 752.1193
237.1968, 764.9509
237.6789, 775.4373
238.1610, 784.0225
238.6431, 791.6426
239.1252, 798.6048
239.6074, 804.3119
240.0895, 808.4236
240.5716, 810.3962
241.0537, 812.2686
241.5358, 814.1139
242.0179, 815.8217
242.5001, 817.1420
242.9822, 817.8638
243.4643, 818.5045
243.9464, 819.3080
244.4285, 820.4960
244.9106, 821.1621
245.3928, 821.9964
245.8749, 821.8700
246.3570, 818.7823
246.8391, 812.1458
247.3212, 803.4962
247.8034, 792.9988
248.2855, 780.0906
248.7676, 767.5533
249.2497, 755.4147
249.7318, 743.5566
250.2139, 731.7883
250.6961, 720.0046
251.1782, 708.4777
251.6603, 696.9591
252.1424, 685.1143
252.6245, 675.2142
253.1066, 667.7012
253.5888, 661.6619
254.0709, 655.7638
254.5530, 649.6834
255.0351, 644.3849
255.5172, 640.2385
255.9993, 637.2899
256.4815, 634.6974
256.9636, 632.4102
257.4457, 630.5570
257.9278, 629.3023
258.4099, 628.7733
258.8921, 628.5788
259.3742, 628.8747
259.8563, 629.6819
260.3384, 629.4293
260.8205, 627.7646
261.3026, 625.5167
261.7848, 623.5709
262.2669, 622.2969
262.7490, 620.3341
263.2311, 617.3342
263.7132, 613.3421
264.1953, 609.1777
264.6775, 604.8087
265.1596, 600.3607
265.6417, 596.0446
266.1238, 592.0838
266.6059, 587.4451
267.0880, 581.6383
267.5702, 574.9252
268.0523, 569.6212
268.5344, 566.1377
269.0165, 563.0872
269.4986, 559.1990
269.9807, 554.0538
270.4629, 549.8475
270.9450, 547.1625
271.4271, 545.5388
271.9092, 543.1439
272.3913, 539.7063
272.8734, 536.2626
273.3556, 533.4243
273.8377, 531.1920
274.3198, 529.6501
274.8019, 529.0682
275.2840, 528.9717
275.7661, 527.8499
276.2483, 525.4160
276.7304, 523.1570
277.2125, 522.1817
277.6946, 522.6023
278.1768, 522.5673
278.6589, 521.9167
279.1410, 520.8345
279.6231, 519.5708
280.1052, 518.0597
280.5873, 516.7585
281.0695, 515.9835
281.5516, 515.7252
282.0337, 515.4373
282.5158, 515.0930
282.9979, 514.7471
283.4800, 514.6212
283.9622, 514.7390
284.4443, 514.4813
284.9264, 513.4109
285.4085, 511.6308
285.8906, 509.8245
286.3727, 507.8403
286.8549, 506.3488
287.3370, 506.7133
287.8191, 508.8191
288.3012, 510.3077
288.7833, 509.8800
289.2654, 508.1675
289.7476, 507.6695
290.2297, 508.5287
290.7118, 509.5199
291.1939, 509.1989
291.6760, 507.7821
292.1581, 506.5387
292.6403, 505.8888
293.1224, 505.6529
293.6045, 505.5465
294.0866, 505.5768
294.5687, 505.3564
295.0508, 504.1411
295.5330, 502.3117
296.0151, 501.2770
296.4972, 501.6363
296.9793, 502.6101
297.4614, 502.9171
297.9435, 502.6121
298.4257, 502.0953
298.9078, 501.5058
299.3899, 500.9250
299.8720, 500.5642
300.3541, 500.5004
300.8362, 500.5686
301.3184, 500.6095
301.8005, 500.6202
302.2826, 500.5854
302.7647, 500.2657
303.2469, 499.9663
303.7290, 500.2298
304.2111, 501.2310
304.6932, 502.3349
305.1753, 502.9792
305.6574, 503.2415
306.1396, 503.2811
306.6217, 502.9260
307.1038, 502.5161
307.5859, 502.4413
308.0680, 502.7483
308.5501, 503.1441
309.0323, 503.4691
309.5144, 503.7274
309.9965, 503.9247
310.4786, 503.9978
310.9607, 504.0629
311.4428, 504.2280
311.9250, 504.4919
312.4071, 504.7422
312.8892, 504.4977
313.3713, 504.3588
313.8534, 504.9731
314.3355, 508.0332
314.8177, 510.5440
315.2998, 510.4298
315.7819, 508.1751
316.2640, 506.3578
316.7461, 506.4755
317.2282, 507.2917
317.7104, 507.8713
318.1925, 507.8864
318.6746, 507.8142
319.1567, 507.8969
319.6388, 508.0219
320.1209, 507.8893
320.6031, 506.5870
321.0852, 505.6132
321.5673, 505.8856
322.0494, 508.2318
322.5315, 510.1725
323.0136, 511.2635
323.4958, 511.6317
323.9779, 511.4811
324.4600, 510.2299
324.9421, 509.0335
325.4242, 508.2191
325.9064, 507.7816
326.3885, 507.8226
326.8706, 508.6669
327.3527, 509.8705
327.8348, 510.9731
328.3170, 512.4946
328.7991, 513.3276
329.2812, 512.8792
329.7633, 511.0867
330.2454, 510.2825
330.7275, 511.1547
331.2097, 512.4459
331.6918, 513.2986
332.1739, 513.6596
332.6560, 513.5968
333.1381, 512.7816
333.6202, 511.4754
334.1024, 511.0496
334.5845, 511.9290
335.0666, 513.0496
335.5487, 513.8811
336.0308, 514.3562
336.5129, 514.7310
336.9951, 515.0238
337.4772, 515.2309
337.9593, 515.3710
338.4414, 515.4987
338.9235, 515.4462
339.4056, 514.9992
339.8878, 514.0975
340.3699, 513.9495
340.8520, 514.8439
341.3341, 515.9581
341.8162, 516.0953
342.2983, 515.1407
342.7805, 514.3774
343.2626, 514.1531
343.7447, 514.4285
344.2268, 514.9599
344.7089, 515.6928
345.1910, 516.9716
345.6732, 519.7028
346.1553, 523.6177
346.6374, 526.2540
347.1195, 527.0383
347.6016, 526.3940
348.0837, 524.8163
348.5659, 522.3528
349.0480, 519.9585
349.5301, 517.9679
350.0122, 516.5577
350.4944, 516.5204
350.9765, 518.2571
351.4586, 520.3665
351.9407, 521.0998
352.4228, 520.7442
352.9049, 520.2360
353.3871, 519.8506
353.8692, 519.6762
354.3513, 519.9618
354.8334, 520.7403
355.3155, 521.4343
355.7976, 521.5071
356.2798, 521.1932
356.7619, 520.8720
357.2440, 520.2210
357.7261, 519.9697
358.2082, 521.1986
358.6903, 523.6183
359.1725, 525.2656
359.6546, 524.1092
360.1367, 522.1763
360.6188, 521.3522
361.1009, 522.9922
361.5830, 524.3950
362.0652, 523.9348
362.5473, 522.3400
363.0294, 521.4031
363.5115, 522.7394
363.9936, 524.1168
364.4757, 524.2737
364.9579, 522.6272
365.4400, 521.2571
365.9221, 520.5507
366.4042, 520.3635
366.8863, 520.5108
367.3684, 521.4308
367.8506, 522.2288
368.3327, 522.6918
368.8148, 522.7943
369.2969, 522.8063
369.7790, 522.4852
370.2611, 522.2501
370.7433, 522.4254
371.2254, 523.5386
371.7075, 524.2064
372.1896, 524.1263
372.6717, 523.4939
373.1538, 523.1312
373.6360, 523.0980
374.1181, 523.2208
374.6002, 523.4296
375.0823, 523.7394
375.5645, 524.0690
376.0466, 524.4073
376.5287, 524.7712
377.0108, 525.3044
377.4929, 526.1267
377.9750, 526.4793
378.4572, 525.7773
378.9393, 524.2301
379.4214, 524.0303
379.9035, 525.4146
380.3856, 527.1780
380.8677, 528.0670
381.3499, 528.1502
381.8320, 528.3570
382.3141, 528.9833
382.7962, 529.7312
383.2783, 529.9169
383.7604, 529.5627
384.2426, 529.1498
384.7247, 528.8083
385.2068, 528.6519
385.6889, 529.0302
386.1710, 530.0685
386.6531, 531.2503
387.1353, 532.2900
387.6174, 533.0676
388.0995, 533.2889
388.5816, 532.1694
389.0637, 530.8177
389.5458, 530.3942
390.0280, 530.9083
390.5101, 531.7348
390.9922, 533.0336
391.4743, 534.2009
391.9564, 534.5379
392.4385, 533.2634
392.9207, 531.8073
393.4028, 530.5466
393.8849, 529.6312
394.3670, 529.5316
394.8491, 531.2912
395.3312, 533.2846
395.8134, 534.5510
396.2955, 534.6845
396.7776, 534.8757
397.2597, 535.6921
397.7418, 536.6135
398.2239, 536.9623
398.7061, 536.1456
399.1882, 535.2631
399.6703, 534.4437
400.1524, 533.6762
400.6346, 533.3304
401.1167, 533.3442
401.5988, 533.8365
402.0809, 535.0074
402.5630, 537.6824
403.0451, 539.3911
403.5273, 539.7198
404.0094, 539.0343
404.4915, 538.3115
404.9736, 537.5008
405.4557, 536.7518
405.9378, 536.1915
406.4200, 535.8601
406.9021, 534.9993
407.3842, 533.2612
407.8663, 531.8256
408.3484, 532.8214
408.8305, 536.3228
409.3127, 538.5016
409.7948, 537.6547
410.2769, 535.1548
410.7590, 535.1217
411.2411, 537.5789
411.7232, 540.0434
412.2054, 540.3293
412.6875, 539.1671
413.1696, 538.6848
413.6517, 539.3600
414.1338, 540.1700
414.6159, 539.6941
415.0981, 538.3470
415.5802, 537.2677
416.0623, 537.1887
416.5444, 537.5565
417.0265, 537.8862
417.5086, 538.1525
417.9908, 538.3320
418.4729, 538.3272
418.9550, 538.2513
419.4371, 538.2162
419.9192, 538.1096
420.4013, 538.2247
420.8835, 538.8694
421.3656, 539.8638
421.8477, 540.6761
422.3298, 541.1902
422.8119, 541.4537
423.2940, 541.5240
423.7762, 541.4810
424.2583, 541.0255
424.7404, 539.1898
425.2225, 537.3203
425.7047, 536.9270
426.1868, 539.2904
426.6689, 541.4608
427.1510, 543.0443
427.6331, 544.0555
428.1152, 544.7341
428.5974, 545.0480
429.0795, 545.0848
429.5616, 544.8067
430.0437, 544.0632
430.5258, 543.6184
431.0079, 543.4872
431.4901, 543.6854
431.9722, 544.3655
432.4543, 545.5770
432.9364, 546.7313
433.4185, 547.8474
433.9006, 548.7238
434.3828, 548.0518
434.8649, 545.7114
435.3470, 543.3139
435.8291, 542.0591
436.3112, 541.9152
436.7933, 543.0692
437.2755, 546.1611
437.7576, 549.2867
438.2397, 549.5760
438.7218, 547.7250
439.2039, 546.0443
439.6860, 545.8256
440.1682, 546.3957
440.6503, 547.1929
441.1324, 548.1877
441.6145, 549.1037
442.0966, 549.9402
442.5787, 550.5279
443.0609, 550.6813
443.5430, 550.0021
444.0251, 549.2173
444.5072, 548.3027
444.9893, 547.4151
445.4714, 547.1135
445.9536, 548.5858
446.4357, 549.7853
446.9178, 549.6054
447.3999, 547.0689
447.8820, 545.7042
448.3641, 546.3905
448.8463, 547.8327
449.3284, 548.6330
449.8105, 548.3453
450.2926, 548.2669
450.7747, 548.7718
451.2569, 549.7020
451.7390, 549.8782
452.2211, 548.8292
452.7032, 548.1973
453.1853, 549.4013
453.6674, 552.6260
454.1496, 554.2154
454.6317, 553.7462
455.1138, 552.3355
455.5959, 551.4482
456.0780, 551.0507
456.5602, 550.9167
457.0423, 551.1447
457.5244, 551.4777
458.0065, 551.2773
458.4886, 550.6041
458.9707, 550.0381
459.4529, 550.1537
459.9350, 550.6246
460.4171, 550.8848
460.8992, 550.7468
461.3813, 550.8095
461.8634, 552.0677
462.3456, 553.7728
462.8277, 554.6317
463.3098, 552.9642
463.7919, 551.3416
464.2740, 551.3196
464.7561, 552.8058
465.2383, 554.0067
465.7204, 553.9326
466.2025, 553.6982
466.6846, 554.0717
467.1667, 556.3340
467.6488, 557.2376
468.1310, 555.4716
468.6131, 552.5602
469.0952, 550.8790
469.5773, 550.7410
470.0594, 551.3777
470.5415, 552.9970
471.0237, 555.5214
471.5058, 556.7182
471.9879, 556.1233
472.4700, 555.2487
472.9521, 555.4026
473.4342, 556.6708
473.9164, 557.1807
474.3985, 556.5556
474.8806, 555.5554
475.3627, 555.7314
475.8448, 556.9285
476.3270, 557.5043
476.8091, 556.0024
477.2912, 553.7127
477.7733, 553.4904
478.2554, 555.2109
478.7375, 556.9943
479.2197, 557.1064
479.7018, 556.5187
480.1839, 556.6556
480.6660, 558.0625
481.1481, 559.4694
481.6302, 560.2081
482.1124, 560.3605
482.5945, 560.0646
483.0766, 558.7021
483.5587, 557.5120
484.0408, 557.1273
484.5229, 557.5433
485.0051, 557.9691
485.4872, 558.3080
485.9693, 558.5829
486.4514, 558.8187
486.9335, 559.2086
487.4156, 559.2258
487.8978, 558.6721
488.3799, 557.8585
488.8620, 557.1791
489.3441, 556.4586
489.8262, 556.3852
490.3083, 557.4778
490.7905, 559.4583
491.2726, 559.9469
491.7547, 558.6298
492.2368, 557.3885
492.7189, 557.8788
493.2010, 559.8282
493.6832, 561.3574
494.1653, 562.2973
494.6474, 562.8174
495.1295, 563.0625
495.6116, 563.0567
496.0938, 562.8832
496.5759, 562.3727
497.0580, 561.8660
497.5401, 561.8804
498.0222, 562.2989
498.5044, 562.5283
498.9865, 561.4521
499.4686, 560.5447
499.9507, 561.3294
500.4328, 564.6681
500.9149, 567.1866
501.3971, 567.1601
501.8792, 565.9512
502.3613, 565.1437
502.8434, 565.1175
503.3255, 565.3644
503.8076, 565.9723
504.2898, 566.8255
504.7719, 567.3776
505.2540, 567.3430
505.7361, 567.4187
506.2182, 568.1074
506.7003, 569.6767
507.1825, 569.8678
507.6646, 568.2411
508.1467, 566.1826
508.6288, 565.1210
509.1109, 565.0589
509.5930, 565.7023
510.0752, 567.2809
510.5573, 569.1253
511.0394, 569.9328
511.5215, 569.8130
512.0037, 569.4280
512.4858, 569.0168
512.9679, 568.6202
513.4500, 568.0897
513.9321, 567.4340
514.4142, 567.3910
514.8964, 569.3477
515.3785, 571.7974
515.8606, 572.9785
516.3427, 571.5074
516.8248, 570.4451
517.3069, 571.3470
517.7891, 573.4160
518.2712, 575.1845
518.7533, 576.8718
519.2354, 577.6622
519.7175, 576.9249
520.1996, 574.7088
520.6818, 573.0110
521.1639, 571.8709
521.6460, 571.2028
522.1281, 571.0596
522.6102, 571.6339
523.0923, 571.9510
523.5745, 571.8948
524.0566, 571.7362
524.5387, 571.8954
525.0208, 572.3715
525.5029, 572.8050
525.9850, 572.9871
526.4672, 573.1517
526.9493, 574.2306
527.4314, 576.0523
527.9135, 577.0612
528.3956, 575.3503
528.8777, 572.6656
529.3599, 571.5892
529.8420, 572.4189
530.3241, 573.3860
530.8062, 573.3147
531.2883, 572.7419
531.7704, 572.2550
532.2526, 571.7457
532.7347, 571.6879
533.2168, 572.5025
533.6989, 573.8689
534.1810, 575.0557
534.6631, 576.3397
535.1453, 577.0087
535.6274, 576.5729
536.1095, 574.9778
536.5916, 574.3416
537.0737, 575.2719
537.5558, 576.2128
538.0380, 575.7805
538.5201, 573.5577
539.0022, 573.0139
539.4843, 574.7466
539.9664, 577.2589
540.4485, 578.2704
540.9307, 577.9355
541.4128, 577.5673
541.8949, 577.5002
542.3770, 577.7221
542.8591, 578.4578
543.3412, 579.5622
543.8234, 580.3549
544.3055, 580.2424
544.7876, 579.7116
545.2697, 579.0781
545.7518, 578.3362
546.2339, 577.9854
546.7161, 578.9511
547.1982, 580.0641
547.6803, 580.2972
548.1624, 578.3495
548.6445, 576.9023
549.1266, 576.4217
549.6088, 576.6840
550.0909, 577.2838
550.5730, 578.6712
551.0551, 579.6982
551.5372, 579.9106
552.0193, 579.4374
552.5015, 579.6780
552.9836, 580.9450
553.4657, 581.8380
553.9478, 580.8973
554.4299, 578.3947
554.9120, 577.3914
555.3942, 578.2205
555.8763, 579.6435
556.3584, 580.3278
556.8405, 580.4923
557.3226, 580.7472
557.8047, 581.4875
558.2869, 582.0497
558.7690, 581.3728
559.2511, 580.0017
559.7332, 579.3275
560.2154, 580.7926
560.6975, 582.4274
561.1796, 583.2780
561.6617, 583.2858
562.1439, 582.9563
562.6260, 581.7834
563.1081, 580.7758
563.5902, 580.5447
564.0723, 581.6881
564.5544, 582.3331
565.0366, 582.3173
565.5187, 581.9639
566.0008, 581.6914
566.4829, 581.5047
566.9650, 581.2767
567.4471, 580.8479
567.9293, 580.4709
568.4114, 581.0080
568.8935, 582.3828
569.3756, 583.5906
569.8577, 583.6459
570.3398, 583.2917
570.8220, 584.2319
571.3041, 586.4220
571.7862, 587.9390
572.2683, 586.6139
572.7504, 584.3930
573.2325, 583.2941
573.7147, 584.1615
574.1968, 585.0157
574.6789, 585.0333
575.1610, 584.6610
575.6431, 584.4742
576.1252, 584.7918
576.6074, 585.0380
577.0895, 585.1168
577.5716, 585.0739
578.0537, 585.0985
578.5358, 585.2803
579.0179, 585.2979
579.5001, 584.7319
579.9822, 583.6880
580.4643, 584.4080
580.9464, 587.1773
581.4285, 589.7179
581.9106, 589.5937
582.3928, 587.6169
582.8749, 586.4349
583.3570, 586.3898
583.8391, 587.1558
584.3212, 589.3209
584.8033, 591.9192
585.2855, 593.2979
585.7676, 591.6636
586.2497, 589.9504
586.7318, 589.6688
587.2139, 590.4567
587.6960, 591.2786
588.1782, 592.0937
588.6603, 592.6877
589.1424, 592.8817
589.6245, 592.6501
590.1066, 592.6487
590.5887, 593.1139
591.0709, 593.4473
591.5530, 593.1501
592.0351, 592.0690
592.5172, 591.4839
592.9993, 591.4811
593.4814, 591.8396
593.9636, 592.4773
594.4457, 593.3029
594.9278, 593.8362
595.4099, 593.9381
595.8920, 593.7546
596.3741, 593.4531
596.8563, 593.0270
597.3384, 592.4402
597.8205, 591.1963
598.3026, 590.2082
598.7847, 590.1735
599.2668, 591.0226
599.7490, 592.0060
600.2311, 593.0699
600.7132, 594.0624
601.1953, 594.9362
601.6774, 595.7457
602.1595, 596.1960
602.6417, 596.1882
603.1238, 595.9152
603.6059, 595.4128
604.0880, 594.5255
604.5701, 594.3128
605.0522, 595.0428
605.5344, 596.2039
606.0165, 597.1160
606.4986, 597.7492
606.9807, 597.7552
607.4628, 596.5587
607.9449, 595.1169
608.4271, 594.8551
608.9092, 595.5608
609.3913, 596.3876
609.8735, 596.9565
610.3556, 597.4229
610.8377, 597.9365
611.3198, 598.5119
611.8019, 598.8961
612.2841, 598.9749
612.7662, 598.8699
613.2483, 598.6412
613.7304, 598.2405
614.2125, 597.8036
614.6946, 597.2043
615.1768, 596.6787
615.6589, 596.3734
616.1410, 596.1940
616.6231, 597.0436
617.1052, 599.4789
617.5873, 602.3951
618.0695, 603.5615
618.5516, 603.1625
619.0337, 602.1465
619.5158, 600.2261
619.9979, 598.4056
620.4800, 598.1461
620.9622, 599.2227
621.4443, 600.4489
621.9264, 601.6212
622.4085, 602.4167
