##NAMES=Stromeyerite
##RRUFFID=R060908
##IDEAL CHEMISTRY=Cu^1+^Ag^1+^S^2-^
##LOCALITY=Cobalt, Ontario, Canada
##OWNER=RRUFF
##SOURCE=Royal Ontario Museum
##DESCRIPTION=Black metallic massive with conchoidal fracture
##STATUS=The identification of this mineral has been confirmed by X-ray diffraction and chemical analysis
##URL=rruff.info/R060908
##MEASURED CHEMISTRY=Cu_1.01_Ag_0.99_S
165.8822, 5598.613
166.3643, 5590.388
166.8464, 5604.836
167.3285, 5650.638
167.8106, 5692.548
168.2927, 5726.380
168.7749, 5755.061
169.2570, 5782.712
169.7391, 5810.525
170.2212, 5835.346
170.7033, 5851.407
171.1854, 5856.531
171.6676, 5862.344
172.1497, 5871.903
172.6318, 5882.783
173.1139, 5893.031
173.5960, 5902.705
174.0781, 5908.823
174.5603, 5904.549
175.0424, 5887.260
175.5245, 5874.022
176.0066, 5865.529
176.4887, 5863.839
176.9708, 5876.650
177.4530, 5909.170
177.9351, 5943.363
178.4172, 5946.525
178.8993, 5913.717
179.3814, 5890.170
179.8635, 5889.443
180.3457, 5904.294
180.8278, 5925.602
181.3099, 5952.504
181.7920, 5980.121
182.2741, 5998.197
182.7562, 6005.100
183.2384, 6018.912
183.7205, 6053.005
184.2026, 6095.563
184.6847, 6125.157
185.1668, 6134.084
185.6489, 6135.412
186.1311, 6147.618
186.6132, 6170.551
187.0953, 6193.855
187.5774, 6215.655
188.0595, 6235.595
188.5416, 6250.840
189.0238, 6258.534
189.5059, 6267.911
189.9880, 6295.556
190.4701, 6341.449
190.9522, 6382.581
191.4343, 6408.800
191.9165, 6426.233
192.3986, 6445.976
192.8807, 6470.843
193.3628, 6497.403
193.8449, 6520.594
194.3270, 6540.605
194.8092, 6563.160
195.2913, 6593.438
195.7734, 6627.013
196.2555, 6655.285
196.7376, 6675.895
197.2197, 6693.799
197.7019, 6712.534
198.1840, 6731.916
198.6661, 6758.101
199.1482, 6801.238
199.6303, 6850.590
200.1124, 6885.881
200.5946, 6901.253
201.0767, 6911.448
201.5588, 6934.624
202.0409, 6968.712
202.5230, 6999.285
203.0051, 7022.782
203.4873, 7039.982
203.9694, 7050.211
204.4515, 7051.853
204.9336, 7052.294
205.4157, 7058.430
205.8978, 7069.548
206.3800, 7084.526
206.8621, 7106.538
207.3442, 7131.043
207.8263, 7151.412
208.3084, 7166.557
208.7905, 7179.650
209.2727, 7194.191
209.7548, 7209.557
210.2369, 7221.158
210.7190, 7219.698
211.2011, 7217.681
211.6832, 7233.710
212.1654, 7271.088
212.6475, 7310.318
213.1296, 7332.628
213.6117, 7341.454
214.0938, 7355.344
214.5759, 7381.251
215.0581, 7411.309
215.5402, 7437.832
216.0223, 7460.263
216.5044, 7481.011
216.9865, 7501.508
217.4686, 7521.854
217.9508, 7542.617
218.4329, 7559.816
218.9150, 7580.216
219.3971, 7615.726
219.8792, 7666.175
220.3613, 7707.590
220.8435, 7718.789
221.3256, 7706.111
221.8077, 7705.481
222.2898, 7730.177
222.7719, 7757.830
223.2540, 7771.910
223.7362, 7773.297
224.2183, 7770.620
224.7004, 7767.014
225.1825, 7763.663
225.6646, 7764.543
226.1467, 7767.031
226.6289, 7775.816
227.1110, 7797.876
227.5931, 7830.096
228.0752, 7859.614
228.5573, 7880.399
229.0394, 7892.669
229.5216, 7898.310
230.0037, 7886.632
230.4858, 7882.190
230.9679, 7903.179
231.4500, 7940.894
231.9321, 7970.469
232.4143, 7979.074
232.8964, 7975.100
233.3785, 7982.767
233.8606, 8014.165
234.3427, 8034.868
234.8248, 8023.882
235.3070, 7995.814
235.7891, 7979.142
236.2712, 7985.270
236.7533, 8004.396
237.2354, 8015.578
237.7175, 8014.344
238.1997, 8016.475
238.6818, 8027.090
239.1639, 8042.203
239.6460, 8058.060
240.1281, 8073.974
240.6102, 8086.397
241.0924, 8088.839
241.5745, 8076.752
242.0566, 8066.230
242.5387, 8059.194
243.0208, 8054.016
243.5029, 8049.700
243.9851, 8045.978
244.4672, 8041.958
244.9493, 8036.873
245.4314, 8031.458
245.9135, 8021.858
246.3956, 8007.892
246.8778, 7990.113
247.3599, 7966.018
247.8420, 7936.729
248.3241, 7910.016
248.8062, 7893.976
249.2883, 7890.985
249.7705, 7884.783
250.2526, 7876.802
250.7347, 7864.720
251.2168, 7842.787
251.6989, 7814.262
252.1810, 7789.987
252.6632, 7779.326
253.1453, 7782.515
253.6274, 7782.833
254.1095, 7784.815
254.5916, 7779.603
255.0737, 7762.485
255.5559, 7735.835
256.0380, 7702.695
256.5201, 7663.605
257.0022, 7621.431
257.4843, 7595.229
257.9665, 7605.084
258.4486, 7609.849
258.9307, 7604.656
259.4128, 7590.728
259.8949, 7569.285
260.3770, 7540.707
260.8592, 7507.192
261.3413, 7474.071
261.8234, 7436.794
262.3055, 7407.504
262.7876, 7391.980
263.2697, 7381.700
263.7519, 7369.324
264.2340, 7352.370
264.7161, 7332.436
265.1982, 7313.094
265.6803, 7297.564
266.1624, 7274.510
266.6446, 7236.247
267.1267, 7196.215
267.6088, 7161.782
268.0909, 7134.533
268.5730, 7113.530
269.0551, 7102.917
269.5373, 7108.752
270.0194, 7093.497
270.5015, 7026.448
270.9836, 6961.163
271.4657, 6920.115
271.9478, 6902.221
272.4300, 6894.160
272.9121, 6888.805
273.3942, 6885.641
273.8763, 6874.647
274.3584, 6850.729
274.8405, 6824.955
275.3227, 6803.079
275.8048, 6783.427
276.2869, 6761.498
276.7690, 6731.480
277.2511, 6698.822
277.7332, 6682.106
278.2154, 6690.950
278.6975, 6692.245
279.1796, 6663.353
279.6617, 6619.675
280.1438, 6579.939
280.6259, 6548.423
281.1081, 6525.766
281.5902, 6518.200
282.0723, 6528.227
282.5544, 6527.951
283.0365, 6499.627
283.5186, 6457.875
284.0008, 6419.255
284.4829, 6383.818
284.9650, 6356.164
285.4471, 6347.604
285.9292, 6353.339
286.4113, 6344.012
286.8935, 6304.486
287.3756, 6254.981
287.8577, 6223.153
288.3398, 6210.181
288.8219, 6200.824
289.3040, 6198.832
289.7862, 6194.535
290.2683, 6162.812
290.7504, 6093.227
291.2325, 6023.375
291.7146, 6002.981
292.1967, 6033.298
292.6789, 6044.822
293.1610, 6010.499
293.6431, 5964.639
294.1252, 5939.973
294.6073, 5938.088
295.0894, 5939.927
295.5716, 5931.259
296.0537, 5911.786
296.5358, 5890.675
297.0179, 5866.896
297.5000, 5842.372
297.9821, 5816.319
298.4643, 5790.188
298.9464, 5766.445
299.4285, 5745.970
299.9106, 5729.983
300.3927, 5724.213
300.8748, 5742.541
301.3570, 5753.819
301.8391, 5750.216
302.3212, 5738.559
302.8033, 5726.474
303.2854, 5716.783
303.7675, 5708.525
304.2497, 5700.254
304.7318, 5695.797
305.2139, 5684.101
305.6960, 5660.437
306.1781, 5633.996
306.6602, 5610.046
307.1424, 5589.899
307.6245, 5572.969
308.1066, 5560.348
308.5887, 5554.115
309.0708, 5538.585
309.5529, 5495.350
310.0351, 5459.879
310.5172, 5452.171
310.9993, 5462.719
311.4814, 5468.555
311.9635, 5453.467
312.4456, 5421.511
312.9278, 5390.186
313.4099, 5356.513
313.8920, 5329.483
314.3741, 5318.346
314.8562, 5312.539
315.3383, 5297.785
315.8205, 5266.873
316.3026, 5231.376
316.7847, 5211.077
317.2668, 5209.420
317.7489, 5198.472
318.2310, 5162.333
318.7132, 5118.175
319.1953, 5079.748
319.6774, 5048.317
320.1595, 5024.782
320.6416, 5016.460
321.1237, 5018.076
321.6059, 5006.068
322.0880, 4968.204
322.5701, 4930.891
323.0522, 4928.581
323.5343, 4956.074
324.0164, 4973.154
324.4986, 4962.333
324.9807, 4938.242
325.4628, 4916.953
325.9449, 4899.744
326.4270, 4884.500
326.9091, 4870.379
327.3913, 4857.040
327.8734, 4842.172
328.3555, 4822.569
328.8376, 4804.695
329.3197, 4792.423
329.8018, 4784.438
330.2840, 4778.456
330.7661, 4774.288
331.2482, 4769.038
331.7303, 4754.423
332.2124, 4723.120
332.6945, 4692.511
333.1767, 4662.587
333.6588, 4634.507
334.1409, 4609.001
334.6230, 4586.410
335.1051, 4567.132
335.5872, 4552.540
336.0694, 4546.556
336.5515, 4531.616
337.0336, 4495.890
337.5157, 4463.439
337.9978, 4446.232
338.4799, 4442.143
338.9621, 4443.051
339.4442, 4445.425
339.9263, 4447.139
340.4084, 4431.028
340.8905, 4376.736
341.3727, 4334.801
341.8548, 4320.863
342.3369, 4324.467
342.8190, 4336.453
343.3011, 4355.518
343.7832, 4371.250
344.2654, 4364.830
344.7475, 4332.461
345.2296, 4304.015
345.7117, 4286.451
346.1938, 4275.842
346.6759, 4271.403
347.1581, 4272.895
347.6402, 4271.950
348.1223, 4259.692
348.6044, 4240.796
349.0865, 4229.939
349.5686, 4230.992
350.0508, 4233.563
350.5329, 4224.495
351.0150, 4208.021
351.4971, 4203.372
351.9792, 4230.845
352.4613, 4258.851
352.9435, 4255.873
353.4256, 4226.345
353.9077, 4200.115
354.3898, 4195.364
354.8719, 4204.638
355.3540, 4199.915
355.8362, 4170.199
356.3183, 4144.814
356.8004, 4130.179
357.2825, 4123.641
357.7646, 4123.865
358.2467, 4130.129
358.7289, 4138.250
359.2110, 4143.167
359.6931, 4147.345
360.1752, 4139.911
360.6573, 4111.195
361.1394, 4081.428
361.6216, 4061.138
362.1037, 4049.517
362.5858, 4040.311
363.0679, 4028.985
363.5500, 4015.978
364.0321, 4004.030
364.5143, 3989.136
364.9964, 3981.715
365.4785, 3987.623
365.9606, 3999.847
366.4427, 4012.477
366.9248, 4024.018
367.4070, 4030.113
367.8891, 4021.097
368.3712, 3995.059
368.8533, 3976.709
369.3354, 3975.986
369.8175, 3979.405
370.2997, 3974.791
370.7818, 3962.844
371.2639, 3953.899
371.7460, 3954.429
372.2281, 3961.230
372.7102, 3970.567
373.1924, 3983.237
373.6745, 3990.160
374.1566, 3980.076
374.6387, 3958.609
375.1208, 3949.600
375.6029, 3968.417
376.0851, 3985.822
376.5672, 3984.270
377.0493, 3969.390
377.5314, 3954.717
378.0135, 3945.709
378.4956, 3938.924
378.9778, 3927.322
379.4599, 3903.770
379.9420, 3889.074
380.4241, 3892.293
380.9062, 3898.231
381.3883, 3894.563
381.8705, 3881.024
382.3526, 3865.047
382.8347, 3852.873
383.3168, 3844.476
383.7989, 3839.990
384.2810, 3845.244
384.7632, 3848.065
385.2453, 3843.923
385.7274, 3836.380
386.2095, 3830.317
386.6916, 3827.826
387.1737, 3827.264
387.6559, 3825.966
388.1380, 3823.762
388.6201, 3821.975
389.1022, 3825.537
389.5843, 3825.369
390.0664, 3810.048
390.5486, 3781.031
391.0307, 3759.646
391.5128, 3764.900
391.9949, 3785.174
392.4770, 3794.209
392.9591, 3788.699
393.4413, 3782.268
393.9234, 3786.794
394.4055, 3797.654
394.8876, 3797.677
395.3697, 3775.653
395.8518, 3753.853
396.3340, 3741.783
396.8161, 3738.628
397.2982, 3745.499
397.7803, 3763.881
398.2624, 3784.161
398.7445, 3789.561
399.2267, 3768.323
399.7088, 3758.232
400.1909, 3773.282
400.6730, 3787.600
401.1551, 3781.668
401.6372, 3758.251
402.1194, 3733.292
402.6015, 3718.721
403.0836, 3713.542
403.5657, 3710.797
404.0478, 3712.629
404.5299, 3713.872
405.0121, 3713.504
405.4942, 3712.135
405.9763, 3711.645
406.4584, 3712.644
406.9405, 3710.342
407.4226, 3693.992
407.9048, 3664.266
408.3869, 3650.711
408.8690, 3665.399
409.3511, 3685.799
409.8332, 3695.734
410.3153, 3696.650
410.7975, 3693.423
411.2796, 3683.817
411.7617, 3673.288
412.2438, 3666.523
412.7259, 3663.769
413.2080, 3667.849
413.6902, 3682.989
414.1723, 3703.179
414.6544, 3710.396
415.1365, 3698.438
415.6186, 3687.738
416.1007, 3678.617
416.5829, 3674.405
417.0650, 3681.118
417.5471, 3698.522
418.0292, 3718.489
418.5113, 3734.417
418.9934, 3747.087
419.4756, 3743.874
419.9577, 3695.778
420.4398, 3663.065
420.9219, 3675.833
421.4040, 3708.987
421.8861, 3722.798
422.3683, 3699.170
422.8504, 3664.446
423.3325, 3666.846
423.8146, 3713.730
424.2967, 3746.401
424.7788, 3748.651
425.2610, 3738.985
425.7431, 3728.431
426.2252, 3717.766
426.7073, 3709.555
427.1894, 3706.379
427.6715, 3705.738
428.1537, 3702.479
428.6358, 3696.439
429.1179, 3696.172
429.6000, 3710.520
430.0821, 3731.837
430.5642, 3735.780
431.0464, 3710.767
431.5285, 3689.699
432.0106, 3684.572
432.4927, 3686.609
432.9748, 3684.616
433.4569, 3676.645
433.9391, 3669.203
434.4212, 3669.528
434.9033, 3678.459
435.3854, 3686.844
435.8675, 3698.061
436.3496, 3704.979
436.8318, 3705.063
437.3139, 3699.710
437.7960, 3689.567
438.2781, 3674.448
438.7602, 3659.451
439.2423, 3650.951
439.7245, 3648.167
440.2066, 3659.624
440.6887, 3701.303
441.1708, 3742.651
441.6529, 3760.636
442.1350, 3757.678
442.6172, 3749.000
443.0993, 3732.729
443.5814, 3718.748
444.0635, 3724.489
444.5456, 3748.639
445.0277, 3768.759
445.5099, 3774.167
445.9920, 3767.233
446.4741, 3752.088
446.9562, 3716.412
447.4383, 3696.635
447.9204, 3708.817
448.4026, 3733.259
448.8847, 3755.261
449.3668, 3770.785
449.8489, 3776.289
450.3310, 3766.365
450.8131, 3741.946
451.2953, 3730.088
451.7774, 3734.564
452.2595, 3748.190
452.7416, 3784.038
453.2237, 3820.860
453.7059, 3831.150
454.1880, 3806.155
454.6701, 3774.603
455.1522, 3774.083
455.6343, 3800.583
456.1165, 3804.971
456.5986, 3770.689
457.0807, 3733.324
457.5628, 3722.682
458.0449, 3731.686
458.5270, 3741.729
459.0092, 3748.468
459.4913, 3755.548
459.9734, 3768.348
460.4555, 3783.682
460.9376, 3792.379
461.4197, 3790.637
461.9019, 3782.730
462.3840, 3775.423
462.8661, 3768.156
463.3482, 3763.302
463.8303, 3761.386
464.3124, 3761.281
464.7946, 3762.913
465.2767, 3765.885
465.7588, 3769.880
466.2409, 3775.102
466.7230, 3780.234
467.2051, 3780.820
467.6873, 3774.492
468.1694, 3771.157
468.6515, 3769.036
469.1336, 3774.017
469.6157, 3795.905
470.0978, 3833.214
470.5800, 3864.212
471.0621, 3876.968
471.5442, 3876.032
472.0263, 3865.877
472.5084, 3846.817
472.9905, 3827.718
473.4727, 3812.637
473.9548, 3801.619
474.4369, 3795.303
474.9190, 3792.002
475.4011, 3794.978
475.8832, 3808.900
476.3654, 3826.848
476.8475, 3846.763
477.3296, 3865.615
477.8117, 3873.136
478.2938, 3857.436
478.7759, 3821.148
479.2581, 3800.373
479.7402, 3804.489
480.2223, 3810.640
480.7044, 3816.240
481.1865, 3819.458
481.6686, 3816.324
482.1508, 3805.975
482.6329, 3798.031
483.1150, 3803.392
483.5971, 3818.343
484.0792, 3828.554
484.5613, 3831.442
485.0435, 3834.953
485.5256, 3848.140
486.0077, 3866.797
486.4898, 3872.387
486.9719, 3847.212
487.4540, 3829.438
487.9362, 3838.879
488.4183, 3862.765
488.9004, 3884.636
489.3825, 3899.830
489.8646, 3909.599
490.3467, 3914.932
490.8289, 3915.380
491.3110, 3915.511
491.7931, 3913.378
492.2752, 3913.147
492.7573, 3916.490
493.2394, 3922.107
493.7216, 3929.977
494.2037, 3940.655
494.6858, 3947.057
495.1679, 3937.907
495.6500, 3915.582
496.1321, 3898.315
496.6143, 3888.219
497.0964, 3884.599
497.5785, 3889.837
498.0606, 3901.924
498.5427, 3911.721
499.0248, 3917.234
499.5070, 3921.469
499.9891, 3925.456
500.4712, 3929.294
500.9533, 3934.381
501.4354, 3940.954
501.9175, 3944.297
502.3997, 3936.087
502.8818, 3911.466
503.3639, 3903.882
503.8460, 3936.787
504.3281, 3962.140
504.8102, 3957.155
505.2924, 3938.531
505.7745, 3933.310
506.2566, 3952.888
506.7387, 3976.677
507.2208, 3976.851
507.7029, 3956.622
508.1851, 3945.940
508.6672, 3951.733
509.1493, 3962.010
509.6314, 3966.798
510.1135, 3967.379
510.5956, 3970.384
511.0778, 3979.450
511.5599, 3987.826
512.0420, 3993.129
512.5241, 3995.213
513.0062, 3991.284
513.4883, 3981.094
513.9705, 3973.464
514.4526, 3981.542
514.9347, 4008.972
515.4168, 4025.710
515.8989, 4019.734
516.3810, 4016.095
516.8632, 4025.771
517.3453, 4040.574
517.8274, 4048.707
518.3095, 4045.984
518.7916, 4039.009
519.2737, 4031.244
519.7559, 4024.274
520.2380, 4028.877
520.7201, 4050.601
521.2022, 4067.695
521.6843, 4057.620
522.1664, 4025.300
522.6486, 4011.504
523.1307, 4034.126
523.6128, 4054.090
524.0949, 4053.052
524.5770, 4043.717
525.0591, 4042.831
525.5413, 4054.015
526.0234, 4069.995
526.5055, 4083.991
526.9876, 4095.943
527.4697, 4104.442
527.9518, 4113.199
528.4340, 4112.225
528.9161, 4086.751
529.3982, 4056.892
529.8803, 4048.214
530.3624, 4067.349
530.8445, 4087.752
531.3267, 4089.503
531.8088, 4079.286
532.2909, 4069.457
532.7730, 4061.202
533.2551, 4060.019
533.7372, 4072.910
534.2194, 4094.631
534.7015, 4100.379
535.1836, 4069.193
535.6657, 4051.541
536.1478, 4061.477
536.6299, 4080.940
537.1121, 4096.455
537.5942, 4105.837
538.0763, 4112.119
538.5584, 4117.769
539.0405, 4122.107
539.5226, 4120.596
540.0048, 4109.174
540.4869, 4106.318
540.9690, 4122.239
541.4511, 4145.937
541.9332, 4170.583
542.4153, 4196.237
542.8975, 4207.515
543.3796, 4185.006
543.8617, 4155.591
544.3438, 4149.650
544.8259, 4162.339
545.3080, 4166.494
545.7902, 4147.868
546.2723, 4119.126
546.7544, 4107.267
547.2365, 4121.734
547.7186, 4132.210
548.2007, 4134.524
548.6829, 4137.354
549.1650, 4146.002
549.6471, 4158.154
550.1292, 4168.290
550.6113, 4173.486
551.0934, 4176.900
551.5756, 4184.490
552.0577, 4195.062
552.5398, 4197.618
553.0219, 4186.926
553.5040, 4176.510
553.9861, 4181.068
554.4683, 4200.213
554.9504, 4210.400
555.4325, 4198.905
555.9146, 4192.900
556.3967, 4211.642
556.8788, 4237.705
557.3610, 4244.857
557.8431, 4228.490
558.3252, 4209.653
558.8073, 4213.322
559.2894, 4237.846
559.7715, 4248.254
560.2537, 4236.434
560.7358, 4226.830
561.2179, 4233.263
561.7000, 4244.776
562.1821, 4248.245
562.6642, 4240.673
563.1464, 4237.980
563.6285, 4254.108
564.1106, 4275.984
564.5927, 4288.063
565.0748, 4289.502
565.5569, 4283.279
566.0391, 4269.990
566.5212, 4253.219
567.0033, 4243.193
567.4854, 4245.986
567.9675, 4244.223
568.4496, 4233.885
568.9318, 4222.998
569.4139, 4212.260
569.8960, 4204.688
570.3781, 4207.330
570.8602, 4226.408
571.3423, 4251.262
571.8245, 4265.793
572.3066, 4272.356
572.7887, 4291.236
573.2708, 4332.827
573.7529, 4365.096
574.2350, 4345.461
574.7172, 4273.999
575.1993, 4258.621
575.6814, 4364.785
576.1635, 4445.587
576.6456, 4438.123
577.1277, 4390.702
577.6099, 4356.132
578.0920, 4347.339
578.5741, 4349.938
579.0562, 4353.593
579.5383, 4356.872
580.0204, 4347.880
580.5026, 4319.912
580.9847, 4303.736
581.4668, 4318.965
581.9489, 4347.292
582.4310, 4362.688
582.9131, 4363.742
583.3953, 4362.356
583.8774, 4358.689
584.3595, 4356.514
584.8416, 4360.602
585.3237, 4368.940
585.8058, 4374.460
586.2880, 4373.589
586.7701, 4372.147
587.2522, 4384.061
587.7343, 4416.738
588.2164, 4430.607
588.6985, 4409.701
589.1807, 4387.933
589.6628, 4381.496
590.1449, 4384.748
590.6270, 4387.393
591.1091, 4386.004
591.5912, 4386.276
592.0734, 4393.366
592.5555, 4404.319
593.0376, 4415.168
593.5197, 4425.062
594.0018, 4431.445
594.4839, 4431.878
594.9661, 4427.797
595.4482, 4426.241
595.9303, 4430.554
596.4124, 4431.734
596.8945, 4418.903
597.3766, 4411.641
597.8588, 4429.810
598.3409, 4466.376
598.8230, 4494.004
599.3051, 4495.442
599.7872, 4485.749
600.2693, 4483.208
600.7515, 4486.380
601.2336, 4487.718
601.7157, 4484.958
602.1978, 4482.046
602.6799, 4483.863
603.1620, 4490.745
603.6442, 4492.200
604.1263, 4477.160
604.6084, 4470.988
605.0905, 4485.426
605.5726, 4507.625
606.0547, 4526.355
606.5369, 4538.957
607.0190, 4547.110
607.5011, 4550.707
607.9832, 4551.217
608.4653, 4553.401
608.9474, 4557.409
609.4296, 4555.216
609.9117, 4539.641
610.3938, 4523.491
610.8759, 4527.338
611.3580, 4556.904
611.8401, 4577.802
612.3223, 4590.498
612.8044, 4593.042
613.2865, 4576.198
613.7686, 4551.663
614.2507, 4535.738
614.7328, 4533.634
615.2150, 4540.333
615.6971, 4553.794
616.1792, 4572.380
616.6613, 4583.718
617.1434, 4585.886
617.6255, 4588.441
618.1077, 4594.943
618.5898, 4605.211
619.0719, 4619.899
619.5540, 4641.420
620.0361, 4658.060
620.5182, 4672.178
621.0004, 4676.969
621.4825, 4658.270
621.9646, 4627.712
622.4467, 4610.687
622.9288, 4618.243
623.4109, 4636.681
623.8931, 4645.192
624.3752, 4643.903
624.8573, 4652.236
625.3394, 4674.854
625.8215, 4698.194
626.3036, 4719.596
626.7858, 4734.544
627.2679, 4732.515
627.7500, 4704.397
628.2321, 4682.441
628.7142, 4676.935
629.1964, 4679.529
629.6785, 4685.871
630.1606, 4693.883
630.6427, 4700.330
631.1248, 4703.468
631.6069, 4704.990
632.0891, 4709.773
632.5712, 4718.672
633.0533, 4716.288
633.5354, 4692.886
634.0175, 4674.127
634.4996, 4681.845
634.9818, 4705.500
635.4639, 4720.301
635.9460, 4718.928
636.4281, 4720.175
636.9102, 4731.374
637.3923, 4747.040
637.8745, 4765.679
638.3566, 4784.101
638.8387, 4793.980
639.3208, 4789.657
639.8029, 4777.932
640.2850, 4772.975
640.7672, 4775.405
641.2493, 4778.189
641.7314, 4780.396
642.2135, 4783.189
642.6956, 4790.386
643.1777, 4798.548
643.6599, 4797.515
644.1420, 4775.284
644.6241, 4763.800
645.1062, 4783.652
645.5883, 4812.743
646.0704, 4831.363
646.5526, 4837.825
647.0347, 4835.943
647.5168, 4826.912
647.9989, 4816.384
648.4810, 4818.298
648.9631, 4834.305
649.4453, 4845.018
649.9274, 4847.104
650.4095, 4845.202
650.8916, 4838.710
651.3737, 4830.833
651.8558, 4832.342
652.3380, 4851.527
652.8201, 4867.325
653.3022, 4870.161
653.7843, 4869.089
654.2664, 4872.164
654.7485, 4879.542
655.2307, 4887.971
655.7128, 4895.730
656.1949, 4902.309
656.6770, 4908.136
657.1591, 4913.329
657.6412, 4908.447
658.1234, 4885.979
658.6055, 4868.549
659.0876, 4876.347
659.5697, 4902.268
660.0518, 4916.577
660.5339, 4914.397
661.0161, 4909.091
661.4982, 4896.737
661.9803, 4887.570
662.4624, 4894.183
662.9445, 4911.824
