##NAMES=Strontiojoaquinite
##RRUFFID=R070084
##IDEAL CHEMISTRY=(Na,Fe^2+^)_2_Ba_2_Sr_2_Ti^4+^_2_(SiO_3_)_8_(O,OH)_2_&#183;H_2_O
##LOCALITY=Clear Creek area, San Benito County, California, USA
##OWNER=RRUFF
##SOURCE=James Shigley
##DESCRIPTION=Yellow prismatic single crystals
##STATUS=The identification of this mineral is not yet confirmed.
##URL=rruff.info/R070084
175.2507, 9617.952
175.7328, 9678.480
176.2149, 9694.780
176.6970, 9705.506
177.1792, 9745.081
177.6613, 9799.692
178.1434, 9841.020
178.6255, 9854.640
179.1076, 9855.337
179.5897, 9867.416
180.0719, 9890.864
180.5540, 9913.266
181.0361, 9927.564
181.5182, 9932.563
182.0003, 9924.347
182.4824, 9887.903
182.9646, 9840.797
183.4467, 9828.482
183.9288, 9853.740
184.4109, 9887.742
184.8930, 9900.794
185.3751, 9894.903
185.8573, 9883.432
186.3394, 9867.104
186.8215, 9848.655
187.3036, 9839.771
187.7857, 9841.336
188.2678, 9848.797
188.7500, 9860.688
189.2321, 9876.561
189.7142, 9883.125
190.1963, 9868.037
190.6784, 9835.115
191.1605, 9814.355
191.6427, 9810.138
192.1248, 9810.608
192.6069, 9795.395
193.0890, 9763.932
193.5711, 9727.958
194.0532, 9694.569
194.5354, 9663.423
195.0175, 9623.928
195.4996, 9570.365
195.9817, 9514.133
196.4638, 9483.655
196.9460, 9482.739
197.4281, 9482.874
197.9102, 9463.431
198.3923, 9423.052
198.8744, 9391.737
199.3565, 9374.438
199.8387, 9366.673
200.3208, 9352.880
200.8029, 9329.630
201.2850, 9313.327
201.7671, 9322.818
202.2492, 9363.500
202.7314, 9384.266
203.2135, 9373.484
203.6956, 9338.465
204.1777, 9310.814
204.6598, 9292.220
205.1419, 9276.588
205.6241, 9262.556
206.1062, 9253.753
206.5883, 9229.161
207.0704, 9183.468
207.5525, 9118.460
208.0346, 9042.245
208.5168, 8943.396
208.9989, 8855.228
209.4810, 8814.034
209.9631, 8835.497
210.4452, 8851.348
210.9273, 8847.771
211.4095, 8825.463
211.8916, 8801.413
212.3737, 8773.575
212.8558, 8746.948
213.3379, 8723.621
213.8200, 8698.559
214.3022, 8692.936
214.7843, 8721.705
215.2664, 8787.261
215.7485, 8812.082
216.2306, 8774.409
216.7127, 8721.026
217.1949, 8710.465
217.6770, 8766.565
218.1591, 8812.167
218.6412, 8825.002
219.1233, 8800.473
219.6054, 8787.157
220.0876, 8794.074
220.5697, 8803.934
221.0518, 8791.532
221.5339, 8745.097
222.0160, 8700.104
222.4981, 8668.338
222.9803, 8653.302
223.4624, 8629.425
223.9445, 8591.724
224.4266, 8548.995
224.9087, 8514.932
225.3908, 8490.842
225.8730, 8473.144
226.3551, 8461.879
226.8372, 8458.817
227.3193, 8454.605
227.8014, 8449.336
228.2835, 8442.816
228.7657, 8433.931
229.2478, 8418.543
229.7299, 8407.506
230.2120, 8406.709
230.6941, 8422.665
231.1762, 8425.915
231.6584, 8407.427
232.1405, 8380.529
232.6226, 8372.550
233.1047, 8394.115
233.5868, 8417.967
234.0689, 8430.229
234.5511, 8417.122
235.0332, 8435.256
235.5153, 8505.046
235.9974, 8598.286
236.4795, 8649.261
236.9616, 8625.229
237.4438, 8607.759
237.9259, 8634.438
238.4080, 8736.371
238.8901, 8798.042
239.3722, 8793.244
239.8543, 8755.720
240.3365, 8767.585
240.8186, 8861.720
241.3007, 8957.506
241.7828, 9019.890
242.2649, 9028.798
242.7470, 9050.175
243.2292, 9085.220
243.7113, 9132.416
244.1934, 9190.718
244.6755, 9274.601
245.1576, 9348.357
245.6397, 9393.301
246.1219, 9388.056
246.6040, 9402.964
247.0861, 9447.117
247.5682, 9509.247
248.0503, 9557.863
248.5324, 9581.169
249.0146, 9608.114
249.4967, 9654.660
249.9788, 9739.207
250.4609, 9800.179
250.9430, 9829.427
251.4251, 9837.352
251.9073, 9851.860
252.3894, 9875.563
252.8715, 9901.716
253.3536, 9926.317
253.8357, 9944.477
254.3178, 9974.219
254.8000, 10023.71
255.2821, 10082.98
255.7642, 10119.73
256.2463, 10116.49
256.7284, 10121.20
257.2105, 10160.91
257.6927, 10256.68
258.1748, 10330.90
258.6569, 10377.93
259.1390, 10405.27
259.6211, 10430.45
260.1032, 10449.39
260.5854, 10474.42
261.0675, 10514.55
261.5496, 10579.27
262.0317, 10629.05
262.5138, 10656.05
262.9959, 10671.13
263.4781, 10704.21
263.9602, 10764.22
264.4423, 10822.06
264.9244, 10860.16
265.4065, 10870.35
265.8886, 10894.07
266.3708, 10937.90
266.8529, 10991.76
267.3350, 11028.02
267.8171, 11039.03
268.2992, 11053.40
268.7813, 11086.46
269.2635, 11143.02
269.7456, 11196.56
270.2277, 11244.24
270.7098, 11290.13
271.1919, 11340.41
271.6740, 11394.00
272.1562, 11455.03
272.6383, 11526.72
273.1204, 11610.66
273.6025, 11693.58
274.0846, 11776.30
274.5667, 11857.84
275.0489, 11940.02
275.5310, 12024.18
276.0131, 12102.40
276.4952, 12167.00
276.9773, 12215.67
277.4594, 12280.92
277.9416, 12368.30
278.4237, 12464.71
278.9058, 12555.27
279.3879, 12642.10
279.8700, 12706.39
280.3521, 12732.59
280.8343, 12721.07
281.3164, 12712.44
281.7985, 12707.92
282.2806, 12704.69
282.7627, 12699.78
283.2448, 12693.34
283.7270, 12681.70
284.2091, 12666.82
284.6912, 12647.50
285.1733, 12606.57
285.6554, 12540.62
286.1375, 12464.41
286.6197, 12403.10
287.1018, 12355.42
287.5839, 12297.49
288.0660, 12208.30
288.5481, 12097.27
289.0303, 12012.89
289.5124, 11958.60
289.9945, 11918.46
290.4766, 11875.95
290.9587, 11831.46
291.4409, 11788.89
291.9230, 11748.63
292.4051, 11711.75
292.8872, 11683.50
293.3693, 11664.54
293.8514, 11648.26
294.3336, 11624.13
294.8157, 11595.44
295.2978, 11574.84
295.7799, 11570.54
296.2620, 11576.43
296.7441, 11582.98
297.2263, 11590.31
297.7084, 11593.45
298.1905, 11580.59
298.6726, 11559.20
299.1547, 11548.88
299.6368, 11563.47
300.1190, 11588.54
300.6011, 11604.80
301.0832, 11612.46
301.5653, 11613.09
302.0474, 11596.03
302.5295, 11574.27
303.0117, 11572.16
303.4938, 11607.92
303.9759, 11656.62
304.4580, 11688.37
304.9401, 11706.01
305.4222, 11728.80
305.9044, 11790.17
306.3865, 11859.33
306.8686, 11891.85
307.3507, 11848.53
307.8328, 11801.35
308.3149, 11821.79
308.7971, 11895.00
309.2792, 11954.99
309.7613, 11952.91
310.2434, 11923.61
310.7255, 11901.38
311.2076, 11894.41
311.6898, 11895.32
312.1719, 11912.31
312.6540, 11936.06
313.1361, 11939.17
313.6182, 11877.28
314.1003, 11808.73
314.5825, 11781.49
315.0646, 11827.09
315.5467, 11862.47
316.0288, 11837.04
316.5109, 11775.67
316.9930, 11731.45
317.4752, 11735.57
317.9573, 11753.39
318.4394, 11764.14
318.9215, 11758.04
319.4036, 11766.69
319.8857, 11806.87
320.3679, 11865.79
320.8500, 11924.30
321.3321, 11980.58
321.8142, 12032.90
322.2963, 12075.04
322.7784, 12100.21
323.2606, 12144.94
323.7427, 12233.97
324.2248, 12339.11
324.7069, 12427.29
325.1890, 12457.66
325.6711, 12507.53
326.1533, 12602.82
326.6354, 12752.36
327.1175, 12888.48
327.5996, 13003.02
328.0817, 13107.62
328.5638, 13210.73
329.0460, 13305.03
329.5281, 13408.30
330.0102, 13529.21
330.4923, 13666.79
330.9744, 13789.46
331.4565, 13889.50
331.9387, 13983.07
332.4208, 14083.00
332.9029, 14194.93
333.3850, 14300.03
333.8671, 14395.81
334.3492, 14482.07
334.8314, 14567.78
335.3135, 14656.14
335.7956, 14738.72
336.2777, 14812.80
336.7598, 14881.01
337.2419, 14930.91
337.7241, 14958.75
338.2062, 14969.92
338.6883, 14977.45
339.1704, 14980.20
339.6525, 14983.73
340.1346, 14993.31
340.6168, 15009.80
341.0989, 15018.15
341.5810, 15017.71
342.0631, 15008.90
342.5452, 14993.92
343.0273, 14972.83
343.5095, 14940.56
343.9916, 14883.85
344.4737, 14809.04
344.9558, 14759.71
345.4379, 14738.26
345.9200, 14734.17
346.4022, 14742.56
346.8843, 14760.65
347.3664, 14770.25
347.8485, 14762.97
348.3306, 14742.94
348.8127, 14714.74
349.2949, 14677.63
349.7770, 14647.47
350.2591, 14647.82
350.7412, 14666.85
351.2233, 14676.13
351.7054, 14666.02
352.1876, 14642.72
352.6697, 14615.33
353.1518, 14582.69
353.6339, 14537.65
354.1160, 14471.21
354.5981, 14390.99
355.0803, 14307.14
355.5624, 14220.76
356.0445, 14131.76
356.5266, 14039.95
357.0087, 13945.28
357.4908, 13847.62
357.9730, 13740.25
358.4551, 13634.00
358.9372, 13537.13
359.4193, 13453.60
359.9014, 13371.75
360.3835, 13292.76
360.8657, 13210.99
361.3478, 13116.78
361.8299, 12977.29
362.3120, 12849.01
362.7941, 12763.13
363.2762, 12730.09
363.7584, 12692.09
364.2405, 12636.25
364.7226, 12567.88
365.2047, 12492.61
365.6868, 12396.13
366.1689, 12307.99
366.6511, 12233.87
367.1332, 12173.51
367.6153, 12126.91
368.0974, 12114.66
368.5795, 12103.11
369.0616, 12070.27
369.5438, 12002.23
370.0259, 11931.66
370.5080, 11858.26
370.9901, 11783.49
371.4722, 11717.60
371.9543, 11656.82
372.4365, 11609.15
372.9186, 11580.43
373.4007, 11575.46
373.8828, 11575.85
374.3649, 11583.06
374.8470, 11593.95
375.3292, 11601.21
375.8113, 11603.05
376.2934, 11607.15
376.7755, 11616.43
377.2576, 11630.94
377.7397, 11653.35
378.2219, 11688.53
378.7040, 11718.14
379.1861, 11709.27
379.6682, 11662.09
380.1503, 11626.15
380.6324, 11623.47
381.1146, 11642.54
381.5967, 11646.22
382.0788, 11633.97
382.5609, 11613.72
383.0430, 11590.92
383.5251, 11565.79
384.0073, 11538.84
384.4894, 11511.57
384.9715, 11480.99
385.4536, 11438.92
385.9357, 11388.43
386.4178, 11342.21
386.9000, 11318.11
387.3821, 11300.40
387.8642, 11267.15
388.3463, 11212.72
388.8284, 11150.60
389.3105, 11085.09
389.7927, 11019.69
390.2748, 10959.71
390.7569, 10911.02
391.2390, 10866.16
391.7211, 10818.05
392.2032, 10764.96
392.6854, 10722.50
393.1675, 10710.43
393.6496, 10707.63
394.1317, 10691.64
394.6138, 10639.61
395.0959, 10590.21
395.5781, 10549.93
396.0602, 10519.85
396.5423, 10509.38
397.0244, 10550.59
397.5065, 10591.56
397.9886, 10601.78
398.4708, 10533.00
398.9529, 10491.46
399.4350, 10487.25
399.9171, 10510.81
400.3992, 10537.98
400.8813, 10585.63
401.3635, 10614.71
401.8456, 10605.11
402.3277, 10542.69
402.8098, 10499.07
403.2919, 10479.67
403.7740, 10473.40
404.2562, 10464.15
404.7383, 10448.89
405.2204, 10441.77
405.7025, 10447.66
406.1846, 10465.31
406.6667, 10488.01
407.1489, 10517.87
407.6310, 10543.91
408.1131, 10552.40
408.5952, 10544.99
409.0773, 10542.97
409.5594, 10552.94
410.0416, 10566.56
410.5237, 10562.94
411.0058, 10544.41
411.4879, 10535.38
411.9700, 10558.09
412.4521, 10599.94
412.9343, 10636.50
413.4164, 10666.34
413.8985, 10687.78
414.3806, 10686.82
414.8628, 10676.48
415.3449, 10683.87
415.8270, 10739.25
416.3091, 10805.31
416.7912, 10851.29
417.2733, 10877.29
417.7555, 10895.95
418.2376, 10895.96
418.7197, 10901.00
419.2018, 10934.49
419.6839, 11041.21
420.1660, 11132.73
420.6482, 11165.37
421.1303, 11156.02
421.6124, 11160.30
422.0945, 11194.99
422.5766, 11243.26
423.0587, 11296.79
423.5409, 11351.06
424.0230, 11420.79
424.5051, 11525.94
424.9872, 11640.17
425.4693, 11724.35
425.9514, 11749.13
426.4336, 11786.59
426.9157, 11858.54
427.3978, 11965.13
427.8799, 12049.72
428.3620, 12099.13
428.8441, 12146.44
429.3263, 12220.02
429.8084, 12322.25
430.2905, 12434.00
430.7726, 12559.74
431.2547, 12686.38
431.7368, 12773.04
432.2190, 12816.42
432.7011, 12861.41
433.1832, 12942.16
433.6653, 13049.36
434.1474, 13132.10
434.6295, 13187.34
435.1117, 13225.40
435.5938, 13250.78
436.0759, 13267.55
436.5580, 13289.07
437.0401, 13335.78
437.5222, 13380.01
438.0044, 13382.82
438.4865, 13347.62
438.9686, 13305.01
439.4507, 13273.93
439.9328, 13246.98
440.4149, 13215.84
440.8971, 13176.34
441.3792, 13136.62
441.8613, 13110.02
442.3434, 13085.92
442.8255, 13041.40
443.3076, 12954.79
443.7898, 12858.20
444.2719, 12763.28
444.7540, 12670.11
445.2361, 12583.60
445.7182, 12506.10
446.2003, 12435.88
446.6825, 12370.48
447.1646, 12303.95
447.6467, 12249.66
448.1288, 12211.12
448.6109, 12186.78
449.0930, 12170.43
449.5752, 12169.68
450.0573, 12164.92
450.5394, 12144.38
451.0215, 12104.10
451.5036, 12062.71
451.9857, 12014.97
452.4679, 11974.22
452.9500, 11969.03
453.4321, 12002.10
453.9142, 12024.66
454.3963, 12011.99
454.8784, 11976.43
455.3606, 11962.70
455.8427, 11971.56
456.3248, 11984.75
456.8069, 11989.65
457.2890, 11986.64
457.7711, 11974.46
458.2533, 11947.33
458.7354, 11921.98
459.2175, 11924.98
459.6996, 11945.61
460.1817, 11953.09
460.6638, 11913.76
461.1460, 11866.14
461.6281, 11840.49
462.1102, 11841.34
462.5923, 11846.92
463.0744, 11858.73
463.5565, 11865.39
464.0387, 11855.40
464.5208, 11801.94
465.0029, 11756.83
465.4850, 11741.40
465.9671, 11748.63
466.4492, 11740.31
466.9314, 11708.81
467.4135, 11665.71
467.8956, 11610.65
468.3777, 11527.57
468.8598, 11478.88
469.3419, 11484.67
469.8241, 11507.92
470.3062, 11491.44
470.7883, 11417.77
471.2704, 11364.39
471.7525, 11357.51
472.2346, 11387.88
472.7168, 11404.54
473.1989, 11406.83
473.6810, 11399.00
474.1631, 11378.84
474.6452, 11349.56
475.1273, 11327.31
475.6095, 11314.28
476.0916, 11308.42
476.5737, 11308.88
477.0558, 11314.64
477.5379, 11322.38
478.0201, 11329.65
478.5022, 11338.59
478.9843, 11351.04
479.4664, 11367.07
479.9485, 11387.17
480.4306, 11417.34
480.9128, 11448.94
481.3949, 11473.88
481.8770, 11485.82
482.3591, 11496.82
482.8412, 11507.72
483.3233, 11520.53
483.8055, 11539.92
484.2876, 11575.39
484.7697, 11609.65
485.2518, 11634.65
485.7339, 11646.96
486.2160, 11671.59
486.6982, 11721.29
487.1803, 11771.44
487.6624, 11798.61
488.1445, 11791.51
488.6266, 11792.34
489.1087, 11809.41
489.5909, 11836.00
490.0730, 11851.70
490.5551, 11854.55
491.0372, 11858.89
491.5193, 11879.66
492.0014, 11911.43
492.4836, 11914.01
492.9657, 11882.93
493.4478, 11848.48
493.9299, 11846.95
494.4120, 11867.60
494.8941, 11879.99
495.3763, 11865.86
495.8584, 11850.66
496.3405, 11869.00
496.8226, 11911.89
497.3047, 11947.33
497.7868, 11949.93
498.2690, 11943.97
498.7511, 11947.14
499.2332, 11962.92
499.7153, 11980.63
500.1974, 11994.93
500.6795, 12009.81
501.1617, 12029.51
501.6438, 12070.36
502.1259, 12098.35
502.6080, 12098.88
503.0901, 12079.39
503.5722, 12075.28
504.0544, 12095.73
504.5365, 12119.25
505.0186, 12136.01
505.5007, 12143.76
505.9828, 12159.96
506.4649, 12191.97
506.9471, 12218.89
507.4292, 12205.05
507.9113, 12148.77
508.3934, 12114.07
508.8755, 12127.63
509.3576, 12163.52
509.8398, 12162.73
510.3219, 12127.89
510.8040, 12086.68
511.2861, 12062.57
511.7682, 12041.86
512.2504, 11997.88
512.7325, 11924.62
513.2146, 11856.67
513.6967, 11825.44
514.1788, 11813.37
514.6609, 11796.08
515.1431, 11758.10
515.6252, 11719.84
516.1073, 11691.57
516.5894, 11670.70
517.0715, 11646.79
517.5536, 11618.23
518.0358, 11585.56
518.5179, 11548.86
519.0000, 11508.07
519.4821, 11462.60
519.9642, 11404.56
520.4464, 11349.00
520.9285, 11313.44
521.4106, 11305.26
521.8927, 11293.87
522.3748, 11272.34
522.8569, 11244.97
523.3391, 11227.41
523.8212, 11221.01
524.3033, 11209.69
524.7854, 11180.92
525.2675, 11139.37
525.7496, 11101.43
526.2318, 11068.05
526.7139, 11038.01
527.1960, 11005.14
527.6781, 10975.84
528.1602, 10961.41
528.6423, 10970.96
529.1245, 10988.84
529.6066, 11015.21
530.0887, 11042.00
530.5708, 11047.40
531.0529, 11001.32
531.5350, 10948.32
532.0172, 10913.33
532.4993, 10901.00
532.9814, 10884.47
533.4635, 10851.00
533.9456, 10817.31
534.4277, 10795.56
534.9099, 10788.24
535.3920, 10789.38
535.8741, 10801.77
536.3562, 10820.85
536.8383, 10835.28
537.3204, 10844.09
537.8026, 10852.03
538.2847, 10859.55
538.7668, 10867.37
539.2489, 10886.25
539.7310, 10918.39
540.2131, 10939.26
540.6953, 10906.69
541.1774, 10846.79
541.6595, 10834.08
542.1416, 10894.87
542.6237, 10967.08
543.1058, 10979.31
543.5880, 10957.32
544.0701, 10953.97
544.5522, 11013.06
545.0343, 11079.12
545.5164, 11118.51
545.9985, 11132.65
546.4807, 11151.39
546.9628, 11190.38
547.4449, 11230.96
547.9270, 11262.07
548.4091, 11271.32
548.8912, 11294.99
549.3734, 11345.58
549.8555, 11402.28
550.3376, 11436.37
550.8197, 11441.26
551.3018, 11442.27
551.7839, 11441.10
552.2661, 11441.37
552.7482, 11458.43
553.2303, 11493.13
553.7124, 11532.13
554.1945, 11570.04
554.6766, 11605.82
555.1588, 11635.52
555.6409, 11658.06
556.1230, 11678.96
556.6051, 11712.98
557.0872, 11746.18
557.5693, 11754.65
558.0515, 11714.41
558.5336, 11672.17
559.0157, 11662.05
559.4978, 11671.42
559.9799, 11671.41
560.4620, 11651.04
560.9442, 11621.51
561.4263, 11579.89
561.9084, 11522.65
562.3905, 11490.38
562.8726, 11505.89
563.3547, 11524.14
563.8369, 11512.74
564.3190, 11458.83
564.8011, 11418.52
565.2832, 11395.17
565.7653, 11385.42
566.2474, 11389.35
566.7296, 11407.24
567.2117, 11413.77
567.6938, 11394.65
568.1759, 11363.29
568.6580, 11345.08
569.1401, 11339.80
569.6223, 11344.28
570.1044, 11365.64
570.5865, 11391.06
571.0686, 11404.84
571.5507, 11404.17
572.0328, 11401.26
572.5150, 11402.87
572.9971, 11405.60
573.4792, 11405.90
573.9613, 11382.35
574.4434, 11380.02
574.9255, 11430.05
575.4077, 11507.58
575.8898, 11541.90
576.3719, 11494.90
576.8540, 11464.76
577.3361, 11488.23
577.8182, 11564.50
578.3004, 11621.54
578.7825, 11656.15
579.2646, 11680.93
579.7467, 11698.34
580.2288, 11711.40
580.7109, 11746.06
581.1931, 11810.43
581.6752, 11876.93
582.1573, 11900.35
582.6394, 11899.94
583.1215, 11921.95
583.6036, 12004.04
584.0858, 12095.85
584.5679, 12153.90
585.0500, 12187.60
585.5321, 12232.03
586.0142, 12320.20
586.4963, 12406.59
586.9785, 12459.61
587.4606, 12461.86
587.9427, 12508.45
588.4248, 12636.05
588.9069, 12780.25
589.3890, 12889.20
589.8712, 12942.91
590.3533, 13023.24
590.8354, 13146.29
591.3175, 13285.90
591.7996, 13389.58
592.2817, 13457.08
592.7639, 13531.49
593.2460, 13631.80
593.7281, 13747.77
594.2102, 13848.59
594.6923, 13938.64
595.1744, 14042.50
595.6566, 14192.04
596.1387, 14355.17
596.6208, 14498.32
597.1029, 14614.73
597.5850, 14725.26
598.0671, 14843.77
598.5493, 14958.22
599.0314, 15055.64
599.5135, 15102.72
599.9956, 15173.20
600.4777, 15289.91
600.9598, 15429.10
601.4420, 15542.52
601.9241, 15619.46
602.4062, 15690.43
602.8883, 15764.00
603.3704, 15838.33
603.8525, 15901.41
604.3347, 15951.07
604.8168, 16011.41
605.2989, 16114.33
605.7810, 16241.33
606.2631, 16337.44
606.7452, 16396.81
607.2274, 16444.04
607.7095, 16482.62
608.1916, 16527.67
608.6737, 16602.82
609.1558, 16747.25
609.6379, 16874.65
610.1201, 16935.62
610.6022, 16955.12
611.0843, 16986.27
611.5664, 17041.82
612.0485, 17107.61
612.5306, 17188.55
613.0128, 17281.56
613.4949, 17349.40
613.9770, 17383.84
614.4591, 17410.16
614.9412, 17439.23
615.4233, 17471.16
615.9055, 17520.91
616.3876, 17594.79
616.8697, 17654.90
617.3518, 17641.62
617.8339, 17581.67
618.3160, 17554.04
618.7982, 17587.71
619.2803, 17633.50
619.7624, 17657.54
620.2445, 17659.22
620.7266, 17637.20
621.2087, 17559.22
621.6909, 17488.64
622.1730, 17457.80
622.6551, 17462.04
623.1372, 17458.54
623.6193, 17451.35
624.1014, 17426.30
624.5836, 17372.95
625.0657, 17284.46
625.5478, 17212.72
626.0299, 17164.56
626.5120, 17116.29
626.9941, 17037.72
627.4763, 16932.20
627.9584, 16851.77
628.4405, 16809.14
628.9226, 16775.77
629.4047, 16714.59
629.8868, 16633.49
630.3690, 16550.95
630.8511, 16476.72
631.3332, 16401.62
631.8153, 16315.22
632.2974, 16221.31
632.7795, 16134.80
633.2617, 16070.92
633.7438, 16006.41
634.2259, 15928.52
634.7080, 15834.15
635.1901, 15751.79
635.6722, 15684.42
636.1544, 15626.34
636.6365, 15576.80
637.1186, 15539.14
637.6007, 15490.44
638.0828, 15427.49
638.5649, 15359.98
639.0471, 15298.66
639.5292, 15243.22
640.0113, 15195.04
640.4934, 15155.81
640.9755, 15121.49
641.4576, 15083.44
641.9398, 15046.97
642.4219, 15025.85
642.9040, 15045.00
643.3861, 15063.43
643.8682, 15056.52
644.3503, 15026.20
644.8325, 15002.29
645.3146, 14984.75
645.7967, 14979.17
646.2788, 14994.15
646.7609, 15038.01
647.2430, 15047.31
647.7252, 15010.67
648.2073, 14964.62
648.6894, 14938.04
649.1715, 14931.04
649.6536, 14949.15
650.1357, 14998.11
650.6179, 15055.15
651.1000, 15093.65
651.5821, 15118.67
652.0642, 15139.86
652.5463, 15153.19
653.0284, 15172.78
653.5106, 15208.77
653.9927, 15258.14
654.4748, 15312.36
654.9569, 15383.92
655.4390, 15445.80
655.9211, 15484.79
656.4033, 15501.92
656.8854, 15523.40
657.3675, 15553.34
657.8496, 15580.65
658.3317, 15594.92
658.8138, 15595.19
659.2960, 15611.68
659.7781, 15645.03
660.2602, 15693.08
660.7423, 15765.33
661.2244, 15850.17
661.7065, 15918.07
662.1887, 15959.44
662.6708, 15994.06
663.1529, 16034.55
663.6350, 16079.47
664.1171, 16127.28
664.5992, 16172.49
665.0814, 16225.95
665.5635, 16302.48
666.0456, 16391.01
666.5277, 16451.03
667.0098, 16452.42
667.4919, 16475.64
667.9741, 16547.91
668.4562, 16664.66
668.9383, 16787.88
669.4204, 16920.47
669.9025, 17040.45
670.3846, 17127.27
670.8668, 17190.68
671.3489, 17253.51
671.8310, 17316.57
672.3131, 17385.11
672.7952, 17462.86
