##NAMES=Strontianite
##RRUFFID=R050564
##IDEAL CHEMISTRY=SrCO_3_
##LOCALITY=Winfield Quarry, Lancaster County, Pennsylvania, USA
##OWNER=RRUFF
##SOURCE=Dave Bunk Minerals
##DESCRIPTION=Colorless prismatic crystals
##STATUS=The identification of this mineral has been confirmed by X-ray diffraction and chemical analysis
##URL=rruff.info/R050564
##MEASURED CHEMISTRY=(Sr_0.85_Ca_0.15_)CO_3_
92.06543, 237.9845
92.54755, 235.6857
93.02966, 236.2727
93.51178, 239.2802
93.99390, 241.2926
94.47601, 242.3045
94.95813, 242.6533
95.44025, 242.7261
95.92236, 242.8075
96.40448, 242.8189
96.88660, 242.8664
97.36871, 242.5540
97.85082, 242.7143
98.33294, 243.8874
98.81506, 245.9812
99.29717, 248.3441
99.77929, 251.6892
100.2614, 255.9873
100.7435, 260.3476
101.2256, 265.7394
101.7078, 271.0168
102.1899, 273.3587
102.6720, 271.5758
103.1541, 267.3328
103.6362, 262.4124
104.1183, 256.8191
104.6005, 250.9660
105.0826, 244.8009
105.5647, 238.0566
106.0468, 232.7382
106.5289, 229.6625
107.0110, 227.7896
107.4931, 226.6879
107.9753, 226.2135
108.4574, 226.4668
108.9395, 227.2739
109.4216, 229.0597
109.9037, 231.3741
110.3858, 234.4265
110.8680, 237.8183
111.3501, 241.0538
111.8322, 243.8521
112.3143, 246.3550
112.7964, 249.6003
113.2785, 254.3047
113.7607, 258.9207
114.2428, 263.0854
114.7249, 266.8366
115.2070, 270.3503
115.6891, 273.6144
116.1712, 276.7137
116.6534, 280.4213
117.1355, 284.8909
117.6176, 289.8271
118.0997, 294.5909
118.5818, 299.0607
119.0639, 304.7390
119.5461, 313.5262
120.0282, 324.7344
120.5103, 336.8335
120.9924, 349.1215
121.4745, 361.9736
121.9566, 376.2695
122.4388, 391.7333
122.9209, 409.4572
123.4030, 429.7424
123.8851, 452.3441
124.3672, 476.7767
124.8493, 502.4184
125.3315, 529.2841
125.8136, 557.8888
126.2957, 589.6301
126.7778, 622.0609
127.2599, 655.1540
127.7420, 688.3306
128.2242, 720.7167
128.7063, 750.9464
129.1884, 779.1409
129.6705, 804.6588
130.1526, 826.8953
130.6347, 847.5159
131.1169, 867.3717
131.5990, 886.8316
132.0811, 906.0784
132.5632, 925.4593
133.0453, 943.5244
133.5274, 963.7649
134.0096, 986.5374
134.4917, 1011.565
134.9738, 1038.541
135.4559, 1067.543
135.9380, 1098.193
136.4201, 1128.796
136.9023, 1159.020
137.3844, 1189.677
137.8665, 1220.984
138.3486, 1252.891
138.8307, 1285.326
139.3128, 1317.825
139.7950, 1350.866
140.2771, 1384.757
140.7592, 1419.689
141.2413, 1455.459
141.7234, 1492.249
142.2055, 1530.141
142.6877, 1567.872
143.1698, 1604.205
143.6519, 1639.907
144.1340, 1676.448
144.6161, 1716.064
145.0982, 1755.911
145.5803, 1789.825
146.0625, 1821.483
146.5446, 1839.117
147.0267, 1843.582
147.5088, 1833.509
147.9909, 1806.789
148.4730, 1761.438
148.9552, 1697.630
149.4373, 1622.197
149.9194, 1522.871
150.4015, 1421.214
150.8836, 1318.346
151.3657, 1217.228
151.8479, 1120.867
152.3300, 1032.544
152.8121, 951.3992
153.2942, 880.8666
153.7763, 820.0534
154.2584, 767.3076
154.7406, 722.3935
155.2227, 685.0180
155.7048, 653.6883
156.1869, 627.0222
156.6690, 606.0580
157.1511, 588.8647
157.6333, 575.9816
158.1154, 566.4095
158.5975, 559.6745
159.0796, 555.6990
159.5617, 553.8585
160.0438, 553.7555
160.5260, 555.3174
161.0081, 557.9323
161.4902, 561.6191
161.9723, 566.2619
162.4544, 571.7199
162.9365, 578.0211
163.4187, 585.0026
163.9008, 592.7158
164.3829, 601.1006
164.8650, 609.0608
165.3471, 615.1823
165.8292, 619.9200
166.3113, 626.2244
166.7935, 635.0530
167.2756, 645.5500
167.7577, 656.8584
168.2398, 668.9655
168.7219, 682.1667
169.2040, 696.5676
169.6862, 712.0651
170.1683, 729.2766
170.6504, 748.5612
171.1325, 769.3978
171.6146, 791.8032
172.0967, 815.7053
172.5789, 841.0184
173.0610, 867.6715
173.5431, 895.8775
174.0252, 925.1223
174.5073, 956.4384
174.9894, 988.1379
175.4716, 1018.888
175.9537, 1048.188
176.4358, 1077.004
176.9179, 1107.260
177.4000, 1141.277
177.8821, 1173.581
178.3643, 1205.034
178.8464, 1234.371
179.3285, 1260.655
179.8106, 1283.614
180.2927, 1302.546
180.7748, 1315.062
181.2570, 1325.551
181.7391, 1324.364
182.2212, 1308.873
182.7033, 1281.223
183.1854, 1243.962
183.6675, 1197.727
184.1497, 1143.703
184.6318, 1084.572
185.1139, 1019.150
185.5960, 952.1266
186.0781, 883.0436
186.5602, 813.3829
187.0423, 747.1154
187.5245, 686.1093
188.0066, 630.7506
188.4887, 579.7375
188.9708, 533.2486
189.4529, 491.0338
189.9350, 453.4577
190.4172, 420.5174
190.8993, 390.5195
191.3814, 362.9745
191.8635, 338.2955
192.3456, 316.5665
192.8277, 298.3517
193.3099, 282.2361
193.7920, 266.6700
194.2741, 251.4806
194.7562, 237.9637
195.2383, 227.6669
195.7204, 218.9544
196.2026, 210.6859
196.6847, 202.5045
197.1668, 194.7270
197.6489, 187.8696
198.1310, 182.1359
198.6131, 176.7933
199.0953, 171.7359
199.5774, 166.8601
200.0595, 162.2355
200.5416, 157.9024
201.0237, 153.5988
201.5058, 148.6713
201.9880, 142.3957
202.4701, 136.8046
202.9522, 132.3306
203.4343, 128.5882
203.9164, 125.2458
204.3985, 122.1552
204.8807, 119.3520
205.3628, 116.9760
205.8449, 115.3595
206.3270, 113.7986
206.8091, 112.1505
207.2912, 110.5416
207.7733, 109.1425
208.2555, 108.0493
208.7376, 107.1671
209.2197, 106.1433
209.7018, 104.5188
210.1839, 103.2760
210.6660, 102.7423
211.1482, 102.6073
211.6303, 102.3396
212.1124, 101.6259
212.5945, 100.7449
213.0766, 100.8923
213.5587, 103.1358
214.0409, 105.0558
214.5230, 105.9076
215.0051, 106.1360
215.4872, 106.5963
215.9693, 107.7661
216.4514, 109.3874
216.9336, 110.4380
217.4157, 110.5513
217.8978, 110.7185
218.3799, 111.4669
218.8620, 112.5360
219.3441, 113.2851
219.8263, 113.4008
220.3084, 112.9815
220.7905, 112.3212
221.2726, 111.2064
221.7547, 110.2324
222.2368, 109.7035
222.7190, 109.5659
223.2011, 109.5860
223.6832, 109.6137
224.1653, 109.8220
224.6474, 110.3952
225.1295, 111.2563
225.6117, 112.6318
226.0938, 115.0092
226.5759, 118.2479
227.0580, 121.0643
227.5401, 122.5955
228.0222, 123.7694
228.5043, 125.8183
228.9865, 128.9457
229.4686, 132.3197
229.9507, 134.9756
230.4328, 136.9180
230.9149, 139.6763
231.3970, 144.2831
231.8792, 149.5174
232.3613, 154.3935
232.8434, 158.7787
233.3255, 162.9659
233.8076, 167.0322
234.2897, 170.9125
234.7719, 175.4477
235.2540, 181.9014
235.7361, 188.3826
236.2182, 193.6914
236.7003, 197.6747
237.1824, 200.9649
237.6646, 204.4406
238.1467, 208.3645
238.6288, 211.0672
239.1109, 211.3579
239.5930, 211.0019
240.0751, 210.8266
240.5573, 210.9482
241.0394, 211.0374
241.5215, 210.6494
242.0036, 209.6185
242.4857, 208.7725
242.9678, 208.6366
243.4500, 208.3148
243.9321, 207.4473
244.4142, 205.9504
244.8963, 203.8602
245.3784, 201.3633
245.8605, 198.7864
246.3427, 194.5281
246.8248, 187.6038
247.3069, 179.9790
247.7890, 172.3061
248.2711, 164.7637
248.7532, 157.4345
249.2354, 150.2665
249.7175, 143.1578
250.1996, 136.7829
250.6817, 131.0677
251.1638, 126.0480
251.6459, 122.0180
252.1281, 118.7978
252.6102, 115.8287
253.0923, 112.5049
253.5744, 108.6900
254.0565, 105.4836
254.5386, 103.1696
255.0208, 101.0727
255.5029, 98.71167
255.9850, 96.23131
256.4671, 94.22298
256.9492, 93.27654
257.4313, 93.53791
257.9135, 93.16817
258.3956, 91.84492
258.8777, 90.36118
259.3598, 88.96201
259.8419, 87.67800
260.3240, 86.47117
260.8062, 85.30766
261.2883, 84.18750
261.7704, 83.23152
262.2525, 82.86210
262.7346, 82.19321
263.2167, 80.69381
263.6989, 78.57670
264.1810, 76.41181
264.6631, 74.50503
265.1452, 72.87835
265.6273, 71.72290
266.1094, 71.70278
266.5916, 71.35415
267.0737, 69.92421
267.5558, 67.75487
268.0379, 65.59500
268.5200, 63.78059
269.0021, 62.35887
269.4843, 61.55248
269.9664, 61.94220
270.4485, 62.10505
270.9306, 61.43871
271.4127, 60.22614
271.8948, 59.05431
272.3770, 58.17458
272.8591, 57.49855
273.3412, 56.78172
273.8233, 55.97877
274.3054, 55.23455
274.7875, 54.61901
275.2697, 54.09125
275.7518, 53.58748
276.2339, 53.09415
276.7160, 52.59266
277.1981, 51.98632
277.6802, 51.17680
278.1623, 50.64789
278.6444, 50.86560
279.1266, 51.38100
279.6087, 51.36455
280.0908, 50.53006
280.5729, 49.41223
281.0550, 48.70471
281.5371, 48.37634
282.0193, 48.22686
282.5014, 48.27263
282.9835, 48.44608
283.4656, 48.72180
283.9477, 49.13512
284.4298, 49.42667
284.9120, 49.19650
285.3941, 48.52354
285.8762, 47.97771
286.3583, 47.85771
286.8404, 47.84108
287.3225, 47.40850
287.8047, 46.45327
288.2868, 45.66117
288.7689, 45.79062
289.2510, 46.57357
289.7331, 47.04706
290.2152, 46.81128
290.6974, 46.34568
291.1795, 46.16251
291.6616, 46.27991
292.1437, 46.37034
292.6258, 46.16684
293.1079, 45.80593
293.5901, 45.62398
294.0722, 45.81230
294.5543, 46.01143
295.0364, 45.91975
295.5185, 45.54663
296.0006, 45.04742
296.4828, 44.36571
296.9649, 43.68251
297.4470, 43.31365
297.9291, 43.37907
298.4112, 43.49982
298.8933, 43.34043
299.3755, 42.96652
299.8576, 42.79033
300.3397, 43.01027
300.8218, 43.43359
301.3039, 43.79485
301.7860, 44.09123
302.2682, 44.34533
302.7503, 44.58661
303.2324, 44.79964
303.7145, 44.96120
304.1966, 45.13235
304.6787, 45.12653
305.1609, 44.60648
305.6430, 43.64136
306.1251, 42.89447
306.6072, 42.82622
307.0893, 43.15601
307.5714, 43.28306
308.0536, 43.11945
308.5357, 42.81449
309.0178, 42.33911
309.4999, 41.79529
309.9820, 41.50884
310.4641, 41.83363
310.9463, 42.37871
311.4284, 42.48046
311.9105, 42.03059
312.3926, 41.67400
312.8747, 42.09294
313.3568, 42.84661
313.8390, 43.09779
314.3211, 42.27022
314.8032, 41.31704
315.2853, 41.41615
315.7674, 42.59216
316.2495, 43.50307
316.7317, 43.39902
317.2138, 42.73075
317.6959, 42.20256
318.1780, 41.87739
318.6601, 41.65388
319.1422, 41.57064
319.6243, 41.57985
320.1064, 41.29605
320.5886, 40.36136
321.0707, 39.35882
321.5528, 39.01979
322.0349, 39.37204
322.5170, 39.85833
322.9991, 40.32957
323.4813, 40.71526
323.9634, 40.78219
324.4455, 40.40932
324.9276, 39.87748
325.4097, 39.45562
325.8918, 39.12126
326.3740, 38.78032
326.8561, 38.31503
327.3382, 37.85030
327.8203, 37.53008
328.3024, 37.33467
328.7845, 37.45338
329.2667, 38.46365
329.7488, 39.90512
330.2309, 40.59037
330.7130, 39.72381
331.1951, 38.41296
331.6772, 37.75509
332.1594, 37.74109
332.6415, 37.80735
333.1236, 37.62829
333.6057, 37.36239
334.0878, 37.34810
334.5699, 37.70953
335.0521, 38.11293
335.5342, 38.25060
336.0163, 38.21814
336.4984, 38.51717
336.9805, 39.53688
337.4626, 40.65133
337.9448, 40.76288
338.4269, 39.73505
338.9090, 38.89187
339.3911, 39.10920
339.8732, 39.80483
340.3553, 39.74368
340.8375, 38.54341
341.3196, 37.14644
341.8017, 36.71201
342.2838, 37.13703
342.7659, 37.37818
343.2480, 37.08836
343.7302, 36.60520
344.2123, 36.23565
344.6944, 36.00736
345.1765, 35.94753
345.6586, 36.13704
346.1407, 36.53422
346.6229, 36.81961
347.1050, 36.92141
347.5871, 36.97101
348.0692, 37.02208
348.5513, 37.08057
349.0334, 37.17777
349.5156, 37.34588
349.9977, 37.54213
350.4798, 37.66171
350.9619, 37.76847
351.4440, 37.70382
351.9261, 37.20465
352.4083, 36.54830
352.8904, 36.26197
353.3725, 36.53912
353.8546, 36.97279
354.3367, 36.93590
354.8188, 36.27545
355.3010, 35.80259
355.7831, 35.62422
356.2652, 35.64132
356.7473, 35.90847
357.2294, 36.38152
357.7115, 36.63507
358.1937, 36.15468
358.6758, 34.90358
359.1579, 34.61835
359.6400, 36.37378
360.1221, 37.95179
360.6042, 38.10942
361.0863, 37.18622
361.5685, 36.15078
362.0506, 35.50837
362.5327, 35.22784
363.0148, 35.20493
363.4969, 35.87688
363.9790, 36.24370
364.4612, 35.92816
364.9433, 35.32201
365.4254, 34.90031
365.9075, 34.81804
366.3896, 34.91651
366.8717, 34.94658
367.3539, 34.87278
367.8360, 34.80504
368.3181, 34.78233
368.8002, 34.73620
369.2823, 34.56511
369.7644, 34.30099
370.2466, 34.12255
370.7287, 34.23425
371.2108, 34.67372
371.6929, 34.71611
372.1750, 33.84351
372.6571, 33.15585
373.1393, 32.99187
373.6214, 33.23449
374.1035, 33.73604
374.5856, 34.44571
375.0677, 35.17084
375.5498, 35.25327
376.0320, 34.07212
376.5141, 33.14376
376.9962, 32.46026
377.4783, 32.13988
377.9604, 32.49877
378.4425, 33.52687
378.9247, 34.62300
379.4068, 34.88403
379.8889, 33.97302
380.3710, 33.40499
380.8531, 33.41784
381.3352, 33.56055
381.8174, 33.66126
382.2995, 33.72507
382.7816, 33.84582
383.2637, 34.13887
383.7458, 34.55055
384.2279, 34.68623
384.7101, 34.35773
385.1922, 34.02731
385.6743, 33.76203
386.1564, 33.60102
386.6385, 33.65594
387.1206, 34.01274
387.6028, 34.37695
388.0849, 34.12481
388.5670, 33.02612
389.0491, 32.42336
389.5312, 33.17769
390.0133, 34.14877
390.4955, 34.53168
390.9776, 34.29696
391.4597, 34.06636
391.9418, 34.62360
392.4239, 35.72433
392.9060, 35.70679
393.3882, 33.65961
393.8703, 31.91500
394.3524, 32.47693
394.8345, 34.42260
395.3166, 35.77989
395.7987, 35.59145
396.2809, 34.63253
396.7630, 33.79156
397.2451, 33.04488
397.7272, 32.72075
398.2093, 33.26211
398.6914, 34.14824
399.1736, 34.51534
399.6557, 34.19268
400.1378, 33.83006
400.6199, 33.85273
401.1020, 34.13209
401.5841, 34.31784
402.0662, 34.31810
402.5483, 34.24404
403.0305, 34.23991
403.5126, 34.30009
403.9947, 34.26796
404.4768, 33.92094
404.9589, 33.59843
405.4410, 33.73842
405.9232, 34.30342
406.4053, 34.75730
406.8874, 34.72465
407.3695, 34.29742
407.8516, 33.97789
408.3337, 33.61307
408.8159, 33.51255
409.2980, 34.10206
409.7801, 34.94002
410.2622, 35.25458
410.7443, 34.77354
411.2264, 33.92298
411.7086, 33.37273
412.1907, 33.24401
412.6728, 33.15851
413.1549, 32.84465
413.6370, 32.78372
414.1191, 33.63493
414.6013, 35.15955
415.0834, 36.32099
415.5655, 36.22230
416.0476, 34.96205
416.5297, 34.26839
417.0118, 34.65934
417.4940, 35.04801
417.9761, 35.38677
418.4582, 35.57673
418.9403, 35.36816
419.4224, 34.68805
419.9045, 33.98594
420.3867, 34.20780
420.8688, 36.04313
421.3509, 36.94212
421.8330, 35.90968
422.3151, 34.72544
422.7972, 34.30055
423.2794, 34.60963
423.7615, 35.17645
424.2436, 35.80097
424.7257, 36.38319
425.2078, 36.12452
425.6899, 34.25809
426.1721, 32.90918
426.6542, 33.20445
427.1363, 34.22265
427.6184, 34.88564
428.1005, 34.83559
428.5826, 34.46672
429.0648, 34.20491
429.5469, 34.04914
430.0290, 33.97226
430.5111, 34.13691
430.9932, 34.17949
431.4753, 33.64721
431.9575, 32.63051
432.4396, 31.86891
432.9217, 31.86721
433.4038, 32.29324
433.8859, 32.62939
434.3680, 32.85401
434.8502, 32.95585
435.3323, 32.94034
435.8144, 32.77754
436.2965, 32.40049
436.7786, 31.52740
437.2607, 30.86263
437.7429, 31.01941
438.2250, 31.65615
438.7071, 31.97287
439.1892, 31.70818
439.6713, 31.14233
440.1534, 30.58126
440.6356, 29.94196
441.1177, 29.75860
441.5998, 30.65656
442.0819, 31.54979
442.5640, 31.48605
443.0461, 30.62459
443.5282, 29.85799
444.0103, 29.81312
444.4925, 30.33149
444.9746, 30.52476
445.4567, 30.06455
445.9388, 29.68011
446.4209, 29.52998
446.9030, 29.44970
447.3852, 29.06107
447.8673, 28.36009
448.3494, 28.02162
448.8315, 29.20661
449.3136, 32.59032
449.7957, 34.08170
450.2779, 31.48339
450.7600, 29.13220
451.2421, 28.77790
451.7242, 29.73163
452.2063, 30.51006
452.6884, 30.28948
453.1706, 29.46723
453.6527, 28.98500
454.1348, 28.97152
454.6169, 28.89745
455.0990, 28.37407
455.5811, 27.91949
456.0633, 28.06578
456.5454, 28.80821
457.0275, 29.37777
457.5096, 29.01608
457.9917, 28.00782
458.4738, 27.34352
458.9560, 27.08738
459.4381, 27.16545
459.9202, 27.81213
460.4023, 28.72282
460.8844, 29.32629
461.3665, 29.45709
461.8487, 29.35214
462.3308, 29.13063
462.8129, 28.80976
463.2950, 28.39095
463.7771, 27.79893
464.2592, 27.31328
464.7414, 27.45939
465.2235, 28.37305
465.7056, 28.90924
466.1877, 28.60023
466.6698, 28.12942
467.1519, 28.15265
467.6341, 28.57139
468.1162, 28.73056
468.5983, 28.15455
469.0804, 27.06865
469.5625, 26.53415
470.0446, 27.05395
470.5268, 27.50097
471.0089, 27.81165
471.4910, 28.00305
471.9731, 28.06833
472.4552, 28.01956
472.9373, 27.90570
473.4195, 27.75263
473.9016, 27.54434
474.3837, 27.51751
474.8658, 27.92637
475.3479, 28.23848
475.8300, 28.33281
476.3122, 28.23150
476.7943, 27.93556
477.2764, 27.42364
477.7585, 26.86139
478.2406, 26.48689
478.7227, 26.30910
479.2049, 26.25234
479.6870, 26.32696
480.1691, 26.50761
480.6512, 26.79246
481.1333, 27.16498
481.6154, 27.55580
482.0976, 28.03184
482.5797, 28.46275
483.0618, 28.63376
483.5439, 28.54006
484.0260, 28.28677
484.5081, 27.78746
484.9902, 27.25773
485.4724, 27.17648
485.9545, 27.71105
486.4366, 28.16620
486.9187, 28.30344
487.4008, 28.22668
487.8829, 28.03716
488.3651, 27.76029
488.8472, 27.46248
489.3293, 27.20650
489.8114, 26.99025
490.2935, 26.73181
490.7756, 26.30362
491.2578, 25.98944
491.7399, 25.90692
492.2220, 25.97164
492.7041, 26.09550
493.1862, 26.24174
493.6683, 26.37737
494.1505, 26.44673
494.6326, 26.42470
495.1147, 26.43556
495.5968, 26.55194
496.0789, 26.62977
496.5610, 26.65690
497.0432, 26.60070
497.5253, 26.36644
498.0074, 25.85445
498.4895, 25.29365
498.9716, 25.19798
499.4537, 25.67395
499.9359, 25.92981
500.4180, 25.61550
500.9001, 25.16008
501.3822, 24.83800
501.8643, 24.67013
502.3464, 24.75363
502.8286, 25.40917
503.3107, 26.21914
503.7928, 26.50379
504.2749, 26.24102
504.7570, 25.88358
505.2391, 25.60475
505.7213, 25.43760
506.2034, 25.54935
506.6855, 26.31480
507.1676, 26.47909
507.6497, 24.92052
508.1318, 23.01091
508.6140, 22.39368
509.0961, 23.22951
509.5782, 24.57926
510.0603, 25.70101
510.5424, 26.58929
511.0245, 27.07807
511.5067, 26.92588
511.9888, 26.66076
512.4709, 26.21138
512.9530, 25.77001
513.4351, 25.55138
513.9172, 25.60345
514.3994, 25.79073
514.8815, 25.97554
515.3636, 26.16254
515.8457, 26.29462
516.3278, 26.36278
516.8099, 26.38390
517.2921, 26.42220
517.7742, 26.40856
518.2563, 26.18816
518.7384, 25.63852
519.2205, 25.10877
519.7026, 25.06720
520.1848, 25.44194
520.6669, 25.64700
521.1490, 25.49022
521.6311, 25.27832
522.1132, 25.40213
522.5953, 25.78303
523.0775, 25.96957
523.5596, 25.67690
524.0417, 25.35189
524.5238, 25.40761
525.0059, 25.69448
525.4880, 25.73479
525.9702, 25.31135
526.4523, 24.71087
526.9344, 24.43424
527.4165, 24.68670
527.8986, 24.73513
528.3807, 24.31956
528.8629, 23.95853
529.3450, 23.99716
529.8271, 24.32127
530.3092, 24.64971
530.7913, 24.83558
531.2734, 24.86549
531.7556, 24.64941
532.2377, 24.02309
532.7198, 23.61965
533.2019, 23.67940
533.6840, 23.86776
534.1661, 24.08966
534.6483, 24.29642
535.1304, 24.35915
535.6125, 24.02828
536.0946, 23.61897
536.5767, 23.86538
537.0588, 24.81372
537.5410, 25.39629
538.0231, 24.96816
538.5052, 24.17676
538.9873, 24.13881
539.4694, 24.97731
539.9515, 25.51295
540.4337, 25.17340
540.9158, 24.54453
541.3979, 24.10904
541.8800, 23.92416
542.3621, 24.03649
542.8442, 24.53433
543.3264, 25.23631
543.8085, 25.52479
544.2906, 25.23642
544.7726, 24.71933
545.2548, 23.42062
545.7369, 22.32577
546.2190, 22.34505
546.7011, 23.32551
547.1832, 24.42239
547.6653, 25.02460
548.1475, 25.21050
548.6296, 25.25335
549.1117, 25.10119
549.5938, 24.94336
550.0759, 24.76213
550.5580, 24.64466
551.0402, 24.72745
551.5223, 25.00111
552.0044, 25.18049
552.4865, 25.08405
552.9686, 24.79217
553.4507, 24.36974
553.9329, 23.81891
554.4150, 23.43600
554.8971, 23.44359
555.3792, 23.66792
555.8613, 23.64586
556.3434, 23.25952
556.8256, 22.97309
557.3077, 22.76833
557.7898, 22.77324
558.2719, 23.28492
558.7540, 24.18167
559.2361, 24.90896
559.7183, 25.06924
560.2004, 24.78668
560.6825, 24.60167
561.1646, 24.73869
561.6467, 24.57715
562.1288, 23.71186
562.6110, 22.83819
563.0931, 22.52114
563.5752, 22.71128
564.0573, 22.89484
564.5394, 22.63996
565.0215, 22.16419
565.5037, 22.05098
565.9858, 22.34548
566.4679, 22.71762
566.9500, 23.13113
567.4321, 23.48957
567.9142, 23.65062
568.3964, 23.59982
568.8785, 23.56753
569.3606, 23.62856
569.8427, 23.74584
570.3248, 23.98615
570.8069, 24.28117
571.2891, 24.27524
571.7712, 23.71513
572.2533, 22.91691
572.7354, 22.70720
573.2175, 23.90411
573.6996, 24.21738
574.1818, 22.55831
574.6639, 21.03537
575.1460, 21.23471
575.6281, 22.67721
576.1102, 23.84032
576.5923, 23.79342
577.0745, 23.07419
577.5566, 22.91511
578.0387, 23.46000
578.5208, 23.77731
579.0029, 23.58606
579.4850, 23.21185
579.9672, 22.77103
580.4493, 22.33521
580.9314, 22.19942
581.4135, 22.86882
581.8956, 23.55387
582.3777, 23.22450
582.8599, 22.19558
583.3420, 21.75801
583.8241, 22.42681
584.3062, 23.48074
584.7883, 23.96445
585.2704, 23.76276
585.7526, 23.49304
586.2347, 22.99810
586.7168, 22.60530
587.1989, 22.53390
587.6810, 22.63438
588.1631, 22.62864
588.6453, 22.42248
589.1274, 22.22356
