##NAMES=Strontianite
##RRUFFID=R050476
##IDEAL CHEMISTRY=SrCO_3_
##LOCALITY=Fidalgo Island, Puget Sound, Washington, USA
##OWNER=RRUFF
##SOURCE=California Institute of Technology
##DESCRIPTION=Aggregate of colorless spheres
##STATUS=The identification of this mineral has been confirmed by X-ray diffraction and chemical analysis
##URL=rruff.info/R050476
##MEASURED CHEMISTRY=(Sr_0.86_Ca_0.14_)CO_3_
93.78320, 70.58446
94.26532, 69.82874
94.74744, 70.11234
95.22955, 71.26730
95.71167, 72.88206
96.19379, 73.92034
96.67590, 74.43813
97.15802, 74.83180
97.64014, 74.91624
98.12225, 74.93784
98.60437, 75.43262
99.08649, 76.79001
99.56860, 78.42263
100.0507, 79.38042
100.5328, 79.43072
101.0150, 79.34909
101.4971, 79.75508
101.9792, 80.67876
102.4613, 81.51427
102.9434, 81.92104
103.4255, 82.18078
103.9077, 82.50562
104.3898, 82.97862
104.8719, 83.48339
105.3540, 83.77263
105.8361, 83.71714
106.3182, 83.64568
106.8004, 83.65057
107.2825, 83.67818
107.7646, 83.64584
108.2467, 83.49177
108.7288, 83.22880
109.2109, 83.06188
109.6931, 82.76295
110.1752, 82.77318
110.6573, 83.31772
111.1394, 84.29734
111.6215, 85.47124
112.1036, 86.66408
112.5858, 87.90478
113.0679, 88.80371
113.5500, 88.99495
114.0321, 89.12424
114.5142, 89.76747
114.9964, 91.01382
115.4785, 92.30466
115.9606, 92.95896
116.4427, 93.01981
116.9248, 92.90591
117.4069, 92.71620
117.8891, 92.41392
118.3712, 91.85849
118.8533, 90.84827
119.3354, 89.86083
119.8175, 89.24905
120.2996, 88.99669
120.7818, 89.09170
121.2639, 89.55340
121.7460, 90.38573
122.2281, 91.46677
122.7102, 93.02856
123.1923, 94.68473
123.6745, 96.21394
124.1566, 97.58715
124.6387, 98.93910
125.1208, 100.4209
125.6029, 101.8646
126.0850, 103.8630
126.5672, 106.5120
127.0493, 109.5750
127.5314, 112.9424
128.0135, 116.5750
128.4956, 120.3248
128.9777, 123.8605
129.4599, 127.0220
129.9420, 130.0890
130.4241, 132.9428
130.9062, 135.7431
131.3883, 138.6898
131.8705, 141.8891
132.3526, 145.3600
132.8347, 149.2404
133.3168, 153.9579
133.7989, 158.5753
134.2810, 162.7108
134.7632, 166.4129
135.2453, 169.8914
135.7274, 173.0324
136.2095, 176.1405
136.6916, 180.0796
137.1737, 185.3818
137.6559, 191.2541
138.1380, 197.0101
138.6201, 202.6661
139.1022, 208.1629
139.5843, 213.2597
140.0664, 218.2422
140.5486, 223.4920
141.0307, 229.3223
141.5128, 235.5253
141.9949, 241.3297
142.4770, 246.2968
142.9591, 251.5795
143.4413, 257.7103
143.9234, 264.4284
144.4055, 271.3534
144.8876, 278.3956
145.3697, 285.5520
145.8518, 291.5806
146.3340, 295.4506
146.8161, 298.9929
147.2982, 303.2414
147.7803, 307.7721
148.2624, 311.3487
148.7445, 312.7939
149.2267, 311.9489
149.7088, 309.1938
150.1909, 304.5345
150.6730, 298.4913
151.1551, 291.1093
151.6372, 282.4870
152.1194, 273.0166
152.6015, 263.0185
153.0836, 252.2115
153.5657, 241.7610
154.0478, 231.5086
154.5299, 221.6672
155.0121, 212.3530
155.4942, 203.5752
155.9763, 195.6341
156.4584, 189.2862
156.9405, 184.5057
157.4227, 180.2938
157.9048, 176.3696
158.3869, 172.8310
158.8690, 169.8824
159.3511, 167.5557
159.8332, 165.9226
160.3154, 164.9641
160.7975, 164.6560
161.2796, 164.8170
161.7617, 165.5098
162.2438, 166.6962
162.7259, 167.7949
163.2081, 168.3989
163.6902, 169.1209
164.1723, 170.3500
164.6544, 172.1381
165.1365, 174.3767
165.6186, 177.0520
166.1008, 180.2404
166.5829, 183.4832
167.0650, 186.6706
167.5471, 189.9060
168.0292, 193.2649
168.5113, 196.7610
168.9935, 200.2868
169.4756, 203.6089
169.9577, 206.4319
170.4398, 209.6747
170.9219, 213.6749
171.4040, 217.8902
171.8862, 221.8605
172.3683, 225.4178
172.8504, 228.7298
173.3325, 232.2283
173.8146, 235.8101
174.2967, 239.7137
174.7789, 244.2226
175.2610, 248.9693
175.7431, 253.5611
176.2252, 257.8721
176.7073, 261.8607
177.1894, 265.3322
177.6716, 268.0039
178.1537, 270.5908
178.6358, 273.5286
179.1179, 276.4717
179.6000, 278.7793
180.0821, 280.0885
180.5643, 280.5688
181.0464, 280.8535
181.5285, 281.3760
182.0106, 281.1757
182.4927, 279.6819
182.9749, 277.0315
183.4570, 273.8256
183.9391, 270.3151
184.4212, 266.3648
184.9033, 262.0107
185.3854, 257.4464
185.8676, 252.1592
186.3497, 245.5398
186.8318, 237.5601
187.3139, 229.2459
187.7960, 221.0978
188.2781, 212.7818
188.7603, 203.8923
189.2424, 194.1497
189.7245, 184.1910
190.2066, 174.8075
190.6887, 166.0466
191.1708, 157.6537
191.6530, 149.6086
192.1351, 141.8321
192.6172, 134.1794
193.0993, 126.5701
193.5814, 119.3213
194.0635, 113.2539
194.5457, 108.9764
195.0278, 104.7439
195.5099, 99.84001
195.9920, 94.92683
196.4741, 90.66479
196.9562, 87.35705
197.4384, 84.79479
197.9205, 82.37672
198.4026, 80.30636
198.8847, 78.11492
199.3668, 75.44675
199.8489, 72.73315
200.3311, 70.52415
200.8132, 69.11023
201.2953, 68.25671
201.7774, 67.05129
202.2595, 64.83458
202.7416, 62.98420
203.2238, 61.86305
203.7059, 61.13669
204.1880, 60.28534
204.6701, 59.02168
205.1522, 57.48886
205.6344, 56.34597
206.1165, 56.06929
206.5986, 55.57993
207.0807, 54.50604
207.5628, 53.06789
208.0449, 51.63348
208.5271, 50.35755
209.0092, 49.28076
209.4913, 48.61192
209.9734, 48.72606
210.4555, 48.71028
210.9376, 48.07588
211.4198, 47.03407
211.9019, 46.16407
212.3840, 45.77507
212.8661, 45.75462
213.3482, 45.74292
213.8303, 45.76013
214.3125, 45.75529
214.7946, 45.73067
215.2767, 45.67347
215.7588, 45.48887
216.2409, 45.01712
216.7230, 44.48229
217.2052, 44.29646
217.6873, 44.62075
218.1694, 44.96232
218.6515, 44.89179
219.1336, 44.42598
219.6157, 44.01170
220.0979, 43.76247
220.5800, 43.69780
221.0621, 43.86897
221.5442, 44.32888
222.0263, 44.83454
222.5084, 45.16149
222.9906, 45.30243
223.4727, 45.35554
223.9548, 45.21781
224.4369, 45.08177
224.9190, 45.09671
225.4011, 45.29360
225.8833, 45.58447
226.3654, 45.84144
226.8475, 46.02289
227.3296, 46.36950
227.8117, 47.12074
228.2938, 47.93303
228.7760, 48.57812
229.2581, 49.01525
229.7402, 49.37714
230.2223, 49.80359
230.7044, 50.24979
231.1866, 50.92189
231.6687, 52.06929
232.1508, 53.27014
232.6329, 54.19902
233.1150, 54.82768
233.5971, 55.43327
234.0793, 56.46049
234.5614, 58.20029
235.0435, 59.63708
235.5256, 60.54570
236.0077, 61.34399
236.4898, 62.23571
236.9720, 63.27608
237.4541, 64.45890
237.9362, 65.84589
238.4183, 67.76910
238.9004, 69.01320
239.3825, 69.01827
239.8647, 68.88517
240.3468, 69.35817
240.8289, 70.51162
241.3110, 71.88068
241.7931, 72.93172
242.2752, 73.64874
242.7574, 73.97525
243.2395, 73.74845
243.7216, 73.31838
244.2037, 72.82851
244.6858, 72.33387
245.1679, 71.89799
245.6501, 71.59293
246.1322, 71.44486
246.6143, 71.35979
247.0964, 71.37289
247.5785, 71.41483
248.0606, 71.48716
248.5428, 71.56815
249.0249, 71.56006
249.5070, 71.35303
249.9891, 70.90639
250.4712, 70.50647
250.9533, 70.29440
251.4355, 70.01851
251.9176, 69.49517
252.3997, 68.72424
252.8818, 67.83595
253.3639, 66.94308
253.8460, 66.03331
254.3282, 65.00807
254.8103, 63.72054
255.2924, 62.43559
255.7745, 61.39675
256.2566, 60.58482
256.7387, 59.73310
257.2209, 58.60148
257.7030, 57.26143
258.1851, 56.16364
258.6672, 55.36019
259.1493, 54.75906
259.6314, 54.40968
260.1136, 54.27589
260.5957, 54.04108
261.0778, 53.46339
261.5599, 52.65474
262.0420, 51.99096
262.5241, 51.51855
263.0063, 51.13904
263.4884, 50.91053
263.9705, 50.79083
264.4526, 50.36948
264.9347, 49.25808
265.4168, 47.84845
265.8990, 46.94211
266.3811, 46.75960
266.8632, 46.60465
267.3453, 45.90436
267.8275, 44.73357
268.3096, 43.67617
268.7917, 43.01612
269.2738, 42.50975
269.7559, 41.83196
270.2380, 40.95842
270.7202, 40.02195
271.2023, 39.06659
271.6844, 38.10777
272.1665, 37.23639
272.6486, 36.48243
273.1307, 35.83433
273.6129, 35.27821
274.0950, 34.80949
274.5771, 34.35228
275.0592, 33.80099
275.5413, 33.19195
276.0234, 32.76269
276.5056, 32.65281
276.9877, 32.59600
277.4698, 32.37625
277.9519, 32.01947
278.4340, 31.65577
278.9161, 31.35295
279.3983, 31.10529
279.8804, 30.87487
280.3625, 30.63221
280.8446, 30.45881
281.3267, 30.44767
281.8088, 30.53632
282.2910, 30.57733
282.7731, 30.47544
283.2552, 30.26571
283.7373, 30.05132
284.2194, 29.79834
284.7015, 29.60974
285.1837, 29.64152
285.6658, 29.73937
286.1479, 29.63685
286.6300, 29.11249
287.1121, 28.41495
287.5942, 28.16257
288.0764, 28.57366
288.5585, 28.91962
289.0406, 28.90520
289.5227, 28.70683
290.0048, 28.48621
290.4869, 28.29171
290.9691, 28.12183
291.4512, 27.97232
291.9333, 27.84274
292.4154, 27.73735
292.8975, 27.67831
293.3796, 27.63146
293.8618, 27.55791
294.3439, 27.44803
294.8260, 27.35739
295.3081, 27.39213
295.7902, 27.60177
296.2723, 27.70048
296.7545, 27.53838
297.2366, 27.32149
297.7187, 27.15658
298.2008, 27.05551
298.6829, 26.97151
299.1650, 26.84454
299.6472, 26.66301
300.1293, 26.54354
300.6114, 26.52744
301.0935, 26.54950
301.5756, 26.62562
302.0577, 26.72544
302.5399, 26.76533
303.0220, 26.63804
303.5041, 26.35629
303.9862, 26.21202
304.4683, 26.32983
304.9504, 26.44972
305.4326, 26.46127
305.9147, 26.40817
306.3968, 26.38610
306.8789, 26.47413
307.3610, 26.62564
307.8431, 26.62111
308.3253, 26.31647
308.8074, 26.08193
309.2895, 26.03913
309.7716, 26.10608
310.2537, 26.19602
310.7358, 26.27545
311.2180, 26.33710
311.7001, 26.37420
312.1822, 26.41920
312.6643, 26.35923
313.1464, 26.00289
313.6285, 25.64451
314.1107, 25.57860
314.5928, 25.87452
315.0749, 26.26439
315.5570, 26.33737
316.0392, 25.98463
316.5213, 25.71119
317.0034, 25.51270
317.4855, 25.44745
317.9676, 25.65378
318.4497, 26.08768
318.9319, 26.48798
319.4140, 26.54979
319.8961, 26.22857
320.3782, 26.01346
320.8603, 26.02759
321.3424, 26.03936
321.8246, 25.93736
322.3067, 25.75823
322.7888, 25.60183
323.2709, 25.53929
323.7530, 25.56288
324.2351, 25.62825
324.7173, 25.82617
325.1994, 25.93240
325.6815, 25.81626
326.1636, 25.59330
326.6457, 25.42969
327.1278, 25.41601
327.6100, 25.48438
328.0921, 25.45051
328.5742, 25.21598
329.0563, 25.09687
329.5384, 25.27849
330.0205, 25.53121
330.5027, 25.63327
330.9848, 25.52247
331.4669, 25.36087
331.9490, 25.41495
332.4311, 25.76877
332.9132, 25.96792
333.3954, 25.74175
333.8775, 25.49136
334.3596, 25.46733
334.8417, 25.66482
335.3238, 25.87436
335.8059, 25.88647
336.2881, 25.69819
336.7702, 25.54725
337.2523, 25.50341
337.7344, 25.42167
338.2165, 25.14164
338.6986, 24.77041
339.1808, 24.55683
339.6629, 24.69579
340.1450, 25.09851
340.6271, 25.44916
341.1092, 25.77726
341.5913, 25.98532
342.0735, 26.00161
342.5556, 25.90610
343.0377, 25.78763
343.5198, 25.67610
344.0019, 25.56314
344.4840, 25.40258
344.9662, 25.15067
345.4483, 25.03820
345.9304, 25.37757
346.4125, 25.74225
346.8946, 25.78483
347.3767, 25.45324
347.8589, 25.05150
348.3410, 24.86804
348.8231, 24.89712
349.3052, 24.93465
349.7873, 24.92134
350.2694, 24.95218
350.7516, 25.15244
351.2337, 25.47065
351.7158, 25.68832
352.1979, 25.59348
352.6800, 25.29216
353.1621, 25.15173
353.6443, 25.24485
354.1264, 25.34609
354.6085, 25.33224
355.0906, 25.23849
355.5727, 25.10350
356.0548, 24.90586
356.5370, 24.71353
357.0191, 24.58857
357.5012, 24.52377
357.9833, 24.62031
358.4654, 25.09294
358.9475, 25.64947
359.4297, 25.93870
359.9118, 25.90390
360.3939, 25.73359
360.8760, 25.48784
361.3581, 25.19881
361.8402, 25.05088
362.3224, 25.16553
362.8045, 25.30964
363.2866, 25.16142
363.7687, 24.76049
364.2508, 24.52823
364.7329, 24.83835
365.2151, 25.35700
365.6972, 25.45020
366.1793, 24.99603
366.6614, 24.53847
367.1436, 24.47829
367.6257, 24.74587
368.1078, 25.12516
368.5899, 25.89782
369.0720, 26.51943
369.5541, 26.38346
370.0363, 25.60446
370.5184, 24.93831
371.0005, 24.73410
371.4826, 24.87102
371.9647, 25.08133
372.4468, 25.43871
372.9290, 25.68003
373.4111, 25.63251
373.8932, 25.41228
374.3753, 25.23779
374.8574, 25.17215
375.3395, 25.11839
375.8217, 24.91929
376.3038, 24.54209
376.7859, 24.32940
377.2680, 24.39985
377.7501, 24.58926
378.2322, 24.83305
378.7144, 25.09589
379.1965, 25.21306
379.6786, 25.01457
380.1607, 24.54474
380.6428, 24.31585
381.1249, 24.51901
381.6071, 24.71528
382.0892, 24.71861
382.5713, 24.60987
383.0534, 24.55957
383.5355, 24.64540
384.0176, 24.79311
384.4998, 24.84162
384.9819, 24.71055
385.4640, 24.60574
385.9461, 24.49012
386.4282, 24.42827
386.9103, 24.53110
387.3925, 24.78488
387.8746, 25.01865
388.3567, 25.03451
388.8388, 24.78849
389.3209, 24.64293
389.8030, 24.70992
390.2852, 24.74543
390.7673, 24.62784
391.2494, 24.40921
391.7315, 24.20034
392.2136, 24.06549
392.6957, 23.99207
393.1779, 23.93450
393.6600, 23.89217
394.1421, 23.86930
394.6242, 23.85099
395.1063, 23.85882
395.5884, 23.91617
396.0706, 24.02720
396.5527, 24.17221
397.0348, 24.34331
397.5169, 24.56754
397.9990, 24.70527
398.4811, 24.71066
398.9633, 24.66645
399.4454, 24.52658
399.9275, 24.35801
400.4096, 24.32118
400.8917, 24.57483
401.3738, 25.02117
401.8560, 25.23231
402.3381, 25.12781
402.8202, 24.92939
403.3023, 24.61567
403.7844, 24.29593
404.2665, 24.08494
404.7487, 24.01847
405.2308, 24.03938
405.7129, 24.10833
406.1950, 24.23155
406.6771, 24.28901
407.1592, 24.17405
407.6414, 24.07722
408.1235, 24.17243
408.6056, 24.42511
409.0877, 24.63617
409.5698, 24.67229
410.0519, 24.58852
410.5341, 24.51010
411.0162, 24.44213
411.4983, 24.37155
411.9804, 24.29035
412.4625, 24.20119
412.9446, 24.09801
413.4268, 23.93418
413.9089, 23.83330
414.3910, 23.93253
414.8731, 24.19481
415.3553, 24.44682
415.8374, 24.64154
416.3195, 24.78918
416.8016, 24.91914
417.2837, 25.04410
417.7658, 25.06499
418.2480, 24.83492
418.7301, 24.55080
419.2122, 24.47972
419.6943, 24.63941
420.1764, 24.78856
420.6585, 24.73521
421.1407, 24.49272
421.6228, 24.27331
422.1049, 23.98480
422.5870, 23.81239
423.0691, 23.92462
423.5512, 24.18745
424.0334, 24.35120
424.5155, 24.31329
424.9976, 24.16876
425.4797, 24.08941
425.9618, 24.07786
426.4439, 24.14198
426.9261, 24.39078
427.4082, 24.62930
427.8903, 24.67229
428.3724, 24.55114
428.8545, 24.47759
429.3366, 24.65002
429.8188, 25.04871
430.3009, 25.21519
430.7830, 24.84492
431.2651, 24.56983
431.7472, 24.59707
432.2293, 24.73124
432.7115, 24.69972
433.1936, 24.40709
433.6757, 24.04483
434.1578, 23.93245
434.6399, 24.12430
435.1220, 24.37231
435.6042, 24.88807
436.0863, 25.25751
436.5684, 25.16801
437.0505, 24.72775
437.5326, 24.31616
438.0147, 24.19162
438.4969, 24.29547
438.9790, 24.44588
439.4611, 24.68868
439.9432, 24.86062
440.4253, 24.86161
440.9074, 24.77273
441.3896, 24.64969
441.8717, 24.49002
442.3538, 24.37622
442.8359, 24.43240
443.3180, 24.62124
443.8001, 24.71209
444.2823, 24.64332
444.7644, 24.49929
445.2465, 24.30342
445.7286, 24.07961
446.2107, 23.97509
446.6928, 24.08844
447.1750, 24.29926
447.6571, 24.56207
448.1392, 24.85013
448.6213, 24.93887
449.1034, 24.62958
449.5855, 24.11192
450.0677, 23.93964
450.5498, 24.26690
451.0319, 24.54158
451.5140, 24.54763
451.9961, 24.46106
452.4782, 24.54433
452.9604, 24.83154
453.4425, 25.07068
453.9246, 24.96572
454.4067, 24.45579
454.8888, 24.26085
455.3709, 24.70507
455.8531, 25.05544
456.3352, 24.97580
456.8173, 24.63623
457.2994, 24.31197
457.7815, 24.13016
458.2636, 24.08751
458.7458, 24.21258
459.2279, 24.71135
459.7100, 24.93734
460.1921, 24.69655
460.6742, 24.36429
461.1563, 24.08043
461.6385, 23.89468
462.1206, 23.87323
462.6027, 24.11768
463.0848, 24.55805
463.5669, 24.82031
464.0491, 24.82619
464.5312, 24.80613
465.0133, 24.84317
465.4954, 24.89178
465.9775, 24.91037
466.4597, 24.88984
466.9418, 24.83377
467.4239, 24.68429
467.9060, 24.47511
468.3881, 24.47993
468.8702, 24.87655
469.3524, 25.22184
469.8345, 24.98620
470.3166, 24.37627
470.7987, 23.99847
471.2808, 24.22671
471.7629, 24.57491
472.2451, 24.57895
472.7272, 24.30237
473.2093, 24.06069
473.6914, 23.97180
474.1735, 24.01127
474.6556, 24.17409
475.1378, 24.53305
475.6199, 24.75400
476.1020, 24.76088
476.5841, 24.62849
477.0662, 24.31316
477.5483, 23.87875
478.0305, 23.60514
478.5126, 23.73410
478.9947, 24.20736
479.4768, 24.50678
479.9589, 24.49005
480.4410, 24.47275
480.9232, 24.52225
481.4053, 24.57570
481.8874, 24.56769
482.3695, 24.48213
482.8516, 24.34191
483.3337, 24.13446
483.8159, 23.82574
484.2980, 23.74708
484.7801, 24.10153
485.2622, 24.46729
485.7443, 24.73808
486.2264, 24.91353
486.7086, 24.99647
487.1907, 24.97935
487.6728, 24.90219
488.1549, 24.81771
488.6370, 24.72620
489.1191, 24.61170
489.6013, 24.39941
490.0834, 24.24855
490.5655, 24.33083
491.0476, 24.61285
491.5297, 24.86351
492.0118, 25.02309
492.4940, 25.08335
492.9761, 24.98411
493.4582, 24.73532
493.9403, 24.52591
494.4224, 24.46131
494.9045, 24.48928
495.3867, 24.47733
495.8688, 24.40812
496.3509, 24.35007
496.8330, 24.32454
497.3151, 24.31448
497.7972, 24.29548
498.2794, 24.26819
498.7615, 24.26480
499.2436, 24.32180
499.7257, 24.43213
500.2078, 24.46989
500.6899, 24.33905
501.1721, 24.25161
501.6542, 24.25768
502.1363, 24.31583
502.6184, 24.38034
503.1005, 24.43911
503.5826, 24.51263
504.0648, 24.68390
504.5469, 24.99376
505.0290, 24.96261
505.5111, 24.12554
505.9932, 23.53121
506.4753, 23.85097
506.9575, 24.59761
507.4396, 24.95386
507.9217, 24.54707
508.4038, 23.90959
508.8859, 23.72541
509.3680, 23.96552
509.8502, 24.08761
510.3323, 23.89112
510.8144, 23.67831
511.2965, 23.79882
511.7786, 24.18921
512.2607, 24.52035
512.7429, 24.75414
513.2250, 24.86196
513.7071, 24.73525
514.1892, 24.43817
514.6713, 24.23742
515.1534, 24.25845
515.6356, 24.41597
516.1177, 24.54989
516.5998, 24.68046
517.0819, 24.73704
517.5640, 24.72278
518.0461, 24.63021
518.5283, 24.38288
519.0104, 24.04262
519.4925, 23.78302
519.9746, 23.71967
520.4567, 23.81786
520.9388, 23.96230
521.4210, 24.22892
521.9031, 24.39532
522.3852, 24.45043
522.8673, 24.40003
523.3494, 24.16093
523.8315, 23.78530
524.3137, 23.50994
524.7958, 23.58297
525.2779, 23.89230
525.7600, 24.01656
526.2421, 23.89023
526.7242, 23.82747
527.2064, 24.05664
527.6885, 24.37621
528.1706, 24.51661
528.6527, 24.42788
529.1348, 24.33523
529.6169, 24.42798
530.0991, 24.56455
530.5812, 24.43266
531.0633, 24.00160
531.5454, 23.69026
532.0275, 23.87481
532.5096, 24.44523
532.9918, 24.62612
533.4739, 24.13182
533.9560, 23.68182
534.4381, 23.36268
534.9202, 23.19224
535.4023, 23.27209
535.8845, 23.57401
536.3666, 23.84595
536.8487, 23.80636
537.3308, 23.45654
537.8129, 23.28100
538.2951, 23.32138
538.7772, 23.49973
539.2593, 23.97083
539.7415, 24.47328
540.2236, 24.69113
540.7057, 24.54979
541.1878, 24.32888
541.6699, 24.36577
542.1520, 24.60167
542.6342, 24.57586
543.1163, 24.13360
543.5984, 23.73174
544.0805, 23.74320
544.5626, 23.98560
545.0447, 24.12887
545.5269, 24.11206
546.0090, 24.02580
546.4911, 23.86800
546.9732, 23.68921
547.4553, 23.59196
547.9374, 23.59782
548.4196, 23.65627
548.9017, 23.71812
549.3838, 23.78268
549.8659, 23.89797
550.3480, 24.22714
550.8301, 24.40574
551.3123, 24.20944
551.7944, 23.86219
552.2765, 23.61641
552.7586, 23.54809
553.2407, 23.60999
553.7228, 23.79033
554.2050, 24.10511
554.6871, 24.23571
555.1692, 24.07503
555.6513, 23.87397
556.1334, 23.61308
556.6155, 23.41359
557.0977, 23.48996
557.5798, 23.93686
558.0619, 24.36801
558.5440, 24.36629
559.0261, 24.05009
559.5082, 23.87836
559.9904, 23.94146
560.4725, 24.01990
560.9546, 23.92188
561.4367, 23.69394
561.9188, 23.57918
562.4009, 23.60290
562.8831, 23.71135
563.3652, 24.00046
563.8473, 24.31567
564.3294, 24.40515
564.8115, 24.23330
565.2936, 24.01485
565.7758, 23.97726
566.2579, 24.12146
566.7400, 24.11904
567.2221, 23.75359
567.7042, 23.50089
568.1863, 23.49949
568.6685, 23.61522
569.1506, 23.73215
569.6327, 23.81668
570.1148, 23.86735
570.5969, 23.84338
571.0790, 23.76968
571.5612, 23.83919
572.0433, 24.13189
572.5254, 24.33916
573.0075, 24.20043
573.4896, 23.92407
573.9717, 23.84385
574.4539, 24.05223
574.9360, 24.21346
575.4181, 24.09735
575.9002, 23.87266
576.3823, 23.75569
576.8644, 23.77448
577.3466, 23.92028
577.8287, 24.22697
578.3108, 24.62524
578.7929, 24.77177
579.2750, 24.37613
579.7571, 24.10439
580.2393, 24.04154
580.7214, 24.07645
581.2035, 24.14997
581.6856, 24.23930
582.1677, 24.32607
582.6498, 24.40387
583.1320, 24.46021
583.6141, 24.43246
584.0962, 24.27997
584.5783, 24.18593
585.0604, 24.30324
585.5425, 24.41568
586.0247, 24.27803
586.5068, 23.91306
586.9889, 23.66677
587.4710, 23.78923
587.9531, 24.04268
588.4352, 24.13437
588.9174, 24.09011
589.3995, 24.12311
589.8816, 24.35441
590.3637, 24.61863
