##NAMES=Strontianite
##RRUFFID=R040037
##IDEAL CHEMISTRY=SrCO_3_
##LOCALITY=Alston Moor, Cumbria, England
##OWNER=RRUFF
##SOURCE=University of Arizona Mineral Museum
##DESCRIPTION=Group of tan colored crystals
##STATUS=The identification of this mineral has been confirmed by X-ray diffraction and chemical analysis
##URL=rruff.info/R040037
##MEASURED CHEMISTRY=(Sr_0.91_Ca_0.09_)_Î£=1_CO_3_; CO_2_ estimated by difference
126.4988, 681.8586
126.9809, 712.3561
127.4630, 743.5526
127.9451, 774.8197
128.4272, 807.2955
128.9093, 842.2083
129.3915, 879.2816
129.8736, 916.6642
130.3557, 952.7962
130.8378, 984.1001
131.3199, 1010.924
131.8020, 1037.561
132.2842, 1063.717
132.7663, 1087.815
133.2484, 1110.126
133.7305, 1132.853
134.2126, 1157.568
134.6947, 1184.325
135.1769, 1212.390
135.6590, 1241.632
136.1411, 1272.287
136.6232, 1305.475
137.1053, 1341.226
137.5874, 1378.315
138.0696, 1414.816
138.5517, 1449.677
139.0338, 1490.620
139.5159, 1540.402
139.9980, 1597.851
140.4801, 1655.585
140.9623, 1712.872
141.4444, 1772.023
141.9265, 1836.217
142.4086, 1904.387
142.8907, 1980.853
143.3728, 2067.713
143.8550, 2164.418
144.3371, 2268.813
144.8192, 2381.030
145.3013, 2500.520
145.7834, 2623.545
146.2655, 2758.388
146.7477, 2887.052
147.2298, 3008.787
147.7119, 3131.585
148.1940, 3224.449
148.6761, 3297.540
149.1582, 3339.227
149.6404, 3322.727
150.1225, 3232.588
150.6046, 3101.446
151.0867, 2940.031
151.5688, 2718.608
152.0509, 2508.351
152.5331, 2305.114
153.0152, 2110.790
153.4973, 1937.055
153.9794, 1788.815
154.4615, 1659.910
154.9436, 1546.607
155.4258, 1451.659
155.9079, 1370.196
156.3900, 1302.424
156.8721, 1247.812
157.3542, 1202.016
157.8363, 1166.455
158.3185, 1138.619
158.8006, 1116.769
159.2827, 1102.313
159.7648, 1092.329
160.2469, 1087.636
160.7290, 1087.728
161.2112, 1088.101
161.6933, 1085.089
162.1754, 1082.813
162.6575, 1084.701
163.1396, 1093.281
163.6217, 1104.799
164.1039, 1117.887
164.5860, 1132.505
165.0681, 1149.023
165.5502, 1167.318
166.0323, 1187.617
166.5145, 1210.425
166.9966, 1236.915
167.4787, 1265.176
167.9608, 1293.647
168.4429, 1322.152
168.9250, 1352.967
169.4071, 1387.819
169.8893, 1425.862
170.3714, 1465.810
170.8535, 1506.819
171.3356, 1549.999
171.8177, 1597.138
172.2998, 1648.835
172.7820, 1700.890
173.2641, 1750.807
173.7462, 1798.691
174.2283, 1845.047
174.7104, 1891.231
175.1925, 1936.121
175.6747, 1976.751
176.1568, 2012.052
176.6389, 2047.596
177.1210, 2086.891
177.6031, 2130.374
178.0852, 2179.664
178.5674, 2237.877
179.0495, 2302.074
179.5316, 2369.801
180.0137, 2442.370
180.4958, 2514.332
180.9779, 2583.441
181.4601, 2648.895
181.9422, 2704.926
182.4243, 2752.535
182.9064, 2788.046
183.3885, 2803.853
183.8706, 2798.847
184.3528, 2773.705
184.8349, 2728.381
185.3170, 2663.440
185.7991, 2580.080
186.2812, 2475.805
186.7633, 2353.526
187.2455, 2222.927
187.7276, 2082.187
188.2097, 1937.009
188.6918, 1790.595
189.1739, 1643.646
189.6560, 1506.708
190.1382, 1385.832
190.6203, 1280.991
191.1024, 1188.378
191.5845, 1107.718
192.0666, 1038.718
192.5487, 981.0441
193.0309, 935.3973
193.5130, 896.5363
193.9951, 859.7611
194.4772, 825.2571
194.9593, 796.3517
195.4414, 774.4956
195.9236, 757.9224
196.4057, 741.6959
196.8878, 725.6710
197.3699, 710.7457
197.8520, 697.6906
198.3341, 686.3437
198.8163, 676.7775
199.2984, 669.5596
199.7805, 663.9696
200.2626, 656.5775
200.7447, 647.0815
201.2268, 637.0102
201.7090, 627.9342
202.1911, 619.9510
202.6732, 612.0052
203.1553, 603.9025
203.6374, 595.6790
204.1195, 587.6313
204.6017, 579.5865
205.0838, 572.1901
205.5659, 566.2477
206.0480, 561.9720
206.5301, 557.9442
207.0122, 553.9518
207.4944, 549.9690
207.9765, 545.7285
208.4586, 540.8929
208.9407, 536.4780
209.4228, 533.6450
209.9049, 532.6746
210.3871, 532.1763
210.8692, 531.9019
211.3513, 531.8466
211.8334, 531.8534
212.3155, 531.8115
212.7976, 532.0177
213.2798, 532.7037
213.7619, 533.7487
214.2440, 535.7347
214.7261, 539.2195
215.2082, 544.1998
215.6903, 547.9957
216.1725, 550.3550
216.6546, 551.8331
217.1367, 553.1504
217.6188, 554.7179
218.1009, 555.0120
218.5830, 553.4043
219.0651, 549.7524
219.5473, 546.3314
220.0294, 543.0999
220.5115, 540.0510
220.9936, 537.1877
221.4757, 534.3929
221.9578, 531.9632
222.4400, 529.8442
222.9221, 527.9744
223.4042, 527.0840
223.8863, 527.3398
224.3684, 528.3620
224.8505, 529.7217
225.3327, 531.3043
225.8148, 533.4594
226.2969, 536.2865
226.7790, 539.8625
227.2611, 543.7744
227.7432, 548.0735
228.2254, 552.7596
228.7075, 557.8806
229.1896, 563.7173
229.6717, 569.5269
230.1538, 575.0869
230.6359, 580.2923
231.1181, 586.0853
231.6002, 592.2191
232.0823, 599.1693
232.5644, 607.5071
233.0465, 617.7813
233.5286, 628.5792
234.0108, 639.6411
234.4929, 651.0833
234.9750, 662.4568
235.4571, 673.1829
235.9392, 684.1830
236.4213, 696.5515
236.9035, 710.4490
237.3856, 725.4244
237.8677, 742.4764
238.3498, 762.2758
238.8319, 776.5935
239.3140, 782.7681
239.7962, 785.9500
240.2783, 791.4465
240.7604, 800.0905
241.2425, 809.4355
241.7246, 818.5292
242.2067, 827.2860
242.6889, 838.9798
243.1710, 853.9695
243.6531, 871.5465
244.1352, 891.6979
244.6173, 916.6859
245.0994, 939.8829
245.5816, 959.7504
246.0637, 976.2288
246.5458, 992.4321
247.0279, 1008.860
247.5100, 1024.559
247.9921, 1038.978
248.4743, 1054.401
248.9564, 1064.175
249.4385, 1066.623
249.9206, 1061.854
250.4027, 1054.598
250.8848, 1044.778
251.3670, 1032.518
251.8491, 1017.878
252.3312, 999.8936
252.8133, 981.1530
253.2954, 960.8322
253.7775, 939.2632
254.2597, 922.2489
254.7418, 911.0392
255.2239, 902.7402
255.7060, 894.7363
256.1881, 885.3828
256.6702, 880.1232
257.1523, 880.1893
257.6345, 885.1655
258.1166, 891.8873
258.5987, 901.3542
259.0808, 910.9593
259.5629, 918.9523
260.0450, 925.1273
260.5272, 930.0280
261.0093, 934.3688
261.4914, 937.5754
261.9735, 936.4445
262.4556, 931.2824
262.9377, 921.2872
263.4199, 905.1305
263.9020, 880.8094
264.3841, 856.8978
264.8662, 834.0233
265.3483, 812.1100
265.8304, 789.6853
266.3126, 766.2748
266.7947, 743.7913
267.2768, 723.7001
267.7589, 706.0195
268.2410, 689.8572
268.7231, 675.0374
269.2053, 661.4886
269.6874, 648.8112
270.1695, 636.7834
270.6516, 625.8715
271.1337, 616.3116
271.6158, 607.9945
272.0980, 601.1102
272.5801, 595.9940
273.0622, 591.9189
273.5443, 587.3046
274.0264, 581.9823
274.5085, 576.7305
274.9907, 571.8679
275.4728, 567.3529
275.9549, 563.5312
276.4370, 560.4574
276.9191, 558.0112
277.4012, 556.4440
277.8834, 556.1291
278.3655, 554.6693
278.8476, 550.0424
279.3297, 542.0155
279.8118, 537.5149
280.2939, 537.4036
280.7761, 539.1552
281.2582, 539.0951
281.7403, 537.1021
282.2224, 534.7728
282.7045, 532.5920
283.1866, 530.5639
283.6688, 528.6152
284.1509, 526.5944
284.6330, 525.0942
285.1151, 525.4950
285.5972, 527.7806
286.0793, 528.6892
286.5615, 526.2285
287.0436, 521.4011
287.5257, 519.2985
288.0078, 520.2719
288.4899, 521.9891
288.9720, 521.7813
289.4542, 519.8724
289.9363, 518.6790
290.4184, 519.3406
290.9005, 521.0221
291.3826, 521.3678
291.8647, 520.3331
292.3469, 518.6687
292.8290, 516.6105
293.3111, 514.3585
293.7932, 512.7767
294.2753, 512.1924
294.7574, 512.2628
295.2396, 512.4772
295.7217, 512.8228
296.2038, 513.0483
296.6859, 512.7780
297.1680, 512.2266
297.6501, 512.0549
298.1323, 512.5660
298.6144, 513.1901
299.0965, 513.2391
299.5786, 512.7149
300.0607, 511.6566
300.5428, 509.3137
301.0250, 506.5839
301.5071, 505.1801
301.9892, 505.5213
302.4713, 506.6743
302.9534, 507.8656
303.4355, 509.0469
303.9177, 510.1168
304.3998, 511.2481
304.8819, 512.1190
305.3640, 512.1644
305.8461, 511.2417
306.3282, 510.0626
306.8104, 509.1293
307.2925, 508.4047
307.7746, 507.8307
308.2567, 507.0794
308.7388, 506.6556
309.2209, 507.3841
309.7031, 509.3710
310.1852, 510.9852
310.6673, 510.7568
311.1494, 509.5394
311.6315, 508.5524
312.1136, 508.1760
312.5958, 508.2424
313.0779, 508.7064
313.5600, 509.5396
314.0421, 510.5399
314.5242, 512.3293
315.0063, 513.9013
315.4885, 514.2254
315.9706, 511.6433
316.4527, 509.1255
316.9348, 507.8344
317.4169, 507.6974
317.8990, 508.3978
318.3812, 511.0121
318.8633, 513.7040
319.3454, 515.0972
319.8275, 514.0164
320.3096, 513.0251
320.7917, 513.0090
321.2739, 513.6859
321.7560, 514.3317
322.2381, 514.7142
322.7202, 515.0706
323.2023, 515.5319
323.6844, 516.1951
324.1666, 516.7781
324.6487, 517.4801
325.1308, 518.0184
325.6129, 517.9435
326.0950, 516.0443
326.5771, 514.5730
327.0593, 514.4283
327.5414, 516.1175
328.0235, 517.1032
328.5056, 516.9400
328.9877, 516.1198
329.4698, 515.1403
329.9520, 513.0038
330.4341, 511.8725
330.9162, 512.4933
331.3983, 514.9451
331.8804, 516.7282
332.3625, 517.6476
332.8447, 518.0634
333.3268, 518.1724
333.8089, 517.5226
334.2910, 517.4791
334.7731, 518.7755
335.2552, 520.9171
335.7374, 520.9373
336.2195, 517.3920
336.7016, 514.0392
337.1837, 513.1860
337.6658, 515.7351
338.1479, 517.7725
338.6301, 518.9871
339.1122, 519.6578
339.5943, 520.4359
340.0764, 521.3987
340.5585, 522.1685
341.0406, 522.5386
341.5227, 522.4946
342.0049, 522.2416
342.4870, 521.6744
342.9691, 521.1095
343.4512, 521.1180
343.9333, 521.7490
344.4154, 522.2184
344.8976, 521.9895
345.3797, 521.3531
345.8618, 522.1320
346.3439, 524.5848
346.8260, 526.7977
347.3081, 526.3624
347.7903, 523.7091
348.2724, 521.7831
348.7545, 521.4711
349.2366, 522.1630
349.7187, 522.9236
350.2008, 523.7332
350.6830, 524.1662
351.1651, 523.3672
351.6472, 521.9841
352.1293, 521.6708
352.6114, 522.9484
353.0935, 524.7031
353.5757, 525.8704
354.0578, 526.4855
354.5399, 526.6963
355.0220, 526.0444
355.5041, 525.2679
355.9862, 525.4642
356.4684, 526.8554
356.9505, 528.2198
357.4326, 528.5194
357.9147, 528.1650
358.3968, 527.8248
358.8789, 527.3112
359.3611, 527.2430
359.8432, 528.4332
360.3253, 530.8157
360.8074, 532.7509
361.2895, 533.5564
361.7716, 533.4681
362.2538, 532.6790
362.7359, 530.3806
363.2180, 528.3593
363.7001, 526.8790
364.1822, 526.1089
364.6643, 526.6705
365.1465, 530.9085
365.6286, 534.9540
366.1107, 536.5828
366.5928, 534.0660
367.0749, 532.0002
367.5570, 531.3401
368.0392, 531.5195
368.5213, 531.5591
369.0034, 530.3834
369.4855, 529.9874
369.9676, 531.5413
370.4497, 535.8641
370.9319, 537.6907
371.4140, 534.6378
371.8961, 530.5821
372.3782, 529.4423
372.8603, 533.2722
373.3424, 536.4725
373.8246, 538.3246
374.3067, 538.8561
374.7888, 538.1299
375.2709, 535.1833
375.7530, 532.5915
376.2351, 532.3004
376.7173, 535.0883
377.1994, 537.0233
377.6815, 537.7882
378.1636, 537.6688
378.6457, 537.1057
379.1278, 535.9803
379.6100, 535.0935
380.0921, 535.0714
380.5742, 535.8552
381.0563, 535.6907
381.5384, 534.3788
382.0205, 532.8602
382.5027, 532.1334
382.9848, 532.1849
383.4669, 533.0743
383.9490, 535.3855
384.4311, 538.2454
384.9132, 539.6914
385.3954, 539.7399
385.8775, 538.9501
386.3596, 536.9425
386.8417, 534.4985
387.3238, 533.3091
387.8059, 533.9444
388.2881, 535.5214
388.7702, 537.8060
389.2523, 540.3769
389.7344, 541.9426
390.2165, 540.6866
390.6986, 538.7128
391.1808, 538.2841
391.6629, 539.8103
392.1450, 541.3179
392.6271, 541.5226
393.1092, 540.9525
393.5913, 540.3006
394.0735, 539.6273
394.5556, 539.0992
395.0377, 538.7120
395.5198, 538.4954
396.0019, 538.6917
396.4840, 539.9432
396.9662, 541.2896
397.4483, 542.0684
397.9304, 541.4154
398.4125, 541.2288
398.8946, 542.0144
399.3767, 543.4576
399.8589, 544.7872
400.3410, 545.3409
400.8231, 546.3456
401.3052, 548.6666
401.7873, 553.3482
402.2694, 555.0978
402.7516, 551.8033
403.2337, 547.1398
403.7158, 545.4496
404.1979, 548.6420
404.6800, 550.6244
405.1621, 549.5945
405.6443, 546.2144
406.1264, 545.7882
406.6085, 549.4078
407.0906, 553.1098
407.5727, 553.7671
408.0548, 551.0645
408.5370, 549.3397
409.0191, 549.1349
409.5012, 549.7970
409.9833, 550.3254
410.4654, 550.7158
410.9475, 550.9031
411.4297, 550.6874
411.9118, 550.2244
412.3939, 549.8688
412.8760, 549.5804
413.3581, 549.9788
413.8402, 552.6984
414.3224, 556.6053
414.8045, 558.8077
415.2866, 557.7102
415.7687, 555.4709
416.2508, 554.5673
416.7329, 554.7396
417.2151, 554.8005
417.6972, 553.6121
418.1793, 552.2018
418.6614, 551.6555
419.1435, 552.3306
419.6256, 553.0863
420.1078, 553.0444
420.5899, 552.7264
421.0720, 552.9006
421.5541, 554.1076
422.0362, 555.6011
422.5183, 557.4304
423.0005, 559.5430
423.4826, 560.8027
423.9647, 560.1913
424.4468, 559.0952
424.9289, 558.4247
425.4110, 558.2251
425.8932, 558.5063
426.3753, 559.8843
426.8574, 561.6869
427.3395, 562.2853
427.8216, 560.8231
428.3037, 559.2575
428.7859, 558.0504
429.2680, 557.0928
429.7501, 557.3582
430.2322, 559.3907
430.7143, 561.8524
431.1964, 563.2883
431.6786, 563.5742
432.1607, 563.4353
432.6428, 562.8386
433.1249, 562.0192
433.6070, 561.8983
434.0891, 562.5656
434.5713, 563.0316
435.0534, 562.1390
435.5355, 560.3651
436.0176, 560.3937
436.4997, 562.8682
436.9818, 565.3124
437.4640, 563.8636
437.9461, 559.7391
438.4282, 556.8022
438.9103, 557.1368
439.3924, 559.1639
439.8745, 561.3175
440.3566, 563.5336
440.8387, 565.4622
441.3209, 567.1098
441.8030, 568.2269
442.2851, 568.3348
442.7672, 566.6544
443.2493, 565.4893
443.7314, 566.9277
444.2136, 569.6257
444.6957, 571.1177
445.1778, 569.6108
445.6599, 567.6712
446.1420, 566.0824
446.6241, 564.8645
447.1063, 564.3997
447.5884, 564.9689
448.0705, 566.1700
448.5526, 567.7570
449.0347, 571.5300
449.5168, 573.0170
449.9990, 570.4222
450.4811, 565.5858
450.9632, 564.0866
451.4453, 567.7756
451.9274, 571.2367
452.4095, 572.1281
452.8917, 570.1699
453.3738, 569.0787
453.8559, 568.9825
454.3380, 569.4809
454.8201, 570.2150
455.3022, 571.1819
455.7844, 572.4254
456.2665, 574.2527
456.7486, 576.0255
457.2307, 575.9935
457.7128, 574.2938
458.1949, 572.7114
458.6771, 572.9524
459.1592, 573.9989
459.6413, 573.5349
460.1234, 571.2240
460.6055, 568.8815
461.0876, 567.7909
461.5698, 567.8109
462.0519, 568.7035
462.5340, 571.3650
463.0161, 573.9590
463.4982, 575.0850
463.9803, 575.0436
464.4625, 575.1771
464.9446, 577.1037
465.4267, 578.6328
465.9088, 578.0878
466.3909, 574.0707
466.8730, 571.3062
467.3552, 571.2413
467.8373, 572.7454
468.3194, 574.4023
468.8015, 576.5223
469.2836, 578.2899
469.7657, 579.4788
470.2479, 580.1481
470.7300, 580.9471
471.2121, 582.4116
471.6942, 583.1490
472.1763, 581.8612
472.6584, 577.7499
473.1406, 576.0729
473.6227, 577.7929
474.1048, 580.5629
474.5869, 580.3829
475.0690, 577.1923
475.5511, 574.9532
476.0333, 575.1818
476.5154, 577.1019
476.9975, 579.1686
477.4796, 581.3436
477.9617, 582.7020
478.4438, 581.7388
478.9260, 579.6663
479.4081, 578.7075
479.8902, 579.2562
480.3723, 580.5778
480.8544, 582.8038
481.3365, 585.2538
481.8187, 586.7576
482.3008, 586.7741
482.7829, 585.7511
483.2650, 583.0529
483.7471, 579.0568
484.2292, 576.5585
484.7114, 577.3710
485.1935, 579.3147
485.6756, 581.1929
486.1577, 583.1065
486.6398, 584.5011
487.1219, 585.2421
487.6041, 585.4764
488.0862, 585.3130
488.5683, 584.2546
489.0504, 583.6459
489.5325, 583.9800
490.0146, 585.0726
490.4968, 585.3732
490.9789, 584.5894
491.4610, 583.7582
491.9431, 583.5331
492.4252, 583.9240
492.9073, 584.4430
493.3895, 585.0954
493.8716, 585.7985
494.3537, 586.6874
494.8358, 587.6398
495.3179, 587.9008
495.8000, 586.6959
496.2822, 585.1062
496.7643, 585.0173
497.2464, 586.1978
497.7285, 587.3120
498.2106, 587.7542
498.6927, 587.5656
499.1749, 586.4493
499.6570, 584.0605
500.1391, 582.3893
500.6212, 582.9271
501.1033, 584.6224
501.5854, 586.2532
502.0676, 587.3492
502.5497, 588.4386
503.0318, 589.7685
503.5139, 591.2593
503.9960, 592.4601
504.4781, 593.7766
504.9603, 594.4024
505.4424, 593.8770
505.9245, 591.8009
506.4066, 590.1384
506.8887, 588.5355
507.3708, 587.8048
507.8530, 589.4944
508.3351, 594.3631
508.8172, 597.0018
509.2993, 595.8165
509.7814, 592.5051
510.2635, 591.2904
510.7457, 592.1331
511.2278, 593.0125
511.7099, 592.1442
512.1920, 590.5771
512.6741, 591.1575
513.1563, 593.9900
513.6384, 597.1429
514.1205, 599.4921
514.6026, 600.9692
515.0847, 601.3724
515.5668, 600.2125
516.0490, 598.7869
516.5311, 597.6895
517.0132, 596.9235
517.4953, 596.4919
517.9774, 597.0322
518.4595, 597.3286
518.9417, 596.4362
519.4238, 594.2169
519.9059, 593.3558
520.3880, 595.6602
520.8701, 598.2242
521.3522, 599.4785
521.8344, 598.7970
522.3165, 597.9879
522.7986, 596.7155
523.2807, 595.6086
523.7628, 595.8464
524.2449, 597.6417
524.7271, 599.6971
525.2092, 602.0011
525.6913, 604.1629
526.1734, 604.4434
526.6555, 602.8076
527.1376, 601.1564
527.6198, 600.8107
528.1019, 601.4648
528.5840, 602.6540
529.0661, 604.4285
529.5482, 605.9038
530.0303, 606.1176
530.5125, 605.5247
530.9946, 604.8330
531.4767, 604.3586
531.9588, 603.7651
532.4409, 601.9353
532.9230, 599.7259
533.4052, 599.5785
533.8873, 605.4076
534.3694, 610.6950
534.8515, 612.2963
535.3336, 609.2713
535.8157, 606.8758
536.2979, 605.2338
536.7800, 604.2510
537.2621, 603.9504
537.7442, 604.6790
538.2263, 605.1465
538.7084, 605.1237
539.1906, 604.9692
539.6727, 605.4597
540.1548, 606.6613
540.6369, 607.8654
541.1190, 609.0779
541.6011, 610.0247
542.0833, 609.1818
542.5654, 606.6690
543.0475, 605.0548
543.5296, 607.7589
544.0117, 612.0673
544.4938, 613.1512
544.9760, 609.9020
545.4581, 606.8763
545.9402, 608.4442
546.4223, 611.9019
546.9044, 613.7961
547.3865, 610.7429
547.8687, 608.3199
548.3508, 609.3880
548.8329, 612.6729
549.3150, 614.0947
549.7971, 610.4795
550.2792, 607.4845
550.7614, 607.1943
551.2435, 609.9382
551.7256, 611.5811
552.2077, 611.6372
552.6898, 611.3472
553.1719, 611.9120
553.6541, 613.5991
554.1362, 613.8481
554.6183, 612.0088
555.1004, 609.5999
555.5825, 609.2396
556.0646, 610.6476
556.5468, 612.0745
557.0289, 612.7462
557.5110, 613.1815
557.9931, 614.0294
558.4752, 615.3018
558.9573, 617.0490
559.4395, 620.4672
559.9216, 623.6322
560.4037, 624.7276
560.8858, 623.3783
561.3679, 621.6049
561.8500, 619.7924
562.3322, 618.1632
562.8143, 616.8846
563.2964, 614.9080
563.7785, 614.7821
564.2606, 618.9542
564.7427, 624.4152
565.2249, 624.6018
565.7070, 616.0372
566.1891, 609.7496
566.6712, 609.4777
567.1533, 614.1914
567.6354, 617.1244
568.1176, 618.1202
568.5997, 618.3234
569.0818, 618.2079
569.5639, 617.9149
570.0460, 618.1219
570.5281, 618.9242
571.0103, 619.7529
571.4924, 619.9575
571.9745, 619.8127
572.4566, 619.8319
572.9387, 620.3597
573.4208, 620.7802
573.9030, 620.2350
574.3851, 619.3038
574.8672, 619.2507
575.3493, 621.1820
575.8314, 623.3881
576.3135, 625.5257
576.7957, 627.5507
577.2778, 628.6048
577.7599, 628.0253
578.2420, 627.1772
578.7241, 626.7576
579.2062, 626.8820
579.6884, 626.9508
580.1705, 626.9449
580.6526, 626.9298
581.1347, 627.0135
581.6168, 627.1940
582.0989, 627.3105
582.5811, 627.3520
583.0632, 627.2850
583.5453, 626.7493
584.0274, 625.9772
584.5095, 625.8333
584.9916, 627.5927
585.4738, 629.6019
585.9559, 630.0033
586.4380, 628.9842
586.9201, 628.3772
587.4022, 629.9087
587.8843, 631.4852
588.3664, 631.5209
588.8485, 629.0437
589.3306, 627.4951
589.8127, 627.8461
590.2949, 628.9509
590.7770, 629.8254
591.2591, 630.2714
591.7412, 630.9525
592.2233, 631.9314
592.7054, 633.1898
593.1876, 635.1625
593.6697, 638.0346
594.1518, 639.2540
594.6339, 636.8501
595.1160, 632.6607
595.5981, 631.4316
596.0803, 632.9362
596.5624, 634.9950
597.0445, 636.4834
597.5266, 637.5250
598.0087, 638.0805
598.4908, 638.1129
598.9730, 638.3268
599.4551, 639.3685
599.9372, 640.6293
600.4193, 641.5438
600.9014, 642.0132
601.3835, 642.1085
601.8657, 641.7466
602.3478, 641.0354
602.8299, 640.0844
603.3120, 638.6902
603.7941, 637.3998
604.2762, 636.0405
604.7584, 634.9283
605.2405, 635.6691
605.7226, 638.5611
606.2047, 641.2335
606.6868, 642.6288
607.1689, 642.8402
607.6511, 641.5950
608.1332, 638.8925
608.6153, 636.9838
609.0974, 638.3929
609.5795, 641.4115
610.0616, 643.9421
610.5438, 645.7613
611.0259, 646.4863
611.5080, 644.5310
611.9901, 641.8701
612.4722, 640.8334
612.9543, 643.6472
613.4365, 646.1686
613.9186, 647.8601
614.4007, 648.7748
614.8828, 648.9015
615.3649, 647.8881
615.8470, 646.7854
616.3292, 645.8477
616.8113, 645.0699
617.2934, 644.4634
617.7755, 644.0419
618.2576, 643.5789
618.7397, 642.6695
619.2219, 641.6064
619.7040, 641.2526
620.1861, 641.6791
620.6682, 642.4415
621.1503, 643.0907
621.6324, 643.8817
622.1146, 645.2970
622.5967, 647.9686
