##NAMES=Strontiojoaquinite
##RRUFFID=R060331
##IDEAL CHEMISTRY=(Na,Fe^2+^)_2_Ba_2_Sr_2_Ti^4+^_2_(SiO_3_)_8_(O,OH)_2_&#183;H_2_O
##LOCALITY=Mina Numero Uno, San Benito County, California, USA
##OWNER=RRUFF
##SOURCE=Michael Scott
##DESCRIPTION=Pale yellow tapering pseudotetragonal prisms
##STATUS=The identification of this mineral is confirmed by single-crystal X-ray diffraction and chemical analysis.
##URL=rruff.info/R060331
##MEASURED CHEMISTRY=(Na_1.00_Fe_0.69_Zn_0.20_Mn_0.11_)_Σ=2_Ba_2.00_(Sr_1.89_Ba_0.08_Ca_0.03_)_Σ=2_Ti_2.00_Si_8.00_O_24_(O_1.00_(OH)_1.00_)_Σ=2_·1.50H_2_O; OH estimated by charge balance
93.74609, 38.17485
94.22821, 36.69688
94.71033, 37.24209
95.19244, 39.55477
95.67456, 42.60279
96.15668, 46.13630
96.63879, 50.07584
97.12091, 54.07861
97.60303, 58.06561
98.08514, 62.41249
98.56726, 67.57684
99.04938, 73.57967
99.53149, 80.37512
100.0136, 88.05550
100.4957, 96.60025
100.9778, 105.3086
101.4600, 113.9297
101.9421, 122.7712
102.4242, 132.4732
102.9063, 143.2284
103.3884, 154.5396
103.8705, 166.1023
104.3527, 178.3527
104.8348, 189.9296
105.3169, 200.7156
105.7990, 210.6957
106.2811, 220.8889
106.7632, 231.6904
107.2454, 242.2325
107.7275, 251.5936
108.2096, 259.2926
108.6917, 266.6217
109.1738, 273.6650
109.6559, 280.3978
110.1381, 287.4034
110.6202, 294.1202
111.1023, 301.3783
111.5844, 310.0502
112.0665, 320.5675
112.5486, 332.2195
113.0308, 344.8745
113.5129, 358.6487
113.9950, 373.4268
114.4771, 389.5076
114.9592, 406.4676
115.4413, 423.9141
115.9235, 442.0777
116.4056, 460.3948
116.8877, 478.3824
117.3698, 496.3391
117.8519, 513.9071
118.3340, 530.7957
118.8162, 547.2004
119.2983, 563.5300
119.7804, 580.8588
120.2625, 597.9502
120.7446, 613.6932
121.2267, 627.7398
121.7089, 640.7490
122.1910, 652.7405
122.6731, 663.8834
123.1552, 674.9338
123.6373, 686.8949
124.1194, 698.8304
124.6016, 709.6989
125.0837, 717.9003
125.5658, 725.6749
126.0479, 735.2773
126.5300, 746.6483
127.0121, 758.7953
127.4943, 771.2048
127.9764, 783.7355
128.4585, 796.4129
128.9406, 809.0007
129.4227, 821.6902
129.9048, 834.4559
130.3869, 847.2181
130.8691, 860.8440
131.3512, 877.0726
131.8333, 895.4363
132.3154, 913.2242
132.7975, 928.4362
133.2796, 941.8670
133.7618, 956.5464
134.2439, 970.7648
134.7260, 980.6578
135.2081, 986.6893
135.6902, 991.1770
136.1723, 995.5934
136.6545, 1000.912
137.1366, 1007.109
137.6187, 1012.656
138.1008, 1017.829
138.5829, 1022.057
139.0650, 1023.994
139.5472, 1023.331
140.0293, 1021.773
140.5114, 1020.045
140.9935, 1018.005
141.4756, 1016.406
141.9577, 1015.351
142.4399, 1014.702
142.9220, 1014.074
143.4041, 1013.627
143.8862, 1012.894
144.3683, 1011.393
144.8504, 1008.416
145.3326, 1006.351
145.8147, 1005.591
146.2968, 1005.992
146.7789, 1006.527
147.2610, 1006.922
147.7431, 1007.688
148.2253, 1009.249
148.7074, 1012.342
149.1895, 1015.125
149.6716, 1017.269
150.1537, 1018.764
150.6358, 1020.228
151.1180, 1021.695
151.6001, 1023.103
152.0822, 1024.385
152.5643, 1025.039
153.0464, 1026.098
153.5285, 1027.927
154.0107, 1030.658
154.4928, 1032.993
154.9749, 1034.561
155.4570, 1035.857
155.9391, 1037.370
156.4212, 1039.698
156.9034, 1041.774
157.3855, 1043.157
157.8676, 1043.622
158.3497, 1044.395
158.8318, 1045.788
159.3139, 1047.582
159.7961, 1049.506
160.2782, 1051.469
160.7603, 1053.545
161.2424, 1055.762
161.7245, 1058.130
162.2066, 1060.560
162.6888, 1062.728
163.1709, 1064.953
163.6530, 1067.760
164.1351, 1072.316
164.6172, 1076.823
165.0993, 1080.019
165.5815, 1081.238
166.0636, 1082.631
166.5457, 1085.401
167.0278, 1089.127
167.5099, 1092.940
167.9921, 1096.669
168.4742, 1100.209
168.9563, 1103.405
169.4384, 1106.076
169.9205, 1108.844
170.4026, 1112.641
170.8848, 1116.991
171.3669, 1120.529
171.8490, 1122.068
172.3311, 1122.609
172.8132, 1123.199
173.2953, 1124.129
173.7775, 1125.034
174.2596, 1125.752
174.7417, 1126.224
175.2238, 1126.208
175.7059, 1124.691
176.1880, 1122.785
176.6702, 1122.149
177.1523, 1123.463
177.6344, 1125.704
178.1165, 1128.088
178.5986, 1130.540
179.0807, 1132.509
179.5629, 1132.921
180.0450, 1132.631
180.5271, 1133.413
181.0092, 1136.023
181.4913, 1139.543
181.9734, 1142.991
182.4556, 1146.324
182.9377, 1148.898
183.4198, 1149.315
183.9019, 1148.474
184.3840, 1149.079
184.8661, 1152.366
185.3483, 1157.052
185.8304, 1161.109
186.3125, 1164.522
186.7946, 1167.028
187.2767, 1167.825
187.7588, 1167.311
188.2409, 1167.398
188.7231, 1169.195
189.2052, 1171.612
189.6873, 1171.430
190.1694, 1168.460
190.6515, 1165.123
191.1336, 1164.158
191.6158, 1165.234
192.0979, 1165.441
192.5800, 1163.802
193.0621, 1160.734
193.5442, 1157.722
194.0263, 1154.798
194.5085, 1151.610
194.9906, 1147.872
195.4727, 1143.603
195.9548, 1138.817
196.4369, 1133.486
196.9190, 1127.678
197.4012, 1121.554
197.8833, 1115.041
198.3654, 1108.603
198.8475, 1102.793
199.3296, 1097.572
199.8117, 1093.240
200.2939, 1090.374
200.7760, 1088.651
201.2581, 1085.080
201.7402, 1079.100
202.2223, 1072.837
202.7044, 1068.614
203.1866, 1066.581
203.6687, 1065.796
204.1508, 1066.824
204.6329, 1069.382
205.1150, 1068.953
205.5971, 1065.099
206.0793, 1059.213
206.5614, 1052.397
207.0435, 1044.381
207.5256, 1037.063
208.0077, 1030.955
208.4898, 1026.039
208.9720, 1021.942
209.4541, 1018.937
209.9362, 1016.249
210.4183, 1012.845
210.9004, 1008.463
211.3825, 1004.359
211.8647, 1000.802
212.3468, 997.7945
212.8289, 995.2757
213.3110, 993.3790
213.7931, 991.7827
214.2752, 990.0476
214.7574, 987.9517
215.2395, 986.3909
215.7216, 985.7906
216.2037, 986.2156
216.6858, 986.0264
217.1679, 984.9724
217.6501, 983.6285
218.1322, 982.6420
218.6143, 982.0013
219.0964, 981.7374
219.5785, 982.0603
220.0606, 983.0303
220.5428, 983.1537
221.0249, 982.0634
221.5070, 980.5226
221.9891, 979.3908
222.4712, 978.6944
222.9533, 978.2970
223.4355, 978.1127
223.9176, 978.1143
224.3997, 978.7821
224.8818, 980.3456
225.3639, 982.3391
225.8460, 984.2645
226.3282, 985.9260
226.8103, 987.9390
227.2924, 990.4428
227.7745, 993.4939
228.2566, 996.6517
228.7387, 999.8560
229.2209, 1003.230
229.7030, 1006.811
230.1851, 1010.503
230.6672, 1014.668
231.1493, 1019.445
231.6314, 1024.850
232.1136, 1030.406
232.5957, 1036.332
233.0778, 1042.174
233.5599, 1047.185
234.0420, 1050.187
234.5241, 1054.698
235.0063, 1061.805
235.4884, 1071.460
235.9705, 1080.503
236.4526, 1088.783
236.9347, 1096.725
237.4168, 1104.753
237.8990, 1112.962
238.3811, 1121.003
238.8632, 1128.525
239.3453, 1135.570
239.8274, 1143.556
240.3095, 1152.791
240.7917, 1162.668
241.2738, 1172.783
241.7559, 1183.461
242.2380, 1193.700
242.7201, 1203.392
243.2022, 1212.562
243.6844, 1220.754
244.1665, 1227.579
244.6486, 1234.008
245.1307, 1240.916
245.6128, 1249.082
246.0949, 1256.160
246.5771, 1261.554
247.0592, 1265.463
247.5413, 1269.875
248.0234, 1275.519
248.5055, 1280.697
248.9876, 1284.042
249.4697, 1284.766
249.9519, 1285.426
250.4340, 1286.400
250.9161, 1287.526
251.3982, 1287.805
251.8803, 1286.732
252.3624, 1285.469
252.8446, 1284.764
253.3267, 1284.826
253.8088, 1284.898
254.2909, 1284.953
254.7730, 1284.973
255.2551, 1284.807
255.7373, 1284.139
256.2194, 1283.820
256.7015, 1284.473
257.1836, 1286.703
257.6657, 1288.352
258.1479, 1289.350
258.6300, 1289.710
259.1121, 1289.350
259.5942, 1287.806
260.0763, 1286.391
260.5584, 1285.702
261.0406, 1285.858
261.5227, 1286.410
262.0048, 1287.392
262.4869, 1288.741
262.9690, 1290.369
263.4511, 1292.316
263.9333, 1294.407
264.4154, 1296.676
264.8975, 1299.353
265.3796, 1301.256
265.8617, 1302.089
266.3438, 1302.413
266.8260, 1303.338
267.3081, 1305.063
267.7902, 1306.838
268.2723, 1308.416
268.7544, 1309.857
269.2365, 1310.668
269.7187, 1310.420
270.2008, 1310.095
270.6829, 1311.383
271.1650, 1314.731
271.6471, 1318.082
272.1292, 1320.549
272.6114, 1322.102
273.0935, 1324.373
273.5756, 1327.490
274.0577, 1331.057
274.5398, 1334.541
275.0219, 1337.790
275.5041, 1341.609
275.9862, 1346.361
276.4683, 1351.967
276.9504, 1357.326
277.4325, 1362.270
277.9146, 1367.400
278.3968, 1373.664
278.8788, 1381.224
279.3610, 1388.112
279.8431, 1393.837
280.3252, 1398.438
280.8073, 1402.021
281.2894, 1404.273
281.7715, 1406.807
282.2537, 1411.703
282.7358, 1419.044
283.2179, 1424.854
283.7000, 1428.197
284.1821, 1429.619
284.6642, 1430.352
285.1464, 1430.275
285.6285, 1430.553
286.1106, 1432.602
286.5927, 1436.223
287.0748, 1438.536
287.5569, 1438.882
288.0391, 1438.042
288.5212, 1437.454
289.0033, 1437.115
289.4854, 1437.262
289.9675, 1438.532
290.4496, 1440.633
290.9318, 1441.665
291.4139, 1441.262
291.8960, 1440.254
292.3781, 1440.075
292.8602, 1440.638
293.3423, 1441.021
293.8245, 1440.574
294.3066, 1439.543
294.7887, 1438.874
295.2708, 1438.758
295.7529, 1438.386
296.2350, 1436.552
296.7172, 1433.479
297.1993, 1430.236
297.6814, 1427.302
298.1635, 1424.499
298.6456, 1421.600
299.1277, 1418.608
299.6099, 1415.250
300.0920, 1410.688
300.5741, 1405.505
301.0562, 1401.468
301.5383, 1400.383
302.0204, 1400.129
302.5026, 1397.584
302.9847, 1392.785
303.4668, 1387.088
303.9489, 1380.371
304.4310, 1373.670
304.9131, 1368.671
305.3953, 1366.822
305.8774, 1365.914
306.3595, 1363.844
306.8416, 1360.735
307.3237, 1357.146
307.8058, 1353.077
308.2880, 1348.913
308.7701, 1345.128
309.2522, 1341.798
309.7343, 1338.876
310.2164, 1336.498
310.6985, 1334.520
311.1807, 1332.584
311.6628, 1330.898
312.1449, 1328.940
312.6270, 1326.227
313.1091, 1322.530
313.5912, 1318.564
314.0734, 1314.676
314.5555, 1310.760
315.0376, 1306.605
315.5197, 1301.744
316.0018, 1296.825
316.4839, 1292.229
316.9661, 1287.923
317.4482, 1284.142
317.9303, 1281.430
318.4124, 1279.164
318.8945, 1276.580
319.3766, 1273.013
319.8588, 1269.504
320.3409, 1266.459
320.8230, 1263.894
321.3051, 1261.724
321.7872, 1259.771
322.2693, 1258.322
322.7515, 1257.604
323.2336, 1257.727
323.7157, 1258.543
324.1978, 1260.195
324.6799, 1262.582
325.1620, 1265.203
325.6442, 1267.956
326.1263, 1270.913
326.6084, 1274.063
327.0905, 1276.447
327.5726, 1280.298
328.0547, 1286.620
328.5369, 1294.516
329.0190, 1301.827
329.5011, 1308.446
329.9832, 1314.478
330.4653, 1319.726
330.9474, 1323.366
331.4296, 1328.439
331.9117, 1336.023
332.3938, 1344.609
332.8759, 1352.042
333.3580, 1357.834
333.8401, 1363.338
334.3223, 1368.658
334.8044, 1373.743
335.2865, 1379.680
335.7686, 1387.033
336.2507, 1394.537
336.7328, 1400.724
337.2150, 1405.053
337.6971, 1409.668
338.1792, 1415.258
338.6613, 1421.476
339.1434, 1426.371
339.6255, 1429.588
340.1077, 1432.307
340.5898, 1435.389
341.0719, 1438.835
341.5540, 1442.260
342.0361, 1445.750
342.5182, 1449.014
343.0004, 1450.990
343.4825, 1451.420
343.9646, 1452.264
344.4467, 1454.920
344.9288, 1459.181
345.4109, 1462.687
345.8931, 1465.167
346.3752, 1467.391
346.8573, 1470.772
347.3394, 1475.194
347.8215, 1478.738
348.3036, 1480.361
348.7858, 1480.593
349.2679, 1480.837
349.7500, 1481.102
350.2321, 1481.394
350.7142, 1482.011
351.1964, 1482.699
351.6785, 1482.705
352.1606, 1481.773
352.6427, 1480.094
353.1248, 1477.696
353.6069, 1474.647
354.0891, 1471.515
354.5712, 1469.094
355.0533, 1466.720
355.5354, 1463.237
356.0175, 1458.081
356.4996, 1452.759
356.9818, 1448.884
357.4639, 1445.849
357.9460, 1442.196
358.4281, 1436.776
358.9102, 1430.701
359.3923, 1424.813
359.8745, 1419.174
360.3566, 1413.797
360.8387, 1409.082
361.3208, 1404.546
361.8029, 1399.616
362.2850, 1393.450
362.7672, 1387.390
363.2493, 1382.041
363.7314, 1377.363
364.2135, 1372.810
364.6956, 1368.368
365.1777, 1363.921
365.6599, 1359.411
366.1420, 1355.152
366.6241, 1350.420
367.1062, 1344.463
367.5883, 1337.883
368.0704, 1332.519
368.5526, 1331.005
369.0347, 1328.725
369.5168, 1323.485
369.9989, 1312.841
370.4810, 1304.814
370.9631, 1300.072
371.4453, 1297.615
371.9274, 1296.282
372.4095, 1297.729
372.8916, 1297.919
373.3737, 1296.180
373.8558, 1292.500
374.3380, 1286.184
374.8201, 1275.462
375.3022, 1264.392
375.7843, 1256.695
376.2664, 1253.358
376.7485, 1249.872
377.2307, 1245.649
377.7128, 1240.896
378.1949, 1236.231
378.6770, 1231.618
379.1591, 1227.381
379.6412, 1223.922
380.1234, 1221.214
380.6055, 1218.289
381.0876, 1215.133
381.5697, 1211.665
382.0518, 1207.455
382.5339, 1202.591
383.0161, 1198.091
383.4982, 1194.941
383.9803, 1192.389
384.4624, 1187.990
384.9445, 1181.694
385.4266, 1175.281
385.9088, 1170.707
386.3909, 1167.243
386.8730, 1162.947
387.3551, 1157.136
387.8372, 1150.530
388.3193, 1143.835
388.8015, 1137.058
389.2836, 1130.193
389.7657, 1123.309
390.2478, 1116.291
390.7299, 1108.985
391.2120, 1101.276
391.6942, 1093.791
392.1763, 1086.723
392.6584, 1080.289
393.1405, 1074.710
393.6226, 1070.487
394.1047, 1066.783
394.5869, 1063.591
395.0690, 1060.849
395.5511, 1057.320
396.0332, 1050.841
396.5153, 1044.347
396.9974, 1040.094
397.4796, 1040.922
397.9617, 1041.238
398.4438, 1039.122
398.9259, 1035.624
399.4080, 1034.019
399.8901, 1035.978
400.3723, 1038.738
400.8544, 1041.370
401.3365, 1043.919
401.8186, 1046.236
402.3007, 1048.319
402.7828, 1050.164
403.2649, 1051.667
403.7470, 1052.305
404.2292, 1053.595
404.7113, 1055.880
405.1934, 1059.116
405.6755, 1062.977
406.1576, 1067.972
406.6397, 1072.392
407.1219, 1074.577
407.6040, 1074.162
408.0861, 1074.739
408.5682, 1076.881
409.0503, 1079.864
409.5324, 1082.330
410.0146, 1084.272
410.4967, 1086.361
410.9788, 1089.071
411.4609, 1092.209
411.9430, 1094.935
412.4251, 1097.193
412.9073, 1099.560
413.3894, 1102.607
413.8715, 1106.269
414.3536, 1110.372
414.8357, 1115.164
415.3178, 1120.034
415.8000, 1124.108
416.2821, 1127.511
416.7642, 1130.699
417.2463, 1134.154
417.7284, 1137.465
418.2105, 1139.928
418.6927, 1141.192
419.1748, 1142.833
419.6569, 1146.156
420.1390, 1150.492
420.6211, 1154.691
421.1032, 1158.253
421.5854, 1161.818
422.0675, 1165.715
422.5496, 1169.980
423.0317, 1174.193
423.5138, 1178.046
423.9959, 1181.973
424.4781, 1186.321
424.9602, 1191.014
425.4423, 1196.151
425.9244, 1201.990
426.4065, 1208.282
426.8886, 1214.457
427.3708, 1219.879
427.8529, 1226.069
428.3350, 1233.680
428.8171, 1242.953
429.2992, 1251.911
429.7813, 1260.259
430.2635, 1268.651
430.7456, 1277.853
431.2277, 1287.925
431.7098, 1298.358
432.1919, 1309.033
432.6740, 1320.015
433.1562, 1331.862
433.6383, 1344.738
434.1204, 1356.941
434.6025, 1367.042
435.0846, 1375.391
435.5667, 1384.406
436.0489, 1394.500
436.5310, 1404.175
437.0131, 1412.345
437.4952, 1418.713
437.9773, 1422.085
438.4594, 1421.788
438.9416, 1418.481
439.4237, 1412.223
439.9058, 1403.301
440.3879, 1393.887
440.8700, 1386.488
441.3521, 1378.768
441.8343, 1367.984
442.3164, 1352.983
442.7985, 1336.937
443.2806, 1320.504
443.7627, 1304.486
444.2448, 1289.812
444.7270, 1278.303
445.2091, 1267.014
445.6912, 1254.522
446.1733, 1240.770
446.6554, 1227.771
447.1375, 1215.735
447.6197, 1204.809
448.1018, 1195.099
448.5839, 1187.547
449.0660, 1180.072
449.5481, 1172.689
450.0302, 1165.430
450.5124, 1158.331
450.9945, 1151.109
451.4766, 1144.712
451.9587, 1139.564
452.4408, 1135.683
452.9229, 1132.058
453.4051, 1128.678
453.8872, 1125.466
454.3693, 1122.168
454.8514, 1118.737
455.3335, 1116.069
455.8156, 1114.449
456.2978, 1113.393
456.7799, 1111.973
457.2620, 1110.189
457.7441, 1108.270
458.2262, 1105.904
458.7083, 1103.557
459.1905, 1102.478
459.6726, 1102.765
460.1547, 1103.067
460.6368, 1102.113
461.1189, 1100.405
461.6010, 1098.796
462.0832, 1097.776
462.5653, 1096.596
463.0474, 1094.165
463.5295, 1091.057
464.0116, 1088.946
464.4937, 1090.673
464.9759, 1092.022
465.4580, 1090.160
465.9401, 1084.211
466.4222, 1078.673
466.9043, 1075.252
467.3864, 1072.499
467.8686, 1069.051
468.3507, 1064.070
468.8328, 1059.204
469.3149, 1054.474
469.7970, 1049.979
470.2791, 1046.048
470.7613, 1043.048
471.2434, 1040.102
471.7255, 1036.681
472.2076, 1032.529
472.6897, 1029.603
473.1718, 1028.200
473.6540, 1027.331
474.1361, 1025.744
474.6182, 1023.387
475.1003, 1021.377
475.5824, 1019.921
476.0645, 1018.983
476.5467, 1018.584
477.0288, 1018.692
477.5109, 1019.039
477.9930, 1019.404
478.4751, 1019.892
478.9572, 1020.852
479.4394, 1022.352
479.9215, 1023.745
480.4036, 1024.286
480.8857, 1024.390
481.3678, 1024.668
481.8499, 1025.335
482.3321, 1026.246
482.8142, 1027.345
483.2963, 1028.631
483.7784, 1030.076
484.2605, 1031.688
484.7426, 1033.449
485.2248, 1035.492
485.7069, 1038.002
486.1890, 1040.014
486.6711, 1040.926
487.1532, 1041.551
487.6353, 1042.655
488.1175, 1044.481
488.5996, 1046.366
489.0817, 1048.265
489.5638, 1050.156
490.0459, 1052.028
490.5280, 1053.870
491.0102, 1055.676
491.4923, 1057.308
491.9744, 1058.755
492.4565, 1061.080
492.9386, 1064.534
493.4207, 1067.851
493.9029, 1069.424
494.3850, 1069.503
494.8671, 1069.613
495.3492, 1070.001
495.8313, 1070.719
496.3134, 1071.983
496.7956, 1073.693
497.2777, 1075.484
497.7598, 1077.520
498.2419, 1079.349
498.7240, 1080.028
499.2061, 1079.554
499.6883, 1079.913
500.1704, 1082.902
500.6525, 1086.991
501.1346, 1090.741
501.6167, 1093.700
502.0988, 1096.542
502.5810, 1099.696
503.0631, 1102.843
503.5452, 1105.269
504.0273, 1106.064
504.5094, 1106.878
504.9915, 1108.250
505.4737, 1110.197
505.9558, 1111.369
506.4379, 1111.475
506.9200, 1111.144
507.4021, 1110.845
507.8842, 1110.671
508.3664, 1110.108
508.8485, 1109.142
509.3306, 1107.796
509.8127, 1106.054
510.2948, 1103.949
510.7769, 1101.673
511.2591, 1099.267
511.7412, 1096.806
512.2233, 1094.605
512.7054, 1092.627
513.1875, 1090.420
513.6696, 1086.869
514.1517, 1083.179
514.6339, 1081.640
515.1160, 1083.200
515.5981, 1083.686
516.0802, 1079.121
516.5623, 1072.044
517.0444, 1065.856
517.5266, 1062.698
518.0087, 1059.554
518.4908, 1055.341
518.9729, 1050.217
519.4550, 1044.984
519.9371, 1039.058
520.4193, 1033.739
520.9014, 1029.791
521.3835, 1027.719
521.8656, 1024.768
522.3477, 1020.826
522.8298, 1016.139
523.3120, 1010.671
523.7941, 1004.206
524.2762, 998.5290
524.7583, 994.1837
525.2404, 990.4417
525.7225, 985.3919
526.2047, 979.0352
526.6868, 973.3139
527.1689, 969.8304
527.6510, 967.5659
528.1331, 963.6334
528.6152, 958.0493
529.0974, 952.4227
529.5795, 947.9467
530.0616, 944.1679
530.5437, 940.5392
531.0258, 936.9269
531.5079, 933.3904
531.9901, 929.6267
532.4722, 925.9489
532.9543, 922.8922
533.4364, 921.2733
533.9185, 919.5944
534.4006, 917.2379
534.8828, 914.2887
535.3649, 911.4865
535.8470, 908.4168
536.3291, 906.0170
536.8112, 904.8456
537.2933, 905.3160
537.7755, 905.3426
538.2576, 904.7391
538.7397, 903.9334
539.2218, 903.3984
539.7039, 903.1564
540.1860, 902.9786
540.6682, 902.8435
541.1503, 902.7287
541.6324, 902.6774
542.1145, 902.6628
542.5966, 902.3997
543.0787, 901.3090
543.5609, 900.0490
544.0430, 899.8748
544.5251, 900.7447
545.0072, 901.6511
545.4893, 901.7413
545.9714, 901.5759
546.4536, 901.7651
546.9357, 902.5795
547.4178, 903.3772
547.8999, 903.5494
548.3820, 903.6466
548.8641, 904.4276
549.3463, 906.9181
549.8284, 909.1072
550.3105, 910.2810
550.7926, 910.7240
551.2747, 911.9605
551.7568, 914.3998
552.2390, 916.9933
552.7211, 919.3854
553.2032, 921.6014
553.6853, 923.2540
554.1674, 924.2863
554.6495, 924.9374
555.1317, 925.0655
555.6138, 924.8508
556.0959, 925.8231
556.5780, 928.6215
557.0601, 931.7902
557.5422, 933.2385
558.0244, 933.4106
558.5065, 933.5833
558.9886, 934.9484
559.4707, 936.1416
559.9528, 935.5497
560.4349, 933.4977
560.9171, 932.0178
561.3992, 932.4843
561.8813, 933.4626
562.3634, 934.1003
562.8455, 934.2607
563.3276, 934.1387
563.8098, 933.1229
564.2919, 932.1585
564.7740, 932.1942
565.2561, 934.2102
565.7382, 935.0828
566.2203, 933.8317
566.7025, 931.6595
567.1846, 931.8687
567.6667, 934.7924
568.1488, 937.7372
568.6309, 939.7848
569.1130, 941.0192
569.5952, 941.1472
570.0773, 940.2135
570.5594, 939.9613
571.0415, 942.0531
571.5236, 945.5893
572.0057, 949.1144
572.4879, 952.4758
572.9700, 955.8845
573.4521, 959.6915
573.9342, 963.5761
574.4163, 967.0864
574.8984, 969.1351
575.3806, 971.8537
575.8627, 976.3132
576.3448, 981.9082
576.8269, 986.9908
577.3090, 990.8372
577.7911, 994.8733
578.2733, 999.4675
578.7554, 1004.561
579.2375, 1010.167
579.7196, 1016.351
580.2017, 1022.844
580.6838, 1029.367
581.1660, 1035.893
581.6481, 1042.862
582.1302, 1050.305
582.6123, 1058.009
583.0944, 1065.519
583.5765, 1072.985
584.0587, 1080.941
584.5408, 1089.627
585.0229, 1098.594
