##NAMES=Strontiojoaquinite
##RRUFFID=R070084
##IDEAL CHEMISTRY=(Na,Fe^2+^)_2_Ba_2_Sr_2_Ti^4+^_2_(SiO_3_)_8_(O,OH)_2_&#183;H_2_O
##LOCALITY=Clear Creek area, San Benito County, California, USA
##OWNER=RRUFF
##SOURCE=James Shigley
##DESCRIPTION=Yellow prismatic single crystals
##STATUS=The identification of this mineral is not yet confirmed.
##URL=rruff.info/R070084
170.4860, 2895.754
170.9681, 2908.086
171.4502, 2914.108
171.9323, 2915.526
172.4144, 2915.495
172.8965, 2916.079
173.3787, 2917.283
173.8608, 2920.927
174.3429, 2925.155
174.8250, 2933.216
175.3071, 2948.774
175.7892, 2969.333
176.2714, 2989.378
176.7535, 3004.948
177.2356, 3016.115
177.7177, 3026.129
178.1998, 3037.342
178.6819, 3045.302
179.1641, 3045.858
179.6462, 3041.599
180.1283, 3038.741
180.6104, 3041.503
181.0925, 3049.548
181.5746, 3058.053
182.0567, 3068.282
182.5389, 3077.566
183.0210, 3086.001
183.5031, 3092.844
183.9852, 3096.097
184.4673, 3093.997
184.9494, 3087.293
185.4316, 3083.140
185.9137, 3078.752
186.3958, 3079.007
186.8779, 3089.073
187.3600, 3105.402
187.8421, 3119.330
188.3243, 3125.349
188.8064, 3125.214
189.2885, 3128.947
189.7706, 3140.284
190.2527, 3150.545
190.7348, 3156.314
191.2170, 3158.781
191.6991, 3160.475
192.1812, 3162.394
192.6633, 3164.833
193.1454, 3169.092
193.6275, 3177.638
194.1097, 3184.731
194.5918, 3189.726
195.0739, 3192.007
195.5560, 3188.935
196.0381, 3177.792
196.5202, 3162.845
197.0024, 3157.935
197.4845, 3166.302
197.9666, 3176.665
198.4487, 3189.863
198.9308, 3202.466
199.4129, 3206.271
199.8951, 3196.346
200.3772, 3179.449
200.8593, 3173.136
201.3414, 3183.282
201.8235, 3188.476
202.3056, 3176.499
202.7878, 3156.562
203.2699, 3146.390
203.7520, 3153.422
204.2341, 3168.160
204.7162, 3172.573
205.1983, 3166.536
205.6805, 3154.914
206.1626, 3130.330
206.6447, 3102.826
207.1268, 3090.429
207.6089, 3099.979
208.0910, 3117.890
208.5732, 3123.739
209.0553, 3116.900
209.5374, 3105.710
210.0195, 3083.748
210.5016, 3061.072
210.9837, 3054.254
211.4659, 3068.206
211.9480, 3087.500
212.4301, 3090.989
212.9122, 3076.627
213.3943, 3068.524
213.8764, 3075.083
214.3586, 3087.485
214.8407, 3095.664
215.3228, 3097.885
215.8049, 3098.375
216.2870, 3100.885
216.7691, 3105.487
217.2513, 3112.304
217.7334, 3121.743
218.2155, 3133.181
218.6976, 3148.530
219.1797, 3167.661
219.6618, 3182.819
220.1440, 3186.348
220.6261, 3177.914
221.1082, 3169.376
221.5903, 3157.871
222.0724, 3148.743
222.5546, 3150.051
223.0367, 3160.686
223.5188, 3165.632
224.0009, 3150.042
224.4830, 3118.269
224.9651, 3105.386
225.4473, 3126.816
225.9294, 3153.302
226.4115, 3166.982
226.8936, 3169.757
227.3757, 3173.004
227.8578, 3184.624
228.3400, 3201.266
228.8221, 3208.788
229.3042, 3205.159
229.7863, 3195.852
230.2684, 3173.464
230.7505, 3145.763
231.2327, 3136.763
231.7148, 3161.345
232.1969, 3207.238
232.6790, 3238.399
233.1611, 3248.953
233.6432, 3258.432
234.1254, 3274.298
234.6075, 3293.115
235.0896, 3308.032
235.5717, 3316.008
236.0538, 3320.698
236.5359, 3328.833
237.0181, 3338.636
237.5002, 3355.099
237.9823, 3383.312
238.4644, 3417.276
238.9465, 3450.441
239.4286, 3481.127
239.9108, 3508.018
240.3929, 3528.606
240.8750, 3541.274
241.3571, 3553.122
241.8392, 3557.814
242.3213, 3565.684
242.8035, 3590.415
243.2856, 3633.225
243.7677, 3678.439
244.2498, 3710.059
244.7319, 3724.944
245.2140, 3738.571
245.6962, 3747.562
246.1783, 3757.953
246.6604, 3776.340
247.1425, 3801.421
247.6246, 3823.848
248.1067, 3834.211
248.5889, 3832.279
249.0710, 3845.287
249.5531, 3887.792
250.0352, 3928.564
250.5173, 3954.576
250.9994, 3967.464
251.4816, 3973.562
251.9637, 3976.179
252.4458, 3975.771
252.9279, 3975.364
253.4100, 3974.049
253.8921, 3973.757
254.3743, 3974.414
254.8564, 3976.480
255.3385, 3981.381
255.8206, 3989.968
256.3027, 4000.223
256.7849, 4006.664
257.2670, 4004.242
257.7491, 4004.006
258.2312, 4006.986
258.7133, 4012.010
259.1954, 4018.323
259.6776, 4025.564
260.1597, 4033.207
260.6418, 4041.056
261.1239, 4054.021
261.6060, 4055.902
262.0881, 4040.242
262.5703, 4019.551
263.0524, 4000.348
263.5345, 3984.515
264.0166, 3972.114
264.4987, 3963.412
264.9808, 3958.856
265.4630, 3955.945
265.9451, 3954.487
266.4272, 3954.591
266.9093, 3959.896
267.3914, 3967.318
267.8735, 3968.633
268.3557, 3956.039
268.8378, 3930.489
269.3199, 3913.720
269.8020, 3925.018
270.2841, 3925.260
270.7662, 3897.555
271.2484, 3855.509
271.7305, 3818.516
272.2126, 3796.822
272.6947, 3788.868
273.1768, 3790.855
273.6589, 3810.149
274.1411, 3828.052
274.6232, 3843.647
275.1053, 3855.776
275.5874, 3862.681
276.0695, 3863.891
276.5516, 3861.961
277.0338, 3860.440
277.5159, 3858.717
277.9980, 3859.401
278.4801, 3860.130
278.9622, 3865.232
279.4443, 3880.601
279.9265, 3905.345
280.4086, 3929.784
280.8907, 3945.125
281.3728, 3951.213
281.8549, 3950.579
282.3370, 3930.438
282.8192, 3917.685
283.3013, 3933.982
283.7834, 3969.308
284.2655, 3995.364
284.7476, 3987.700
285.2297, 3956.509
285.7119, 3941.870
286.1940, 3951.726
286.6761, 3962.000
287.1582, 3962.224
287.6403, 3955.372
288.1224, 3943.929
288.6046, 3924.906
289.0867, 3907.241
289.5688, 3907.810
290.0509, 3929.776
290.5330, 3944.399
291.0151, 3931.309
291.4973, 3910.133
291.9794, 3904.470
292.4615, 3919.738
292.9436, 3938.164
293.4257, 3945.844
293.9078, 3944.593
294.3900, 3944.350
294.8721, 3947.698
295.3542, 3952.761
295.8363, 3956.157
296.3184, 3957.750
296.8005, 3963.608
297.2827, 3979.191
297.7648, 3999.635
298.2469, 4016.533
298.7290, 4028.574
299.2111, 4039.031
299.6932, 4050.093
300.1754, 4061.866
300.6575, 4075.407
301.1396, 4089.317
301.6217, 4106.107
302.1038, 4132.108
302.5859, 4165.065
303.0681, 4190.418
303.5501, 4197.656
304.0323, 4191.147
304.5144, 4191.613
304.9965, 4200.431
305.4786, 4213.342
305.9607, 4235.912
306.4428, 4260.650
306.9250, 4273.455
307.4071, 4268.702
307.8892, 4253.025
308.3713, 4238.383
308.8534, 4221.618
309.3355, 4212.222
309.8177, 4216.968
310.2998, 4225.019
310.7819, 4229.660
311.2640, 4228.786
311.7461, 4220.253
312.2282, 4200.867
312.7104, 4168.471
313.1925, 4138.619
313.6746, 4105.009
314.1567, 4079.390
314.6388, 4073.668
315.1209, 4079.709
315.6031, 4080.617
316.0852, 4065.701
316.5673, 4036.664
317.0494, 4001.871
317.5315, 3948.630
318.0136, 3907.330
318.4958, 3882.308
318.9779, 3870.359
319.4600, 3873.324
319.9421, 3891.139
320.4242, 3910.152
320.9063, 3905.941
321.3885, 3869.453
321.8706, 3841.691
322.3527, 3831.217
322.8348, 3827.476
323.3169, 3826.225
323.7990, 3826.847
324.2812, 3829.815
324.7633, 3836.362
325.2454, 3846.082
325.7275, 3855.806
326.2096, 3868.105
326.6917, 3875.857
327.1739, 3870.399
327.6560, 3858.996
328.1381, 3855.070
328.6202, 3865.495
329.1023, 3884.121
329.5844, 3903.135
330.0666, 3922.633
330.5487, 3941.620
331.0308, 3961.236
331.5129, 3978.924
331.9950, 3991.190
332.4771, 3996.727
332.9593, 4000.817
333.4414, 4004.831
333.9235, 4009.772
334.4056, 4020.501
334.8877, 4040.592
335.3698, 4059.301
335.8520, 4059.776
336.3341, 4042.236
336.8162, 4032.051
337.2983, 4039.234
337.7804, 4051.817
338.2625, 4058.779
338.7447, 4059.795
339.2268, 4060.711
339.7089, 4066.429
340.1910, 4075.788
340.6731, 4078.143
341.1552, 4063.945
341.6374, 4054.717
342.1195, 4061.796
342.6016, 4077.082
343.0837, 4087.877
343.5658, 4089.137
344.0479, 4083.954
344.5301, 4077.927
345.0122, 4067.461
345.4943, 4063.191
345.9764, 4072.003
346.4585, 4081.220
346.9406, 4079.854
347.4228, 4068.855
347.9049, 4058.581
348.3870, 4059.162
348.8691, 4070.846
349.3512, 4080.503
349.8333, 4091.646
350.3155, 4096.252
350.7976, 4086.797
351.2797, 4070.942
351.7618, 4060.528
352.2439, 4061.795
352.7260, 4068.363
353.2082, 4067.307
353.6903, 4056.528
354.1724, 4045.633
354.6545, 4040.219
355.1366, 4033.301
355.6187, 4018.348
356.1009, 3994.978
356.5830, 3972.036
357.0651, 3957.887
357.5472, 3950.214
358.0293, 3938.078
358.5114, 3918.839
358.9936, 3898.624
359.4757, 3883.261
359.9578, 3870.687
360.4399, 3855.690
360.9220, 3836.132
361.4041, 3814.191
361.8863, 3793.415
362.3684, 3773.197
362.8505, 3747.060
363.3326, 3709.477
363.8147, 3666.784
364.2968, 3633.257
364.7790, 3608.251
365.2611, 3591.530
365.7432, 3590.366
366.2253, 3594.237
366.7074, 3590.631
367.1895, 3576.819
367.6717, 3555.506
368.1538, 3528.164
368.6359, 3493.146
369.1180, 3464.537
369.6001, 3443.893
370.0822, 3427.062
370.5644, 3412.842
371.0465, 3400.917
371.5286, 3390.973
372.0107, 3382.845
372.4928, 3376.592
372.9749, 3372.536
373.4571, 3371.061
373.9392, 3371.392
374.4213, 3379.371
374.9034, 3384.949
375.3855, 3378.706
375.8676, 3360.020
376.3498, 3337.488
376.8319, 3318.067
377.3140, 3301.741
377.7961, 3291.393
378.2782, 3290.204
378.7603, 3291.173
379.2425, 3290.783
379.7246, 3289.902
380.2067, 3290.768
380.6888, 3296.663
381.1709, 3301.492
381.6530, 3294.431
382.1352, 3275.223
382.6173, 3258.896
383.0994, 3251.804
383.5815, 3249.400
384.0636, 3245.595
384.5457, 3240.604
385.0279, 3233.110
385.5100, 3219.874
385.9921, 3204.768
386.4742, 3193.262
386.9563, 3186.154
387.4384, 3182.636
387.9206, 3182.990
388.4027, 3187.080
388.8848, 3188.421
389.3669, 3186.278
389.8490, 3182.431
390.3311, 3176.961
390.8133, 3170.397
391.2954, 3162.557
391.7775, 3153.313
392.2596, 3145.454
392.7417, 3145.798
393.2238, 3166.686
393.7060, 3170.924
394.1881, 3141.432
394.6702, 3111.642
395.1523, 3102.737
395.6344, 3113.278
396.1165, 3130.261
396.5987, 3146.316
397.0808, 3159.573
397.5629, 3155.337
398.0450, 3116.695
398.5271, 3091.337
399.0092, 3105.041
399.4914, 3132.628
399.9735, 3147.200
400.4556, 3141.297
400.9377, 3128.061
401.4198, 3118.546
401.9019, 3112.700
402.3841, 3111.260
402.8662, 3116.850
403.3483, 3122.445
403.8304, 3116.714
404.3125, 3103.479
404.7946, 3102.239
405.2768, 3133.280
405.7589, 3167.062
406.2410, 3174.506
406.7231, 3158.581
407.2052, 3138.597
407.6873, 3122.056
408.1695, 3110.404
408.6516, 3108.116
409.1337, 3118.382
409.6158, 3131.170
410.0979, 3150.011
410.5800, 3167.975
411.0622, 3177.203
411.5443, 3177.643
412.0264, 3176.699
412.5085, 3182.155
412.9906, 3194.163
413.4727, 3196.922
413.9549, 3172.695
414.4370, 3159.017
414.9191, 3168.378
415.4012, 3190.558
415.8833, 3213.508
416.3654, 3232.989
416.8476, 3249.957
417.3297, 3266.350
417.8118, 3282.422
418.2939, 3294.394
418.7760, 3298.076
419.2581, 3301.574
419.7403, 3312.703
420.2224, 3328.700
420.7045, 3339.447
421.1866, 3334.569
421.6687, 3325.422
422.1508, 3328.340
422.6330, 3342.999
423.1151, 3358.981
423.5972, 3370.514
424.0793, 3381.654
424.5614, 3402.240
425.0435, 3436.182
425.5257, 3466.462
426.0078, 3483.553
426.4899, 3497.578
426.9720, 3521.128
427.4541, 3554.776
427.9362, 3588.232
428.4184, 3612.146
428.9005, 3626.992
429.3826, 3645.226
429.8647, 3662.220
430.3468, 3688.162
430.8289, 3734.101
431.3111, 3785.968
431.7932, 3828.013
432.2753, 3855.335
432.7574, 3873.535
433.2395, 3888.864
433.7216, 3900.900
434.2038, 3913.038
434.6859, 3923.967
435.1680, 3936.885
435.6501, 3954.886
436.1322, 3975.762
436.6143, 3995.006
437.0965, 4011.390
437.5786, 4024.396
438.0607, 4033.074
438.5428, 4037.546
439.0249, 4038.591
439.5070, 4035.872
439.9892, 4030.646
440.4713, 4027.382
440.9534, 4027.921
441.4355, 4014.725
441.9176, 3974.555
442.3997, 3925.813
442.8819, 3882.641
443.3640, 3846.168
443.8461, 3814.373
444.3282, 3786.793
444.8103, 3761.994
445.2924, 3734.170
445.7746, 3701.484
446.2567, 3667.901
446.7388, 3633.310
447.2209, 3598.039
447.7030, 3561.357
448.1852, 3523.677
448.6673, 3488.487
449.1494, 3459.671
449.6315, 3436.535
450.1136, 3409.237
450.5957, 3372.086
451.0779, 3341.716
451.5600, 3331.202
452.0421, 3327.720
452.5242, 3315.253
453.0063, 3288.465
453.4884, 3262.628
453.9706, 3255.092
454.4527, 3258.793
454.9348, 3248.210
455.4169, 3215.855
455.8990, 3184.219
456.3811, 3174.344
456.8633, 3185.547
457.3454, 3192.679
457.8275, 3195.662
458.3096, 3194.316
458.7917, 3187.150
459.2738, 3175.908
459.7560, 3161.757
460.2381, 3145.346
460.7202, 3131.297
461.2023, 3127.388
461.6844, 3137.191
462.1665, 3144.456
462.6487, 3152.986
463.1308, 3155.219
463.6129, 3143.983
464.0950, 3124.849
464.5771, 3107.969
465.0592, 3098.151
465.5414, 3093.201
466.0235, 3090.729
466.5056, 3091.156
466.9877, 3088.991
467.4698, 3082.491
467.9519, 3073.537
468.4341, 3062.883
468.9162, 3050.976
469.3983, 3041.031
469.8804, 3033.365
470.3625, 3028.791
470.8446, 3031.181
471.3268, 3038.519
471.8089, 3040.330
472.2910, 3030.794
472.7731, 3015.503
473.2552, 3006.373
473.7373, 3007.802
474.2195, 3007.401
474.7016, 3003.962
475.1837, 2999.678
475.6658, 2992.032
476.1479, 2984.455
476.6300, 2987.053
477.1122, 3008.163
477.5943, 3040.214
478.0764, 3058.387
478.5585, 3059.593
479.0406, 3054.909
479.5227, 3035.637
480.0049, 3019.120
480.4870, 3021.872
480.9691, 3042.376
481.4512, 3058.761
481.9333, 3051.912
482.4154, 3035.352
482.8976, 3033.490
483.3797, 3047.031
483.8618, 3061.461
484.3439, 3069.850
484.8260, 3074.365
485.3081, 3080.305
485.7903, 3087.784
486.2724, 3095.974
486.7545, 3108.568
487.2366, 3119.133
487.7187, 3118.780
488.2008, 3109.621
488.6830, 3103.051
489.1651, 3107.288
489.6472, 3121.094
490.1293, 3140.275
490.6114, 3175.268
491.0935, 3196.397
491.5757, 3188.305
492.0578, 3174.471
492.5399, 3171.820
493.0220, 3181.907
493.5041, 3196.610
493.9862, 3212.871
494.4684, 3229.027
494.9505, 3239.415
495.4326, 3242.986
495.9147, 3250.428
496.3968, 3270.270
496.8789, 3294.660
497.3611, 3305.899
497.8432, 3297.206
498.3253, 3297.536
498.8074, 3322.075
499.2895, 3354.490
499.7716, 3381.916
500.2538, 3401.809
500.7359, 3411.547
501.2180, 3407.443
501.7001, 3394.627
502.1822, 3396.676
502.6643, 3425.245
503.1465, 3449.667
503.6286, 3466.773
504.1107, 3479.347
504.5928, 3488.289
505.0749, 3494.348
505.5570, 3499.354
506.0392, 3505.401
506.5213, 3510.981
507.0034, 3512.232
507.4855, 3508.905
507.9676, 3503.161
508.4497, 3494.520
508.9319, 3484.953
509.4140, 3478.043
509.8961, 3474.504
510.3782, 3469.321
510.8603, 3459.140
511.3424, 3448.264
511.8246, 3442.686
512.3067, 3440.579
512.7888, 3432.943
513.2709, 3413.790
513.7531, 3388.677
514.2352, 3374.732
514.7173, 3381.985
515.1994, 3380.871
515.6815, 3369.609
516.1636, 3350.929
516.6458, 3320.267
517.1279, 3282.895
517.6100, 3253.229
518.0921, 3242.389
518.5742, 3240.496
519.0563, 3231.755
519.5385, 3216.164
520.0206, 3195.400
520.5027, 3166.929
520.9848, 3137.747
521.4669, 3117.576
521.9490, 3106.205
522.4312, 3094.563
522.9133, 3080.515
523.3954, 3066.591
523.8775, 3054.402
524.3596, 3043.567
524.8417, 3032.891
525.3239, 3021.832
525.8060, 3011.287
526.2881, 3003.292
526.7702, 2999.464
527.2523, 2992.451
527.7344, 2978.539
528.2166, 2965.137
528.6987, 2958.028
529.1808, 2952.564
529.6629, 2938.931
530.1450, 2910.915
530.6271, 2883.123
531.1093, 2873.359
531.5914, 2877.555
532.0735, 2878.911
532.5556, 2874.626
533.0377, 2866.094
533.5198, 2854.176
534.0020, 2838.739
534.4841, 2821.012
534.9662, 2792.382
535.4483, 2771.862
535.9304, 2769.690
536.4125, 2776.643
536.8947, 2784.077
537.3768, 2788.982
537.8589, 2788.800
538.3410, 2779.448
538.8231, 2761.986
539.3052, 2751.387
539.7874, 2752.427
540.2695, 2751.028
540.7516, 2741.023
541.2337, 2727.279
541.7158, 2712.472
542.1979, 2696.866
542.6801, 2685.983
543.1622, 2684.566
543.6443, 2688.965
544.1264, 2695.830
544.6085, 2704.332
545.0906, 2709.611
545.5728, 2708.665
546.0549, 2703.523
546.5370, 2699.185
547.0191, 2695.685
547.5012, 2692.995
547.9833, 2690.852
548.4655, 2689.740
548.9476, 2689.261
549.4297, 2690.087
549.9117, 2694.895
550.3939, 2706.448
550.8760, 2717.801
551.3581, 2713.931
551.8402, 2694.150
552.3223, 2681.052
552.8044, 2679.877
553.2866, 2684.380
553.7687, 2692.570
554.2508, 2702.648
554.7329, 2707.192
555.2150, 2701.515
555.6971, 2693.823
556.1793, 2683.842
556.6614, 2676.079
557.1435, 2681.623
557.6256, 2701.740
558.1077, 2720.439
558.5898, 2720.123
559.0720, 2701.119
559.5541, 2686.031
560.0362, 2673.711
560.5183, 2667.488
561.0004, 2672.180
561.4825, 2680.078
561.9647, 2683.338
562.4468, 2681.017
562.9289, 2679.230
563.4110, 2683.337
563.8931, 2690.019
564.3752, 2694.871
564.8574, 2697.501
565.3395, 2693.966
565.8216, 2680.309
566.3037, 2663.458
566.7858, 2657.634
567.2679, 2670.499
567.7501, 2676.377
568.2322, 2665.357
568.7143, 2656.982
569.1964, 2666.373
569.6785, 2685.460
570.1606, 2697.258
570.6428, 2693.859
571.1249, 2684.270
571.6070, 2681.532
572.0891, 2685.489
572.5712, 2688.552
573.0533, 2689.870
573.5355, 2690.409
574.0176, 2688.771
574.4997, 2687.101
574.9818, 2691.456
575.4639, 2706.961
575.9460, 2720.385
576.4282, 2724.594
576.9103, 2725.069
577.3924, 2726.082
577.8745, 2729.392
578.3566, 2739.522
578.8387, 2761.436
579.3209, 2790.044
579.8030, 2803.474
580.2851, 2793.779
580.7672, 2788.138
581.2493, 2790.677
581.7314, 2799.084
582.2136, 2815.395
582.6957, 2837.372
583.1778, 2856.069
583.6599, 2864.938
584.1420, 2872.136
584.6241, 2886.576
585.1063, 2905.772
585.5884, 2922.057
586.0705, 2933.036
586.5526, 2943.904
587.0347, 2960.361
587.5168, 2982.496
587.9990, 3006.150
588.4811, 3039.985
588.9632, 3064.503
589.4453, 3067.229
589.9274, 3064.690
590.4095, 3071.937
590.8917, 3091.526
591.3738, 3118.093
591.8559, 3152.037
592.3380, 3188.756
592.8201, 3214.473
593.3022, 3229.415
593.7844, 3253.559
594.2665, 3298.452
594.7486, 3348.787
595.2307, 3380.145
595.7128, 3386.744
596.1949, 3399.678
596.6771, 3428.175
597.1592, 3453.801
597.6413, 3462.471
598.1234, 3464.651
598.6055, 3478.118
599.0876, 3508.075
599.5698, 3541.793
600.0519, 3565.742
600.5340, 3580.419
601.0161, 3589.660
601.4982, 3592.129
601.9803, 3593.775
602.4625, 3596.122
602.9446, 3600.138
603.4267, 3608.193
603.9088, 3621.877
604.3909, 3632.602
604.8730, 3632.540
605.3552, 3633.683
605.8373, 3647.971
606.3194, 3671.046
606.8015, 3692.968
607.2836, 3709.199
607.7657, 3716.678
608.2479, 3704.433
608.7300, 3667.785
609.2121, 3656.721
609.6942, 3690.313
610.1763, 3719.976
610.6584, 3713.407
611.1406, 3689.621
611.6227, 3674.832
612.1048, 3672.588
612.5869, 3677.755
613.0690, 3693.334
613.5511, 3711.835
614.0333, 3725.284
614.5154, 3733.369
614.9975, 3738.027
615.4796, 3740.105
615.9617, 3740.978
616.4438, 3745.535
616.9260, 3758.863
617.4081, 3757.124
617.8902, 3721.317
618.3723, 3691.844
618.8544, 3696.465
619.3365, 3717.762
619.8187, 3722.856
620.3008, 3698.797
620.7829, 3675.764
621.2650, 3675.387
621.7471, 3686.851
622.2292, 3694.941
622.7114, 3698.010
623.1935, 3700.026
623.6756, 3704.160
624.1577, 3706.741
624.6398, 3696.690
625.1219, 3666.564
625.6041, 3641.404
626.0862, 3625.172
626.5683, 3610.970
627.0504, 3595.638
627.5325, 3580.185
628.0146, 3566.571
628.4968, 3555.139
628.9789, 3546.227
629.4610, 3543.654
629.9431, 3542.617
630.4252, 3533.595
630.9073, 3515.869
631.3895, 3493.989
631.8716, 3470.512
632.3537, 3446.219
632.8358, 3422.521
633.3179, 3391.837
633.8000, 3377.395
634.2822, 3401.073
634.7643, 3419.272
635.2464, 3406.816
635.7285, 3374.234
636.2106, 3342.569
636.6927, 3317.356
637.1749, 3301.176
637.6570, 3303.210
638.1391, 3314.143
638.6212, 3312.410
639.1033, 3296.302
639.5854, 3281.458
640.0676, 3278.747
640.5497, 3282.749
641.0318, 3276.635
641.5139, 3248.846
641.9960, 3233.447
642.4781, 3241.181
642.9603, 3249.984
643.4424, 3249.013
643.9245, 3241.716
644.4066, 3235.337
644.8887, 3232.102
645.3708, 3230.821
645.8530, 3228.352
646.3351, 3227.760
646.8172, 3239.776
647.2993, 3263.915
647.7814, 3278.435
648.2635, 3268.271
648.7457, 3245.851
649.2278, 3243.693
649.7099, 3274.874
650.1920, 3297.443
650.6741, 3309.137
651.1563, 3314.885
651.6384, 3312.082
652.1205, 3306.089
652.6026, 3305.863
653.0847, 3314.523
653.5668, 3324.757
654.0490, 3327.601
654.5311, 3329.899
655.0132, 3348.218
655.4953, 3380.787
655.9774, 3404.287
656.4595, 3405.381
656.9417, 3396.237
657.4238, 3403.130
657.9059, 3437.069
658.3880, 3450.833
658.8701, 3415.984
659.3522, 3393.046
659.8344, 3410.733
660.3165, 3448.402
660.7986, 3480.059
661.2807, 3500.608
661.7628, 3512.557
662.2449, 3512.821
662.7271, 3508.096
663.2092, 3504.706
663.6913, 3504.000
664.1734, 3509.218
664.6555, 3521.761
665.1376, 3540.078
665.6198, 3561.532
666.1019, 3585.649
666.5840, 3617.307
667.0661, 3667.618
667.5482, 3708.525
668.0303, 3727.894
