##NAMES=Strunzite
##RRUFFID=R050619
##IDEAL CHEMISTRY=Mn^2+^Fe^3+^_2_(P^5+^O_4_)_2_(OH)_2_&#183;6H_2_O
##LOCALITY=Hagendorf, Germany
##OWNER=RRUFF
##SOURCE=University of Arizona Mineral Museum
##DESCRIPTION=Pale yellow acicular crystals
##STATUS=The identification of this mineral is confirmed by single-crystal X-ray diffraction and chemical analysis.
##URL=rruff.info/R050619
##MEASURED CHEMISTRY=(Mn^2+^_0.52_Fe^2+^_0.43_Mg_0.05_)_Σ=1_Fe^3+^_2.00_(P_1.00_O_4_)_2_(OH)_2_·6H_2_O
91.11523, 24.54255
91.59735, 26.92514
92.07947, 25.03083
92.56158, 20.08932
93.04370, 15.96601
93.52582, 15.06902
94.00793, 16.51625
94.49006, 18.76388
94.97218, 21.99918
95.45429, 25.21894
95.93641, 26.81079
96.41853, 26.79945
96.90064, 26.20143
97.38276, 25.65684
97.86488, 25.14599
98.34699, 24.30181
98.82911, 22.80191
99.31123, 21.07273
99.79334, 20.85917
100.2755, 22.55723
100.7576, 24.40442
101.2397, 24.67381
101.7218, 23.01269
102.2039, 21.39842
102.6861, 19.92703
103.1682, 18.60369
103.6503, 19.39095
104.1324, 23.86399
104.6145, 28.71702
105.0966, 29.74893
105.5788, 24.74743
106.0609, 19.66293
106.5430, 15.48477
107.0251, 11.38435
107.5072, 11.26662
107.9893, 18.81164
108.4715, 29.43559
108.9536, 34.91760
109.4357, 30.58506
109.9178, 25.30807
110.3999, 21.73672
110.8820, 20.33526
111.3642, 19.91368
111.8463, 20.52331
112.3284, 22.09562
112.8105, 24.41743
113.2926, 29.04333
113.7747, 33.38219
114.2569, 36.05666
114.7390, 34.89020
115.2211, 34.33527
115.7032, 35.88754
116.1853, 39.12108
116.6674, 41.86228
117.1496, 42.01226
117.6317, 42.03015
118.1138, 43.93366
118.5959, 50.16032
119.0780, 56.85670
119.5602, 62.45723
120.0423, 67.00471
120.5244, 70.70267
121.0065, 72.24329
121.4886, 73.31564
121.9707, 76.16261
122.4529, 82.52177
122.9350, 90.51233
123.4171, 99.81475
123.8992, 110.7090
124.3813, 119.0609
124.8634, 118.2244
125.3456, 111.9830
125.8277, 108.9227
126.3098, 116.4267
126.7919, 128.8276
127.2740, 137.4919
127.7561, 141.1840
128.2383, 143.3437
128.7204, 149.0548
129.2025, 157.4026
129.6846, 163.5856
130.1667, 160.6462
130.6488, 152.7753
131.1310, 153.8655
131.6131, 167.7412
132.0952, 187.2326
132.5773, 199.1939
133.0594, 203.5418
133.5415, 206.9097
134.0237, 214.1141
134.5058, 224.9555
134.9879, 235.8152
135.4700, 246.6556
135.9521, 256.9070
136.4343, 264.2671
136.9164, 267.9373
137.3985, 272.0945
137.8806, 281.4474
138.3627, 297.2147
138.8448, 310.0772
139.3270, 317.7829
139.8091, 320.9618
140.2912, 325.3473
140.7733, 331.4034
141.2554, 337.9191
141.7375, 342.8454
142.2197, 344.2573
142.7018, 349.5713
143.1839, 361.8056
143.6660, 381.5933
144.1481, 397.2474
144.6302, 405.1053
145.1124, 411.8110
145.5945, 425.9669
146.0766, 453.3257
146.5587, 479.5968
147.0408, 500.4850
147.5230, 513.7820
148.0051, 529.8760
148.4872, 548.4373
148.9693, 565.6411
149.4514, 579.9577
149.9335, 588.0029
150.4157, 596.9354
150.8978, 608.7403
151.3799, 625.4744
151.8620, 641.0736
152.3441, 655.2979
152.8262, 668.5710
153.3084, 681.3463
153.7905, 691.3000
154.2726, 702.6736
154.7547, 717.3956
155.2368, 737.8692
155.7189, 757.3702
156.2011, 773.1854
156.6832, 787.4063
157.1653, 804.8253
157.6474, 826.6557
158.1295, 851.5967
158.6116, 879.0895
159.0938, 910.1864
159.5759, 942.1363
160.0580, 972.3661
160.5401, 1002.371
161.0222, 1037.375
161.5044, 1083.921
161.9865, 1133.175
162.4686, 1179.186
162.9507, 1220.103
163.4328, 1258.108
163.9149, 1296.215
164.3971, 1333.601
164.8792, 1364.050
165.3613, 1385.729
165.8434, 1398.963
166.3255, 1404.090
166.8076, 1402.615
167.2898, 1391.993
167.7719, 1368.110
168.2540, 1332.068
168.7361, 1293.064
169.2182, 1254.886
169.7003, 1217.259
170.1825, 1179.850
170.6646, 1141.165
171.1467, 1103.586
171.6288, 1067.741
172.1109, 1033.958
172.5931, 1003.502
173.0752, 976.8586
173.5573, 954.2218
174.0394, 935.8649
174.5215, 924.2148
175.0036, 915.8019
175.4858, 906.9063
175.9679, 897.3563
176.4500, 889.0174
176.9321, 882.9274
177.4142, 879.1035
177.8963, 877.6666
178.3785, 880.3953
178.8606, 884.9630
179.3427, 887.9063
179.8248, 889.1942
180.3069, 889.1279
180.7890, 887.2225
181.2712, 884.0257
181.7533, 881.2969
182.2354, 880.8250
182.7175, 881.2824
183.1996, 879.5535
183.6818, 875.2706
184.1639, 870.2227
184.6460, 867.0906
185.1281, 865.3265
185.6102, 861.8453
186.0923, 853.7832
186.5745, 842.6796
187.0566, 833.9542
187.5387, 828.0746
188.0208, 823.3060
188.5029, 817.3304
188.9850, 810.2145
189.4672, 802.4278
189.9493, 793.6871
190.4314, 784.3240
190.9135, 775.6793
191.3956, 767.9618
191.8777, 760.7382
192.3599, 752.5712
192.8420, 743.4827
193.3241, 735.7373
193.8062, 731.3860
194.2883, 730.0014
194.7704, 727.2922
195.2526, 723.0038
195.7347, 717.3459
196.2168, 709.8187
196.6989, 700.1400
197.1810, 691.8209
197.6632, 687.5140
198.1453, 687.1605
198.6274, 685.7098
199.1095, 682.8109
199.5916, 678.8095
200.0737, 674.4848
200.5559, 669.8695
201.0380, 664.6768
201.5201, 658.2452
202.0022, 650.3255
202.4843, 644.1835
202.9664, 640.3345
203.4486, 638.0331
203.9307, 635.8468
204.4128, 634.0013
204.8949, 631.4995
205.3770, 627.4169
205.8591, 621.3983
206.3413, 616.3013
206.8234, 612.2019
207.3055, 609.1396
207.7876, 607.3986
208.2697, 607.2541
208.7519, 607.5944
209.2340, 607.6918
209.7161, 607.2979
210.1982, 608.0135
210.6803, 610.4157
211.1624, 613.6952
211.6446, 615.3614
212.1267, 614.6388
212.6088, 614.1951
213.0909, 615.4938
213.5730, 618.8961
214.0551, 622.8854
214.5373, 628.1267
215.0194, 633.6077
215.5015, 636.0192
215.9836, 633.6595
216.4657, 631.7444
216.9478, 633.3184
217.4300, 639.8419
217.9121, 645.1498
218.3942, 648.7615
218.8763, 651.0304
219.3584, 652.6796
219.8405, 652.9339
220.3227, 653.9379
220.8048, 656.7338
221.2869, 661.5407
221.7690, 667.8222
222.2511, 676.8792
222.7333, 687.0024
223.2154, 692.4602
223.6975, 690.7926
224.1796, 688.7412
224.6617, 689.8740
225.1438, 696.0095
225.6260, 700.4962
226.1081, 702.6931
226.5902, 703.2921
227.0723, 704.2343
227.5544, 706.0607
228.0365, 707.4140
228.5187, 707.8363
229.0008, 707.8215
229.4829, 705.5020
229.9650, 699.7571
230.4471, 691.9631
230.9292, 685.7007
231.4114, 681.1978
231.8935, 677.7169
232.3756, 675.1465
232.8577, 674.1555
233.3398, 672.2422
233.8220, 668.7238
234.3041, 664.4849
234.7862, 661.7308
235.2683, 660.5175
235.7504, 660.7044
236.2325, 662.4130
236.7147, 666.1979
237.1968, 670.0731
237.6789, 674.0873
238.1610, 678.2081
238.6431, 682.2565
239.1252, 685.8895
239.6074, 690.0875
240.0895, 695.0361
240.5716, 700.0844
241.0537, 707.7941
241.5358, 719.3378
242.0179, 732.9789
242.5001, 745.4502
242.9822, 756.8587
243.4643, 766.8670
243.9464, 774.8367
244.4285, 779.4378
244.9106, 786.5785
245.3928, 797.6267
245.8749, 810.3998
246.3570, 821.2208
246.8391, 829.9246
247.3212, 836.9141
247.8034, 842.2862
248.2855, 846.0187
248.7676, 848.2438
249.2497, 848.9169
249.7318, 848.1664
250.2139, 845.8527
250.6961, 840.5215
251.1782, 836.3406
251.6603, 834.7897
252.1424, 836.4252
252.6245, 837.4437
253.1066, 837.6353
253.5888, 837.4289
254.0709, 837.3025
254.5530, 837.0469
255.0351, 837.3181
255.5172, 838.4623
255.9993, 840.6118
256.4815, 842.1161
256.9636, 842.3868
257.4457, 842.6142
257.9278, 844.4891
258.4099, 849.3138
258.8921, 852.7513
259.3742, 853.3881
259.8563, 851.1646
260.3384, 850.0540
260.8205, 850.6942
261.3026, 851.6173
261.7848, 851.2045
262.2669, 848.8150
262.7490, 847.0172
263.2311, 847.1168
263.7132, 848.8057
264.1953, 846.5784
264.6775, 838.9101
265.1596, 829.8004
265.6417, 822.4461
266.1238, 816.8377
266.6059, 813.2236
267.0880, 812.4681
267.5702, 813.9435
268.0523, 813.1251
268.5344, 809.0653
269.0165, 804.6360
269.4986, 802.3555
269.9807, 802.9952
270.4629, 802.2521
270.9450, 799.4899
271.4271, 794.9542
271.9092, 788.8243
272.3913, 779.7217
272.8734, 772.9268
273.3556, 773.4410
273.8377, 782.8115
274.3198, 788.5637
274.8019, 788.7242
275.2840, 785.1846
275.7661, 783.0116
276.2483, 782.3612
276.7304, 782.4237
277.2125, 782.7822
277.6946, 783.4307
278.1768, 784.5855
278.6589, 786.4540
279.1410, 788.5910
279.6231, 789.8748
280.1052, 790.1437
280.5873, 790.7809
281.0695, 792.9342
281.5516, 796.5811
282.0337, 798.7122
282.5158, 798.8363
282.9979, 798.3268
283.4800, 799.6021
283.9622, 802.7496
284.4443, 805.6972
284.9264, 807.9393
285.4085, 809.3492
285.8906, 808.4085
286.3727, 804.5333
286.8549, 800.3662
287.3370, 799.4190
287.8191, 801.5764
288.3012, 804.6344
288.7833, 808.8441
289.2654, 813.2830
289.7476, 813.7299
290.2297, 809.7321
290.7118, 805.3278
291.1939, 805.4991
291.6760, 809.4520
292.1581, 812.2444
292.6403, 811.7535
293.1224, 809.5074
293.6045, 809.6032
294.0866, 812.0674
294.5687, 813.8531
295.0508, 811.2443
295.5330, 805.5554
296.0151, 801.5416
296.4972, 800.9377
296.9793, 801.7388
297.4614, 800.3703
297.9435, 797.0677
298.4257, 793.8304
298.9078, 792.5280
299.3899, 792.3242
299.8720, 791.6157
300.3541, 790.3253
300.8362, 787.9543
301.3184, 783.0312
301.8005, 776.1437
302.2826, 769.9202
302.7647, 767.4412
303.2469, 766.0856
303.7290, 761.3336
304.2111, 751.9446
304.6932, 742.1243
305.1753, 736.4468
305.6574, 733.6299
306.1396, 730.8813
306.6217, 727.3473
307.1038, 722.8478
307.5859, 716.8936
308.0680, 709.2859
308.5501, 701.4861
309.0323, 693.2833
309.5144, 685.7966
309.9965, 680.8234
310.4786, 682.1791
310.9607, 684.0729
311.4428, 681.7392
311.9250, 675.2435
312.4071, 668.4526
312.8892, 662.9562
313.3713, 658.7549
313.8534, 655.8494
314.3355, 656.9451
314.8177, 656.9037
315.2998, 651.6708
315.7819, 642.3633
316.2640, 634.7996
316.7461, 633.0822
317.2282, 633.3489
317.7104, 632.6291
318.1925, 629.6436
318.6746, 626.5206
319.1567, 623.8932
319.6388, 621.6492
320.1209, 619.5665
320.6031, 619.0803
321.0852, 617.6155
321.5673, 613.3352
322.0494, 603.9632
322.5315, 596.5723
323.0136, 593.8776
323.4958, 593.8624
323.9779, 593.2482
324.4600, 592.1188
324.9421, 589.7362
325.4242, 585.4169
325.9064, 578.4709
326.3885, 572.5466
326.8706, 568.9504
327.3527, 566.1141
327.8348, 562.3336
328.3170, 556.3723
328.7991, 550.7083
329.2812, 546.0693
329.7633, 542.4779
330.2454, 537.9370
330.7275, 532.4437
331.2097, 526.0353
331.6918, 518.5556
332.1739, 508.0818
332.6560, 499.6057
333.1381, 494.0314
333.6202, 490.9157
334.1024, 488.6238
334.5845, 487.8271
335.0666, 486.8844
335.5487, 485.0263
336.0308, 482.3575
336.5129, 478.3676
336.9951, 472.2344
337.4772, 465.3685
337.9593, 460.4939
338.4414, 458.0328
338.9235, 456.3803
339.4056, 455.2044
339.8878, 454.6328
340.3699, 453.1363
340.8520, 450.7856
341.3341, 447.3587
341.8162, 441.3213
342.2983, 432.2072
342.7805, 426.0369
343.2626, 425.4823
343.7447, 429.4672
344.2268, 432.9300
344.7089, 436.0513
345.1910, 437.6847
345.6732, 435.8730
346.1553, 431.0711
346.6374, 427.3354
347.1195, 425.8597
347.6016, 425.3963
348.0837, 422.4591
348.5659, 417.2708
349.0480, 413.9582
349.5301, 417.8793
350.0122, 425.8283
350.4944, 428.9047
350.9765, 425.1747
351.4586, 419.3287
351.9407, 418.0959
352.4228, 419.8570
352.9049, 419.2293
353.3871, 409.8558
353.8692, 398.0672
354.3513, 392.3965
354.8334, 393.4127
355.3155, 397.1060
355.7976, 403.3218
356.2798, 409.5996
356.7619, 412.0343
357.2440, 405.3441
357.7261, 397.1974
358.2082, 392.5402
358.6903, 391.2121
359.1725, 392.1274
359.6546, 397.2816
360.1367, 403.1115
360.6188, 406.2401
361.1009, 404.0472
361.5830, 401.8434
362.0652, 402.1880
362.5473, 404.2486
363.0294, 405.9708
363.5115, 405.9618
363.9936, 405.9918
364.4757, 407.0951
364.9579, 409.8377
365.4400, 412.2153
365.9221, 413.4801
366.4042, 414.2875
366.8863, 415.4669
367.3684, 417.8087
367.8506, 419.8587
368.3327, 421.1528
368.8148, 421.6003
369.2969, 422.2713
369.7790, 423.0139
370.2611, 424.1006
370.7433, 425.7897
371.2254, 428.9200
371.7075, 431.2823
372.1896, 432.4601
372.6717, 432.7158
373.1538, 432.8953
373.6360, 432.0202
374.1181, 432.6369
374.6002, 436.6196
375.0823, 445.7801
375.5645, 451.6474
376.0466, 453.1521
376.5287, 452.4818
377.0108, 452.7430
377.4929, 453.6898
377.9750, 456.8858
378.4572, 464.1789
378.9393, 474.7982
379.4214, 480.3508
379.9035, 479.9462
380.3856, 478.0378
380.8677, 478.7382
381.3499, 481.9300
381.8320, 486.2329
382.3141, 491.8632
382.7962, 497.8994
383.2783, 502.2445
383.7604, 504.9774
384.2426, 507.8040
384.7247, 512.1962
385.2068, 517.4722
385.6889, 522.3792
386.1710, 526.7940
386.6531, 530.5681
387.1353, 533.0673
387.6174, 534.7751
388.0995, 536.9650
388.5816, 539.9815
389.0637, 543.9507
389.5458, 549.6466
390.0280, 557.0591
390.5101, 563.8684
390.9922, 568.0020
391.4743, 570.9117
391.9564, 574.2007
392.4385, 577.8646
392.9207, 582.5923
393.4028, 589.5474
393.8849, 597.9470
394.3670, 605.4986
394.8491, 610.0287
395.3312, 614.3348
395.8134, 620.4174
396.2955, 629.8875
396.7776, 637.3045
397.2597, 639.5381
397.7418, 639.5740
398.2239, 641.3365
398.7061, 646.7136
399.1882, 652.4259
399.6703, 658.0966
400.1524, 663.7717
400.6346, 668.3563
401.1167, 671.6671
401.5988, 674.0073
402.0809, 675.4854
402.5630, 675.6198
403.0451, 675.8565
403.5273, 676.5120
404.0094, 677.2545
404.4915, 677.0055
404.9736, 675.3299
405.4557, 673.7021
405.9378, 673.2255
406.4200, 674.1993
406.9021, 672.5446
407.3842, 667.7898
407.8663, 661.5706
408.3484, 655.9480
408.8305, 650.9247
409.3127, 645.4014
409.7948, 638.9389
410.2769, 631.8785
410.7590, 625.2402
411.2411, 619.0081
411.7232, 612.8206
412.2054, 606.5688
412.6875, 600.0440
413.1696, 592.5424
413.6517, 583.3962
414.1338, 574.7452
414.6159, 570.0184
415.0981, 567.9717
415.5802, 565.2791
416.0623, 560.4808
416.5444, 554.0612
417.0265, 545.6216
417.5086, 535.1434
417.9908, 526.2765
418.4729, 522.5594
418.9550, 521.2256
419.4371, 519.4324
419.9192, 516.3044
420.4013, 512.5955
420.8835, 508.3148
421.3656, 503.6759
421.8477, 499.2258
422.3298, 494.6323
422.8119, 490.7387
423.2940, 487.9168
423.7762, 486.3580
424.2583, 485.4980
424.7404, 486.7748
425.2225, 488.1323
425.7047, 487.1904
426.1868, 481.3856
426.6689, 476.6683
427.1510, 473.8922
427.6331, 473.0063
428.1152, 473.5146
428.5974, 476.7872
429.0795, 479.4104
429.5616, 478.9919
430.0437, 474.5705
430.5258, 471.1765
431.0079, 469.0670
431.4901, 468.0431
431.9722, 467.7897
432.4543, 468.3013
432.9364, 469.6429
433.4185, 472.6015
433.9006, 476.4467
434.3828, 477.2510
434.8649, 474.8027
435.3470, 471.9340
435.8291, 471.7860
436.3112, 473.3980
436.7933, 473.5641
437.2755, 471.3537
437.7576, 468.1479
438.2397, 465.0255
438.7218, 462.2444
439.2039, 460.6561
439.6860, 462.2862
440.1682, 464.4759
440.6503, 463.8579
441.1324, 460.0963
441.6145, 457.0308
442.0966, 457.0945
442.5787, 459.0015
443.0609, 461.3806
443.5430, 464.7455
444.0251, 467.5034
444.5072, 468.7267
444.9893, 468.7915
445.4714, 469.0979
445.9536, 469.6647
446.4357, 470.7895
446.9178, 472.8328
447.3999, 476.5654
447.8820, 479.1563
448.3641, 479.3460
448.8463, 479.0884
449.3284, 480.4300
449.8105, 483.4270
450.2926, 488.0620
450.7747, 495.3410
451.2569, 504.5002
451.7390, 510.3120
452.2211, 511.8417
452.7032, 512.5040
453.1853, 513.6111
453.6674, 515.0338
454.1496, 519.8156
454.6317, 528.8912
455.1138, 539.2809
455.5959, 547.0491
456.0780, 552.3015
456.5602, 555.3549
457.0423, 555.0803
457.5244, 553.4889
458.0065, 554.6591
458.4886, 558.4449
458.9707, 563.2928
459.4529, 568.9964
459.9350, 574.7644
460.4171, 578.9299
460.8992, 580.8784
461.3813, 582.8679
461.8634, 587.5101
462.3456, 593.2835
462.8277, 597.5151
463.3098, 597.5725
463.7919, 597.2361
464.2740, 598.2404
464.7561, 600.6063
465.2383, 603.7632
465.7204, 608.6191
466.2025, 613.4672
466.6846, 617.2318
467.1667, 619.7237
467.6488, 621.1982
468.1310, 621.7620
468.6131, 621.2960
469.0952, 619.4285
469.5773, 614.6503
470.0594, 610.9625
470.5415, 609.9805
471.0237, 611.5394
471.5058, 610.3271
471.9879, 605.2228
472.4700, 599.8516
472.9521, 597.4108
473.4342, 598.0963
473.9164, 597.5520
474.3985, 595.3293
474.8806, 591.8227
475.3627, 587.1835
475.8448, 581.5504
476.3270, 576.3331
476.8091, 572.1926
477.2912, 568.8908
477.7733, 566.4929
478.2554, 564.9022
478.7375, 562.6494
479.2197, 558.1807
479.7018, 552.5015
480.1839, 546.9374
480.6660, 541.6568
481.1481, 536.8454
481.6302, 531.9136
482.1124, 527.6481
482.5945, 525.3809
483.0766, 528.0154
483.5587, 530.5377
484.0408, 530.7032
484.5229, 528.4954
485.0051, 525.8707
485.4872, 521.7092
485.9693, 518.2734
486.4514, 517.0380
486.9335, 519.7124
487.4156, 521.6221
487.8978, 522.9746
488.3799, 523.4520
488.8620, 522.3521
489.3441, 518.8768
489.8262, 515.8158
490.3083, 513.9357
490.7905, 513.0862
491.2726, 512.2177
491.7547, 511.3093
492.2368, 510.4618
492.7189, 509.9514
493.2010, 509.6609
493.6832, 508.6761
494.1653, 506.7416
494.6474, 504.7299
495.1295, 503.5921
495.6116, 503.2486
496.0938, 503.4322
496.5759, 503.9325
497.0580, 504.9870
497.5401, 507.2239
498.0222, 510.4175
498.5044, 513.3080
498.9865, 516.5408
499.4686, 518.3586
499.9507, 516.6622
500.4328, 509.9451
500.9149, 504.4818
501.3971, 502.8425
501.8792, 503.3783
502.3613, 504.1557
502.8434, 505.0031
503.3255, 505.9182
503.8076, 506.8829
504.2898, 507.9051
504.7719, 509.1804
505.2540, 511.7065
505.7361, 512.9940
506.2182, 511.6587
506.7003, 507.1814
507.1825, 503.3127
507.6646, 499.8726
508.1467, 497.4284
508.6288, 496.9214
509.1109, 498.3482
509.5930, 499.9114
510.0752, 501.2983
510.5573, 502.5848
511.0394, 504.3519
511.5215, 506.3812
512.0037, 507.2612
512.4858, 505.9132
512.9679, 503.0795
513.4500, 498.9178
513.9321, 493.4966
514.4142, 489.7418
514.8964, 491.0204
515.3785, 494.4456
515.8606, 497.0755
516.3427, 498.7522
516.8248, 498.6081
517.3069, 494.5628
517.7891, 488.6761
518.2712, 484.7540
518.7533, 484.3215
519.2354, 485.2832
519.7175, 488.1154
520.1996, 492.7477
520.6818, 494.5829
521.1639, 492.2565
521.6460, 488.8088
522.1281, 485.6249
522.6102, 482.1519
523.0923, 481.2500
523.5745, 483.6528
524.0566, 487.5381
524.5387, 490.4961
525.0208, 492.5427
525.5029, 493.9474
525.9850, 494.6190
526.4672, 494.8438
526.9493, 495.1208
527.4314, 495.4762
527.9135, 496.0961
528.3956, 497.6035
528.8777, 499.2432
529.3599, 500.0430
529.8420, 499.9311
530.3241, 498.9961
530.8062, 495.3903
531.2883, 491.7567
531.7704, 491.2566
532.2526, 498.3364
532.7347, 503.8918
533.2168, 503.5906
533.6989, 499.8061
534.1810, 498.0916
534.6631, 501.6509
535.1453, 504.9284
535.6274, 506.1452
536.1095, 505.2415
536.5916, 505.4282
537.0737, 507.4635
537.5558, 509.4229
538.0380, 509.7819
538.5201, 508.2066
539.0022, 507.4146
539.4843, 507.7474
539.9664, 508.4667
540.4485, 508.0002
540.9307, 506.6158
541.4128, 506.7865
541.8949, 510.3506
542.3770, 514.8864
542.8591, 515.5818
543.3412, 513.2494
543.8234, 512.2392
544.3055, 517.4930
544.7876, 523.9810
545.2697, 525.9122
545.7518, 522.3132
546.2339, 520.1041
546.7161, 524.3472
547.1982, 530.6202
547.6803, 535.1135
548.1624, 536.8474
548.6445, 536.9636
549.1266, 533.9856
549.6088, 529.7360
550.0909, 527.8263
550.5730, 528.6813
551.0551, 531.3931
551.5372, 536.8058
552.0193, 544.3662
552.5015, 547.4545
552.9836, 544.8323
553.4657, 542.1200
553.9478, 543.4003
554.4299, 548.2813
554.9120, 552.8590
555.3942, 556.8910
555.8763, 560.4875
556.3584, 563.3949
556.8405, 565.9313
557.3226, 568.9397
557.8047, 572.8185
558.2869, 577.0515
558.7690, 581.7060
559.2511, 586.3851
559.7332, 590.0292
560.2154, 591.0976
560.6975, 591.9296
561.1796, 593.7469
561.6617, 596.6390
562.1439, 599.7540
562.6260, 602.9202
563.1081, 606.2848
563.5902, 610.2159
564.0723, 616.4144
564.5544, 619.2588
565.0366, 616.8564
565.5187, 612.9771
566.0008, 613.0812
566.4829, 617.9537
566.9650, 622.4247
567.4471, 625.3032
567.9293, 627.1598
568.4114, 629.6510
568.8935, 632.6710
569.3756, 634.6425
569.8577, 633.2903
570.3398, 630.7503
570.8220, 631.1362
571.3041, 634.4200
571.7862, 638.0815
572.2683, 642.5264
572.7504, 645.3787
573.2325, 643.6198
573.7147, 634.5775
574.1968, 626.5272
574.6789, 622.6420
575.1610, 621.4726
575.6431, 621.1104
576.1252, 623.6295
576.6074, 624.1602
577.0895, 621.8298
577.5716, 617.0391
578.0537, 610.9954
578.5358, 602.8990
579.0179, 595.4251
579.5001, 589.8619
579.9822, 586.0308
580.4643, 582.0368
580.9464, 577.9547
581.4285, 573.1917
581.9106, 566.5276
582.3928, 558.6481
582.8749, 551.9554
583.3570, 546.8401
583.8391, 542.3731
584.3212, 538.4538
584.8033, 534.3611
585.2855, 528.8229
585.7676, 520.2444
