##NAMES=Struvite
##RRUFFID=R050540
##IDEAL CHEMISTRY=(N^3-^H_4_)MgPO_4_&#183;6H_2_O
##LOCALITY=Hamburg, Germany
##OWNER=RRUFF
##SOURCE=University of Arizona Mineral Museum
##DESCRIPTION=Yellowish-brown wedge-shaped crystal
##STATUS=The identification of this mineral has been confirmed by X-ray diffraction and chemical analysis
##URL=rruff.info/R050540
##MEASURED CHEMISTRY=(NH_4_)(Mg_0.74_Fe^2+^_0.14_Ca_0.09_Mn_0.03_)_Σ=1_(P_1.00_O_4_)·6H_2_O ; NH_4_ not measured but estimated by charge balance.
92.37695, 4289.032
92.85907, 4235.677
93.34119, 4248.198
93.82330, 4292.179
94.30542, 4323.154
94.78754, 4332.967
95.26965, 4330.394
95.75177, 4320.492
96.23389, 4307.306
96.71600, 4289.571
97.19812, 4268.732
97.68024, 4245.536
98.16235, 4222.018
98.64447, 4200.404
99.12659, 4175.290
99.60870, 4153.299
100.0908, 4127.056
100.5729, 4103.566
101.0551, 4082.118
101.5372, 4061.479
102.0193, 4041.635
102.5014, 4025.590
102.9835, 4012.454
103.4656, 4003.498
103.9478, 4001.290
104.4299, 4003.092
104.9120, 4003.969
105.3941, 3999.647
105.8762, 3989.099
106.3583, 3982.837
106.8405, 3981.691
107.3226, 3981.856
107.8047, 3981.281
108.2868, 3979.717
108.7689, 3978.060
109.2510, 3977.368
109.7332, 3977.628
110.2153, 3977.597
110.6974, 3976.370
111.1795, 3974.861
111.6616, 3974.367
112.1437, 3975.060
112.6259, 3977.063
113.1080, 3980.961
113.5901, 3986.574
114.0722, 3991.846
114.5543, 3995.459
115.0364, 3997.462
115.5185, 3998.802
116.0007, 3998.931
116.4828, 3998.929
116.9649, 3999.948
117.4470, 4002.063
117.9291, 4003.671
118.4112, 4002.119
118.8934, 3995.295
119.3755, 3990.400
119.8576, 3989.183
120.3397, 3989.318
120.8218, 3989.238
121.3039, 3988.277
121.7861, 3986.489
122.2682, 3984.047
122.7503, 3979.628
123.2324, 3975.895
123.7145, 3973.457
124.1966, 3971.716
124.6788, 3969.767
125.1609, 3967.000
125.6430, 3963.581
126.1251, 3961.030
126.6072, 3958.771
127.0893, 3957.617
127.5715, 3958.174
128.0536, 3960.266
128.5357, 3963.083
129.0178, 3966.451
129.4999, 3970.109
129.9821, 3972.765
130.4642, 3972.848
130.9463, 3972.747
131.4284, 3975.581
131.9105, 3982.157
132.3926, 3988.433
132.8748, 3990.790
133.3569, 3990.696
133.8390, 3990.425
134.3211, 3990.521
134.8032, 3991.140
135.2853, 3992.866
135.7674, 3996.184
136.2496, 4000.134
136.7317, 4005.289
137.2138, 4010.816
137.6959, 4014.641
138.1780, 4014.121
138.6601, 4008.559
139.1423, 4006.182
139.6244, 4011.281
140.1065, 4016.144
140.5886, 4016.925
141.0707, 4014.081
141.5528, 4011.082
142.0350, 4012.172
142.5171, 4019.250
142.9992, 4025.832
143.4813, 4032.828
143.9634, 4038.807
144.4455, 4042.470
144.9277, 4043.590
145.4098, 4043.445
145.8919, 4044.124
146.3740, 4046.438
146.8561, 4048.017
147.3382, 4048.302
147.8204, 4047.941
148.3025, 4047.822
148.7846, 4048.324
149.2667, 4048.928
149.7488, 4048.531
150.2309, 4047.203
150.7131, 4045.262
151.1952, 4042.735
151.6773, 4039.678
152.1594, 4036.337
152.6415, 4032.936
153.1236, 4029.083
153.6058, 4024.301
154.0879, 4018.418
154.5700, 4012.219
155.0521, 4006.192
155.5342, 4000.344
156.0163, 3994.891
156.4985, 3990.595
156.9806, 3986.418
157.4627, 3981.843
157.9448, 3976.919
158.4269, 3970.768
158.9090, 3961.350
159.3912, 3946.700
159.8733, 3933.785
160.3554, 3925.410
160.8375, 3918.767
161.3196, 3911.543
161.8017, 3902.785
162.2839, 3892.747
162.7660, 3882.221
163.2481, 3870.491
163.7302, 3859.196
164.2123, 3848.046
164.6944, 3837.567
165.1766, 3828.590
165.6587, 3821.598
166.1408, 3816.310
166.6229, 3810.657
167.1050, 3805.722
167.5871, 3799.297
168.0693, 3789.368
168.5514, 3777.589
169.0335, 3767.118
169.5156, 3760.151
169.9977, 3756.448
170.4798, 3752.428
170.9620, 3747.642
171.4441, 3743.051
171.9262, 3739.201
172.4083, 3735.999
172.8904, 3732.782
173.3725, 3728.716
173.8547, 3724.231
174.3368, 3721.862
174.8189, 3724.015
175.3010, 3726.594
175.7831, 3725.745
176.2652, 3721.228
176.7474, 3716.657
177.2295, 3714.837
177.7116, 3715.010
178.1937, 3715.463
178.6758, 3716.547
179.1579, 3717.455
179.6401, 3716.560
180.1222, 3713.083
180.6043, 3710.093
181.0864, 3710.619
181.5685, 3712.819
182.0506, 3713.599
182.5328, 3710.458
183.0149, 3704.989
183.4970, 3702.358
183.9791, 3704.299
184.4612, 3706.599
184.9433, 3707.948
185.4255, 3708.301
185.9076, 3707.526
186.3897, 3705.245
186.8718, 3701.632
187.3539, 3698.692
187.8360, 3698.299
188.3182, 3696.527
188.8003, 3691.156
189.2824, 3683.515
189.7645, 3676.372
190.2466, 3672.178
190.7287, 3671.112
191.2109, 3668.179
191.6930, 3661.806
192.1751, 3655.074
192.6572, 3648.379
193.1393, 3642.096
193.6214, 3636.839
194.1036, 3633.404
194.5857, 3632.224
195.0678, 3629.079
195.5499, 3621.350
196.0320, 3614.444
196.5141, 3611.791
196.9963, 3612.786
197.4784, 3613.920
197.9605, 3611.803
198.4426, 3605.805
198.9247, 3601.251
199.4068, 3598.314
199.8890, 3596.495
200.3711, 3596.250
200.8532, 3597.354
201.3353, 3597.753
201.8174, 3595.012
202.2995, 3588.920
202.7817, 3585.044
203.2638, 3585.534
203.7459, 3587.202
204.2280, 3587.218
204.7101, 3585.265
205.1922, 3582.180
205.6744, 3577.548
206.1565, 3572.017
206.6386, 3569.041
207.1207, 3571.803
207.6028, 3576.571
208.0849, 3577.891
208.5671, 3574.701
209.0492, 3570.741
209.5313, 3569.112
210.0134, 3568.982
210.4955, 3568.703
210.9776, 3567.225
211.4598, 3565.241
211.9419, 3564.468
212.4240, 3565.545
212.9061, 3566.531
213.3882, 3566.382
213.8703, 3565.339
214.3525, 3563.714
214.8346, 3561.170
215.3167, 3558.156
215.7988, 3556.461
216.2809, 3556.709
216.7630, 3557.385
217.2451, 3558.452
217.7273, 3559.373
218.2094, 3559.147
218.6915, 3556.813
219.1736, 3552.816
219.6557, 3549.961
220.1378, 3549.617
220.6200, 3548.762
221.1021, 3545.739
221.5842, 3541.696
222.0663, 3538.612
222.5484, 3538.027
223.0305, 3539.580
223.5127, 3539.702
223.9948, 3535.885
224.4769, 3533.276
224.9590, 3534.139
225.4411, 3536.860
225.9232, 3538.735
226.4054, 3537.974
226.8875, 3534.749
227.3696, 3530.814
227.8517, 3523.485
228.3338, 3518.329
228.8159, 3517.686
229.2981, 3520.034
229.7802, 3522.674
230.2623, 3523.862
230.7444, 3523.776
231.2265, 3524.390
231.7086, 3528.267
232.1908, 3530.032
232.6729, 3526.330
233.1550, 3519.556
233.6371, 3514.641
234.1192, 3514.868
234.6013, 3519.256
235.0835, 3520.397
235.5656, 3515.810
236.0477, 3511.372
236.5298, 3508.484
237.0119, 3507.034
237.4940, 3506.717
237.9762, 3507.498
238.4583, 3509.142
238.9404, 3510.569
239.4225, 3513.767
239.9046, 3514.691
240.3867, 3510.616
240.8689, 3503.087
241.3510, 3495.685
241.8331, 3489.851
242.3152, 3485.729
242.7973, 3483.667
243.2794, 3484.967
243.7616, 3485.912
244.2437, 3484.894
244.7258, 3482.269
245.2079, 3478.957
245.6900, 3475.039
246.1721, 3471.022
246.6543, 3467.717
247.1364, 3464.942
247.6185, 3463.224
248.1006, 3464.126
248.5827, 3466.634
249.0648, 3466.783
249.5470, 3462.185
250.0291, 3455.820
250.5112, 3452.443
250.9933, 3452.512
251.4754, 3452.323
251.9576, 3449.488
252.4397, 3444.536
252.9218, 3439.751
253.4039, 3435.784
253.8860, 3432.090
254.3681, 3427.113
254.8503, 3420.802
255.3324, 3417.070
255.8145, 3421.223
256.2966, 3431.101
256.7787, 3435.066
257.2608, 3427.717
257.7430, 3418.274
258.2251, 3414.644
258.7072, 3416.164
259.1893, 3418.391
259.6714, 3418.791
260.1535, 3417.608
260.6357, 3415.949
261.1178, 3413.037
261.5999, 3410.953
262.0820, 3411.957
262.5641, 3414.964
263.0462, 3416.621
263.5284, 3412.931
264.0105, 3405.316
264.4926, 3402.702
264.9747, 3408.780
265.4568, 3414.756
265.9389, 3415.282
266.4211, 3412.562
266.9032, 3411.203
267.3853, 3414.585
267.8674, 3421.440
268.3495, 3426.173
268.8316, 3427.324
269.3138, 3428.445
269.7959, 3431.173
270.2780, 3434.672
270.7601, 3437.722
271.2422, 3439.706
271.7243, 3440.781
272.2065, 3441.164
272.6886, 3439.430
273.1707, 3439.576
273.6528, 3443.400
274.1349, 3449.103
274.6170, 3454.752
275.0992, 3459.558
275.5813, 3463.628
276.0634, 3467.216
276.5455, 3470.520
277.0276, 3472.901
277.5097, 3473.624
277.9919, 3473.877
278.4740, 3474.491
278.9561, 3475.780
279.4382, 3478.067
279.9203, 3482.379
280.4024, 3490.579
280.8846, 3496.732
281.3667, 3498.363
281.8488, 3499.269
282.3309, 3502.691
282.8130, 3509.252
283.2951, 3516.608
283.7773, 3521.047
284.2594, 3520.858
284.7415, 3521.984
285.2236, 3526.789
285.7057, 3531.090
286.1878, 3531.524
286.6700, 3528.224
287.1521, 3524.477
287.6342, 3524.208
288.1163, 3528.441
288.5984, 3532.194
289.0805, 3536.254
289.5627, 3539.171
290.0448, 3539.672
290.5269, 3538.201
291.0090, 3536.294
291.4911, 3535.215
291.9732, 3534.934
292.4554, 3535.871
292.9375, 3541.926
293.4196, 3545.309
293.9017, 3541.489
294.3838, 3532.889
294.8659, 3524.960
295.3481, 3521.723
295.8302, 3522.739
296.3123, 3522.199
296.7944, 3519.127
297.2765, 3515.449
297.7586, 3511.049
298.2408, 3506.372
298.7229, 3502.253
299.2050, 3499.240
299.6871, 3496.750
300.1692, 3492.484
300.6513, 3483.891
301.1335, 3476.595
301.6156, 3471.944
302.0977, 3468.520
302.5798, 3464.593
303.0619, 3459.517
303.5440, 3454.167
304.0262, 3450.347
304.5083, 3449.131
304.9904, 3448.042
305.4725, 3447.892
305.9546, 3447.336
306.4367, 3444.666
306.9189, 3439.750
307.4010, 3434.585
307.8831, 3432.222
308.3652, 3434.676
308.8473, 3434.565
309.3294, 3430.387
309.8116, 3425.281
310.2937, 3421.038
310.7758, 3417.789
311.2579, 3414.667
311.7400, 3410.704
312.2221, 3405.523
312.7043, 3402.036
313.1864, 3402.056
313.6685, 3401.728
314.1506, 3398.780
314.6327, 3394.142
315.1148, 3390.590
315.5970, 3390.468
316.0791, 3393.308
316.5612, 3392.507
317.0433, 3383.687
317.5254, 3376.108
318.0075, 3372.039
318.4897, 3370.385
318.9718, 3369.598
319.4539, 3368.931
319.9360, 3368.126
320.4181, 3366.311
320.9002, 3362.065
321.3824, 3358.563
321.8645, 3356.036
322.3466, 3354.266
322.8287, 3353.185
323.3108, 3352.733
323.7929, 3352.566
324.2751, 3352.147
324.7572, 3351.681
325.2393, 3350.461
325.7214, 3347.605
326.2035, 3344.734
326.6856, 3343.181
327.1678, 3342.956
327.6499, 3342.879
328.1320, 3341.579
328.6141, 3338.656
329.0962, 3336.483
329.5783, 3336.320
330.0605, 3335.611
330.5426, 3333.409
331.0247, 3329.730
331.5068, 3324.653
331.9889, 3317.876
332.4710, 3309.688
332.9532, 3304.845
333.4353, 3307.021
333.9174, 3308.704
334.3995, 3309.037
334.8816, 3307.872
335.3637, 3304.470
335.8459, 3298.365
336.3280, 3291.272
336.8101, 3288.826
337.2922, 3297.626
337.7743, 3301.130
338.2564, 3294.294
338.7386, 3284.244
339.2206, 3277.212
339.7028, 3274.904
340.1849, 3274.954
340.6670, 3273.980
341.1491, 3272.008
341.6312, 3268.856
342.1133, 3262.190
342.5955, 3256.428
343.0776, 3255.190
343.5597, 3257.708
344.0418, 3259.791
344.5239, 3257.002
345.0060, 3248.895
345.4882, 3243.771
345.9703, 3245.291
346.4524, 3246.405
346.9345, 3244.646
347.4166, 3241.184
347.8987, 3238.409
348.3809, 3237.897
348.8630, 3238.978
349.3451, 3238.938
349.8272, 3237.234
350.3093, 3235.108
350.7914, 3232.929
351.2736, 3230.429
351.7557, 3226.992
352.2378, 3222.413
352.7199, 3217.825
353.2020, 3215.414
353.6841, 3216.118
354.1663, 3216.089
354.6484, 3214.152
355.1305, 3211.949
355.6126, 3210.150
356.0947, 3208.954
356.5768, 3208.547
357.0590, 3210.045
357.5411, 3213.656
358.0232, 3213.881
358.5053, 3207.134
358.9874, 3200.907
359.4695, 3198.761
359.9517, 3199.469
360.4338, 3200.359
360.9159, 3200.011
361.3980, 3198.673
361.8801, 3196.907
362.3622, 3194.245
362.8444, 3192.240
363.3265, 3191.540
363.8086, 3191.656
364.2907, 3192.537
364.7728, 3194.410
365.2549, 3195.634
365.7371, 3193.542
366.2192, 3187.682
366.7013, 3182.470
367.1834, 3178.552
367.6655, 3176.024
368.1476, 3175.476
368.6298, 3176.768
369.1119, 3178.051
369.5940, 3177.977
370.0761, 3176.765
370.5582, 3175.457
371.0403, 3174.317
371.5225, 3172.760
372.0046, 3169.851
372.4867, 3166.244
372.9688, 3163.446
373.4509, 3162.204
373.9330, 3161.987
374.4152, 3162.583
374.8973, 3164.234
375.3794, 3164.425
375.8615, 3160.101
376.3436, 3154.367
376.8257, 3152.451
377.3079, 3156.582
377.7900, 3160.064
378.2721, 3156.688
378.7542, 3148.110
379.2363, 3141.524
379.7184, 3138.891
380.2006, 3139.000
380.6827, 3141.217
381.1648, 3145.522
381.6469, 3148.407
382.1290, 3148.259
382.6111, 3146.250
383.0933, 3144.046
383.5754, 3141.856
384.0575, 3138.898
384.5396, 3133.797
385.0217, 3127.124
385.5038, 3122.788
385.9860, 3122.781
386.4681, 3123.482
386.9502, 3122.915
387.4323, 3121.252
387.9144, 3119.120
388.3965, 3116.708
388.8787, 3114.190
389.3608, 3111.984
389.8429, 3109.756
390.3250, 3108.373
390.8071, 3108.871
391.2892, 3109.931
391.7714, 3109.972
392.2535, 3108.638
392.7356, 3106.472
393.2177, 3103.913
393.6998, 3100.644
394.1819, 3098.816
394.6641, 3100.810
395.1462, 3101.971
395.6283, 3098.366
396.1104, 3091.456
396.5925, 3086.103
397.0746, 3085.656
397.5568, 3089.069
398.0389, 3090.444
398.5210, 3088.815
399.0031, 3086.214
399.4852, 3081.686
399.9673, 3076.820
400.4495, 3073.374
400.9316, 3071.882
401.4137, 3071.426
401.8958, 3070.573
402.3779, 3068.875
402.8600, 3068.031
403.3422, 3068.566
403.8243, 3069.336
404.3064, 3069.968
404.7885, 3070.330
405.2706, 3070.410
405.7527, 3070.339
406.2349, 3069.947
406.7170, 3067.758
407.1991, 3061.835
407.6812, 3056.882
408.1633, 3053.922
408.6454, 3052.444
409.1276, 3052.322
409.6097, 3053.565
410.0918, 3054.809
410.5739, 3053.708
411.0560, 3049.723
411.5381, 3046.336
412.0203, 3043.562
412.5024, 3042.078
412.9845, 3043.490
413.4666, 3047.047
413.9487, 3049.354
414.4308, 3046.406
414.9130, 3040.118
415.3951, 3038.531
415.8772, 3043.951
416.3593, 3048.394
416.8414, 3045.385
417.3235, 3039.296
417.8057, 3036.255
418.2878, 3038.881
418.7699, 3042.598
419.2520, 3042.980
419.7341, 3040.297
420.2162, 3036.925
420.6984, 3032.742
421.1805, 3029.289
421.6626, 3029.397
422.1447, 3033.114
422.6268, 3034.988
423.1089, 3031.416
423.5911, 3025.586
424.0732, 3021.671
424.5553, 3020.128
425.0374, 3019.980
425.5195, 3021.254
426.0016, 3023.402
426.4838, 3023.135
426.9659, 3018.234
427.4480, 3013.351
427.9301, 3010.730
428.4122, 3009.663
428.8943, 3008.745
429.3765, 3007.476
429.8586, 3005.946
430.3407, 3004.320
430.8228, 3002.790
431.3049, 3000.724
431.7870, 2996.726
432.2692, 2993.275
432.7513, 2993.016
433.2334, 2995.428
433.7155, 2997.381
434.1976, 2996.218
434.6797, 2992.210
435.1619, 2989.339
435.6440, 2987.713
436.1261, 2987.143
436.6082, 2989.278
437.0903, 2991.737
437.5724, 2991.379
438.0546, 2987.205
438.5367, 2981.472
439.0188, 2977.637
439.5009, 2976.016
439.9830, 2975.255
440.4651, 2975.899
440.9473, 2976.880
441.4294, 2978.000
441.9115, 2979.080
442.3936, 2979.804
442.8757, 2979.911
443.3578, 2979.547
443.8400, 2979.242
444.3221, 2979.212
444.8042, 2978.728
445.2863, 2977.156
445.7684, 2975.226
446.2505, 2973.553
446.7327, 2972.261
447.2148, 2971.250
447.6969, 2970.283
448.1790, 2969.472
448.6611, 2969.587
449.1432, 2971.194
449.6254, 2972.863
450.1075, 2973.087
450.5896, 2972.315
451.0717, 2971.903
451.5538, 2972.522
452.0359, 2973.421
452.5181, 2973.851
453.0002, 2973.867
453.4823, 2974.003
453.9644, 2974.712
454.4465, 2975.422
454.9286, 2974.440
455.4108, 2970.726
455.8929, 2968.658
456.3750, 2970.991
456.8571, 2974.513
457.3392, 2975.350
457.8214, 2973.138
458.3035, 2970.577
458.7856, 2970.034
459.2677, 2971.534
459.7498, 2973.118
460.2319, 2976.512
460.7141, 2978.032
461.1962, 2975.310
461.6783, 2970.504
462.1604, 2966.654
462.6425, 2964.919
463.1246, 2964.292
463.6068, 2963.147
464.0889, 2961.524
464.5710, 2959.284
465.0531, 2956.681
465.5352, 2953.296
466.0173, 2947.948
466.4995, 2941.579
466.9816, 2936.566
467.4637, 2934.761
467.9458, 2935.057
468.4279, 2933.708
468.9100, 2929.801
469.3922, 2926.624
469.8743, 2925.855
470.3564, 2925.757
470.8385, 2924.984
471.3206, 2923.328
471.8027, 2921.434
472.2849, 2919.691
472.7670, 2918.092
473.2491, 2916.727
473.7312, 2915.701
474.2133, 2914.585
474.6954, 2913.193
475.1776, 2911.450
475.6597, 2909.072
476.1418, 2905.115
476.6239, 2901.623
477.1060, 2900.249
477.5881, 2900.519
478.0703, 2901.453
478.5524, 2903.098
479.0345, 2903.853
479.5166, 2900.814
479.9987, 2892.669
480.4808, 2886.980
480.9630, 2885.026
481.4451, 2884.947
481.9272, 2886.840
482.4093, 2889.692
482.8914, 2890.807
483.3735, 2888.416
483.8557, 2883.535
484.3378, 2879.773
484.8199, 2877.742
485.3020, 2876.046
485.7841, 2875.148
486.2662, 2874.151
486.7484, 2871.836
487.2305, 2868.422
487.7126, 2865.698
488.1947, 2865.598
488.6768, 2867.874
489.1589, 2868.586
489.6411, 2866.906
490.1232, 2864.893
490.6053, 2863.003
491.0874, 2861.272
491.5695, 2859.825
492.0516, 2858.727
492.5338, 2857.641
493.0159, 2856.304
493.4980, 2854.715
493.9801, 2852.749
494.4622, 2850.141
494.9443, 2847.665
495.4265, 2846.074
495.9086, 2845.143
496.3907, 2844.322
496.8728, 2843.485
497.3549, 2842.708
497.8370, 2841.867
498.3192, 2841.091
498.8013, 2841.113
499.2834, 2842.463
499.7655, 2843.981
500.2476, 2843.597
500.7297, 2840.551
501.2119, 2838.277
501.6940, 2837.452
502.1761, 2837.058
502.6582, 2836.405
503.1403, 2835.525
503.6224, 2834.704
504.1045, 2834.093
504.5866, 2833.763
505.0688, 2834.113
505.5509, 2837.387
506.0330, 2837.654
506.5151, 2831.312
506.9972, 2824.567
507.4793, 2822.057
507.9615, 2823.954
508.4436, 2827.642
508.9257, 2831.745
509.4078, 2835.795
509.8899, 2836.349
510.3720, 2831.577
510.8542, 2827.293
511.3363, 2825.864
511.8184, 2825.875
512.3005, 2826.256
512.7827, 2826.876
513.2648, 2827.153
513.7469, 2826.717
514.2290, 2825.593
514.7111, 2823.286
515.1932, 2819.222
515.6754, 2816.575
516.1575, 2819.275
516.6396, 2825.607
517.1217, 2827.521
517.6038, 2820.458
518.0859, 2813.929
518.5681, 2813.246
519.0502, 2815.694
519.5323, 2816.492
520.0144, 2814.323
520.4965, 2811.468
520.9786, 2810.906
521.4608, 2813.374
521.9429, 2813.601
522.4250, 2808.637
522.9071, 2804.996
523.3892, 2806.089
523.8713, 2809.696
524.3535, 2812.434
524.8356, 2812.892
525.3177, 2811.943
525.7998, 2810.435
526.2819, 2807.741
526.7640, 2807.709
527.2462, 2813.481
527.7283, 2818.926
528.2104, 2821.688
528.6925, 2821.842
529.1746, 2819.444
529.6567, 2813.051
530.1389, 2806.481
530.6210, 2805.621
531.1031, 2810.134
531.5852, 2814.138
532.0673, 2816.031
532.5494, 2816.680
533.0316, 2816.861
533.5137, 2816.611
533.9958, 2816.463
534.4779, 2815.860
534.9600, 2815.944
535.4421, 2818.340
535.9243, 2822.315
536.4064, 2825.594
536.8885, 2827.146
537.3706, 2827.047
537.8527, 2825.211
538.3348, 2819.023
538.8170, 2816.501
539.2991, 2819.664
539.7812, 2824.377
540.2633, 2828.708
540.7454, 2832.542
541.2275, 2836.442
541.7097, 2840.773
542.1918, 2845.318
542.6739, 2849.752
543.1560, 2854.597
543.6381, 2857.685
544.1202, 2855.351
544.6024, 2853.776
545.0845, 2857.670
545.5666, 2866.338
546.0487, 2874.977
546.5308, 2881.593
547.0129, 2886.430
547.4951, 2888.870
547.9772, 2889.018
548.4593, 2890.837
548.9414, 2896.269
549.4235, 2903.888
549.9056, 2911.464
550.3878, 2919.140
550.8699, 2926.036
551.3520, 2931.453
551.8341, 2936.381
552.3162, 2941.169
552.7983, 2946.142
553.2805, 2952.088
553.7626, 2959.529
554.2447, 2968.124
554.7268, 2976.990
555.2089, 2986.551
555.6910, 2995.573
556.1732, 3003.554
556.6553, 3011.484
557.1374, 3020.146
557.6195, 3029.377
558.1016, 3038.357
558.5837, 3046.442
559.0659, 3054.204
559.5480, 3063.617
560.0301, 3075.294
560.5122, 3084.704
560.9943, 3090.045
561.4764, 3092.931
561.9586, 3095.263
562.4407, 3096.975
562.9228, 3097.033
563.4049, 3095.041
563.8870, 3091.234
564.3691, 3086.211
564.8513, 3079.748
565.3334, 3070.419
565.8155, 3057.323
566.2976, 3041.802
566.7797, 3026.131
567.2618, 3009.877
567.7440, 2994.699
568.2261, 2982.303
568.7082, 2969.527
569.1903, 2953.317
569.6724, 2935.283
570.1545, 2919.125
570.6367, 2906.953
571.1188, 2897.256
571.6009, 2887.091
572.0830, 2876.200
572.5651, 2865.428
573.0472, 2854.676
573.5294, 2844.257
574.0115, 2833.341
574.4936, 2822.790
574.9757, 2815.171
575.4578, 2813.003
575.9399, 2812.191
576.4221, 2807.705
576.9042, 2800.202
577.3863, 2793.298
577.8684, 2787.983
578.3505, 2783.762
578.8326, 2780.434
579.3148, 2778.105
579.7969, 2774.836
580.2790, 2770.100
580.7611, 2764.951
581.2432, 2759.474
581.7253, 2754.056
582.2075, 2748.940
582.6896, 2744.313
583.1717, 2740.772
583.6538, 2739.415
584.1359, 2740.637
584.6180, 2741.193
585.1002, 2740.431
585.5823, 2739.748
586.0643, 2739.607
586.5464, 2739.771
