##NAMES=Strunzite
##RRUFFID=R050619
##IDEAL CHEMISTRY=Mn^2+^Fe^3+^_2_(P^5+^O_4_)_2_(OH)_2_&#183;6H_2_O
##LOCALITY=Hagendorf, Germany
##OWNER=RRUFF
##SOURCE=University of Arizona Mineral Museum
##DESCRIPTION=Pale yellow acicular crystals
##STATUS=The identification of this mineral is confirmed by single-crystal X-ray diffraction and chemical analysis.
##URL=rruff.info/R050619
##MEASURED CHEMISTRY=(Mn^2+^_0.52_Fe^2+^_0.43_Mg_0.05_)_Σ=1_Fe^3+^_2.00_(P_1.00_O_4_)_2_(OH)_2_·6H_2_O
92.06543, 760.6125
92.54755, 768.2236
93.02966, 773.7402
93.51178, 766.3407
93.99390, 753.1597
94.47601, 736.0718
94.95813, 717.3004
95.44025, 699.1332
95.92236, 683.5731
96.40448, 670.6879
96.88660, 656.3369
97.36871, 639.2272
97.85082, 622.4752
98.33294, 608.4105
98.81506, 596.9432
99.29717, 585.3618
99.77929, 573.5417
100.2614, 561.6977
100.7435, 549.5037
101.2256, 535.7820
101.7078, 521.4830
102.1899, 509.0022
102.6720, 498.8069
103.1541, 490.5698
103.6362, 483.8481
104.1183, 478.5806
104.6005, 473.5501
105.0826, 467.7576
105.5647, 461.0664
106.0468, 454.3690
106.5289, 448.2152
107.0110, 441.7109
107.4931, 433.8786
107.9753, 424.4378
108.4574, 414.6087
108.9395, 406.8546
109.4216, 402.5792
109.9037, 398.3299
110.3858, 393.9225
110.8680, 389.2534
111.3501, 384.0444
111.8322, 378.0726
112.3143, 371.6592
112.7964, 366.8299
113.2785, 364.7688
113.7607, 362.8497
114.2428, 360.5643
114.7249, 357.9126
115.2070, 354.9240
115.6891, 351.4893
116.1712, 347.6684
116.6534, 344.7792
117.1355, 343.5957
117.6176, 342.7381
118.0997, 340.8558
118.5818, 337.7594
119.0639, 334.9806
119.5461, 334.2484
120.0282, 335.0446
120.5103, 336.0830
120.9924, 337.2884
121.4745, 338.4637
121.9566, 339.2231
122.4388, 339.7174
122.9209, 339.3750
123.4030, 337.7637
123.8851, 335.1103
124.3672, 332.1715
124.8493, 329.5076
125.3315, 327.1307
125.8136, 324.7361
126.2957, 321.6348
126.7778, 319.0507
127.2599, 317.6197
127.7420, 317.3677
128.2242, 317.7951
128.7063, 318.5023
129.1884, 320.5603
129.6705, 320.4689
130.1526, 316.8623
130.6347, 312.3293
131.1169, 308.6686
131.5990, 306.5049
132.0811, 305.4204
132.5632, 304.5216
133.0453, 303.7396
133.5274, 303.2514
134.0096, 303.4840
134.4917, 303.9416
134.9738, 303.7696
135.4559, 302.4459
135.9380, 300.5108
136.4201, 299.8393
136.9023, 300.7730
137.3844, 302.1779
137.8665, 304.1964
138.3486, 306.5443
138.8307, 307.7970
139.3128, 306.6049
139.7950, 303.9301
140.2771, 302.1117
140.7592, 301.1952
141.2413, 301.2399
141.7234, 302.5337
142.2055, 305.2509
142.6877, 308.2966
143.1698, 311.1970
143.6519, 314.0291
144.1340, 316.9283
144.6161, 320.0880
145.0982, 323.2647
145.5803, 325.7122
146.0625, 326.6821
146.5446, 328.1288
147.0267, 331.3538
147.5088, 335.3707
147.9909, 338.5844
148.4730, 339.6828
148.9552, 338.8327
149.4373, 339.3834
149.9194, 341.9224
150.4015, 345.5131
150.8836, 350.9334
151.3657, 357.3732
151.8479, 363.1929
152.3300, 366.7516
152.8121, 367.5471
153.2942, 369.3474
153.7763, 372.5626
154.2584, 376.1735
154.7406, 379.9277
155.2227, 383.6729
155.7048, 387.1588
156.1869, 390.0519
156.6690, 392.0796
157.1511, 394.4412
157.6333, 397.0052
158.1154, 399.9586
158.5975, 403.4619
159.0796, 407.5512
159.5617, 412.1624
160.0438, 417.7303
160.5260, 424.4406
161.0081, 429.6405
161.4902, 432.1253
161.9723, 432.7754
162.4544, 433.1334
162.9365, 433.5195
163.4187, 433.7047
163.9008, 433.6490
164.3829, 433.3859
164.8650, 432.3332
165.3471, 430.0478
165.8292, 426.6263
166.3113, 422.6578
166.7935, 417.7956
167.2756, 412.8191
167.7577, 408.3633
168.2398, 404.4340
168.7219, 400.6149
169.2040, 396.3085
169.6862, 391.3238
170.1683, 387.1974
170.6504, 384.8926
171.1325, 383.0757
171.6146, 380.9360
172.0967, 378.3576
172.5789, 375.9332
173.0610, 374.5962
173.5431, 374.8524
174.0252, 375.1026
174.5073, 375.5600
174.9894, 375.7817
175.4716, 375.1830
175.9537, 373.6548
176.4358, 371.8661
176.9179, 371.1680
177.4000, 372.0213
177.8821, 373.5381
178.3643, 376.8562
178.8464, 380.3030
179.3285, 382.0219
179.8106, 381.2626
180.2927, 378.8732
180.7748, 377.1390
181.2570, 376.0240
181.7391, 375.5992
182.2212, 376.1359
182.7033, 377.3339
183.1854, 378.9136
183.6675, 380.8710
184.1497, 382.8514
184.6318, 383.5906
185.1139, 382.4326
185.5960, 381.3696
186.0781, 381.4781
186.5602, 382.2877
187.0423, 382.3426
187.5245, 380.6652
188.0066, 378.0599
188.4887, 376.5575
188.9708, 376.8324
189.4529, 377.0241
189.9350, 375.4492
190.4172, 372.3317
190.8993, 370.1428
191.3814, 370.7408
191.8635, 372.5305
192.3456, 373.2226
192.8277, 372.4324
193.3099, 370.8368
193.7920, 368.8560
194.2741, 366.3956
194.7562, 364.2340
195.2383, 362.7102
195.7204, 361.6575
196.2026, 361.2243
196.6847, 361.6619
197.1668, 362.0671
197.6489, 360.7926
198.1310, 357.0443
198.6131, 353.8991
199.0953, 352.8968
199.5774, 352.5259
200.0595, 351.3535
200.5416, 348.7583
201.0237, 345.5618
201.5058, 343.7335
201.9880, 344.4220
202.4701, 344.4159
202.9522, 342.5043
203.4343, 339.9921
203.9164, 338.1902
204.3985, 337.6992
204.8807, 338.1474
205.3628, 338.4475
205.8449, 338.5703
206.3270, 338.5486
206.8091, 338.3739
207.2912, 338.0711
207.7733, 337.5572
208.2555, 336.7789
208.7376, 335.9367
209.2197, 335.7850
209.7018, 337.5201
210.1839, 338.6202
210.6660, 337.8438
211.1482, 336.4883
211.6303, 336.6309
212.1124, 339.4655
212.5945, 344.0612
213.0766, 346.6128
213.5587, 344.8322
214.0409, 343.8741
214.5230, 345.5940
215.0051, 348.7562
215.4872, 351.0840
215.9693, 351.3377
216.4514, 350.1090
216.9336, 349.6505
217.4157, 350.2739
217.8978, 351.0452
218.3799, 351.7553
218.8620, 352.3917
219.3441, 352.8009
219.8263, 352.6705
220.3084, 352.5542
220.7905, 353.9583
221.2726, 357.7690
221.7547, 361.3933
222.2368, 363.4060
222.7190, 364.1071
223.2011, 364.7432
223.6832, 365.9590
224.1653, 367.2803
224.6474, 367.8576
225.1295, 367.5255
225.6117, 366.8763
226.0938, 366.5241
226.5759, 366.3542
227.0580, 365.3092
227.5401, 362.4610
228.0222, 358.9041
228.5043, 355.9998
228.9865, 353.8916
229.4686, 352.1791
229.9507, 350.8611
230.4328, 349.9340
230.9149, 348.3575
231.3970, 345.4884
231.8792, 342.0330
232.3613, 338.3564
232.8434, 334.4599
233.3255, 330.9803
233.8076, 328.8475
234.2897, 328.2189
234.7719, 327.0897
235.2540, 324.0601
235.7361, 321.0240
236.2182, 319.1003
236.7003, 318.4541
237.1824, 318.6854
237.6646, 319.7691
238.1467, 322.0516
238.6288, 323.2401
239.1109, 321.9997
239.5930, 320.2602
240.0751, 318.8463
240.5573, 317.9138
241.0394, 317.3141
241.5215, 316.8835
242.0036, 316.5988
242.4857, 316.5780
242.9678, 317.5334
243.4500, 318.1963
243.9321, 317.3143
244.4142, 315.1205
244.8963, 313.3226
245.3784, 314.3703
245.8605, 319.7055
246.3427, 322.5334
246.8248, 320.9479
247.3069, 318.6501
247.7890, 317.2404
248.2711, 316.8770
248.7532, 316.8946
249.2354, 316.5061
249.7175, 315.4019
250.1996, 315.2967
250.6817, 317.6694
251.1638, 319.6226
251.6459, 319.3008
252.1281, 317.0513
252.6102, 314.7331
253.0923, 314.2007
253.5744, 315.8068
254.0565, 317.0619
254.5386, 317.8878
255.0208, 318.5066
255.5029, 319.1098
255.9850, 319.6221
256.4671, 319.7395
256.9492, 319.1156
257.4313, 317.6330
257.9135, 316.8188
258.3956, 317.1049
258.8777, 317.4781
259.3598, 317.6311
259.8419, 317.5179
260.3240, 317.0514
260.8062, 316.0345
261.2883, 314.4821
261.7704, 314.2697
262.2525, 316.7669
262.7346, 318.9049
263.2167, 319.0507
263.6989, 317.7675
264.1810, 316.7013
264.6631, 316.9284
265.1452, 318.2962
265.6273, 319.4232
266.1094, 321.3374
266.5916, 322.0190
267.0737, 319.4904
267.5558, 315.0935
268.0379, 312.1714
268.5200, 312.8551
269.0021, 316.0416
269.4843, 317.0405
269.9664, 314.5168
270.4485, 311.9586
270.9306, 310.4292
271.4127, 309.6514
271.8948, 309.0577
272.3770, 308.4082
272.8591, 307.7787
273.3412, 307.4585
273.8233, 307.8959
274.3054, 307.7095
274.7875, 306.0525
275.2697, 303.5301
275.7518, 301.3272
276.2339, 299.9182
276.7160, 298.8278
277.1981, 296.8966
277.6802, 293.6870
278.1623, 291.5906
278.6444, 292.4678
279.1266, 294.6366
279.6087, 295.1240
280.0908, 293.0008
280.5729, 289.7276
281.0550, 287.1207
281.5371, 285.1359
282.0193, 283.3441
282.5014, 281.8479
282.9835, 280.4124
283.4656, 278.5929
283.9477, 276.2464
284.4298, 273.9170
284.9120, 272.2952
285.3941, 271.2785
285.8762, 270.2433
286.3583, 269.2496
286.8404, 268.0836
287.3225, 266.3498
287.8047, 263.9496
288.2868, 261.5357
288.7689, 259.5352
289.2510, 257.9459
289.7331, 256.7291
290.2152, 256.4470
290.6974, 256.2068
291.1795, 255.0273
291.6616, 252.8715
292.1437, 250.4338
292.6258, 247.8375
293.1079, 245.3192
293.5901, 243.4003
294.0722, 242.5056
294.5543, 241.8105
295.0364, 240.4621
295.5185, 238.5092
296.0006, 236.9839
296.4828, 236.6756
296.9649, 236.9055
297.4470, 236.3653
297.9291, 234.6400
298.4112, 233.0256
298.8933, 232.8087
299.3755, 233.6939
299.8576, 233.8287
300.3397, 232.4106
300.8218, 230.1227
301.3039, 227.8486
301.7860, 225.5451
302.2682, 223.5902
302.7503, 222.3957
303.2324, 221.7485
303.7145, 220.8885
304.1966, 219.6210
304.6787, 218.1377
305.1609, 216.5296
305.6430, 214.8177
306.1251, 213.3365
306.6072, 212.2231
307.0893, 211.4418
307.5714, 211.0656
308.0536, 211.3201
308.5357, 211.3699
309.0178, 210.1592
309.4999, 208.1288
309.9820, 206.4495
310.4641, 205.4404
310.9463, 205.0243
311.4284, 205.4011
311.9105, 206.7833
312.3926, 207.7669
312.8747, 206.8491
313.3568, 204.9975
313.8390, 203.9683
314.3211, 204.5428
314.8032, 205.5954
315.2853, 206.0264
315.7674, 205.8270
316.2495, 205.3768
316.7317, 204.7799
317.2138, 204.0429
317.6959, 203.0715
318.1780, 201.6038
318.6601, 200.5684
319.1422, 201.2999
319.6243, 203.4267
320.1064, 204.2022
320.5886, 202.1125
321.0707, 199.0312
321.5528, 197.3024
322.0349, 196.9690
322.5170, 197.0171
322.9991, 197.0674
323.4813, 197.0939
323.9634, 197.0332
324.4455, 196.8914
324.9276, 196.6210
325.4097, 196.2000
325.8918, 195.6363
326.3740, 194.8755
326.8561, 193.6382
327.3382, 192.2790
327.8203, 191.4960
328.3024, 191.4749
328.7845, 191.3282
329.2667, 190.2070
329.7488, 188.4429
330.2309, 186.8247
330.7130, 185.3665
331.1951, 184.2153
331.6772, 183.7774
332.1594, 184.0358
332.6415, 183.8899
333.1236, 182.3782
333.6057, 180.2585
334.0878, 179.1975
334.5699, 179.7718
335.0521, 180.4460
335.5342, 180.1470
336.0163, 179.0824
336.4984, 178.1159
336.9805, 177.5025
337.4626, 177.1905
337.9448, 177.2923
338.4269, 177.9710
338.9090, 178.0287
339.3911, 176.1929
339.8732, 173.5543
340.3553, 172.4988
340.8375, 173.8076
341.3196, 175.4485
341.8017, 174.8716
342.2838, 172.3169
342.7659, 170.2092
343.2480, 169.1521
343.7302, 168.6764
344.2123, 168.6054
344.6944, 168.9026
345.1765, 168.5760
345.6586, 166.2585
346.1407, 162.6038
346.6229, 161.3577
347.1050, 164.8881
347.5871, 168.7455
348.0692, 170.2046
348.5513, 169.6818
349.0334, 168.8001
349.5156, 168.2429
349.9977, 167.9545
350.4798, 167.7762
350.9619, 167.6143
351.4440, 167.7037
351.9261, 168.6135
352.4083, 169.7156
352.8904, 169.8598
353.3725, 168.6413
353.8546, 166.8009
354.3367, 165.2891
354.8188, 164.0644
355.3010, 163.3984
355.7831, 163.8614
356.2652, 164.5565
356.7473, 164.5352
357.2294, 163.7481
357.7115, 163.0450
358.1937, 163.2636
358.6758, 164.4544
359.1579, 164.9686
359.6400, 164.7570
360.1221, 164.0020
360.6042, 162.3992
361.0863, 160.2865
361.5685, 158.4299
362.0506, 157.2023
362.5327, 156.6372
363.0148, 156.9351
363.4969, 159.2049
363.9790, 160.8902
364.4612, 161.7747
364.9433, 161.8340
365.4254, 160.6743
365.9075, 158.2202
366.3896, 155.4715
366.8717, 154.0929
367.3539, 155.0614
367.8360, 155.2227
368.3181, 153.3488
368.8002, 151.6634
369.2823, 152.3901
369.7644, 155.1464
370.2466, 157.2151
370.7287, 155.7960
371.2108, 150.5321
371.6929, 148.1236
372.1750, 151.5525
372.6571, 154.4261
373.1393, 154.4472
373.6214, 152.6730
374.1035, 151.0613
374.5856, 150.6812
375.0677, 151.2605
375.5498, 152.0032
376.0320, 153.8288
376.5141, 154.3414
376.9962, 152.2979
377.4783, 149.5816
377.9604, 147.7579
378.4425, 147.2318
378.9247, 147.4820
379.4068, 147.9156
379.8889, 148.6726
380.3710, 149.1180
380.8531, 149.0668
381.3352, 148.8702
381.8174, 148.7419
382.2995, 148.6083
382.7816, 148.1521
383.2637, 146.8895
383.7458, 145.0932
384.2279, 144.8087
384.7101, 147.3021
385.1922, 149.4111
385.6743, 150.3832
386.1564, 150.4204
386.6385, 149.4517
387.1206, 147.2549
387.6028, 145.0817
388.0849, 145.2393
388.5670, 148.3129
389.0491, 150.9282
389.5312, 152.5870
390.0133, 153.3014
390.4955, 152.4641
390.9776, 150.2231
391.4597, 148.4061
391.9418, 148.9592
392.4239, 151.3807
392.9060, 152.6033
393.3882, 151.9154
393.8703, 150.8827
394.3524, 150.0872
394.8345, 149.7174
395.3166, 150.3563
395.7987, 153.1497
396.2809, 156.3184
396.7630, 156.9728
397.2451, 154.9270
397.7272, 153.3426
398.2093, 153.8488
398.6914, 155.5440
399.1736, 156.9892
399.6557, 158.1857
400.1378, 159.0092
400.6199, 159.1604
401.1020, 158.8788
401.5841, 158.8460
402.0662, 159.2735
402.5483, 159.8075
403.0305, 159.8431
403.5126, 159.4200
403.9947, 159.6512
404.4768, 161.4979
404.9589, 163.5777
405.4410, 164.6478
405.9232, 164.6612
406.4053, 164.0221
406.8874, 162.8035
407.3695, 161.1915
407.8516, 160.1135
408.3337, 159.0215
408.8159, 158.9985
409.2980, 161.4847
409.7801, 164.9970
410.2622, 167.0155
410.7443, 166.6678
411.2264, 165.1532
411.7086, 164.3904
412.1907, 164.8559
412.6728, 164.9210
413.1549, 163.6764
413.6370, 162.7592
414.1191, 163.5693
414.6013, 165.8837
415.0834, 168.4231
415.5655, 170.2288
416.0476, 171.3157
416.5297, 171.8181
417.0118, 170.7605
417.4940, 170.2254
417.9761, 170.8623
418.4582, 172.1054
418.9403, 173.3585
419.4224, 174.3810
419.9045, 175.0696
420.3867, 174.9080
420.8688, 172.7122
421.3509, 172.8999
421.8330, 178.3483
422.3151, 183.7921
422.7972, 186.3330
423.2794, 186.1806
423.7615, 185.2466
424.2436, 184.8754
424.7257, 184.9972
425.2078, 185.0647
425.6899, 184.6875
426.1721, 184.9814
426.6542, 187.2394
427.1363, 189.9549
427.6184, 191.1315
428.1005, 189.9502
428.5826, 188.1013
429.0648, 187.6048
429.5469, 188.4712
430.0290, 189.6310
430.5111, 191.3453
430.9932, 192.7033
431.4753, 192.5002
431.9575, 190.9939
432.4396, 190.2973
432.9217, 192.4985
433.4038, 195.7784
433.8859, 196.6594
434.3680, 194.7228
434.8502, 192.8550
435.3323, 192.9146
435.8144, 194.3976
436.2965, 195.7367
436.7786, 197.1560
437.2607, 198.0139
437.7429, 197.6629
438.2250, 196.5043
438.7071, 195.3720
439.1892, 194.4795
439.6713, 193.9094
440.1534, 193.8889
440.6356, 194.6152
441.1177, 194.9775
441.5998, 194.1716
442.0819, 193.5716
442.5640, 194.4465
443.0461, 196.5471
443.5282, 198.6774
444.0103, 200.0790
444.4925, 200.7876
444.9746, 200.9563
445.4567, 199.8033
445.9388, 199.0770
446.4209, 198.9370
446.9030, 199.3230
447.3852, 200.4160
447.8673, 202.1527
448.3494, 203.8693
448.8315, 204.5339
449.3136, 203.6885
449.7957, 204.0995
450.2779, 206.8677
450.7600, 209.8422
451.2421, 212.5469
451.7242, 214.8948
452.2063, 216.8450
452.6884, 218.3361
453.1706, 219.4875
453.6527, 220.5851
454.1348, 221.7136
454.6169, 222.5057
455.0990, 221.7535
455.5811, 221.3905
456.0633, 223.4274
456.5454, 227.8428
457.0275, 231.7205
457.5096, 232.3434
457.9917, 230.6507
458.4738, 230.0686
458.9560, 231.0533
459.4381, 232.4472
459.9202, 233.9399
460.4023, 235.2336
460.8844, 235.5961
461.3665, 234.1230
461.8487, 232.8047
462.3308, 233.5166
462.8129, 235.6948
463.2950, 237.3473
463.7771, 237.8032
464.2592, 237.6079
464.7414, 237.4195
465.2235, 237.1905
465.7056, 237.2758
466.1877, 238.1467
466.6698, 239.0210
467.1519, 239.1982
467.6341, 238.7579
468.1162, 238.2604
468.5983, 238.0768
469.0804, 238.1050
469.5625, 237.8773
470.0446, 238.2831
470.5268, 237.2610
471.0089, 233.1535
471.4910, 228.4166
471.9731, 225.5964
472.4552, 225.0242
472.9373, 224.9795
473.4195, 223.5266
473.9016, 220.5278
474.3837, 218.0311
474.8658, 216.5321
475.3479, 215.0211
475.8300, 213.3984
476.3122, 211.5410
476.7943, 209.0991
477.2764, 205.8395
477.7585, 202.5848
478.2406, 200.9137
478.7227, 201.1106
479.2049, 200.3597
479.6870, 197.7486
480.1691, 194.4126
480.6512, 190.9264
481.1333, 187.4166
481.6154, 184.3226
482.0976, 181.8078
482.5797, 179.8586
483.0618, 178.6804
483.5439, 178.2998
484.0260, 177.6688
484.5081, 176.0755
484.9902, 174.0502
485.4724, 172.7655
485.9545, 172.4830
486.4366, 172.1128
486.9187, 171.2706
487.4008, 170.1269
487.8829, 169.0683
488.3651, 168.1092
488.8472, 166.5316
489.3293, 163.4505
489.8114, 158.8718
490.2935, 156.1682
490.7756, 156.3414
491.2578, 156.8507
491.7399, 157.3371
492.2220, 157.6189
492.7041, 157.5794
493.1862, 157.1606
493.6683, 156.2157
494.1505, 154.2510
494.6326, 150.5778
495.1147, 148.6374
495.5968, 150.4160
496.0789, 152.0293
496.5610, 151.6777
497.0432, 150.1649
497.5253, 149.3007
498.0074, 150.1901
498.4895, 151.6739
498.9716, 151.4563
499.4537, 149.2566
499.9359, 147.1008
500.4180, 145.2724
500.9001, 143.8187
501.3822, 142.9564
501.8643, 142.5987
502.3464, 142.0162
502.8286, 140.3312
503.3107, 138.4500
503.7928, 137.9204
504.2749, 138.7909
504.7570, 139.7824
505.2391, 140.3951
505.7213, 140.5491
506.2034, 139.9498
506.6855, 138.1101
507.1676, 136.7412
507.6497, 136.6310
508.1318, 137.0446
508.6140, 137.2331
509.0961, 137.0677
509.5782, 136.7019
510.0603, 136.2597
510.5424, 135.7416
511.0245, 135.1494
511.5067, 134.5377
511.9888, 133.7849
512.4709, 132.3488
512.9530, 131.0188
513.4351, 130.9390
513.9172, 132.2758
514.3994, 133.7701
514.8815, 133.8222
515.3636, 132.3108
515.8457, 130.9959
516.3278, 130.0282
516.8099, 129.0547
517.2921, 127.6464
517.7742, 126.2201
518.2563, 125.4513
518.7384, 125.6309
519.2205, 126.2776
519.7026, 127.2968
520.1848, 128.5188
520.6669, 128.4177
521.1490, 126.1896
521.6311, 123.5482
522.1132, 122.3513
522.5953, 122.3327
523.0775, 122.2116
523.5596, 121.8439
524.0417, 121.2438
524.5238, 119.9718
525.0059, 118.4508
525.4880, 117.9831
525.9702, 119.1828
526.4523, 121.1341
526.9344, 122.3275
527.4165, 122.6146
527.8986, 122.3918
528.3807, 121.0600
528.8629, 119.8172
529.3450, 119.5589
529.8271, 119.9201
530.3092, 119.7979
530.7913, 118.4827
531.2734, 116.8186
531.7556, 117.2096
532.2377, 120.8881
532.7198, 123.1181
533.2019, 121.4740
533.6840, 119.6278
534.1661, 119.9313
534.6483, 121.9999
535.1304, 123.6479
535.6125, 123.3850
536.0946, 122.0944
536.5767, 121.4748
537.0588, 121.5767
537.5410, 121.2092
538.0231, 119.5735
538.5052, 117.5561
538.9873, 116.4861
539.4694, 116.3608
539.9515, 116.8355
540.4337, 118.2858
540.9158, 119.9764
541.3979, 121.4104
541.8800, 122.4498
542.3621, 122.6753
542.8442, 121.6956
543.3264, 119.9669
543.8085, 119.0442
544.2906, 119.5396
544.7726, 120.0490
545.2548, 120.4128
545.7369, 120.8920
546.2190, 121.8691
546.7011, 123.1916
547.1832, 124.2447
547.6653, 124.4772
548.1475, 124.1436
548.6296, 124.2815
549.1117, 125.0684
549.5938, 125.8553
550.0759, 126.8794
550.5580, 127.5424
551.0402, 127.0210
551.5223, 125.3565
552.0044, 124.0996
552.4865, 124.3866
552.9686, 125.5749
553.4507, 126.6769
553.9329, 127.6513
554.4150, 128.2346
554.8971, 128.1130
555.3792, 127.6476
555.8613, 127.8207
556.3434, 128.9241
556.8256, 129.8004
557.3077, 130.1657
557.7898, 130.2575
558.2719, 130.2590
558.7540, 130.1929
559.2361, 129.9841
559.7183, 129.5462
560.2004, 128.9915
560.6825, 128.8174
561.1646, 129.4271
561.6467, 129.7273
562.1288, 129.0543
562.6110, 128.5112
563.0931, 129.1568
563.5752, 130.8037
564.0573, 132.2229
564.5394, 132.5094
565.0215, 131.9868
565.5037, 131.4941
565.9858, 131.0735
566.4679, 130.3657
566.9500, 129.0086
567.4321, 127.4899
567.9142, 126.3388
568.3964, 125.5362
568.8785, 125.3061
569.3606, 126.2538
569.8427, 127.4488
570.3248, 128.0469
570.8069, 128.0114
571.2891, 127.4343
571.7712, 126.2925
572.2533, 124.8644
572.7354, 123.8624
573.2175, 123.6023
573.6996, 123.2214
574.1818, 122.6019
574.6639, 121.9715
575.1460, 121.5442
575.6281, 121.2244
576.1102, 120.6933
576.5923, 119.7037
577.0745, 118.5953
577.5566, 118.3735
578.0387, 119.3870
578.5208, 119.2773
579.0029, 116.1517
579.4850, 113.3122
579.9672, 113.8656
580.4493, 116.9974
580.9314, 119.1512
581.4135, 119.0605
581.8956, 117.4158
582.3777, 113.6558
582.8599, 108.6665
583.3420, 106.1793
583.8241, 107.7829
584.3062, 110.8153
584.7883, 111.6968
585.2704, 109.9028
585.7526, 108.3751
586.2347, 107.2124
586.7168, 106.1826
