##NAMES=Struvite
##RRUFFID=R050511
##IDEAL CHEMISTRY=(N^3-^H_4_)MgPO_4_&#183;6H_2_O
##LOCALITY=Hamburg, Germany
##OWNER=RRUFF
##SOURCE=American Museum of Natural History
##DESCRIPTION=Colorless with a brown tint, cleavage fragment
##STATUS=The identification of this mineral has been confirmed by X-ray diffraction and chemical analysis
##URL=rruff.info/R050511
##MEASURED CHEMISTRY=(NH_4_)(Mg_0.85_Fe^2+^_0.12_Mn_0.02_Ca_0.01_)_Σ=1_(P_1.00_O_4_)·6H_2_O ; NH_4_ not measured but assumed by charge balance
166.8470, 16077.64
167.3291, 16307.92
167.8112, 16585.53
168.2934, 16873.09
168.7755, 17128.21
169.2576, 17330.94
169.7397, 17491.79
170.2218, 17648.04
170.7039, 17800.21
171.1861, 17946.12
171.6682, 18095.14
172.1503, 18235.26
172.6324, 18352.27
173.1145, 18437.54
173.5966, 18499.07
174.0788, 18564.78
174.5609, 18623.69
175.0430, 18702.44
175.5251, 18824.55
176.0072, 18961.59
176.4893, 19079.75
176.9715, 19160.64
177.4536, 19213.50
177.9357, 19271.58
178.4178, 19336.28
178.8999, 19405.41
179.3820, 19493.53
179.8642, 19581.12
180.3463, 19643.07
180.8284, 19666.58
181.3105, 19659.48
181.7926, 19651.54
182.2747, 19658.29
182.7569, 19644.50
183.2390, 19597.63
183.7211, 19530.90
184.2032, 19464.04
184.6853, 19407.23
185.1674, 19350.74
185.6496, 19260.71
186.1317, 19105.75
186.6138, 18948.26
187.0959, 18796.02
187.5780, 18643.64
188.0601, 18480.15
188.5423, 18300.68
189.0244, 18114.99
189.5065, 17954.21
189.9886, 17846.71
190.4707, 17734.45
190.9528, 17610.52
191.4350, 17481.20
191.9171, 17352.21
192.3992, 17225.64
192.8813, 17107.49
193.3634, 17014.09
193.8455, 16972.97
194.3277, 16926.57
194.8098, 16866.14
195.2919, 16801.86
195.7740, 16744.50
196.2561, 16698.71
196.7382, 16663.26
197.2204, 16635.37
197.7025, 16629.80
198.1846, 16614.45
198.6667, 16577.89
199.1488, 16535.62
199.6309, 16503.29
200.1131, 16486.62
200.5952, 16482.58
201.0773, 16484.94
201.5594, 16491.18
202.0415, 16508.66
202.5236, 16558.25
203.0058, 16609.53
203.4879, 16623.78
203.9700, 16589.84
204.4521, 16538.75
204.9342, 16526.17
205.4163, 16591.80
205.8985, 16635.72
206.3806, 16644.07
206.8627, 16638.24
207.3448, 16635.82
207.8269, 16641.79
208.3090, 16652.78
208.7912, 16664.38
209.2733, 16682.18
209.7554, 16687.66
210.2375, 16669.34
210.7196, 16646.21
211.2017, 16633.83
211.6839, 16635.30
212.1660, 16643.07
212.6481, 16646.43
213.1302, 16638.53
213.6123, 16646.38
214.0944, 16671.13
214.5765, 16709.46
215.0587, 16763.09
215.5408, 16830.55
216.0229, 16902.85
216.5050, 16970.09
216.9871, 17029.37
217.4692, 17095.03
217.9514, 17154.58
218.4335, 17229.58
218.9156, 17341.37
219.3977, 17486.31
219.8798, 17639.19
220.3619, 17775.27
220.8441, 17890.89
221.3262, 18012.65
221.8083, 18142.75
222.2904, 18276.57
222.7725, 18419.24
223.2546, 18565.17
223.7368, 18700.45
224.2189, 18812.77
224.7010, 18900.96
225.1831, 18981.22
225.6652, 19064.57
226.1473, 19130.33
226.6295, 19172.87
227.1116, 19191.02
227.5937, 19182.57
228.0758, 19144.49
228.5579, 19077.93
229.0400, 19003.12
229.5222, 18923.50
230.0043, 18832.20
230.4864, 18727.32
230.9685, 18609.29
231.4506, 18477.53
231.9327, 18331.19
232.4149, 18172.37
232.8970, 18016.40
233.3791, 17864.08
233.8612, 17713.62
234.3433, 17559.82
234.8254, 17409.40
235.3076, 17275.23
235.7897, 17164.56
236.2718, 17068.07
236.7539, 16956.76
237.2360, 16796.78
237.7181, 16667.80
238.2003, 16589.48
238.6824, 16538.16
239.1645, 16491.77
239.6466, 16441.94
240.1287, 16392.60
240.6108, 16353.22
241.0930, 16339.34
241.5751, 16308.99
242.0572, 16253.27
242.5393, 16187.93
243.0214, 16118.63
243.5035, 16049.45
243.9857, 15990.19
244.4678, 15958.82
244.9499, 15974.35
245.4320, 15972.95
245.9141, 15938.87
246.3962, 15902.66
246.8784, 15883.44
247.3605, 15882.19
247.8426, 15886.15
248.3247, 15882.04
248.8068, 15868.69
249.2889, 15852.25
249.7710, 15819.69
250.2532, 15795.24
250.7353, 15791.18
251.2174, 15804.76
251.6995, 15825.52
252.1816, 15845.89
252.6637, 15865.71
253.1459, 15882.43
253.6280, 15883.12
254.1101, 15894.89
254.5922, 15935.01
255.0743, 15991.74
255.5564, 16042.54
256.0386, 16072.42
256.5207, 16085.54
257.0028, 16099.51
257.4849, 16105.49
257.9670, 16127.85
258.4492, 16173.83
258.9313, 16237.70
259.4134, 16316.18
259.8955, 16411.16
260.3776, 16510.66
260.8597, 16590.27
261.3419, 16652.12
261.8240, 16688.12
262.3061, 16667.40
262.7882, 16635.91
263.2703, 16638.10
263.7524, 16689.11
264.2346, 16756.78
264.7167, 16796.13
265.1988, 16800.77
265.6809, 16822.73
266.1630, 16885.60
266.6451, 16963.98
267.1272, 17043.71
267.6093, 17123.40
268.0915, 17196.74
268.5736, 17257.60
269.0557, 17306.63
269.5378, 17349.02
270.0199, 17373.35
270.5020, 17407.20
270.9842, 17482.62
271.4663, 17593.12
271.9484, 17686.49
272.4305, 17722.78
272.9126, 17720.13
273.3947, 17729.30
273.8769, 17757.45
274.3590, 17790.56
274.8411, 17822.90
275.3232, 17852.44
275.8053, 17871.11
276.2874, 17858.98
276.7696, 17842.59
277.2517, 17865.39
277.7338, 17932.04
278.2159, 17993.30
278.6980, 18011.23
279.1801, 17999.89
279.6623, 18000.89
280.1444, 18022.76
280.6265, 18053.24
281.1086, 18081.96
281.5907, 18110.40
282.0728, 18150.03
282.5550, 18214.62
283.0371, 18286.48
283.5192, 18318.50
284.0013, 18281.57
284.4834, 18262.95
284.9655, 18318.18
285.4477, 18413.13
285.9298, 18475.72
286.4119, 18478.91
286.8940, 18457.02
287.3761, 18469.32
287.8582, 18527.04
288.3404, 18583.00
288.8225, 18646.83
289.3046, 18698.73
289.7867, 18712.00
290.2688, 18683.73
290.7509, 18641.14
291.2331, 18612.87
291.7152, 18602.09
292.1973, 18593.81
292.6794, 18600.24
293.1615, 18598.80
293.6436, 18582.61
294.1258, 18548.04
294.6079, 18483.92
295.0900, 18375.72
295.5721, 18227.10
296.0542, 18121.17
296.5363, 18078.23
297.0185, 18052.60
297.5006, 18052.46
297.9827, 18058.74
298.4648, 18042.30
298.9469, 17987.51
299.4290, 17906.04
299.9112, 17830.81
300.3933, 17752.72
300.8754, 17696.41
301.3575, 17677.96
301.8396, 17671.95
302.3217, 17657.41
302.8039, 17628.47
303.2860, 17591.38
303.7681, 17553.86
304.2502, 17514.02
304.7323, 17480.55
305.2144, 17465.33
305.6966, 17447.11
306.1787, 17405.99
306.6608, 17348.06
307.1429, 17302.98
307.6250, 17309.96
308.1071, 17363.41
308.5893, 17363.45
309.0714, 17270.60
309.5535, 17177.46
310.0356, 17125.70
310.5177, 17102.09
310.9998, 17081.71
311.4820, 17055.65
311.9641, 17023.41
312.4462, 16983.99
312.9283, 16936.98
313.4104, 16883.33
313.8925, 16817.17
314.3747, 16747.18
314.8568, 16680.87
315.3389, 16616.41
315.8210, 16564.18
316.3031, 16544.20
316.7852, 16550.54
317.2674, 16536.61
317.7495, 16480.53
318.2316, 16410.29
318.7137, 16360.01
319.1958, 16329.08
319.6779, 16311.79
320.1601, 16320.93
320.6422, 16337.45
321.1243, 16323.46
321.6064, 16269.87
322.0885, 16217.85
322.5706, 16211.77
323.0528, 16252.64
323.5349, 16273.25
324.0170, 16242.16
324.4991, 16212.91
324.9812, 16232.45
325.4633, 16290.46
325.9455, 16337.40
326.4276, 16341.91
326.9097, 16311.36
327.3918, 16287.06
327.8739, 16264.17
328.3560, 16252.26
328.8382, 16263.45
329.3203, 16283.63
329.8024, 16294.33
330.2845, 16289.00
330.7666, 16272.83
331.2487, 16254.80
331.7309, 16234.79
332.2130, 16213.08
332.6951, 16189.09
333.1772, 16164.48
333.6593, 16142.38
334.1414, 16121.65
334.6236, 16097.03
335.1057, 16061.58
335.5878, 16014.50
336.0699, 15978.67
336.5520, 15964.26
337.0341, 15951.08
337.5162, 15935.07
337.9984, 15916.10
338.4805, 15892.43
338.9626, 15860.19
339.4447, 15828.98
339.9268, 15824.78
340.4089, 15858.79
340.8911, 15886.61
341.3732, 15884.08
341.8553, 15875.70
342.3374, 15885.65
342.8195, 15919.84
343.3016, 15949.23
343.7838, 15939.90
344.2659, 15897.91
344.7480, 15870.02
345.2301, 15866.56
345.7122, 15875.67
346.1943, 15889.14
346.6765, 15906.05
347.1586, 15921.57
347.6407, 15931.08
348.1228, 15939.68
348.6049, 15954.81
349.0870, 15976.87
349.5692, 16001.19
350.0513, 16028.90
350.5334, 16055.68
351.0155, 16065.04
351.4976, 16042.11
351.9797, 16018.34
352.4619, 16004.06
352.9440, 15998.85
353.4261, 16003.74
353.9082, 16020.06
354.3903, 16041.17
354.8724, 16054.84
355.3546, 16056.90
355.8367, 16058.39
356.3188, 16064.89
356.8009, 16067.06
357.2830, 16052.69
357.7651, 16024.07
358.2473, 15997.15
358.7294, 15987.38
359.2115, 15995.42
359.6936, 16007.21
360.1757, 16048.61
360.6578, 16066.17
361.1400, 16019.95
361.6221, 15946.96
362.1042, 15907.74
362.5863, 15934.71
363.0684, 15994.80
363.5505, 16010.59
364.0327, 15957.40
364.5148, 15930.06
364.9969, 15971.67
365.4790, 16029.41
365.9611, 16069.86
366.4432, 16088.53
366.9254, 16100.13
367.4075, 16114.43
367.8896, 16131.26
368.3717, 16149.63
368.8538, 16167.29
369.3359, 16190.73
369.8181, 16233.15
370.3002, 16285.41
370.7823, 16323.98
371.2644, 16324.66
371.7465, 16321.66
372.2286, 16355.03
372.7108, 16420.12
373.1929, 16479.75
373.6750, 16520.58
374.1571, 16541.10
374.6392, 16531.94
375.1213, 16469.98
375.6035, 16432.50
376.0856, 16455.74
376.5677, 16506.87
377.0498, 16547.82
377.5319, 16570.30
378.0140, 16585.79
378.4962, 16608.94
378.9783, 16645.15
379.4604, 16654.58
379.9425, 16625.90
380.4246, 16587.25
380.9067, 16536.51
381.3889, 16486.03
381.8710, 16459.45
382.3531, 16472.31
382.8352, 16509.25
383.3173, 16521.65
383.7994, 16492.15
384.2816, 16472.25
384.7637, 16479.63
385.2458, 16491.35
385.7279, 16488.70
386.2100, 16469.38
386.6921, 16446.12
387.1743, 16430.43
387.6564, 16421.91
388.1385, 16412.76
388.6206, 16394.20
389.1027, 16389.55
389.5848, 16423.98
390.0670, 16481.46
390.5491, 16527.92
391.0312, 16551.29
391.5133, 16559.66
391.9954, 16555.89
392.4775, 16541.44
392.9597, 16532.61
393.4418, 16537.93
393.9239, 16550.11
394.4060, 16553.45
394.8881, 16543.40
395.3702, 16540.52
395.8524, 16561.47
396.3345, 16586.07
396.8166, 16586.82
397.2987, 16561.90
397.7808, 16537.46
398.2629, 16541.68
398.7451, 16577.10
399.2272, 16572.44
399.7093, 16471.04
400.1914, 16397.57
400.6735, 16415.72
401.1556, 16477.69
401.6378, 16509.83
402.1199, 16480.67
402.6020, 16417.34
403.0841, 16370.27
403.5662, 16348.10
404.0483, 16318.72
404.5305, 16271.84
405.0126, 16223.88
405.4947, 16179.85
405.9768, 16142.22
406.4589, 16115.48
406.9410, 16108.70
407.4231, 16114.88
407.9052, 16110.73
408.3874, 16092.74
408.8695, 16077.63
409.3516, 16079.64
409.8337, 16087.75
410.3158, 16081.26
410.7979, 16044.80
411.2801, 16022.98
411.7622, 16060.76
412.2443, 16132.74
412.7264, 16174.10
413.2085, 16165.05
413.6906, 16145.25
414.1728, 16163.41
414.6549, 16230.02
415.1370, 16275.33
415.6191, 16285.21
416.1012, 16286.20
416.5833, 16285.25
417.0655, 16287.46
417.5476, 16302.36
418.0297, 16335.81
418.5118, 16382.96
418.9939, 16430.51
419.4760, 16485.73
419.9582, 16528.18
420.4403, 16545.95
420.9224, 16560.08
421.4045, 16591.93
421.8866, 16639.73
422.3687, 16678.25
422.8509, 16673.06
423.3330, 16633.25
423.8151, 16637.02
424.2972, 16705.11
424.7793, 16775.22
425.2614, 16815.46
425.7436, 16838.93
426.2257, 16861.58
426.7078, 16885.13
427.1899, 16912.37
427.6720, 16953.67
428.1541, 17001.94
428.6363, 17029.93
429.1184, 17027.32
429.6005, 17012.89
430.0826, 17008.09
430.5647, 17014.02
431.0468, 17020.49
431.5290, 17023.00
432.0111, 17029.32
432.4932, 17049.65
432.9753, 17078.66
433.4574, 17100.34
433.9395, 17105.56
434.4217, 17099.66
434.9038, 17098.15
435.3859, 17098.89
435.8680, 17108.49
436.3501, 17144.87
436.8322, 17176.33
437.3144, 17178.02
437.7965, 17149.94
438.2786, 17110.43
438.7607, 17075.21
439.2428, 17042.03
439.7249, 16994.57
440.2071, 16926.50
440.6892, 16857.77
441.1713, 16793.51
441.6534, 16735.33
442.1355, 16685.27
442.6176, 16644.26
443.0998, 16610.36
443.5819, 16590.55
444.0640, 16576.50
444.5461, 16541.50
445.0282, 16476.27
445.5103, 16409.52
445.9925, 16371.97
446.4746, 16366.76
446.9567, 16347.68
447.4388, 16307.54
447.9209, 16261.19
448.4030, 16209.81
448.8852, 16158.52
449.3673, 16114.70
449.8494, 16081.89
450.3315, 16059.10
450.8136, 16047.64
451.2957, 16059.72
451.7779, 16054.24
452.2600, 16006.83
452.7421, 15964.51
453.2242, 15963.54
453.7063, 15989.66
454.1884, 15996.34
454.6706, 15944.94
455.1527, 15866.05
455.6348, 15831.04
456.1169, 15847.05
456.5990, 15861.85
457.0811, 15856.73
457.5633, 15841.02
458.0454, 15825.91
458.5275, 15810.65
459.0096, 15800.58
459.4917, 15802.31
459.9738, 15807.86
460.4560, 15804.37
460.9381, 15791.68
461.4202, 15785.65
461.9023, 15802.62
462.3844, 15834.62
462.8665, 15827.66
463.3487, 15734.21
463.8308, 15664.21
464.3129, 15644.58
464.7950, 15648.84
465.2771, 15656.05
465.7592, 15659.41
466.2414, 15655.84
466.7235, 15638.50
467.2056, 15607.61
467.6877, 15591.47
468.1698, 15605.56
468.6519, 15610.17
469.1341, 15583.03
469.6162, 15540.16
470.0983, 15501.91
470.5804, 15471.97
471.0625, 15451.60
471.5446, 15452.59
472.0268, 15465.48
472.5089, 15451.19
472.9910, 15396.02
473.4731, 15338.28
473.9552, 15319.22
474.4373, 15340.48
474.9195, 15340.48
475.4016, 15312.55
475.8837, 15270.17
476.3658, 15205.08
476.8479, 15133.19
477.3300, 15081.33
477.8121, 15059.65
478.2943, 15057.88
478.7764, 15061.52
479.2585, 15073.56
479.7406, 15081.57
480.2227, 15094.04
480.7048, 15094.04
481.1870, 15064.03
481.6691, 15017.65
482.1512, 14983.02
482.6333, 14974.53
483.1154, 14979.82
483.5975, 14979.21
484.0797, 14973.21
484.5618, 14983.99
485.0439, 15029.59
485.5260, 15075.04
486.0081, 15070.14
486.4902, 15018.49
486.9724, 14975.60
487.4545, 14945.19
487.9366, 14932.35
488.4187, 14951.28
488.9008, 14991.64
489.3829, 15024.95
489.8651, 15037.36
490.3472, 15036.21
490.8293, 15038.43
491.3114, 15054.80
491.7935, 15051.93
492.2756, 15013.89
492.7578, 14973.64
493.2399, 14941.31
493.7220, 14921.67
494.2041, 14923.47
494.6862, 14959.88
495.1683, 15008.91
495.6505, 15023.56
496.1326, 15000.91
496.6147, 14980.57
497.0968, 14974.61
497.5789, 14974.82
498.0610, 14976.52
498.5432, 14980.25
499.0253, 14966.02
499.5074, 14905.43
499.9895, 14842.08
500.4716, 14821.01
500.9537, 14833.78
501.4359, 14841.31
501.9180, 14822.82
502.4001, 14789.57
502.8822, 14768.16
503.3643, 14762.03
503.8464, 14762.58
504.3286, 14776.24
504.8107, 14790.15
505.2928, 14799.44
505.7749, 14802.65
506.2570, 14796.90
506.7391, 14775.90
507.2213, 14751.58
507.7034, 14754.96
508.1855, 14790.09
508.6676, 14807.10
509.1497, 14773.63
509.6318, 14736.39
510.1140, 14758.56
510.5961, 14839.76
511.0782, 14903.80
511.5603, 14931.78
512.0424, 14934.18
512.5245, 14905.96
513.0067, 14857.75
513.4888, 14821.77
513.9709, 14814.48
514.4530, 14823.40
514.9351, 14819.79
515.4172, 14783.47
515.8994, 14777.11
516.3815, 14836.71
516.8636, 14889.20
517.3457, 14890.27
517.8278, 14853.64
518.3099, 14818.24
518.7921, 14802.53
519.2742, 14801.47
519.7563, 14810.02
520.2384, 14828.14
520.7205, 14846.26
521.2026, 14866.61
521.6848, 14878.82
522.1669, 14861.41
522.6490, 14817.00
523.1311, 14793.19
523.6132, 14814.82
524.0953, 14842.44
524.5775, 14852.19
525.0596, 14849.03
525.5417, 14845.76
526.0238, 14847.52
526.5059, 14850.34
526.9880, 14846.20
527.4702, 14830.29
527.9523, 14826.41
528.4344, 14857.97
528.9165, 14877.73
529.3986, 14851.56
529.8807, 14806.13
530.3629, 14791.01
530.8450, 14831.84
531.3271, 14882.88
531.8092, 14889.50
532.2913, 14862.85
532.7734, 14853.50
533.2556, 14872.91
533.7377, 14900.94
534.2198, 14918.71
534.7019, 14927.03
535.1840, 14946.76
535.6661, 14994.41
536.1483, 15033.16
536.6304, 15045.88
537.1125, 15045.03
537.5946, 15041.96
538.0767, 15041.38
538.5588, 15050.16
539.0410, 15080.22
539.5231, 15130.05
540.0052, 15162.02
540.4873, 15169.66
540.9694, 15171.13
541.4515, 15158.96
541.9337, 15151.65
542.4158, 15178.44
542.8979, 15250.33
543.3800, 15308.42
543.8621, 15300.61
544.3442, 15266.76
544.8264, 15269.51
545.3085, 15312.54
545.7906, 15365.64
546.2727, 15411.52
546.7548, 15450.13
547.2369, 15480.85
547.7191, 15494.51
548.2012, 15513.10
548.6833, 15524.86
549.1654, 15551.29
549.6475, 15614.58
550.1296, 15707.32
550.6118, 15802.89
551.0939, 15884.84
551.5760, 15956.95
552.0581, 16023.22
552.5402, 16083.25
553.0223, 16149.71
553.5045, 16228.03
553.9866, 16312.01
554.4687, 16389.06
554.9508, 16459.48
555.4329, 16552.29
555.9150, 16685.96
556.3972, 16829.97
556.8793, 16972.25
557.3614, 17110.24
557.8435, 17237.05
558.3256, 17350.64
558.8077, 17465.74
559.2899, 17605.03
559.7720, 17773.24
560.2541, 17932.73
560.7362, 18070.72
561.2183, 18218.27
561.7004, 18408.76
562.1826, 18606.56
562.6647, 18754.69
563.1468, 18832.72
563.6289, 18897.23
564.1110, 18993.01
564.5931, 19101.52
565.0753, 19187.91
565.5574, 19247.84
566.0395, 19291.21
566.5216, 19323.19
567.0037, 19345.22
567.4858, 19364.67
567.9680, 19408.44
568.4501, 19411.19
568.9322, 19369.31
569.4143, 19287.57
569.8964, 19154.54
570.3785, 18982.21
570.8607, 18810.13
571.3428, 18667.64
571.8249, 18531.91
572.3070, 18350.33
572.7891, 18122.16
573.2712, 17908.38
573.7534, 17731.70
574.2355, 17566.82
574.7176, 17384.63
575.1997, 17185.04
575.6818, 16998.34
576.1639, 16836.23
576.6461, 16678.18
577.1282, 16514.71
577.6103, 16348.97
578.0924, 16182.89
578.5745, 16018.91
579.0566, 15869.48
579.5388, 15754.35
580.0209, 15673.29
580.5030, 15589.03
580.9851, 15495.62
581.4672, 15410.61
581.9493, 15349.45
582.4314, 15297.36
582.9135, 15236.81
583.3956, 15164.72
583.8777, 15094.15
584.3599, 15026.52
584.8420, 14966.76
585.3241, 14927.48
585.8062, 14903.95
586.2883, 14874.17
586.7704, 14825.51
587.2526, 14763.47
587.7347, 14698.33
588.2168, 14619.71
588.6989, 14563.80
589.1810, 14549.80
589.6631, 14541.35
590.1453, 14527.65
590.6274, 14506.93
591.1095, 14476.34
591.5916, 14431.22
592.0737, 14385.18
592.5558, 14347.15
593.0380, 14318.57
593.5201, 14311.54
594.0022, 14329.17
594.4843, 14334.69
594.9664, 14293.64
595.4485, 14213.68
595.9307, 14155.14
596.4128, 14122.60
596.8949, 14107.14
597.3770, 14129.95
597.8591, 14153.60
598.3412, 14142.60
598.8234, 14101.72
599.3055, 14064.91
599.7876, 14051.86
600.2697, 14058.37
600.7518, 14087.82
601.2339, 14137.95
601.7161, 14162.94
602.1982, 14145.98
602.6803, 14110.33
603.1624, 14078.59
603.6445, 14050.76
604.1266, 14032.23
604.6088, 14029.90
605.0909, 14028.46
605.5730, 14015.60
606.0551, 14004.08
606.5372, 14014.72
607.0193, 14048.97
607.5015, 14082.79
607.9836, 14095.84
608.4657, 14089.39
608.9478, 14060.60
609.4299, 14000.69
609.9120, 13970.57
610.3942, 14010.30
610.8763, 14075.19
611.3584, 14100.61
611.8405, 14086.15
612.3226, 14053.95
612.8047, 13979.30
613.2869, 13915.10
613.7690, 13900.75
614.2511, 13918.27
614.7332, 13934.66
615.2153, 13937.74
615.6974, 13933.66
616.1796, 13927.99
616.6617, 13920.89
617.1438, 13920.76
617.6259, 13928.50
618.1080, 13941.96
618.5901, 13973.56
619.0723, 14003.18
619.5544, 13994.27
620.0365, 13932.84
620.5186, 13889.99
621.0007, 13903.83
621.4828, 13930.49
621.9650, 13933.82
622.4471, 13917.49
622.9292, 13896.31
623.4113, 13876.83
623.8934, 13866.87
624.3755, 13889.21
624.8577, 13952.55
625.3398, 13972.69
625.8219, 13923.33
626.3040, 13870.40
626.7861, 13850.58
627.2682, 13848.71
627.7504, 13842.76
628.2325, 13827.90
628.7146, 13817.20
629.1967, 13819.28
629.6788, 13826.21
630.1609, 13831.00
630.6431, 13832.84
631.1252, 13833.58
631.6073, 13834.64
632.0894, 13831.47
632.5715, 13808.65
633.0536, 13756.48
633.5358, 13735.92
634.0179, 13777.94
634.5000, 13813.85
634.9821, 13790.34
635.4642, 13739.01
635.9464, 13719.24
636.4285, 13749.28
636.9106, 13787.09
637.3927, 13823.94
637.8748, 13851.18
638.3569, 13855.08
638.8391, 13837.85
639.3212, 13812.61
639.8033, 13786.30
640.2854, 13761.21
640.7675, 13743.71
641.2496, 13735.97
641.7318, 13726.15
642.2139, 13708.65
642.6960, 13695.34
643.1781, 13696.40
643.6602, 13705.73
644.1423, 13710.81
644.6245, 13707.44
645.1066, 13704.89
645.5887, 13706.75
646.0708, 13712.75
646.5529, 13731.09
647.0350, 13755.88
647.5172, 13759.56
647.9993, 13723.66
648.4814, 13665.57
648.9635, 13625.54
649.4456, 13605.97
649.9277, 13593.15
650.4099, 13578.79
650.8920, 13580.99
651.3741, 13630.48
651.8562, 13700.45
652.3383, 13732.59
652.8204, 13699.25
653.3026, 13669.47
653.7847, 13681.51
654.2668, 13707.05
654.7489, 13715.06
655.2310, 13705.44
655.7131, 13694.06
656.1953, 13690.05
656.6774, 13690.89
657.1595, 13693.88
657.6416, 13701.02
658.1237, 13693.84
658.6058, 13661.22
659.0880, 13630.10
659.5701, 13622.14
660.0522, 13626.87
660.5343, 13621.92
661.0164, 13598.49
