##NAMES=Struvite
##RRUFFID=R050511
##IDEAL CHEMISTRY=(N^3-^H_4_)MgPO_4_&#183;6H_2_O
##LOCALITY=Hamburg, Germany
##OWNER=RRUFF
##SOURCE=American Museum of Natural History
##DESCRIPTION=Colorless with a brown tint, cleavage fragment
##STATUS=The identification of this mineral has been confirmed by X-ray diffraction and chemical analysis
##URL=rruff.info/R050511
##MEASURED CHEMISTRY=(NH_4_)(Mg_0.85_Fe^2+^_0.12_Mn_0.02_Ca_0.01_)_Σ=1_(P_1.00_O_4_)·6H_2_O ; NH_4_ not measured but assumed by charge balance
155.2712, 42183.76
155.7533, 42325.31
156.2354, 42538.73
156.7175, 42733.73
157.1996, 42861.14
157.6817, 42981.22
158.1639, 43139.16
158.6460, 43376.73
159.1281, 43620.90
159.6102, 43837.43
160.0923, 44022.17
160.5744, 44233.91
161.0566, 44547.02
161.5387, 44876.62
162.0208, 45128.74
162.5029, 45192.84
162.9850, 45228.46
163.4671, 45317.87
163.9493, 45473.71
164.4314, 45629.93
164.9135, 45762.25
165.3956, 45873.84
165.8777, 45969.91
166.3598, 46040.36
166.8420, 46106.05
167.3241, 46182.20
167.8062, 46273.38
168.2883, 46374.54
168.7704, 46487.36
169.2525, 46610.67
169.7346, 46740.24
170.2168, 46870.11
170.6989, 47007.13
171.1810, 47156.87
171.6631, 47320.30
172.1452, 47499.21
172.6273, 47703.16
173.1095, 47926.73
173.5916, 48155.76
174.0737, 48378.38
174.5558, 48601.55
175.0379, 48832.70
175.5201, 49077.95
176.0022, 49329.49
176.4843, 49581.94
176.9664, 49832.41
177.4485, 50069.45
177.9306, 50274.64
178.4128, 50458.14
178.8949, 50647.63
179.3770, 50864.00
179.8591, 51083.27
180.3412, 51269.73
180.8233, 51424.80
181.3055, 51555.00
181.7876, 51672.44
182.2697, 51771.97
182.7518, 51840.64
183.2339, 51869.25
183.7160, 51863.23
184.1982, 51828.68
184.6803, 51763.14
185.1624, 51685.36
185.6445, 51627.62
186.1266, 51582.16
186.6087, 51500.12
187.0908, 51336.44
187.5730, 51113.37
188.0551, 50925.80
188.5372, 50776.61
189.0193, 50647.97
189.5014, 50516.04
189.9835, 50380.00
190.4657, 50243.55
190.9478, 50107.68
191.4299, 49972.10
191.9120, 49841.58
192.3941, 49716.86
192.8762, 49597.55
193.3584, 49480.89
193.8405, 49367.44
194.3226, 49264.13
194.8047, 49179.37
195.2868, 49112.88
195.7689, 49047.69
196.2511, 48981.48
196.7332, 48917.66
197.2153, 48855.63
197.6974, 48791.36
198.1795, 48758.26
198.6616, 48797.30
199.1438, 48914.55
199.6259, 48990.71
200.1080, 49003.85
200.5901, 48974.68
201.0722, 48964.51
201.5543, 48975.72
202.0364, 48993.69
202.5186, 48989.87
203.0007, 48951.26
203.4828, 48995.79
203.9649, 49170.36
204.4470, 49433.18
204.9291, 49589.07
205.4113, 49610.21
205.8934, 49598.11
206.3755, 49640.23
206.8576, 49752.25
207.3397, 49836.20
207.8218, 49871.16
208.3040, 49862.95
208.7861, 49852.95
209.2682, 49840.02
209.7503, 49831.69
210.2324, 49836.88
210.7145, 49860.71
211.1967, 49888.14
211.6788, 49918.79
212.1609, 49953.86
212.6430, 49992.91
213.1251, 50042.72
213.6072, 50088.93
214.0894, 50116.86
214.5715, 50123.24
215.0536, 50117.83
215.5357, 50087.16
216.0178, 50027.76
216.4999, 50045.52
216.9820, 50181.67
217.4642, 50340.29
217.9463, 50401.07
218.4284, 50307.24
218.9105, 50244.60
219.3926, 50265.42
219.8747, 50376.66
220.3569, 50487.24
220.8390, 50615.62
221.3211, 50725.90
221.8032, 50763.50
222.2853, 50675.91
222.7674, 50629.71
223.2496, 50686.87
223.7317, 50872.85
224.2138, 51005.72
224.6959, 51058.91
225.1780, 51084.18
225.6601, 51164.01
226.1423, 51343.63
226.6244, 51491.68
227.1065, 51555.46
227.5886, 51507.00
228.0707, 51502.76
228.5528, 51561.25
229.0350, 51649.96
229.5171, 51719.38
229.9992, 51771.42
230.4813, 51799.82
230.9634, 51797.07
231.4455, 51750.49
231.9276, 51718.46
232.4098, 51706.44
232.8919, 51706.11
233.3740, 51705.96
233.8561, 51718.43
234.3382, 51711.38
234.8203, 51665.63
235.3025, 51556.14
235.7846, 51492.92
236.2667, 51494.70
236.7488, 51534.77
237.2309, 51562.36
237.7130, 51570.22
238.1952, 51578.11
238.6773, 51594.44
239.1594, 51624.92
239.6415, 51647.92
240.1236, 51658.80
240.6057, 51665.04
241.0879, 51686.05
241.5700, 51746.82
242.0521, 51783.32
242.5342, 51757.56
243.0163, 51616.05
243.4984, 51562.34
243.9806, 51629.85
244.4627, 51770.52
244.9448, 51881.47
245.4269, 51945.49
245.9090, 52001.27
246.3911, 52064.19
246.8732, 52140.47
247.3554, 52199.58
247.8375, 52230.09
248.3196, 52245.71
248.8017, 52279.79
249.2838, 52346.06
249.7659, 52408.56
250.2481, 52453.60
250.7302, 52476.16
251.2123, 52502.40
251.6944, 52543.29
252.1765, 52587.25
252.6586, 52607.15
253.1408, 52597.03
253.6229, 52579.28
254.1050, 52560.34
254.5871, 52534.32
255.0692, 52530.56
255.5513, 52551.03
256.0334, 52594.21
256.5156, 52662.54
256.9977, 52777.72
257.4798, 52878.41
257.9619, 52927.43
258.4440, 52887.28
258.9261, 52912.11
259.4083, 53023.45
259.8904, 53185.11
260.3725, 53315.12
260.8546, 53396.67
261.3367, 53478.68
261.8188, 53584.32
262.3010, 53726.47
262.7831, 53840.90
263.2652, 53910.47
263.7473, 53963.35
264.2294, 54067.82
264.7115, 54249.24
265.1937, 54419.89
265.6758, 54541.80
266.1579, 54606.46
266.6400, 54654.93
267.1221, 54680.85
267.6042, 54697.54
268.0864, 54727.83
268.5685, 54773.31
269.0506, 54832.48
269.5327, 54908.89
270.0148, 55007.00
270.4969, 55105.27
270.9791, 55214.14
271.4612, 55313.43
271.9433, 55350.18
272.4254, 55302.12
272.9075, 55277.97
273.3896, 55335.63
273.8718, 55484.88
274.3539, 55602.14
274.8360, 55685.54
275.3181, 55741.04
275.8002, 55767.84
276.2823, 55756.09
276.7645, 55763.21
277.2466, 55822.12
277.7287, 55934.83
278.2108, 56015.95
278.6929, 56057.93
279.1750, 56082.30
279.6572, 56120.82
280.1393, 56174.45
280.6214, 56225.45
281.1035, 56262.63
281.5856, 56287.06
282.0677, 56322.47
282.5499, 56367.30
283.0320, 56426.41
283.5141, 56523.18
283.9962, 56660.04
284.4783, 56761.77
284.9604, 56783.42
285.4425, 56740.57
285.9247, 56737.52
286.4068, 56778.73
286.8889, 56842.52
287.3710, 56908.57
287.8531, 56977.01
288.3352, 57044.04
288.8174, 57106.87
289.2995, 57167.46
289.7816, 57239.16
290.2637, 57323.19
290.7458, 57396.74
291.2279, 57432.44
291.7101, 57433.52
292.1922, 57421.35
292.6743, 57393.32
293.1564, 57359.95
293.6385, 57357.77
294.1206, 57389.00
294.6028, 57412.02
295.0849, 57379.10
295.5670, 57305.14
296.0491, 57241.08
296.5312, 57208.62
297.0133, 57193.83
297.4955, 57163.67
297.9776, 57121.28
298.4597, 57100.36
298.9418, 57156.54
299.4239, 57256.61
299.9060, 57316.80
300.3882, 57282.64
300.8703, 57230.07
301.3524, 57281.25
301.8345, 57421.84
302.3166, 57550.51
302.7987, 57574.63
303.2809, 57539.67
303.7630, 57520.16
304.2451, 57530.44
304.7272, 57561.76
305.2093, 57596.18
305.6914, 57639.02
306.1736, 57715.60
306.6557, 57918.81
307.1378, 58137.42
307.6199, 58222.58
308.1020, 58096.54
308.5841, 57941.09
309.0663, 57917.76
309.5484, 57987.81
310.0305, 58037.65
310.5126, 57980.34
310.9947, 57892.85
311.4768, 57844.61
311.9590, 57856.41
312.4411, 57879.71
312.9232, 57899.98
313.4053, 57910.53
313.8874, 57897.67
314.3695, 57814.00
314.8517, 57733.90
315.3337, 57712.94
315.8159, 57771.68
316.2980, 57829.51
316.7801, 57859.31
317.2622, 57865.64
317.7443, 57855.86
318.2264, 57818.69
318.7086, 57779.02
319.1907, 57744.76
319.6728, 57715.46
320.1549, 57703.98
320.6370, 57717.27
321.1191, 57749.41
321.6013, 57793.63
322.0834, 57842.00
322.5655, 57905.88
323.0476, 57999.20
323.5297, 58125.00
324.0118, 58223.38
324.4940, 58273.70
324.9761, 58297.03
325.4582, 58310.90
325.9403, 58294.04
326.4224, 58291.34
326.9045, 58313.29
327.3867, 58359.01
327.8688, 58404.78
328.3509, 58446.62
328.8330, 58490.15
329.3151, 58540.03
329.7972, 58615.87
330.2794, 58671.91
330.7615, 58692.93
331.2436, 58688.65
331.7257, 58713.32
332.2078, 58794.55
332.6899, 58875.00
333.1721, 58923.98
333.6542, 58926.63
334.1363, 58928.62
334.6184, 58924.86
335.1005, 58924.55
335.5826, 58954.27
336.0648, 59028.14
336.5469, 59105.77
337.0290, 59170.21
337.5111, 59219.17
337.9932, 59261.28
338.4753, 59296.45
338.9575, 59321.61
339.4396, 59322.83
339.9217, 59287.23
340.4038, 59277.27
340.8859, 59336.27
341.3680, 59463.29
341.8502, 59515.37
342.3323, 59472.48
342.8144, 59407.26
343.2965, 59417.60
343.7786, 59506.12
344.2607, 59600.03
344.7429, 59682.75
345.2250, 59755.26
345.7071, 59819.16
346.1892, 59876.80
346.6713, 59924.38
347.1534, 59948.64
347.6355, 59956.02
348.1176, 59980.14
348.5998, 60027.34
349.0819, 60095.36
349.5640, 60199.23
350.0461, 60334.82
350.5282, 60440.20
351.0103, 60436.25
351.4925, 60370.31
351.9746, 60341.01
352.4567, 60369.86
352.9388, 60436.89
353.4209, 60539.74
353.9030, 60667.93
354.3852, 60782.18
354.8673, 60871.79
355.3494, 60931.64
355.8315, 60942.23
356.3136, 60886.49
356.7957, 60847.59
357.2779, 60912.67
357.7600, 61041.84
358.2421, 61152.58
358.7242, 61203.76
359.2063, 61228.43
359.6884, 61239.95
360.1706, 61236.85
360.6527, 61247.09
361.1348, 61277.25
361.6169, 61329.24
362.0990, 61404.69
362.5811, 61544.42
363.0633, 61668.16
363.5454, 61740.10
364.0275, 61760.31
364.5096, 61773.29
364.9917, 61777.05
365.4738, 61784.88
365.9560, 61806.60
366.4381, 61871.45
366.9202, 61920.59
367.4023, 61932.11
367.8844, 61917.45
368.3665, 61931.90
368.8487, 62012.31
369.3308, 62097.05
369.8129, 62159.14
370.2950, 62184.34
370.7771, 62211.18
371.2592, 62228.21
371.7414, 62249.70
372.2235, 62310.94
372.7056, 62445.46
373.1877, 62563.30
373.6698, 62615.57
374.1519, 62575.82
374.6341, 62628.45
375.1162, 62820.29
375.5983, 63041.74
376.0804, 63135.57
376.5625, 63065.21
377.0446, 63012.96
377.5267, 63034.89
378.0089, 63120.98
378.4910, 63188.49
378.9731, 63235.87
379.4552, 63275.58
379.9373, 63325.32
380.4194, 63385.43
380.9016, 63415.31
381.3837, 63391.52
381.8658, 63355.09
382.3479, 63411.13
382.8300, 63556.60
383.3121, 63703.50
383.7943, 63783.27
384.2764, 63816.68
384.7585, 63857.59
385.2406, 63909.65
385.7227, 63974.13
386.2048, 64060.61
386.6870, 64159.25
387.1691, 64244.34
387.6512, 64261.77
388.1333, 64273.41
388.6154, 64378.68
389.0975, 64589.06
389.5797, 64764.17
390.0618, 64759.97
390.5439, 64664.60
391.0260, 64598.54
391.5081, 64639.79
391.9902, 64697.82
392.4724, 64728.56
392.9545, 64734.77
393.4366, 64731.99
393.9187, 64696.36
394.4008, 64675.82
394.8829, 64709.90
395.3651, 64876.31
395.8472, 65003.00
396.3293, 65021.11
396.8114, 64966.32
397.2935, 64932.59
397.7756, 64950.13
398.2578, 64977.31
398.7399, 64992.89
399.2220, 64974.32
399.7041, 64995.29
400.1862, 65084.84
400.6683, 65199.77
401.1505, 65284.54
401.6326, 65317.74
402.1147, 65354.42
402.5968, 65414.48
403.0789, 65498.71
403.5610, 65542.91
404.0432, 65522.29
404.5253, 65501.50
405.0074, 65544.97
405.4895, 65676.02
405.9716, 65771.73
406.4537, 65809.02
406.9359, 65804.64
407.4180, 65801.07
407.9001, 65796.37
408.3822, 65803.67
408.8643, 65833.96
409.3464, 65884.80
409.8285, 65935.57
410.3106, 65982.71
410.7928, 66036.44
411.2749, 66126.19
411.7570, 66243.03
412.2391, 66334.66
412.7212, 66344.19
413.2033, 66324.85
413.6855, 66383.06
414.1676, 66517.34
414.6497, 66662.07
415.1318, 66778.19
415.6139, 66864.18
416.0960, 66910.45
416.5782, 66876.01
417.0603, 66848.84
417.5424, 66914.80
418.0245, 67050.08
418.5066, 67172.05
418.9887, 67232.27
419.4709, 67269.82
419.9530, 67314.33
420.4351, 67375.88
420.9172, 67429.29
421.3993, 67462.45
421.8814, 67484.71
422.3636, 67509.29
422.8457, 67536.55
423.3278, 67571.88
423.8099, 67621.98
424.2920, 67690.70
424.7741, 67749.73
425.2563, 67798.66
425.7384, 67838.60
426.2205, 67867.48
426.7026, 67866.24
427.1847, 67886.70
427.6668, 67938.55
428.1490, 68013.78
428.6311, 68084.75
429.1132, 68149.92
429.5953, 68212.38
430.0774, 68268.41
430.5595, 68313.61
431.0417, 68380.53
431.5238, 68475.15
432.0059, 68578.53
432.4880, 68673.85
432.9701, 68761.73
433.4522, 68807.91
433.9344, 68775.34
434.4165, 68699.59
434.8986, 68696.18
435.3807, 68766.80
435.8628, 68865.03
436.3449, 68976.64
436.8271, 69086.14
437.3092, 69148.08
437.7913, 69135.11
438.2734, 69107.22
438.7555, 69129.58
439.2376, 69190.45
439.7197, 69254.91
440.2018, 69308.99
440.6840, 69353.87
441.1661, 69387.23
441.6482, 69406.33
442.1303, 69425.92
442.6124, 69475.73
443.0945, 69521.52
443.5767, 69523.42
444.0588, 69412.80
444.5409, 69314.96
445.0230, 69283.95
445.5051, 69310.55
445.9872, 69310.97
446.4694, 69210.21
446.9515, 69128.83
447.4336, 69134.41
447.9157, 69323.63
448.3978, 69435.75
448.8799, 69433.61
449.3621, 69369.59
449.8442, 69336.20
450.3263, 69346.69
450.8084, 69360.00
451.2905, 69363.32
451.7726, 69356.08
452.2548, 69346.54
452.7369, 69323.94
453.2190, 69323.52
453.7011, 69395.48
454.1832, 69540.11
454.6653, 69651.45
455.1475, 69708.16
455.6296, 69728.25
456.1117, 69742.48
456.5938, 69751.62
457.0759, 69762.89
457.5580, 69801.80
458.0402, 69842.30
458.5223, 69815.99
459.0044, 69711.95
459.4865, 69615.78
459.9686, 69607.13
460.4507, 69657.85
460.9329, 69721.09
461.4150, 69813.48
461.8971, 69881.05
462.3792, 69866.99
462.8613, 69788.41
463.3434, 69729.64
463.8256, 69719.52
464.3077, 69747.79
464.7898, 69817.73
465.2719, 69968.46
465.7540, 70075.12
466.2361, 70079.25
466.7183, 70032.85
467.2004, 70016.66
467.6825, 70068.17
468.1646, 70113.64
468.6467, 70136.39
469.1288, 70135.18
469.6110, 70136.46
470.0930, 70137.64
470.5752, 70141.82
471.0573, 70153.77
471.5394, 70177.55
472.0215, 70183.25
472.5036, 70157.75
472.9857, 70123.07
473.4679, 70136.05
473.9500, 70199.93
474.4321, 70252.88
474.9142, 70265.13
475.3963, 70245.07
475.8784, 70222.78
476.3606, 70200.27
476.8427, 70172.62
477.3248, 70125.59
477.8069, 70073.52
478.2890, 70047.41
478.7711, 70066.55
479.2533, 70101.60
479.7354, 70120.33
480.2175, 70131.28
480.6996, 70158.83
481.1817, 70240.80
481.6638, 70323.80
482.1460, 70361.75
482.6281, 70338.41
483.1102, 70326.98
483.5923, 70337.19
484.0744, 70373.12
484.5565, 70439.20
485.0387, 70578.76
485.5208, 70694.02
486.0029, 70766.98
486.4850, 70801.23
486.9671, 70812.32
487.4492, 70784.59
487.9314, 70755.36
488.4135, 70746.14
488.8956, 70770.33
489.3777, 70766.38
489.8598, 70727.00
490.3419, 70678.16
490.8241, 70660.15
491.3062, 70679.56
491.7883, 70673.18
492.2704, 70612.72
492.7525, 70525.31
493.2346, 70479.29
493.7168, 70474.69
494.1989, 70498.41
494.6810, 70565.15
495.1631, 70648.16
495.6452, 70690.57
496.1273, 70680.10
496.6095, 70652.37
497.0916, 70633.48
497.5737, 70620.63
498.0558, 70609.76
498.5379, 70592.66
499.0201, 70584.23
499.5022, 70596.95
499.9843, 70629.14
500.4664, 70665.83
500.9485, 70721.41
501.4306, 70767.10
501.9127, 70780.13
502.3948, 70723.70
502.8770, 70708.41
503.3591, 70766.75
503.8412, 70860.52
504.3233, 70943.80
504.8054, 71019.58
505.2875, 71072.70
505.7697, 71087.98
506.2518, 71072.38
506.7339, 71091.42
507.2160, 71153.23
507.6981, 71221.82
508.1802, 71273.03
508.6624, 71307.70
509.1445, 71351.91
509.6266, 71415.07
510.1087, 71466.81
510.5908, 71442.80
511.0729, 71364.79
511.5551, 71324.64
512.0372, 71387.87
512.5193, 71488.19
513.0014, 71527.34
513.4835, 71517.08
513.9656, 71523.53
514.4478, 71603.90
514.9299, 71709.92
515.4120, 71801.38
515.8941, 71872.40
516.3762, 71921.26
516.8583, 71911.05
517.3405, 71887.04
517.8226, 71908.01
518.3047, 72060.20
518.7868, 72177.23
519.2689, 72192.68
519.7510, 72123.39
520.2332, 72118.07
520.7153, 72223.59
521.1974, 72331.38
521.6795, 72387.82
522.1616, 72382.80
522.6437, 72365.95
523.1259, 72332.22
523.6080, 72298.35
524.0901, 72287.46
524.5722, 72300.30
525.0543, 72320.84
525.5364, 72345.89
526.0186, 72374.90
526.5007, 72407.49
526.9828, 72442.86
527.4649, 72479.34
527.9470, 72532.23
528.4291, 72578.02
528.9113, 72571.09
529.3934, 72498.72
529.8755, 72443.73
530.3576, 72493.28
530.8397, 72582.66
531.3218, 72634.10
531.8040, 72584.25
532.2861, 72532.56
532.7682, 72512.55
533.2503, 72518.48
533.7324, 72529.47
534.2145, 72537.41
534.6967, 72557.79
535.1788, 72602.17
535.6609, 72679.79
536.1430, 72738.58
536.6251, 72776.32
537.1072, 72798.73
537.5894, 72797.63
538.0715, 72760.09
538.5536, 72784.65
539.0357, 72908.66
539.5178, 73073.28
539.9999, 73136.44
540.4821, 73101.84
540.9642, 73086.13
541.4463, 73160.41
541.9284, 73288.96
542.4105, 73401.74
542.8926, 73496.92
543.3748, 73588.19
543.8569, 73697.76
544.3390, 73802.03
544.8211, 73870.91
545.3032, 73884.73
545.7853, 73890.60
546.2675, 73899.98
546.7495, 73919.59
547.2316, 73961.03
547.7137, 74058.88
548.1959, 74148.41
548.6780, 74203.89
549.1601, 74226.58
549.6422, 74278.97
550.1243, 74393.07
550.6064, 74500.14
551.0886, 74549.74
551.5707, 74506.28
552.0528, 74548.94
552.5349, 74703.24
553.0170, 74901.15
553.4991, 75051.81
553.9813, 75155.71
554.4634, 75238.98
554.9455, 75297.04
555.4276, 75350.73
555.9097, 75448.59
556.3918, 75583.70
556.8740, 75716.50
557.3561, 75802.45
557.8382, 75884.20
558.3203, 76022.06
558.8024, 76227.98
559.2845, 76419.77
559.7667, 76537.00
560.2488, 76626.12
560.7309, 76733.48
561.2130, 76878.83
561.6951, 77032.32
562.1772, 77188.39
562.6594, 77348.65
563.1415, 77520.30
563.6236, 77727.13
564.1057, 77905.93
564.5878, 78037.45
565.0699, 78120.27
565.5521, 78182.43
566.0342, 78219.48
566.5163, 78246.06
566.9984, 78280.51
567.4805, 78320.23
567.9626, 78323.30
568.4448, 78280.38
568.9269, 78220.72
569.4090, 78190.18
569.8911, 78175.02
570.3732, 78133.29
570.8553, 78049.55
571.3375, 77931.88
571.8196, 77774.27
572.3017, 77585.69
572.7838, 77408.86
573.2659, 77270.35
573.7480, 77142.45
574.2302, 77009.22
574.7123, 76870.34
575.1944, 76722.39
575.6765, 76553.20
576.1586, 76383.22
576.6407, 76229.76
577.1229, 76097.32
577.6050, 75971.44
578.0871, 75843.70
578.5692, 75729.14
579.0513, 75669.85
579.5334, 75674.80
580.0156, 75683.63
580.4977, 75668.00
580.9798, 75640.76
581.4619, 75659.82
581.9440, 75723.03
582.4261, 75770.16
582.9083, 75731.69
583.3904, 75653.04
583.8725, 75603.66
584.3546, 75592.45
584.8367, 75602.99
585.3188, 75639.13
585.8010, 75683.93
586.2831, 75716.80
586.7652, 75704.16
587.2473, 75707.67
587.7294, 75773.10
588.2115, 75871.68
588.6937, 75906.03
589.1758, 75827.37
589.6579, 75743.14
590.1400, 75679.51
590.6221, 75636.52
591.1042, 75626.16
591.5864, 75652.96
592.0685, 75701.73
592.5506, 75767.94
593.0327, 75850.52
593.5148, 75926.28
593.9969, 75993.99
594.4791, 76053.86
594.9612, 76115.84
595.4433, 76171.34
595.9254, 76193.93
596.4075, 76134.68
596.8896, 76081.38
597.3718, 76130.78
597.8539, 76252.86
598.3360, 76351.27
598.8181, 76344.70
599.3002, 76339.00
599.7823, 76401.37
600.2645, 76550.69
600.7466, 76649.65
601.2287, 76643.52
601.7108, 76621.16
602.1929, 76636.13
602.6750, 76690.13
603.1572, 76781.62
603.6393, 76927.18
604.1214, 77087.02
604.6035, 77205.63
605.0856, 77282.95
605.5677, 77328.23
606.0499, 77325.93
606.5320, 77312.28
607.0141, 77367.77
607.4962, 77479.15
607.9783, 77583.90
608.4604, 77614.16
608.9425, 77637.55
609.4246, 77732.20
609.9067, 77905.07
610.3889, 78056.05
610.8710, 78125.43
611.3531, 78164.20
611.8352, 78210.23
612.3173, 78279.27
612.7994, 78340.24
613.2816, 78396.48
613.7637, 78444.31
614.2458, 78479.07
614.7279, 78501.66
615.2100, 78510.67
615.6921, 78496.77
616.1743, 78476.59
616.6564, 78503.61
617.1385, 78578.57
617.6206, 78668.56
618.1027, 78785.25
618.5848, 78896.95
619.0670, 78913.17
619.5491, 78836.82
620.0312, 78788.76
620.5133, 78878.11
620.9954, 79025.88
621.4775, 79153.05
621.9597, 79241.05
622.4418, 79314.23
622.9239, 79350.26
623.4060, 79386.93
623.8881, 79472.20
624.3702, 79699.67
624.8524, 79853.69
625.3345, 79901.34
625.8166, 79863.14
626.2987, 79786.12
626.7808, 79653.69
627.2629, 79547.94
627.7451, 79501.51
628.2272, 79508.66
628.7093, 79559.33
629.1914, 79654.17
629.6735, 79734.55
630.1556, 79751.35
630.6378, 79726.37
631.1199, 79682.72
631.6020, 79619.72
632.0841, 79572.34
632.5662, 79575.31
633.0483, 79601.84
633.5305, 79622.71
634.0126, 79596.51
634.4947, 79608.08
634.9768, 79715.60
635.4589, 79862.87
635.9410, 79934.17
636.4232, 79871.44
636.9053, 79841.57
637.3874, 79892.26
637.8695, 80005.27
638.3516, 80108.71
638.8337, 80206.92
639.3159, 80255.29
639.7980, 80187.92
640.2801, 80052.07
640.7622, 79999.71
641.2443, 80035.59
641.7264, 80087.78
642.2086, 80083.30
642.6907, 80070.88
643.1728, 80117.16
643.6549, 80266.20
644.1370, 80394.91
644.6191, 80438.27
645.1013, 80440.89
645.5834, 80459.00
646.0655, 80514.06
646.5476, 80565.56
647.0297, 80592.30
647.5118, 80614.98
647.9940, 80696.63
648.4761, 80850.27
648.9582, 81006.54
649.4403, 81149.16
