##NAMES=Sugilite
##RRUFFID=R070623
##IDEAL CHEMISTRY=KNa_2_Fe^3+^_2_(Li_3_Si_12_)O_30_
##LOCALITY=Wessels mine, Kuruman, Kalahari Manganese Field, South Africa
##OWNER=RRUFF
##SOURCE=Shinichi Kihara
##DESCRIPTION=Bright purple fragment
##STATUS=The identification of this mineral has been confirmed by X-ray diffraction.
##URL=rruff.info/R070623
130.2712, 15567.88
130.7533, 16147.29
131.2354, 16728.91
131.7175, 17310.55
132.1996, 17772.01
132.6818, 18056.34
133.1639, 18172.02
133.6460, 18195.47
134.1281, 18106.69
134.6102, 17958.82
135.0923, 17834.29
135.5745, 17732.86
136.0566, 17651.11
136.5387, 17582.06
137.0208, 17520.39
137.5029, 17500.30
137.9850, 17528.60
138.4672, 17598.78
138.9493, 17688.62
139.4314, 17805.63
139.9135, 17930.76
140.3956, 18044.86
140.8777, 18119.50
141.3599, 18245.04
141.8420, 18427.63
142.3241, 18669.94
142.8062, 18970.65
143.2883, 19230.51
143.7704, 19503.19
144.2526, 19866.31
144.7347, 20358.79
145.2168, 20882.13
145.6989, 21455.28
146.1810, 22218.17
146.6631, 22661.98
147.1453, 22715.11
147.6274, 22473.31
148.1095, 22115.57
148.5916, 21541.79
149.0737, 20940.55
149.5558, 20376.17
150.0379, 19852.38
150.5201, 19358.12
151.0022, 18877.57
151.4843, 18423.42
151.9664, 18052.61
152.4485, 17806.26
152.9306, 17623.89
153.4128, 17469.71
153.8949, 17354.37
154.3770, 17246.99
154.8591, 17129.97
155.3412, 17003.45
155.8233, 16912.89
156.3055, 16897.33
156.7876, 16911.18
157.2697, 16909.35
157.7518, 16865.33
158.2339, 16814.72
158.7160, 16769.54
159.1982, 16730.47
159.6803, 16699.06
160.1624, 16678.04
160.6445, 16664.43
161.1266, 16653.41
161.6087, 16639.15
162.0909, 16629.06
162.5730, 16630.70
163.0551, 16655.08
163.5372, 16672.43
164.0193, 16659.10
164.5014, 16624.27
164.9836, 16596.70
165.4657, 16601.62
165.9478, 16617.36
166.4299, 16622.94
166.9120, 16612.52
167.3941, 16590.83
167.8763, 16554.38
168.3584, 16505.00
168.8405, 16462.39
169.3226, 16434.87
169.8047, 16422.71
170.2868, 16426.35
170.7690, 16464.01
171.2511, 16507.41
171.7332, 16508.23
172.2153, 16459.20
172.6974, 16445.45
173.1795, 16611.38
173.6617, 16878.55
174.1438, 17056.07
174.6259, 16968.81
175.1080, 16754.41
175.5901, 16622.47
176.0722, 16597.52
176.5544, 16627.06
177.0365, 16667.92
177.5186, 16717.64
178.0007, 16763.30
178.4828, 16794.65
178.9649, 16816.92
179.4471, 16843.62
179.9292, 16880.08
180.4113, 16917.98
180.8934, 16959.71
181.3755, 17003.08
181.8576, 17009.45
182.3397, 16918.48
182.8219, 16755.94
183.3040, 16626.29
183.7861, 16563.86
184.2682, 16544.72
184.7503, 16508.00
185.2324, 16451.67
185.7146, 16399.04
186.1967, 16377.36
186.6788, 16382.91
187.1609, 16385.74
187.6430, 16369.45
188.1251, 16340.62
188.6073, 16331.80
189.0894, 16347.11
189.5715, 16365.72
190.0536, 16357.96
190.5357, 16323.80
191.0178, 16288.70
191.5000, 16261.56
191.9821, 16243.00
192.4642, 16234.34
192.9463, 16238.33
193.4284, 16248.50
193.9105, 16255.28
194.3927, 16259.58
194.8748, 16257.19
195.3569, 16243.11
195.8390, 16217.01
196.3211, 16195.43
196.8032, 16180.16
197.2854, 16169.60
197.7675, 16158.59
198.2496, 16145.87
198.7317, 16136.86
199.2138, 16136.73
199.6959, 16146.39
200.1780, 16153.81
200.6602, 16155.11
201.1423, 16152.49
201.6244, 16159.66
202.1065, 16179.86
202.5886, 16201.07
203.0707, 16211.17
203.5529, 16207.37
204.0350, 16206.52
204.5171, 16212.12
204.9992, 16224.24
205.4813, 16242.02
205.9634, 16268.81
206.4456, 16296.16
206.9277, 16310.84
207.4098, 16306.06
207.8919, 16312.42
208.3740, 16347.68
208.8561, 16417.51
209.3383, 16441.74
209.8204, 16401.05
210.3025, 16336.92
210.7846, 16314.61
211.2667, 16347.33
211.7488, 16388.81
212.2310, 16422.02
212.7131, 16443.95
213.1952, 16474.10
213.6773, 16519.25
214.1594, 16568.32
214.6415, 16596.04
215.1236, 16596.40
215.6058, 16587.77
216.0879, 16574.37
216.5700, 16547.93
217.0521, 16543.26
217.5342, 16565.89
218.0163, 16609.83
218.4985, 16660.76
218.9806, 16730.41
219.4627, 16786.74
219.9448, 16805.61
220.4269, 16763.51
220.9090, 16742.59
221.3912, 16754.52
221.8733, 16793.61
222.3554, 16827.86
222.8375, 16855.71
223.3196, 16880.63
223.8017, 16906.65
224.2839, 16939.40
224.7660, 16959.59
225.2481, 16959.92
225.7302, 16942.32
226.2123, 16934.33
226.6944, 16936.16
227.1766, 16947.54
227.6587, 16972.73
228.1408, 17032.38
228.6229, 17064.76
229.1050, 17049.89
229.5871, 16985.79
230.0693, 16942.77
230.5514, 16921.41
231.0335, 16921.57
231.5156, 16946.17
231.9977, 17012.81
232.4798, 17074.17
232.9619, 17119.49
233.4441, 17147.91
233.9262, 17166.76
234.4083, 17166.64
234.8904, 17163.47
235.3725, 17179.58
235.8546, 17225.59
236.3368, 17272.62
236.8189, 17310.57
237.3010, 17335.54
237.7831, 17369.03
238.2652, 17418.27
238.7473, 17471.76
239.2295, 17510.05
239.7116, 17527.61
240.1937, 17538.84
240.6758, 17546.82
241.1579, 17548.00
241.6400, 17556.25
242.1222, 17565.70
242.6043, 17584.79
243.0864, 17635.92
243.5685, 17745.17
244.0506, 17846.58
244.5327, 17912.31
245.0149, 17926.39
245.4970, 17940.66
245.9791, 17954.32
246.4612, 17968.15
246.9433, 17983.20
247.4254, 17993.63
247.9075, 18013.67
248.3897, 18051.39
248.8718, 18112.89
249.3539, 18177.92
249.8360, 18253.91
250.3181, 18332.65
250.8002, 18378.36
251.2824, 18365.99
251.7645, 18359.33
252.2466, 18398.11
252.7287, 18506.33
253.2108, 18601.87
253.6929, 18680.96
254.1751, 18743.87
254.6572, 18791.37
255.1393, 18812.69
255.6214, 18835.46
256.1035, 18878.53
256.5856, 18950.43
257.0677, 19022.20
257.5499, 19093.94
258.0320, 19164.59
258.5141, 19226.40
258.9962, 19280.21
259.4783, 19324.31
259.9604, 19359.71
260.4426, 19389.84
260.9247, 19397.73
261.4068, 19372.08
261.8889, 19319.12
262.3710, 19288.03
262.8531, 19281.25
263.3353, 19291.06
263.8174, 19314.68
264.2995, 19357.37
264.7816, 19394.70
265.2637, 19416.83
265.7458, 19427.97
266.2280, 19466.79
266.7101, 19545.20
267.1922, 19628.32
267.6743, 19681.08
268.1564, 19695.81
268.6385, 19711.60
269.1207, 19727.54
269.6028, 19747.97
270.0849, 19822.03
270.5670, 19968.31
271.0491, 20127.49
271.5313, 20234.02
272.0134, 20276.02
272.4955, 20336.32
272.9776, 20447.19
273.4597, 20597.30
273.9418, 20693.11
274.4240, 20725.56
274.9061, 20728.36
275.3882, 20728.50
275.8703, 20723.41
276.3524, 20738.52
276.8345, 20797.44
277.3167, 20886.44
277.7988, 20908.98
278.2809, 20855.17
278.7630, 20764.45
279.2451, 20664.39
279.7272, 20553.08
280.2094, 20475.76
280.6915, 20457.96
281.1736, 20488.32
281.6557, 20502.45
282.1378, 20502.95
282.6199, 20478.51
283.1021, 20402.26
283.5842, 20275.71
284.0663, 20162.13
284.5484, 20084.31
285.0305, 20035.37
285.5126, 19989.04
285.9948, 19944.84
286.4769, 19902.06
286.9590, 19858.57
287.4411, 19814.68
287.9232, 19773.89
288.4053, 19722.11
288.8874, 19675.38
289.3695, 19692.99
289.8517, 19779.18
290.3338, 19890.72
290.8159, 20009.57
291.2980, 20124.13
291.7801, 20179.83
292.2622, 20127.82
292.7444, 20009.96
293.2265, 19915.42
293.7086, 19845.21
294.1907, 19799.86
294.6728, 19787.50
295.1549, 19802.98
295.6371, 19829.24
296.1192, 19866.87
296.6013, 19909.68
297.0834, 19945.98
297.5655, 19976.26
298.0476, 20001.42
298.5298, 20025.88
299.0119, 20046.16
299.4940, 20053.93
299.9761, 20025.50
300.4582, 19991.49
300.9403, 20003.96
301.4225, 20062.88
301.9046, 20111.54
302.3867, 20088.08
302.8688, 20022.46
303.3509, 19969.01
303.8330, 19953.64
304.3152, 19957.27
304.7973, 19967.90
305.2794, 19985.37
305.7615, 19996.87
306.2436, 19981.54
306.7257, 19957.65
307.2079, 19950.90
307.6900, 19986.14
308.1721, 20031.44
308.6542, 20063.08
309.1363, 20081.11
309.6184, 20100.43
310.1006, 20119.21
310.5827, 20147.08
311.0648, 20194.75
311.5469, 20294.04
312.0290, 20390.85
312.5111, 20456.10
312.9933, 20490.55
313.4754, 20513.18
313.9575, 20506.47
314.4396, 20503.29
314.9217, 20534.30
315.4038, 20638.00
315.8860, 20749.58
316.3681, 20848.46
316.8502, 20934.77
317.3323, 21014.78
317.8144, 21093.90
318.2965, 21165.90
318.7787, 21225.90
319.2608, 21251.54
319.7429, 21286.99
320.2250, 21346.48
320.7071, 21427.94
321.1892, 21510.04
321.6713, 21580.35
322.1534, 21654.60
322.6356, 21742.66
323.1177, 21861.54
323.5998, 21977.18
324.0819, 22078.68
324.5640, 22169.44
325.0461, 22274.45
325.5283, 22410.38
326.0104, 22548.90
326.4925, 22674.60
326.9746, 22774.89
327.4567, 22879.35
327.9388, 22991.58
328.4210, 23109.98
328.9031, 23226.74
329.3852, 23344.55
329.8673, 23457.44
330.3494, 23565.31
330.8315, 23674.51
331.3137, 23765.02
331.7958, 23828.72
332.2779, 23873.29
332.7600, 23931.66
333.2421, 24033.99
333.7242, 24097.07
334.2064, 24074.54
334.6885, 23949.62
335.1706, 23797.56
335.6527, 23609.81
336.1348, 23404.91
336.6169, 23222.57
337.0991, 23068.19
337.5812, 22923.36
338.0633, 22779.27
338.5454, 22634.79
339.0275, 22496.20
339.5096, 22361.17
339.9918, 22237.74
340.4739, 22150.54
340.9560, 22101.77
341.4381, 22052.53
341.9202, 21978.38
342.4023, 21882.55
342.8845, 21802.70
343.3666, 21737.84
343.8487, 21691.56
344.3308, 21678.74
344.8129, 21695.61
345.2950, 21704.14
345.7772, 21677.28
346.2593, 21628.82
346.7414, 21603.05
347.2235, 21604.18
347.7056, 21603.24
348.1877, 21558.09
348.6699, 21482.60
349.1520, 21421.30
349.6341, 21405.72
350.1162, 21411.57
350.5983, 21404.24
351.0804, 21383.34
351.5626, 21361.79
352.0447, 21349.74
352.5268, 21344.50
353.0089, 21341.33
353.4910, 21336.00
353.9731, 21333.27
354.4552, 21335.60
354.9373, 21342.89
355.4195, 21357.57
355.9016, 21384.73
356.3837, 21418.19
356.8658, 21451.63
357.3479, 21492.34
357.8300, 21523.05
358.3122, 21535.69
358.7943, 21531.39
359.2764, 21514.80
359.7585, 21468.92
360.2406, 21422.91
360.7227, 21397.98
361.2049, 21415.00
361.6870, 21434.36
362.1691, 21437.50
362.6512, 21433.13
363.1333, 21452.44
363.6154, 21535.64
364.0976, 21618.77
364.5797, 21669.41
365.0618, 21658.84
365.5439, 21654.07
366.0260, 21664.77
366.5081, 21683.72
366.9903, 21693.24
367.4724, 21671.08
367.9545, 21661.78
368.4366, 21684.41
368.9187, 21759.33
369.4008, 21812.38
369.8830, 21827.96
370.3651, 21829.59
370.8472, 21858.50
371.3293, 21934.64
371.8114, 22000.12
372.2935, 22038.17
372.7757, 22047.66
373.2578, 22034.94
373.7399, 21986.20
374.2220, 21936.98
374.7041, 21936.16
375.1862, 21990.80
375.6684, 22053.99
376.1505, 22116.77
376.6326, 22177.70
377.1147, 22231.18
377.5968, 22276.81
378.0789, 22315.31
378.5611, 22351.78
379.0432, 22384.57
379.5253, 22396.74
380.0074, 22374.82
380.4895, 22336.65
380.9716, 22318.44
381.4538, 22320.22
381.9359, 22337.47
382.4180, 22376.31
382.9001, 22428.01
383.3822, 22470.17
383.8643, 22495.93
384.3465, 22514.62
384.8286, 22539.46
385.3107, 22567.36
385.7928, 22587.44
386.2749, 22574.46
386.7570, 22558.12
387.2391, 22577.52
387.7213, 22651.03
388.2034, 22722.90
388.6855, 22755.65
389.1676, 22758.91
389.6497, 22751.38
390.1318, 22711.54
390.6140, 22685.57
391.0961, 22713.12
391.5782, 22811.11
392.0603, 22887.61
392.5424, 22881.43
393.0245, 22843.52
393.5067, 22836.55
393.9888, 22908.41
394.4709, 22980.37
394.9530, 23031.97
395.4351, 23061.78
395.9172, 23079.31
396.3994, 23069.45
396.8815, 23056.74
397.3636, 23061.52
397.8457, 23108.59
398.3278, 23140.06
398.8099, 23139.74
399.2921, 23114.25
399.7742, 23117.23
400.2563, 23175.93
400.7384, 23226.87
401.2205, 23224.50
401.7026, 23140.23
402.1848, 23094.29
402.6669, 23105.50
403.1490, 23152.20
403.6311, 23181.61
404.1132, 23192.54
404.5953, 23191.11
405.0775, 23173.36
405.5596, 23139.71
406.0417, 23124.29
406.5238, 23131.07
407.0059, 23147.40
407.4880, 23150.72
407.9702, 23143.11
408.4523, 23150.18
408.9344, 23206.92
409.4165, 23283.38
409.8986, 23290.40
410.3807, 23225.46
410.8629, 23147.93
411.3450, 23103.24
411.8271, 23087.68
412.3092, 23093.32
412.7913, 23132.15
413.2734, 23178.48
413.7556, 23202.23
414.2377, 23207.77
414.7198, 23223.21
415.2019, 23282.23
415.6840, 23351.50
416.1661, 23397.12
416.6483, 23395.58
417.1304, 23394.52
417.6125, 23416.83
418.0946, 23456.40
418.5767, 23498.05
419.0588, 23524.75
419.5410, 23560.86
420.0230, 23620.11
420.5052, 23713.54
420.9873, 23803.56
421.4694, 23889.20
421.9515, 23967.05
422.4336, 24031.50
422.9157, 24046.92
423.3979, 24090.70
423.8800, 24186.46
424.3621, 24341.32
424.8442, 24486.04
425.3263, 24614.09
425.8084, 24738.75
426.2906, 24863.76
426.7727, 24975.76
427.2548, 25131.24
427.7369, 25354.24
428.2190, 25625.83
428.7011, 25865.28
429.1833, 26066.75
429.6654, 26259.46
430.1475, 26457.97
430.6296, 26663.72
431.1117, 26885.09
431.5938, 27122.96
432.0760, 27374.09
432.5581, 27643.58
433.0402, 27928.52
433.5223, 28197.02
434.0044, 28427.66
434.4865, 28634.55
434.9687, 28839.23
435.4508, 29041.73
435.9329, 29256.30
436.4150, 29497.37
436.8971, 29761.13
437.3792, 30036.42
437.8614, 30314.85
438.3435, 30610.60
438.8256, 30925.83
439.3077, 31263.43
439.7898, 31643.67
440.2719, 32114.26
440.7541, 32612.86
441.2362, 33085.13
441.7183, 33521.64
442.2004, 33935.58
442.6825, 34378.22
443.1646, 34802.91
443.6468, 35080.49
444.1289, 35193.39
444.6110, 35152.77
445.0931, 34947.16
445.5752, 34548.58
446.0573, 34083.63
446.5395, 33530.59
447.0216, 32924.55
447.5037, 32292.25
447.9858, 31598.78
448.4679, 30948.59
448.9500, 30357.36
449.4322, 29826.64
449.9143, 29344.12
450.3964, 28906.24
450.8785, 28516.19
451.3606, 28197.61
451.8427, 27948.13
452.3249, 27684.41
452.8070, 27379.96
453.2891, 27070.54
453.7712, 26824.61
454.2533, 26638.02
454.7354, 26485.60
455.2175, 26366.04
455.6996, 26266.77
456.1818, 26152.38
456.6639, 26015.86
457.1460, 25896.40
457.6281, 25843.02
458.1102, 25831.60
458.5923, 25817.51
459.0745, 25755.84
459.5566, 25705.62
460.0387, 25720.44
460.5208, 25796.26
461.0029, 25865.83
461.4850, 25906.08
461.9672, 25923.85
462.4493, 25922.28
462.9314, 25864.55
463.4135, 25835.06
463.8956, 25862.06
464.3777, 25929.62
464.8599, 25991.00
465.3420, 26055.83
465.8241, 26098.92
466.3062, 26103.59
466.7883, 26049.66
467.2704, 26028.46
467.7526, 26048.10
468.2347, 26092.86
468.7168, 26149.83
469.1989, 26228.33
469.6810, 26283.68
470.1631, 26294.29
470.6453, 26274.59
471.1274, 26303.00
471.6095, 26386.59
472.0916, 26473.74
472.5737, 26524.96
473.0558, 26544.08
473.5380, 26548.37
474.0201, 26535.30
474.5022, 26520.42
474.9843, 26541.79
475.4664, 26584.76
475.9485, 26594.14
476.4307, 26512.76
476.9128, 26395.45
477.3949, 26301.36
477.8770, 26233.67
478.3591, 26176.17
478.8412, 26118.94
479.3234, 26066.13
479.8055, 26022.53
480.2876, 26024.84
480.7697, 26001.50
481.2518, 25900.15
481.7339, 25740.95
482.2161, 25628.90
482.6982, 25627.27
483.1803, 25644.54
483.6624, 25635.40
484.1445, 25577.76
484.6266, 25535.94
485.1088, 25512.51
485.5909, 25503.32
486.0730, 25502.44
486.5551, 25510.15
487.0372, 25524.06
487.5193, 25545.43
488.0014, 25573.05
488.4836, 25596.42
488.9657, 25617.38
489.4478, 25625.23
489.9299, 25595.05
490.4120, 25533.61
490.8941, 25513.88
491.3763, 25561.35
491.8584, 25630.95
492.3405, 25652.72
492.8226, 25633.19
493.3047, 25603.94
493.7868, 25562.53
494.2690, 25531.77
494.7511, 25552.58
495.2332, 25632.74
495.7153, 25704.37
496.1974, 25713.32
496.6795, 25691.73
497.1617, 25678.68
497.6438, 25685.13
498.1259, 25703.62
498.6080, 25741.07
499.0901, 25791.83
499.5722, 25827.16
500.0544, 25828.12
500.5365, 25822.63
501.0186, 25823.85
501.5007, 25835.47
501.9828, 25845.18
502.4649, 25854.31
502.9471, 25860.43
503.4292, 25857.25
503.9113, 25836.99
504.3934, 25831.64
504.8755, 25858.79
505.3576, 25910.04
505.8398, 25924.05
506.3219, 25895.20
506.8040, 25862.69
507.2861, 25861.74
507.7682, 25886.26
508.2503, 25903.79
508.7325, 25907.57
509.2146, 25908.19
509.6967, 25912.61
510.1788, 25923.55
510.6609, 25950.14
511.1430, 26030.14
511.6252, 26106.22
512.1072, 26106.14
512.5894, 26026.50
513.0715, 25968.25
513.5536, 26003.64
514.0357, 26075.05
514.5178, 26130.99
514.9999, 26144.45
515.4821, 26158.81
515.9642, 26186.36
516.4463, 26222.37
516.9284, 26252.68
517.4105, 26295.81
517.8926, 26313.01
518.3748, 26283.47
518.8569, 26194.37
519.3390, 26131.84
519.8211, 26088.24
520.3032, 26081.94
520.7853, 26154.17
521.2675, 26320.58
521.7496, 26430.46
522.2317, 26444.00
522.7138, 26394.02
523.1959, 26349.04
523.6780, 26309.36
524.1602, 26290.46
524.6423, 26309.96
525.1244, 26355.02
525.6065, 26410.23
526.0886, 26477.94
526.5707, 26527.41
527.0529, 26525.33
527.5350, 26490.99
528.0171, 26453.56
528.4992, 26409.61
528.9813, 26378.45
529.4634, 26368.28
529.9456, 26378.57
530.4277, 26405.12
530.9098, 26467.81
531.3919, 26529.89
531.8740, 26572.34
532.3561, 26587.36
532.8383, 26597.10
533.3204, 26594.01
533.8025, 26590.43
534.2846, 26602.44
534.7667, 26633.84
535.2488, 26672.57
535.7310, 26726.65
536.2131, 26784.58
536.6952, 26786.51
537.1773, 26725.13
537.6594, 26668.64
538.1415, 26676.24
538.6237, 26729.86
539.1058, 26754.57
539.5879, 26737.88
540.0700, 26720.30
540.5521, 26752.85
541.0342, 26816.45
541.5164, 26870.69
541.9985, 26909.38
542.4806, 26924.53
542.9627, 26888.23
543.4448, 26812.11
543.9269, 26768.48
544.4091, 26803.78
544.8912, 26866.90
545.3733, 26932.00
545.8554, 27007.11
546.3375, 27058.99
546.8196, 27079.63
547.3018, 27078.06
547.7839, 27061.00
548.2660, 27007.65
548.7481, 26980.01
549.2302, 26995.92
549.7123, 27048.40
550.1945, 27105.96
550.6766, 27176.04
551.1587, 27216.53
551.6408, 27171.03
552.1229, 27059.85
552.6050, 27014.47
553.0872, 27053.05
553.5693, 27119.52
554.0514, 27153.24
554.5335, 27164.10
555.0156, 27176.50
555.4977, 27216.01
555.9799, 27247.65
556.4620, 27229.77
556.9441, 27173.92
557.4262, 27135.09
557.9083, 27147.33
558.3904, 27178.16
558.8726, 27211.23
559.3547, 27250.24
559.8368, 27275.40
560.3189, 27250.70
560.8010, 27226.42
561.2831, 27263.78
561.7653, 27416.47
562.2474, 27528.57
562.7295, 27569.11
563.2116, 27549.40
563.6937, 27510.13
564.1758, 27441.53
564.6580, 27398.59
565.1401, 27433.81
565.6222, 27530.21
566.1043, 27577.66
566.5864, 27565.68
567.0685, 27545.67
567.5507, 27586.10
568.0327, 27658.58
568.5148, 27701.09
568.9969, 27666.45
569.4791, 27627.51
569.9612, 27647.70
570.4433, 27711.70
570.9254, 27772.00
571.4075, 27801.44
571.8896, 27826.97
572.3718, 27864.71
572.8539, 27922.00
573.3360, 27962.86
573.8181, 27975.99
574.3002, 27977.31
574.7823, 27979.39
575.2645, 27985.07
575.7466, 27984.69
576.2287, 27976.65
576.7108, 27962.59
577.1929, 27941.36
577.6750, 27911.04
578.1572, 27894.00
578.6393, 27902.27
579.1214, 27932.06
579.6035, 27975.30
580.0856, 28032.48
580.5677, 28083.48
581.0499, 28116.63
581.5320, 28131.82
582.0141, 28122.01
582.4962, 28068.54
582.9783, 28031.46
583.4604, 28063.25
583.9426, 28133.84
584.4247, 28190.55
584.9068, 28207.76
585.3889, 28218.80
585.8710, 28226.23
586.3531, 28230.59
586.8353, 28258.94
587.3174, 28327.89
587.7995, 28398.50
588.2816, 28449.37
588.7637, 28476.83
589.2458, 28494.60
589.7280, 28497.96
590.2101, 28499.79
590.6922, 28524.66
591.1743, 28569.31
591.6564, 28599.36
592.1385, 28600.82
592.6207, 28586.40
593.1028, 28574.27
593.5849, 28564.61
594.0670, 28555.69
594.5491, 28537.48
595.0313, 28526.72
595.5134, 28541.94
595.9955, 28588.13
596.4776, 28635.63
596.9597, 28693.67
597.4418, 28738.02
597.9240, 28746.14
598.4061, 28658.18
598.8882, 28606.62
599.3703, 28612.20
599.8524, 28654.06
600.3345, 28680.98
600.8167, 28680.24
601.2988, 28698.63
601.7809, 28765.09
602.2630, 28868.16
602.7451, 28922.66
603.2272, 28925.69
603.7094, 28913.72
604.1915, 28911.33
604.6736, 28916.99
605.1557, 28928.50
605.6378, 28947.16
606.1199, 28965.95
606.6021, 28969.32
607.0842, 28970.58
607.5663, 28990.48
608.0484, 29081.05
608.5305, 29147.91
609.0126, 29132.18
609.4948, 29051.11
609.9769, 29006.83
610.4590, 29046.41
610.9411, 29090.65
611.4232, 29104.74
611.9053, 29075.87
612.3875, 29092.84
612.8696, 29168.83
613.3517, 29263.50
613.8338, 29344.69
614.3159, 29411.18
614.7980, 29437.19
615.2802, 29403.36
615.7623, 29359.61
616.2444, 29400.14
616.7265, 29500.19
617.2086, 29576.82
617.6907, 29562.13
618.1729, 29525.40
618.6550, 29522.20
619.1371, 29552.12
619.6192, 29597.22
620.1013, 29671.46
620.5834, 29744.15
621.0656, 29799.99
621.5477, 29848.08
622.0298, 29849.32
622.5119, 29747.35
622.9940, 29640.66
623.4761, 29653.49
623.9583, 29833.29
624.4404, 29967.83
624.9225, 30012.92
625.4046, 29999.95
625.8867, 29996.16
626.3688, 30001.82
626.8510, 30030.28
627.3331, 30115.57
627.8152, 30218.07
628.2973, 30259.69
