##NAMES=Sugilite
##RRUFFID=R070623
##IDEAL CHEMISTRY=KNa_2_Fe^3+^_2_(Li_3_Si_12_)O_30_
##LOCALITY=Wessels mine, Kuruman, Kalahari Manganese Field, South Africa
##OWNER=RRUFF
##SOURCE=Shinichi Kihara
##DESCRIPTION=Bright purple fragment
##STATUS=The identification of this mineral has been confirmed by X-ray diffraction.
##URL=rruff.info/R070623
103.1273, 16132.62
103.6094, 16132.47
104.0916, 16159.69
104.5737, 16182.82
105.0558, 16209.52
105.5379, 16217.85
106.0200, 16181.23
106.5021, 16111.46
106.9843, 16053.72
107.4664, 16041.87
107.9485, 16073.68
108.4306, 16150.68
108.9127, 16377.10
109.3948, 16571.98
109.8770, 16607.46
110.3591, 16459.72
110.8412, 16231.04
111.3233, 16111.89
111.8054, 16178.92
112.2875, 16256.36
112.7697, 16342.25
113.2518, 16428.05
113.7339, 16497.37
114.2160, 16539.38
114.6981, 16563.96
115.1802, 16646.62
115.6624, 16835.50
116.1445, 17021.21
116.6266, 17163.78
117.1087, 17271.94
117.5908, 17381.76
118.0729, 17523.12
118.5551, 17697.33
119.0372, 17859.53
119.5193, 17988.81
120.0014, 18117.54
120.4835, 18280.42
120.9656, 18485.06
121.4478, 18696.01
121.9299, 18865.71
122.4120, 19002.30
122.8941, 19154.70
123.3762, 19347.38
123.8583, 19569.05
124.3405, 19782.53
124.8226, 19962.95
125.3047, 20159.53
125.7868, 20407.60
126.2689, 20706.71
126.7510, 21046.54
127.2332, 21418.21
127.7153, 21825.51
128.1974, 22259.04
128.6795, 22705.64
129.1616, 23188.21
129.6437, 23744.16
130.1259, 24393.04
130.6080, 25070.41
131.0901, 25673.63
131.5722, 26249.22
132.0543, 26640.79
132.5364, 26867.70
133.0186, 26919.49
133.5007, 26768.79
133.9828, 26393.17
134.4649, 25814.71
134.9470, 25186.39
135.4291, 24431.21
135.9113, 23698.71
136.3934, 23003.87
136.8755, 22358.03
137.3576, 21776.91
137.8397, 21277.27
138.3219, 20864.11
138.8040, 20511.74
139.2861, 20222.53
139.7682, 19980.17
140.2503, 19777.78
140.7324, 19613.66
141.2146, 19491.95
141.6967, 19419.34
142.1788, 19404.70
142.6609, 19420.41
143.1430, 19461.29
143.6251, 19533.51
144.1073, 19629.75
144.5894, 19739.47
145.0715, 19911.17
145.5536, 20262.44
146.0357, 20806.23
146.5178, 21319.94
147.0000, 21792.78
147.4821, 22184.57
147.9642, 22345.94
148.4463, 22136.14
148.9284, 21743.13
149.4105, 21449.94
149.8927, 21291.12
150.3748, 21125.07
150.8569, 20813.08
151.3390, 20342.88
151.8211, 19870.66
152.3032, 19387.02
152.7854, 18961.19
153.2675, 18683.06
153.7496, 18602.03
154.2317, 18624.13
154.7138, 18587.33
155.1959, 18468.36
155.6781, 18336.31
156.1602, 18194.82
156.6423, 18059.83
157.1244, 17950.92
157.6065, 17880.29
158.0886, 17842.90
158.5708, 17812.13
159.0529, 17786.07
159.5350, 17770.38
160.0171, 17769.15
160.4992, 17778.79
160.9813, 17793.21
161.4635, 17807.79
161.9456, 17822.26
162.4277, 17840.35
162.9098, 17900.72
163.3919, 17930.26
163.8740, 17880.04
164.3562, 17763.77
164.8383, 17637.13
165.3204, 17558.09
165.8025, 17538.84
166.2846, 17532.69
166.7667, 17550.14
167.2489, 17571.91
167.7310, 17588.60
168.2131, 17597.45
168.6952, 17595.31
169.1773, 17574.61
169.6594, 17519.04
170.1416, 17486.30
170.6237, 17496.37
171.1058, 17524.65
171.5879, 17541.34
172.0700, 17536.27
172.5521, 17522.51
173.0343, 17525.89
173.5164, 17550.05
173.9985, 17573.09
174.4806, 17584.95
174.9627, 17590.62
175.4448, 17600.75
175.9270, 17616.56
176.4091, 17642.87
176.8912, 17684.18
177.3733, 17738.18
177.8554, 17809.43
178.3375, 17913.96
178.8197, 18047.07
179.3018, 18166.78
179.7839, 18258.65
180.2660, 18322.55
180.7481, 18361.99
181.2302, 18377.95
181.7124, 18368.49
182.1945, 18332.70
182.6766, 18271.29
183.1587, 18179.95
183.6408, 18021.09
184.1229, 17842.74
184.6051, 17690.36
185.0872, 17579.23
185.5693, 17500.06
186.0514, 17438.56
186.5335, 17399.66
187.0156, 17368.51
187.4978, 17342.60
187.9799, 17319.22
188.4620, 17295.19
188.9441, 17269.45
189.4262, 17241.83
189.9083, 17210.78
190.3905, 17165.06
190.8726, 17132.42
191.3547, 17128.92
191.8368, 17142.21
192.3189, 17151.99
192.8010, 17144.63
193.2832, 17120.89
193.7653, 17095.44
194.2474, 17044.25
194.7295, 17014.98
195.2116, 17036.63
195.6937, 17092.49
196.1759, 17143.48
196.6580, 17152.86
197.1401, 17112.64
197.6222, 17105.14
198.1043, 17178.64
198.5864, 17238.60
199.0686, 17234.58
199.5507, 17176.37
200.0328, 17111.98
200.5149, 17091.46
200.9970, 17127.73
201.4791, 17156.46
201.9613, 17181.03
202.4434, 17197.33
202.9255, 17198.82
203.4076, 17186.86
203.8897, 17172.29
204.3718, 17169.17
204.8540, 17186.40
205.3361, 17187.96
205.8182, 17149.52
206.3003, 17111.45
206.7824, 17111.84
207.2645, 17156.98
207.7467, 17216.54
208.2288, 17249.48
208.7109, 17244.03
209.1930, 17238.73
209.6751, 17229.46
210.1572, 17223.52
210.6394, 17232.47
211.1215, 17260.22
211.6036, 17292.47
212.0857, 17300.81
212.5678, 17270.01
213.0499, 17269.30
213.5321, 17305.04
214.0142, 17379.58
214.4963, 17522.26
214.9784, 17762.82
215.4605, 18008.54
215.9426, 18075.38
216.4248, 17943.45
216.9069, 17805.28
217.3890, 17712.65
217.8711, 17660.12
218.3532, 17642.39
218.8353, 17670.39
219.3175, 17712.99
219.7996, 17720.07
220.2817, 17687.58
220.7638, 17647.76
221.2459, 17610.02
221.7280, 17576.10
222.2102, 17554.11
222.6923, 17551.90
223.1744, 17557.65
223.6565, 17553.60
224.1386, 17537.67
224.6207, 17521.16
225.1029, 17505.16
225.5850, 17491.52
226.0671, 17497.39
226.5492, 17537.58
227.0313, 17593.82
227.5134, 17649.22
227.9956, 17706.61
228.4777, 17746.48
228.9598, 17741.39
229.4419, 17691.46
229.9240, 17653.61
230.4061, 17645.94
230.8883, 17659.66
231.3704, 17694.47
231.8525, 17755.91
232.3346, 17809.44
232.8167, 17813.32
233.2988, 17762.36
233.7810, 17711.99
234.2631, 17664.36
234.7452, 17633.49
235.2273, 17639.06
235.7094, 17689.55
236.1915, 17749.15
236.6737, 17770.44
237.1558, 17744.04
237.6379, 17727.20
238.1200, 17742.27
238.6021, 17770.18
239.0842, 17798.13
239.5664, 17822.38
240.0485, 17849.59
240.5306, 17891.87
241.0127, 17955.90
241.4948, 18011.80
241.9769, 18028.22
242.4591, 18047.22
242.9412, 18114.62
243.4233, 18246.98
243.9054, 18387.33
244.3875, 18436.69
244.8696, 18354.71
245.3518, 18293.74
245.8339, 18292.34
246.3160, 18317.03
246.7981, 18345.92
247.2802, 18371.86
247.7623, 18397.42
248.2445, 18422.77
248.7266, 18435.85
249.2087, 18479.65
249.6908, 18584.83
250.1729, 18706.15
250.6550, 18806.70
251.1372, 18874.85
251.6193, 18926.37
252.1014, 18998.83
252.5835, 19131.33
253.0656, 19194.46
253.5477, 19108.60
254.0299, 18994.18
254.5120, 18950.74
254.9941, 19010.87
255.4762, 19127.23
255.9583, 19212.54
256.4405, 19246.17
256.9226, 19290.14
257.4047, 19366.03
257.8868, 19444.89
258.3689, 19506.45
258.8510, 19543.75
259.3332, 19558.91
259.8153, 19552.13
260.2974, 19504.92
260.7795, 19471.61
261.2616, 19474.40
261.7437, 19479.78
262.2259, 19456.24
262.7080, 19395.69
263.1901, 19321.05
263.6722, 19273.05
264.1543, 19264.36
264.6364, 19260.38
265.1186, 19269.63
265.6007, 19275.63
266.0828, 19257.79
266.5649, 19212.99
267.0470, 19165.51
267.5291, 19157.33
268.0113, 19210.70
268.4934, 19262.61
268.9755, 19300.51
269.4576, 19342.77
269.9397, 19406.95
270.4218, 19495.51
270.9040, 19593.61
271.3861, 19676.59
271.8682, 19736.35
272.3503, 19797.14
272.8324, 19854.90
273.3145, 19916.35
273.7967, 19992.91
274.2788, 20083.94
274.7609, 20171.37
275.2430, 20232.28
275.7251, 20267.88
276.2072, 20268.80
276.6894, 20203.82
277.1715, 20133.93
277.6536, 20102.61
278.1357, 20113.59
278.6178, 20136.68
279.0999, 20131.20
279.5821, 20078.43
280.0642, 20049.88
280.5463, 20059.82
281.0284, 20077.87
281.5105, 20098.59
281.9926, 20114.88
282.4748, 20109.87
282.9569, 20060.59
283.4390, 19952.35
283.9211, 19855.02
284.4032, 19760.28
284.8853, 19680.96
285.3675, 19629.75
285.8496, 19603.01
286.3317, 19583.00
286.8138, 19550.44
287.2959, 19499.03
287.7780, 19470.10
288.2602, 19488.79
288.7423, 19504.93
289.2244, 19491.24
289.7065, 19454.21
290.1886, 19419.31
290.6707, 19409.11
291.1529, 19424.99
291.6350, 19447.89
292.1171, 19473.23
292.5992, 19509.78
293.0813, 19542.98
293.5634, 19588.41
294.0456, 19690.75
294.5277, 19904.37
295.0098, 20224.96
295.4919, 20387.91
295.9740, 20214.92
296.4561, 20054.01
296.9383, 19989.15
297.4204, 19997.69
297.9025, 20027.60
298.3846, 20047.86
298.8667, 20058.29
299.3488, 20057.78
299.8310, 20038.64
300.3131, 20015.79
300.7952, 19997.15
301.2773, 19975.38
301.7594, 19936.37
302.2415, 19870.40
302.7237, 19787.28
303.2058, 19726.43
303.6879, 19701.05
304.1700, 19682.02
304.6521, 19671.34
305.1342, 19661.66
305.6164, 19642.12
306.0985, 19607.31
306.5806, 19566.94
307.0627, 19546.70
307.5448, 19556.77
308.0269, 19571.45
308.5091, 19584.71
308.9912, 19601.41
309.4733, 19630.23
309.9554, 19673.82
310.4375, 19718.78
310.9196, 19736.26
311.4018, 19701.00
311.8839, 19697.60
312.3660, 19756.05
312.8481, 19831.05
313.3302, 19895.43
313.8123, 19941.76
314.2945, 19973.22
314.7766, 19993.40
315.2587, 20001.04
315.7408, 20001.15
316.2229, 19978.36
316.7050, 19960.20
317.1872, 19951.31
317.6693, 19957.27
318.1514, 19995.46
318.6335, 20104.95
319.1156, 20300.10
319.5977, 20438.41
320.0799, 20462.82
320.5620, 20471.15
321.0441, 20495.93
321.5262, 20540.55
322.0083, 20601.85
322.4904, 20684.88
322.9726, 20788.10
323.4547, 20874.55
323.9368, 20926.23
324.4189, 20983.28
324.9010, 21064.06
325.3831, 21163.44
325.8653, 21269.18
326.3474, 21373.54
326.8295, 21479.08
327.3116, 21598.99
327.7937, 21748.49
328.2758, 21886.04
328.7580, 21980.59
329.2401, 22056.21
329.7222, 22151.19
330.2043, 22293.37
330.6864, 22451.30
331.1685, 22561.95
331.6507, 22612.88
332.1328, 22658.62
332.6149, 22735.39
333.0970, 22814.03
333.5791, 22864.42
334.0612, 22878.34
334.5434, 22863.43
335.0255, 22833.08
335.5076, 22788.98
335.9897, 22702.91
336.4718, 22531.28
336.9539, 22333.04
337.4361, 22173.15
337.9182, 22062.45
338.4003, 21959.95
338.8824, 21832.89
339.3645, 21684.80
339.8466, 21543.06
340.3288, 21413.97
340.8109, 21294.95
341.2930, 21175.63
341.7751, 21055.08
342.2572, 20957.11
342.7393, 20905.66
343.2215, 20884.42
343.7036, 20854.23
344.1857, 20805.53
344.6678, 20755.00
345.1499, 20723.55
345.6320, 20707.80
346.1142, 20688.00
346.5963, 20647.47
347.0784, 20605.54
347.5605, 20594.34
348.0426, 20618.60
348.5247, 20635.38
349.0069, 20600.11
349.4890, 20521.29
349.9711, 20476.80
350.4532, 20500.17
350.9353, 20535.94
351.4174, 20545.77
351.8996, 20531.43
352.3817, 20508.68
352.8638, 20482.07
353.3459, 20456.29
353.8280, 20451.86
354.3102, 20491.97
354.7923, 20525.21
355.2744, 20521.85
355.7565, 20498.31
356.2386, 20491.26
356.7207, 20518.75
357.2029, 20564.27
357.6850, 20586.41
358.1671, 20565.78
358.6492, 20553.96
359.1313, 20564.98
359.6134, 20584.30
360.0956, 20597.08
360.5777, 20599.05
361.0598, 20592.45
361.5419, 20578.80
362.0240, 20548.00
362.5061, 20537.22
362.9883, 20561.77
363.4704, 20593.06
363.9525, 20607.01
364.4346, 20605.29
364.9167, 20611.63
365.3988, 20653.44
365.8810, 20738.73
366.3631, 20786.00
366.8452, 20768.74
367.3273, 20743.39
367.8094, 20719.29
368.2915, 20702.51
368.7737, 20700.80
369.2558, 20720.47
369.7379, 20758.32
370.2200, 20794.99
370.7021, 20829.33
371.1842, 20864.53
371.6664, 20910.96
372.1485, 20954.79
372.6306, 20973.93
373.1127, 20958.33
373.5948, 20932.07
374.0769, 20946.85
374.5591, 21024.79
375.0412, 21084.73
375.5233, 21096.89
376.0054, 21098.89
376.4875, 21121.67
376.9696, 21168.47
377.4518, 21209.03
377.9339, 21201.23
378.4160, 21143.07
378.8981, 21112.89
379.3802, 21136.79
379.8623, 21172.20
380.3445, 21196.03
380.8266, 21208.88
381.3087, 21216.38
381.7908, 21215.68
382.2729, 21212.18
382.7550, 21226.23
383.2372, 21267.84
383.7193, 21301.41
384.2014, 21293.50
384.6835, 21262.82
385.1656, 21241.39
385.6477, 21245.43
386.1299, 21254.91
386.6120, 21237.57
387.0941, 21194.81
387.5762, 21182.69
388.0583, 21246.58
388.5404, 21345.71
389.0226, 21391.30
389.5047, 21361.22
389.9868, 21327.05
390.4689, 21325.77
390.9510, 21346.00
391.4331, 21359.13
391.9153, 21353.89
392.3974, 21349.11
392.8795, 21374.67
393.3616, 21435.33
393.8437, 21502.72
394.3258, 21600.12
394.8080, 21687.00
395.2901, 21712.60
395.7722, 21676.09
396.2543, 21627.82
396.7364, 21611.59
397.2185, 21629.60
397.7007, 21658.18
398.1828, 21718.28
398.6649, 21766.20
399.1470, 21764.88
399.6291, 21737.43
400.1112, 21741.00
400.5934, 21812.84
401.0755, 21928.12
401.5576, 21984.80
402.0397, 21914.72
402.5218, 21869.79
403.0039, 21879.43
403.4861, 21910.38
403.9682, 21928.03
404.4503, 21922.28
404.9324, 21910.03
405.4145, 21920.56
405.8966, 21968.75
406.3788, 21992.86
406.8609, 21954.01
407.3430, 21921.65
407.8251, 21934.44
408.3072, 21987.97
408.7893, 22051.52
409.2715, 22106.73
409.7536, 22152.27
410.2357, 22179.70
410.7178, 22193.34
411.1999, 22179.21
411.6820, 22105.69
412.1642, 22009.03
412.6463, 21947.16
413.1284, 21946.79
413.6105, 21982.71
414.0926, 22030.02
414.5747, 22090.89
415.0569, 22132.93
415.5390, 22136.32
416.0211, 22119.52
416.5032, 22104.88
416.9853, 22090.24
417.4674, 22089.98
417.9496, 22119.42
418.4317, 22168.64
418.9138, 22214.31
419.3959, 22251.16
419.8780, 22284.98
420.3601, 22322.87
420.8423, 22364.83
421.3244, 22403.97
421.8065, 22435.53
422.2886, 22466.79
422.7707, 22505.22
423.2528, 22549.87
423.7350, 22591.78
424.2171, 22622.92
424.6992, 22646.49
425.1813, 22691.24
425.6634, 22747.62
426.1455, 22832.37
426.6277, 22972.92
427.1098, 23136.97
427.5919, 23279.21
428.0740, 23382.94
428.5561, 23470.38
429.0382, 23577.50
429.5204, 23692.11
430.0025, 23857.01
430.4846, 24109.44
430.9667, 24372.24
431.4488, 24592.21
431.9309, 24773.94
432.4131, 24954.59
432.8952, 25167.54
433.3773, 25411.12
433.8594, 25663.05
434.3415, 25933.88
434.8236, 26197.28
435.3058, 26432.46
435.7879, 26656.49
436.2700, 26892.93
436.7521, 27150.26
437.2342, 27425.32
437.7163, 27712.29
438.1985, 28009.16
438.6806, 28334.68
439.1627, 28706.60
439.6448, 29101.94
440.1269, 29489.73
440.6090, 29866.80
441.0912, 30267.35
441.5733, 30722.64
442.0554, 31211.78
442.5375, 31706.38
443.0196, 32218.96
443.5017, 32668.09
443.9839, 33007.88
444.4660, 33223.96
444.9481, 33260.49
445.4302, 33042.14
445.9124, 32706.96
446.3945, 32329.28
446.8766, 31905.03
447.3587, 31406.93
447.8408, 30815.00
448.3229, 30157.00
448.8051, 29520.81
449.2872, 28868.80
449.7693, 28290.05
450.2514, 27817.33
450.7335, 27401.75
451.2156, 26989.91
451.6978, 26577.31
452.1799, 26210.17
452.6620, 25950.63
453.1441, 25813.72
453.6262, 25664.87
454.1083, 25492.09
454.5905, 25319.28
455.0726, 25143.39
455.5547, 24974.46
456.0368, 24829.56
456.5189, 24719.87
457.0010, 24636.30
457.4832, 24556.42
457.9653, 24472.80
458.4474, 24421.16
458.9295, 24449.75
459.4116, 24492.13
459.8937, 24491.06
460.3759, 24438.97
460.8580, 24381.79
461.3401, 24350.47
461.8222, 24339.26
462.3043, 24326.06
462.7864, 24302.00
463.2686, 24297.35
463.7507, 24352.53
464.2328, 24455.14
464.7149, 24538.69
465.1970, 24579.17
465.6791, 24612.27
466.1613, 24659.72
466.6434, 24720.01
467.1255, 24788.57
467.6076, 24864.02
468.0897, 24943.21
468.5718, 25017.71
469.0540, 25091.26
469.5361, 25153.99
470.0182, 25187.28
470.5003, 25221.60
470.9824, 25288.88
471.4645, 25388.70
471.9467, 25491.61
472.4288, 25564.41
472.9109, 25605.03
473.3930, 25681.29
473.8751, 25844.30
474.3572, 25986.21
474.8394, 26087.71
475.3215, 26149.58
475.8036, 26172.97
476.2857, 26156.90
476.7678, 26110.42
477.2499, 26046.87
477.7321, 25967.38
478.2142, 25862.76
478.6963, 25714.06
479.1784, 25555.48
479.6605, 25410.77
480.1426, 25280.85
480.6248, 25161.01
481.1069, 25064.38
481.5890, 24970.18
482.0711, 24832.02
482.5532, 24644.08
483.0353, 24469.32
483.5175, 24341.26
483.9996, 24261.59
484.4817, 24223.26
484.9638, 24263.31
485.4459, 24296.32
485.9280, 24285.99
486.4102, 24251.84
486.8923, 24226.35
487.3744, 24218.73
487.8565, 24208.15
488.3386, 24161.83
488.8207, 24057.44
489.3029, 23997.77
489.7850, 24004.46
490.2671, 24026.48
490.7492, 24058.37
491.2313, 24086.65
491.7134, 24082.88
492.1956, 24023.19
492.6777, 23938.78
493.1598, 23925.46
493.6419, 24018.95
494.1240, 24090.14
494.6061, 24091.86
495.0883, 24071.23
495.5704, 24058.19
496.0525, 24056.67
496.5346, 24058.80
497.0167, 24061.53
497.4988, 24063.35
497.9810, 24056.91
498.4631, 24037.87
498.9452, 24025.36
499.4273, 24032.93
499.9094, 24058.37
500.3915, 24091.20
500.8737, 24144.42
501.3558, 24190.55
501.8379, 24211.74
502.3200, 24216.26
502.8021, 24219.99
503.2842, 24228.18
503.7664, 24239.65
504.2485, 24253.45
504.7306, 24273.22
505.2127, 24283.93
505.6948, 24282.22
506.1769, 24275.80
506.6591, 24264.75
507.1412, 24252.39
507.6233, 24243.74
508.1054, 24240.88
508.5875, 24246.33
509.0696, 24272.62
509.5518, 24336.32
510.0339, 24381.02
510.5160, 24383.66
510.9981, 24370.50
511.4802, 24355.05
511.9623, 24340.23
512.4445, 24332.64
512.9266, 24348.56
513.4087, 24375.04
513.8908, 24366.78
514.3729, 24311.72
514.8550, 24268.76
515.3372, 24280.66
515.8193, 24336.93
516.3014, 24393.80
516.7835, 24466.80
517.2656, 24519.39
517.7477, 24519.25
518.2299, 24491.52
518.7120, 24480.43
519.1941, 24498.57
519.6762, 24525.91
520.1583, 24534.12
520.6404, 24512.05
521.1226, 24520.59
521.6047, 24585.65
522.0868, 24649.77
522.5689, 24689.32
523.0510, 24710.70
523.5331, 24729.88
524.0153, 24755.61
524.4974, 24778.98
524.9795, 24781.06
525.4616, 24758.63
525.9437, 24727.68
526.4258, 24663.15
526.9080, 24616.51
527.3901, 24634.97
527.8722, 24711.25
528.3543, 24784.76
528.8364, 24828.01
529.3185, 24849.29
529.8007, 24858.23
530.2828, 24855.30
530.7649, 24842.96
531.2470, 24815.64
531.7291, 24784.83
532.2112, 24785.27
532.6934, 24834.53
533.1755, 24875.11
533.6576, 24879.99
534.1397, 24880.11
534.6218, 24914.57
535.1039, 24982.66
535.5861, 25046.34
536.0682, 25070.57
536.5503, 25057.19
537.0324, 25043.28
537.5145, 25022.98
537.9966, 25010.22
538.4788, 25006.72
538.9609, 25012.20
539.4430, 25027.41
539.9251, 25052.41
540.4072, 25082.95
540.8893, 25119.47
541.3715, 25159.80
541.8536, 25187.78
542.3357, 25202.64
542.8178, 25202.91
543.2999, 25171.91
543.7820, 25124.69
544.2642, 25103.01
544.7463, 25142.22
545.2284, 25176.77
545.7105, 25149.03
546.1926, 25089.77
546.6747, 25068.56
547.1569, 25108.15
547.6390, 25175.27
548.1211, 25226.94
548.6032, 25261.81
549.0853, 25285.76
549.5674, 25291.36
550.0496, 25295.56
550.5317, 25301.06
551.0138, 25310.93
551.4959, 25331.46
551.9780, 25366.63
552.4601, 25406.01
552.9423, 25430.97
553.4244, 25440.01
553.9065, 25442.23
554.3886, 25424.88
554.8707, 25416.30
555.3528, 25440.78
555.8350, 25492.69
556.3171, 25544.94
556.7992, 25604.02
557.2813, 25646.62
557.7634, 25633.02
558.2455, 25574.04
558.7277, 25531.21
559.2098, 25533.46
559.6919, 25559.99
560.1740, 25571.56
560.6561, 25557.95
561.1382, 25551.92
561.6204, 25553.62
562.1025, 25563.47
562.5846, 25592.07
563.0667, 25629.93
563.5488, 25649.33
564.0309, 25629.40
564.5131, 25588.71
564.9952, 25579.29
565.4773, 25601.31
565.9594, 25653.80
566.4415, 25637.29
566.9236, 25831.04
567.4058, 25948.72
567.8879, 25994.41
568.3700, 25752.47
568.8521, 25881.93
569.3342, 25862.55
569.8163, 25837.07
570.2985, 26018.81
570.7806, 25818.71
571.2627, 25997.16
571.7448, 26024.50
572.2269, 26120.99
572.7090, 26067.73
573.1912, 26060.73
573.6733, 26203.53
574.1554, 26263.38
574.6375, 26192.88
575.1196, 26293.78
575.6017, 26154.07
576.0839, 26217.96
576.5660, 26309.43
577.0481, 26350.08
577.5302, 26314.04
578.0123, 26288.83
578.4944, 26313.50
578.9766, 26341.83
579.4587, 26332.33
579.9408, 26286.28
580.4229, 26253.36
580.9050, 26270.30
581.3871, 26313.74
581.8693, 26349.95
582.3514, 26377.75
582.8335, 26398.26
583.3156, 26409.62
583.7977, 26416.83
584.2798, 26433.81
584.7620, 26476.45
585.2441, 26496.51
585.7262, 26470.38
586.2083, 26434.97
586.6904, 26411.20
587.1725, 26403.64
587.6547, 26413.56
588.1368, 26442.47
588.6189, 26487.97
589.1010, 26545.77
589.5831, 26625.88
590.0652, 26690.18
590.5474, 26715.84
591.0295, 26732.48
591.5116, 26764.30
591.9937, 26810.28
592.4758, 26846.79
592.9579, 26863.73
593.4401, 26864.07
593.9222, 26835.76
594.4043, 26786.18
594.8864, 26773.06
595.3685, 26832.30
595.8506, 26925.99
596.3328, 26975.76
596.8149, 26960.03
597.2970, 26939.82
597.7791, 26897.74
598.2612, 26866.66
598.7433, 26870.12
599.2255, 26901.99
599.7076, 26947.50
600.1897, 27002.26
600.6718, 27050.68
601.1539, 27044.42
