##NAMES=Sulphohalite
##RRUFFID=R050479
##IDEAL CHEMISTRY=Na_6_(S^6+^O_4_)_2_ClF
##LOCALITY=Searles Lake, Trona, San Bernardino County, California, USA
##OWNER=RRUFF
##SOURCE=California Institute of Technology
##DESCRIPTION=A pair of colorless octahedra
##STATUS=The identification of this mineral has been confirmed by X-ray diffraction and chemical analysis
##URL=rruff.info/R050479
##MEASURED CHEMISTRY=Na_6.00_(S_1.00_O_4_)_2_F_1.00_Cl_1.00_
91.00781, 157.7600
91.48993, 156.1197
91.97205, 155.4687
92.45416, 155.5326
92.93628, 156.5857
93.41840, 159.0390
93.90051, 162.6033
94.38263, 168.1469
94.86475, 177.8870
95.34686, 191.7933
95.82898, 206.9878
96.31110, 220.4077
96.79321, 232.4532
97.27533, 246.9435
97.75745, 264.3632
98.23956, 284.7068
98.72168, 307.7387
99.20380, 333.4186
99.68591, 361.1766
100.1680, 389.5975
100.6501, 417.5535
101.1323, 450.5229
101.6144, 490.2741
102.0965, 537.1234
102.5786, 586.4523
103.0607, 637.7535
103.5428, 692.3311
104.0250, 753.5758
104.5071, 821.3411
104.9892, 895.1652
105.4713, 974.5946
105.9534, 1060.599
106.4355, 1149.884
106.9177, 1245.313
107.3998, 1344.104
107.8819, 1440.891
108.3640, 1533.294
108.8461, 1624.484
109.3282, 1717.176
109.8104, 1810.437
110.2925, 1904.143
110.7746, 1998.714
111.2567, 2093.384
111.7388, 2186.131
112.2209, 2270.856
112.7031, 2355.665
113.1852, 2447.173
113.6673, 2541.294
114.1494, 2646.424
114.6315, 2767.158
115.1136, 2904.952
115.5958, 3047.697
116.0779, 3192.465
116.5600, 3340.053
117.0421, 3490.695
117.5242, 3651.987
118.0063, 3812.466
118.4885, 3967.384
118.9706, 4115.536
119.4527, 4262.115
119.9348, 4411.716
120.4169, 4561.063
120.8990, 4706.570
121.3812, 4848.137
121.8633, 4983.263
122.3454, 5107.545
122.8275, 5220.263
123.3096, 5324.767
123.7917, 5423.178
124.2739, 5515.589
124.7560, 5602.339
125.2381, 5689.128
125.7202, 5769.885
126.2023, 5830.132
126.6844, 5856.977
127.1666, 5875.509
127.6487, 5920.382
128.1308, 5990.976
128.6129, 6072.215
129.0950, 6153.290
129.5771, 6235.640
130.0593, 6324.830
130.5414, 6421.714
131.0235, 6525.964
131.5056, 6632.239
131.9877, 6716.080
132.4698, 6769.146
132.9520, 6813.362
133.4341, 6849.706
133.9162, 6896.005
134.3983, 6965.256
134.8804, 7052.463
135.3625, 7118.016
135.8447, 7158.491
136.3268, 7188.292
136.8089, 7228.936
137.2910, 7282.952
137.7731, 7333.999
138.2552, 7376.142
138.7374, 7408.547
139.2195, 7437.592
139.7016, 7463.112
140.1837, 7485.629
140.6658, 7506.181
141.1479, 7525.602
141.6301, 7541.108
142.1122, 7551.581
142.5943, 7556.841
143.0764, 7556.759
143.5585, 7549.159
144.0406, 7536.333
144.5228, 7525.773
145.0049, 7515.471
145.4870, 7509.823
145.9691, 7511.915
146.4512, 7528.677
146.9333, 7542.017
147.4155, 7549.757
147.8976, 7552.724
148.3797, 7557.277
148.8618, 7564.920
149.3439, 7573.220
149.8260, 7580.557
150.3082, 7578.124
150.7903, 7584.440
151.2724, 7604.420
151.7545, 7638.292
152.2366, 7668.776
152.7188, 7694.083
153.2009, 7716.172
153.6830, 7736.292
154.1651, 7751.924
154.6472, 7767.975
155.1293, 7787.244
155.6115, 7811.067
156.0936, 7827.706
156.5757, 7830.788
157.0578, 7827.391
157.5399, 7825.213
158.0220, 7828.978
158.5042, 7832.032
158.9863, 7830.996
159.4684, 7824.423
159.9505, 7820.607
160.4326, 7823.799
160.9147, 7831.245
161.3969, 7838.781
161.8790, 7846.441
162.3611, 7852.877
162.8432, 7856.620
163.3253, 7856.048
163.8074, 7856.994
164.2896, 7863.167
164.7717, 7872.558
165.2538, 7881.251
165.7359, 7886.030
166.2180, 7889.999
166.7001, 7895.663
167.1823, 7904.022
167.6644, 7912.364
168.1465, 7916.703
168.6286, 7919.112
169.1107, 7925.548
169.5928, 7944.296
170.0750, 7966.627
170.5571, 7983.581
171.0392, 7991.415
171.5213, 7996.149
172.0034, 8000.865
172.4855, 8006.150
172.9677, 8014.220
173.4498, 8031.646
173.9319, 8051.668
174.4140, 8063.679
174.8961, 8059.338
175.3782, 8052.374
175.8604, 8058.300
176.3425, 8076.165
176.8246, 8097.626
177.3067, 8120.882
177.7888, 8143.279
178.2709, 8158.642
178.7531, 8161.831
179.2352, 8159.901
179.7173, 8162.976
180.1994, 8170.922
180.6815, 8180.974
181.1636, 8190.141
181.6458, 8199.350
182.1279, 8211.261
182.6100, 8229.352
183.0921, 8249.642
183.5742, 8264.820
184.0563, 8274.582
184.5385, 8280.179
185.0206, 8280.392
185.5027, 8276.380
185.9848, 8273.739
186.4669, 8272.873
186.9490, 8274.840
187.4312, 8284.384
187.9133, 8302.038
188.3954, 8322.204
188.8775, 8338.342
189.3596, 8350.729
189.8417, 8362.764
190.3239, 8374.990
190.8060, 8387.786
191.2881, 8402.642
191.7702, 8419.659
192.2523, 8437.980
192.7344, 8458.197
193.2166, 8480.287
193.6987, 8499.107
194.1808, 8511.896
194.6629, 8519.131
195.1450, 8525.779
195.6271, 8530.988
196.1093, 8537.792
196.5914, 8553.662
197.0735, 8579.740
197.5556, 8600.257
198.0377, 8606.762
198.5198, 8599.167
199.0020, 8590.969
199.4841, 8580.732
199.9662, 8572.165
200.4483, 8572.660
200.9304, 8583.628
201.4125, 8594.691
201.8947, 8603.639
202.3768, 8611.186
202.8589, 8605.615
203.3410, 8582.481
203.8231, 8552.018
204.3052, 8534.236
204.7874, 8531.392
205.2695, 8531.379
205.7516, 8529.993
206.2337, 8527.690
206.7158, 8520.560
207.1979, 8506.822
207.6801, 8489.939
208.1622, 8477.626
208.6443, 8471.114
209.1264, 8465.149
209.6085, 8455.221
210.0906, 8437.912
210.5728, 8433.674
211.0549, 8447.714
211.5370, 8471.480
212.0191, 8483.976
212.5012, 8480.394
212.9833, 8477.828
213.4655, 8485.979
213.9476, 8509.718
214.4297, 8526.261
214.9118, 8533.636
215.3939, 8534.447
215.8760, 8534.762
216.3581, 8533.911
216.8403, 8533.861
217.3224, 8535.263
217.8045, 8537.630
218.2866, 8542.517
218.7687, 8549.502
219.2508, 8558.961
219.7330, 8573.058
220.2151, 8595.697
220.6972, 8615.219
221.1793, 8624.479
221.6614, 8617.825
222.1435, 8615.954
222.6257, 8620.465
223.1078, 8629.491
223.5899, 8638.850
224.0720, 8651.357
224.5541, 8659.833
225.0362, 8659.873
225.5184, 8645.747
226.0005, 8637.921
226.4826, 8638.254
226.9647, 8644.920
227.4468, 8653.503
227.9289, 8667.109
228.4111, 8678.195
228.8932, 8683.173
229.3753, 8680.276
229.8574, 8675.389
230.3395, 8665.648
230.8216, 8654.765
231.3038, 8653.281
231.7859, 8664.869
232.2680, 8680.394
232.7501, 8696.639
233.2322, 8716.482
233.7143, 8729.695
234.1965, 8731.920
234.6786, 8728.322
235.1607, 8734.225
235.6428, 8756.010
236.1249, 8777.708
236.6070, 8792.443
237.0892, 8798.753
237.5713, 8800.213
238.0534, 8792.017
238.5355, 8780.100
239.0176, 8780.630
239.4997, 8800.988
239.9819, 8823.234
240.4640, 8839.744
240.9461, 8848.928
241.4282, 8856.298
241.9103, 8860.887
242.3924, 8864.049
242.8746, 8869.298
243.3567, 8878.909
243.8388, 8887.358
244.3209, 8892.809
244.8030, 8895.778
245.2851, 8894.244
245.7673, 8885.694
246.2494, 8873.816
246.7315, 8866.426
247.2136, 8864.545
247.6957, 8865.611
248.1778, 8868.416
248.6600, 8871.982
249.1421, 8880.979
249.6242, 8899.390
250.1063, 8921.138
250.5884, 8933.568
251.0705, 8930.763
251.5527, 8928.572
252.0348, 8933.028
252.5169, 8946.181
252.9990, 8958.564
253.4811, 8970.521
253.9632, 8981.510
254.4454, 8990.588
254.9275, 8998.114
255.4096, 9003.010
255.8917, 9004.153
256.3738, 9000.229
256.8560, 8998.020
257.3381, 8995.455
257.8202, 8996.321
258.3023, 9007.974
258.7844, 9036.064
259.2665, 9062.641
259.7487, 9083.842
260.2308, 9100.402
260.7129, 9103.141
261.1950, 9083.428
261.6771, 9059.233
262.1592, 9057.334
262.6414, 9087.324
263.1235, 9115.185
263.6056, 9129.434
264.0877, 9128.826
264.5698, 9136.533
265.0519, 9156.937
265.5341, 9179.641
266.0162, 9192.234
266.4983, 9192.109
266.9804, 9189.600
267.4625, 9186.835
267.9446, 9183.858
268.4268, 9180.244
268.9089, 9175.111
269.3910, 9171.033
269.8731, 9170.759
270.3552, 9174.770
270.8373, 9180.627
271.3195, 9188.104
271.8016, 9197.021
272.2837, 9206.306
272.7658, 9216.147
273.2479, 9226.063
273.7300, 9236.688
274.2122, 9248.764
274.6943, 9256.856
275.1764, 9259.194
275.6585, 9256.749
276.1406, 9253.592
276.6227, 9249.062
277.1049, 9246.294
277.5870, 9248.770
278.0691, 9257.068
278.5512, 9263.899
279.0333, 9266.455
279.5154, 9267.617
279.9976, 9279.428
280.4797, 9304.243
280.9618, 9327.608
281.4439, 9337.744
281.9260, 9334.392
282.4081, 9334.348
282.8903, 9341.042
283.3724, 9350.656
283.8545, 9351.815
284.3366, 9343.383
284.8187, 9338.392
285.3008, 9349.847
285.7830, 9375.767
286.2651, 9389.544
286.7472, 9385.456
287.2293, 9374.920
287.7114, 9380.818
288.1935, 9402.974
288.6757, 9424.398
289.1578, 9434.011
289.6399, 9434.072
290.1220, 9435.260
290.6041, 9437.881
291.0862, 9442.522
291.5684, 9451.153
292.0505, 9463.362
292.5326, 9475.037
293.0147, 9485.939
293.4968, 9494.874
293.9789, 9496.516
294.4611, 9489.562
294.9432, 9482.653
295.4253, 9489.592
295.9074, 9506.764
296.3895, 9518.193
296.8716, 9512.203
297.3538, 9497.232
297.8359, 9490.092
298.3180, 9490.893
298.8001, 9496.004
299.2822, 9505.911
299.7643, 9517.842
300.2465, 9524.045
300.7286, 9515.619
301.2107, 9504.144
301.6928, 9507.653
302.1749, 9525.271
302.6570, 9543.876
303.1392, 9552.430
303.6213, 9554.946
304.1034, 9557.904
304.5855, 9562.443
305.0676, 9569.140
305.5497, 9582.499
306.0319, 9600.381
306.5140, 9612.293
306.9961, 9604.211
307.4782, 9588.693
307.9603, 9580.471
308.4424, 9583.719
308.9246, 9593.400
309.4067, 9609.786
309.8888, 9630.033
310.3709, 9646.489
310.8530, 9653.029
311.3351, 9654.783
311.8173, 9655.433
312.2994, 9654.788
312.7815, 9655.531
313.2636, 9663.243
313.7457, 9673.225
314.2278, 9676.998
314.7100, 9663.334
315.1921, 9648.009
315.6742, 9641.166
316.1563, 9645.042
316.6384, 9650.314
317.1205, 9651.526
317.6027, 9652.291
318.0848, 9657.170
318.5669, 9674.653
319.0490, 9690.184
319.5311, 9695.966
320.0132, 9691.170
320.4954, 9688.974
320.9775, 9690.715
321.4596, 9697.639
321.9417, 9710.842
322.4238, 9743.286
322.9059, 9768.722
323.3881, 9779.634
323.8702, 9776.733
324.3523, 9771.205
324.8344, 9760.396
325.3165, 9750.295
325.7986, 9744.357
326.2808, 9742.499
326.7629, 9745.416
327.2450, 9755.838
327.7271, 9771.850
328.2092, 9785.762
328.6913, 9794.930
329.1735, 9804.285
329.6556, 9816.354
330.1377, 9835.475
330.6198, 9848.908
331.1019, 9855.434
331.5840, 9856.453
332.0662, 9854.054
332.5483, 9843.052
333.0304, 9835.844
333.5125, 9837.601
333.9946, 9850.705
334.4767, 9859.412
334.9589, 9861.533
335.4410, 9861.210
335.9231, 9864.155
336.4052, 9872.445
336.8873, 9878.292
337.3694, 9877.915
337.8516, 9872.115
338.3336, 9875.842
338.8158, 9893.001
339.2979, 9911.856
339.7800, 9921.994
340.2621, 9922.564
340.7442, 9920.327
341.2263, 9915.049
341.7085, 9908.618
342.1906, 9907.796
342.6727, 9913.081
343.1548, 9920.905
343.6369, 9930.502
344.1190, 9941.431
344.6012, 9948.113
345.0833, 9948.954
345.5654, 9946.822
346.0475, 9944.410
346.5296, 9941.985
347.0117, 9945.367
347.4939, 9963.589
347.9760, 9990.357
348.4581, 10003.51
348.9402, 9999.937
349.4223, 9994.279
349.9044, 10006.83
350.3866, 10032.12
350.8687, 10051.40
351.3508, 10053.70
351.8329, 10047.10
352.3150, 10042.74
352.7971, 10040.63
353.2793, 10041.24
353.7614, 10045.85
354.2435, 10053.21
354.7256, 10061.61
355.2077, 10072.66
355.6898, 10081.84
356.1720, 10082.72
356.6541, 10077.36
357.1362, 10074.66
357.6183, 10081.57
358.1004, 10092.42
358.5826, 10102.85
359.0647, 10113.41
359.5468, 10119.98
360.0289, 10113.45
360.5110, 10101.77
360.9931, 10100.04
361.4753, 10132.19
361.9574, 10161.43
362.4395, 10164.83
362.9216, 10135.47
363.4037, 10112.06
363.8858, 10112.36
364.3680, 10122.06
364.8501, 10126.11
365.3322, 10112.95
365.8143, 10102.67
366.2964, 10100.10
366.7785, 10105.37
367.2607, 10114.39
367.7428, 10135.06
368.2249, 10154.10
368.7070, 10163.28
369.1891, 10148.58
369.6712, 10142.70
370.1534, 10151.17
370.6355, 10169.12
371.1176, 10181.30
371.5997, 10184.25
372.0818, 10185.35
372.5639, 10186.80
373.0461, 10187.37
373.5282, 10192.09
374.0103, 10203.32
374.4924, 10216.26
374.9745, 10222.80
375.4566, 10220.40
375.9388, 10219.90
376.4209, 10225.91
376.9030, 10237.89
377.3851, 10242.99
377.8672, 10239.46
378.3493, 10235.77
378.8315, 10242.46
379.3136, 10260.05
379.7957, 10272.05
380.2778, 10275.55
380.7599, 10271.94
381.2420, 10258.99
381.7242, 10236.90
382.2063, 10223.78
382.6884, 10240.48
383.1705, 10276.99
383.6526, 10294.81
384.1347, 10286.04
384.6169, 10274.56
385.0990, 10297.46
385.5811, 10344.38
386.0632, 10381.09
386.5453, 10385.57
387.0274, 10373.42
387.5096, 10362.28
387.9917, 10352.63
388.4738, 10347.15
388.9559, 10350.72
389.4380, 10359.24
389.9201, 10367.47
390.4023, 10375.29
390.8844, 10380.84
391.3665, 10381.41
391.8486, 10378.31
392.3307, 10376.16
392.8128, 10376.93
393.2950, 10379.44
393.7771, 10382.78
394.2592, 10386.41
394.7413, 10391.37
395.2234, 10398.50
395.7055, 10406.82
396.1877, 10414.93
396.6698, 10424.71
397.1519, 10432.04
397.6340, 10435.67
398.1161, 10435.44
398.5982, 10433.06
399.0804, 10426.01
399.5625, 10418.75
400.0446, 10414.64
400.5267, 10416.83
401.0088, 10418.10
401.4909, 10416.99
401.9731, 10414.67
402.4552, 10415.99
402.9373, 10423.62
403.4194, 10430.69
403.9015, 10432.68
404.3836, 10426.56
404.8658, 10427.49
405.3479, 10436.63
405.8300, 10450.94
406.3121, 10467.13
406.7942, 10485.54
407.2763, 10502.59
407.7585, 10519.00
408.2406, 10533.12
408.7227, 10532.40
409.2048, 10514.91
409.6869, 10497.59
410.1690, 10497.63
410.6512, 10511.73
411.1333, 10524.10
411.6154, 10531.88
412.0975, 10536.63
412.5796, 10539.79
413.0617, 10541.76
413.5439, 10544.22
414.0260, 10549.12
414.5081, 10554.91
414.9902, 10558.99
415.4723, 10561.10
415.9544, 10563.47
416.4366, 10568.94
416.9187, 10575.64
417.4008, 10580.70
417.8829, 10581.96
418.3650, 10582.21
418.8471, 10584.14
419.3293, 10587.02
419.8114, 10586.68
420.2935, 10575.65
420.7756, 10564.41
421.2577, 10560.60
421.7398, 10568.83
422.2220, 10577.81
422.7041, 10586.81
423.1862, 10594.88
423.6683, 10600.31
424.1504, 10600.45
424.6325, 10600.45
425.1147, 10600.25
425.5968, 10599.10
426.0789, 10605.54
426.5610, 10629.46
427.0431, 10652.06
427.5252, 10655.82
428.0074, 10628.39
428.4895, 10610.84
428.9716, 10609.10
429.4537, 10619.68
429.9358, 10634.10
430.4179, 10654.74
430.9001, 10670.41
431.3822, 10672.78
431.8643, 10661.57
432.3464, 10655.41
432.8285, 10655.00
433.3106, 10657.60
433.7928, 10659.38
434.2749, 10660.72
434.7570, 10665.69
435.2391, 10679.32
435.7212, 10694.40
436.2033, 10692.39
436.6855, 10675.28
437.1676, 10662.33
437.6497, 10672.46
438.1318, 10694.16
438.6139, 10709.58
439.0960, 10714.98
439.5782, 10717.33
440.0603, 10722.31
440.5424, 10728.30
441.0245, 10732.19
441.5066, 10727.30
441.9887, 10724.32
442.4709, 10731.40
442.9530, 10748.28
443.4351, 10763.71
443.9172, 10776.38
444.3993, 10783.95
444.8814, 10784.16
445.3636, 10766.79
445.8457, 10755.20
446.3278, 10751.60
446.8099, 10755.99
447.2920, 10768.57
447.7741, 10801.72
448.2563, 10829.31
448.7384, 10841.50
449.2205, 10835.92
449.7026, 10835.71
450.1847, 10841.74
450.6668, 10852.26
451.1490, 10865.59
451.6311, 10881.55
452.1132, 10902.08
452.5953, 10928.93
453.0774, 10959.69
453.5595, 10989.46
454.0417, 11018.30
454.5238, 11046.32
455.0059, 11072.27
455.4880, 11096.95
455.9701, 11126.10
456.4522, 11159.74
456.9344, 11197.42
457.4165, 11241.17
457.8986, 11288.97
458.3807, 11333.76
458.8628, 11372.75
459.3449, 11408.96
459.8271, 11445.41
460.3092, 11482.24
460.7913, 11520.71
461.2734, 11558.48
461.7555, 11599.92
462.2376, 11649.48
462.7198, 11707.87
463.2019, 11771.93
463.6840, 11835.11
464.1661, 11904.26
464.6482, 11987.67
465.1303, 12103.39
465.6125, 12216.71
466.0946, 12314.39
466.5767, 12399.30
467.0588, 12492.12
467.5409, 12596.24
468.0230, 12707.14
468.5052, 12825.67
468.9873, 12963.81
469.4694, 13083.29
469.9515, 13199.20
470.4336, 13283.66
470.9157, 13296.20
471.3979, 13229.19
471.8800, 13113.86
472.3621, 12948.50
472.8442, 12742.58
473.3263, 12525.21
473.8084, 12292.97
474.2906, 12075.21
474.7727, 11893.76
475.2548, 11745.15
475.7369, 11612.01
476.2190, 11490.91
476.7011, 11390.21
477.1833, 11323.80
477.6654, 11285.09
478.1475, 11256.16
478.6296, 11232.92
479.1117, 11213.53
479.5938, 11197.62
480.0760, 11184.58
480.5581, 11170.88
481.0402, 11154.26
481.5223, 11136.17
482.0044, 11116.78
482.4865, 11094.12
482.9687, 11076.42
483.4508, 11067.04
483.9329, 11064.15
484.4150, 11065.20
484.8971, 11072.72
485.3792, 11080.87
485.8614, 11091.12
486.3435, 11102.83
486.8256, 11104.37
487.3077, 11084.48
487.7898, 11067.67
488.2719, 11070.45
488.7541, 11104.94
489.2362, 11117.58
489.7183, 11099.60
490.2004, 11070.96
490.6825, 11062.28
491.1646, 11075.35
491.6468, 11090.37
492.1289, 11102.83
492.6110, 11112.49
493.0931, 11119.90
493.5752, 11125.03
494.0573, 11125.88
494.5395, 11115.33
495.0216, 11100.39
495.5037, 11097.85
495.9858, 11111.77
496.4679, 11126.39
496.9500, 11125.79
497.4322, 11116.42
497.9143, 11108.89
498.3964, 11108.02
498.8785, 11109.77
499.3606, 11113.99
499.8427, 11119.75
500.3249, 11122.23
500.8070, 11115.51
501.2891, 11108.55
501.7712, 11105.29
502.2533, 11104.82
502.7354, 11111.80
503.2176, 11136.29
503.6997, 11163.24
504.1818, 11176.58
504.6639, 11166.68
505.1460, 11161.07
505.6281, 11166.26
506.1103, 11178.03
506.5924, 11177.67
507.0745, 11160.53
507.5566, 11147.13
508.0387, 11150.74
508.5208, 11170.25
509.0030, 11184.05
509.4851, 11192.02
509.9672, 11194.95
510.4493, 11192.91
510.9314, 11186.53
511.4135, 11176.20
511.8957, 11158.02
512.3778, 11143.64
512.8599, 11152.61
513.3420, 11177.82
513.8242, 11198.09
514.3063, 11200.84
514.7884, 11195.97
515.2705, 11188.43
515.7526, 11178.60
516.2347, 11173.70
516.7169, 11181.04
517.1990, 11191.68
517.6811, 11198.71
518.1632, 11196.65
518.6453, 11196.47
519.1274, 11200.90
519.6096, 11207.33
520.0917, 11211.05
520.5738, 11211.16
521.0559, 11209.44
521.5380, 11203.87
522.0201, 11195.27
522.5023, 11198.89
522.9844, 11217.78
523.4665, 11240.72
523.9486, 11262.38
524.4307, 11282.57
524.9128, 11291.86
525.3950, 11287.00
525.8771, 11279.85
526.3592, 11291.11
526.8413, 11314.53
527.3234, 11327.30
527.8055, 11313.00
528.2877, 11291.40
528.7698, 11286.15
529.2519, 11294.05
529.7340, 11301.30
530.2161, 11296.82
530.6982, 11291.03
531.1804, 11292.72
531.6625, 11304.35
532.1446, 11315.13
532.6267, 11322.12
533.1088, 11326.53
533.5909, 11329.41
534.0731, 11330.75
534.5552, 11330.94
535.0373, 11326.07
535.5194, 11320.75
536.0015, 11328.34
536.4836, 11357.87
536.9658, 11381.57
537.4479, 11387.99
537.9300, 11377.88
538.4121, 11369.23
538.8942, 11360.98
539.3763, 11358.34
539.8585, 11370.58
540.3406, 11394.06
540.8227, 11407.18
541.3048, 11405.75
541.7869, 11398.96
542.2690, 11395.96
542.7512, 11396.54
543.2333, 11400.33
543.7154, 11411.89
544.1975, 11422.72
544.6796, 11425.60
545.1617, 11421.64
545.6439, 11415.41
546.1260, 11403.29
546.6081, 11393.97
547.0902, 11393.67
547.5723, 11405.38
548.0544, 11416.39
548.5366, 11428.05
549.0187, 11436.57
549.5008, 11438.11
549.9829, 11425.35
550.4650, 11419.69
550.9471, 11427.04
551.4293, 11440.37
551.9114, 11440.94
552.3935, 11425.18
552.8756, 11414.65
553.3577, 11421.86
553.8398, 11441.00
554.3220, 11441.45
554.8041, 11422.54
555.2862, 11404.89
555.7683, 11409.51
556.2504, 11425.90
556.7325, 11431.28
557.2147, 11420.81
557.6968, 11409.48
558.1789, 11409.59
558.6610, 11417.01
559.1431, 11425.65
559.6252, 11438.02
560.1074, 11446.25
560.5895, 11441.45
561.0716, 11428.88
561.5537, 11426.29
562.0358, 11454.37
562.5179, 11476.21
563.0001, 11474.80
563.4822, 11446.83
563.9643, 11432.58
564.4464, 11437.14
564.9285, 11448.38
565.4106, 11459.21
565.8928, 11470.63
566.3749, 11473.18
566.8570, 11462.44
567.3391, 11451.01
567.8212, 11461.82
568.3033, 11491.85
568.7855, 11518.40
569.2676, 11536.16
569.7497, 11544.10
570.2318, 11533.88
570.7139, 11510.26
571.1960, 11493.40
571.6782, 11504.05
572.1603, 11520.50
572.6424, 11521.07
573.1245, 11502.36
573.6066, 11494.51
574.0887, 11521.18
574.5709, 11556.10
575.0530, 11579.00
575.5351, 11582.30
576.0172, 11580.67
576.4993, 11570.09
576.9814, 11557.10
577.4636, 11552.61
577.9457, 11558.93
578.4278, 11568.27
578.9099, 11581.20
579.3920, 11594.86
579.8741, 11594.97
580.3563, 11580.24
580.8384, 11569.03
581.3205, 11576.01
581.8026, 11594.79
582.2847, 11608.22
582.7668, 11615.86
583.2490, 11616.82
583.7311, 11603.21
584.2132, 11585.21
584.6953, 11576.28
585.1774, 11581.83
585.6595, 11591.63
586.1416, 11601.33
586.6237, 11611.72
