##NAMES=Sulphohalite
##RRUFFID=R050479
##IDEAL CHEMISTRY=Na_6_(S^6+^O_4_)_2_ClF
##LOCALITY=Searles Lake, Trona, San Bernardino County, California, USA
##OWNER=RRUFF
##SOURCE=California Institute of Technology
##DESCRIPTION=A pair of colorless octahedra
##STATUS=The identification of this mineral has been confirmed by X-ray diffraction and chemical analysis
##URL=rruff.info/R050479
##MEASURED CHEMISTRY=Na_6.00_(S_1.00_O_4_)_2_F_1.00_Cl_1.00_
93.78320, 194.5040
94.26532, 192.9249
94.74744, 193.6736
95.22955, 196.2821
95.71167, 199.9582
96.19379, 202.3761
96.67590, 203.7058
97.15802, 204.8808
97.64014, 206.1776
98.12225, 207.3940
98.60437, 208.1945
99.08649, 208.4971
99.56860, 208.4430
100.0507, 208.3509
100.5328, 208.0018
101.0150, 207.1935
101.4971, 205.4472
101.9792, 202.6916
102.4613, 200.6484
102.9434, 200.6801
103.4255, 201.3164
103.9077, 201.5004
104.3898, 200.8550
104.8719, 199.8066
105.3540, 199.2257
105.8361, 199.3531
106.3182, 199.5261
106.8004, 199.6102
107.2825, 199.6286
107.7646, 199.5761
108.2467, 199.4295
108.7288, 199.2004
109.2109, 199.1211
109.6931, 199.5584
110.1752, 199.7680
110.6573, 199.3654
111.1394, 198.5180
111.6215, 197.7052
112.1036, 197.3773
112.5858, 197.6278
113.0679, 197.5856
113.5500, 197.0716
114.0321, 196.4191
114.5142, 195.8641
114.9964, 195.4435
115.4785, 195.0390
115.9606, 194.4159
116.4427, 193.5843
116.9248, 193.0791
117.4069, 193.2772
117.8891, 193.8704
118.3712, 194.2027
118.8533, 194.0459
119.3354, 193.7478
119.8175, 193.5405
120.2996, 193.4299
120.7818, 193.5845
121.2639, 194.3599
121.7460, 195.7953
122.2281, 196.7497
122.7102, 196.7275
123.1923, 196.3177
123.6745, 195.6232
124.1566, 194.7068
124.6387, 193.8476
125.1208, 193.4956
125.6029, 193.9809
126.0850, 194.2902
126.5672, 194.3269
127.0493, 194.2000
127.5314, 193.8936
128.0135, 193.4145
128.4956, 192.9358
128.9777, 192.9464
129.4599, 193.8214
129.9420, 194.8239
130.4241, 196.0372
130.9062, 197.3309
131.3883, 198.6147
131.8705, 199.9092
132.3526, 201.0686
132.8347, 201.2820
133.3168, 200.1218
133.7989, 198.6971
134.2810, 197.2968
134.7632, 195.9594
135.2453, 194.8282
135.7274, 193.9770
136.2095, 193.4429
136.6916, 193.1882
137.1737, 193.3356
137.6559, 193.6867
138.1380, 194.0775
138.6201, 194.5235
139.1022, 194.9357
139.5843, 195.0913
140.0664, 195.1944
140.5486, 195.6070
141.0307, 196.9004
141.5128, 198.5537
141.9949, 198.8817
142.4770, 196.9659
142.9591, 195.0232
143.4413, 194.0556
143.9234, 193.7524
144.4055, 193.5025
144.8876, 192.8026
145.3697, 191.6479
145.8518, 190.9765
146.3340, 191.4067
146.8161, 191.8087
147.2982, 191.7366
147.7803, 191.2985
148.2624, 190.9223
148.7445, 191.0941
149.2267, 192.0890
149.7088, 192.4384
150.1909, 191.7779
150.6730, 190.9205
151.1551, 190.1729
151.6372, 189.6399
152.1194, 189.4292
152.6015, 189.7214
153.0836, 190.8254
153.5657, 191.6095
154.0478, 191.9747
154.5299, 192.0702
155.0121, 191.9664
155.4942, 191.6647
155.9763, 191.3405
156.4584, 191.3526
156.9405, 191.7598
157.4227, 191.9186
157.9048, 191.3723
158.3869, 190.4665
158.8690, 190.0205
159.3511, 190.4796
159.8332, 191.0854
160.3154, 190.6975
160.7975, 189.2683
161.2796, 188.2108
161.7617, 188.8097
162.2438, 190.9064
162.7259, 192.3422
163.2081, 192.1001
163.6902, 191.4102
164.1723, 191.2436
164.6544, 191.6888
165.1365, 192.1782
165.6186, 191.9355
166.1008, 190.6766
166.5829, 189.9905
167.0650, 190.7442
167.5471, 191.7516
168.0292, 192.2773
168.5113, 192.1409
168.9935, 191.6960
169.4756, 191.5210
169.9577, 191.7374
170.4398, 192.0193
170.9219, 192.4482
171.4040, 192.8621
171.8862, 193.0274
172.3683, 192.8763
172.8504, 192.6583
173.3325, 192.9791
173.8146, 194.6385
174.2967, 195.9047
174.7789, 196.7191
175.2610, 197.1263
175.7431, 197.0349
176.2252, 196.3731
176.7073, 195.4322
177.1894, 195.2057
177.6716, 196.3620
178.1537, 197.3242
178.6358, 197.7399
179.1179, 197.7632
179.6000, 197.6750
180.0821, 197.5885
180.5643, 197.5080
181.0464, 197.4297
181.5285, 197.2181
182.0106, 197.1897
182.4927, 197.5970
182.9749, 198.3570
183.4570, 199.0683
183.9391, 199.4223
184.4212, 199.6997
184.9033, 200.5383
185.3854, 202.4317
185.8676, 204.0887
186.3497, 204.1342
186.8318, 202.5144
187.3139, 201.1795
187.7960, 201.0787
188.2781, 201.7321
188.7603, 202.7682
189.2424, 204.2986
189.7245, 205.7955
190.2066, 206.5171
190.6887, 206.2899
191.1708, 205.9003
191.6530, 205.1911
192.1351, 204.6457
192.6172, 204.7807
193.0993, 205.8298
193.5814, 207.4299
194.0635, 208.8522
194.5457, 209.9656
195.0278, 211.1579
195.5099, 212.5553
195.9920, 214.0353
196.4741, 215.4839
196.9562, 216.8503
197.4384, 218.1542
197.9205, 219.4915
198.4026, 221.1931
198.8847, 222.4180
199.3668, 222.9560
199.8489, 223.0378
200.3311, 222.8847
200.8132, 222.6036
201.2953, 222.2150
201.7774, 221.8033
202.2595, 221.8426
202.7416, 221.2980
203.2238, 219.8428
203.7059, 217.7834
204.1880, 215.4465
204.6701, 212.9839
205.1522, 210.4863
205.6344, 208.3941
206.1165, 206.7963
206.5986, 205.4164
207.0807, 204.3542
207.5628, 203.4624
208.0449, 202.4225
208.5271, 201.0175
209.0092, 199.4199
209.4913, 198.3782
209.9734, 198.2286
210.4555, 198.0982
210.9376, 197.6712
211.4198, 197.0232
211.9019, 196.3313
212.3840, 195.6386
212.8661, 195.0167
213.3482, 194.6593
213.8303, 194.7886
214.3125, 194.8156
214.7946, 194.2579
215.2767, 193.2370
215.7588, 192.4698
216.2409, 192.4803
216.7230, 192.7759
217.2052, 192.3941
217.6873, 191.0057
218.1694, 189.6272
218.6515, 189.1230
219.1336, 189.4592
219.6157, 189.7772
220.0979, 189.6548
220.5800, 189.4270
221.0621, 189.5136
221.5442, 190.0333
222.0263, 190.5639
222.5084, 190.7191
222.9906, 190.4853
223.4727, 190.0210
223.9548, 189.1217
224.4369, 188.1535
224.9190, 187.2714
225.4011, 186.4837
225.8833, 186.0665
226.3654, 186.6047
226.8475, 188.4257
227.3296, 189.6014
227.8117, 189.0960
228.2938, 188.2155
228.7760, 187.7601
229.2581, 187.8877
229.7402, 188.1797
230.2223, 188.0597
230.7044, 187.3840
231.1866, 186.7463
231.6687, 186.0199
232.1508, 185.4763
232.6329, 185.4598
233.1150, 185.9638
233.5971, 186.5133
234.0793, 186.3319
234.5614, 184.8597
235.0435, 184.0660
235.5256, 184.5007
236.0077, 185.1479
236.4898, 185.3531
236.9720, 185.0223
237.4541, 184.5368
237.9362, 184.4515
238.4183, 185.0901
238.9004, 185.3274
239.3825, 184.9298
239.8647, 184.3836
240.3468, 183.9390
240.8289, 183.6575
241.3110, 183.5257
241.7931, 183.5637
242.2752, 183.9612
242.7574, 183.9267
243.2395, 182.8332
243.7216, 181.8369
244.2037, 181.9045
244.6858, 183.0275
245.1679, 184.2737
245.6501, 184.5829
246.1322, 183.6493
246.6143, 182.9118
247.0964, 182.1516
247.5785, 181.7194
248.0606, 182.1573
248.5428, 183.3601
249.0249, 184.4055
249.5070, 184.3197
249.9891, 182.8626
250.4712, 181.9211
250.9533, 181.9474
251.4355, 182.1034
251.9176, 181.7833
252.3997, 180.9849
252.8818, 180.1149
253.3639, 179.4459
253.8460, 179.0200
254.3282, 178.9952
254.8103, 179.7565
255.2924, 180.6043
255.7745, 181.1802
256.2566, 181.4439
256.7387, 181.2430
257.2209, 180.2119
257.7030, 178.5847
258.1851, 177.8097
258.6672, 178.7160
259.1493, 179.8026
259.6314, 179.9162
260.1136, 179.1525
260.5957, 178.5107
261.0778, 178.7126
261.5599, 179.4262
262.0420, 179.5581
262.5241, 178.5621
263.0063, 177.6184
263.4884, 177.7808
263.9705, 178.9062
264.4526, 179.7129
264.9347, 179.4299
265.4168, 178.5543
265.8990, 178.0986
266.3811, 178.1868
266.8632, 178.4466
267.3453, 178.7626
267.8275, 179.0949
268.3096, 179.0876
268.7917, 178.4216
269.2738, 177.5102
269.7559, 176.8720
270.2380, 176.5169
270.7202, 176.4256
271.2023, 176.7691
271.6844, 177.4590
272.1665, 177.8548
272.6486, 177.5910
273.1307, 177.1937
273.6129, 177.2290
274.0950, 177.6938
274.5771, 178.1563
275.0592, 178.4244
275.5413, 178.4823
276.0234, 178.1582
276.5056, 177.0305
276.9877, 176.0529
277.4698, 176.1057
277.9519, 176.9968
278.4340, 177.7550
278.9161, 177.6232
279.3983, 176.8262
279.8804, 176.4104
280.3625, 176.6596
280.8446, 176.9491
281.3267, 176.8671
281.8088, 176.5305
282.2910, 176.2031
282.7731, 175.9256
283.2552, 175.7702
283.7373, 176.0801
284.2194, 177.2396
284.7015, 178.1276
285.1837, 178.1606
285.6658, 177.6410
286.1479, 176.9567
286.6300, 176.1749
287.1121, 175.4444
287.5942, 175.1629
288.0764, 175.5259
288.5585, 175.8861
289.0406, 175.9848
289.5227, 175.9677
290.0048, 175.9805
290.4869, 176.0785
290.9691, 176.2165
291.4512, 176.3687
291.9333, 176.6232
292.4154, 176.6067
292.8975, 175.8475
293.3796, 175.0061
293.8618, 174.6651
294.3439, 174.9712
294.8260, 175.4543
295.3081, 175.4349
295.7902, 174.7542
296.2723, 174.3284
296.7545, 174.6664
297.2366, 175.0492
297.7187, 174.9814
298.2008, 174.4595
298.6829, 173.9382
299.1650, 173.9613
299.6472, 174.6049
300.1293, 175.0616
300.6114, 175.2291
301.0935, 175.2304
301.5756, 175.0568
302.0577, 174.7477
302.5399, 174.4021
303.0220, 174.1057
303.5041, 173.8550
303.9862, 173.5367
304.4683, 172.9307
304.9504, 172.5315
305.4326, 172.7174
305.9147, 173.2122
306.3968, 173.4524
306.8789, 172.9635
307.3610, 172.0375
307.8431, 172.0530
308.3253, 173.9724
308.8074, 175.3107
309.2895, 175.1378
309.7716, 174.1745
310.2537, 173.2010
310.7358, 172.5249
311.2180, 172.1589
311.7001, 172.1788
312.1822, 172.7585
312.6643, 173.3503
313.1464, 174.1046
313.6285, 174.6811
314.1107, 174.7245
314.5928, 174.1516
315.0749, 173.3046
315.5570, 172.6171
316.0392, 172.0620
316.5213, 171.7737
317.0034, 172.0560
317.4855, 172.3843
317.9676, 172.4157
318.4497, 172.1599
318.9319, 171.9198
319.4140, 172.0855
319.8961, 172.7296
320.3782, 173.0661
320.8603, 173.0686
321.3424, 172.7418
321.8246, 171.6543
322.3067, 170.2009
322.7888, 169.3208
323.2709, 169.9185
323.7530, 171.7219
324.2351, 172.6367
324.7173, 171.9157
325.1994, 171.3201
325.6815, 171.5804
326.1636, 172.2432
326.6457, 172.6230
327.1278, 172.3299
327.6100, 171.7050
328.0921, 171.6678
328.5742, 172.6912
329.0563, 173.2637
329.5384, 172.7439
330.0205, 171.8398
330.5027, 171.1460
330.9848, 170.8312
331.4669, 170.6620
331.9490, 170.2368
332.4311, 169.4128
332.9132, 168.9655
333.3954, 169.5484
333.8775, 170.1482
334.3596, 170.0925
334.8417, 169.4107
335.3238, 168.7281
335.8059, 168.7222
336.2881, 169.4061
336.7702, 169.8044
337.2523, 169.6003
337.7344, 169.4359
338.2165, 169.6830
338.6986, 170.1983
339.1808, 170.6344
339.6629, 170.7708
340.1450, 170.6667
340.6271, 170.5381
341.1092, 170.3772
341.5913, 170.2047
342.0735, 170.0184
342.5556, 169.8293
343.0377, 169.6351
343.5198, 169.4191
344.0019, 169.2459
344.4840, 169.2400
344.9662, 169.4368
345.4483, 169.6436
345.9304, 169.8735
346.4125, 170.0487
346.8946, 170.1040
347.3767, 170.0299
347.8589, 169.8666
348.3410, 169.5959
348.8231, 169.2222
349.3052, 168.9778
349.7873, 168.9538
350.2694, 169.0068
350.7516, 169.0390
351.2337, 169.0554
351.7158, 169.0873
352.1979, 169.2617
352.6800, 169.4735
353.1621, 169.3021
353.6443, 168.5342
354.1264, 167.8578
354.6085, 167.7337
355.0906, 167.9487
355.5727, 168.2362
356.0548, 168.6700
356.5370, 168.9471
357.0191, 168.4250
357.5012, 166.9956
357.9833, 166.0217
358.4654, 166.4410
358.9475, 167.4086
359.4297, 167.9137
359.9118, 167.8131
360.3939, 167.5309
360.8760, 167.3496
361.3581, 167.2474
361.8402, 167.1074
362.3224, 166.8923
362.8045, 166.6477
363.2866, 166.3500
363.7687, 166.0150
364.2508, 165.8796
364.7329, 166.2337
365.2151, 166.7844
365.6972, 166.9946
366.1793, 166.7711
366.6614, 166.5139
367.1436, 166.6621
367.6257, 167.0164
368.1078, 166.9527
368.5899, 165.8611
369.0720, 164.7634
369.5541, 164.6073
370.0363, 165.2684
370.5184, 165.9500
371.0005, 166.3489
371.4826, 166.4721
371.9647, 166.3393
372.4468, 165.8619
372.9290, 165.3907
373.4111, 165.0722
373.8932, 164.8491
374.3753, 164.5855
374.8574, 164.2253
375.3395, 163.9461
375.8217, 164.0088
376.3038, 164.4496
376.7859, 164.9033
377.2680, 165.5909
377.7501, 166.1038
378.2322, 165.9115
378.7144, 165.0768
379.1965, 164.3250
379.6786, 164.2358
380.1607, 164.7357
380.6428, 164.9215
381.1249, 164.7968
381.6071, 164.4111
382.0892, 163.4221
382.5713, 162.2244
383.0534, 161.6095
383.5355, 161.9411
384.0176, 162.8373
384.4998, 163.4909
384.9819, 163.8817
385.4640, 164.0237
385.9461, 163.6932
386.4282, 163.2520
386.9103, 163.0852
387.3925, 163.2079
387.8746, 163.2490
388.3567, 162.7383
388.8388, 161.5005
389.3209, 161.0171
389.8030, 161.9564
390.2852, 162.8372
390.7673, 163.0455
391.2494, 162.7659
391.7315, 162.4572
392.2136, 162.3930
392.6957, 162.4804
393.1779, 162.3346
393.6600, 161.3734
394.1421, 161.0403
394.6242, 162.1319
395.1063, 163.4810
395.5884, 163.9593
396.0706, 163.3241
396.5527, 162.2398
397.0348, 161.5547
397.5169, 161.3595
397.9990, 161.2151
398.4811, 161.1076
398.9633, 161.0666
399.4454, 161.1306
399.9275, 161.2745
400.4096, 161.4338
400.8917, 161.5526
401.3738, 161.6585
401.8560, 161.9407
402.3381, 162.7354
402.8202, 163.0407
403.3023, 162.1756
403.7844, 160.9150
404.2665, 160.0400
404.7487, 159.7869
405.2308, 159.8575
405.7129, 159.9781
406.1950, 160.1614
406.6771, 160.1573
407.1592, 159.6519
407.6414, 159.2335
408.1235, 159.4384
408.6056, 160.1582
409.0877, 160.7706
409.5698, 160.8880
410.0519, 160.6491
410.5341, 160.3042
411.0162, 159.7871
411.4983, 159.4490
411.9804, 159.7065
412.4625, 160.2395
412.9446, 160.5153
413.4268, 160.3937
413.9089, 160.0933
414.3910, 159.7074
414.8731, 159.2657
415.3553, 158.8960
415.8374, 158.6064
416.3195, 158.4626
416.8016, 158.6421
417.2837, 159.1613
417.7658, 159.5831
418.2480, 159.8066
418.7301, 159.8651
419.2122, 159.8502
419.6943, 159.7601
420.1764, 159.3439
420.6585, 158.2168
421.1407, 156.5220
421.6228, 155.7938
422.1049, 156.7756
422.5870, 157.7947
423.0691, 158.2027
423.5512, 158.1900
424.0334, 158.1338
424.5155, 158.1859
424.9976, 158.2248
425.4797, 158.0027
425.9618, 157.2299
426.4439, 156.7930
426.9261, 157.0945
427.4082, 157.4099
427.8903, 157.0571
428.3724, 156.1477
428.8545, 155.4095
429.3366, 155.4690
429.8188, 156.2876
430.3009, 156.9663
430.7830, 157.4793
431.2651, 157.8700
431.7472, 158.2383
432.2293, 158.4489
432.7115, 158.2423
433.1936, 157.5378
433.6757, 156.6758
434.1578, 156.2347
434.6399, 156.3297
435.1220, 156.4333
435.6042, 156.4564
436.0863, 156.5235
436.5684, 156.8025
437.0505, 157.1991
437.5326, 157.4059
438.0147, 157.1066
438.4969, 156.4854
438.9790, 156.2119
439.4611, 156.3819
439.9432, 156.6608
440.4253, 157.1188
440.9074, 157.5215
441.3896, 157.5170
441.8717, 156.9545
442.3538, 156.4399
442.8359, 156.6866
443.3180, 157.5352
443.8001, 157.9805
444.2823, 157.7128
444.7644, 157.2209
445.2465, 156.8875
445.7286, 156.7039
446.2107, 156.7277
446.6928, 157.1626
447.1750, 157.6846
447.6571, 157.8849
448.1392, 157.8024
448.6213, 157.9087
449.1034, 158.5649
449.5855, 159.4718
450.0677, 159.7138
450.5498, 158.8370
451.0319, 158.3683
451.5140, 158.7980
451.9961, 159.7971
452.4782, 161.1845
452.9604, 162.8604
453.4425, 164.2846
453.9246, 164.8240
454.4067, 164.3487
454.8888, 164.3662
455.3709, 165.1196
455.8531, 166.0038
456.3352, 166.9809
456.8173, 167.9012
457.2994, 168.4464
457.7815, 168.4614
458.2636, 168.3499
458.7458, 169.0007
459.2279, 170.8149
459.7100, 172.5865
460.1921, 174.3379
460.6742, 175.9965
461.1563, 177.3045
461.6385, 178.4328
462.1206, 179.9130
462.6027, 182.1879
463.0848, 185.1473
463.5669, 188.1449
464.0491, 190.7785
464.5312, 194.2643
465.0133, 199.2752
465.4954, 205.1195
465.9775, 211.0476
466.4597, 216.8832
466.9418, 223.3494
467.4239, 231.1968
467.9060, 240.3333
468.3881, 250.4074
468.8702, 261.9099
469.3524, 273.3609
469.8345, 284.5001
470.3166, 294.7975
470.7987, 301.9174
471.2808, 305.8223
471.7629, 305.9166
472.2451, 300.9423
472.7272, 291.3859
473.2093, 279.3404
473.6914, 265.1112
474.1735, 249.8849
474.6556, 235.6864
475.1378, 222.2424
475.6199, 210.4332
476.1020, 200.4411
476.5841, 192.0643
477.0662, 185.3875
477.5483, 180.2679
478.0305, 175.9221
478.5126, 171.7929
478.9947, 167.9191
479.4768, 164.8161
479.9589, 162.7762
480.4410, 161.1325
480.9232, 159.9664
481.4053, 159.0705
481.8874, 158.2758
482.3695, 157.5259
482.8516, 156.8416
483.3337, 156.2947
483.8159, 155.9305
484.2980, 155.3071
484.7801, 154.1082
485.2622, 153.0046
485.7443, 152.2471
486.2264, 151.7336
486.7086, 151.2590
487.1907, 150.7053
487.6728, 150.2768
488.1549, 150.4124
488.6370, 151.1659
489.1191, 151.5833
489.6013, 151.3554
490.0834, 150.8197
490.5655, 150.1441
491.0476, 149.3854
491.5297, 148.9481
492.0118, 149.2710
492.4940, 149.8479
492.9761, 150.0384
493.4582, 149.8410
493.9403, 149.5128
494.4224, 149.1276
494.9045, 148.7465
495.3867, 148.5569
495.8688, 148.6637
496.3509, 148.6633
496.8330, 148.3070
497.3151, 147.8849
497.7972, 147.7956
498.2794, 148.0329
498.7615, 148.1585
499.2436, 147.7326
499.7257, 146.8138
500.2078, 146.4698
500.6899, 147.4404
501.1721, 148.0902
501.6542, 147.9123
502.1363, 147.4063
502.6184, 147.0770
503.1005, 147.0733
503.5826, 147.2883
504.0648, 147.7151
504.5469, 148.4302
505.0290, 148.5775
505.5111, 147.7553
505.9932, 146.8396
506.4753, 145.9814
506.9575, 145.3127
507.4396, 145.0943
507.9217, 145.5175
508.4038, 146.0970
508.8859, 146.2344
509.3680, 145.9493
509.8502, 145.5859
510.3323, 145.1496
510.8144, 144.7629
511.2965, 144.5722
511.7786, 144.5458
512.2607, 144.5276
512.7429, 144.4453
513.2250, 144.3821
513.7071, 144.4995
514.1892, 144.7245
514.6713, 144.7224
515.1534, 144.3089
515.6356, 143.6950
516.1177, 143.2962
516.5998, 143.2099
517.0819, 143.1297
517.5640, 143.1282
518.0461, 143.0664
518.5283, 142.7535
519.0104, 142.2794
519.4925, 141.9548
519.9746, 142.0037
520.4567, 142.2982
520.9388, 142.3199
521.4210, 141.6968
521.9031, 141.5102
522.3852, 142.3544
522.8673, 143.2646
523.3494, 143.4737
523.8315, 143.0099
524.3137, 142.5000
524.7958, 142.5626
525.2779, 142.9390
525.7600, 142.5532
526.2421, 141.0971
526.7242, 140.0444
527.2064, 140.3204
527.6885, 141.2252
528.1706, 141.9224
528.6527, 142.3528
529.1348, 142.5833
529.6169, 142.5500
530.0991, 142.3754
530.5812, 142.2834
531.0633, 142.2992
531.5454, 142.2567
532.0275, 142.0326
532.5096, 141.6445
532.9918, 141.2163
533.4739, 140.5862
533.9560, 140.1301
534.4381, 139.9746
534.9202, 140.0043
535.4023, 140.1177
535.8845, 140.2831
536.3666, 140.5096
536.8487, 140.8511
537.3308, 141.3071
537.8129, 141.3627
538.2951, 140.6392
538.7772, 139.9964
539.2593, 139.5138
539.7415, 139.2642
540.2236, 139.4471
540.7057, 140.0923
541.1878, 140.7019
541.6699, 140.7000
542.1520, 140.1779
542.6342, 139.7360
543.1163, 139.3541
543.5984, 139.2088
544.0805, 139.7014
544.5626, 140.4558
545.0447, 140.7433
545.5269, 140.3060
546.0090, 139.6998
546.4911, 139.0430
546.9732, 138.4849
547.4553, 138.4524
547.9374, 139.0403
548.4196, 139.6123
548.9017, 139.5023
549.3838, 138.6882
549.8659, 138.2547
550.3480, 138.6216
550.8301, 138.7977
551.3123, 138.2863
551.7944, 137.5345
552.2765, 137.0545
552.7586, 136.9986
553.2407, 137.2645
553.7228, 137.8580
554.2050, 138.8267
554.6871, 139.2187
555.1692, 138.6838
555.6513, 138.0444
556.1334, 137.4030
556.6155, 136.9214
557.0977, 136.8532
557.5798, 137.3002
558.0619, 137.8958
558.5440, 138.4869
559.0261, 138.9743
559.5082, 138.8710
559.9904, 137.9756
560.4725, 137.1050
560.9546, 136.9758
561.4367, 137.4218
561.9188, 137.5119
562.4009, 136.7598
562.8831, 136.2534
563.3652, 136.7243
563.8473, 137.5474
564.3294, 137.7982
564.8115, 137.3125
565.2936, 136.6352
565.7758, 136.3048
566.2579, 136.3218
566.7400, 136.3154
567.2221, 136.2947
567.7042, 136.2366
568.1863, 136.0775
568.6685, 135.9128
569.1506, 135.8851
569.6327, 136.0049
570.1148, 136.0768
570.5969, 135.8013
571.0790, 135.2690
571.5612, 135.0965
572.0433, 135.3951
572.5254, 135.7548
573.0075, 135.9991
573.4896, 136.1625
573.9717, 136.3089
574.4539, 136.4599
574.9360, 136.5274
575.4181, 136.4075
575.9002, 136.2088
576.3823, 136.1130
576.8644, 136.1265
577.3466, 136.0712
577.8287, 135.7982
578.3108, 135.3702
578.7929, 135.0959
579.2750, 135.1600
579.7571, 135.1373
580.2393, 134.8486
580.7214, 134.5816
581.2035, 134.6531
581.6856, 135.0005
582.1677, 135.2346
582.6498, 135.0065
583.1320, 134.5002
583.6141, 134.4268
584.0962, 134.9777
584.5783, 135.2914
585.0604, 134.8053
585.5425, 134.2498
586.0247, 134.3762
586.5068, 135.1344
586.9889, 135.6581
587.4710, 135.2366
587.9531, 134.6072
588.4352, 134.7945
588.9174, 135.6494
589.3995, 136.2322
