##NAMES=Sulphur
##RRUFFID=R050006
##IDEAL CHEMISTRY=S
##LOCALITY=San Felipe, Mexicali, Baja California Norte, Mexico
##OWNER=RRUFF
##SOURCE=Eugene Schlepp
##DESCRIPTION=Yellow single crystal
##STATUS=The identification of this mineral has been confirmed by X-ray diffraction and chemical analysis
##URL=rruff.info/R050006
##MEASURED CHEMISTRY=S_1.00_
116.3958, 282.9246
116.8779, 287.6111
117.3600, 295.8391
117.8421, 314.5164
118.3242, 333.2079
118.8063, 343.9120
119.2885, 345.2278
119.7706, 349.0165
120.2527, 364.6555
120.7348, 387.9266
121.2169, 411.2241
121.6990, 427.8503
122.1812, 443.7517
122.6633, 465.0152
123.1454, 492.9478
123.6275, 524.8472
124.1096, 556.9263
124.5917, 590.2267
125.0739, 629.0018
125.5560, 678.2697
126.0381, 734.6386
126.5202, 792.3596
127.0023, 849.5383
127.4844, 908.1642
127.9666, 969.1565
128.4487, 1032.588
128.9308, 1104.518
129.4129, 1187.081
129.8950, 1281.721
130.3772, 1391.073
130.8593, 1514.720
131.3414, 1654.343
131.8235, 1814.043
132.3056, 1990.854
132.7877, 2193.822
133.2699, 2436.159
133.7520, 2719.838
134.2341, 3026.388
134.7162, 3349.197
135.1983, 3689.569
135.6804, 4042.623
136.1626, 4398.025
136.6447, 4774.434
137.1268, 5208.449
137.6089, 5701.533
138.0910, 6236.354
138.5731, 6784.682
139.0553, 7340.211
139.5374, 7966.000
140.0195, 8661.048
140.5016, 9429.177
140.9837, 10250.65
141.4658, 11114.90
141.9480, 12061.74
142.4301, 13107.85
142.9122, 14244.84
143.3943, 15486.77
143.8764, 16799.01
144.3585, 18174.62
144.8407, 19880.96
145.3228, 21925.61
145.8049, 24286.01
146.2870, 26955.12
146.7691, 30234.30
147.2512, 33380.14
147.7334, 36152.80
148.2155, 38441.49
148.6976, 40975.46
149.1797, 43785.79
149.6618, 46841.64
150.1439, 50072.36
150.6261, 54359.40
151.1082, 57992.78
151.5903, 60463.05
152.0724, 61432.54
152.5545, 61962.92
153.0366, 62520.66
153.5188, 62665.93
154.0009, 61539.52
154.4830, 58507.63
154.9651, 54547.11
155.4472, 50013.34
155.9293, 44577.66
156.4115, 39154.34
156.8936, 33599.46
157.3757, 28100.64
157.8578, 23214.36
158.3399, 19058.53
158.8221, 15600.86
159.3042, 12777.52
159.7863, 10820.66
160.2684, 9259.513
160.7505, 8021.763
161.2326, 7079.564
161.7148, 6310.185
162.1969, 5724.726
162.6790, 5259.093
163.1611, 4857.842
163.6432, 4522.270
164.1253, 4225.394
164.6075, 3953.530
165.0896, 3706.214
165.5717, 3490.104
166.0538, 3318.406
166.5359, 3178.695
167.0180, 3052.460
167.5002, 2931.466
167.9823, 2820.147
168.4644, 2721.022
168.9465, 2633.978
169.4286, 2561.221
169.9107, 2507.535
170.3929, 2469.759
170.8750, 2439.864
171.3571, 2417.038
171.8392, 2399.007
172.3213, 2381.848
172.8034, 2363.231
173.2856, 2352.154
173.7677, 2357.256
174.2498, 2377.164
174.7319, 2406.872
175.2140, 2443.436
175.6961, 2487.757
176.1783, 2538.626
176.6604, 2589.394
177.1425, 2657.127
177.6246, 2759.455
178.1067, 2895.451
178.5888, 3066.634
179.0710, 3282.855
179.5531, 3532.523
180.0352, 3789.663
180.5173, 4052.136
180.9994, 4312.373
181.4815, 4557.857
181.9637, 4790.336
182.4458, 4996.863
182.9279, 5163.825
183.4100, 5296.148
183.8921, 5419.219
184.3742, 5564.763
184.8564, 5695.280
185.3385, 5726.945
185.8206, 5659.769
186.3027, 5496.903
186.7848, 5206.084
187.2669, 4801.927
187.7491, 4385.841
188.2312, 3966.777
188.7133, 3563.585
189.1954, 3240.559
189.6775, 3003.698
190.1596, 2830.442
190.6418, 2698.691
191.1239, 2608.922
191.6060, 2549.523
192.0881, 2523.830
192.5702, 2528.669
193.0524, 2539.277
193.5345, 2558.263
194.0166, 2576.216
194.4987, 2575.042
194.9808, 2553.386
195.4629, 2533.032
195.9451, 2513.387
196.4272, 2494.881
196.9093, 2519.676
197.3914, 2589.878
197.8735, 2702.155
198.3556, 2849.731
198.8378, 3031.007
199.3199, 3252.734
199.8020, 3510.857
200.2841, 3800.758
200.7662, 4152.955
201.2483, 4552.632
201.7305, 5030.598
202.2126, 5683.126
202.6947, 6539.174
203.1768, 7461.754
203.6589, 8396.880
204.1410, 9347.442
204.6232, 10215.58
205.1053, 10948.23
205.5874, 11611.84
206.0695, 12406.08
206.5516, 13312.96
207.0337, 14397.86
207.5159, 15731.86
207.9980, 17314.57
208.4801, 19015.42
208.9622, 20780.57
209.4443, 22651.37
209.9264, 24774.96
210.4086, 27042.98
210.8907, 29795.80
211.3728, 33162.90
211.8549, 37037.43
212.3370, 42094.50
212.8191, 48971.32
213.3013, 57290.32
213.7834, 64426.80
214.2655, 70320.72
214.7476, 75145.33
215.2297, 78207.31
215.7118, 77610.66
216.1940, 80631.99
216.6761, 88670.47
217.1582, 101637.3
217.6403, 119173.2
218.1224, 147499.2
218.6045, 171844.5
219.0867, 176812.7
219.5688, 156243.1
220.0509, 130182.9
220.5330, 100561.8
221.0151, 66739.06
221.4972, 41705.05
221.9794, 27308.14
222.4615, 19369.97
222.9436, 13657.23
223.4257, 10836.96
223.9078, 8868.317
224.3899, 7437.339
224.8721, 6553.194
225.3542, 5840.293
225.8363, 5325.592
226.3184, 4950.179
226.8005, 4641.779
227.2827, 4411.674
227.7648, 4232.153
228.2469, 4100.014
228.7290, 4017.867
229.2111, 3966.455
229.6932, 3954.519
230.1754, 3966.787
230.6575, 3983.575
231.1396, 4001.474
231.6217, 4030.090
232.1038, 4074.776
232.5859, 4139.659
233.0681, 4198.890
233.5502, 4253.510
234.0323, 4301.560
234.5144, 4341.388
234.9965, 4375.096
235.4786, 4396.400
235.9608, 4402.991
236.4429, 4393.889
236.9250, 4372.731
237.4071, 4327.693
237.8892, 4278.121
238.3713, 4252.417
238.8535, 4245.424
239.3356, 4271.199
239.8177, 4337.889
240.2998, 4454.593
240.7819, 4575.539
241.2640, 4685.186
241.7462, 4809.999
242.2283, 4999.025
242.7104, 5275.510
243.1925, 5579.151
243.6746, 5907.103
244.1567, 6296.969
244.6389, 6588.349
245.1210, 6786.569
245.6031, 6883.744
246.0852, 6850.792
246.5673, 6626.744
247.0494, 6377.022
247.5316, 6173.336
248.0137, 6063.626
248.4958, 5835.529
248.9779, 5476.790
249.4600, 5006.955
249.9421, 4452.286
250.4243, 3734.650
250.9064, 3064.969
251.3885, 2519.571
251.8706, 2113.992
252.3527, 1778.954
252.8348, 1523.959
253.3170, 1333.736
253.7991, 1186.186
254.2812, 1095.413
254.7633, 1023.174
255.2454, 955.7296
255.7275, 891.7208
256.2097, 840.0692
256.6918, 803.1977
257.1739, 777.5782
257.6560, 757.0256
258.1381, 742.6934
258.6202, 730.9911
259.1024, 720.1814
259.5845, 709.6616
260.0666, 703.5293
260.5487, 704.2351
261.0308, 707.4778
261.5129, 704.4535
261.9951, 692.0305
262.4772, 680.8901
262.9593, 675.7268
263.4414, 677.8858
263.9235, 679.4099
264.4056, 680.0293
264.8878, 680.2822
265.3699, 681.5166
265.8520, 684.5992
266.3341, 686.1934
266.8162, 684.1519
267.2983, 677.4498
267.7805, 674.1851
268.2626, 675.6900
268.7447, 679.1896
269.2268, 679.0776
269.7089, 673.6866
270.1910, 670.7426
270.6732, 675.7700
271.1553, 690.5634
271.6374, 693.5756
272.1195, 680.6346
272.6016, 662.0214
273.0837, 656.6394
273.5659, 667.6140
274.0480, 675.6237
274.5301, 671.1771
275.0122, 653.6602
275.4943, 642.2783
275.9764, 638.2467
276.4586, 638.0660
276.9407, 637.2318
277.4228, 635.8495
277.9049, 633.0505
278.3870, 627.8056
278.8691, 620.2823
279.3513, 614.3236
279.8334, 610.0210
280.3155, 607.0483
280.7976, 605.2640
281.2798, 604.7268
281.7619, 604.3969
282.2440, 604.4030
282.7261, 604.4937
283.2082, 602.2458
283.6903, 597.1497
284.1725, 591.5910
284.6546, 588.4761
285.1367, 587.7709
285.6188, 587.8663
286.1009, 587.8121
286.5830, 588.0651
287.0652, 591.5369
287.5473, 598.7676
288.0294, 605.8036
288.5115, 607.8372
288.9936, 605.3483
289.4757, 602.0816
289.9579, 597.1044
290.4400, 592.7605
290.9221, 596.7307
291.4042, 609.4910
291.8863, 624.6292
292.3684, 636.8880
292.8506, 646.3418
293.3327, 653.3314
293.8148, 656.1876
294.2969, 657.7158
294.7790, 665.0459
295.2611, 678.2217
295.7433, 690.0812
296.2254, 690.8132
296.7075, 684.9860
297.1896, 685.9243
297.6717, 702.1459
298.1538, 723.0594
298.6360, 732.2153
299.1181, 730.3435
299.6002, 725.1028
300.0823, 720.1960
300.5644, 716.3135
301.0465, 715.2707
301.5287, 720.2450
302.0108, 724.8546
302.4929, 720.9631
302.9750, 709.6057
303.4571, 696.9475
303.9392, 684.9625
304.4214, 674.7637
304.9035, 668.0365
305.3856, 667.0046
305.8677, 666.8658
306.3498, 662.1065
306.8319, 654.3387
307.3141, 649.1786
307.7962, 652.3438
308.2783, 658.6690
308.7604, 662.7442
309.2425, 661.9527
309.7246, 661.9877
310.2068, 669.3387
310.6889, 680.7255
311.1710, 687.7368
311.6531, 681.3987
312.1352, 672.1387
312.6173, 668.0549
313.0995, 672.0641
313.5816, 676.6413
314.0637, 679.1493
314.5458, 679.7396
315.0279, 678.7417
315.5100, 673.6697
315.9922, 669.0103
316.4743, 667.8360
316.9564, 671.6620
317.4385, 674.1403
317.9206, 672.1693
318.4027, 667.8259
318.8849, 664.0126
319.3670, 663.3436
319.8491, 661.7219
320.3312, 657.5911
320.8133, 650.6082
321.2954, 642.3586
321.7776, 633.2923
322.2597, 623.0142
322.7418, 611.1028
323.2239, 594.2256
323.7060, 578.9747
324.1881, 568.0332
324.6703, 562.0032
325.1524, 553.3353
325.6345, 536.9246
326.1166, 520.2153
326.5987, 509.0990
327.0808, 510.1700
327.5630, 509.1072
328.0451, 503.4800
328.5272, 493.5327
329.0093, 484.7269
329.4914, 480.5050
329.9735, 474.5316
330.4557, 461.7567
330.9378, 432.8084
331.4199, 413.8210
331.9020, 411.1372
332.3841, 420.6169
332.8662, 421.1413
333.3484, 406.6232
333.8305, 392.3746
334.3126, 388.1159
334.7947, 399.3359
335.2768, 403.2600
335.7589, 396.3084
336.2411, 382.7967
336.7232, 373.3112
337.2053, 368.7113
337.6874, 365.8418
338.1695, 363.7823
338.6516, 362.8212
339.1338, 359.9693
339.6159, 354.4961
340.0980, 348.2396
340.5801, 344.5133
341.0622, 343.4799
341.5443, 343.1199
342.0265, 342.3237
342.5086, 341.2905
342.9907, 342.6087
343.4728, 346.9605
343.9549, 350.9402
344.4370, 348.0422
344.9192, 339.3286
345.4013, 335.2240
345.8834, 342.6279
346.3655, 356.4140
346.8476, 361.3189
347.3297, 357.0262
347.8119, 352.6004
348.2940, 359.0944
348.7761, 372.6559
349.2582, 381.1324
349.7403, 378.0328
350.2225, 371.6165
350.7046, 375.0155
351.1867, 387.0735
351.6688, 398.6330
352.1509, 401.5113
352.6331, 400.1022
353.1152, 401.2374
353.5973, 407.5145
354.0794, 414.6482
354.5615, 418.2346
355.0436, 419.4061
355.5258, 421.6088
356.0079, 426.5481
356.4900, 433.4516
356.9721, 442.1610
357.4542, 453.3892
357.9363, 463.9238
358.4185, 471.2289
358.9006, 476.6985
359.3827, 482.7444
359.8648, 490.8482
360.3469, 499.3411
360.8290, 506.1495
361.3112, 510.3102
361.7933, 519.0179
362.2754, 538.1779
362.7575, 561.7527
363.2396, 583.2704
363.7217, 599.3845
364.2039, 614.9022
364.6860, 631.8304
365.1681, 650.2943
365.6502, 665.6076
366.1323, 674.4491
366.6144, 681.7935
367.0966, 691.1342
367.5787, 708.0621
368.0608, 720.0640
368.5429, 723.4332
369.0250, 720.3411
369.5071, 722.0043
369.9893, 731.9993
370.4714, 742.5587
370.9535, 749.2408
371.4356, 747.2972
371.9177, 752.7932
372.3998, 769.9861
372.8820, 792.7147
373.3641, 806.5018
373.8462, 808.3398
374.3283, 808.9144
374.8104, 811.1760
375.2925, 814.7990
375.7747, 824.7607
376.2568, 842.1053
376.7389, 863.8737
377.2210, 888.1788
377.7031, 915.5939
378.1852, 937.0994
378.6674, 949.2067
379.1495, 953.2977
379.6316, 953.5426
380.1137, 949.2119
380.5958, 947.6301
381.0779, 957.9496
381.5601, 977.9328
382.0422, 995.5499
382.5243, 1007.805
383.0064, 1017.291
383.4885, 1029.894
383.9706, 1044.849
384.4528, 1055.664
384.9349, 1053.192
385.4170, 1044.970
385.8991, 1044.426
386.3812, 1055.414
386.8633, 1068.146
387.3455, 1073.741
387.8276, 1074.098
388.3097, 1073.626
388.7918, 1073.647
389.2739, 1074.286
389.7560, 1075.778
390.2382, 1078.191
390.7203, 1080.845
391.2024, 1080.148
391.6845, 1080.557
392.1666, 1087.247
392.6487, 1112.642
393.1309, 1134.610
393.6130, 1140.783
394.0951, 1132.745
394.5772, 1129.572
395.0593, 1137.081
395.5414, 1150.365
396.0236, 1166.324
396.5057, 1186.137
396.9878, 1206.789
397.4699, 1228.380
397.9520, 1250.600
398.4341, 1272.167
398.9163, 1290.489
399.3984, 1310.800
399.8805, 1334.509
400.3626, 1360.683
400.8447, 1393.120
401.3268, 1432.788
401.8090, 1477.980
402.2911, 1527.321
402.7732, 1580.582
403.2553, 1637.255
403.7374, 1697.011
404.2195, 1759.907
404.7017, 1826.423
405.1838, 1896.070
405.6659, 1971.574
406.1480, 2057.446
406.6301, 2154.206
407.1122, 2249.894
407.5944, 2342.349
408.0765, 2432.899
408.5586, 2524.639
409.0407, 2617.848
409.5228, 2706.305
410.0049, 2786.008
410.4871, 2856.932
410.9692, 2916.866
411.4513, 2962.796
411.9334, 3009.688
412.4155, 3077.360
412.8976, 3161.485
413.3798, 3246.536
413.8619, 3315.183
414.3440, 3388.569
414.8261, 3490.452
415.3082, 3621.864
415.7903, 3768.846
416.2725, 3929.538
416.7546, 4098.984
417.2367, 4275.123
417.7188, 4451.099
418.2009, 4635.764
418.6830, 4830.250
419.1652, 5035.906
419.6473, 5250.106
420.1294, 5478.780
420.6115, 5712.557
421.0937, 5949.498
421.5758, 6181.805
422.0579, 6423.611
422.5400, 6679.196
423.0221, 6945.207
423.5042, 7221.625
423.9864, 7498.291
424.4685, 7793.650
424.9506, 8125.246
425.4327, 8493.454
425.9148, 8833.865
426.3969, 9122.737
426.8791, 9410.674
427.3612, 9740.966
427.8433, 10126.35
428.3254, 10512.97
428.8075, 10898.28
429.2896, 11276.79
429.7718, 11624.24
430.2539, 11941.80
430.7360, 12227.20
431.2181, 12478.25
431.7002, 12694.49
432.1823, 12867.04
432.6645, 12993.24
433.1466, 13083.44
433.6287, 13149.43
434.1108, 13190.77
434.5929, 13203.66
435.0750, 13175.89
435.5572, 13122.88
436.0393, 13094.93
436.5214, 13087.94
437.0035, 13014.17
437.4856, 12827.74
437.9677, 12526.41
438.4499, 12105.96
438.9320, 11560.25
439.4141, 10903.79
439.8962, 10107.34
440.3783, 9207.588
440.8604, 8275.417
441.3426, 7268.188
441.8247, 6306.299
442.3068, 5453.967
442.7889, 4718.627
443.2710, 4091.483
443.7531, 3584.191
444.2353, 3180.198
444.7174, 2852.448
445.1995, 2621.016
445.6816, 2445.589
446.1637, 2327.728
446.6458, 2265.266
447.1280, 2230.918
447.6101, 2225.306
448.0922, 2247.326
448.5743, 2295.925
449.0564, 2371.099
449.5385, 2473.668
450.0207, 2600.275
450.5028, 2756.545
450.9849, 2951.206
451.4670, 3181.188
451.9491, 3455.055
452.4312, 3771.322
452.9134, 4132.345
453.3955, 4563.893
453.8776, 5064.097
454.3597, 5634.230
454.8418, 6254.976
455.3239, 6940.529
455.8061, 7716.296
456.2882, 8580.229
456.7703, 9565.575
457.2524, 10726.07
457.7345, 12048.49
458.2166, 13512.61
458.6988, 15109.43
459.1809, 16828.59
459.6630, 18631.87
460.1451, 20531.34
460.6272, 22533.63
461.1093, 24599.46
461.5915, 26775.46
462.0736, 29080.57
462.5557, 31440.17
463.0378, 34011.91
463.5199, 36796.97
464.0020, 39796.96
464.4842, 43133.53
464.9663, 46982.17
465.4484, 51034.14
465.9305, 55184.98
466.4126, 59883.00
466.8947, 63948.45
467.3769, 67002.80
467.8590, 69576.80
468.3411, 72493.72
468.8232, 75506.57
469.3053, 79367.52
469.7874, 84443.60
470.2696, 90675.70
470.7517, 97396.86
471.2338, 105137.2
471.7159, 111696.9
472.1980, 115640.6
472.6801, 116935.3
473.1623, 114159.7
473.6444, 106598.1
474.1265, 95908.23
474.6086, 83818.21
475.0907, 70644.10
475.5728, 58429.68
476.0550, 48073.82
476.5371, 39395.05
477.0192, 32392.97
477.5013, 27034.78
477.9834, 22771.95
478.4655, 19514.32
478.9477, 16984.05
479.4298, 14867.05
479.9119, 13152.60
480.3940, 11683.39
480.8761, 10434.03
481.3582, 9379.778
481.8404, 8467.769
482.3225, 7729.602
482.8046, 7090.654
483.2867, 6514.885
483.7688, 6001.777
484.2509, 5543.866
484.7331, 5154.345
485.2152, 4814.914
485.6973, 4502.111
486.1794, 4219.069
486.6615, 3956.154
487.1436, 3707.348
487.6258, 3476.039
488.1079, 3281.544
488.5900, 3133.600
489.0721, 2998.877
489.5542, 2857.525
490.0363, 2708.712
490.5185, 2578.043
491.0006, 2468.251
491.4827, 2373.373
491.9648, 2291.055
492.4470, 2219.616
492.9291, 2151.782
493.4112, 2089.120
493.8933, 2026.772
494.3754, 1953.748
494.8575, 1872.360
495.3397, 1801.541
495.8218, 1759.850
496.3039, 1731.185
496.7860, 1699.023
497.2681, 1660.027
497.7502, 1618.867
498.2324, 1579.627
498.7145, 1539.061
499.1966, 1491.984
499.6787, 1425.729
500.1608, 1364.438
500.6429, 1316.942
501.1251, 1282.628
501.6072, 1249.333
502.0893, 1218.727
502.5714, 1186.265
503.0535, 1148.739
503.5356, 1100.488
504.0178, 1060.885
504.4999, 1030.946
504.9820, 1009.147
505.4641, 994.9713
505.9462, 990.6965
506.4283, 981.9698
506.9105, 962.1893
507.3926, 935.4550
507.8747, 919.8474
508.3568, 915.9116
508.8389, 912.1351
509.3210, 897.6966
509.8032, 876.6839
510.2853, 859.6525
510.7674, 847.6533
511.2495, 840.8091
511.7316, 842.6055
512.2137, 849.4951
512.6959, 854.2296
513.1780, 857.0703
513.6601, 854.0710
514.1422, 837.6933
514.6243, 810.5345
515.1064, 790.1032
515.5886, 789.9845
516.0707, 793.9675
516.5528, 791.6010
517.0349, 776.0338
517.5170, 765.6471
517.9991, 767.2406
518.4813, 773.0359
518.9634, 773.0176
519.4455, 762.8681
519.9276, 754.5242
520.4097, 751.9500
520.8918, 753.5953
521.3740, 747.8900
521.8561, 732.8901
522.3382, 716.9773
522.8203, 705.8841
523.3024, 699.3728
523.7845, 691.9574
524.2667, 683.3857
524.7488, 673.5123
525.2309, 661.9377
525.7130, 648.6419
526.1951, 633.5004
526.6772, 612.8271
527.1594, 593.5422
527.6415, 586.6331
528.1236, 589.4645
528.6057, 590.2913
529.0878, 580.2847
529.5699, 567.1210
530.0521, 556.7678
530.5342, 550.5436
531.0163, 544.1931
531.4984, 536.1710
531.9805, 527.3422
532.4626, 518.5951
532.9448, 507.8061
533.4269, 499.8094
533.9090, 494.9620
534.3911, 493.2773
534.8732, 495.8936
535.3553, 506.9449
535.8375, 514.4625
536.3196, 510.4875
536.8017, 493.9141
537.2838, 489.4778
537.7659, 499.3132
538.2480, 514.1428
538.7302, 525.7952
539.2123, 534.2551
539.6944, 538.1119
540.1765, 535.6031
540.6586, 531.0603
541.1407, 530.6205
541.6229, 533.3853
542.1050, 536.0984
542.5871, 537.2886
543.0692, 537.4667
543.5513, 536.6900
544.0334, 534.9880
544.5156, 533.6625
544.9977, 534.1181
545.4798, 534.7440
545.9619, 534.2396
546.4440, 531.6213
546.9261, 528.9661
547.4083, 527.1255
547.8904, 525.2850
548.3725, 522.0257
548.8546, 516.8834
549.3367, 510.9897
549.8188, 504.1535
550.3010, 496.5743
550.7831, 491.4938
551.2652, 490.2885
551.7473, 486.9562
552.2294, 475.4228
552.7115, 456.7254
553.1937, 442.2368
553.6758, 433.5179
554.1579, 426.2642
554.6400, 415.1184
555.1221, 401.0566
555.6042, 387.0735
556.0864, 373.8542
556.5685, 361.3432
557.0506, 349.5417
557.5327, 338.4673
558.0148, 328.3878
558.4969, 319.7274
558.9791, 311.8482
559.4612, 304.6246
559.9433, 298.2534
560.4254, 291.5490
560.9075, 285.0788
561.3896, 277.7334
561.8718, 268.2750
562.3539, 253.4509
562.8360, 242.1449
563.3181, 236.0646
563.8002, 233.4913
564.2823, 230.3250
564.7645, 226.4481
565.2466, 222.6003
565.7287, 218.9076
566.2108, 215.4900
566.6929, 213.3644
567.1750, 212.6110
567.6572, 211.7167
568.1393, 209.6388
568.6214, 206.4929
569.1035, 202.0470
569.5856, 195.6388
570.0677, 190.3582
570.5499, 189.2077
571.0320, 190.7337
571.5141, 192.6125
571.9962, 195.5698
572.4783, 197.1520
572.9604, 195.7371
573.4426, 191.8479
573.9247, 188.1654
574.4068, 185.4581
574.8889, 182.7234
575.3710, 179.0297
575.8531, 173.5351
576.3353, 172.0298
576.8174, 176.2375
577.2995, 181.9003
577.7816, 184.9386
578.2637, 185.0850
578.7458, 185.3407
579.2280, 186.3029
579.7101, 187.2572
580.1922, 186.7493
580.6743, 184.9871
581.1564, 183.1442
581.6385, 182.2939
582.1207, 181.3844
582.6028, 178.3767
583.0849, 173.6445
583.5670, 169.9019
584.0491, 169.1966
584.5313, 169.8447
585.0134, 170.7630
585.4955, 172.0868
585.9776, 172.6778
586.4597, 172.1877
586.9418, 170.8222
587.4240, 168.8284
587.9061, 166.5097
588.3882, 162.8895
588.8703, 155.9556
589.3524, 148.1700
589.8345, 147.8119
590.3167, 156.8918
590.7988, 165.7975
591.2809, 171.0535
591.7630, 172.7404
592.2451, 169.3411
592.7272, 160.6226
593.2094, 152.5086
593.6915, 150.6176
594.1736, 152.6970
594.6557, 154.8808
595.1378, 156.8232
595.6199, 157.4743
596.1021, 154.1477
596.5842, 149.5187
597.0663, 147.3960
597.5485, 151.7633
598.0306, 156.0018
598.5127, 158.0266
598.9948, 158.1829
599.4769, 158.1197
599.9590, 158.2764
600.4412, 157.8493
600.9233, 156.3990
601.4054, 153.8235
601.8875, 151.4409
602.3696, 148.7431
602.8517, 147.5447
603.3339, 150.2260
603.8160, 156.4465
604.2981, 161.3622
604.7802, 164.1244
605.2623, 166.4421
605.7444, 170.6133
606.2266, 176.1129
606.7087, 181.3026
607.1908, 185.1450
607.6729, 189.0179
608.1550, 194.8155
608.6371, 201.7066
609.1193, 207.1901
609.6014, 208.8497
610.0835, 210.0328
610.5656, 211.6460
611.0477, 213.4522
611.5298, 218.5119
612.0120, 230.7649
612.4941, 242.3729
612.9762, 247.3893
613.4583, 243.2449
613.9404, 241.7684
614.4225, 243.7014
