##NAMES=Sulphur
##RRUFFID=R050006
##IDEAL CHEMISTRY=S
##LOCALITY=San Felipe, Mexicali, Baja California Norte, Mexico
##OWNER=RRUFF
##SOURCE=Eugene Schlepp
##DESCRIPTION=Yellow single crystal
##STATUS=The identification of this mineral has been confirmed by X-ray diffraction and chemical analysis
##URL=rruff.info/R050006
##MEASURED CHEMISTRY=S_1.00_
104.6274, 29.90431
105.1096, 27.94496
105.5917, 27.66362
106.0738, 28.09054
106.5559, 27.67862
107.0380, 25.73330
107.5201, 23.44088
108.0023, 23.24577
108.4844, 25.30228
108.9665, 27.85883
109.4486, 30.93311
109.9307, 34.12477
110.4128, 36.36340
110.8950, 37.26933
111.3771, 36.95232
111.8592, 35.58669
112.3413, 32.74135
112.8234, 30.22805
113.3055, 29.18991
113.7877, 29.53757
114.2698, 30.56137
114.7519, 32.55441
115.2340, 34.75069
115.7161, 36.24857
116.1982, 36.86258
116.6804, 37.04028
117.1625, 36.98583
117.6446, 36.60922
118.1267, 36.72343
118.6088, 37.38227
119.0909, 38.84316
119.5731, 41.69305
120.0552, 46.37066
120.5373, 51.67048
121.0194, 56.06134
121.5015, 59.83180
121.9836, 61.71646
122.4658, 59.24034
122.9479, 55.74161
123.4300, 54.55638
123.9121, 57.23923
124.3942, 62.30487
124.8763, 66.01263
125.3585, 66.85197
125.8406, 69.05032
126.3227, 73.84297
126.8048, 80.18528
127.2869, 86.61218
127.7690, 92.09757
128.2512, 97.64265
128.7333, 107.2691
129.2154, 124.8644
129.6975, 142.0680
130.1796, 155.5205
130.6617, 167.9613
131.1439, 182.6623
131.6260, 201.4101
132.1081, 224.3623
132.5902, 252.8504
133.0723, 289.1013
133.5544, 329.1830
134.0366, 371.5786
134.5187, 417.3431
135.0008, 468.4930
135.4829, 526.1829
135.9650, 590.2640
136.4471, 659.0245
136.9293, 726.3566
137.4114, 803.6736
137.8935, 898.5683
138.3756, 1006.790
138.8577, 1119.008
139.3398, 1227.875
139.8220, 1333.479
140.3041, 1449.956
140.7862, 1575.134
141.2683, 1710.108
141.7504, 1851.743
142.2325, 2001.940
142.7147, 2166.270
143.1968, 2349.897
143.6789, 2553.442
144.1610, 2773.406
144.6431, 2984.131
145.1252, 3228.914
145.6074, 3534.603
146.0895, 3899.778
146.5716, 4303.136
147.0537, 4723.465
147.5358, 5167.592
148.0179, 5681.604
148.5001, 6294.039
148.9822, 6952.456
149.4643, 7658.048
149.9464, 8407.405
150.4285, 9110.335
150.9106, 9732.144
151.3928, 10244.66
151.8749, 10548.51
152.3570, 10603.70
152.8391, 10466.89
153.3212, 10173.43
153.8033, 9724.572
154.2855, 9150.656
154.7676, 8422.658
155.2497, 7569.475
155.7318, 6727.568
156.2139, 5885.441
156.6960, 5080.354
157.1782, 4350.747
157.6603, 3699.317
158.1424, 3123.444
158.6245, 2642.691
159.1066, 2241.287
159.5887, 1898.651
160.0709, 1620.615
160.5530, 1395.670
161.0351, 1216.388
161.5172, 1088.724
161.9993, 987.0730
162.4814, 900.6892
162.9636, 827.2960
163.4457, 764.4119
163.9278, 713.7205
164.4099, 672.8448
164.8920, 639.2866
165.3741, 614.8879
165.8563, 592.9452
166.3384, 568.5177
166.8205, 543.5969
167.3026, 521.8132
167.7847, 504.9676
168.2668, 492.0013
168.7490, 480.5935
169.2311, 470.5752
169.7132, 462.5544
170.1953, 455.9741
170.6774, 451.4336
171.1595, 450.3725
171.6417, 454.5735
172.1238, 462.2106
172.6059, 469.3565
173.0880, 477.4489
173.5701, 481.8224
174.0522, 477.0062
174.5344, 468.2773
175.0165, 463.4019
175.4986, 466.8065
175.9807, 476.0609
176.4628, 484.7425
176.9449, 492.8510
177.4271, 500.3131
177.9092, 505.5647
178.3913, 510.5801
178.8734, 518.1163
179.3555, 529.8701
179.8376, 544.8055
180.3197, 560.2563
180.8019, 577.1263
181.2840, 592.8083
181.7661, 604.8364
182.2482, 615.9097
182.7303, 629.4180
183.2124, 647.2684
183.6946, 668.1892
184.1767, 689.9484
184.6588, 718.7324
185.1409, 736.2293
185.6230, 736.9293
186.1051, 726.1174
186.5873, 709.7798
187.0694, 690.6736
187.5515, 667.6091
188.0336, 635.3624
188.5157, 585.0800
188.9978, 541.4941
189.4800, 511.9276
189.9621, 489.9870
190.4442, 468.5940
190.9263, 444.7076
191.4084, 420.7255
191.8905, 402.4468
192.3727, 390.9430
192.8548, 383.9070
193.3369, 382.6135
193.8190, 383.8996
194.3011, 384.0756
194.7832, 381.6186
195.2654, 379.2997
195.7475, 382.9671
196.2296, 393.6339
196.7117, 409.2753
197.1938, 427.7760
197.6759, 451.0273
198.1581, 478.6490
198.6402, 510.8385
199.1223, 551.7703
199.6044, 609.3248
200.0865, 686.1936
200.5686, 776.8613
201.0508, 867.5878
201.5329, 976.6489
202.0150, 1122.778
202.4971, 1310.080
202.9792, 1518.314
203.4613, 1717.015
203.9435, 1904.727
204.4256, 2084.185
204.9077, 2254.056
205.3898, 2418.723
205.8719, 2577.221
206.3540, 2731.189
206.8362, 2888.520
207.3183, 3060.466
207.8004, 3245.312
208.2825, 3447.772
208.7646, 3656.903
209.2467, 3889.195
209.7289, 4140.329
210.2110, 4416.716
210.6931, 4744.686
211.1752, 5149.143
211.6573, 5618.060
212.1395, 6207.678
212.6216, 6923.767
213.1037, 7740.385
213.5858, 8630.906
214.0679, 9603.007
214.5500, 10691.00
215.0322, 11908.47
215.5143, 13228.13
215.9964, 14856.60
216.4785, 16908.74
216.9606, 19164.66
217.4427, 22021.20
217.9249, 25100.35
218.4070, 27567.12
218.8891, 28805.43
219.3712, 28819.50
219.8533, 27414.69
220.3354, 23223.20
220.8176, 18854.12
221.2997, 14602.27
221.7818, 10712.33
222.2639, 7482.886
222.7460, 5169.203
223.2281, 3706.504
223.7103, 2596.278
224.1924, 2055.397
224.6745, 1668.011
225.1566, 1401.508
225.6387, 1220.593
226.1208, 1091.435
226.6030, 998.1604
227.0851, 935.6966
227.5672, 883.2108
228.0493, 842.4274
228.5314, 810.6580
229.0135, 788.7868
229.4957, 774.5175
229.9778, 765.6810
230.4599, 761.3527
230.9420, 761.2899
231.4241, 765.2118
231.9062, 775.1238
232.3884, 785.9011
232.8705, 798.2769
233.3526, 810.3043
233.8347, 820.0642
234.3168, 826.9482
234.7989, 832.5520
235.2811, 839.9566
235.7632, 851.2006
236.2453, 859.3103
236.7274, 866.7482
237.2095, 869.3730
237.6916, 860.9808
238.1738, 841.8564
238.6559, 821.8394
239.1380, 814.5005
239.6201, 824.4800
240.1022, 829.9303
240.5843, 816.9016
241.0665, 809.9784
241.5486, 822.1102
242.0307, 853.0552
242.5128, 893.8521
242.9949, 936.9796
243.4770, 982.5027
243.9592, 1030.622
244.4413, 1086.459
244.9234, 1140.518
245.4055, 1190.758
245.8876, 1236.542
246.3697, 1277.569
246.8519, 1317.106
247.3340, 1353.127
247.8161, 1366.293
248.2982, 1357.486
248.7803, 1320.630
249.2624, 1250.895
249.7446, 1155.483
250.2267, 1044.191
250.7088, 917.5394
251.1909, 782.5967
251.6730, 657.1049
252.1551, 535.5104
252.6373, 435.5936
253.1194, 366.4074
253.6015, 317.5474
254.0836, 280.1024
254.5657, 251.9086
255.0478, 230.0409
255.5300, 209.6700
256.0121, 190.2599
256.4942, 174.6822
256.9763, 165.8555
257.4584, 160.1139
257.9406, 155.2151
258.4227, 150.7299
258.9048, 146.8072
259.3869, 143.4903
259.8690, 140.7630
260.3511, 139.0864
260.8333, 140.2669
261.3154, 140.9402
261.7975, 138.1368
262.2796, 131.9863
262.7617, 125.8530
263.2438, 121.6621
263.7260, 119.3748
264.2081, 119.0577
264.6902, 121.7701
265.1723, 124.8881
265.6544, 126.6091
266.1365, 127.1779
266.6187, 127.3015
267.1008, 127.2489
267.5829, 126.9891
268.0650, 126.3612
268.5471, 125.2308
269.0292, 124.1639
269.5114, 123.9595
269.9935, 124.0598
270.4756, 123.4386
270.9577, 121.6767
271.4398, 119.2129
271.9219, 115.7992
272.4041, 111.3554
272.8862, 108.7719
273.3683, 110.4520
273.8504, 114.5550
274.3325, 117.5215
274.8146, 119.4055
275.2968, 119.7530
275.7789, 116.9654
276.2610, 112.0003
276.7431, 109.0321
277.2252, 110.1900
277.7073, 113.1318
278.1895, 114.2212
278.6716, 113.6116
279.1537, 111.3028
279.6358, 105.4978
280.1179, 98.38378
280.6000, 93.56584
281.0822, 91.79335
281.5643, 92.57992
282.0464, 96.63721
282.5285, 104.4604
283.0106, 108.9209
283.4927, 106.5678
283.9749, 102.1851
284.4570, 99.92995
284.9391, 100.1391
285.4212, 101.1478
285.9033, 101.6003
286.3854, 101.5438
286.8676, 102.4325
287.3497, 105.7880
287.8318, 108.5334
288.3139, 108.8903
288.7960, 107.3979
289.2781, 105.5285
289.7603, 104.0371
290.2424, 102.8849
290.7245, 101.9552
291.2066, 100.1488
291.6887, 99.87740
292.1708, 103.1000
292.6530, 107.4939
293.1351, 109.8706
293.6172, 109.1464
294.0993, 107.1123
294.5814, 106.9647
295.0635, 110.0257
295.5457, 112.5881
296.0278, 114.8118
296.5099, 116.4561
296.9920, 116.9848
297.4741, 116.5589
297.9562, 116.1689
298.4384, 117.0245
298.9205, 119.5295
299.4026, 120.4255
299.8847, 117.6429
300.3668, 115.3657
300.8489, 115.4962
301.3311, 117.2621
301.8131, 118.9122
302.2953, 119.3621
302.7774, 118.6961
303.2595, 117.2183
303.7416, 113.7359
304.2237, 111.2449
304.7058, 110.6670
305.1880, 111.1414
305.6701, 112.0166
306.1522, 113.0874
306.6343, 113.7801
307.1164, 112.9595
307.5985, 110.1849
308.0807, 107.5496
308.5628, 104.7647
309.0449, 102.7170
309.5270, 102.3198
310.0091, 103.5304
310.4912, 105.1198
310.9734, 106.1631
311.4555, 106.6849
311.9376, 106.7925
312.4197, 105.8357
312.9018, 105.4566
313.3839, 107.1578
313.8661, 110.2090
314.3482, 112.7016
314.8303, 113.9856
315.3124, 114.0972
315.7945, 112.3593
316.2766, 108.2184
316.7588, 105.5626
317.2409, 108.1793
317.7230, 113.0876
318.2051, 115.2464
318.6872, 113.1076
319.1693, 109.8191
319.6515, 107.2857
320.1336, 105.4746
320.6157, 104.4838
321.0978, 104.9611
321.5799, 105.3152
322.0620, 102.0111
322.5442, 94.09109
323.0263, 88.94096
323.5084, 91.11120
323.9905, 96.15165
324.4726, 98.15653
324.9547, 96.14752
325.4369, 92.92728
325.9190, 91.16483
326.4011, 91.05019
326.8832, 90.07218
327.3653, 86.90449
327.8474, 84.11269
328.3296, 83.87325
328.8117, 85.33389
329.2938, 85.80582
329.7759, 83.63721
330.2580, 79.40054
330.7401, 75.75658
331.2223, 71.97225
331.7044, 69.69027
332.1865, 70.01230
332.6686, 71.49115
333.1507, 72.90899
333.6328, 73.79764
334.1150, 73.85757
334.5971, 72.36599
335.0792, 68.09424
335.5613, 65.67637
336.0434, 66.61260
336.5255, 67.84580
337.0077, 67.74047
337.4898, 66.48222
337.9719, 65.25384
338.4540, 65.12806
338.9361, 65.89335
339.4182, 65.46005
339.9004, 62.08186
340.3825, 60.16476
340.8646, 62.52993
341.3467, 66.36491
341.8288, 67.83193
342.3109, 65.21355
342.7931, 61.13137
343.2752, 59.70385
343.7573, 61.37347
344.2394, 62.52896
344.7215, 61.87024
345.2036, 60.73358
345.6858, 60.05981
346.1679, 59.90825
346.6500, 60.16649
347.1321, 61.00175
347.6142, 62.18833
348.0963, 63.18772
348.5785, 64.03500
349.0606, 64.40243
349.5427, 63.09463
350.0248, 60.97749
350.5069, 60.81789
350.9890, 65.25093
351.4712, 70.11604
351.9533, 71.93462
352.4354, 71.10413
352.9175, 69.58512
353.3996, 67.93225
353.8817, 66.57991
354.3639, 66.89501
354.8460, 69.52951
355.3281, 72.03249
355.8102, 74.05991
356.2923, 75.58262
356.7744, 76.25636
357.2566, 76.08772
357.7387, 76.00327
358.2208, 77.24938
358.7029, 80.41840
359.1850, 81.46381
359.6671, 78.13618
360.1493, 75.23943
360.6314, 75.14028
361.1135, 77.15418
361.5956, 79.47794
362.0777, 81.05289
362.5598, 82.18061
363.0420, 84.03082
363.5241, 87.38296
364.0062, 90.20103
364.4883, 92.41575
364.9704, 93.96559
365.4525, 94.29564
365.9347, 93.49012
366.4168, 93.03266
366.8989, 95.03415
367.3810, 99.72752
367.8631, 103.2776
368.3452, 105.6177
368.8274, 106.5763
369.3095, 105.1069
369.7916, 102.3082
370.2737, 100.8148
370.7558, 102.3832
371.2379, 105.5255
371.7201, 108.2398
372.2022, 110.6635
372.6843, 111.0686
373.1664, 106.2981
373.6485, 100.6212
374.1306, 101.0990
374.6128, 109.9438
375.0949, 117.7138
375.5770, 117.7974
376.0591, 113.6072
376.5412, 112.1951
377.0233, 115.2074
377.5055, 119.3171
377.9876, 120.9697
378.4697, 119.8207
378.9518, 120.2333
379.4339, 124.1768
379.9160, 127.9648
380.3982, 128.8836
380.8803, 127.7556
381.3624, 127.0747
381.8445, 128.1993
382.3266, 130.6551
382.8087, 133.0653
383.2909, 136.4857
383.7730, 138.3271
384.2551, 136.1882
384.7372, 133.9925
385.2193, 135.9796
385.7014, 142.1742
386.1836, 148.2631
386.6657, 149.3605
387.1478, 145.1299
387.6299, 142.3573
388.1120, 142.6841
388.5941, 142.5888
389.0763, 139.6653
389.5584, 135.8754
390.0405, 134.6379
390.5226, 137.8811
391.0047, 142.8533
391.4868, 145.1593
391.9690, 144.5320
392.4511, 143.6736
392.9332, 143.1103
393.4153, 142.7305
393.8974, 142.1009
394.3795, 141.2419
394.8617, 141.4532
395.3438, 145.0381
395.8259, 149.5308
396.3080, 150.0848
396.7901, 146.0615
397.2722, 142.1117
397.7544, 141.5312
398.2365, 143.8087
398.7186, 145.5706
399.2007, 145.6896
399.6828, 146.5381
400.1649, 149.9920
400.6471, 154.5543
401.1292, 157.2633
401.6113, 157.1448
402.0934, 156.5850
402.5755, 159.2305
403.0576, 166.3640
403.5398, 172.9174
404.0219, 179.1535
404.5040, 184.7219
404.9861, 188.9814
405.4682, 192.4308
405.9503, 196.2904
406.4325, 201.4534
406.9146, 207.3275
407.3967, 211.1690
407.8788, 209.9817
408.3609, 213.0704
408.8430, 225.9162
409.3252, 240.9637
409.8073, 252.0877
410.2894, 258.4608
410.7715, 264.0430
411.2536, 272.4165
411.7357, 282.9962
412.2179, 292.6393
412.7000, 301.1909
413.1821, 308.5925
413.6642, 311.6579
414.1463, 313.7397
414.6284, 322.2397
415.1106, 342.2783
415.5927, 364.5718
416.0748, 381.6079
416.5569, 395.2771
417.0390, 411.9622
417.5211, 434.3410
418.0033, 458.3775
418.4854, 477.5750
418.9675, 489.3942
419.4496, 505.0400
419.9317, 526.9912
420.4138, 551.0397
420.8960, 575.9059
421.3781, 600.5956
421.8602, 622.7283
422.3423, 640.4644
422.8244, 655.4482
423.3065, 674.6475
423.7887, 699.2248
424.2708, 726.7130
424.7529, 760.2964
425.2350, 794.1212
425.7171, 821.6684
426.1992, 843.0167
426.6814, 865.2840
427.1635, 897.6771
427.6456, 939.0524
428.1277, 972.0529
428.6098, 993.3397
429.0919, 1012.499
429.5741, 1033.871
430.0562, 1056.629
430.5383, 1080.191
431.0204, 1106.243
431.5025, 1129.147
431.9846, 1139.548
432.4668, 1142.115
432.9489, 1155.350
433.4310, 1186.167
433.9131, 1221.321
434.3952, 1244.576
434.8773, 1254.297
435.3595, 1267.762
435.8416, 1293.718
436.3237, 1316.502
436.8058, 1326.461
437.2879, 1325.357
437.7701, 1321.284
438.2522, 1319.118
438.7343, 1311.397
439.2164, 1278.733
439.6985, 1210.122
440.1806, 1134.789
440.6628, 1051.469
441.1449, 963.6387
441.6270, 869.3729
442.1091, 771.8048
442.5912, 678.8414
443.0733, 596.1727
443.5555, 523.3972
444.0376, 458.1433
444.5197, 398.3637
445.0018, 351.8584
445.4839, 329.7407
445.9660, 318.2896
446.4482, 304.0429
446.9303, 284.6078
447.4124, 269.0230
447.8945, 263.0077
448.3766, 264.7466
448.8587, 270.8860
449.3409, 281.0835
449.8230, 294.7801
450.3051, 311.9112
450.7872, 332.4985
451.2693, 354.9240
451.7514, 375.1175
452.2336, 401.6133
452.7157, 439.1742
453.1978, 483.9690
453.6799, 528.6280
454.1620, 571.5989
454.6441, 620.2147
455.1263, 683.5884
455.6084, 761.9787
456.0905, 853.1350
456.5726, 959.1943
457.0547, 1076.048
457.5368, 1199.386
458.0190, 1333.712
458.5011, 1486.187
458.9832, 1660.401
459.4653, 1852.349
459.9474, 2061.241
460.4295, 2286.492
460.9117, 2514.546
461.3938, 2741.074
461.8759, 2972.391
462.3580, 3212.642
462.8401, 3461.961
463.3222, 3726.869
463.8044, 4002.711
464.2865, 4301.443
464.7686, 4623.467
465.2507, 4974.548
465.7328, 5377.159
466.2149, 5841.639
466.6971, 6359.165
467.1792, 6903.888
467.6613, 7468.882
468.1434, 8086.345
468.6255, 8754.122
469.1076, 9475.534
469.5898, 10280.16
470.0719, 11139.40
470.5540, 11993.85
471.0361, 12828.82
471.5182, 13585.70
472.0003, 14135.37
472.4825, 14529.15
472.9646, 14562.35
473.4467, 14081.41
473.9288, 13284.79
474.4109, 12192.09
474.8930, 10843.67
475.3752, 9458.745
475.8573, 8086.161
476.3394, 6789.239
476.8215, 5665.062
477.3036, 4718.749
477.7857, 3926.556
478.2679, 3290.838
478.7500, 2792.762
479.2321, 2393.592
479.7142, 2111.810
480.1963, 1867.435
480.6784, 1649.524
481.1606, 1459.938
481.6427, 1305.633
482.1248, 1183.106
482.6069, 1078.445
483.0890, 980.9211
483.5711, 891.7059
484.0533, 815.4943
484.5354, 756.2766
485.0175, 704.2975
485.4996, 659.7328
485.9817, 619.6389
486.4638, 582.5317
486.9460, 547.8351
487.4281, 515.1713
487.9102, 483.8619
488.3923, 454.3304
488.8744, 427.6869
489.3565, 403.8799
489.8387, 383.7370
490.3208, 369.6123
490.8029, 358.6435
491.2850, 344.7046
491.7671, 326.7552
492.2492, 308.8611
492.7314, 290.5213
493.2135, 274.1393
493.6956, 263.1232
494.1777, 257.4276
494.6598, 254.2139
495.1419, 251.8684
495.6241, 249.8065
496.1062, 244.0175
496.5883, 230.5392
497.0704, 218.8507
497.5525, 210.1266
498.0346, 203.2493
498.5168, 197.8138
498.9989, 193.4756
499.4810, 189.2933
499.9631, 184.6281
500.4452, 179.4848
500.9273, 173.6525
501.4095, 166.7320
501.8916, 160.8280
502.3737, 157.4190
502.8558, 155.2367
503.3379, 151.9752
503.8200, 147.0466
504.3022, 143.4343
504.7843, 144.3366
505.2664, 145.9602
505.7485, 143.1026
506.2306, 135.9684
506.7127, 129.1691
507.1949, 125.8021
507.6770, 125.1462
508.1591, 124.0428
508.6412, 121.0030
509.1233, 119.7753
509.6054, 122.8795
510.0876, 125.9923
510.5697, 125.4890
511.0518, 121.6704
511.5339, 117.6060
512.0161, 115.4277
512.4982, 114.6332
512.9803, 113.7922
513.4624, 112.8019
513.9445, 112.5552
514.4266, 114.3739
514.9088, 116.1885
515.3909, 114.8984
515.8730, 110.1950
516.3551, 106.4834
516.8372, 105.5909
517.3193, 105.8940
517.8015, 106.0372
518.2836, 105.9928
518.7657, 106.2520
519.2478, 107.1494
519.7299, 108.1616
520.2120, 108.0496
520.6942, 106.5893
521.1763, 104.3571
521.6584, 100.1284
522.1405, 96.36655
522.6226, 94.70099
523.1047, 94.59531
523.5869, 94.52477
524.0690, 93.68211
524.5511, 92.47897
525.0332, 91.45882
525.5153, 90.62334
525.9974, 90.30187
526.4796, 90.81850
526.9617, 91.47906
527.4438, 92.03655
527.9259, 92.39320
528.4080, 90.84692
528.8901, 84.86328
529.3723, 79.17403
529.8544, 76.68266
530.3365, 76.47857
530.8186, 76.77724
531.3007, 76.95456
531.7828, 77.37504
532.2650, 78.71655
532.7471, 81.32384
533.2292, 82.75525
533.7113, 83.46777
534.1934, 82.33020
534.6755, 77.12028
535.1577, 70.61860
535.6398, 66.53277
536.1219, 65.98264
536.6040, 67.21498
537.0861, 68.57618
537.5682, 70.39986
538.0504, 74.65180
538.5325, 82.06347
539.0146, 87.78123
539.4967, 87.64963
539.9788, 82.96757
540.4609, 80.33164
540.9431, 80.42446
541.4252, 81.33154
541.9073, 83.58707
542.3894, 85.89085
542.8715, 87.04830
543.3536, 86.94057
543.8358, 85.99514
544.3179, 84.37868
544.8000, 82.37119
545.2821, 81.27557
545.7642, 81.41605
546.2463, 81.57324
546.7285, 80.95074
547.2106, 80.62605
547.6927, 82.10105
548.1748, 85.12594
548.6569, 86.74303
549.1390, 84.26662
549.6211, 80.71305
550.1032, 79.78574
550.5853, 80.87105
551.0674, 80.79417
551.5496, 78.08642
552.0317, 74.71230
552.5138, 74.09534
552.9959, 77.85482
553.4780, 78.82952
553.9601, 75.00103
554.4423, 70.97225
554.9244, 68.76352
555.4065, 67.51920
555.8886, 65.62502
556.3707, 62.46048
556.8528, 59.09444
557.3350, 56.63276
557.8171, 55.06502
558.2992, 54.57441
558.7813, 55.63294
559.2634, 56.31227
559.7455, 55.08335
560.2277, 52.50702
560.7098, 50.52192
561.1919, 49.42363
561.6740, 48.41450
562.1561, 46.93852
562.6382, 45.61690
563.1204, 45.24386
563.6025, 45.77443
564.0846, 46.45454
564.5667, 46.70144
565.0488, 46.73922
565.5309, 47.68121
566.0131, 50.45751
566.4952, 51.78502
566.9773, 50.28449
567.4594, 47.76395
567.9415, 44.52840
568.4236, 41.04738
568.9058, 39.05742
569.3879, 40.68976
569.8700, 42.86463
570.3521, 41.77950
570.8342, 38.51709
571.3163, 36.97431
571.7985, 38.45045
572.2806, 40.86433
572.7627, 41.72081
573.2448, 40.83799
573.7269, 40.12762
574.2090, 39.68497
574.6912, 39.28243
575.1733, 38.91807
575.6554, 38.53630
576.1375, 38.32738
576.6196, 38.23371
577.1017, 37.43253
577.5839, 34.23293
578.0660, 29.73705
578.5481, 27.89407
579.0302, 28.98496
579.5123, 30.80504
579.9944, 32.68282
580.4766, 34.42315
580.9587, 35.81178
581.4408, 37.23211
581.9229, 37.00518
582.4050, 32.48219
582.8871, 28.42579
583.3693, 28.62678
583.8514, 31.74607
584.3335, 34.64688
584.8156, 35.89106
585.2977, 35.92231
585.7798, 35.02350
586.2620, 33.01055
586.7441, 32.49034
587.2262, 34.86750
587.7083, 36.62215
588.1904, 34.28280
588.6725, 30.39259
589.1547, 29.55426
589.6368, 33.91872
590.1189, 37.23413
590.6010, 34.99008
591.0831, 30.81990
591.5652, 29.42142
592.0474, 30.97739
592.5295, 33.25629
593.0116, 34.89912
593.4937, 35.87532
593.9758, 36.02869
594.4579, 34.96962
594.9401, 34.01303
595.4222, 33.42126
595.9043, 32.81528
596.3864, 31.65856
596.8685, 30.34888
597.3506, 30.00996
597.8328, 31.61706
598.3149, 33.22401
598.7970, 32.74908
599.2791, 30.92990
599.7612, 29.38882
600.2433, 28.43031
600.7255, 28.73952
601.2076, 31.23155
601.6897, 35.48729
602.1718, 38.07601
602.6539, 37.81517
