##NAMES=Sulphur
##RRUFFID=R040135
##IDEAL CHEMISTRY=S
##LOCALITY=Sicily, Italy
##OWNER=RRUFF
##SOURCE=University of Arizona Mineral Museum
##DESCRIPTION=Yellow fragments
##STATUS=The identification of this mineral has been confirmed by X-ray diffraction and chemical analysis
##URL=rruff.info/R040135
##MEASURED CHEMISTRY=S_1.00_
133.5544, 1110.313
134.0366, 1244.005
134.5187, 1398.794
135.0008, 1584.016
135.4829, 1805.688
135.9650, 2062.799
136.4471, 2340.705
136.9293, 2641.926
137.4114, 2958.023
137.8935, 3295.736
138.3756, 3647.537
138.8577, 4000.734
139.3398, 4344.927
139.8220, 4680.480
140.3041, 5027.626
140.7862, 5368.482
141.2683, 5733.864
141.7504, 6133.912
142.2325, 6567.982
142.7147, 7026.223
143.1968, 7498.157
143.6789, 7985.056
144.1610, 8554.126
144.6431, 9173.968
145.1252, 9887.141
145.6074, 10723.73
146.0895, 11680.67
146.5716, 12727.92
147.0537, 13838.05
147.5358, 15024.78
148.0179, 16331.14
148.5001, 17782.44
148.9822, 19328.87
149.4643, 20993.31
149.9464, 22775.51
150.4285, 24530.27
150.9106, 26221.27
151.3928, 27797.07
151.8749, 29025.83
152.3570, 30052.04
152.8391, 30626.49
153.3212, 30534.56
153.8033, 29757.96
154.2855, 28363.89
154.7676, 26139.05
155.2497, 23246.37
155.7318, 20427.97
156.2139, 17712.34
156.6960, 15166.91
157.1782, 12850.04
157.6603, 10761.66
158.1424, 8940.675
158.6245, 7502.662
159.1066, 6374.152
159.5887, 5439.657
160.0709, 4721.808
160.5530, 4166.558
161.0351, 3721.653
161.5172, 3400.852
161.9993, 3142.640
162.4814, 2918.212
162.9636, 2725.068
163.4457, 2563.560
163.9278, 2445.529
164.4099, 2357.350
164.8920, 2276.464
165.3741, 2202.284
165.8563, 2137.924
166.3384, 2087.457
166.8205, 2047.333
167.3026, 2012.951
167.7847, 1984.240
168.2668, 1959.401
168.7490, 1933.198
169.2311, 1902.204
169.7132, 1877.847
170.1953, 1869.169
170.6774, 1869.927
171.1595, 1870.806
171.6417, 1866.863
172.1238, 1860.602
172.6059, 1858.462
173.0880, 1861.760
173.5701, 1866.793
174.0522, 1871.493
174.5344, 1876.708
175.0165, 1884.047
175.4986, 1895.706
175.9807, 1909.176
176.4628, 1916.088
176.9449, 1909.319
177.4271, 1909.605
177.9092, 1925.470
178.3913, 1951.777
178.8734, 1981.915
179.3555, 2013.215
179.8376, 2046.164
180.3197, 2082.743
180.8019, 2124.323
181.2840, 2167.403
181.7661, 2207.701
182.2482, 2249.459
182.7303, 2299.055
183.2124, 2361.475
183.6946, 2430.720
184.1767, 2490.146
184.6588, 2538.471
185.1409, 2577.153
185.6230, 2619.650
186.1051, 2650.308
186.5873, 2651.142
187.0694, 2612.966
187.5515, 2542.320
188.0336, 2450.481
188.5157, 2314.747
188.9978, 2199.114
189.4800, 2119.061
189.9621, 2062.284
190.4442, 2015.594
190.9263, 1973.697
191.4084, 1939.422
191.8905, 1920.038
192.3727, 1919.473
192.8548, 1928.554
193.3369, 1951.340
193.8190, 1978.530
194.3011, 1999.784
194.7832, 2010.863
195.2654, 2018.727
195.7475, 2037.521
196.2296, 2067.432
196.7117, 2110.077
197.1938, 2155.950
197.6759, 2216.927
198.1581, 2299.357
198.6402, 2406.036
199.1223, 2542.102
199.6044, 2714.355
200.0865, 2911.874
200.5686, 3176.706
201.0508, 3476.094
201.5329, 3850.677
202.0150, 4334.311
202.4971, 4936.814
202.9792, 5629.761
203.4613, 6384.808
203.9435, 7256.316
204.4256, 8061.671
204.9077, 8795.242
205.3898, 9472.389
205.8719, 10080.25
206.3540, 10626.83
206.8362, 11161.78
207.3183, 11754.39
207.8004, 12405.31
208.2825, 13107.07
208.7646, 13831.97
209.2467, 14620.84
209.7289, 15456.84
210.2110, 16357.64
210.6931, 17402.24
211.1752, 18667.93
211.6573, 20124.84
212.1395, 21909.60
212.6216, 24045.91
213.1037, 26447.65
213.5858, 29063.93
214.0679, 31895.90
214.5500, 34975.29
215.0322, 38263.17
215.5143, 41658.34
215.9964, 45928.11
216.4785, 51596.48
216.9606, 57657.66
217.4427, 65020.90
217.9249, 72683.94
218.4070, 78455.13
218.8891, 80630.74
219.3712, 79198.10
219.8533, 74539.41
220.3354, 63463.57
220.8176, 52064.36
221.2997, 41042.98
221.7818, 30960.80
222.2639, 22488.24
222.7460, 16200.86
223.2281, 11950.74
223.7103, 8686.226
224.1924, 6976.910
224.6745, 5739.830
225.1566, 4918.958
225.6387, 4386.489
226.1208, 4004.286
226.6030, 3702.529
227.0851, 3475.065
227.5672, 3298.615
228.0493, 3202.588
228.5314, 3122.461
229.0135, 3043.827
229.4957, 2975.242
229.9778, 2928.623
230.4599, 2909.667
230.9420, 2911.039
231.4241, 2915.791
231.9062, 2928.046
232.3884, 2936.395
232.8705, 2931.130
233.3526, 2926.282
233.8347, 2936.206
234.3168, 2965.223
234.7989, 3003.001
235.2811, 3032.681
235.7632, 3054.492
236.2453, 3066.953
236.7274, 3072.166
237.2095, 3068.098
237.6916, 3049.085
238.1738, 3015.842
238.6559, 2979.476
239.1380, 2952.512
239.6201, 2935.182
240.1022, 2926.785
240.5843, 2927.238
241.0665, 2936.652
241.5486, 2953.066
242.0307, 2978.000
242.5128, 3016.871
242.9949, 3076.311
243.4770, 3157.555
243.9592, 3246.500
244.4413, 3357.054
244.9234, 3463.095
245.4055, 3560.519
245.8876, 3646.158
246.3697, 3714.679
246.8519, 3764.348
247.3340, 3794.564
247.8161, 3800.926
248.2982, 3806.249
248.7803, 3749.687
249.2624, 3599.143
249.7446, 3381.683
250.2267, 3137.289
250.7088, 2877.412
251.1909, 2613.249
251.6730, 2374.013
252.1551, 2156.112
252.6373, 1971.844
253.1194, 1825.944
253.6015, 1710.783
254.0836, 1621.508
254.5657, 1558.005
255.0478, 1513.594
255.5300, 1480.638
256.0121, 1462.751
256.4942, 1442.943
256.9763, 1409.152
257.4584, 1375.866
257.9406, 1354.684
258.4227, 1348.318
258.9048, 1347.692
259.3869, 1342.668
259.8690, 1332.850
260.3511, 1328.368
260.8333, 1338.195
261.3154, 1347.581
261.7975, 1344.350
262.2796, 1328.809
262.7617, 1312.675
263.2438, 1302.195
263.7260, 1297.525
264.2081, 1301.048
264.6902, 1318.784
265.1723, 1335.852
265.6544, 1342.178
266.1365, 1339.391
266.6187, 1332.064
267.1008, 1318.256
267.5829, 1302.101
268.0650, 1293.232
268.5471, 1293.659
269.0292, 1295.544
269.5114, 1291.989
269.9935, 1286.340
270.4756, 1284.884
270.9577, 1293.700
271.4398, 1303.710
271.9219, 1302.754
272.4041, 1290.452
272.8862, 1280.138
273.3683, 1279.393
273.8504, 1284.531
274.3325, 1288.200
274.8146, 1290.455
275.2968, 1290.522
275.7789, 1285.997
276.2610, 1278.288
276.7431, 1273.346
277.2252, 1273.824
277.7073, 1277.332
278.1895, 1279.501
278.6716, 1279.586
279.1537, 1281.742
279.6358, 1290.888
280.1179, 1302.313
280.6000, 1307.280
281.0822, 1303.433
281.5643, 1295.783
282.0464, 1288.991
282.5285, 1282.860
283.0106, 1280.573
283.4927, 1286.285
283.9749, 1293.607
284.4570, 1297.290
284.9391, 1296.809
285.4212, 1293.099
285.9033, 1285.677
286.3854, 1274.853
286.8676, 1269.837
287.3497, 1274.319
287.8318, 1280.431
288.3139, 1284.719
288.7960, 1287.578
289.2781, 1290.653
289.7603, 1294.986
290.2424, 1300.018
290.7245, 1303.273
291.2066, 1298.309
291.6887, 1299.562
292.1708, 1318.474
292.6530, 1341.500
293.1351, 1349.264
293.6172, 1335.251
294.0993, 1311.956
294.5814, 1301.574
295.0635, 1311.631
295.5457, 1321.443
296.0278, 1334.536
296.5099, 1344.863
296.9920, 1345.864
297.4741, 1338.241
297.9562, 1329.666
298.4384, 1328.520
298.9205, 1336.395
299.4026, 1340.612
299.8847, 1338.715
300.3668, 1335.745
300.8489, 1330.768
301.3310, 1326.097
301.8131, 1327.026
302.2953, 1338.489
302.7774, 1356.795
303.2595, 1362.265
303.7416, 1343.886
304.2237, 1328.431
304.7058, 1321.772
305.1880, 1320.374
305.6701, 1320.458
306.1522, 1320.628
306.6343, 1321.895
307.1164, 1327.098
307.5985, 1338.379
308.0807, 1345.492
308.5628, 1343.937
309.0449, 1339.384
309.5270, 1334.034
310.0091, 1328.425
310.4912, 1323.610
310.9734, 1320.718
311.4555, 1319.595
311.9376, 1318.414
312.4197, 1315.798
312.9018, 1315.113
313.3839, 1321.140
313.8661, 1330.789
314.3482, 1335.727
314.8303, 1329.095
315.3124, 1316.830
315.7945, 1309.255
316.2766, 1306.873
316.7588, 1306.401
317.2409, 1308.217
317.7230, 1310.134
318.2051, 1307.724
318.6872, 1296.675
319.1693, 1287.934
319.6515, 1292.737
320.1336, 1307.893
320.6157, 1319.024
321.0978, 1320.757
321.5799, 1317.109
322.0620, 1314.386
322.5442, 1313.077
323.0263, 1310.013
323.5084, 1302.031
323.9905, 1292.742
324.4726, 1287.713
324.9547, 1287.831
325.4369, 1287.855
325.9190, 1281.553
326.4011, 1268.032
326.8832, 1262.737
327.3653, 1273.895
327.8474, 1285.381
328.3296, 1287.980
328.8117, 1283.203
329.2938, 1277.093
329.7759, 1273.246
330.2580, 1270.680
330.7401, 1265.056
331.2223, 1251.911
331.7044, 1241.194
332.1865, 1234.201
332.6686, 1229.979
333.1507, 1227.640
333.6328, 1226.876
334.1150, 1227.634
334.5971, 1230.097
335.0792, 1235.277
335.5613, 1239.380
336.0434, 1244.199
336.5255, 1246.541
337.0077, 1243.405
337.4898, 1235.998
337.9719, 1228.009
338.4540, 1221.837
338.9361, 1217.640
339.4182, 1217.186
339.9004, 1223.462
340.3825, 1229.173
340.8646, 1233.673
341.3467, 1235.956
341.8288, 1233.764
342.3109, 1225.486
342.7931, 1216.138
343.2752, 1214.048
343.7573, 1220.393
344.2394, 1225.672
344.7215, 1227.741
345.2036, 1227.744
345.6858, 1226.499
346.1679, 1224.061
346.6500, 1220.661
347.1321, 1213.444
347.6142, 1205.403
348.0963, 1206.276
348.5785, 1219.423
349.0606, 1234.039
349.5427, 1241.608
350.0248, 1243.834
350.5069, 1245.267
350.9890, 1246.992
351.4712, 1247.978
351.9533, 1245.894
352.4354, 1241.695
352.9175, 1240.895
353.3996, 1247.183
353.8817, 1257.207
354.3639, 1261.899
354.8460, 1259.638
355.3281, 1256.853
355.8102, 1253.513
356.2923, 1251.036
356.7744, 1251.450
357.2566, 1255.095
357.7387, 1260.433
358.2208, 1265.957
358.7029, 1271.911
359.1850, 1276.617
359.6671, 1277.779
360.1493, 1280.118
360.6314, 1287.059
361.1135, 1296.791
361.5956, 1305.710
362.0777, 1311.932
362.5598, 1315.091
363.0420, 1313.182
363.5241, 1298.551
364.0062, 1291.485
364.4883, 1298.665
364.9704, 1310.766
365.4525, 1320.805
365.9347, 1326.982
366.4168, 1330.762
366.8989, 1332.856
367.3810, 1333.063
367.8631, 1335.513
368.3452, 1343.520
368.8274, 1349.938
369.3095, 1349.617
369.7916, 1345.051
370.2737, 1342.206
370.7558, 1343.752
371.2379, 1348.698
371.7201, 1356.914
372.2022, 1369.052
372.6843, 1377.989
373.1664, 1379.377
373.6485, 1376.412
374.1306, 1373.511
374.6128, 1369.921
375.0949, 1369.564
375.5770, 1377.281
376.0591, 1389.206
376.5412, 1396.623
377.0233, 1397.206
377.5055, 1397.830
377.9876, 1407.329
378.4697, 1426.978
378.9518, 1436.815
379.4339, 1426.657
379.9160, 1415.545
380.3982, 1414.640
380.8803, 1422.232
381.3624, 1433.016
381.8445, 1444.776
382.3266, 1455.458
382.8087, 1458.813
383.2909, 1446.073
383.7730, 1437.152
384.2551, 1433.254
384.7372, 1432.775
385.2193, 1435.163
385.7014, 1439.889
386.1836, 1445.634
386.6657, 1451.332
387.1478, 1457.036
387.6299, 1461.420
388.1120, 1467.072
388.5941, 1467.980
389.0763, 1458.602
389.5584, 1444.245
390.0405, 1432.931
390.5226, 1427.859
391.0047, 1427.625
391.4868, 1431.829
391.9690, 1441.334
392.4511, 1446.557
392.9332, 1441.447
393.4153, 1434.172
393.8974, 1433.394
394.3795, 1439.117
394.8617, 1443.426
395.3438, 1440.395
395.8259, 1434.184
396.3080, 1431.829
396.7901, 1434.056
397.2722, 1437.985
397.7544, 1442.260
398.2365, 1446.587
398.7186, 1449.732
399.2007, 1451.352
399.6828, 1452.185
400.1649, 1449.949
400.6471, 1447.697
401.1292, 1451.894
401.6113, 1464.743
402.0934, 1479.949
402.5755, 1488.014
403.0576, 1485.415
403.5398, 1486.167
404.0219, 1489.403
404.5040, 1496.266
404.9861, 1510.418
405.4682, 1528.781
405.9503, 1543.672
406.4325, 1549.574
406.9146, 1549.928
407.3967, 1556.946
407.8788, 1572.939
408.3609, 1591.061
408.8430, 1614.258
409.3252, 1636.193
409.8073, 1650.221
410.2894, 1655.874
410.7715, 1661.266
411.2536, 1672.587
411.7357, 1689.429
412.2179, 1710.219
412.7000, 1736.351
413.1821, 1762.636
413.6642, 1782.763
414.1463, 1800.659
414.6284, 1824.312
415.1106, 1859.353
415.5927, 1895.648
416.0748, 1924.369
416.5569, 1948.147
417.0390, 1974.788
417.5211, 2006.755
418.0033, 2042.916
418.4854, 2081.577
418.9675, 2122.388
419.4496, 2167.450
419.9317, 2223.790
420.4138, 2278.381
420.8960, 2318.451
421.3781, 2348.375
421.8602, 2384.404
422.3423, 2438.270
422.8244, 2504.353
423.3065, 2557.562
423.7887, 2584.575
424.2708, 2619.650
424.7529, 2667.739
425.2350, 2723.550
425.7171, 2786.209
426.1992, 2853.925
426.6814, 2918.328
427.1635, 2967.471
427.6456, 3003.707
428.1277, 3052.373
428.6098, 3121.290
429.0919, 3187.484
429.5741, 3241.188
430.0562, 3284.575
430.5383, 3319.295
431.0204, 3344.880
431.5025, 3363.782
431.9846, 3373.681
432.4668, 3377.829
432.9489, 3388.674
433.4310, 3410.434
433.9131, 3436.094
434.3952, 3457.062
434.8773, 3472.477
435.3595, 3491.805
435.8416, 3520.509
436.3237, 3548.713
436.8058, 3579.061
437.2879, 3604.116
437.7701, 3607.888
438.2522, 3582.075
438.7343, 3530.344
439.2164, 3463.063
439.6985, 3389.505
440.1806, 3281.315
440.6628, 3120.824
441.1449, 2943.635
441.6270, 2760.070
442.1091, 2579.095
442.5912, 2416.899
443.0733, 2289.403
443.5555, 2189.750
444.0376, 2089.118
444.5197, 1980.099
445.0018, 1890.785
445.4839, 1837.913
445.9660, 1807.223
446.4482, 1787.838
446.9303, 1779.093
447.4124, 1777.397
447.8945, 1778.113
448.3766, 1784.859
448.8587, 1806.976
449.3409, 1846.430
449.8230, 1891.928
450.3051, 1933.174
450.7872, 1972.454
451.2693, 2027.916
451.7514, 2097.861
452.2336, 2184.293
452.7157, 2289.339
453.1978, 2410.625
453.6799, 2541.731
454.1620, 2681.613
454.6441, 2838.733
455.1263, 3022.661
455.6084, 3231.706
456.0905, 3475.661
456.5726, 3740.934
457.0547, 4056.567
457.5368, 4439.503
458.0190, 4877.798
458.5011, 5352.960
458.9832, 5858.656
459.4653, 6395.392
459.9474, 6969.924
460.4295, 7580.225
460.9117, 8222.118
461.3938, 8911.295
461.8759, 9609.934
462.3580, 10273.12
462.8401, 10911.92
463.3222, 11598.30
463.8044, 12338.36
464.2865, 13148.64
464.7686, 14035.09
465.2507, 15000.73
465.7328, 16049.42
466.2149, 17175.62
466.6971, 18407.92
467.1792, 19783.78
467.6613, 21347.43
468.1434, 22988.98
468.6255, 24699.79
469.1076, 26495.94
469.5898, 28452.71
470.0719, 30500.91
470.5540, 32496.11
471.0361, 34403.02
471.5182, 36077.14
472.0003, 37177.20
472.4825, 37778.51
472.9646, 37572.40
473.4467, 36248.17
473.9288, 34226.80
474.4109, 31538.58
474.8930, 28273.56
475.3752, 24927.36
475.8573, 21611.34
476.3394, 18467.76
476.8215, 15709.48
477.3036, 13348.28
477.7857, 11346.08
478.2679, 9714.836
478.7500, 8411.707
479.2321, 7343.276
479.7142, 6534.177
480.1963, 5860.490
480.6784, 5345.951
481.1606, 4925.721
481.6427, 4548.815
482.1248, 4207.318
482.6069, 3914.737
483.0890, 3682.841
483.5711, 3503.387
484.0533, 3324.846
484.5354, 3134.430
485.0175, 2966.974
485.4996, 2829.709
485.9817, 2712.325
486.4638, 2611.617
486.9460, 2524.767
487.4281, 2443.873
487.9102, 2359.804
488.3923, 2276.956
488.8744, 2211.523
489.3565, 2166.621
489.8387, 2121.891
490.3208, 2064.418
490.8029, 2002.506
491.2850, 1953.091
491.7671, 1918.272
492.2492, 1889.192
492.7314, 1867.043
493.2135, 1847.077
493.6956, 1823.054
494.1777, 1795.048
494.6598, 1768.033
495.1419, 1745.731
495.6241, 1727.789
496.1062, 1711.520
496.5883, 1700.921
497.0704, 1686.322
497.5525, 1661.300
498.0346, 1635.783
498.5168, 1620.156
498.9989, 1614.158
499.4810, 1607.091
499.9631, 1588.950
500.4452, 1562.706
500.9273, 1539.324
501.4095, 1518.650
501.8916, 1501.552
502.3737, 1490.051
502.8558, 1481.434
503.3379, 1471.229
503.8200, 1458.873
504.3022, 1447.161
504.7843, 1435.494
505.2664, 1425.995
505.7485, 1423.220
506.2306, 1426.300
506.7127, 1427.630
507.1949, 1421.526
507.6770, 1410.460
508.1591, 1405.367
508.6412, 1411.190
509.1233, 1415.990
509.6054, 1420.113
510.0876, 1422.296
510.5697, 1420.579
511.0518, 1415.686
511.5339, 1410.887
512.0161, 1408.677
512.4982, 1408.161
512.9803, 1407.178
513.4624, 1405.875
513.9445, 1403.318
514.4266, 1399.785
514.9088, 1394.177
515.3909, 1382.351
515.8730, 1362.982
516.3551, 1353.700
516.8372, 1371.830
517.3193, 1393.492
517.8015, 1393.405
518.2836, 1375.411
518.7657, 1360.959
519.2478, 1361.965
519.7299, 1370.982
520.2120, 1369.754
520.6942, 1349.343
521.1763, 1335.716
521.6584, 1332.478
522.1405, 1331.807
522.6226, 1330.035
523.1047, 1327.319
523.5869, 1325.508
524.0690, 1326.258
524.5511, 1326.848
525.0332, 1320.903
525.5153, 1308.494
525.9974, 1302.182
526.4796, 1308.187
526.9617, 1315.885
527.4438, 1312.246
527.9259, 1298.829
528.4080, 1288.839
528.8901, 1285.004
529.3723, 1284.194
529.8544, 1285.860
530.3365, 1288.957
530.8186, 1292.175
531.3007, 1295.005
531.7828, 1296.234
532.2650, 1293.508
532.7471, 1285.517
533.2292, 1281.750
533.7113, 1286.487
534.1934, 1290.650
534.6755, 1290.541
535.1577, 1288.594
535.6398, 1288.678
536.1219, 1292.165
536.6040, 1295.182
537.0861, 1293.030
537.5682, 1287.472
538.0504, 1283.565
538.5325, 1281.630
539.0146, 1283.871
539.4967, 1294.137
539.9788, 1309.761
540.4609, 1317.349
540.9431, 1311.819
541.4252, 1306.296
541.9073, 1303.608
542.3894, 1301.988
542.8715, 1297.863
543.3536, 1292.279
543.8358, 1292.046
544.3179, 1304.168
544.8000, 1324.465
545.2821, 1334.083
545.7642, 1329.895
546.2463, 1323.550
546.7285, 1316.046
547.2106, 1308.838
547.6926, 1302.919
548.1747, 1298.332
548.6569, 1294.773
549.1390, 1290.586
549.6211, 1288.482
550.1032, 1294.476
550.5853, 1306.062
551.0674, 1311.714
551.5496, 1306.331
552.0317, 1295.782
552.5138, 1289.934
552.9959, 1291.953
553.4780, 1287.715
553.9601, 1268.833
554.4423, 1253.548
554.9244, 1252.288
555.4065, 1258.487
555.8886, 1261.083
556.3707, 1255.938
556.8528, 1248.954
557.3350, 1248.864
557.8171, 1254.279
558.2992, 1252.386
558.7813, 1239.230
559.2634, 1227.733
559.7455, 1228.278
560.2277, 1236.850
560.7098, 1240.048
561.1919, 1235.428
561.6740, 1229.563
562.1561, 1222.869
562.6382, 1216.939
563.1204, 1215.320
563.6025, 1216.932
564.0846, 1214.967
564.5667, 1203.571
565.0488, 1186.211
565.5309, 1176.224
566.0131, 1174.542
566.4952, 1177.910
566.9773, 1192.626
567.4594, 1206.781
567.9415, 1213.913
568.4236, 1213.925
568.9058, 1208.273
569.3879, 1191.046
569.8700, 1174.252
570.3521, 1171.333
570.8342, 1179.209
571.3163, 1189.421
571.7985, 1200.027
572.2806, 1205.422
572.7627, 1196.882
573.2448, 1171.596
573.7269, 1158.916
574.2090, 1168.890
574.6912, 1178.651
575.1733, 1185.172
575.6554, 1187.135
576.1375, 1180.695
576.6196, 1166.111
577.1017, 1153.583
577.5839, 1155.078
578.0660, 1165.987
578.5481, 1169.131
579.0302, 1162.947
579.5123, 1161.387
579.9944, 1173.803
580.4766, 1191.905
580.9587, 1198.787
581.4408, 1192.189
581.9229, 1186.634
582.4050, 1185.210
582.8871, 1184.412
583.3693, 1181.588
583.8514, 1177.583
584.3335, 1173.966
584.8156, 1171.455
585.2977, 1171.337
585.7798, 1178.332
586.2620, 1193.913
586.7441, 1197.651
587.2262, 1180.513
587.7083, 1164.789
588.1904, 1168.325
588.6725, 1180.244
589.1547, 1181.839
589.6368, 1166.359
590.1189, 1151.879
590.6010, 1148.007
591.0831, 1149.519
591.5652, 1149.671
592.0474, 1148.193
592.5295, 1149.048
593.0116, 1155.296
593.4937, 1164.463
593.9758, 1168.472
594.4579, 1163.898
594.9401, 1162.271
595.4222, 1167.714
595.9043, 1173.429
596.3864, 1176.413
596.8685, 1176.947
597.3506, 1176.172
597.8328, 1174.407
598.3149, 1171.657
598.7970, 1165.490
599.2791, 1158.536
599.7612, 1159.470
600.2433, 1169.998
600.7255, 1179.920
601.2076, 1180.486
601.6897, 1172.754
602.1718, 1165.302
602.6539, 1155.109
603.1360, 1149.567
603.6182, 1152.504
604.1003, 1157.622
604.5824, 1161.013
605.0645, 1162.204
605.5466, 1161.827
606.0287, 1159.818
606.5109, 1157.028
606.9930, 1153.741
607.4751, 1150.363
607.9572, 1150.603
608.4393, 1155.948
608.9214, 1163.123
609.4036, 1169.939
609.8857, 1176.375
610.3678, 1176.682
610.8499, 1162.627
611.3320, 1153.461
611.8141, 1157.280
612.2963, 1165.812
612.7784, 1170.172
613.2605, 1169.875
613.7426, 1171.261
614.2247, 1181.190
614.7068, 1194.481
615.1890, 1196.928
615.6711, 1187.999
616.1532, 1180.445
616.6353, 1178.701
617.1174, 1178.197
617.5995, 1172.372
618.0817, 1161.083
618.5638, 1156.692
619.0459, 1164.519
619.5280, 1173.702
620.0101, 1182.291
620.4922, 1188.772
620.9744, 1190.698
621.4565, 1188.137
621.9386, 1184.288
622.4207, 1181.195
622.9028, 1179.467
623.3849, 1182.890
623.8671, 1192.955
624.3492, 1199.214
624.8313, 1196.829
625.3134, 1191.235
625.7955, 1189.071
626.2776, 1190.099
626.7598, 1189.829
627.2419, 1186.808
627.7240, 1183.266
628.2061, 1180.396
628.6882, 1177.701
629.1703, 1173.264
629.6525, 1167.278
630.1346, 1164.132
630.6167, 1169.926
631.0988, 1181.974
631.5809, 1184.400
632.0630, 1174.840
