##NAMES=Sulvanite
##RRUFFID=R060853
##IDEAL CHEMISTRY=Cu^2+^_3_V^3+^S^2-^_4_
##LOCALITY=Burra Burra, South Australia, Australia
##OWNER=RRUFF
##SOURCE=Michael Scott
##DESCRIPTION=Brassy metallic massive with black tarnished surfaces
##STATUS=The identification of this mineral is confirmed by single-crystal X-ray diffraction and chemical analysis.
##URL=rruff.info/R060853
##MEASURED CHEMISTRY=Cu_3.00_V_1.00_S_4.00_
134.0581, 1117.174
134.5402, 1134.109
135.0223, 1156.848
135.5044, 1182.880
135.9865, 1204.384
136.4686, 1219.681
136.9508, 1238.748
137.4329, 1271.397
137.9150, 1319.856
138.3971, 1362.164
138.8792, 1395.445
139.3613, 1420.198
139.8434, 1439.167
140.3256, 1450.717
140.8077, 1459.949
141.2898, 1470.273
141.7719, 1479.327
142.2540, 1496.168
142.7361, 1525.472
143.2183, 1568.923
143.7004, 1602.508
144.1825, 1619.719
144.6646, 1632.242
145.1467, 1655.364
145.6288, 1697.726
146.1110, 1738.574
146.5931, 1773.578
147.0752, 1805.728
147.5573, 1824.344
148.0394, 1830.239
148.5215, 1822.474
149.0037, 1798.467
149.4858, 1743.937
149.9679, 1686.332
150.4500, 1634.672
150.9321, 1595.178
151.4142, 1553.875
151.8964, 1505.938
152.3785, 1454.986
152.8606, 1414.436
153.3427, 1389.057
153.8248, 1371.204
154.3069, 1356.956
154.7890, 1352.031
155.2712, 1344.084
155.7533, 1329.938
156.2354, 1310.214
156.7175, 1291.053
157.1996, 1269.228
157.6817, 1250.340
158.1639, 1238.739
158.6460, 1236.958
159.1281, 1241.116
159.6102, 1253.402
160.0923, 1274.496
160.5744, 1290.352
161.0566, 1291.961
161.5387, 1286.764
162.0208, 1283.526
162.5029, 1289.825
162.9850, 1295.281
163.4671, 1293.522
163.9493, 1282.467
164.4314, 1271.493
164.9135, 1264.649
165.3956, 1260.970
165.8777, 1258.761
166.3598, 1256.502
166.8420, 1255.935
167.3241, 1259.445
167.8062, 1269.651
168.2883, 1278.235
168.7704, 1276.554
169.2525, 1268.410
169.7346, 1264.166
170.2168, 1276.641
170.6989, 1293.246
171.1810, 1299.770
171.6631, 1288.239
172.1452, 1273.336
172.6273, 1267.058
173.1095, 1268.515
173.5916, 1272.924
174.0737, 1280.780
174.5558, 1288.913
175.0379, 1291.791
175.5201, 1283.285
176.0022, 1272.794
176.4843, 1272.191
176.9664, 1281.037
177.4485, 1292.965
177.9306, 1309.088
178.4128, 1324.614
178.8949, 1328.726
179.3770, 1309.570
179.8591, 1279.593
180.3412, 1258.886
180.8233, 1247.491
181.3055, 1241.937
181.7876, 1239.245
182.2697, 1239.519
182.7518, 1243.048
183.2339, 1252.146
183.7160, 1264.542
184.1982, 1274.529
184.6803, 1281.967
185.1624, 1287.179
185.6445, 1290.256
186.1266, 1291.279
186.6087, 1291.127
187.0908, 1286.314
187.5730, 1279.695
188.0551, 1284.699
188.5372, 1304.399
189.0193, 1330.191
189.5014, 1347.800
189.9835, 1357.596
190.4657, 1369.682
190.9478, 1393.193
191.4299, 1426.301
191.9120, 1451.918
192.3941, 1467.038
192.8762, 1476.073
193.3584, 1485.944
193.8405, 1496.242
194.3226, 1512.005
194.8047, 1540.956
195.2868, 1582.564
195.7689, 1614.596
196.2511, 1631.612
196.7332, 1639.421
197.2153, 1655.847
197.6974, 1682.236
198.1795, 1710.354
198.6616, 1734.316
199.1438, 1754.234
199.6259, 1771.934
200.1080, 1787.953
200.5901, 1802.046
201.0722, 1813.503
201.5543, 1823.188
202.0364, 1827.663
202.5186, 1822.828
203.0007, 1807.652
203.4828, 1790.275
203.9649, 1774.141
204.4470, 1757.787
204.9291, 1727.625
205.4113, 1679.561
205.8934, 1626.338
206.3755, 1580.556
206.8576, 1542.958
207.3397, 1509.604
207.8218, 1479.792
208.3040, 1453.533
208.7861, 1430.013
209.2682, 1409.137
209.7503, 1391.647
210.2324, 1379.505
210.7145, 1374.657
211.1967, 1369.421
211.6788, 1361.667
212.1609, 1351.266
212.6430, 1340.461
213.1251, 1329.526
213.6072, 1318.090
214.0894, 1304.257
214.5715, 1284.995
215.0536, 1271.046
215.5357, 1268.248
216.0178, 1279.882
216.4999, 1282.612
216.9820, 1271.864
217.4642, 1255.882
217.9463, 1249.284
218.4284, 1256.930
218.9105, 1263.647
219.3926, 1264.203
219.8747, 1258.110
220.3569, 1246.614
220.8390, 1224.847
221.3211, 1200.596
221.8032, 1189.357
222.2853, 1197.125
222.7674, 1207.194
223.2496, 1213.491
223.7317, 1216.492
224.2138, 1214.221
224.6959, 1204.086
225.1780, 1189.801
225.6601, 1179.078
226.1423, 1171.264
226.6244, 1168.248
227.1065, 1172.199
227.5886, 1188.941
228.0707, 1198.702
228.5528, 1199.067
229.0350, 1192.788
229.5171, 1187.602
229.9992, 1182.449
230.4813, 1179.745
230.9634, 1181.353
231.4455, 1191.062
231.9276, 1196.448
232.4098, 1194.424
232.8919, 1187.911
233.3740, 1188.506
233.8561, 1202.547
234.3382, 1214.765
234.8203, 1216.186
235.3025, 1198.204
235.7846, 1187.867
236.2667, 1189.813
236.7488, 1200.567
237.2309, 1204.582
237.7130, 1195.851
238.1952, 1188.281
238.6773, 1191.108
239.1594, 1214.033
239.6415, 1226.526
240.1236, 1221.228
240.6057, 1203.071
241.0879, 1197.262
241.5700, 1211.240
242.0521, 1228.118
242.5342, 1238.603
243.0163, 1243.482
243.4984, 1239.488
243.9806, 1220.787
244.4627, 1191.547
244.9448, 1175.967
245.4269, 1179.091
245.9090, 1189.589
246.3911, 1201.707
246.8732, 1219.876
247.3554, 1230.029
247.8375, 1228.723
248.3196, 1217.626
248.8017, 1207.562
249.2838, 1198.243
249.7659, 1190.490
250.2481, 1184.823
250.7302, 1181.563
251.2123, 1179.966
251.6944, 1181.042
252.1765, 1184.121
252.6586, 1184.183
253.1408, 1178.994
253.6229, 1173.930
254.1050, 1173.200
254.5871, 1179.927
255.0692, 1183.617
255.5513, 1182.339
256.0334, 1176.908
256.5156, 1172.125
256.9977, 1167.285
257.4798, 1164.062
257.9619, 1163.798
258.4440, 1167.339
258.9261, 1171.535
259.4083, 1175.806
259.8904, 1180.365
260.3725, 1187.019
260.8546, 1197.408
261.3367, 1207.329
261.8188, 1213.851
262.3010, 1216.571
262.7831, 1216.871
263.2652, 1213.868
263.7473, 1208.410
264.2294, 1204.547
264.7115, 1200.653
265.1937, 1201.385
265.6758, 1213.796
266.1579, 1244.938
266.6400, 1260.416
267.1221, 1249.664
267.6042, 1219.993
268.0864, 1208.960
268.5685, 1222.230
269.0506, 1241.827
269.5327, 1255.920
270.0148, 1264.110
270.4969, 1267.985
270.9791, 1265.261
271.4612, 1258.899
271.9433, 1263.124
272.4254, 1281.945
272.9075, 1300.327
273.3896, 1305.119
273.8718, 1293.219
274.3539, 1287.668
274.8360, 1291.683
275.3181, 1303.619
275.8002, 1318.991
276.2823, 1338.885
276.7645, 1358.167
277.2466, 1373.251
277.7287, 1383.702
278.2108, 1393.604
278.6929, 1403.327
279.1750, 1412.910
279.6572, 1422.200
280.1393, 1430.973
280.6214, 1440.514
281.1035, 1451.916
281.5856, 1465.187
282.0677, 1478.984
282.5499, 1494.058
283.0320, 1508.561
283.5141, 1517.071
283.9962, 1519.007
284.4783, 1520.576
284.9604, 1527.971
285.4425, 1540.505
285.9247, 1545.477
286.4068, 1540.509
286.8889, 1529.326
287.3710, 1518.184
287.8531, 1507.089
288.3352, 1496.401
288.8174, 1485.152
289.2995, 1473.993
289.7816, 1468.002
290.2637, 1469.346
290.7458, 1472.403
291.2279, 1466.942
291.7101, 1453.522
292.1922, 1440.208
292.6743, 1431.616
293.1564, 1426.924
293.6385, 1424.060
294.1206, 1423.403
294.6028, 1422.944
295.0849, 1419.666
295.5670, 1413.974
296.0491, 1408.066
296.5312, 1400.705
297.0133, 1394.257
297.4955, 1396.718
297.9776, 1410.545
298.4597, 1424.094
298.9418, 1420.370
299.4239, 1403.949
299.9060, 1390.456
300.3882, 1394.294
300.8703, 1404.270
301.3524, 1399.774
301.8345, 1378.188
302.3166, 1354.562
302.7987, 1343.964
303.2809, 1342.371
303.7630, 1339.943
304.2451, 1327.964
304.7272, 1314.627
305.2093, 1312.237
305.6914, 1321.870
306.1736, 1330.023
306.6557, 1321.095
307.1378, 1303.915
307.6199, 1293.703
308.1020, 1305.800
308.5841, 1321.549
309.0663, 1323.201
309.5484, 1310.715
310.0305, 1298.164
310.5126, 1293.487
310.9947, 1294.343
311.4768, 1297.903
311.9590, 1307.614
312.4411, 1316.144
312.9232, 1318.854
313.4053, 1315.960
313.8874, 1310.336
314.3695, 1296.547
314.8517, 1283.657
315.3337, 1280.332
315.8159, 1301.067
316.2980, 1320.116
316.7801, 1325.969
317.2622, 1320.286
317.7443, 1312.779
318.2264, 1304.033
318.7086, 1296.807
319.1907, 1293.238
319.6728, 1297.460
320.1549, 1300.815
320.6370, 1299.916
321.1191, 1296.016
321.6013, 1293.506
322.0834, 1294.758
322.5655, 1296.765
323.0476, 1297.731
323.5297, 1294.640
324.0118, 1294.787
324.4940, 1302.161
324.9761, 1313.636
325.4582, 1321.422
325.9403, 1321.286
326.4224, 1320.077
326.9045, 1320.073
327.3867, 1320.745
327.8688, 1323.836
328.3509, 1330.913
328.8330, 1340.120
329.3151, 1348.486
329.7972, 1356.506
330.2794, 1363.202
330.7615, 1369.203
331.2436, 1376.241
331.7257, 1375.574
332.2078, 1359.685
332.6899, 1340.698
333.1721, 1335.286
333.6542, 1350.919
334.1363, 1367.321
334.6184, 1379.260
335.1005, 1386.124
335.5826, 1398.169
336.0648, 1420.839
336.5469, 1441.853
337.0290, 1446.205
337.5111, 1426.100
337.9932, 1413.616
338.4753, 1417.812
338.9575, 1436.015
339.4396, 1446.528
339.9217, 1446.211
340.4038, 1446.274
340.8859, 1459.137
341.3680, 1486.710
341.8502, 1505.975
342.3323, 1511.498
342.8144, 1506.938
343.2965, 1500.733
343.7786, 1492.205
344.2607, 1487.479
344.7429, 1494.634
345.2250, 1511.908
345.7071, 1520.744
346.1892, 1517.194
346.6713, 1507.808
347.1534, 1500.421
347.6355, 1495.540
348.1176, 1499.266
348.5998, 1521.888
349.0819, 1556.047
349.5640, 1581.397
350.0461, 1596.387
350.5282, 1603.141
351.0103, 1599.202
351.4925, 1588.148
351.9746, 1581.731
352.4567, 1588.737
352.9388, 1602.699
353.4209, 1614.876
353.9030, 1624.865
354.3852, 1634.319
354.8673, 1641.630
355.3494, 1649.764
355.8315, 1663.784
356.3136, 1685.072
356.7957, 1713.571
357.2779, 1751.426
357.7600, 1798.263
358.2421, 1845.914
358.7242, 1875.856
359.2063, 1910.333
359.6884, 1972.095
360.1706, 2073.405
360.6527, 2197.017
361.1348, 2333.634
361.6169, 2485.970
362.0990, 2661.380
362.5811, 2871.579
363.0633, 3101.251
363.5454, 3341.880
364.0275, 3597.482
364.5096, 3854.323
364.9917, 4113.407
365.4738, 4371.426
365.9560, 4622.171
366.4381, 4848.735
366.9202, 5078.226
367.4023, 5320.446
367.8844, 5573.887
368.3665, 5845.707
368.8487, 6137.892
369.3308, 6449.811
369.8129, 6777.323
370.2950, 7118.651
370.7771, 7476.899
371.2592, 7866.925
371.7414, 8292.438
372.2235, 8675.136
372.7056, 9039.707
373.1877, 9337.238
373.6698, 9528.783
374.1519, 9633.625
374.6341, 9579.682
375.1162, 9341.561
375.5983, 8933.434
376.0804, 8423.497
376.5625, 7794.589
377.0446, 7119.397
377.5267, 6433.532
378.0089, 5722.044
378.4910, 5098.315
378.9731, 4582.210
379.4552, 4149.696
379.9373, 3764.174
380.4194, 3422.316
380.9016, 3130.664
381.3837, 2896.345
381.8658, 2715.437
382.3479, 2562.728
382.8300, 2439.229
383.3121, 2336.195
383.7943, 2247.694
384.2764, 2173.045
384.7585, 2107.464
385.2406, 2051.167
385.7227, 2002.118
386.2048, 1960.365
386.6870, 1925.759
387.1691, 1892.670
387.6512, 1854.903
388.1333, 1816.200
388.6154, 1782.257
389.0975, 1756.223
389.5797, 1734.561
390.0618, 1717.317
390.5439, 1702.956
391.0260, 1685.714
391.5081, 1655.366
391.9902, 1624.793
392.4724, 1606.069
392.9545, 1608.937
393.4366, 1609.069
393.9187, 1589.068
394.4008, 1559.352
394.8829, 1540.142
395.3651, 1549.406
395.8472, 1561.129
396.3293, 1564.696
396.8114, 1558.405
397.2935, 1546.995
397.7756, 1524.947
398.2578, 1500.541
398.7399, 1482.716
399.2220, 1474.374
399.7041, 1470.260
400.1862, 1472.949
400.6683, 1482.229
401.1505, 1481.708
401.6326, 1461.356
402.1147, 1441.287
402.5968, 1436.043
403.0789, 1453.696
403.5610, 1467.624
404.0432, 1476.367
404.5253, 1479.791
405.0074, 1476.219
405.4895, 1463.262
405.9716, 1449.997
406.4537, 1440.815
406.9359, 1435.821
407.4180, 1432.112
407.9001, 1429.387
408.3822, 1428.501
408.8643, 1432.152
409.3464, 1440.179
409.8285, 1445.947
410.3106, 1445.347
410.7928, 1440.889
411.2749, 1438.786
411.7570, 1438.985
412.2391, 1443.623
412.7212, 1461.867
413.2033, 1486.269
413.6855, 1496.502
414.1676, 1481.250
414.6497, 1458.869
415.1318, 1448.828
415.6139, 1449.599
416.0960, 1455.466
416.5782, 1466.156
417.0603, 1478.672
417.5424, 1491.926
418.0245, 1508.123
418.5066, 1515.777
418.9887, 1496.546
419.4709, 1466.747
419.9530, 1451.622
420.4351, 1477.855
420.9172, 1505.469
421.3993, 1514.901
421.8814, 1504.399
422.3636, 1497.306
422.8457, 1499.820
423.3278, 1507.365
423.8099, 1516.446
424.2920, 1534.438
424.7741, 1544.924
425.2563, 1540.542
425.7384, 1526.150
426.2205, 1522.399
426.7026, 1534.963
427.1847, 1551.077
427.6668, 1565.411
428.1490, 1577.302
428.6311, 1589.616
429.1132, 1603.455
429.5953, 1616.781
430.0774, 1625.262
430.5595, 1627.285
431.0417, 1631.545
431.5238, 1639.950
432.0059, 1652.694
432.4880, 1672.812
432.9701, 1701.428
433.4522, 1731.116
433.9344, 1751.187
434.4165, 1764.329
434.8986, 1791.294
435.3807, 1839.192
435.8628, 1897.437
436.3449, 1950.137
436.8271, 1998.091
437.3092, 2045.863
437.7913, 2088.747
438.2734, 2135.440
438.7555, 2202.920
439.2376, 2295.733
439.7197, 2386.111
440.2018, 2449.678
440.6840, 2496.928
441.1661, 2544.291
441.6482, 2599.650
442.1303, 2654.993
442.6124, 2698.483
443.0945, 2733.373
443.5767, 2786.698
444.0588, 2883.072
444.5409, 2992.250
445.0230, 3093.558
445.5051, 3169.427
445.9872, 3259.135
446.4694, 3377.431
446.9515, 3512.825
447.4336, 3640.253
447.9157, 3782.458
448.3978, 3892.475
448.8799, 3972.871
449.3621, 4040.411
449.8442, 3966.033
450.3263, 3699.222
450.8084, 3353.222
451.2905, 3026.456
451.7726, 2715.248
452.2548, 2448.356
452.7369, 2228.965
453.2190, 2058.816
453.7011, 1947.154
454.1832, 1900.295
454.6653, 1869.344
455.1475, 1823.011
455.6296, 1765.631
456.1117, 1719.239
456.5938, 1686.058
457.0759, 1662.958
457.5580, 1650.441
458.0402, 1645.984
458.5223, 1641.335
459.0044, 1632.946
459.4865, 1622.646
459.9686, 1610.765
460.4507, 1597.880
460.9329, 1588.412
461.4150, 1588.323
461.8971, 1591.934
462.3792, 1593.204
462.8613, 1588.138
463.3434, 1585.453
463.8256, 1593.577
464.3077, 1606.688
464.7898, 1613.109
465.2719, 1602.760
465.7540, 1590.937
466.2361, 1583.132
466.7183, 1579.965
467.2004, 1578.476
467.6825, 1579.270
468.1646, 1581.117
468.6467, 1583.605
469.1288, 1591.111
469.6110, 1590.784
470.0930, 1575.983
470.5752, 1553.246
471.0573, 1547.494
471.5394, 1565.312
472.0215, 1582.906
472.5036, 1585.588
472.9857, 1572.122
473.4679, 1573.500
473.9500, 1594.589
474.4321, 1615.030
474.9142, 1602.079
475.3963, 1561.147
475.8784, 1532.968
476.3606, 1535.116
476.8427, 1552.898
477.3248, 1561.267
477.8069, 1561.357
478.2890, 1560.448
478.7711, 1563.754
479.2533, 1568.881
479.7354, 1572.458
480.2175, 1573.377
480.6996, 1575.126
481.1817, 1581.905
481.6638, 1590.621
482.1460, 1596.556
482.6281, 1594.897
483.1102, 1592.795
483.5923, 1593.950
484.0744, 1598.144
484.5565, 1599.803
485.0387, 1594.250
485.5208, 1588.172
486.0029, 1585.469
486.4850, 1587.430
486.9671, 1590.760
487.4492, 1595.616
487.9314, 1601.769
488.4135, 1609.758
488.8956, 1622.749
489.3777, 1630.131
489.8598, 1627.336
490.3419, 1615.195
490.8241, 1604.533
491.3062, 1594.795
491.7883, 1588.740
492.2704, 1591.278
492.7525, 1601.148
493.2346, 1606.582
493.7168, 1605.026
494.1989, 1599.750
494.6810, 1593.810
495.1631, 1587.807
495.6452, 1584.097
496.1273, 1584.078
496.6095, 1586.963
497.0916, 1594.390
497.5737, 1606.181
498.0558, 1612.987
498.5379, 1603.190
499.0201, 1587.834
499.5022, 1578.109
499.9843, 1578.300
500.4664, 1582.354
500.9485, 1592.554
501.4306, 1605.192
501.9127, 1611.152
502.3948, 1604.417
502.8770, 1594.829
503.3591, 1583.832
503.8412, 1570.233
504.3233, 1564.117
504.8054, 1570.610
505.2875, 1579.480
505.7697, 1581.914
506.2518, 1575.738
506.7339, 1569.913
507.2160, 1564.964
507.6981, 1561.331
508.1802, 1560.230
508.6624, 1561.734
509.1445, 1564.960
509.6266, 1571.003
510.1087, 1578.655
510.5908, 1581.995
511.0729, 1580.714
511.5551, 1580.050
512.0372, 1587.035
512.5193, 1597.948
513.0014, 1605.044
513.4835, 1604.791
513.9656, 1602.972
514.4478, 1604.901
514.9299, 1609.021
515.4120, 1611.438
515.8941, 1604.844
516.3762, 1600.528
516.8583, 1607.462
517.3405, 1627.798
517.8226, 1642.021
518.3047, 1638.619
518.7868, 1631.584
519.2689, 1632.148
519.7510, 1650.365
520.2332, 1662.166
520.7153, 1663.032
521.1974, 1657.745
521.6795, 1657.922
522.1616, 1665.307
522.6437, 1673.972
523.1259, 1683.059
523.6080, 1692.291
524.0901, 1694.687
524.5722, 1689.238
525.0543, 1681.627
525.5364, 1676.167
526.0186, 1672.740
526.5007, 1671.005
526.9828, 1671.241
527.4649, 1672.335
527.9470, 1672.649
528.4291, 1672.605
528.9113, 1673.471
529.3934, 1677.184
529.8755, 1681.125
530.3576, 1681.772
530.8397, 1679.318
531.3218, 1680.166
531.8040, 1692.619
532.2861, 1706.409
532.7682, 1713.076
533.2503, 1705.284
533.7324, 1700.463
534.2145, 1705.403
534.6967, 1713.751
535.1788, 1713.870
535.6609, 1695.294
536.1430, 1685.160
536.6251, 1694.583
537.1072, 1721.159
537.5894, 1728.879
538.0715, 1712.356
538.5536, 1692.918
539.0357, 1686.535
539.5178, 1692.545
539.9999, 1695.946
540.4821, 1694.674
540.9642, 1693.384
541.4463, 1701.040
541.9284, 1714.452
542.4105, 1722.290
542.8926, 1717.494
543.3748, 1707.458
543.8569, 1699.833
544.3390, 1694.221
544.8211, 1688.427
545.3032, 1681.160
545.7853, 1673.251
546.2675, 1664.601
546.7495, 1654.296
547.2316, 1647.121
547.7137, 1644.284
548.1959, 1645.334
548.6780, 1649.897
549.1601, 1667.469
549.6422, 1675.867
550.1243, 1668.012
550.6064, 1649.693
551.0886, 1641.898
551.5707, 1648.936
552.0528, 1656.070
552.5349, 1656.183
553.0170, 1649.584
553.4991, 1646.878
553.9813, 1648.932
554.4634, 1650.309
554.9455, 1642.865
555.4276, 1629.599
555.9097, 1623.324
556.3918, 1629.043
556.8740, 1636.391
557.3561, 1631.573
557.8382, 1619.065
558.3203, 1609.797
558.8024, 1611.519
559.2845, 1616.221
559.7667, 1617.462
560.2488, 1615.564
560.7309, 1618.245
561.2130, 1635.675
561.6951, 1653.098
562.1772, 1661.087
562.6594, 1651.304
563.1415, 1646.015
563.6236, 1648.416
564.1057, 1653.591
564.5878, 1654.489
565.0699, 1648.304
565.5521, 1645.932
566.0342, 1650.818
566.5163, 1660.661
566.9984, 1667.491
567.4805, 1671.143
567.9626, 1673.406
568.4448, 1674.790
568.9269, 1675.642
569.4090, 1676.498
569.8911, 1677.273
570.3732, 1679.793
570.8553, 1687.438
571.3375, 1697.443
571.8196, 1705.213
572.3017, 1708.246
572.7838, 1711.301
573.2659, 1719.320
573.7480, 1729.061
574.2302, 1734.140
574.7123, 1725.448
575.1944, 1718.886
575.6765, 1722.369
576.1586, 1736.071
576.6407, 1741.885
577.1229, 1735.807
577.6050, 1726.938
578.0871, 1721.101
578.5692, 1720.175
579.0513, 1712.144
579.5334, 1693.407
580.0156, 1674.760
580.4977, 1672.875
580.9798, 1686.327
581.4619, 1698.607
581.9440, 1703.916
582.4261, 1707.225
582.9083, 1719.991
583.3904, 1738.921
583.8725, 1750.712
584.3546, 1742.265
584.8367, 1727.015
585.3188, 1714.065
585.8010, 1704.112
586.2831, 1700.823
586.7652, 1710.894
587.2473, 1725.141
587.7294, 1737.095
588.2115, 1753.060
588.6937, 1755.159
589.1758, 1733.133
589.6579, 1701.577
590.1400, 1683.655
590.6221, 1685.336
591.1042, 1685.068
591.5864, 1674.280
592.0685, 1658.568
592.5506, 1667.429
593.0327, 1703.434
593.5148, 1731.241
593.9969, 1719.524
594.4791, 1682.989
594.9612, 1663.832
595.4433, 1664.407
595.9254, 1669.321
596.4075, 1663.131
596.8896, 1653.937
597.3718, 1653.802
597.8539, 1671.810
598.3360, 1688.159
598.8181, 1691.569
599.3002, 1687.150
599.7823, 1684.334
600.2645, 1692.004
600.7466, 1693.841
601.2287, 1681.106
601.7108, 1656.262
602.1929, 1645.203
602.6750, 1654.358
603.1572, 1665.856
603.6393, 1670.792
604.1214, 1668.797
604.6035, 1664.393
605.0856, 1656.581
605.5677, 1650.301
606.0499, 1652.806
606.5320, 1661.649
607.0141, 1667.502
607.4962, 1667.274
607.9783, 1665.738
608.4604, 1665.785
608.9425, 1668.401
609.4246, 1675.726
609.9067, 1699.128
610.3889, 1718.076
610.8710, 1719.818
611.3531, 1705.807
611.8352, 1691.015
612.3173, 1673.103
612.7994, 1659.743
613.2816, 1655.127
613.7637, 1662.207
614.2458, 1665.963
614.7279, 1664.984
615.2100, 1662.917
615.6921, 1664.437
616.1743, 1669.994
616.6564, 1670.242
617.1385, 1662.050
617.6206, 1652.089
618.1027, 1652.483
618.5848, 1660.819
619.0670, 1667.350
619.5491, 1667.566
620.0312, 1664.190
620.5133, 1652.389
620.9954, 1636.602
621.4775, 1637.382
621.9597, 1692.744
622.4418, 1745.347
622.9239, 1755.377
623.4060, 1707.583
623.8881, 1679.647
624.3702, 1696.169
624.8524, 1722.673
625.3345, 1735.003
625.8166, 1728.413
626.2987, 1719.962
626.7808, 1709.094
627.2629, 1698.758
627.7451, 1693.151
628.2272, 1692.285
628.7093, 1697.125
629.1914, 1711.587
629.6735, 1728.140
630.1556, 1729.951
