##NAMES=Suolunite
##RRUFFID=R060917
##IDEAL CHEMISTRY=Ca_2_Si_2_O_5_(OH)_2_&#183;H_2_O
##LOCALITY=Lac d'Amiante mine, Black Lake, Quebec, Canada
##OWNER=RRUFF
##SOURCE=Royal Ontario Museum
##DESCRIPTION=Large white to pale lavender fragment
##STATUS=The identification of this mineral has been confirmed by X-ray diffraction and chemical analysis
##URL=rruff.info/R060917
##MEASURED CHEMISTRY=Ca_2.00_Si_2.00_O_5_(OH)_2_Â·1.8H_2_O; H_2_O estimated by difference
111.3986, 862.7628
111.8807, 977.7758
112.3628, 1123.898
112.8449, 1320.640
113.3271, 1530.580
113.8092, 1751.569
114.2913, 1984.643
114.7734, 2212.045
115.2555, 2433.598
115.7376, 2645.441
116.2198, 2837.542
116.7019, 2977.247
117.1840, 3117.205
117.6661, 3289.311
118.1482, 3508.089
118.6303, 3731.669
119.1124, 3965.628
119.5946, 4191.216
120.0767, 4359.578
120.5588, 4450.515
121.0409, 4470.771
121.5230, 4421.793
122.0051, 4277.812
122.4873, 4096.780
122.9694, 3915.598
123.4515, 3735.006
123.9336, 3565.034
124.4157, 3407.540
124.8979, 3266.051
125.3800, 3146.677
125.8621, 3055.853
126.3442, 2986.378
126.8263, 2929.477
127.3084, 2885.783
127.7905, 2852.893
128.2727, 2832.736
128.7548, 2823.007
129.2369, 2815.707
129.7190, 2813.706
130.2011, 2811.868
130.6832, 2793.498
131.1654, 2755.820
131.6475, 2707.515
132.1296, 2659.940
132.6117, 2612.829
133.0938, 2565.098
133.5759, 2515.164
134.0581, 2463.060
134.5402, 2412.497
135.0223, 2361.967
135.5044, 2314.188
135.9865, 2274.978
136.4686, 2243.317
136.9508, 2225.485
137.4329, 2228.985
137.9150, 2256.000
138.3971, 2287.458
138.8792, 2318.965
139.3613, 2352.014
139.8434, 2398.994
140.3256, 2462.947
140.8077, 2536.265
141.2898, 2611.490
141.7719, 2683.611
142.2540, 2769.147
142.7361, 2869.257
143.2183, 2984.182
143.7004, 3120.808
144.1825, 3276.653
144.6646, 3456.134
145.1467, 3663.158
145.6288, 3910.544
146.1110, 4170.431
146.5931, 4431.623
147.0752, 4686.375
147.5573, 4968.667
148.0394, 5277.381
148.5215, 5611.722
149.0037, 5976.628
149.4858, 6371.789
149.9679, 6792.368
150.4500, 7241.203
150.9321, 7713.496
151.4142, 8214.726
151.8964, 8750.857
152.3785, 9317.658
152.8606, 9896.706
153.3427, 10526.59
153.8248, 11149.20
154.3069, 11734.12
154.7890, 12374.54
155.2712, 12885.56
155.7533, 13266.52
156.2354, 13508.29
156.7175, 13553.58
157.1996, 13355.35
157.6817, 12973.77
158.1639, 12455.85
158.6460, 11717.54
159.1281, 10928.55
159.6102, 10109.80
160.0923, 9259.381
160.5744, 8466.637
161.0566, 7754.473
161.5387, 7118.049
162.0208, 6552.013
162.5029, 6067.727
162.9850, 5643.893
163.4671, 5272.349
163.9493, 4957.941
164.4314, 4686.044
164.9135, 4459.076
165.3956, 4270.101
165.8777, 4107.570
166.3598, 3968.681
166.8420, 3853.335
167.3241, 3760.642
167.8062, 3689.029
168.2883, 3644.597
168.7704, 3633.805
169.2525, 3653.055
169.7346, 3693.564
170.2168, 3755.197
170.6989, 3833.375
171.1810, 3924.522
171.6631, 4031.301
172.1452, 4145.161
172.6273, 4253.587
173.1095, 4360.570
173.5916, 4487.037
174.0737, 4640.411
174.5558, 4823.659
175.0379, 5039.259
175.5201, 5293.541
176.0022, 5577.347
176.4843, 5869.003
176.9664, 6170.356
177.4485, 6511.997
177.9306, 6916.111
178.4128, 7375.715
178.8949, 7888.041
179.3770, 8485.619
179.8591, 9116.558
180.3412, 9746.636
180.8233, 10382.32
181.3055, 10893.74
181.7876, 11191.20
182.2697, 11274.95
182.7518, 11154.16
183.2339, 10787.18
183.7160, 10222.90
184.1982, 9549.326
184.6803, 8754.983
185.1624, 7942.185
185.6445, 7193.575
186.1266, 6515.605
186.6087, 5902.573
187.0908, 5350.921
187.5730, 4863.210
188.0551, 4478.135
188.5372, 4198.876
189.0193, 3997.266
189.5014, 3837.207
189.9835, 3717.052
190.4657, 3631.049
190.9478, 3593.226
191.4299, 3594.923
191.9120, 3578.903
192.3941, 3544.661
192.8762, 3488.214
193.3584, 3397.751
193.8405, 3272.962
194.3226, 3135.203
194.8047, 2992.910
195.2868, 2846.509
195.7689, 2705.875
196.2511, 2569.165
196.7332, 2439.121
197.2153, 2322.269
197.6974, 2218.040
198.1795, 2126.277
198.6616, 2046.432
199.1438, 1977.651
199.6259, 1924.806
200.1080, 1890.191
200.5901, 1870.534
201.0722, 1857.818
201.5543, 1852.775
202.0364, 1851.271
202.5186, 1848.230
203.0007, 1842.040
203.4828, 1848.227
203.9649, 1873.011
204.4470, 1911.081
204.9291, 1936.944
205.4113, 1946.863
205.8934, 1955.139
206.3755, 1970.020
206.8576, 1989.431
207.3397, 2026.711
207.8218, 2089.076
208.3040, 2172.450
208.7861, 2244.469
209.2682, 2296.397
209.7503, 2352.941
210.2324, 2437.214
210.7145, 2552.849
211.1967, 2681.261
211.6788, 2825.243
212.1609, 2983.061
212.6430, 3127.421
213.1251, 3270.080
213.6072, 3379.497
214.0894, 3424.102
214.5715, 3396.441
215.0536, 3322.313
215.5357, 3193.945
216.0178, 3009.417
216.4999, 2852.410
216.9820, 2725.784
217.4642, 2625.056
217.9463, 2544.087
218.4284, 2482.652
218.9105, 2443.484
219.3926, 2429.942
219.8747, 2443.490
220.3569, 2465.294
220.8390, 2496.308
221.3211, 2534.713
221.8032, 2579.196
222.2853, 2628.271
222.7674, 2685.991
223.2496, 2753.717
223.7317, 2833.129
224.2138, 2915.995
224.6959, 3005.612
225.1780, 3096.636
225.6601, 3182.946
226.1423, 3254.934
226.6244, 3339.282
227.1065, 3445.586
227.5886, 3580.649
228.0707, 3709.902
228.5528, 3835.583
229.0350, 3955.533
229.5171, 4063.157
229.9992, 4149.648
230.4813, 4242.409
230.9634, 4353.500
231.4455, 4494.008
231.9276, 4614.517
232.4098, 4715.949
232.8919, 4797.318
233.3740, 4852.938
233.8561, 4876.511
234.3382, 4886.045
234.8203, 4891.430
235.3025, 4903.438
235.7846, 4873.584
236.2667, 4796.351
236.7488, 4680.134
237.2309, 4538.771
237.7130, 4362.886
238.1952, 4179.405
238.6773, 3996.308
239.1594, 3812.087
239.6415, 3633.008
240.1236, 3453.659
240.6057, 3280.432
241.0879, 3123.679
241.5700, 2986.839
242.0521, 2863.670
242.5342, 2752.625
243.0163, 2654.538
243.4984, 2566.010
243.9806, 2486.681
244.4627, 2416.969
244.9448, 2358.605
245.4269, 2316.031
245.9090, 2277.695
246.3911, 2238.377
246.8732, 2194.926
247.3554, 2159.245
247.8375, 2131.495
248.3196, 2111.400
248.8017, 2099.469
249.2838, 2100.951
249.7659, 2102.274
250.2481, 2097.213
250.7302, 2080.671
251.2123, 2072.803
251.6944, 2075.887
252.1765, 2086.690
252.6586, 2099.096
253.1408, 2114.168
253.6229, 2129.313
254.1050, 2143.239
254.5871, 2154.279
255.0692, 2169.155
255.5513, 2188.284
256.0334, 2211.066
256.5156, 2237.451
256.9977, 2270.358
257.4798, 2301.729
257.9619, 2326.970
258.4440, 2342.227
258.9261, 2365.747
259.4083, 2402.231
259.8904, 2444.192
260.3725, 2474.778
260.8546, 2488.217
261.3367, 2502.512
261.8188, 2525.563
262.3010, 2560.767
262.7831, 2590.898
263.2652, 2611.050
263.7473, 2629.986
264.2294, 2664.982
264.7115, 2717.820
265.1937, 2781.828
265.6758, 2856.877
266.1579, 2944.914
266.6400, 3026.704
267.1221, 3095.709
267.6042, 3164.121
268.0864, 3254.071
268.5685, 3372.619
269.0506, 3495.189
269.5327, 3610.485
270.0148, 3715.625
270.4969, 3834.611
270.9791, 3968.648
271.4612, 4114.968
271.9433, 4269.579
272.4254, 4435.375
272.9075, 4596.940
273.3896, 4745.771
273.8718, 4879.402
274.3539, 5017.835
274.8360, 5164.910
275.3181, 5313.258
275.8002, 5451.442
276.2823, 5577.721
276.7645, 5702.717
277.2466, 5836.098
277.7287, 5978.042
278.2108, 6097.747
278.6929, 6194.449
279.1750, 6272.134
279.6572, 6341.533
280.1393, 6405.147
280.6214, 6434.486
281.1035, 6415.003
281.5856, 6349.057
282.0677, 6261.209
282.5499, 6146.295
283.0320, 6024.882
283.5141, 5917.485
283.9962, 5823.953
284.4783, 5752.768
284.9604, 5712.267
285.4425, 5698.052
285.9247, 5686.306
286.4068, 5677.995
286.8889, 5668.168
287.3710, 5646.516
287.8531, 5614.448
288.3352, 5593.679
288.8174, 5600.075
289.2995, 5622.105
289.7816, 5618.504
290.2637, 5588.124
290.7458, 5542.893
291.2279, 5493.621
291.7101, 5439.686
292.1922, 5376.485
292.6743, 5298.396
293.1564, 5212.838
293.6385, 5139.478
294.1206, 5079.041
294.6028, 5019.982
295.0849, 4948.322
295.5670, 4868.469
296.0491, 4795.883
296.5312, 4739.412
297.0133, 4689.866
297.4955, 4628.132
297.9776, 4556.246
298.4597, 4488.756
298.9418, 4436.016
299.4239, 4397.055
299.9060, 4370.657
300.3882, 4358.223
300.8703, 4356.362
301.3524, 4356.478
301.8345, 4360.561
302.3166, 4382.515
302.7987, 4437.068
303.2809, 4514.605
303.7630, 4598.926
304.2451, 4678.876
304.7272, 4776.303
305.2093, 4912.415
305.6914, 5085.910
306.1736, 5281.735
306.6557, 5496.205
307.1378, 5729.682
307.6199, 5983.017
308.1020, 6259.992
308.5841, 6554.767
309.0663, 6856.271
309.5484, 7174.378
310.0305, 7520.912
310.5126, 7889.641
310.9947, 8301.048
311.4768, 8773.692
311.9590, 9316.805
312.4411, 9893.249
312.9232, 10484.41
313.4053, 11091.18
313.8874, 11702.73
314.3695, 12379.27
314.8517, 13026.96
315.3337, 13613.62
315.8159, 14152.32
316.2980, 14537.87
316.7801, 14734.46
317.2622, 14751.36
317.7443, 14603.76
318.2264, 14200.15
318.7086, 13717.55
319.1907, 13204.49
319.6728, 12656.67
320.1549, 12160.63
320.6370, 11720.62
321.1191, 11352.83
321.6013, 11072.74
322.0834, 10900.92
322.5655, 10804.04
323.0476, 10775.59
323.5297, 10815.20
324.0118, 10920.50
324.4940, 11087.98
324.9761, 11322.57
325.4582, 11628.06
325.9403, 12018.55
326.4224, 12465.26
326.9045, 12973.92
327.3867, 13542.45
327.8688, 14143.25
328.3509, 14737.62
328.8330, 15390.77
329.3151, 16145.62
329.7972, 17066.45
330.2794, 18002.75
330.7615, 18958.14
331.2436, 19933.43
331.7257, 20906.21
332.2078, 21876.62
332.6899, 22853.62
333.1721, 23855.81
333.6542, 24936.40
334.1363, 25916.61
334.6184, 26823.36
335.1005, 27622.01
335.5826, 28253.55
336.0648, 28717.63
336.5469, 29017.32
337.0290, 29168.80
337.5111, 29188.47
337.9932, 28958.24
338.4753, 28438.01
338.9575, 27719.35
339.4396, 26921.11
339.9217, 26032.16
340.4038, 25095.59
340.8859, 24099.59
341.3680, 23055.55
341.8502, 22027.77
342.3323, 21033.13
342.8144, 20061.61
343.2965, 19113.43
343.7786, 18180.53
344.2607, 17319.30
344.7429, 16550.43
345.2250, 15858.36
345.7071, 15169.12
346.1892, 14470.47
346.6713, 13814.65
347.1534, 13244.79
347.6355, 12749.58
348.1176, 12261.26
348.5998, 11754.30
349.0819, 11248.36
349.5640, 10774.83
350.0461, 10327.10
350.5282, 9905.432
351.0103, 9500.037
351.4925, 9117.769
351.9746, 8769.253
352.4567, 8464.296
352.9388, 8181.679
353.4209, 7896.709
353.9030, 7613.947
354.3852, 7348.294
354.8673, 7111.428
355.3494, 6895.055
355.8315, 6691.067
356.3136, 6500.018
356.7957, 6318.164
357.2779, 6144.710
357.7600, 5979.680
358.2421, 5825.589
358.7242, 5675.345
359.2063, 5540.522
359.6884, 5433.513
360.1706, 5355.938
360.6527, 5282.179
361.1348, 5190.952
361.6169, 5100.187
362.0990, 5030.303
362.5811, 4997.302
363.0633, 4975.310
363.5454, 4957.229
364.0275, 4942.791
364.5096, 4931.953
364.9917, 4911.302
365.4738, 4902.471
365.9560, 4919.579
366.4381, 4991.698
366.9202, 5058.834
367.4023, 5105.134
367.8844, 5139.386
368.3665, 5195.271
368.8487, 5286.437
369.3308, 5390.218
369.8129, 5499.298
370.2950, 5622.945
370.7771, 5731.986
371.2592, 5819.732
371.7414, 5895.086
372.2235, 5978.422
372.7056, 6088.640
373.1877, 6176.097
373.6698, 6228.069
374.1519, 6245.249
374.6341, 6216.870
375.1162, 6133.727
375.5983, 6017.981
376.0804, 5893.180
376.5625, 5761.083
377.0446, 5616.421
377.5267, 5457.792
378.0089, 5285.616
378.4910, 5106.055
378.9731, 4916.141
379.4552, 4735.308
379.9373, 4586.600
380.4194, 4467.509
380.9016, 4350.227
381.3837, 4227.562
381.8658, 4106.267
382.3479, 4000.734
382.8300, 3910.703
383.3121, 3824.276
383.7943, 3732.198
384.2764, 3639.162
384.7585, 3556.857
385.2406, 3488.297
385.7227, 3424.875
386.2048, 3359.263
386.6870, 3292.390
387.1691, 3226.432
387.6512, 3155.929
388.1333, 3091.059
388.6154, 3043.857
389.0975, 3015.109
389.5797, 2995.044
390.0618, 2981.989
390.5439, 2972.007
391.0260, 2960.362
391.5081, 2941.187
391.9902, 2924.070
392.4724, 2909.530
392.9545, 2899.697
393.4366, 2905.122
393.9187, 2949.159
394.4008, 2998.179
394.8829, 3027.517
395.3651, 3009.477
395.8472, 3010.167
396.3293, 3054.630
396.8114, 3128.974
397.2935, 3203.252
397.7756, 3270.021
398.2578, 3337.962
398.7399, 3407.539
399.2220, 3472.793
399.7041, 3559.457
400.1862, 3678.736
400.6683, 3813.516
401.1505, 3943.788
401.6326, 4053.392
402.1147, 4184.550
402.5968, 4350.412
403.0789, 4549.253
403.5610, 4744.286
404.0432, 4926.579
404.5253, 5119.808
405.0074, 5342.999
405.4895, 5601.732
405.9716, 5870.601
406.4537, 6145.544
406.9359, 6429.369
407.4180, 6727.396
407.9001, 7041.732
408.3822, 7363.049
408.8643, 7698.491
409.3464, 8043.856
409.8285, 8365.363
410.3106, 8659.597
410.7928, 8930.261
411.2749, 9203.594
411.7570, 9468.395
412.2391, 9663.846
412.7212, 9767.101
413.2033, 9788.565
413.6855, 9737.349
414.1676, 9615.104
414.6497, 9441.710
415.1318, 9220.895
415.6139, 8962.226
416.0960, 8682.485
416.5782, 8376.692
417.0603, 8060.862
417.5424, 7732.417
418.0245, 7403.121
418.5066, 7108.394
418.9887, 6861.530
419.4709, 6654.958
419.9530, 6482.738
420.4351, 6348.328
420.9172, 6238.630
421.3993, 6154.388
421.8814, 6092.099
422.3636, 6047.226
422.8457, 6024.446
423.3278, 6013.450
423.8099, 6018.719
424.2920, 6040.961
424.7741, 6049.849
425.2563, 6044.443
425.7384, 6025.108
426.2205, 5992.979
426.7026, 5954.353
427.1847, 5892.472
427.6668, 5809.332
428.1490, 5701.817
428.6311, 5559.613
429.1132, 5373.239
429.5953, 5167.956
430.0774, 4950.571
430.5595, 4718.636
431.0417, 4501.120
431.5238, 4301.226
432.0059, 4111.817
432.4880, 3920.310
432.9701, 3726.630
433.4522, 3552.014
433.9344, 3402.453
434.4165, 3275.215
434.8986, 3158.074
435.3807, 3051.051
435.8628, 2953.019
436.3449, 2867.247
436.8271, 2789.598
437.3092, 2708.590
437.7913, 2620.139
438.2734, 2535.851
438.7555, 2469.693
439.2376, 2417.866
439.7197, 2370.489
440.2018, 2325.099
440.6840, 2280.331
441.1661, 2233.481
441.6482, 2184.478
442.1303, 2139.705
442.6124, 2102.328
443.0945, 2070.829
443.5767, 2044.069
444.0588, 2022.801
444.5409, 2004.728
445.0230, 1989.480
445.5051, 1976.955
445.9872, 1966.952
446.4694, 1962.735
446.9515, 1958.436
447.4336, 1951.479
447.9157, 1941.116
448.3978, 1929.356
448.8799, 1912.064
449.3621, 1895.628
449.8442, 1889.233
450.3263, 1892.541
450.8084, 1906.952
451.2905, 1936.449
451.7726, 1979.296
452.2548, 2014.070
452.7369, 2038.379
453.2190, 2061.406
453.7011, 2089.308
454.1832, 2121.988
454.6653, 2163.013
455.1475, 2213.915
455.6296, 2272.073
456.1117, 2333.335
456.5938, 2397.626
457.0759, 2469.484
457.5580, 2547.402
458.0402, 2634.947
458.5223, 2735.912
459.0044, 2850.948
459.4865, 2986.989
459.9686, 3170.028
460.4507, 3374.479
460.9329, 3563.870
461.4150, 3702.180
461.8971, 3842.775
462.3792, 4026.038
462.8613, 4241.719
463.3434, 4459.352
463.8256, 4698.224
464.3077, 4908.514
464.7898, 5068.391
465.2719, 5181.949
465.7540, 5219.170
466.2361, 5153.177
466.7183, 5015.544
467.2004, 4845.914
467.6825, 4605.322
468.1646, 4381.493
468.6467, 4183.374
469.1288, 4011.268
469.6110, 3866.351
470.0930, 3747.702
470.5752, 3656.052
471.0573, 3593.007
471.5394, 3562.298
472.0215, 3545.733
472.5036, 3541.626
472.9857, 3552.225
473.4679, 3583.430
473.9500, 3635.311
474.4321, 3698.448
474.9142, 3767.721
475.3963, 3845.529
475.8784, 3947.797
476.3606, 4075.385
476.8427, 4197.435
477.3248, 4306.948
477.8069, 4388.418
478.2890, 4406.131
478.7711, 4343.602
479.2533, 4234.151
479.7354, 4101.089
480.2175, 3944.887
480.6996, 3765.939
481.1817, 3532.771
481.6638, 3302.572
482.1460, 3112.825
482.6281, 2969.705
483.1102, 2844.426
483.5923, 2726.891
484.0744, 2623.042
484.5565, 2537.629
485.0387, 2472.631
485.5208, 2426.028
486.0029, 2400.934
486.4850, 2394.053
486.9671, 2396.765
487.4492, 2410.237
487.9314, 2431.528
488.4135, 2457.818
488.8956, 2486.753
489.3777, 2535.647
489.8598, 2605.990
490.3419, 2694.437
490.8241, 2799.302
491.3062, 2921.441
491.7883, 3055.663
492.2704, 3201.232
492.7525, 3359.330
493.2346, 3537.482
493.7168, 3732.677
494.1989, 3945.123
494.6810, 4161.224
495.1631, 4395.987
495.6452, 4686.426
496.1273, 5034.071
496.6095, 5426.078
497.0916, 5874.129
497.5737, 6344.598
498.0558, 6791.992
498.5379, 7244.818
499.0201, 7620.444
499.5022, 7894.265
499.9843, 8057.980
500.4664, 8066.255
500.9485, 7866.377
501.4306, 7536.677
501.9127, 7098.885
502.3948, 6511.813
502.8770, 5943.176
503.3591, 5386.587
503.8412, 4868.721
504.3233, 4413.250
504.8054, 4034.339
505.2875, 3697.683
505.7697, 3397.296
506.2518, 3131.684
506.7339, 2910.330
507.2160, 2739.291
507.6981, 2592.862
508.1802, 2457.436
508.6624, 2333.257
509.1445, 2227.060
509.6266, 2140.387
510.1087, 2066.393
510.5908, 1995.789
511.0729, 1930.504
511.5551, 1878.942
512.0372, 1851.634
512.5193, 1831.276
513.0014, 1794.715
513.4835, 1745.082
513.9656, 1696.528
514.4478, 1653.363
514.9299, 1617.314
515.4120, 1591.883
515.8941, 1579.719
516.3762, 1566.704
516.8583, 1545.443
517.3405, 1521.053
517.8226, 1499.193
518.3047, 1480.468
518.7868, 1464.874
519.2689, 1453.327
519.7510, 1445.181
520.2332, 1437.984
520.7153, 1434.394
521.1974, 1428.178
521.6795, 1414.990
522.1616, 1392.371
522.6437, 1378.844
523.1259, 1377.015
523.6080, 1379.277
524.0901, 1376.894
524.5722, 1369.796
525.0543, 1363.225
525.5364, 1358.029
526.0186, 1354.206
526.5007, 1353.399
526.9828, 1354.857
527.4649, 1353.533
527.9470, 1341.788
528.4291, 1327.567
528.9113, 1323.388
529.3934, 1330.558
529.8755, 1335.598
530.3576, 1325.117
530.8397, 1309.520
531.3218, 1300.403
531.8040, 1310.815
532.2861, 1315.825
532.7682, 1301.635
533.2503, 1275.782
533.7324, 1257.948
534.2145, 1257.323
534.6967, 1258.703
535.1788, 1257.481
535.6609, 1253.165
536.1430, 1251.645
536.6251, 1255.656
537.1072, 1258.711
537.5894, 1254.308
538.0715, 1240.765
538.5536, 1230.628
539.0357, 1225.691
539.5178, 1224.052
539.9999, 1223.538
540.4821, 1223.916
540.9642, 1221.813
541.4463, 1212.666
541.9284, 1201.175
542.4105, 1197.750
542.8926, 1201.795
543.3748, 1205.969
543.8569, 1204.038
544.3390, 1199.640
544.8211, 1197.268
545.3032, 1198.852
545.7853, 1199.104
546.2675, 1191.244
546.7495, 1181.501
547.2316, 1178.769
547.7137, 1197.616
548.1959, 1210.634
548.6780, 1206.323
549.1601, 1187.167
549.6422, 1178.723
550.1243, 1187.619
550.6064, 1198.814
551.0886, 1205.572
551.5707, 1207.273
552.0528, 1207.474
552.5349, 1205.953
553.0170, 1203.407
553.4991, 1201.590
553.9813, 1200.344
554.4634, 1193.880
554.9455, 1177.190
555.4276, 1159.745
555.9097, 1162.119
556.3918, 1180.523
556.8740, 1197.351
557.3561, 1201.289
557.8382, 1199.305
558.3203, 1198.594
558.8024, 1199.591
559.2845, 1200.055
559.7667, 1198.353
560.2488, 1195.792
560.7309, 1193.167
561.2130, 1186.975
561.6951, 1186.366
562.1772, 1199.663
562.6594, 1218.555
563.1415, 1226.590
563.6236, 1213.953
564.1057, 1204.672
564.5878, 1205.888
565.0699, 1216.109
565.5521, 1219.622
566.0342, 1214.574
566.5163, 1208.335
566.9984, 1206.184
567.4805, 1207.738
567.9626, 1206.536
568.4448, 1201.298
568.9269, 1197.693
569.4090, 1205.000
569.8911, 1219.292
570.3732, 1230.030
570.8553, 1231.312
571.3375, 1230.847
571.8196, 1238.252
572.3017, 1250.141
572.7838, 1256.444
573.2659, 1242.750
573.7480, 1230.522
574.2302, 1234.872
574.7123, 1259.375
575.1944, 1274.481
575.6765, 1265.297
576.1586, 1251.994
576.6407, 1247.850
577.1229, 1257.693
577.6050, 1267.443
578.0871, 1277.912
578.5692, 1287.128
579.0513, 1290.197
579.5334, 1285.982
580.0156, 1283.696
580.4977, 1285.824
580.9798, 1292.030
581.4619, 1303.785
581.9440, 1320.495
582.4261, 1334.219
582.9083, 1335.478
583.3904, 1331.645
583.8725, 1335.375
584.3546, 1348.585
584.8367, 1359.664
585.3188, 1356.534
585.8010, 1348.963
586.2831, 1347.710
586.7652, 1359.302
587.2473, 1372.896
587.7294, 1383.729
588.2115, 1394.720
588.6937, 1413.631
589.1758, 1453.334
589.6579, 1483.733
590.1400, 1493.885
590.6221, 1485.355
591.1042, 1486.064
591.5864, 1497.692
592.0685, 1513.573
592.5506, 1529.384
593.0327, 1545.310
593.5148, 1564.330
593.9969, 1587.231
594.4791, 1610.604
594.9612, 1629.061
595.4433, 1645.100
595.9254, 1664.443
596.4075, 1689.317
596.8896, 1717.548
597.3718, 1745.804
597.8539, 1775.746
598.3360, 1811.227
598.8181, 1855.709
599.3002, 1904.575
599.7823, 1952.550
600.2645, 1999.080
600.7466, 2062.176
601.2287, 2156.020
601.7108, 2253.454
602.1929, 2338.292
602.6750, 2400.245
603.1572, 2479.344
603.6393, 2578.628
604.1214, 2691.001
604.6035, 2806.422
605.0856, 2925.654
605.5677, 3062.999
606.0499, 3224.889
606.5320, 3405.005
