##NAMES=Suredaite
##RRUFFID=R070191
##IDEAL CHEMISTRY=Pb^2+^Sn^4+^S^2-^_3_
##LOCALITY=Sector Oploco, Niv. 7/1, Mina Pirquitas, Jujuy, Argentina
##OWNER=RRUFF
##SOURCE=Renato and Adriana Pagano
##DESCRIPTION=Sprays of black acicular crystals with iridescent blue highlights
##STATUS=The identification of this mineral has been confirmed by single-crystal X-ray diffraction.
##URL=rruff.info/R070191
179.1634, 1505.581
179.6456, 1519.654
180.1277, 1542.943
180.6098, 1566.257
181.0919, 1592.094
181.5740, 1613.036
182.0561, 1624.931
182.5383, 1632.109
183.0204, 1639.696
183.5025, 1650.181
183.9846, 1662.657
184.4667, 1674.505
184.9488, 1684.932
185.4310, 1696.026
185.9131, 1707.980
186.3952, 1720.830
186.8773, 1734.710
187.3594, 1749.721
187.8415, 1765.679
188.3237, 1783.253
188.8058, 1806.666
189.2879, 1823.569
189.7700, 1826.880
190.2521, 1825.232
190.7342, 1827.574
191.2164, 1837.924
191.6985, 1853.644
192.1806, 1868.646
192.6627, 1883.459
193.1448, 1896.494
193.6269, 1907.948
194.1091, 1917.699
194.5912, 1925.379
195.0733, 1930.819
195.5554, 1934.802
196.0375, 1938.226
196.5196, 1937.451
197.0018, 1943.622
197.4839, 1962.431
197.9660, 1985.195
198.4481, 2004.799
198.9302, 2018.843
199.4123, 2028.963
199.8945, 2038.216
200.3766, 2047.450
200.8587, 2053.825
201.3408, 2053.131
201.8229, 2052.444
202.3050, 2059.133
202.7872, 2074.651
203.2693, 2091.847
203.7514, 2098.945
204.2335, 2091.850
204.7156, 2083.280
205.1977, 2069.570
205.6799, 2057.710
206.1620, 2054.452
206.6441, 2060.219
207.1262, 2068.007
207.6083, 2067.465
208.0904, 2053.683
208.5726, 2044.053
209.0547, 2040.981
209.5368, 2039.728
210.0189, 2037.806
210.5010, 2034.857
210.9831, 2031.909
211.4653, 2030.408
211.9474, 2031.171
212.4295, 2030.361
212.9116, 2028.815
213.3937, 2025.168
213.8758, 2018.169
214.3580, 2008.180
214.8401, 1996.718
215.3222, 1985.225
215.8043, 1973.842
216.2864, 1961.653
216.7685, 1940.457
217.2507, 1925.957
217.7328, 1929.932
218.2149, 1947.016
218.6970, 1961.727
219.1791, 1960.479
219.6612, 1942.760
220.1434, 1927.588
220.6255, 1912.463
221.1076, 1902.651
221.5897, 1903.012
222.0718, 1909.896
222.5539, 1916.578
223.0361, 1918.647
223.5182, 1916.235
224.0003, 1910.526
224.4824, 1894.715
224.9645, 1883.068
225.4466, 1879.951
225.9288, 1882.525
226.4109, 1887.511
226.8930, 1893.707
227.3751, 1899.308
227.8572, 1895.966
228.3393, 1871.195
228.8215, 1854.373
229.3036, 1854.425
229.7857, 1863.092
230.2678, 1872.042
230.7499, 1877.689
231.2320, 1879.607
231.7142, 1876.125
232.1963, 1862.765
232.6784, 1851.588
233.1605, 1839.650
233.6426, 1832.528
234.1247, 1838.667
234.6069, 1860.203
235.0890, 1885.549
235.5711, 1892.539
236.0532, 1868.953
236.5353, 1856.153
237.0174, 1866.469
237.4996, 1881.088
237.9817, 1888.039
238.4638, 1884.881
238.9459, 1876.500
239.4280, 1868.384
239.9101, 1860.516
240.3923, 1852.928
240.8744, 1842.166
241.3565, 1834.511
241.8386, 1834.571
242.3207, 1841.554
242.8028, 1850.342
243.2850, 1857.275
243.7671, 1862.664
244.2492, 1862.226
244.7313, 1845.705
245.2134, 1833.019
245.6955, 1835.453
246.1777, 1848.344
246.6598, 1858.957
247.1419, 1857.707
247.6240, 1845.828
248.1061, 1834.390
248.5882, 1822.350
249.0704, 1812.310
249.5525, 1805.564
250.0346, 1801.071
250.5167, 1797.649
250.9988, 1795.503
251.4809, 1793.053
251.9631, 1784.467
252.4452, 1764.318
252.9273, 1749.214
253.4094, 1747.602
253.8915, 1751.886
254.3736, 1754.393
254.8558, 1752.463
255.3379, 1747.417
255.8200, 1740.232
256.3021, 1729.586
256.7842, 1721.956
257.2664, 1722.362
257.7485, 1724.736
258.2306, 1724.665
258.7127, 1721.184
259.1948, 1716.668
259.6769, 1713.876
260.1591, 1712.929
260.6412, 1710.542
261.1233, 1703.921
261.6054, 1697.615
262.0875, 1695.166
262.5696, 1696.531
263.0518, 1698.659
263.5339, 1700.645
264.0160, 1702.008
264.4981, 1698.616
264.9802, 1684.647
265.4623, 1674.512
265.9445, 1684.930
266.4266, 1708.970
266.9087, 1722.978
267.3908, 1705.169
267.8729, 1671.709
268.3550, 1658.769
268.8372, 1672.133
269.3193, 1689.843
269.8014, 1698.231
270.2835, 1700.529
270.7656, 1701.316
271.2477, 1699.179
271.7299, 1698.122
272.2120, 1705.293
272.6941, 1721.071
273.1762, 1731.630
273.6583, 1724.657
274.1404, 1710.735
274.6226, 1710.695
275.1047, 1731.911
275.5868, 1755.389
276.0689, 1769.802
276.5510, 1776.151
277.0331, 1777.135
277.5153, 1770.263
277.9974, 1763.193
278.4795, 1769.571
278.9616, 1791.147
279.4437, 1813.900
279.9258, 1833.663
280.4080, 1851.134
280.8901, 1867.375
281.3722, 1882.687
281.8543, 1896.605
282.3364, 1907.438
282.8185, 1914.554
283.3007, 1925.993
283.7828, 1942.789
284.2649, 1964.215
284.7470, 1991.212
285.2291, 2023.354
285.7112, 2056.688
286.1934, 2088.445
286.6755, 2118.375
287.1576, 2145.568
287.6397, 2169.022
288.1218, 2191.033
288.6039, 2209.812
289.0861, 2227.814
289.5682, 2251.294
290.0503, 2284.160
290.5324, 2324.383
291.0145, 2362.956
291.4966, 2401.258
291.9788, 2436.446
292.4609, 2463.279
292.9430, 2488.459
293.4251, 2520.463
293.9072, 2562.239
294.3893, 2610.748
294.8715, 2661.189
295.3536, 2721.268
295.8357, 2767.709
296.3178, 2788.282
296.7999, 2804.835
297.2820, 2833.012
297.7642, 2874.178
298.2463, 2919.232
298.7284, 2958.945
299.2105, 2992.342
299.6926, 3027.632
300.1747, 3067.540
300.6569, 3106.540
301.1390, 3147.347
301.6211, 3185.821
302.1032, 3213.094
302.5853, 3221.973
303.0674, 3216.510
303.5495, 3217.645
304.0316, 3230.605
304.5138, 3242.754
304.9959, 3256.392
305.4780, 3265.913
305.9601, 3266.051
306.4422, 3254.915
306.9243, 3232.695
307.4065, 3197.722
307.8886, 3147.001
308.3707, 3095.164
308.8528, 3042.273
309.3349, 2990.853
309.8170, 2947.311
310.2992, 2910.354
310.7813, 2866.447
311.2634, 2796.320
311.7455, 2703.481
312.2276, 2629.708
312.7097, 2588.312
313.1919, 2552.125
313.6740, 2503.495
314.1561, 2446.074
314.6382, 2389.662
315.1203, 2335.198
315.6024, 2285.906
316.0846, 2251.302
316.5667, 2234.656
317.0488, 2213.573
317.5309, 2171.676
318.0130, 2119.212
318.4951, 2072.732
318.9773, 2033.938
319.4594, 2002.220
319.9415, 1980.186
320.4236, 1966.076
320.9057, 1951.919
321.3878, 1935.750
321.8700, 1917.443
322.3521, 1895.195
322.8342, 1867.992
323.3163, 1844.123
323.7984, 1827.569
324.2805, 1814.863
324.7627, 1801.861
325.2448, 1787.802
325.7269, 1773.171
326.2090, 1757.957
326.6911, 1742.049
327.1732, 1728.903
327.6554, 1722.599
328.1375, 1715.164
328.6196, 1700.275
329.1017, 1680.161
329.5838, 1661.566
330.0659, 1648.152
330.5481, 1639.610
331.0302, 1635.027
331.5123, 1642.836
331.9944, 1644.093
332.4765, 1631.973
332.9586, 1614.563
333.4408, 1599.783
333.9229, 1590.278
334.4050, 1584.814
334.8871, 1582.401
335.3692, 1586.363
335.8513, 1584.128
336.3335, 1570.726
336.8156, 1556.313
337.2977, 1545.169
337.7798, 1537.662
338.2619, 1532.971
338.7440, 1531.562
339.2262, 1532.589
339.7083, 1527.833
340.1904, 1511.530
340.6725, 1498.011
341.1546, 1491.129
341.6367, 1489.136
342.1189, 1490.960
342.6010, 1496.989
343.0831, 1502.889
343.5652, 1499.692
344.0473, 1485.090
344.5294, 1478.491
345.0116, 1496.261
345.4937, 1514.097
345.9758, 1508.955
346.4579, 1480.448
346.9400, 1454.124
347.4221, 1449.198
347.9043, 1458.692
348.3864, 1462.763
348.8685, 1457.981
349.3506, 1452.485
349.8327, 1453.328
350.3148, 1458.680
350.7970, 1463.331
351.2791, 1469.002
351.7612, 1471.577
352.2433, 1465.688
352.7254, 1452.858
353.2076, 1440.877
353.6897, 1433.179
354.1718, 1428.853
354.6539, 1426.103
355.1360, 1426.505
355.6181, 1424.950
356.1003, 1416.301
356.5824, 1406.904
357.0645, 1406.121
357.5466, 1415.433
358.0287, 1426.622
358.5108, 1430.876
358.9930, 1427.638
359.4751, 1419.498
359.9572, 1397.924
360.4393, 1380.614
360.9214, 1377.873
361.4035, 1385.540
361.8857, 1394.354
362.3678, 1399.169
362.8499, 1400.157
363.3320, 1397.456
363.8141, 1385.731
364.2962, 1379.103
364.7784, 1385.076
365.2605, 1392.614
365.7426, 1391.228
366.2247, 1379.256
366.7068, 1364.725
367.1889, 1356.305
367.6711, 1354.187
368.1532, 1354.341
368.6353, 1359.901
369.1174, 1363.717
369.5995, 1361.086
370.0816, 1354.075
370.5638, 1347.580
371.0459, 1343.145
371.5280, 1341.135
372.0101, 1344.161
372.4922, 1353.175
372.9743, 1357.794
373.4565, 1350.790
373.9386, 1338.440
374.4207, 1330.600
374.9028, 1328.566
375.3849, 1327.408
375.8670, 1324.120
376.3492, 1320.009
376.8313, 1317.554
377.3134, 1317.235
377.7955, 1318.922
378.2776, 1323.620
378.7597, 1331.784
379.2419, 1335.101
379.7240, 1325.636
380.2061, 1318.336
380.6882, 1327.199
381.1703, 1346.143
381.6524, 1356.809
382.1346, 1348.568
382.6167, 1327.811
383.0988, 1313.688
383.5809, 1310.245
384.0630, 1308.987
384.5451, 1311.911
385.0273, 1315.485
385.5094, 1316.665
385.9915, 1315.104
386.4736, 1312.630
386.9557, 1310.821
387.4378, 1309.617
387.9200, 1310.615
388.4021, 1320.338
388.8842, 1324.363
389.3663, 1311.916
389.8484, 1292.353
390.3305, 1280.698
390.8127, 1284.067
391.2948, 1295.621
391.7769, 1306.939
392.2590, 1318.689
392.7411, 1322.948
393.2232, 1312.584
393.7054, 1298.151
394.1875, 1288.937
394.6696, 1285.082
395.1517, 1284.794
395.6338, 1290.243
396.1159, 1297.653
396.5981, 1299.777
397.0802, 1295.687
397.5623, 1291.991
398.0444, 1294.394
398.5265, 1301.059
399.0086, 1302.348
399.4908, 1294.895
399.9729, 1285.996
400.4550, 1274.403
400.9371, 1264.156
401.4192, 1264.022
401.9013, 1276.960
402.3835, 1293.805
402.8656, 1300.681
403.3477, 1292.604
403.8298, 1289.489
404.3119, 1295.458
404.7940, 1301.811
405.2762, 1304.198
405.7583, 1303.188
406.2404, 1300.848
406.7225, 1298.136
407.2046, 1295.856
407.6867, 1298.023
408.1689, 1310.354
408.6510, 1315.112
409.1331, 1302.353
409.6152, 1285.648
410.0973, 1275.606
410.5794, 1273.783
411.0616, 1274.442
411.5437, 1272.269
412.0258, 1268.204
412.5079, 1268.041
412.9900, 1274.274
413.4721, 1279.283
413.9543, 1274.318
414.4364, 1264.574
414.9185, 1260.893
415.4006, 1269.260
415.8827, 1279.324
416.3648, 1283.880
416.8470, 1284.005
417.3291, 1282.596
417.8112, 1280.325
418.2933, 1277.937
418.7754, 1276.051
419.2575, 1273.597
419.7397, 1276.043
420.2218, 1292.681
420.7039, 1306.786
421.1860, 1304.142
421.6681, 1288.321
422.1502, 1272.761
422.6324, 1265.945
423.1145, 1266.451
423.5966, 1268.247
424.0787, 1272.632
424.5608, 1276.300
425.0429, 1280.486
425.5251, 1282.868
426.0072, 1281.018
426.4893, 1274.886
426.9714, 1267.026
427.4535, 1258.196
427.9356, 1248.821
428.4178, 1245.059
428.8999, 1248.354
429.3820, 1254.603
429.8641, 1265.297
430.3462, 1276.596
430.8283, 1281.728
431.3105, 1276.420
431.7926, 1270.473
432.2747, 1275.286
432.7568, 1286.769
433.2389, 1288.585
433.7210, 1274.527
434.2032, 1256.726
434.6853, 1249.675
435.1674, 1254.612
435.6495, 1258.751
436.1316, 1260.656
436.6137, 1262.303
437.0959, 1265.992
437.5780, 1270.452
438.0601, 1271.615
438.5422, 1267.065
439.0243, 1260.171
439.5064, 1260.150
439.9886, 1275.668
440.4707, 1282.376
440.9528, 1260.958
441.4349, 1275.276
441.9170, 1283.398
442.3991, 1285.658
442.8813, 1264.497
443.3634, 1273.579
443.8455, 1270.541
444.3276, 1267.006
444.8097, 1280.345
445.2918, 1262.591
445.7740, 1275.662
446.2561, 1276.428
446.7382, 1282.826
447.2203, 1277.029
447.7024, 1274.998
448.1845, 1279.672
448.6667, 1280.881
449.1488, 1276.879
449.6309, 1267.123
450.1130, 1258.622
450.5951, 1257.163
451.0772, 1262.188
451.5594, 1266.426
452.0415, 1270.179
452.5236, 1272.870
453.0057, 1274.953
453.4878, 1275.616
453.9699, 1272.139
454.4521, 1264.229
454.9342, 1257.262
455.4163, 1259.245
455.8984, 1272.904
456.3805, 1280.037
456.8626, 1275.168
457.3448, 1268.998
457.8269, 1264.142
458.3090, 1260.219
458.7911, 1255.653
459.2732, 1249.307
459.7553, 1244.400
460.2375, 1248.314
460.7196, 1261.275
461.2017, 1265.219
461.6838, 1249.564
462.1659, 1233.750
462.6480, 1239.079
463.1302, 1261.079
463.6123, 1276.129
464.0944, 1272.242
464.5765, 1263.178
465.0586, 1260.655
465.5407, 1263.607
466.0229, 1267.468
466.5050, 1270.783
466.9871, 1272.046
467.4692, 1267.729
467.9513, 1251.524
468.4334, 1243.379
468.9156, 1250.435
469.3977, 1259.180
469.8798, 1261.399
470.3619, 1257.841
470.8440, 1252.537
471.3261, 1247.487
471.8083, 1243.839
472.2904, 1245.757
472.7725, 1256.026
473.2546, 1264.223
473.7367, 1267.640
474.2188, 1268.514
474.7010, 1266.725
475.1831, 1262.895
475.6652, 1260.827
476.1473, 1264.535
476.6294, 1270.663
477.1115, 1273.885
477.5937, 1274.059
478.0758, 1271.393
478.5579, 1264.904
479.0400, 1256.528
479.5221, 1250.690
480.0042, 1246.803
480.4864, 1246.267
480.9685, 1252.412
481.4506, 1259.973
481.9327, 1263.784
482.4148, 1263.904
482.8969, 1264.135
483.3791, 1267.749
483.8612, 1273.407
484.3433, 1273.401
484.8254, 1263.278
485.3075, 1254.674
485.7896, 1247.848
486.2718, 1243.945
486.7539, 1244.843
487.2360, 1250.242
487.7181, 1256.765
488.2002, 1263.816
488.6823, 1269.883
489.1645, 1267.950
489.6466, 1255.756
490.1287, 1249.013
490.6108, 1260.565
491.0929, 1280.038
491.5750, 1284.780
492.0572, 1268.659
492.5393, 1255.838
493.0214, 1256.413
493.5035, 1263.487
493.9856, 1271.452
494.4677, 1278.659
494.9499, 1282.213
495.4320, 1279.601
495.9141, 1271.622
496.3962, 1263.152
496.8783, 1250.120
497.3604, 1242.697
497.8426, 1245.274
498.3247, 1251.186
498.8068, 1255.177
499.2889, 1256.587
499.7710, 1257.785
500.2531, 1261.717
500.7353, 1266.965
501.2174, 1266.903
501.6995, 1259.689
502.1816, 1255.287
502.6637, 1261.898
503.1458, 1271.474
503.6280, 1269.800
504.1101, 1252.825
504.5922, 1240.828
505.0743, 1244.875
505.5564, 1255.910
506.0385, 1265.909
506.5207, 1273.207
507.0028, 1274.168
507.4849, 1265.013
507.9670, 1249.511
508.4491, 1244.504
508.9312, 1262.734
509.4134, 1272.855
509.8955, 1267.843
510.3776, 1258.688
510.8597, 1251.659
511.3418, 1248.080
511.8239, 1248.295
512.3061, 1254.905
512.7882, 1263.984
513.2703, 1262.314
513.7524, 1247.168
514.2346, 1238.285
514.7167, 1246.090
515.1988, 1260.551
515.6809, 1268.825
516.1630, 1270.665
516.6451, 1270.364
517.1273, 1266.487
517.6094, 1263.060
518.0915, 1265.129
518.5736, 1271.438
519.0557, 1275.958
519.5378, 1275.242
520.0200, 1271.906
520.5021, 1272.640
520.9842, 1283.042
521.4663, 1286.638
521.9484, 1277.802
522.4305, 1268.263
522.9127, 1264.358
523.3948, 1264.982
523.8769, 1265.968
524.3590, 1264.924
524.8411, 1263.579
525.3232, 1266.419
525.8054, 1273.383
526.2875, 1274.013
526.7696, 1262.364
527.2517, 1249.285
527.7338, 1248.431
528.2159, 1258.079
528.6981, 1263.484
529.1802, 1261.525
529.6623, 1255.838
530.1444, 1244.133
530.6265, 1231.086
531.1086, 1226.521
531.5908, 1233.600
532.0729, 1245.589
532.5550, 1253.319
533.0371, 1256.105
533.5192, 1259.072
534.0013, 1263.294
534.4835, 1266.422
534.9656, 1266.716
535.4477, 1265.906
535.9298, 1266.604
536.4119, 1269.718
536.8940, 1272.856
537.3762, 1275.032
537.8583, 1275.494
538.3404, 1269.867
538.8225, 1256.537
539.3046, 1245.880
539.7867, 1246.042
540.2689, 1255.013
540.7510, 1262.481
541.2331, 1271.682
541.7152, 1275.308
542.1973, 1266.140
542.6794, 1254.455
543.1616, 1251.701
543.6437, 1257.579
544.1258, 1262.384
544.6079, 1258.032
545.0900, 1246.722
545.5721, 1236.959
546.0543, 1226.320
546.5364, 1224.006
547.0185, 1241.089
547.5006, 1261.012
547.9827, 1271.539
548.4648, 1272.548
548.9469, 1270.117
549.4290, 1264.078
549.9111, 1257.848
550.3932, 1256.379
550.8754, 1258.432
551.3575, 1257.969
551.8396, 1252.200
552.3217, 1244.725
552.8038, 1241.385
553.2859, 1243.379
553.7681, 1245.544
554.2502, 1247.969
554.7323, 1250.454
555.2144, 1254.147
555.6965, 1257.470
556.1786, 1257.327
556.6608, 1252.473
557.1429, 1247.073
557.6250, 1244.951
558.1071, 1246.321
558.5892, 1255.437
559.0714, 1276.973
559.5535, 1292.333
560.0356, 1284.585
560.5177, 1261.625
560.9998, 1249.832
561.4819, 1254.808
561.9641, 1261.407
562.4462, 1266.338
562.9283, 1269.692
563.4104, 1271.657
563.8925, 1272.197
564.3746, 1270.948
564.8568, 1267.458
565.3389, 1262.267
565.8210, 1256.815
566.3031, 1248.997
566.7852, 1246.271
567.2673, 1255.660
567.7495, 1265.991
568.2316, 1271.164
568.7137, 1271.146
569.1958, 1267.594
569.6779, 1257.125
570.1600, 1247.070
570.6422, 1244.866
571.1243, 1249.307
571.6064, 1257.954
572.0885, 1270.629
572.5706, 1281.343
573.0527, 1281.542
573.5349, 1269.162
574.0170, 1265.957
574.4991, 1287.748
574.9812, 1299.330
575.4633, 1280.796
575.9454, 1253.321
576.4276, 1241.905
576.9097, 1251.393
577.3918, 1265.721
577.8739, 1271.867
578.3560, 1271.183
578.8381, 1266.192
579.3203, 1255.925
579.8024, 1250.985
580.2845, 1259.141
580.7666, 1272.884
581.2487, 1276.598
581.7308, 1267.486
582.2130, 1262.166
582.6951, 1267.584
583.1772, 1273.247
583.6593, 1271.480
584.1414, 1264.488
584.6235, 1257.580
585.1057, 1253.197
585.5878, 1251.177
586.0699, 1251.468
586.5520, 1254.170
587.0341, 1258.650
587.5162, 1268.090
587.9984, 1274.028
588.4805, 1268.309
588.9626, 1256.834
589.4447, 1249.140
589.9268, 1247.326
590.4089, 1247.021
590.8911, 1244.388
591.3732, 1243.018
591.8553, 1249.970
592.3374, 1263.990
592.8195, 1275.819
593.3016, 1279.555
593.7838, 1275.941
594.2659, 1265.755
594.7480, 1242.231
595.2301, 1228.367
595.7122, 1234.008
596.1943, 1242.728
596.6765, 1247.344
597.1586, 1248.546
597.6407, 1249.048
598.1228, 1249.308
598.6049, 1250.229
599.0870, 1254.421
599.5692, 1259.767
600.0513, 1260.105
600.5334, 1254.231
601.0155, 1246.695
601.4976, 1240.700
601.9797, 1236.511
602.4619, 1236.344
602.9440, 1244.120
603.4261, 1250.678
603.9082, 1257.672
604.3903, 1261.400
604.8724, 1256.626
605.3546, 1245.424
605.8367, 1236.601
606.3188, 1236.745
606.8009, 1239.849
607.2830, 1236.174
607.7651, 1226.603
608.2473, 1217.356
608.7294, 1209.003
609.2115, 1205.254
609.6936, 1211.561
610.1757, 1227.982
610.6578, 1237.771
611.1400, 1236.510
611.6221, 1234.869
612.1042, 1235.477
612.5863, 1236.769
613.0684, 1237.636
613.5505, 1237.603
614.0327, 1235.769
614.5148, 1230.359
614.9969, 1223.573
615.4790, 1221.561
615.9611, 1224.574
616.4432, 1226.892
616.9254, 1227.385
617.4075, 1225.652
617.8896, 1220.035
618.3717, 1210.423
618.8538, 1204.149
619.3359, 1203.762
619.8181, 1204.134
620.3002, 1204.734
620.7823, 1204.262
621.2644, 1198.953
621.7465, 1189.497
622.2286, 1184.081
622.7108, 1192.357
623.1929, 1209.589
623.6750, 1216.060
624.1571, 1209.848
624.6392, 1203.926
625.1213, 1201.615
625.6035, 1201.886
626.0856, 1204.652
626.5677, 1209.742
627.0498, 1212.855
627.5319, 1213.614
628.0140, 1212.028
628.4962, 1204.685
628.9783, 1196.366
629.4604, 1195.600
629.9425, 1203.383
630.4246, 1211.333
630.9067, 1210.950
631.3889, 1203.710
631.8710, 1197.541
632.3531, 1192.225
632.8352, 1188.917
633.3173, 1179.346
633.7994, 1192.891
634.2816, 1200.240
634.7637, 1201.727
635.2458, 1179.794
635.7279, 1188.103
636.2100, 1184.292
636.6921, 1179.984
637.1743, 1192.550
637.6564, 1174.023
638.1385, 1186.322
638.6206, 1186.315
639.1027, 1191.940
639.5848, 1185.370
640.0670, 1182.567
640.5491, 1191.962
641.0312, 1194.603
641.5133, 1186.630
641.9954, 1192.613
642.4775, 1173.659
642.9597, 1176.588
643.4418, 1188.958
643.9239, 1181.597
644.4060, 1187.803
644.8881, 1172.188
645.3702, 1168.789
645.8524, 1172.522
646.3345, 1183.628
646.8166, 1192.366
647.2987, 1188.516
647.7808, 1175.411
648.2629, 1168.935
648.7451, 1170.376
649.2272, 1173.577
649.7093, 1177.689
650.1914, 1182.295
650.6735, 1188.720
651.1556, 1196.145
651.6378, 1198.269
652.1199, 1186.615
652.6020, 1177.892
653.0841, 1184.772
653.5662, 1196.882
654.0483, 1199.631
654.5305, 1191.410
655.0126, 1180.772
655.4947, 1174.193
655.9768, 1171.043
656.4589, 1168.611
656.9410, 1166.056
657.4232, 1170.654
657.9053, 1190.165
658.3874, 1208.215
658.8695, 1206.280
659.3516, 1189.124
659.8337, 1177.827
660.3159, 1176.911
660.7980, 1178.794
661.2801, 1183.896
661.7622, 1188.629
662.2443, 1187.090
662.7264, 1180.745
663.2086, 1178.320
663.6907, 1186.652
664.1728, 1199.450
664.6549, 1202.207
665.1370, 1194.559
665.6191, 1189.107
666.1013, 1188.898
666.5834, 1188.283
667.0655, 1181.369
667.5476, 1170.561
668.0297, 1166.337
668.5118, 1175.039
668.9940, 1179.981
669.4761, 1173.520
669.9582, 1165.770
670.4403, 1165.963
670.9224, 1171.919
671.4045, 1175.836
671.8867, 1173.883
672.3688, 1168.173
672.8509, 1159.437
673.3330, 1148.738
673.8151, 1144.442
674.2972, 1148.062
674.7794, 1154.144
675.2615, 1160.909
675.7436, 1166.835
