##NAMES=Sursassite
##RRUFFID=R060336
##IDEAL CHEMISTRY=Mn^2+^_2_Al_3_(SiO_4_)(Si_2_O_7_)(OH)_3_
##LOCALITY=Strategic Manganese mine, near Woodstock, New Brunswick, Canada
##OWNER=RRUFF
##SOURCE=Michael Scott
##DESCRIPTION=Reddish-brown fibrous or platy crystals in parallel or radiating groups
##STATUS=The identification of this mineral has been confirmed by single-crystal X-ray diffraction.
##URL=rruff.info/R060336
91.45642, 22.42026
91.93854, 21.30572
92.42065, 19.56587
92.90277, 18.66737
93.38489, 18.79950
93.86700, 19.28776
94.34912, 19.31844
94.83124, 18.96568
95.31335, 18.65399
95.79547, 18.71829
96.27759, 19.06086
96.75970, 19.31694
97.24182, 19.49727
97.72394, 19.49342
98.20605, 18.92261
98.68817, 17.71132
99.17029, 16.51086
99.65240, 15.83909
100.1345, 15.72296
100.6166, 15.73404
101.0988, 15.83943
101.5809, 16.01647
102.0630, 16.04922
102.5451, 15.86917
103.0272, 15.66707
103.5093, 15.70163
103.9915, 16.12188
104.4736, 16.38700
104.9557, 16.29534
105.4378, 15.75129
105.9199, 15.37813
106.4020, 15.15251
106.8842, 15.10631
107.3663, 15.32604
107.8484, 16.15556
108.3305, 16.85079
108.8126, 17.15639
109.2947, 16.95503
109.7769, 16.55699
110.2590, 15.76188
110.7411, 14.73218
111.2232, 13.99435
111.7053, 13.67803
112.1874, 13.56886
112.6696, 13.57459
113.1517, 14.07490
113.6338, 14.27160
114.1159, 13.77846
114.5980, 12.73217
115.0801, 12.10061
115.5623, 12.51523
116.0444, 13.24145
116.5265, 13.70950
117.0086, 13.69959
117.4907, 13.47443
117.9728, 13.01626
118.4550, 12.31789
118.9371, 11.78225
119.4192, 11.77102
119.9013, 11.98488
120.3834, 12.04240
120.8655, 11.45800
121.3477, 10.87010
121.8298, 10.87528
122.3119, 11.64590
122.7940, 12.29503
123.2761, 11.87873
123.7582, 10.84133
124.2404, 10.17241
124.7225, 10.83469
125.2046, 12.01068
125.6867, 12.66597
126.1688, 12.56957
126.6509, 12.14016
127.1331, 11.74173
127.6152, 11.37363
128.0973, 11.03251
128.5794, 10.60235
129.0615, 10.19416
129.5436, 10.09684
130.0258, 10.45769
130.5079, 11.06588
130.9900, 11.57419
131.4721, 11.97835
131.9542, 12.36116
132.4363, 13.07164
132.9185, 13.97457
133.4006, 14.04739
133.8827, 12.49346
134.3648, 9.992519
134.8469, 9.039058
135.3290, 9.837294
135.8112, 11.29260
136.2933, 12.19642
136.7754, 12.52080
137.2575, 12.80951
137.7396, 13.22165
138.2217, 13.74876
138.7039, 14.33516
139.1860, 14.95121
139.6681, 15.67595
140.1502, 16.72921
140.6323, 18.23958
141.1144, 19.61508
141.5966, 20.58420
142.0787, 21.02957
142.5608, 21.56672
143.0429, 22.21241
143.5250, 22.93837
144.0071, 23.70949
144.4893, 24.63482
144.9714, 25.41686
145.4535, 25.85466
145.9356, 25.57376
146.4177, 25.70810
146.8998, 26.33106
147.3820, 27.38554
147.8641, 28.71763
148.3462, 30.86336
148.8283, 32.76646
149.3104, 33.83788
149.7925, 32.75952
150.2747, 32.56859
150.7568, 33.96076
151.2389, 36.75644
151.7210, 38.75891
152.2031, 39.16211
152.6852, 39.24603
153.1674, 39.80989
153.6495, 40.92352
154.1316, 42.47617
154.6137, 44.93786
155.0958, 48.33950
155.5779, 50.60133
156.0601, 50.36608
156.5422, 49.39325
157.0243, 49.18897
157.5064, 51.01274
157.9885, 52.70882
158.4706, 53.66702
158.9528, 53.80197
159.4349, 53.65470
159.9170, 52.79334
160.3991, 51.89099
160.8812, 51.72575
161.3633, 53.28591
161.8455, 55.01826
162.3276, 56.19552
162.8097, 56.61229
163.2918, 57.08348
163.7739, 58.06639
164.2560, 59.22280
164.7382, 59.75188
165.2203, 59.77424
165.7024, 59.58297
166.1845, 59.14503
166.6666, 58.26049
167.1487, 57.77640
167.6309, 58.52484
168.1130, 60.01039
168.5951, 61.17426
169.0772, 61.02533
169.5593, 60.62093
170.0414, 61.01517
170.5236, 62.81881
171.0057, 64.43030
171.4878, 64.31689
171.9699, 62.98595
172.4520, 61.97714
172.9341, 62.33500
173.4163, 63.41321
173.8984, 64.52583
174.3805, 65.70441
174.8626, 66.58773
175.3447, 66.63961
175.8268, 66.02001
176.3090, 65.46806
176.7911, 65.60411
177.2732, 66.11633
177.7553, 66.49592
178.2374, 66.55473
178.7195, 66.49437
179.2017, 66.57724
179.6838, 66.79048
180.1659, 67.00968
180.6480, 67.12374
181.1301, 67.17150
181.6122, 67.24596
182.0944, 67.37353
182.5765, 67.54119
183.0586, 67.76093
183.5407, 68.02821
184.0228, 68.25925
184.5049, 68.41171
184.9871, 68.47350
185.4692, 68.37363
185.9513, 67.91821
186.4334, 67.35054
186.9155, 67.26773
187.3976, 67.69105
187.8798, 68.34703
188.3619, 69.03704
188.8440, 69.75260
189.3261, 70.40858
189.8082, 71.16842
190.2903, 71.85062
190.7725, 71.59776
191.2546, 70.25331
191.7367, 68.78320
192.2188, 68.31822
192.7009, 68.81160
193.1830, 69.51103
193.6652, 70.30014
194.1473, 71.11584
194.6294, 71.43606
195.1115, 71.17741
195.5936, 70.70644
196.0757, 70.47352
196.5579, 70.48232
197.0400, 70.60110
197.5221, 70.87756
198.0042, 71.28533
198.4863, 71.32856
198.9684, 70.88425
199.4506, 70.34859
199.9327, 70.44361
200.4148, 71.26064
200.8969, 71.87403
201.3790, 71.79871
201.8611, 71.00314
202.3433, 70.40689
202.8254, 69.97002
203.3075, 69.79015
203.7896, 70.21788
204.2717, 71.43166
204.7538, 72.35349
205.2360, 72.38174
205.7181, 71.38606
206.2002, 70.70614
206.6823, 70.39296
207.1644, 70.33109
207.6465, 70.25443
208.1287, 70.06894
208.6108, 70.19454
209.0929, 71.03260
209.5750, 72.86745
210.0571, 73.86687
210.5392, 73.88545
211.0214, 73.21402
211.5035, 72.30179
211.9856, 70.94694
212.4677, 69.93163
212.9498, 69.75123
213.4319, 70.69893
213.9140, 71.20145
214.3962, 71.04154
214.8783, 70.56033
215.3604, 70.67595
215.8425, 71.80181
216.3246, 72.59460
216.8067, 72.23495
217.2889, 70.14002
217.7710, 68.99021
218.2531, 69.24934
218.7352, 70.25498
219.2173, 70.29084
219.6994, 68.73878
220.1816, 67.39499
220.6637, 67.22186
221.1458, 68.91307
221.6279, 69.71728
222.1100, 69.23502
222.5921, 67.99345
223.0743, 67.36192
223.5564, 67.54301
224.0385, 67.98917
224.5206, 68.49904
225.0027, 69.20667
225.4848, 69.62281
225.9670, 69.60925
226.4491, 69.34169
226.9312, 69.31883
227.4133, 69.77146
227.8954, 70.09437
228.3775, 69.92712
228.8597, 68.87862
229.3418, 68.31889
229.8239, 68.47875
230.3060, 69.07449
230.7881, 69.28730
231.2702, 68.85201
231.7524, 68.43420
232.2345, 68.37840
232.7166, 68.96474
233.1987, 69.23093
233.6808, 68.99588
234.1629, 68.48503
234.6451, 68.33350
235.1272, 68.82080
235.6093, 69.25603
236.0914, 69.29468
236.5735, 68.64452
237.0556, 68.27791
237.5378, 68.27834
238.0199, 68.54002
238.5020, 68.82549
238.9841, 69.27198
239.4662, 69.54722
239.9483, 69.46652
240.4305, 68.79206
240.9126, 68.32519
241.3947, 68.12023
241.8768, 68.10366
242.3589, 68.10920
242.8410, 68.17442
243.3232, 68.20143
243.8053, 68.15420
244.2874, 68.04231
244.7695, 67.80513
245.2516, 67.29363
245.7337, 66.71260
246.2159, 66.54232
246.6980, 66.97328
247.1801, 67.51841
247.6622, 68.01991
248.1443, 68.51950
248.6264, 68.85977
249.1086, 69.01549
249.5907, 69.02882
250.0728, 68.94732
250.5549, 68.60964
251.0370, 68.45387
251.5191, 68.77901
252.0013, 69.95504
252.4834, 70.30699
252.9655, 69.46231
253.4476, 68.01465
253.9297, 67.05630
254.4118, 66.74802
254.8940, 66.64336
255.3761, 66.59290
255.8582, 66.57874
256.3403, 66.72098
256.8224, 67.14865
257.3046, 67.63496
257.7867, 67.76246
258.2688, 67.36474
258.7509, 66.96073
259.2330, 66.68990
259.7151, 66.53458
260.1973, 66.64004
260.6794, 67.12598
261.1615, 67.75540
261.6436, 68.13814
262.1257, 68.13424
262.6078, 68.24157
263.0900, 68.69941
263.5721, 69.58887
264.0542, 70.02299
264.5363, 69.83387
265.0184, 69.39371
265.5005, 69.17822
265.9827, 69.25914
266.4648, 69.35848
266.9469, 69.39765
267.4290, 69.37427
267.9111, 69.36787
268.3932, 69.36841
268.8754, 69.40093
269.3575, 69.46399
269.8396, 69.51549
270.3217, 69.79394
270.8038, 70.56876
271.2859, 71.77850
271.7681, 71.90306
272.2502, 70.56081
272.7323, 68.92710
273.2144, 68.34389
273.6965, 69.04219
274.1786, 69.49409
274.6608, 69.26176
275.1429, 68.47844
275.6250, 68.14917
276.1071, 68.38096
276.5892, 68.75960
277.0714, 68.83437
277.5535, 68.54228
278.0356, 68.54424
278.5177, 69.02451
278.9998, 69.87598
279.4819, 70.78448
279.9641, 71.85880
280.4462, 72.57600
280.9283, 72.23911
281.4104, 70.80057
281.8925, 69.98347
282.3746, 70.24463
282.8568, 71.14645
283.3389, 71.44233
283.8210, 71.08255
284.3031, 70.49857
284.7852, 69.90866
285.2673, 69.32353
285.7495, 68.83150
286.2316, 68.39188
286.7137, 68.12189
287.1958, 68.48576
287.6779, 69.51169
288.1600, 70.26785
288.6422, 69.86685
289.1243, 68.52026
289.6064, 67.89267
290.0885, 68.28327
290.5706, 68.99940
291.0527, 68.84487
291.5349, 67.87585
292.0170, 66.90441
292.4991, 66.24057
292.9812, 65.91515
293.4633, 66.20934
293.9454, 67.25662
294.4276, 68.42487
294.9097, 68.79878
295.3918, 68.50670
295.8739, 68.20828
296.3560, 68.36205
296.8381, 68.72334
297.3203, 68.60317
297.8024, 67.93459
298.2845, 67.28103
298.7666, 67.40225
299.2487, 68.05907
299.7308, 68.51921
300.2130, 68.24451
300.6951, 67.67811
301.1772, 67.56609
301.6593, 67.90678
302.1414, 68.38218
302.6235, 68.92315
303.1057, 69.38936
303.5878, 69.45245
304.0699, 68.56406
304.5520, 67.57409
305.0341, 67.64375
305.5162, 68.65791
305.9984, 69.65221
306.4805, 69.85346
306.9626, 69.62055
307.4447, 69.44311
307.9268, 69.45972
308.4089, 69.56155
308.8911, 69.72591
309.3732, 69.91821
309.8553, 69.99801
310.3374, 69.83406
310.8195, 69.53861
311.3016, 69.17989
311.7838, 68.65592
312.2659, 68.32183
312.7480, 68.55766
313.2301, 69.18001
313.7122, 69.73579
314.1943, 70.12630
314.6765, 70.30858
315.1586, 70.26122
315.6407, 69.99020
316.1228, 69.46499
316.6049, 68.24860
317.0870, 66.82147
317.5692, 65.98882
318.0513, 66.65029
318.5334, 67.46213
319.0155, 67.68559
319.4976, 67.15580
319.9797, 66.81165
320.4619, 67.21081
320.9440, 67.87001
321.4261, 68.24377
321.9082, 67.75951
322.3903, 67.39983
322.8724, 67.61205
323.3546, 68.42156
323.8367, 68.93156
324.3188, 68.65134
324.8009, 68.18494
325.2830, 67.99705
325.7651, 68.39363
326.2473, 68.79427
326.7294, 69.09164
327.2115, 69.30708
327.6936, 69.61216
328.1757, 70.41833
328.6578, 71.02026
329.1400, 71.05294
329.6221, 69.57286
330.1042, 68.80188
330.5863, 68.99946
331.0684, 69.92384
331.5505, 70.87238
332.0327, 71.95674
332.5148, 72.94016
332.9969, 73.70866
333.4790, 74.12634
333.9611, 74.67126
334.4432, 75.44669
334.9254, 76.29125
335.4075, 76.94129
335.8896, 77.43567
336.3717, 77.65154
336.8538, 77.38170
337.3359, 76.51467
337.8180, 76.42558
338.3001, 77.34680
338.7823, 78.68884
339.2644, 79.75711
339.7465, 80.47129
340.2286, 81.33918
340.7107, 82.68497
341.1928, 84.33535
341.6750, 84.74131
342.1571, 83.60403
342.6392, 82.35873
343.1213, 82.28666
343.6034, 83.40474
344.0855, 84.51241
344.5677, 85.44644
345.0498, 86.21215
345.5319, 86.78776
346.0140, 87.17168
346.4961, 87.41489
346.9782, 87.44896
347.4604, 87.34034
347.9425, 87.42993
348.4246, 87.78304
348.9067, 88.24545
349.3888, 88.52537
349.8709, 88.68137
350.3531, 89.03454
350.8352, 90.17744
351.3173, 91.53231
351.7994, 91.70816
352.2815, 90.55673
352.7636, 89.46028
353.2458, 90.35098
353.7279, 92.28951
354.2100, 93.22569
354.6921, 91.44791
355.1742, 88.93221
355.6563, 87.74546
356.1385, 87.80892
356.6206, 88.21482
357.1027, 88.61565
357.5848, 88.90972
358.0669, 88.97671
358.5490, 88.73316
359.0312, 88.33159
359.5133, 87.82583
359.9954, 87.22993
360.4775, 86.58335
360.9596, 85.57637
361.4417, 84.74064
361.9239, 84.50757
362.4060, 85.15298
362.8881, 85.78352
363.3702, 86.22079
363.8523, 86.40392
364.3344, 86.23973
364.8166, 85.18481
365.2987, 84.23542
365.7808, 83.92423
366.2629, 84.38178
366.7450, 84.50632
367.2271, 83.52575
367.7093, 82.43405
368.1914, 82.10495
368.6735, 83.72724
369.1556, 84.88621
369.6377, 85.14157
370.1198, 84.58443
370.6020, 83.90527
371.0841, 82.82579
371.5662, 81.87997
372.0483, 81.37162
372.5304, 81.49477
373.0125, 81.70523
373.4947, 82.13966
373.9768, 82.60099
374.4589, 82.57570
374.9410, 81.82201
375.4231, 81.07462
375.9052, 80.60444
376.3874, 80.43680
376.8695, 80.35665
377.3516, 80.39379
377.8337, 80.46751
378.3158, 80.53086
378.7979, 80.61257
379.2801, 80.44906
379.7622, 79.88895
380.2443, 79.03655
380.7264, 78.27422
381.2085, 77.58684
381.6906, 77.12840
382.1728, 77.18496
382.6549, 77.65787
383.1370, 77.87672
383.6191, 77.63775
384.1012, 77.26012
384.5833, 77.32980
385.0655, 77.79292
385.5476, 78.23498
386.0297, 78.38808
386.5118, 78.36916
386.9939, 78.42381
387.4760, 78.59219
387.9582, 78.68571
388.4403, 78.44600
388.9224, 78.00105
389.4045, 77.61977
389.8866, 77.62467
390.3687, 77.59155
390.8509, 77.09283
391.3330, 76.16457
391.8151, 75.20045
392.2972, 74.18906
392.7793, 73.37486
393.2614, 73.02739
393.7436, 73.57673
394.2257, 74.09222
394.7078, 74.04765
395.1899, 73.65665
395.6720, 73.47987
396.1541, 73.96664
396.6363, 74.49243
397.1184, 74.77904
397.6005, 74.78280
398.0826, 74.59502
398.5647, 74.03716
399.0468, 73.36085
399.5290, 72.87108
400.0111, 72.84631
400.4932, 72.73063
400.9753, 72.38988
401.4574, 71.82317
401.9395, 71.32247
402.4217, 70.78530
402.9038, 70.41494
403.3859, 70.39517
403.8680, 70.96426
404.3501, 71.29837
404.8322, 71.24152
405.3144, 70.96127
405.7965, 70.93823
406.2786, 71.26538
406.7607, 71.53808
407.2428, 71.50306
407.7249, 71.14345
408.2071, 71.10775
408.6892, 71.48901
409.1713, 71.91886
409.6534, 71.84380
410.1355, 71.29495
410.6176, 70.89676
411.0998, 70.83495
411.5819, 71.03706
412.0640, 71.47610
412.5461, 72.13197
413.0282, 72.58206
413.5103, 72.33516
413.9925, 71.66542
414.4746, 71.10927
414.9567, 70.73254
415.4388, 70.55064
415.9209, 70.66984
416.4030, 71.00010
416.8852, 71.32145
417.3673, 71.63951
417.8494, 71.82233
418.3315, 71.64883
418.8136, 71.10265
419.2957, 70.69277
419.7779, 70.95707
420.2600, 71.39572
420.7421, 71.50302
421.2242, 70.46819
421.7063, 69.77822
422.1884, 70.26688
422.6706, 71.57397
423.1527, 72.35497
423.6348, 71.53030
424.1169, 70.72331
424.5990, 70.74381
425.0811, 72.17539
425.5633, 73.23796
426.0454, 73.74525
426.5275, 73.90725
427.0096, 73.97984
427.4917, 73.91660
427.9738, 73.82577
428.4560, 73.66709
428.9381, 73.45361
429.4202, 73.51992
429.9023, 73.90336
430.3844, 74.49091
430.8665, 75.37341
431.3487, 76.71823
431.8308, 77.18125
432.3129, 76.30596
432.7950, 74.93965
433.2771, 75.01571
433.7592, 76.58953
434.2414, 78.15910
434.7235, 79.06087
435.2056, 79.39519
435.6877, 79.40482
436.1698, 79.04813
436.6519, 78.86677
437.1341, 79.68140
437.6162, 81.10734
438.0983, 82.11823
438.5804, 82.22630
439.0625, 82.10516
439.5446, 82.62959
440.0268, 83.62099
440.5089, 84.42590
440.9910, 84.47253
441.4731, 84.27634
441.9552, 84.33807
442.4373, 84.77670
442.9195, 85.12786
443.4016, 84.98064
443.8837, 84.66985
444.3658, 84.60242
444.8479, 85.43282
445.3300, 85.98699
445.8122, 85.82075
446.2943, 84.99210
446.7764, 84.07484
447.2585, 82.64999
447.7406, 81.54130
448.2227, 81.21558
448.7049, 82.22615
449.1870, 82.96781
449.6691, 83.49142
450.1512, 83.71626
450.6333, 83.41126
451.1154, 82.16073
451.5976, 81.29460
452.0797, 81.36490
452.5618, 82.26708
453.0439, 82.33019
453.5260, 81.30946
454.0081, 80.21072
454.4903, 79.96668
454.9724, 80.56287
455.4545, 80.79417
455.9366, 80.45536
456.4187, 79.81875
456.9008, 79.41165
457.3830, 79.17529
457.8651, 78.70908
458.3472, 77.20842
458.8293, 75.53588
459.3114, 75.57527
459.7935, 77.31931
460.2757, 79.05929
460.7578, 79.49069
461.2399, 79.03468
461.7220, 78.16200
462.2041, 76.49502
462.6862, 75.28457
463.1684, 75.78020
463.6505, 77.36160
464.1326, 78.58324
464.6147, 78.41471
465.0968, 78.11441
465.5789, 78.47958
466.0611, 79.71922
466.5432, 80.40746
467.0253, 79.62183
467.5074, 78.50333
467.9895, 78.01175
468.4716, 78.95741
468.9538, 79.55008
469.4359, 79.48989
469.9180, 79.00328
470.4001, 78.81507
470.8822, 79.03381
471.3643, 79.36610
471.8465, 79.71585
472.3286, 80.08848
472.8107, 80.43443
473.2928, 80.74905
473.7749, 81.04281
474.2570, 81.34264
474.7392, 81.64851
475.2213, 81.85471
475.7034, 81.92102
476.1855, 81.89613
476.6676, 81.79207
477.1497, 81.63462
477.6319, 81.66714
478.1140, 82.22599
478.5961, 83.00819
479.0782, 83.44125
479.5603, 83.46003
480.0424, 83.51231
480.5246, 83.98457
481.0067, 84.71328
481.4888, 85.47976
481.9709, 86.45517
482.4530, 87.17981
482.9352, 87.15597
483.4173, 86.64180
483.8994, 86.45378
484.3815, 87.20103
484.8636, 88.06498
485.3457, 88.67611
485.8279, 88.98692
486.3100, 89.12827
486.7921, 88.86978
487.2742, 88.57902
487.7563, 88.61585
488.2384, 89.43360
488.7206, 89.75760
489.2027, 89.15549
489.6848, 88.00443
490.1669, 87.79536
490.6490, 88.88475
491.1311, 89.83880
491.6133, 89.86234
492.0954, 88.97535
492.5775, 88.34835
493.0596, 88.03452
493.5417, 87.77241
494.0238, 87.21266
494.5060, 86.43298
494.9881, 85.80537
495.4702, 85.44534
495.9523, 85.25211
496.4344, 85.06715
496.9165, 84.92342
497.3987, 84.94480
497.8808, 85.52419
498.3629, 86.10691
498.8450, 86.06653
499.3271, 85.33069
499.8092, 84.59478
500.2914, 84.15493
500.7735, 83.92443
501.2556, 83.81277
501.7377, 84.02177
502.2198, 84.07887
502.7019, 83.68027
503.1841, 83.04277
503.6662, 82.75574
504.1483, 83.06882
504.6304, 83.52574
505.1125, 84.08268
505.5946, 84.77507
506.0768, 85.12065
506.5589, 84.98579
507.0410, 84.70009
507.5231, 84.49094
508.0052, 84.34496
508.4873, 84.40185
508.9695, 84.74819
509.4516, 85.19238
509.9337, 85.30759
510.4158, 85.11568
510.8979, 85.03444
511.3800, 85.36992
511.8622, 85.90157
512.3443, 86.08018
512.8264, 85.92243
513.3085, 85.77724
513.7906, 85.84231
514.2728, 86.10278
514.7549, 86.58930
515.2370, 87.39697
515.7191, 88.15499
516.2012, 88.67927
516.6833, 88.99191
517.1655, 89.13673
517.6476, 88.72707
518.1297, 88.55061
518.6118, 89.06760
519.0939, 90.20093
519.5760, 91.02412
520.0582, 90.97857
520.5403, 90.98373
521.0224, 91.46680
521.5045, 92.68104
521.9866, 93.64127
522.4688, 94.31321
522.9509, 94.76736
523.4330, 94.95532
523.9151, 94.73072
524.3972, 95.11587
524.8793, 96.55555
525.3615, 98.54197
525.8436, 99.71886
526.3257, 100.0990
526.8078, 100.3250
527.2899, 100.8633
527.7720, 101.5099
528.2542, 101.6400
528.7363, 101.2054
529.2184, 100.9572
529.7005, 101.6777
530.1826, 102.9273
530.6647, 104.1394
531.1469, 105.2405
531.6290, 106.1147
532.1111, 106.6358
532.5932, 106.8784
533.0753, 106.9941
533.5574, 106.6951
534.0396, 106.5966
534.5217, 106.9762
535.0038, 107.8667
535.4859, 108.7338
535.9680, 109.4985
536.4501, 110.2901
536.9323, 111.2094
537.4144, 112.3953
537.8965, 113.3141
538.3786, 113.8519
538.8607, 114.2615
539.3428, 115.0173
539.8250, 116.1779
540.3071, 116.9216
540.7892, 116.7463
541.2713, 116.2134
541.7534, 116.8249
542.2355, 118.4935
542.7177, 120.2824
543.1998, 121.7274
543.6819, 122.8869
544.1640, 123.7418
544.6461, 124.2749
545.1282, 124.9025
545.6104, 125.7886
546.0925, 126.9741
546.5746, 128.5389
547.0567, 130.9599
547.5388, 133.1220
548.0209, 134.4865
548.5031, 135.3146
548.9852, 136.2143
549.4673, 137.1722
549.9494, 138.3311
550.4315, 139.9651
550.9136, 142.0689
551.3958, 143.2194
551.8779, 143.1066
552.3600, 142.5632
552.8421, 142.1102
553.3242, 141.7808
553.8063, 141.1981
554.2885, 140.3030
554.7706, 139.2739
555.2527, 138.3092
555.7348, 137.4101
556.2169, 136.6248
556.6990, 136.1577
557.1812, 135.5788
557.6633, 134.1234
558.1454, 131.9806
558.6275, 129.8540
559.1096, 128.1573
559.5917, 126.6508
560.0739, 125.1892
560.5560, 123.7545
561.0381, 122.3386
561.5202, 120.9685
562.0023, 119.6127
562.4844, 118.2462
562.9666, 116.7457
563.4487, 115.4075
563.9308, 114.1722
564.4129, 113.1316
564.8950, 112.5213
565.3771, 112.7343
565.8593, 112.4698
566.3414, 111.2438
566.8235, 109.3442
567.3056, 108.0238
567.7877, 107.3307
568.2698, 106.9207
568.7520, 106.6712
569.2341, 106.5438
569.7162, 106.3604
570.1983, 106.1110
570.6804, 105.9143
571.1625, 106.0629
571.6447, 106.2959
572.1268, 106.1553
572.6089, 105.3830
573.0910, 104.5411
573.5731, 103.8553
574.0552, 103.3663
574.5374, 103.1304
575.0195, 103.6428
575.5016, 103.9365
575.9837, 103.4543
576.4658, 102.2935
576.9479, 101.7069
577.4301, 102.1085
577.9122, 102.6356
578.3943, 102.9784
578.8764, 103.1601
579.3585, 102.9139
579.8406, 102.0347
580.3228, 101.1833
580.8049, 101.1950
581.2870, 102.0096
581.7691, 102.5344
582.2512, 102.5158
582.7333, 102.2849
583.2155, 102.3090
583.6975, 102.5299
584.1796, 102.7696
584.6617, 102.8346
585.1439, 102.9591
585.6260, 103.4888
586.1081, 104.3219
586.5902, 104.9468
587.0723, 104.9807
587.5544, 104.8491
