##NAMES=Sursassite
##RRUFFID=R060336
##IDEAL CHEMISTRY=Mn^2+^_2_Al_3_(SiO_4_)(Si_2_O_7_)(OH)_3_
##LOCALITY=Strategic Manganese mine, near Woodstock, New Brunswick, Canada
##OWNER=RRUFF
##SOURCE=Michael Scott
##DESCRIPTION=Reddish-brown fibrous or platy crystals in parallel or radiating groups
##STATUS=The identification of this mineral has been confirmed by single-crystal X-ray diffraction.
##URL=rruff.info/R060336
91.53320, 132.4968
92.01532, 135.0399
92.49744, 135.6144
92.97955, 135.1451
93.46167, 133.1422
93.94379, 130.6739
94.42590, 128.8347
94.90802, 127.2618
95.39014, 125.1694
95.87225, 122.4012
96.35437, 119.8208
96.83649, 117.8115
97.31860, 116.2121
97.80072, 114.9328
98.28284, 113.9234
98.76495, 112.9655
99.24707, 111.4911
99.72919, 108.9791
100.2113, 106.5674
100.6934, 104.3386
101.1755, 102.3791
101.6577, 100.8286
102.1398, 99.78239
102.6219, 99.22972
103.1040, 99.23133
103.5861, 100.2400
104.0682, 101.2638
104.5504, 101.7676
105.0325, 101.6678
105.5146, 101.2293
105.9967, 100.7955
106.4788, 100.4294
106.9609, 99.84689
107.4431, 98.63882
107.9252, 97.29707
108.4073, 96.59677
108.8894, 96.92300
109.3715, 97.66328
109.8536, 97.72982
110.3358, 97.05481
110.8179, 96.24368
111.3000, 95.51762
111.7821, 94.88551
112.2642, 94.44646
112.7463, 94.29395
113.2285, 94.34339
113.7106, 94.56513
114.1927, 95.01952
114.6748, 95.46507
115.1569, 95.48313
115.6390, 94.81634
116.1212, 94.38921
116.6033, 94.68604
117.0854, 95.24113
117.5675, 95.58684
118.0496, 95.47363
118.5317, 95.00797
119.0139, 94.70607
119.4960, 94.80807
119.9781, 94.82725
120.4602, 94.52384
120.9423, 94.07664
121.4244, 93.84316
121.9066, 94.14977
122.3887, 95.07617
122.8708, 95.37208
123.3529, 94.65672
123.8350, 93.81423
124.3171, 93.15949
124.7993, 92.74679
125.2814, 92.56576
125.7635, 92.64916
126.2456, 93.07732
126.7277, 93.36582
127.2098, 93.41358
127.6920, 93.35967
128.1741, 93.43226
128.6562, 93.72947
129.1383, 93.88880
129.6204, 93.17028
130.1025, 91.67148
130.5847, 90.55764
131.0668, 90.64916
131.5489, 91.57484
132.0310, 91.99938
132.5131, 91.34820
132.9952, 90.41873
133.4774, 90.04025
133.9595, 90.21841
134.4416, 90.27212
134.9237, 89.32041
135.4058, 87.10745
135.8879, 85.65928
136.3701, 86.11130
136.8522, 86.98018
137.3343, 87.47221
137.8164, 87.38828
138.2985, 87.02168
138.7806, 86.89745
139.2628, 87.29123
139.7449, 87.41295
140.2270, 86.87365
140.7091, 86.21897
141.1912, 86.00149
141.6733, 86.46925
142.1555, 87.37917
142.6376, 87.89140
143.1197, 87.53916
143.6018, 87.27858
144.0839, 87.25156
144.5660, 87.37463
145.0482, 87.53297
145.5303, 87.67906
146.0124, 87.78604
146.4945, 87.65222
146.9766, 86.95600
147.4587, 86.38670
147.9409, 86.37777
148.4230, 86.81516
148.9051, 87.17057
149.3872, 87.11089
149.8693, 86.62115
150.3514, 85.96037
150.8336, 84.91421
151.3157, 83.83202
151.7978, 83.11443
152.2799, 82.82643
152.7620, 82.45690
153.2441, 81.36517
153.7263, 79.92749
154.2084, 78.77441
154.6905, 78.20464
155.1726, 78.05518
155.6547, 78.02612
156.1368, 78.27100
156.6190, 78.34118
157.1011, 77.88290
157.5832, 77.10166
158.0653, 76.39917
158.5474, 76.16129
159.0295, 76.32365
159.5117, 76.01042
159.9938, 74.65185
160.4759, 73.34394
160.9580, 72.48586
161.4401, 72.01537
161.9222, 71.69732
162.4044, 71.32288
162.8865, 70.86290
163.3686, 70.51015
163.8507, 70.37522
164.3328, 70.24204
164.8149, 69.98706
165.2971, 69.62172
165.7792, 69.26833
166.2613, 69.08306
166.7434, 69.18504
167.2255, 69.10151
167.7076, 68.66992
168.1898, 68.19144
168.6719, 67.93047
169.1540, 67.92249
169.6361, 67.93362
170.1182, 67.58473
170.6003, 66.54899
171.0825, 66.03208
171.5646, 66.46230
172.0467, 67.29501
172.5288, 67.90199
173.0109, 68.09151
173.4930, 68.11601
173.9752, 68.39146
174.4573, 68.92452
174.9394, 69.50161
175.4215, 70.24303
175.9036, 70.98516
176.3857, 71.26490
176.8679, 70.72791
177.3500, 70.03482
177.8321, 70.17968
178.3142, 71.24307
178.7963, 72.16763
179.2784, 72.04972
179.7606, 71.05808
180.2427, 70.61375
180.7248, 71.51230
181.2069, 72.75442
181.6890, 73.50368
182.1711, 73.69605
182.6533, 73.55246
183.1354, 73.17978
183.6175, 72.53324
184.0996, 72.01433
184.5817, 71.89967
185.0638, 71.83023
185.5460, 71.58108
186.0281, 71.10696
186.5102, 70.55370
186.9923, 70.11821
187.4744, 69.82543
187.9565, 69.59341
188.4387, 69.29788
188.9208, 69.11337
189.4029, 69.23397
189.8850, 69.70389
190.3671, 70.32400
190.8492, 70.74161
191.3314, 70.98393
191.8135, 70.91658
192.2956, 70.00662
192.7777, 69.07917
193.2598, 69.03200
193.7419, 70.19187
194.2241, 71.96895
194.7062, 72.94038
195.1883, 72.16306
195.6704, 71.59921
196.1525, 71.38652
196.6346, 71.37770
197.1168, 71.39532
197.5989, 71.36112
198.0810, 71.32462
198.5631, 71.43902
199.0452, 71.86897
199.5273, 72.22243
200.0095, 72.33974
200.4916, 72.35335
200.9737, 72.52273
201.4558, 73.00626
201.9379, 73.63033
202.4200, 73.86867
202.9022, 73.52444
203.3843, 73.22874
203.8664, 73.28322
204.3485, 73.56879
204.8306, 73.72018
205.3127, 73.49213
205.7949, 73.14232
206.2770, 73.25542
206.7591, 74.04312
207.2412, 74.79400
207.7233, 75.05708
208.2054, 74.89837
208.6876, 74.70119
209.1697, 74.53941
209.6518, 74.48965
210.1339, 74.68678
210.6160, 75.24104
211.0981, 75.73646
211.5803, 75.83479
212.0624, 75.53625
212.5445, 75.04639
213.0266, 74.09778
213.5087, 73.21358
213.9908, 72.99477
214.4730, 73.62617
214.9551, 74.39854
215.4372, 74.40784
215.9193, 73.48396
216.4014, 72.86032
216.8836, 73.49458
217.3657, 74.21752
217.8478, 74.05784
218.3299, 72.76558
218.8120, 71.25735
219.2941, 70.95203
219.7763, 72.35994
220.2584, 73.27969
220.7405, 73.00851
221.2226, 72.33791
221.7047, 71.76424
222.1868, 71.42579
222.6690, 71.17577
223.1511, 70.73594
223.6332, 69.87861
224.1153, 69.36760
224.5974, 69.37292
225.0795, 69.62401
225.5617, 70.03651
226.0438, 70.55370
226.5259, 71.01081
227.0080, 71.08674
227.4901, 70.46510
227.9722, 70.03085
228.4544, 69.98869
228.9365, 70.01339
229.4186, 69.85622
229.9007, 69.44851
230.3828, 68.88815
230.8649, 68.33725
231.3471, 67.70719
231.8292, 67.24496
232.3113, 66.81792
232.7934, 66.61334
233.2755, 66.96647
233.7576, 67.91411
234.2398, 68.96711
234.7219, 69.28398
235.2040, 68.20378
235.6861, 67.52966
236.1682, 67.61028
236.6503, 67.89793
237.1325, 67.83588
237.6146, 67.29095
238.0967, 66.63158
238.5788, 66.43063
239.0609, 66.99458
239.5430, 67.32455
240.0252, 67.25839
240.5073, 67.00839
240.9894, 66.75548
241.4715, 66.54255
241.9536, 66.36971
242.4357, 66.23261
242.9179, 66.12486
243.4000, 66.09550
243.8821, 66.33616
244.3642, 66.57200
244.8463, 66.46994
245.3284, 65.95435
245.8106, 65.25939
246.2927, 64.59451
246.7748, 63.95084
247.2569, 63.49213
247.7390, 63.26884
248.2211, 63.23111
248.7033, 63.49148
249.1854, 64.13767
249.6675, 64.51619
250.1496, 63.57967
250.6317, 61.56810
251.1138, 60.23893
251.5960, 60.37040
252.0781, 61.19889
252.5602, 61.83238
253.0423, 62.20535
253.5244, 62.29637
254.0065, 61.91284
254.4887, 61.20127
254.9708, 60.53837
255.4529, 59.90308
255.9350, 59.41564
256.4171, 59.30413
256.8992, 59.63381
257.3813, 60.06899
257.8635, 60.56709
258.3456, 60.99596
258.8277, 61.06274
259.3098, 60.44471
259.7919, 59.56014
260.2740, 58.99394
260.7562, 58.78065
261.2383, 58.73597
261.7204, 58.85582
262.2025, 59.05923
262.6846, 59.23979
263.1667, 59.30371
263.6489, 59.40892
264.1310, 59.88153
264.6131, 60.85270
265.0952, 61.61887
265.5773, 61.62520
266.0594, 61.35678
266.5416, 61.25041
267.0237, 61.43606
267.5058, 61.78355
267.9879, 62.18561
268.4700, 62.69415
268.9521, 63.01189
269.4343, 62.94469
269.9164, 62.68797
270.3985, 62.25144
270.8806, 61.60094
271.3627, 61.12781
271.8448, 61.52402
272.3270, 63.05157
272.8091, 64.08529
273.2912, 63.71064
273.7733, 63.03901
274.2554, 62.73500
274.7375, 62.91024
275.2197, 63.24512
275.7018, 63.37643
276.1839, 63.26373
276.6660, 63.20592
277.1481, 63.17461
277.6302, 63.26768
278.1124, 63.62072
278.5945, 64.20553
279.0766, 64.79603
279.5587, 65.12022
280.0408, 65.13187
280.5229, 65.30894
281.0051, 65.97466
281.4872, 66.54898
281.9693, 66.66432
282.4514, 66.43073
282.9335, 66.27453
283.4156, 66.69312
283.8978, 67.71096
284.3799, 68.14452
284.8620, 67.50797
285.3441, 66.72265
285.8262, 66.02315
286.3083, 65.42238
286.7905, 64.88750
287.2726, 64.40229
287.7547, 63.96432
288.2368, 63.56369
288.7189, 63.22923
289.2010, 62.90011
289.6832, 62.59043
290.1653, 62.27143
290.6474, 61.92822
291.1295, 61.57872
291.6116, 61.16040
292.0938, 60.37564
292.5759, 58.76032
293.0580, 57.45510
293.5401, 56.67335
294.0222, 56.28731
294.5043, 56.21710
294.9865, 56.43653
295.4686, 56.81769
295.9507, 57.05952
296.4328, 57.15058
296.9149, 57.10060
297.3970, 57.02485
297.8792, 56.77460
298.3613, 56.07665
298.8434, 54.88615
299.3255, 53.62548
299.8076, 53.05261
300.2897, 53.56751
300.7719, 53.87951
301.2540, 53.78870
301.7361, 53.60921
302.2182, 53.48004
302.7003, 53.45406
303.1824, 53.57717
303.6646, 54.00792
304.1467, 54.99221
304.6288, 55.36103
305.1109, 54.30420
305.5930, 53.37574
306.0751, 53.54066
306.5573, 54.59728
307.0394, 55.58295
307.5215, 55.55623
308.0036, 54.42042
308.4857, 53.68406
308.9678, 53.66071
309.4500, 53.74715
309.9321, 53.85366
310.4142, 53.93840
310.8963, 53.98182
311.3784, 53.99023
311.8605, 53.93635
312.3427, 53.59595
312.8248, 52.39390
313.3069, 51.58248
313.7890, 51.51623
314.2711, 51.92344
314.7532, 52.53139
315.2354, 53.22267
315.7175, 53.86160
316.1996, 54.03064
316.6817, 53.44450
317.1638, 52.80185
317.6459, 52.09843
318.1281, 51.42540
318.6102, 50.82354
319.0923, 50.31649
319.5744, 49.97865
320.0565, 49.95752
320.5386, 50.38126
321.0208, 50.84029
321.5029, 51.45802
321.9850, 51.99662
322.4671, 52.27997
322.9492, 52.30646
323.4313, 52.22077
323.9135, 52.15942
324.3956, 52.10809
324.8777, 52.15893
325.3598, 52.34757
325.8419, 52.60522
326.3240, 52.92579
326.8062, 53.29797
327.2883, 53.71588
327.7704, 54.20244
328.2525, 54.74411
328.7346, 55.11448
329.2167, 55.20620
329.6989, 55.23242
330.1810, 55.06798
330.6631, 54.91117
331.1452, 55.05098
331.6273, 55.65348
332.1094, 56.61527
332.5916, 57.63410
333.0737, 58.77897
333.5558, 59.86040
334.0379, 60.94734
334.5200, 61.91974
335.0021, 62.61020
335.4843, 62.97506
335.9664, 63.18776
336.4485, 63.54517
336.9306, 64.14849
337.4127, 64.59232
337.8948, 64.52877
338.3770, 64.53575
338.8591, 65.02097
339.3412, 65.98196
339.8233, 67.06542
340.3055, 67.89381
340.7876, 68.42252
341.2697, 69.13264
341.7518, 70.65823
342.2339, 71.70924
342.7160, 71.33703
343.1982, 70.06513
343.6803, 69.17778
344.1624, 69.66348
344.6445, 71.21281
345.1266, 72.24618
345.6087, 72.41930
346.0909, 72.61993
346.5730, 73.33963
347.0551, 74.19054
347.5372, 74.65605
348.0193, 74.49676
348.5014, 73.98141
348.9836, 73.51424
349.4657, 73.00623
349.9478, 72.85930
350.4299, 73.55367
350.9120, 74.42088
351.3941, 75.03170
351.8763, 75.29951
352.3584, 75.29256
352.8405, 74.92695
353.3226, 74.18250
353.8047, 73.81242
354.2868, 74.50135
354.7690, 74.95916
355.2511, 74.14605
355.7332, 72.31605
356.2153, 70.62142
356.6974, 69.89516
357.1795, 69.91843
357.6617, 69.85229
358.1438, 69.67458
358.6259, 69.43539
359.1080, 69.35083
359.5901, 69.20242
360.0722, 68.56065
360.5544, 67.03474
361.0365, 65.22774
361.5186, 63.90536
362.0007, 63.08546
362.4828, 62.70311
362.9649, 63.19460
363.4471, 63.85395
363.9292, 63.81254
364.4113, 62.85844
364.8934, 61.76122
365.3755, 61.10019
365.8576, 60.81036
366.3398, 60.55814
366.8219, 60.33082
367.3040, 60.01751
367.7861, 59.38087
368.2682, 58.46456
368.7503, 57.81055
369.2325, 57.91506
369.7146, 58.33487
370.1967, 58.25288
370.6788, 57.53489
371.1609, 56.71832
371.6430, 56.29110
372.1252, 56.10056
372.6073, 55.64284
373.0894, 54.27847
373.5715, 53.08492
374.0536, 53.29456
374.5357, 54.63646
375.0179, 55.40509
375.5000, 54.53650
375.9821, 52.79506
376.4642, 52.02552
376.9463, 52.53889
377.4284, 53.14899
377.9106, 53.56758
378.3927, 53.76782
378.8748, 53.70502
379.3569, 53.36757
379.8390, 52.75452
380.3211, 51.74740
380.8033, 50.21864
381.2854, 49.09235
381.7675, 48.50386
382.2496, 48.29575
382.7317, 48.52741
383.2138, 49.11161
383.6960, 49.58450
384.1781, 49.55090
384.6602, 49.06464
385.1423, 48.94224
385.6244, 49.66223
386.1065, 50.14257
386.5887, 49.78567
387.0708, 48.99261
387.5529, 48.49856
388.0350, 48.63728
388.5171, 49.08635
388.9992, 49.13066
389.4814, 48.32505
389.9635, 47.78482
390.4456, 47.89411
390.9277, 48.01168
391.4098, 47.45699
391.8919, 46.23726
392.3741, 45.01395
392.8562, 44.48575
393.3383, 44.73115
393.8204, 45.07861
394.3025, 45.92746
394.7846, 46.46228
395.2668, 46.13697
395.7489, 45.32115
396.2310, 44.71734
396.7131, 44.74700
397.1952, 45.23077
397.6773, 45.56691
398.1595, 45.83985
398.6416, 45.79199
399.1237, 45.24093
399.6058, 44.49228
400.0879, 43.77275
400.5700, 43.14637
401.0522, 42.58582
401.5343, 42.04354
402.0164, 41.51049
402.4985, 41.06389
402.9806, 40.64574
403.4627, 40.38799
403.9449, 40.46465
404.4270, 40.75704
404.9091, 40.96199
405.3912, 40.84256
405.8733, 40.52444
406.3554, 40.44291
406.8376, 40.74339
407.3197, 40.91320
407.8018, 40.56950
408.2839, 40.07611
408.7660, 39.82985
409.2481, 39.95493
409.7303, 40.15216
410.2124, 40.12710
410.6945, 39.89053
411.1766, 39.59614
411.6587, 39.20317
412.1408, 38.85801
412.6230, 38.70796
413.1051, 38.73183
413.5872, 38.78394
414.0693, 38.83314
414.5514, 38.86201
415.0335, 38.81454
415.5157, 38.67677
415.9978, 38.58059
416.4799, 38.59791
416.9620, 38.73164
417.4441, 38.97404
417.9262, 39.52473
418.4084, 39.91813
418.8905, 39.80931
419.3726, 39.33580
419.8547, 38.84525
420.3368, 38.45461
420.8189, 38.09124
421.3011, 37.56807
421.7832, 36.73274
422.2653, 36.38921
422.7474, 37.19299
423.2295, 38.14031
423.7116, 38.16144
424.1938, 37.31350
424.6759, 36.65559
425.1580, 37.08423
425.6401, 38.51512
426.1222, 39.38198
426.6043, 39.36015
427.0865, 39.24651
427.5686, 39.16213
428.0507, 39.12733
428.5328, 39.17477
429.0149, 39.31427
429.4970, 39.48133
429.9792, 39.56093
430.4613, 39.50882
430.9434, 39.46210
431.4255, 39.42601
431.9076, 39.38967
432.3897, 39.27357
432.8719, 39.13771
433.3540, 39.19048
433.8361, 39.67508
434.3182, 40.47402
434.8003, 40.66935
435.2824, 39.59764
435.7646, 38.94824
436.2467, 39.40695
436.7288, 40.31710
437.2109, 41.04647
437.6930, 41.39982
438.1751, 41.43835
438.6573, 41.11087
439.1394, 40.37365
439.6215, 39.89769
440.1036, 39.89965
440.5857, 40.05440
441.0678, 40.12035
441.5500, 40.13855
442.0321, 40.27813
442.5142, 40.78966
442.9963, 41.41185
443.4784, 41.60413
443.9605, 41.30717
444.4427, 41.06185
444.9248, 41.34354
445.4069, 41.72569
445.8890, 41.41174
446.3711, 40.08464
446.8532, 38.85675
447.3354, 38.31826
447.8175, 38.32582
448.2996, 38.66357
448.7817, 39.33076
449.2638, 40.02298
449.7459, 40.43478
450.2281, 40.54523
450.7102, 40.46383
451.1923, 39.89170
451.6744, 39.39690
452.1565, 39.52444
452.6386, 40.05607
453.1208, 40.25122
453.6029, 39.67748
454.0850, 38.67867
454.5671, 38.21091
455.0492, 38.84789
455.5313, 39.25564
456.0135, 39.36328
456.4956, 39.27446
456.9777, 39.05528
457.4598, 38.72428
457.9419, 38.24786
458.4240, 37.50579
458.9062, 36.48698
459.3883, 36.17496
459.8704, 37.41359
460.3525, 38.43752
460.8346, 38.97738
461.3167, 39.04704
461.7989, 38.51509
462.2810, 37.31482
462.7631, 36.05859
463.2452, 35.81752
463.7273, 36.80560
464.2094, 37.53127
464.6916, 37.57908
465.1737, 37.52971
465.6558, 37.80846
466.1379, 38.30554
466.6200, 38.57795
467.1021, 38.13485
467.5843, 37.42181
468.0664, 37.48996
468.5485, 38.48355
469.0306, 39.19755
469.5127, 38.89764
469.9948, 38.10368
470.4770, 37.62980
470.9591, 37.53804
471.4412, 37.63508
471.9233, 37.94534
472.4054, 38.35040
472.8875, 38.60992
473.3697, 38.67467
473.8518, 38.70866
474.3339, 38.87134
474.8160, 39.15984
475.2981, 39.35698
475.7802, 39.41807
476.2624, 39.43710
476.7445, 39.39640
477.2266, 39.35292
477.7087, 39.45033
478.1908, 39.74967
478.6729, 40.08300
479.1551, 40.12193
479.6372, 39.60139
480.1193, 39.41785
480.6014, 39.69062
481.0835, 40.14314
481.5656, 40.77731
482.0478, 41.46587
482.5299, 41.92480
483.0120, 41.92817
483.4941, 41.63713
483.9762, 41.70282
484.4583, 42.42609
484.9405, 42.88642
485.4226, 42.76673
485.9047, 42.43389
486.3868, 42.10319
486.8689, 41.82612
487.3510, 41.65092
487.8332, 41.68889
488.3153, 41.88216
488.7974, 41.87801
489.2795, 41.49617
489.7616, 41.33408
490.2437, 42.16103
490.7259, 43.35230
491.2080, 43.90745
491.6901, 43.42778
492.1722, 42.71859
492.6543, 42.35204
493.1364, 42.21736
493.6186, 41.96233
494.1007, 41.46275
494.5828, 40.96650
495.0649, 40.79440
495.5470, 40.98819
496.0291, 41.03052
496.5113, 40.60479
496.9934, 40.30279
497.4755, 40.63363
497.9576, 41.36491
498.4397, 41.89594
498.9218, 41.92922
499.4040, 41.67427
499.8861, 41.61050
500.3682, 42.02059
500.8503, 42.08902
501.3324, 41.46485
501.8145, 40.83910
502.2967, 40.62910
502.7788, 40.80614
503.2609, 41.13038
503.7430, 41.45777
504.2251, 41.77900
504.7072, 42.06685
505.1894, 42.36102
505.6715, 42.52962
506.1536, 42.45248
506.6357, 42.29730
507.1178, 42.16646
507.5999, 42.07912
508.0821, 42.05561
508.5642, 42.11476
509.0463, 42.24907
509.5284, 42.47184
510.0105, 42.81935
510.4926, 43.08986
510.9748, 43.06758
511.4569, 42.90279
511.9390, 42.96347
512.4211, 43.40508
512.9032, 43.82158
513.3853, 43.90788
513.8674, 43.86407
514.3495, 44.03554
514.8317, 44.50114
515.3138, 45.15199
515.7959, 45.96450
516.2780, 46.98653
516.7601, 47.36512
517.2422, 46.51443
517.7244, 45.78743
518.2065, 45.59740
518.6886, 45.82847
519.1707, 46.36023
519.6528, 47.12872
520.1349, 47.96026
520.6171, 48.54909
521.0992, 48.78422
521.5813, 49.23254
522.0634, 50.18853
522.5455, 51.07080
523.0276, 51.60186
523.5098, 51.91807
523.9919, 52.26341
524.4740, 52.72206
524.9561, 53.32689
525.4382, 54.28281
525.9203, 55.59694
526.4025, 56.49851
526.8846, 56.67453
527.3667, 56.54543
527.8488, 56.28636
528.3309, 55.97969
528.8130, 56.26595
529.2952, 57.83331
529.7773, 59.68757
530.2594, 61.01673
530.7415, 61.83744
531.2236, 62.26994
531.7057, 62.28337
532.1879, 62.18186
532.6700, 62.57002
533.1521, 63.74636
533.6342, 64.76018
534.1163, 65.63240
534.5984, 66.30228
535.0806, 66.47132
535.5627, 66.38405
536.0448, 66.72228
536.5269, 67.94248
537.0090, 69.71623
537.4911, 71.00890
537.9733, 71.57353
538.4554, 72.21987
538.9375, 73.34192
539.4196, 74.32571
539.9017, 74.51790
540.3839, 74.13033
540.8660, 74.14520
541.3481, 75.33943
541.8302, 77.27832
542.3123, 79.03176
542.7944, 80.58176
543.2766, 82.09758
543.7587, 83.72456
544.2408, 85.26855
544.7229, 86.33949
545.2050, 86.84425
545.6871, 87.70950
546.1693, 89.70390
546.6514, 91.93176
547.1335, 93.32806
547.6156, 93.92577
548.0977, 94.48401
548.5798, 95.44415
549.0620, 96.72779
549.5441, 98.06142
550.0262, 99.63439
550.5083, 100.9922
550.9904, 102.4354
551.4725, 103.4325
551.9547, 103.3350
552.4368, 102.3455
552.9189, 101.3303
553.4010, 100.9777
553.8831, 101.0544
554.3652, 100.5825
554.8474, 99.32168
555.3295, 98.12637
555.8116, 97.55150
556.2937, 96.88102
556.7758, 95.54538
557.2579, 93.54060
557.7401, 91.32980
558.2222, 89.14565
558.7043, 86.95190
559.1864, 84.54549
559.6685, 81.93395
560.1506, 79.58918
560.6328, 77.79678
561.1149, 76.37912
561.5970, 74.94854
562.0791, 73.50929
562.5612, 72.06804
563.0433, 70.54447
563.5255, 69.08449
564.0076, 67.81261
564.4897, 66.71828
564.9718, 65.70615
565.4539, 64.72401
565.9360, 63.75011
566.4182, 62.71482
566.9003, 61.53487
567.3824, 60.43969
567.8645, 59.29981
568.3466, 58.35624
568.8287, 57.87677
569.3109, 57.75539
569.7930, 57.62686
570.2751, 57.27984
570.7572, 56.76389
571.2393, 56.13141
571.7214, 55.36520
572.2036, 54.71552
572.6857, 54.29052
573.1678, 53.99545
573.6499, 53.74127
574.1320, 53.52765
574.6141, 53.26875
575.0963, 52.87952
575.5784, 52.48553
576.0605, 52.17446
576.5426, 51.95138
577.0247, 51.84845
577.5068, 51.89803
577.9890, 51.96289
578.4711, 51.76238
578.9532, 51.08994
579.4353, 50.68406
579.9174, 50.69193
580.3995, 50.78296
580.8817, 50.85720
581.3638, 50.88633
581.8459, 50.82457
582.3280, 50.63912
582.8101, 50.44526
583.2922, 50.45980
583.7744, 50.70123
584.2565, 50.87469
584.7386, 50.90384
585.2207, 50.91380
585.7029, 50.98238
586.1850, 51.10039
586.6671, 51.25117
587.1492, 51.46028
587.6313, 51.66181
