##NAMES=Susannite
##RRUFFID=R070704
##IDEAL CHEMISTRY=Pb^2+^_4_(S^6+^O_4_)(CO_3_)_2_(OH)_2_
##LOCALITY=Boarezzo mine (Pradisci prospect; Rio Carpane prospect), Boarezzo, Varese Province, Lombardy, Italy
##OWNER=RRUFF
##SOURCE=Michael Scott
##DESCRIPTION=Array of colorless tabular hexagonal plates
##STATUS=The identification of this mineral has been confirmed by single-crystal X-ray diffraction.
##URL=rruff.info/R070704
142.7027, 24908.86
143.1848, 24966.09
143.6669, 25017.17
144.1490, 25048.62
144.6311, 25092.36
145.1133, 25169.22
145.5954, 25305.08
146.0775, 25424.47
146.5596, 25506.54
147.0417, 25553.26
147.5238, 25649.77
148.0060, 25819.49
148.4881, 26022.55
148.9702, 26221.21
149.4523, 26421.65
149.9344, 26613.85
150.4165, 26791.99
150.8987, 26950.67
151.3808, 27120.71
151.8629, 27292.55
152.3450, 27478.34
152.8271, 27693.47
153.3092, 27977.31
153.7914, 28257.45
154.2735, 28506.40
154.7556, 28697.15
155.2377, 28897.20
155.7198, 29128.61
156.2019, 29377.56
156.6841, 29601.85
157.1662, 29763.34
157.6483, 29918.03
158.1304, 30096.36
158.6125, 30330.43
159.0946, 30564.68
159.5768, 30801.11
160.0589, 31037.40
160.5410, 31222.58
161.0231, 31290.11
161.5052, 31320.40
161.9873, 31392.45
162.4695, 31597.68
162.9516, 31796.37
163.4337, 31915.88
163.9158, 31944.46
164.3979, 31957.02
164.8800, 31982.16
165.3622, 32013.49
165.8443, 32040.95
166.3264, 32064.16
166.8085, 32079.51
167.2906, 32088.19
167.7727, 32097.72
168.2549, 32082.83
168.7370, 32020.19
169.2191, 31919.20
169.7012, 31806.05
170.1833, 31707.36
170.6654, 31601.01
171.1476, 31462.18
171.6297, 31274.27
172.1118, 31066.26
172.5939, 30860.69
173.0760, 30658.19
173.5581, 30449.18
174.0403, 30225.92
174.5224, 29992.04
175.0045, 29752.44
175.4866, 29513.46
175.9687, 29270.09
176.4508, 29010.21
176.9330, 28731.57
177.4151, 28453.14
177.8972, 28197.53
178.3793, 27953.26
178.8614, 27694.55
179.3435, 27401.30
179.8257, 27084.85
180.3078, 26762.63
180.7899, 26431.93
181.2720, 26098.59
181.7541, 25759.94
182.2362, 25416.54
182.7184, 25082.45
183.2005, 24761.11
183.6826, 24454.14
184.1647, 24155.14
184.6468, 23870.15
185.1289, 23592.85
185.6111, 23323.63
186.0932, 23060.24
186.5753, 22799.94
187.0574, 22537.04
187.5395, 22274.28
188.0216, 22008.63
188.5037, 21737.98
188.9859, 21471.00
189.4680, 21228.89
189.9501, 21014.64
190.4322, 20813.37
190.9143, 20622.66
191.3964, 20441.07
191.8786, 20239.94
192.3607, 20003.71
192.8428, 19742.14
193.3249, 19498.28
193.8070, 19274.62
194.2891, 19065.17
194.7713, 18861.31
195.2534, 18661.17
195.7355, 18477.44
196.2176, 18323.40
196.6997, 18199.39
197.1818, 18058.22
197.6640, 17894.15
198.1461, 17724.64
198.6282, 17582.20
199.1103, 17469.57
199.5924, 17364.74
200.0745, 17255.14
200.5567, 17141.59
201.0388, 17026.65
201.5209, 16908.19
202.0030, 16789.04
202.4851, 16677.79
202.9672, 16574.71
203.4494, 16476.13
203.9315, 16381.39
204.4136, 16291.15
204.8957, 16195.33
205.3778, 16087.96
205.8599, 15973.87
206.3421, 15876.71
206.8242, 15798.62
207.3063, 15733.69
207.7884, 15684.78
208.2705, 15661.77
208.7526, 15612.65
209.2348, 15515.68
209.7169, 15374.70
210.1990, 15274.54
210.6811, 15233.53
211.1632, 15204.20
211.6453, 15126.92
212.1275, 14981.92
212.6096, 14846.99
213.0917, 14741.08
213.5738, 14666.17
214.0559, 14607.27
214.5380, 14570.89
215.0202, 14543.47
215.5023, 14504.46
215.9844, 14452.52
216.4665, 14392.85
216.9486, 14325.47
217.4307, 14247.23
217.9129, 14177.46
218.3950, 14119.93
218.8771, 14069.12
219.3592, 14009.15
219.8413, 13928.94
220.3234, 13859.97
220.8056, 13823.84
221.2877, 13846.86
221.7698, 13826.47
222.2519, 13743.05
222.7340, 13617.63
223.2161, 13517.43
223.6983, 13453.51
224.1804, 13398.32
224.6625, 13339.46
225.1446, 13282.24
225.6267, 13206.53
226.1088, 13099.04
226.5910, 12968.99
227.0731, 12867.15
227.5552, 12803.46
228.0373, 12756.34
228.5194, 12714.11
229.0015, 12686.14
229.4836, 12644.15
229.9658, 12582.91
230.4479, 12502.85
230.9300, 12419.76
231.4121, 12331.41
231.8942, 12242.82
232.3763, 12157.34
232.8585, 12069.41
233.3406, 11998.08
233.8227, 11952.24
234.3048, 11933.75
234.7869, 11907.70
235.2690, 11873.54
235.7512, 11832.13
236.2333, 11784.52
236.7154, 11731.92
237.1975, 11670.53
237.6796, 11591.59
238.1617, 11488.08
238.6439, 11417.70
239.1260, 11394.72
239.6081, 11394.67
240.0902, 11385.83
240.5723, 11370.23
241.0544, 11341.99
241.5366, 11294.91
242.0187, 11219.69
242.5008, 11161.78
242.9829, 11125.77
243.4650, 11104.44
243.9471, 11087.09
244.4293, 11082.31
244.9114, 11067.54
245.3935, 11032.84
245.8756, 10968.80
246.3577, 10910.82
246.8398, 10861.51
247.3220, 10817.01
247.8041, 10767.60
248.2862, 10704.97
248.7683, 10649.24
249.2504, 10612.12
249.7325, 10605.31
250.2147, 10588.44
250.6968, 10563.63
251.1789, 10528.24
251.6610, 10469.04
252.1431, 10359.35
252.6252, 10265.81
253.1074, 10228.71
253.5895, 10285.42
254.0716, 10305.90
254.5537, 10273.82
255.0358, 10202.51
255.5179, 10141.32
256.0001, 10095.43
256.4822, 10052.12
256.9643, 10001.32
257.4464, 9934.590
257.9285, 9883.672
258.4106, 9855.167
258.8928, 9844.572
259.3749, 9830.953
259.8570, 9818.022
260.3391, 9795.649
260.8212, 9752.341
261.3033, 9674.097
261.7855, 9614.514
262.2676, 9584.324
262.7497, 9578.679
263.2318, 9566.620
263.7139, 9549.944
264.1960, 9523.547
264.6782, 9479.701
265.1603, 9410.002
265.6424, 9349.721
266.1245, 9307.464
266.6066, 9280.248
267.0887, 9238.378
267.5709, 9177.580
268.0530, 9110.767
268.5351, 9046.530
269.0172, 8981.142
269.4993, 8933.355
269.9814, 8911.438
270.4636, 8912.370
270.9457, 8905.150
271.4278, 8887.037
271.9099, 8866.629
272.3920, 8858.084
272.8741, 8868.928
273.3563, 8854.931
273.8384, 8796.393
274.3205, 8699.627
274.8026, 8632.972
275.2847, 8602.815
275.7668, 8587.454
276.2490, 8566.288
276.7311, 8538.841
277.2132, 8507.371
277.6953, 8467.865
278.1774, 8422.588
278.6595, 8403.036
279.1417, 8416.478
279.6238, 8435.322
280.1059, 8427.360
280.5880, 8390.501
281.0701, 8351.167
281.5522, 8312.369
282.0344, 8276.476
282.5165, 8266.061
282.9986, 8286.757
283.4807, 8313.701
283.9628, 8316.504
284.4449, 8294.910
284.9271, 8272.979
285.4092, 8258.339
285.8913, 8249.860
286.3734, 8241.007
286.8555, 8231.543
287.3376, 8222.452
287.8198, 8214.363
288.3019, 8207.275
288.7840, 8201.851
289.2661, 8191.382
289.7482, 8182.091
290.2303, 8208.612
290.7124, 8276.795
291.1945, 8344.782
291.6767, 8351.712
292.1588, 8307.120
292.6409, 8279.956
293.1230, 8315.357
293.6051, 8387.006
294.0872, 8412.517
294.5694, 8388.046
295.0515, 8350.196
295.5336, 8334.559
296.0157, 8338.366
296.4978, 8349.624
296.9799, 8367.044
297.4621, 8388.368
297.9442, 8406.377
298.4263, 8420.819
298.9084, 8439.051
299.3905, 8477.214
299.8727, 8526.779
300.3548, 8562.636
300.8369, 8556.376
301.3190, 8536.025
301.8011, 8546.563
302.2832, 8589.640
302.7654, 8643.146
303.2475, 8693.830
303.7296, 8740.243
304.2117, 8780.642
304.6938, 8814.682
305.1759, 8841.458
305.6581, 8855.434
306.1402, 8856.207
306.6223, 8857.331
307.1044, 8858.366
307.5865, 8868.084
308.0686, 8901.284
308.5508, 9008.965
309.0329, 9115.161
309.5150, 9134.642
309.9971, 9065.133
310.4792, 9007.887
310.9613, 9047.294
311.4435, 9135.901
311.9256, 9208.719
312.4077, 9238.111
312.8898, 9245.918
313.3719, 9233.529
313.8540, 9201.268
314.3362, 9188.111
314.8183, 9233.008
315.3004, 9301.604
315.7825, 9354.814
316.2646, 9357.270
316.7467, 9359.955
317.2289, 9395.206
317.7110, 9463.391
318.1931, 9514.347
318.6752, 9508.777
319.1573, 9485.243
319.6394, 9480.423
320.1216, 9521.545
320.6037, 9566.331
321.0858, 9605.131
321.5679, 9637.194
322.0500, 9658.912
322.5321, 9651.077
323.0143, 9642.028
323.4964, 9654.354
323.9785, 9723.378
324.4606, 9781.342
324.9427, 9812.673
325.4248, 9817.737
325.9070, 9817.473
326.3891, 9804.695
326.8712, 9792.638
327.3533, 9790.305
327.8354, 9812.696
328.3175, 9828.249
328.7997, 9828.751
329.2818, 9815.813
329.7639, 9812.726
330.2460, 9823.478
330.7281, 9840.827
331.2102, 9861.285
331.6924, 9893.611
332.1745, 9915.009
332.6566, 9919.115
333.1387, 9909.341
333.6208, 9908.808
334.1029, 9929.105
334.5851, 9944.239
335.0672, 9935.331
335.5493, 9888.077
336.0314, 9852.257
336.5135, 9830.223
336.9956, 9822.469
337.4778, 9835.295
337.9599, 9880.629
338.4420, 9920.215
338.9241, 9928.549
339.4062, 9898.693
339.8883, 9871.892
340.3705, 9846.304
340.8526, 9829.207
341.3347, 9847.330
341.8168, 9909.821
342.2989, 9964.710
342.7810, 9977.596
343.2632, 9948.616
343.7453, 9921.595
344.2274, 9896.688
344.7095, 9879.147
345.1916, 9881.962
345.6737, 9905.582
346.1559, 9930.691
346.6380, 9953.986
347.1201, 9971.964
347.6022, 9962.643
348.0843, 9917.297
348.5664, 9868.054
349.0486, 9866.673
349.5307, 9905.392
350.0128, 9936.161
350.4949, 9924.750
350.9770, 9891.039
351.4591, 9879.102
351.9413, 9893.460
352.4234, 9911.282
352.9055, 9907.679
353.3876, 9888.869
353.8697, 9871.045
354.3518, 9855.255
354.8340, 9847.317
355.3161, 9859.999
355.7982, 9894.857
356.2803, 9925.259
356.7624, 9921.582
357.2445, 9902.187
357.7267, 9895.396
358.2088, 9925.016
358.6909, 9961.276
359.1730, 9983.191
359.6551, 9990.679
360.1372, 9997.863
360.6194, 9999.010
361.1015, 10008.45
361.5836, 10040.90
362.0657, 10155.27
362.5478, 10241.07
363.0299, 10235.68
363.5121, 10149.82
363.9942, 10083.39
364.4763, 10079.19
364.9584, 10097.89
365.4405, 10112.22
365.9226, 10113.06
366.4048, 10113.59
366.8869, 10112.31
367.3690, 10111.19
367.8511, 10119.80
368.3332, 10157.71
368.8153, 10192.13
369.2975, 10206.96
369.7796, 10174.48
370.2617, 10161.39
370.7438, 10179.06
371.2259, 10215.99
371.7080, 10238.77
372.1902, 10231.90
372.6722, 10230.99
373.1544, 10252.32
373.6365, 10308.05
374.1186, 10352.98
374.6007, 10384.10
375.0828, 10407.29
375.5649, 10431.18
376.0471, 10452.96
376.5292, 10483.36
377.0113, 10529.00
377.4934, 10591.73
377.9755, 10645.94
378.4576, 10690.47
378.9398, 10730.22
379.4219, 10770.81
379.9040, 10812.13
380.3861, 10857.67
380.8682, 10913.51
381.3503, 10974.88
381.8325, 11016.63
382.3146, 11034.85
382.7967, 11056.65
383.2788, 11117.40
383.7609, 11207.78
384.2430, 11287.38
384.7252, 11337.99
385.2073, 11375.36
385.6894, 11421.85
386.1715, 11478.21
386.6536, 11545.80
387.1357, 11630.55
387.6179, 11727.04
388.1000, 11825.80
388.5821, 11929.21
389.0642, 12027.89
389.5463, 12106.70
390.0284, 12170.44
390.5106, 12234.00
390.9927, 12295.32
391.4748, 12366.62
391.9569, 12462.27
392.4390, 12593.00
392.9211, 12726.06
393.4033, 12837.85
393.8854, 12938.48
394.3675, 13050.71
394.8496, 13186.19
395.3317, 13331.04
395.8138, 13481.30
396.2960, 13636.77
396.7781, 13792.19
397.2602, 13955.73
397.7423, 14115.00
398.2244, 14256.71
398.7065, 14325.56
399.1887, 14430.32
399.6708, 14614.00
400.1529, 14888.75
400.6350, 15124.10
401.1171, 15289.94
401.5992, 15439.07
402.0814, 15614.75
402.5635, 15836.42
403.0456, 16050.73
403.5277, 16245.98
404.0098, 16426.44
404.4919, 16620.68
404.9741, 16827.58
405.4562, 17052.48
405.9383, 17301.15
406.4204, 17582.62
406.9025, 17844.06
407.3846, 18075.48
407.8668, 18289.73
408.3489, 18520.17
408.8310, 18766.82
409.3131, 19010.22
409.7952, 19224.85
410.2773, 19420.89
410.7595, 19652.07
411.2416, 19927.21
411.7237, 20219.19
412.2058, 20505.66
412.6879, 20780.53
413.1700, 21029.84
413.6522, 21220.38
414.1343, 21386.81
414.6164, 21593.36
415.0985, 21843.14
415.5806, 22087.65
416.0627, 22287.38
416.5449, 22457.38
417.0270, 22625.80
417.5091, 22813.59
417.9912, 22991.90
418.4733, 23150.93
418.9554, 23287.56
419.4376, 23390.04
419.9197, 23443.77
420.4018, 23465.18
420.8839, 23464.88
421.3660, 23433.19
421.8481, 23398.14
422.3303, 23368.01
422.8124, 23340.05
423.2945, 23306.77
423.7766, 23277.89
424.2587, 23232.89
424.7408, 23160.96
425.2230, 23049.79
425.7051, 22936.79
426.1872, 22834.82
426.6693, 22724.07
427.1514, 22574.73
427.6335, 22357.89
428.1157, 22145.96
428.5978, 21961.79
429.0799, 21807.99
429.5620, 21629.53
430.0441, 21423.94
430.5262, 21204.65
431.0084, 20987.57
431.4905, 20773.78
431.9726, 20542.83
432.4547, 20283.50
432.9368, 20008.78
433.4189, 19763.70
433.9011, 19552.60
434.3832, 19340.87
434.8653, 19094.14
435.3474, 18823.00
435.8295, 18573.33
436.3116, 18355.68
436.7938, 18145.58
437.2759, 17907.18
437.7580, 17648.08
438.2401, 17399.72
438.7222, 17186.19
439.2043, 16988.96
439.6865, 16780.24
440.1686, 16556.42
440.6507, 16349.41
441.1328, 16201.81
441.6149, 16080.35
442.0970, 15937.60
442.5792, 15716.02
443.0613, 15505.30
443.5434, 15361.67
444.0255, 15278.68
444.5076, 15179.92
444.9897, 15019.20
445.4719, 14848.32
445.9540, 14699.84
446.4361, 14596.94
446.9182, 14491.91
447.4003, 14375.01
447.8824, 14252.07
448.3646, 14139.57
448.8467, 14060.36
449.3288, 13966.37
449.8109, 13834.97
450.2930, 13646.59
450.7751, 13500.98
451.2573, 13413.36
451.7394, 13350.02
452.2215, 13270.55
452.7036, 13172.98
453.1857, 13064.07
453.6678, 12940.58
454.1500, 12807.51
454.6321, 12703.86
455.1142, 12632.25
455.5963, 12566.21
456.0784, 12490.46
456.5605, 12402.93
457.0426, 12293.39
457.5247, 12152.71
458.0069, 12003.84
458.4890, 11875.25
458.9711, 11766.20
459.4532, 11667.70
459.9353, 11587.30
460.4174, 11509.91
460.8996, 11418.48
461.3817, 11310.80
461.8638, 11193.18
462.3459, 11052.97
462.8280, 10909.09
463.3102, 10790.20
463.7923, 10745.19
464.2744, 10691.65
464.7565, 10585.52
465.2386, 10431.36
465.7207, 10283.39
466.2029, 10153.97
466.6850, 10038.01
467.1671, 9931.031
467.6492, 9844.174
468.1313, 9753.431
468.6134, 9653.276
469.0956, 9548.753
469.5777, 9457.335
470.0598, 9384.245
470.5419, 9315.149
471.0240, 9247.180
471.5061, 9182.174
471.9883, 9103.604
472.4704, 9006.136
472.9525, 8904.445
473.4346, 8819.190
473.9167, 8750.746
474.3988, 8681.149
474.8810, 8606.358
475.3631, 8526.921
475.8452, 8441.951
476.3273, 8351.600
476.8094, 8263.892
477.2915, 8188.787
477.7737, 8121.153
478.2558, 8050.871
478.7379, 7976.519
479.2200, 7899.274
479.7021, 7810.774
480.1842, 7719.897
480.6664, 7646.746
481.1485, 7619.324
481.6306, 7600.359
482.1127, 7562.880
482.5948, 7504.692
483.0769, 7446.678
483.5591, 7395.869
484.0412, 7349.289
484.5233, 7304.097
485.0054, 7256.908
485.4875, 7214.523
485.9696, 7180.700
486.4518, 7153.291
486.9339, 7121.397
487.4160, 7079.685
487.8981, 7040.216
488.3802, 7010.250
488.8623, 6996.830
489.3445, 6967.170
489.8266, 6913.744
490.3087, 6852.993
490.7908, 6810.742
491.2729, 6789.644
491.7550, 6767.000
492.2372, 6733.116
492.7193, 6692.869
493.2014, 6669.364
493.6835, 6662.813
494.1656, 6659.412
494.6477, 6647.513
495.1299, 6630.114
495.6120, 6615.124
496.0941, 6604.486
496.5762, 6594.989
497.0583, 6584.926
497.5404, 6573.258
498.0226, 6557.640
498.5047, 6527.423
498.9868, 6499.550
499.4689, 6491.446
499.9510, 6505.764
500.4331, 6510.345
500.9153, 6482.879
501.3974, 6444.463
501.8795, 6413.346
502.3616, 6408.656
502.8437, 6394.317
503.3258, 6349.285
503.8080, 6286.810
504.2901, 6260.968
504.7722, 6304.151
505.2543, 6343.179
505.7364, 6345.771
506.2185, 6301.121
506.7007, 6268.623
507.1828, 6246.647
507.6649, 6238.753
508.1470, 6257.466
508.6291, 6306.354
509.1112, 6338.044
509.5934, 6336.062
510.0755, 6311.373
510.5576, 6292.568
511.0397, 6279.494
511.5218, 6270.573
512.0039, 6265.831
512.4860, 6264.129
512.9681, 6265.008
513.4503, 6270.152
513.9324, 6270.525
514.4145, 6254.726
514.8966, 6229.156
515.3787, 6205.368
515.8608, 6189.789
516.3430, 6176.029
516.8251, 6158.696
517.3072, 6138.227
517.7893, 6125.759
518.2714, 6131.349
518.7535, 6141.529
519.2357, 6147.942
519.7178, 6154.305
520.1999, 6149.837
520.6820, 6123.589
521.1641, 6090.367
521.6462, 6081.215
522.1284, 6108.109
522.6105, 6133.287
523.0926, 6144.899
523.5747, 6143.277
524.0568, 6140.071
524.5389, 6135.735
525.0211, 6127.958
525.5032, 6112.385
525.9853, 6090.358
526.4674, 6070.510
526.9495, 6052.965
527.4316, 6041.403
527.9138, 6043.660
528.3959, 6057.303
528.8780, 6073.458
529.3601, 6092.182
529.8422, 6108.093
530.3243, 6115.416
530.8065, 6113.544
531.2886, 6108.273
531.7707, 6098.492
532.2528, 6088.854
532.7349, 6083.484
533.2170, 6089.931
533.6992, 6093.531
534.1813, 6088.969
534.6634, 6079.115
535.1455, 6073.532
535.6276, 6073.905
536.1097, 6077.140
536.5919, 6084.812
537.0740, 6099.440
537.5561, 6098.449
538.0382, 6074.216
538.5203, 6047.983
539.0024, 6044.101
539.4846, 6064.051
539.9667, 6081.488
540.4488, 6092.100
540.9309, 6096.558
541.4130, 6092.813
541.8951, 6082.009
542.3773, 6074.687
542.8594, 6085.064
543.3415, 6099.705
543.8236, 6094.020
544.3057, 6064.831
544.7878, 6039.900
545.2700, 6038.009
545.7521, 6051.553
546.2342, 6071.976
546.7163, 6115.556
547.1984, 6144.887
547.6805, 6138.922
548.1627, 6107.060
548.6448, 6081.744
549.1269, 6067.511
549.6090, 6061.041
550.0911, 6063.416
550.5732, 6078.124
551.0554, 6084.954
551.5375, 6079.814
552.0196, 6072.023
552.5017, 6072.358
552.9838, 6082.889
553.4659, 6087.576
553.9481, 6080.878
554.4302, 6069.867
554.9123, 6074.542
555.3944, 6093.954
555.8765, 6108.641
556.3586, 6102.447
556.8408, 6085.719
557.3229, 6079.530
557.8050, 6085.482
558.2871, 6086.336
558.7692, 6056.128
559.2513, 6017.199
559.7335, 5999.072
560.2156, 6024.275
560.6977, 6052.507
561.1798, 6066.571
561.6619, 6071.701
562.1440, 6081.666
562.6262, 6112.270
563.1083, 6135.530
563.5904, 6136.913
564.0725, 6111.038
564.5546, 6106.634
565.0367, 6137.405
565.5189, 6171.767
566.0010, 6180.070
566.4831, 6156.582
566.9652, 6139.767
567.4473, 6134.748
567.9294, 6137.574
568.4116, 6141.960
568.8937, 6147.794
569.3758, 6153.281
569.8579, 6157.122
570.3400, 6160.431
570.8221, 6164.598
571.3043, 6169.764
571.7864, 6177.561
572.2685, 6194.375
572.7506, 6212.148
573.2327, 6221.109
573.7148, 6213.169
574.1970, 6208.439
574.6791, 6215.846
575.1612, 6231.175
575.6433, 6246.720
576.1254, 6259.229
576.6075, 6274.157
577.0897, 6292.771
577.5718, 6315.047
578.0539, 6339.284
578.5360, 6369.169
579.0181, 6394.153
579.5002, 6401.195
579.9824, 6387.889
580.4645, 6398.696
580.9466, 6442.447
581.4287, 6493.021
581.9108, 6510.514
582.3929, 6501.487
582.8751, 6495.959
583.3572, 6500.203
583.8393, 6517.343
584.3214, 6558.568
584.8035, 6618.937
585.2856, 6675.386
585.7678, 6717.875
586.2499, 6750.125
586.7320, 6771.611
587.2141, 6777.767
587.6962, 6792.437
588.1783, 6824.743
588.6605, 6867.119
589.1426, 6912.265
589.6247, 6963.412
590.1068, 7012.061
590.5889, 7058.726
591.0710, 7102.039
591.5532, 7140.364
592.0353, 7175.525
592.5174, 7198.896
592.9995, 7198.800
593.4816, 7180.608
593.9637, 7185.185
594.4459, 7213.792
594.9280, 7252.276
595.4101, 7297.209
595.8922, 7341.229
596.3743, 7367.922
596.8564, 7370.567
597.3386, 7363.553
597.8207, 7348.165
598.3028, 7332.538
598.7849, 7332.046
599.2670, 7368.272
599.7491, 7405.299
600.2313, 7429.167
600.7134, 7439.867
601.1955, 7450.014
601.6776, 7464.961
602.1597, 7475.102
602.6418, 7474.760
603.1240, 7460.538
603.6061, 7447.497
604.0882, 7436.576
604.5703, 7424.886
605.0524, 7407.987
605.5345, 7386.066
606.0167, 7362.731
606.4988, 7336.210
606.9809, 7312.166
607.4630, 7304.524
607.9451, 7309.524
608.4272, 7308.897
608.9094, 7286.401
609.3915, 7257.096
609.8736, 7233.514
610.3557, 7216.572
610.8378, 7206.914
611.3199, 7210.764
611.8021, 7218.375
612.2842, 7221.864
612.7663, 7213.213
613.2484, 7209.958
613.7305, 7217.252
614.2126, 7228.114
614.6948, 7228.699
615.1769, 7211.792
615.6590, 7204.445
616.1411, 7218.213
616.6232, 7246.489
617.1053, 7258.295
617.5875, 7253.127
618.0696, 7240.370
618.5517, 7219.065
619.0338, 7196.225
619.5159, 7192.248
619.9980, 7211.110
620.4802, 7225.842
620.9623, 7205.238
621.4444, 7171.235
621.9265, 7152.853
622.4086, 7181.577
622.8907, 7198.403
623.3729, 7173.519
623.8550, 7122.563
624.3371, 7085.091
624.8192, 7071.883
625.3013, 7063.841
625.7834, 7055.958
626.2656, 7048.369
626.7477, 7048.694
627.2298, 7061.021
627.7119, 7069.534
628.1940, 7057.645
628.6761, 7027.888
629.1583, 7013.612
629.6404, 7020.478
630.1225, 7027.946
630.6046, 7011.625
631.0867, 6978.461
631.5688, 6943.611
632.0510, 6912.904
632.5331, 6881.454
633.0152, 6841.909
633.4973, 6798.259
633.9794, 6763.368
634.4615, 6744.806
634.9437, 6731.962
635.4258, 6721.680
635.9079, 6713.993
636.3900, 6706.657
636.8721, 6695.092
637.3542, 6689.682
637.8364, 6704.408
638.3185, 6746.220
638.8006, 6752.878
