##NAMES=Susannite
##RRUFFID=R070704
##IDEAL CHEMISTRY=Pb^2+^_4_(S^6+^O_4_)(CO_3_)_2_(OH)_2_
##LOCALITY=Boarezzo mine (Pradisci prospect; Rio Carpane prospect), Boarezzo, Varese Province, Lombardy, Italy
##OWNER=RRUFF
##SOURCE=Michael Scott
##DESCRIPTION=Array of colorless tabular hexagonal plates
##STATUS=The identification of this mineral has been confirmed by single-crystal X-ray diffraction.
##URL=rruff.info/R070704
138.2885, 9704.687
138.7706, 9738.340
139.2528, 9784.988
139.7349, 9816.619
140.2170, 9824.863
140.6991, 9840.404
141.1812, 9881.562
141.6633, 9942.781
142.1455, 10000.49
142.6276, 10039.31
143.1097, 10071.10
143.5918, 10117.55
144.0739, 10182.84
144.5561, 10259.37
145.0382, 10340.01
145.5203, 10424.53
146.0024, 10515.02
146.4845, 10612.76
146.9666, 10717.12
147.4488, 10829.74
147.9309, 10952.46
148.4130, 11083.03
148.8951, 11216.84
149.3772, 11358.05
149.8593, 11495.54
150.3415, 11619.04
150.8236, 11736.85
151.3057, 11863.59
151.7878, 12009.43
152.2699, 12174.57
152.7520, 12350.05
153.2342, 12557.34
153.7163, 12758.94
154.1984, 12945.51
154.6805, 13116.14
155.1626, 13270.36
155.6447, 13400.24
156.1269, 13485.21
156.6090, 13618.27
157.0911, 13840.97
157.5732, 14071.86
158.0553, 14265.96
158.5374, 14414.55
159.0196, 14537.60
159.5017, 14666.59
159.9838, 14805.45
160.4659, 14945.29
160.9480, 15097.25
161.4301, 15246.46
161.9123, 15379.01
162.3944, 15489.77
162.8765, 15582.28
163.3586, 15665.26
163.8407, 15740.61
164.3228, 15805.84
164.8050, 15858.43
165.2871, 15900.85
165.7692, 15939.92
166.2513, 15982.06
166.7334, 16018.96
167.2155, 16020.45
167.6977, 15953.09
168.1798, 15889.95
168.6619, 15877.27
169.1440, 15905.40
169.6261, 15922.66
170.1082, 15896.33
170.5904, 15832.28
171.0725, 15764.22
171.5546, 15700.64
172.0367, 15629.35
172.5188, 15534.84
173.0009, 15414.46
173.4831, 15292.09
173.9652, 15194.30
174.4473, 15106.97
174.9294, 15000.72
175.4115, 14863.00
175.8936, 14701.53
176.3758, 14528.56
176.8579, 14335.72
177.3400, 14148.39
177.8221, 13983.35
178.3042, 13834.53
178.7864, 13685.47
179.2685, 13534.63
179.7506, 13378.81
180.2327, 13199.19
180.7148, 12968.17
181.1969, 12742.66
181.6791, 12558.94
182.1612, 12408.50
182.6433, 12258.66
183.1254, 12077.37
183.6075, 11859.00
184.0896, 11656.18
184.5718, 11473.54
185.0539, 11305.77
185.5360, 11162.70
186.0181, 11038.93
186.5002, 10912.49
186.9823, 10750.69
187.4645, 10532.43
187.9466, 10342.61
188.4287, 10197.54
188.9108, 10066.74
189.3929, 9937.797
189.8750, 9805.613
190.3572, 9669.757
190.8393, 9526.854
191.3214, 9367.188
191.8035, 9218.722
192.2856, 9083.401
192.7677, 8958.210
193.2499, 8843.265
193.7320, 8738.472
194.2141, 8637.851
194.6962, 8526.977
195.1783, 8385.871
195.6604, 8258.278
196.1426, 8149.173
196.6247, 8052.330
197.1068, 7962.721
197.5889, 7878.645
198.0710, 7796.401
198.5531, 7702.827
199.0353, 7577.623
199.5174, 7465.206
199.9995, 7380.402
200.4816, 7313.785
200.9637, 7249.290
201.4458, 7179.670
201.9280, 7104.737
202.4101, 7020.006
202.8922, 6902.484
203.3743, 6801.364
203.8564, 6749.193
204.3385, 6731.857
204.8207, 6705.173
205.3028, 6639.717
205.7849, 6543.550
206.2670, 6466.083
206.7491, 6417.653
207.2312, 6377.250
207.7134, 6336.889
208.1955, 6295.812
208.6776, 6247.807
209.1597, 6186.331
209.6418, 6114.093
210.1239, 6045.542
210.6061, 5972.897
211.0882, 5909.150
211.5703, 5869.425
212.0524, 5854.796
212.5345, 5845.410
213.0166, 5833.587
213.4988, 5816.247
213.9809, 5785.069
214.4630, 5727.348
214.9451, 5659.716
215.4272, 5603.355
215.9094, 5559.837
216.3915, 5521.292
216.8736, 5486.191
217.3557, 5452.112
217.8378, 5414.177
218.3199, 5367.413
218.8021, 5316.475
219.2842, 5271.024
219.7663, 5233.752
220.2484, 5196.232
220.7305, 5151.437
221.2126, 5102.418
221.6948, 5054.993
222.1769, 5017.084
222.6590, 4983.434
223.1411, 4934.205
223.6232, 4854.997
224.1053, 4784.704
224.5875, 4752.492
225.0696, 4745.464
225.5517, 4733.654
226.0338, 4695.474
226.5159, 4635.762
226.9980, 4583.316
227.4802, 4543.771
227.9623, 4504.531
228.4444, 4458.754
228.9265, 4408.298
229.4086, 4357.730
229.8907, 4305.932
230.3729, 4253.744
230.8550, 4220.546
231.3371, 4228.114
231.8192, 4232.571
232.3013, 4213.960
232.7834, 4175.950
233.2656, 4132.108
233.7477, 4092.416
234.2298, 4057.008
234.7119, 4021.071
235.1940, 3976.517
235.6761, 3939.387
236.1583, 3922.716
236.6404, 3921.040
237.1225, 3916.682
237.6046, 3892.496
238.0867, 3846.135
238.5688, 3802.385
239.0510, 3756.353
239.5331, 3717.433
240.0152, 3694.072
240.4973, 3682.905
240.9794, 3672.335
241.4615, 3648.981
241.9437, 3608.480
242.4258, 3581.478
242.9079, 3578.814
243.3900, 3580.131
243.8721, 3581.503
244.3542, 3580.355
244.8364, 3572.673
245.3185, 3552.285
245.8006, 3514.731
246.2827, 3486.573
246.7648, 3478.448
247.2469, 3469.983
247.7291, 3449.331
248.2112, 3418.122
248.6933, 3387.221
249.1754, 3368.039
249.6575, 3362.818
250.1397, 3360.426
250.6218, 3369.177
251.1039, 3373.520
251.5860, 3361.429
252.0681, 3335.445
252.5502, 3309.695
253.0324, 3300.858
253.5145, 3316.058
253.9966, 3318.038
254.4787, 3299.421
254.9608, 3276.389
255.4429, 3253.493
255.9251, 3233.009
256.4072, 3218.025
256.8893, 3212.910
257.3714, 3221.707
257.8535, 3223.241
258.3356, 3216.208
258.8177, 3204.761
259.2999, 3188.267
259.7820, 3168.347
260.2641, 3149.831
260.7462, 3137.784
261.2283, 3133.446
261.7104, 3130.683
262.1926, 3131.438
262.6747, 3131.812
263.1568, 3132.242
263.6389, 3131.262
264.1210, 3124.399
264.6031, 3106.510
265.0853, 3074.865
265.5674, 3045.440
266.0495, 3011.073
266.5316, 2984.403
267.0138, 2976.066
267.4959, 2983.511
267.9780, 2994.988
268.4601, 3000.413
268.9422, 3000.238
269.4243, 2989.056
269.9065, 2958.972
270.3886, 2927.317
270.8707, 2899.257
271.3528, 2876.709
271.8349, 2862.373
272.3170, 2860.010
272.7992, 2872.028
273.2813, 2875.714
273.7634, 2867.315
274.2455, 2856.096
274.7276, 2845.838
275.2097, 2836.665
275.6919, 2826.640
276.1740, 2813.637
276.6561, 2796.860
277.1382, 2787.643
277.6203, 2791.992
278.1024, 2796.330
278.5846, 2795.887
279.0667, 2790.581
279.5488, 2781.057
280.0309, 2766.668
280.5130, 2747.110
280.9951, 2738.706
281.4773, 2749.519
281.9594, 2761.038
282.4415, 2766.686
282.9236, 2767.378
283.4057, 2765.906
283.8878, 2763.294
284.3700, 2759.984
284.8521, 2766.963
285.3342, 2797.177
285.8163, 2822.411
286.2984, 2829.343
286.7805, 2824.616
287.2627, 2823.923
287.7448, 2838.231
288.2269, 2864.371
288.7090, 2875.563
289.1911, 2859.124
289.6732, 2843.136
290.1554, 2829.926
290.6375, 2822.139
291.1196, 2825.450
291.6017, 2843.984
292.0838, 2873.395
292.5659, 2892.065
293.0481, 2892.390
293.5302, 2890.901
294.0123, 2882.802
294.4944, 2876.105
294.9765, 2885.684
295.4586, 2919.818
295.9408, 2967.146
296.4229, 2990.806
296.9050, 2962.030
297.3871, 2942.097
297.8692, 2936.414
298.3513, 2941.454
298.8335, 2954.923
299.3156, 2975.918
299.7977, 3000.545
300.2798, 3019.917
300.7619, 3026.739
301.2440, 3037.403
301.7262, 3055.811
302.2083, 3076.300
302.6904, 3093.715
303.1725, 3106.302
303.6546, 3115.224
304.1367, 3122.193
304.6189, 3125.599
305.1010, 3129.556
305.5831, 3133.327
306.0652, 3138.053
306.5473, 3145.255
307.0294, 3155.013
307.5116, 3165.423
307.9937, 3173.182
308.4758, 3174.525
308.9579, 3182.708
309.4400, 3208.937
309.9221, 3232.473
310.4043, 3237.194
310.8864, 3223.154
311.3685, 3204.083
311.8506, 3195.196
312.3327, 3198.763
312.8148, 3204.299
313.2970, 3209.395
313.7791, 3218.112
314.2612, 3234.324
314.7433, 3256.567
315.2254, 3280.474
315.7076, 3303.660
316.1897, 3327.372
316.6718, 3335.683
317.1539, 3306.471
317.6360, 3283.301
318.1181, 3285.500
318.6003, 3305.854
319.0824, 3325.259
319.5645, 3328.736
320.0466, 3317.801
320.5287, 3315.826
321.0108, 3339.641
321.4930, 3302.745
321.9751, 3367.251
322.4572, 3403.715
322.9393, 3413.643
323.4214, 3317.560
323.9035, 3358.369
324.3857, 3344.318
324.8678, 3328.017
325.3499, 3388.093
325.8320, 3307.428
326.3141, 3366.293
326.7962, 3369.460
327.2784, 3398.119
327.7605, 3371.578
328.2426, 3362.087
328.7247, 3407.812
329.2068, 3422.964
329.6889, 3390.069
330.1711, 3420.348
330.6532, 3337.756
331.1353, 3354.209
331.6174, 3413.397
332.0995, 3383.278
332.5816, 3414.566
333.0638, 3422.467
333.5459, 3324.082
334.0280, 3410.538
334.5101, 3417.057
334.9922, 3341.497
335.4743, 3421.620
335.9565, 3357.375
336.4386, 3344.661
336.9207, 3370.727
337.4028, 3356.365
337.8849, 3405.742
338.3671, 3393.716
338.8492, 3376.203
339.3313, 3390.743
339.8134, 3408.887
340.2955, 3424.467
340.7776, 3434.425
341.2598, 3441.544
341.7419, 3437.438
342.2240, 3407.782
342.7061, 3362.776
343.1882, 3330.032
343.6703, 3334.467
344.1525, 3357.392
344.6346, 3355.420
345.1167, 3320.715
345.5988, 3286.823
346.0809, 3277.090
346.5630, 3282.133
347.0452, 3289.490
347.5273, 3298.817
348.0094, 3306.637
348.4915, 3310.291
348.9736, 3309.881
349.4557, 3301.254
349.9379, 3273.649
350.4200, 3240.599
350.9021, 3227.742
351.3842, 3244.466
351.8663, 3267.523
352.3484, 3287.111
352.8306, 3301.772
353.3127, 3302.360
353.7948, 3279.808
354.2769, 3248.990
354.7590, 3239.374
355.2411, 3258.544
355.7233, 3269.512
356.2054, 3248.686
356.6875, 3213.139
357.1696, 3193.408
357.6517, 3198.264
358.1339, 3214.724
358.6160, 3228.487
359.0981, 3241.136
359.5802, 3242.516
360.0623, 3216.261
360.5444, 3187.132
361.0266, 3183.854
361.5087, 3208.201
361.9908, 3234.101
362.4729, 3236.833
362.9550, 3213.235
363.4371, 3195.594
363.9193, 3182.712
364.4014, 3176.218
364.8835, 3183.072
365.3656, 3198.288
365.8477, 3206.846
366.3298, 3197.453
366.8120, 3172.810
367.2941, 3157.462
367.7762, 3157.150
368.2583, 3158.768
368.7404, 3160.513
369.2225, 3162.264
369.7047, 3165.114
370.1868, 3169.632
370.6689, 3173.355
371.1510, 3169.324
371.6331, 3146.216
372.1152, 3132.261
372.5974, 3130.642
373.0795, 3136.694
373.5616, 3148.240
374.0437, 3164.093
374.5258, 3181.578
375.0079, 3196.697
375.4901, 3207.324
375.9722, 3222.010
376.4543, 3252.883
376.9364, 3277.302
377.4185, 3278.311
377.9006, 3260.484
378.3828, 3243.443
378.8649, 3244.364
379.3470, 3262.454
379.8291, 3280.642
380.3112, 3304.152
380.7933, 3320.360
381.2755, 3316.221
381.7576, 3303.364
382.2397, 3302.374
382.7218, 3326.301
383.2039, 3365.136
383.6860, 3398.240
384.1682, 3425.396
384.6503, 3448.030
385.1324, 3461.875
385.6145, 3473.689
386.0966, 3491.342
386.5787, 3518.349
387.0609, 3545.123
387.5430, 3557.641
388.0251, 3557.323
388.5072, 3570.218
388.9893, 3610.094
389.4714, 3659.154
389.9536, 3695.326
390.4357, 3717.801
390.9178, 3740.760
391.3999, 3772.001
391.8820, 3808.005
392.3641, 3842.850
392.8463, 3875.913
393.3284, 3905.668
393.8105, 3927.434
394.2926, 3942.113
394.7747, 3964.959
395.2568, 3996.621
395.7390, 4037.963
396.2211, 4098.139
396.7032, 4173.123
397.1853, 4236.866
397.6674, 4267.775
398.1495, 4273.410
398.6317, 4305.872
399.1138, 4387.824
399.5959, 4465.813
400.0780, 4520.537
400.5601, 4560.837
401.0422, 4598.864
401.5244, 4639.022
402.0065, 4686.632
402.4886, 4753.569
402.9707, 4866.514
403.4528, 4958.655
403.9349, 5010.857
404.4171, 5055.785
404.8992, 5117.888
405.3813, 5200.941
405.8634, 5295.840
406.3455, 5392.756
406.8276, 5492.719
407.3098, 5589.828
407.7919, 5686.111
408.2740, 5777.308
408.7561, 5853.284
409.2383, 5922.653
409.7204, 6002.859
410.2025, 6106.764
410.6846, 6227.772
411.1667, 6339.896
411.6488, 6437.569
412.1310, 6535.750
412.6131, 6636.110
413.0952, 6739.908
413.5773, 6849.652
414.0594, 6966.886
414.5415, 7084.170
415.0237, 7193.586
415.5058, 7294.914
415.9879, 7388.669
416.4700, 7469.942
416.9521, 7547.790
417.4342, 7630.893
417.9164, 7718.968
418.3985, 7804.385
418.8806, 7890.795
419.3627, 7969.886
419.8448, 8020.130
420.3269, 8035.779
420.8091, 8039.193
421.2912, 8046.726
421.7733, 8056.321
422.2554, 8058.839
422.7375, 8057.648
423.2196, 8045.467
423.7018, 8005.002
424.1839, 7945.108
424.6660, 7905.056
425.1481, 7909.169
425.6302, 7939.436
426.1123, 7941.261
426.5945, 7897.247
427.0766, 7856.851
427.5587, 7842.094
428.0408, 7829.073
428.5229, 7786.750
429.0050, 7709.140
429.4872, 7616.941
429.9693, 7536.393
430.4514, 7469.839
430.9335, 7406.874
431.4156, 7362.709
431.8977, 7307.232
432.3799, 7217.292
432.8620, 7103.164
433.3441, 6992.300
433.8262, 6905.518
434.3083, 6837.285
434.7904, 6754.213
435.2726, 6638.869
435.7547, 6536.837
436.2368, 6469.599
436.7189, 6413.314
437.2010, 6339.485
437.6831, 6238.421
438.1653, 6134.546
438.6474, 6068.284
439.1295, 6043.622
439.6116, 5991.285
440.0937, 5875.485
440.5758, 5752.930
441.0580, 5669.435
441.5401, 5620.885
442.0222, 5569.375
442.5043, 5484.002
442.9864, 5385.724
443.4685, 5318.560
443.9507, 5289.115
444.4328, 5261.168
444.9149, 5210.958
445.3970, 5143.530
445.8791, 5079.166
446.3612, 5012.475
446.8434, 4956.032
447.3255, 4927.261
447.8076, 4914.592
448.2897, 4885.866
448.7718, 4826.452
449.2539, 4756.494
449.7361, 4714.056
450.2182, 4721.503
450.7003, 4708.348
451.1824, 4654.839
451.6645, 4592.012
452.1466, 4542.309
452.6288, 4508.266
453.1109, 4482.629
453.5930, 4460.901
454.0751, 4443.085
454.5572, 4412.355
455.0393, 4347.803
455.5215, 4292.391
456.0036, 4260.705
456.4857, 4241.540
456.9678, 4220.116
457.4499, 4190.214
457.9320, 4154.245
458.4142, 4115.678
458.8963, 4074.071
459.3784, 4031.260
459.8605, 3987.589
460.3426, 3942.701
460.8247, 3893.372
461.3069, 3840.852
461.7890, 3793.839
462.2711, 3764.891
462.7532, 3745.411
463.2353, 3710.863
463.7174, 3657.613
464.1996, 3597.723
464.6817, 3533.095
465.1638, 3467.859
465.6459, 3412.574
466.1280, 3373.254
466.6101, 3338.353
467.0923, 3299.427
467.5744, 3259.030
468.0565, 3227.408
468.5386, 3210.163
469.0207, 3195.113
469.5028, 3161.648
469.9850, 3102.915
470.4671, 3041.693
470.9492, 2969.918
471.4313, 2902.589
471.9134, 2854.505
472.3955, 2823.490
472.8777, 2795.052
473.3598, 2757.517
473.8419, 2712.094
474.3240, 2672.149
474.8061, 2644.181
475.2882, 2614.199
475.7704, 2578.074
476.2525, 2539.715
476.7346, 2502.690
477.2167, 2468.283
477.6988, 2436.196
478.1809, 2407.760
478.6631, 2384.142
479.1452, 2352.758
479.6273, 2304.224
480.1094, 2256.093
480.5916, 2218.090
481.0737, 2189.776
481.5558, 2168.303
482.0379, 2156.410
482.5200, 2148.816
483.0021, 2137.694
483.4843, 2123.002
483.9664, 2106.388
484.4485, 2089.030
484.9306, 2070.011
485.4127, 2047.153
485.8948, 2017.698
486.3770, 1990.460
486.8591, 1967.383
487.3412, 1948.663
487.8233, 1935.306
488.3054, 1927.451
488.7875, 1923.524
489.2697, 1923.093
489.7518, 1928.014
490.2339, 1922.885
490.7160, 1897.936
491.1981, 1874.989
491.6802, 1863.366
492.1624, 1859.385
492.6445, 1856.263
493.1266, 1850.787
493.6087, 1843.434
494.0908, 1834.665
494.5729, 1822.995
495.0551, 1814.112
495.5372, 1813.961
496.0193, 1812.941
496.5014, 1802.104
496.9835, 1783.042
497.4656, 1768.335
497.9478, 1774.766
498.4299, 1791.405
498.9120, 1784.485
499.3941, 1748.028
499.8762, 1713.448
500.3583, 1700.968
500.8405, 1702.331
501.3226, 1697.554
501.8047, 1679.988
502.2868, 1665.756
502.7689, 1664.889
503.2510, 1672.408
503.7332, 1680.221
504.2153, 1686.275
504.6974, 1689.107
505.1795, 1686.603
505.6616, 1677.525
506.1437, 1668.542
506.6259, 1658.148
507.1080, 1649.324
507.5901, 1644.363
508.0722, 1641.893
508.5543, 1638.927
509.0364, 1633.768
509.5186, 1627.981
510.0007, 1626.864
510.4828, 1635.880
510.9649, 1635.299
511.4470, 1605.960
511.9291, 1578.997
512.4113, 1578.329
512.8934, 1601.858
513.3755, 1624.366
513.8576, 1627.374
514.3397, 1616.706
514.8218, 1606.144
515.3040, 1595.102
515.7861, 1588.961
516.2682, 1595.291
516.7503, 1607.001
517.2324, 1607.247
517.7145, 1589.173
518.1967, 1571.812
518.6788, 1562.566
519.1609, 1559.573
519.6430, 1561.070
520.1251, 1566.517
520.6072, 1573.297
521.0894, 1579.727
521.5715, 1587.097
522.0536, 1583.088
522.5357, 1549.525
523.0178, 1526.081
523.4999, 1536.255
523.9821, 1562.805
524.4642, 1577.325
524.9463, 1567.291
525.4284, 1546.048
525.9105, 1537.097
526.3926, 1543.225
526.8748, 1548.180
527.3569, 1551.830
527.8390, 1551.993
528.3211, 1545.679
528.8032, 1534.468
529.2853, 1524.147
529.7675, 1516.552
530.2496, 1511.989
530.7317, 1512.704
531.2138, 1518.416
531.6959, 1521.300
532.1780, 1516.456
532.6602, 1508.334
533.1423, 1506.952
533.6244, 1514.584
534.1065, 1520.769
534.5886, 1523.214
535.0707, 1523.615
535.5529, 1522.298
536.0350, 1520.094
536.5171, 1520.064
536.9992, 1525.139
537.4813, 1534.330
537.9634, 1539.108
538.4456, 1534.719
538.9277, 1532.459
539.4098, 1535.098
539.8919, 1539.818
540.3740, 1545.714
540.8561, 1551.984
541.3383, 1554.180
541.8204, 1544.957
542.3025, 1526.404
542.7846, 1513.689
543.2667, 1507.787
543.7488, 1507.129
544.2310, 1515.803
544.7131, 1528.392
545.1952, 1533.809
545.6773, 1528.525
546.1594, 1518.828
546.6415, 1503.531
547.1237, 1487.159
547.6058, 1481.003
548.0879, 1488.237
548.5700, 1499.001
549.0521, 1501.474
549.5342, 1493.631
550.0164, 1489.931
550.4985, 1491.771
550.9806, 1495.521
551.4627, 1502.542
551.9448, 1509.835
552.4269, 1512.621
552.9091, 1508.782
553.3912, 1501.627
553.8733, 1495.823
554.3554, 1491.207
554.8375, 1488.888
555.3196, 1487.200
555.8018, 1490.253
556.2839, 1505.172
556.7660, 1527.242
557.2481, 1541.028
557.7302, 1535.976
558.2123, 1524.426
558.6945, 1518.792
559.1766, 1517.953
559.6587, 1516.826
560.1408, 1514.048
560.6229, 1508.526
561.1050, 1497.061
561.5872, 1472.947
562.0693, 1462.749
562.5514, 1478.060
563.0335, 1497.239
563.5156, 1510.426
563.9977, 1516.401
564.4799, 1514.292
564.9620, 1502.623
565.4441, 1487.063
565.9262, 1482.076
566.4083, 1490.940
566.8904, 1500.592
567.3726, 1512.489
567.8547, 1521.664
568.3368, 1523.789
568.8189, 1519.756
569.3010, 1515.162
569.7831, 1513.073
570.2653, 1511.997
570.7474, 1508.385
571.2295, 1502.650
571.7116, 1501.920
572.1937, 1510.831
572.6758, 1524.357
573.1580, 1532.403
573.6401, 1533.624
574.1222, 1533.593
574.6043, 1531.382
575.0864, 1529.250
575.5685, 1527.569
576.0507, 1527.328
576.5328, 1531.130
577.0149, 1541.058
577.4970, 1555.143
577.9791, 1567.112
578.4612, 1576.468
578.9434, 1585.044
579.4255, 1591.019
579.9076, 1597.907
580.3897, 1609.603
580.8718, 1625.333
581.3539, 1638.633
581.8361, 1641.605
582.3182, 1641.979
582.8003, 1654.853
583.2824, 1679.487
583.7645, 1697.589
584.2467, 1698.607
584.7288, 1690.815
585.2109, 1691.714
585.6931, 1702.370
586.1752, 1718.524
586.6573, 1747.162
587.1394, 1775.291
587.6215, 1791.143
588.1036, 1797.486
588.5858, 1805.414
589.0679, 1822.121
589.5500, 1845.115
590.0321, 1867.191
590.5142, 1888.048
590.9963, 1908.943
591.4785, 1931.057
591.9606, 1952.756
592.4427, 1971.796
592.9248, 1988.823
593.4069, 2007.837
593.8890, 2036.628
594.3712, 2065.063
594.8533, 2076.678
595.3354, 2073.990
595.8175, 2076.780
596.2996, 2095.054
596.7817, 2119.429
597.2639, 2131.376
597.7460, 2122.138
598.2281, 2120.124
598.7102, 2135.134
599.1923, 2148.392
599.6744, 2147.574
600.1566, 2135.875
600.6387, 2122.811
601.1208, 2113.634
601.6029, 2105.878
602.0850, 2093.478
602.5671, 2075.037
603.0493, 2061.105
603.5314, 2057.103
604.0135, 2053.850
604.4956, 2043.608
604.9777, 2027.739
605.4598, 2012.514
605.9420, 1998.936
606.4241, 1987.506
606.9062, 1980.252
607.3883, 1975.571
607.8704, 1969.688
608.3525, 1961.426
608.8347, 1949.122
609.3168, 1929.047
609.7989, 1896.567
610.2810, 1875.557
610.7631, 1875.078
611.2452, 1875.257
611.7274, 1867.489
612.2095, 1856.333
612.6916, 1848.704
613.1737, 1847.002
613.6558, 1851.186
614.1379, 1864.414
614.6201, 1885.149
615.1022, 1899.578
615.5843, 1904.634
616.0664, 1906.770
616.5485, 1911.507
617.0306, 1917.249
617.5128, 1917.536
617.9949, 1903.780
618.4770, 1894.463
618.9591, 1899.388
619.4412, 1911.375
619.9233, 1924.056
620.4055, 1934.724
620.8876, 1937.081
621.3697, 1921.974
621.8518, 1891.456
622.3339, 1881.574
622.8160, 1909.883
623.2982, 1929.534
623.7803, 1920.480
624.2624, 1902.823
624.7445, 1896.693
625.2266, 1904.931
625.7087, 1910.776
626.1909, 1900.643
626.6730, 1882.656
627.1551, 1872.235
627.6372, 1869.471
628.1193, 1861.639
628.6014, 1840.121
629.0836, 1811.676
629.5657, 1794.173
630.0478, 1799.872
630.5299, 1796.179
631.0120, 1771.005
631.4941, 1746.897
631.9763, 1743.790
632.4584, 1754.308
632.9405, 1755.109
633.4226, 1730.767
633.9047, 1695.953
634.3868, 1682.346
