##NAMES=Svabite
##RRUFFID=R050180
##IDEAL CHEMISTRY=Ca_5_(As^5+^O_4_)_3_F
##LOCALITY=Ultevis, Sweden
##OWNER=RRUFF
##SOURCE=Marcus Origlieri
##DESCRIPTION=White prismatic hexagonal crystals associated with reddish brown andradite, R060326
##STATUS=The identification of this mineral is confirmed by single-crystal X-ray diffraction and chemical analysis.
##URL=rruff.info/R050180
##MEASURED CHEMISTRY=Ca_5.00_(As_2.63_P_0.37_O_12_)(F_0.67_Cl_0.33_)
146.9404, 5009.881
147.4225, 5037.755
147.9046, 5063.679
148.3867, 5084.114
148.8689, 5093.473
149.3510, 5084.061
149.8331, 5049.906
150.3152, 5017.285
150.7973, 5015.176
151.2794, 5047.367
151.7616, 5069.405
152.2437, 5046.121
152.7258, 5012.499
153.2079, 4997.223
153.6900, 5010.556
154.1721, 5040.882
154.6543, 5070.720
155.1364, 5105.664
155.6185, 5126.630
156.1006, 5113.866
156.5827, 5090.135
157.0648, 5083.342
157.5470, 5111.737
158.0291, 5166.812
158.5112, 5204.209
158.9933, 5203.234
159.4754, 5205.638
159.9575, 5224.907
160.4397, 5254.747
160.9218, 5281.730
161.4039, 5293.316
161.8860, 5286.979
162.3681, 5301.905
162.8502, 5361.379
163.3324, 5419.122
163.8145, 5456.920
164.2966, 5475.434
164.7787, 5486.152
165.2608, 5500.135
165.7429, 5517.204
166.2251, 5539.625
166.7072, 5575.753
167.1893, 5610.831
167.6714, 5633.828
168.1535, 5643.005
168.6356, 5644.927
169.1178, 5647.526
169.5999, 5648.459
170.0820, 5657.113
170.5641, 5692.070
171.0462, 5728.565
171.5283, 5732.552
172.0105, 5690.719
172.4926, 5628.174
172.9747, 5590.960
173.4568, 5579.690
173.9389, 5579.203
174.4210, 5594.044
174.9032, 5616.928
175.3853, 5630.246
175.8674, 5626.147
176.3495, 5610.236
176.8316, 5593.353
177.3137, 5574.082
177.7959, 5557.087
178.2780, 5544.375
178.7601, 5536.048
179.2422, 5533.739
179.7243, 5547.389
180.2064, 5561.878
180.6886, 5556.547
181.1707, 5524.223
181.6528, 5480.435
182.1349, 5431.745
182.6170, 5372.753
183.0991, 5341.722
183.5813, 5399.713
184.0634, 5480.664
184.5455, 5514.754
185.0276, 5463.037
185.5097, 5374.628
185.9918, 5343.174
186.4740, 5391.884
186.9561, 5448.729
187.4382, 5504.758
187.9203, 5547.589
188.4024, 5556.722
188.8845, 5511.358
189.3667, 5429.616
189.8488, 5384.928
190.3309, 5406.799
190.8130, 5428.587
191.2951, 5427.211
191.7772, 5412.143
192.2594, 5400.155
192.7415, 5403.228
193.2236, 5420.538
193.7057, 5434.887
194.1878, 5443.528
194.6699, 5451.558
195.1521, 5459.663
195.6342, 5468.130
196.1163, 5477.447
196.5984, 5488.599
197.0805, 5502.377
197.5626, 5510.679
198.0448, 5513.281
198.5269, 5511.153
199.0090, 5496.840
199.4911, 5475.404
199.9732, 5463.064
200.4553, 5478.969
200.9375, 5535.130
201.4196, 5569.290
201.9017, 5582.883
202.3838, 5578.867
202.8659, 5549.699
203.3480, 5499.192
203.8302, 5446.302
204.3123, 5413.414
204.7944, 5406.387
205.2765, 5407.672
205.7586, 5426.287
206.2407, 5447.101
206.7229, 5458.821
207.2050, 5459.039
207.6871, 5451.658
208.1692, 5441.644
208.6513, 5429.244
209.1334, 5412.641
209.6156, 5391.375
210.0977, 5366.032
210.5798, 5335.127
211.0619, 5297.848
211.5440, 5260.139
212.0261, 5232.168
212.5083, 5215.976
212.9904, 5201.039
213.4725, 5192.312
213.9546, 5182.180
214.4367, 5154.288
214.9188, 5099.674
215.4010, 5038.603
215.8831, 5010.062
216.3652, 5018.555
216.8473, 5025.345
217.3294, 5008.115
217.8115, 4979.813
218.2937, 4972.514
218.7758, 5002.581
219.2579, 5047.803
219.7400, 5071.938
220.2221, 5071.729
220.7042, 5070.033
221.1864, 5081.233
221.6685, 5101.174
222.1506, 5113.360
222.6327, 5111.832
223.1148, 5100.348
223.5969, 5083.564
224.0791, 5058.752
224.5612, 5039.352
225.0433, 5035.322
225.5254, 5045.499
226.0075, 5058.625
226.4896, 5065.175
226.9718, 5079.500
227.4539, 5116.557
227.9360, 5179.421
228.4181, 5255.056
228.9002, 5341.940
229.3823, 5439.657
229.8645, 5520.191
230.3466, 5565.692
230.8287, 5594.132
231.3108, 5617.135
231.7929, 5633.238
232.2750, 5658.432
232.7572, 5717.524
233.2393, 5815.495
233.7214, 5898.490
234.2035, 5939.899
234.6856, 5964.224
235.1677, 5987.827
235.6499, 6013.534
236.1320, 6040.136
236.6141, 6069.887
237.0962, 6106.108
237.5783, 6127.840
238.0604, 6099.436
238.5426, 6070.348
239.0247, 6084.730
239.5068, 6157.194
239.9889, 6244.441
240.4710, 6281.072
240.9531, 6249.834
241.4353, 6229.453
241.9174, 6249.904
242.3995, 6282.114
242.8816, 6307.509
243.3637, 6321.166
243.8458, 6323.396
244.3280, 6311.183
244.8101, 6276.036
245.2922, 6250.428
245.7743, 6247.765
246.2564, 6252.331
246.7385, 6252.860
247.2207, 6245.708
247.7028, 6234.114
248.1849, 6225.729
248.6670, 6228.456
249.1491, 6214.064
249.6312, 6150.667
250.1134, 6085.323
250.5955, 6063.117
251.0776, 6098.500
251.5597, 6156.767
252.0418, 6173.113
252.5239, 6118.951
253.0061, 6083.732
253.4882, 6092.029
253.9703, 6113.552
254.4524, 6125.919
254.9345, 6121.582
255.4166, 6105.735
255.8988, 6086.333
256.3809, 6058.013
256.8630, 6037.718
257.3451, 6018.325
257.8272, 6010.659
258.3094, 6032.891
258.7915, 6089.001
259.2736, 6152.121
259.7557, 6167.828
260.2378, 6093.773
260.7199, 6055.249
261.2021, 6082.150
261.6842, 6129.828
262.1663, 6162.577
262.6484, 6169.907
263.1305, 6167.565
263.6126, 6185.332
264.0948, 6241.554
264.5769, 6282.087
265.0590, 6300.372
265.5411, 6307.085
266.0232, 6307.827
266.5053, 6304.977
266.9875, 6301.445
267.4696, 6300.767
267.9517, 6297.004
268.4338, 6309.428
268.9159, 6352.499
269.3980, 6400.125
269.8802, 6434.912
270.3623, 6452.052
270.8444, 6456.152
271.3265, 6454.148
271.8086, 6447.630
272.2907, 6430.461
272.7729, 6387.187
273.2550, 6345.694
273.7371, 6321.994
274.2192, 6320.598
274.7013, 6339.688
275.1834, 6383.293
275.6656, 6481.961
276.1477, 6532.201
276.6298, 6509.489
277.1119, 6466.429
277.5940, 6423.750
278.0761, 6390.937
278.5583, 6380.021
279.0404, 6412.812
279.5225, 6517.789
280.0046, 6585.938
280.4867, 6608.182
280.9688, 6608.627
281.4510, 6589.758
281.9331, 6558.016
282.4152, 6530.098
282.8973, 6526.236
283.3794, 6553.292
283.8615, 6579.173
284.3437, 6602.695
284.8258, 6626.439
285.3079, 6657.682
285.7900, 6692.612
286.2721, 6716.650
286.7542, 6710.339
287.2364, 6662.514
287.7185, 6648.102
288.2006, 6704.442
288.6827, 6757.007
289.1648, 6765.176
289.6469, 6738.786
290.1291, 6717.509
290.6112, 6739.502
291.0933, 6809.636
291.5754, 6860.313
292.0575, 6882.679
292.5396, 6894.672
293.0218, 6896.659
293.5039, 6892.255
293.9860, 6887.537
294.4681, 6887.333
294.9502, 6891.545
295.4323, 6893.848
295.9145, 6903.797
296.3966, 6901.681
296.8787, 6896.179
297.3608, 6848.716
297.8429, 6847.902
298.3250, 6830.951
298.8072, 6742.935
299.2893, 6751.737
299.7714, 6724.829
300.2535, 6698.570
300.7356, 6727.303
301.2177, 6660.970
301.6999, 6693.274
302.1820, 6689.290
302.6641, 6705.128
303.1462, 6685.021
303.6283, 6678.903
304.1104, 6713.151
304.5926, 6728.474
305.0747, 6712.796
305.5568, 6742.982
306.0389, 6697.366
306.5210, 6722.407
307.0031, 6779.188
307.4853, 6776.455
307.9674, 6818.364
308.4495, 6846.313
308.9316, 6803.011
309.4137, 6889.661
309.8958, 6923.271
310.3780, 6902.362
310.8601, 6991.252
311.3422, 7002.469
311.8243, 7041.351
312.3064, 7050.502
312.7885, 7061.070
313.2707, 7098.337
313.7528, 7167.070
314.2349, 7248.607
314.7170, 7320.655
315.1991, 7382.737
315.6812, 7435.882
316.1634, 7466.213
316.6455, 7498.438
317.1276, 7548.811
317.6097, 7617.249
318.0918, 7688.560
318.5739, 7746.822
319.0561, 7790.109
319.5382, 7833.516
320.0203, 7857.276
320.5024, 7900.268
320.9845, 7990.079
321.4666, 8117.935
321.9488, 8249.936
322.4309, 8359.893
322.9130, 8448.875
323.3951, 8534.589
323.8772, 8609.920
324.3593, 8691.447
324.8415, 8789.563
325.3236, 8899.266
325.8057, 9009.358
326.2878, 9110.828
326.7699, 9208.238
327.2520, 9321.689
327.7342, 9464.845
328.2163, 9600.884
328.6984, 9710.621
329.1805, 9805.010
329.6626, 9898.021
330.1447, 9991.437
330.6269, 10091.84
331.1090, 10211.38
331.5911, 10350.48
332.0732, 10507.47
332.5553, 10687.18
333.0374, 10882.64
333.5196, 11088.33
334.0017, 11302.43
334.4838, 11528.09
334.9659, 11773.24
335.4480, 12038.91
335.9301, 12308.27
336.4123, 12570.10
336.8944, 12838.05
337.3765, 13126.76
337.8586, 13440.22
338.3407, 13764.51
338.8228, 14081.52
339.3050, 14396.38
339.7871, 14735.54
340.2692, 15106.72
340.7513, 15504.65
341.2334, 15932.24
341.7155, 16389.68
342.1977, 16835.25
342.6798, 17231.96
343.1619, 17603.09
343.6440, 18003.53
344.1261, 18447.91
344.6082, 18913.03
345.0904, 19379.49
345.5725, 19845.81
346.0546, 20320.42
346.5367, 20826.26
347.0188, 21333.27
347.5009, 21807.90
347.9831, 22244.43
348.4652, 22665.08
348.9473, 23088.72
349.4294, 23512.58
349.9115, 23896.51
350.3936, 24245.53
350.8758, 24548.41
351.3579, 24788.19
351.8400, 24968.86
352.3221, 25121.15
352.8042, 25275.49
353.2863, 25408.92
353.7685, 25425.58
354.2506, 25263.69
354.7327, 25070.03
355.2148, 24919.68
355.6969, 24776.24
356.1790, 24557.94
356.6612, 24225.55
357.1433, 23812.79
357.6254, 23394.16
358.1075, 22956.63
358.5896, 22539.12
359.0717, 22153.92
359.5539, 21788.25
360.0360, 21422.49
360.5181, 21052.01
361.0002, 20690.83
361.4823, 20363.20
361.9644, 20090.94
362.4466, 19801.42
362.9287, 19473.80
363.4108, 19145.76
363.8929, 18839.85
364.3750, 18557.74
364.8571, 18294.87
365.3393, 18047.15
365.8214, 17817.83
366.3035, 17579.25
366.7856, 17299.31
367.2677, 17042.87
367.7498, 16844.76
368.2320, 16687.78
368.7141, 16532.95
369.1962, 16356.67
369.6783, 16159.47
370.1604, 15946.43
370.6425, 15690.33
371.1247, 15451.64
371.6068, 15240.31
372.0889, 15051.87
372.5710, 14887.87
373.0531, 14749.19
373.5352, 14620.11
374.0174, 14470.10
374.4995, 14290.21
374.9816, 14111.12
375.4637, 13933.73
375.9458, 13761.10
376.4279, 13600.20
376.9101, 13451.24
377.3922, 13300.77
377.8743, 13129.88
378.3564, 12937.82
378.8385, 12763.00
379.3206, 12609.68
379.8028, 12478.21
380.2849, 12379.80
380.7670, 12305.74
381.2491, 12221.59
381.7312, 12107.03
382.2133, 11967.50
382.6955, 11809.72
383.1776, 11618.55
383.6597, 11451.65
384.1418, 11373.71
384.6239, 11342.63
385.1060, 11285.27
385.5882, 11158.83
386.0703, 11019.49
386.5524, 10934.65
387.0345, 10902.34
387.5166, 10866.05
387.9987, 10797.54
388.4809, 10709.89
388.9630, 10630.42
389.4451, 10553.61
389.9272, 10495.22
390.4093, 10463.58
390.8914, 10455.91
391.3736, 10473.70
391.8557, 10523.77
392.3378, 10576.15
392.8199, 10577.47
393.3020, 10509.32
393.7841, 10475.18
394.2663, 10501.91
394.7484, 10560.41
395.2305, 10630.61
395.7126, 10707.76
396.1947, 10781.17
396.6768, 10836.92
397.1590, 10871.03
397.6411, 10947.88
398.1232, 11105.75
398.6053, 11260.20
399.0874, 11365.20
399.5695, 11439.60
400.0517, 11530.34
400.5338, 11666.42
401.0159, 11835.40
401.4980, 11986.86
401.9801, 12092.41
402.4622, 12216.23
402.9444, 12377.16
403.4265, 12551.75
403.9086, 12715.98
404.3907, 12862.30
404.8728, 13003.90
405.3549, 13164.48
405.8371, 13360.43
406.3192, 13526.28
406.8013, 13654.49
407.2834, 13757.25
407.7655, 13850.91
408.2477, 13927.68
408.7298, 13957.38
409.2119, 13900.50
409.6940, 13769.41
410.1761, 13661.74
410.6582, 13612.50
411.1404, 13527.15
411.6225, 13353.82
412.1046, 13123.52
412.5867, 12883.03
413.0688, 12645.80
413.5509, 12409.59
414.0331, 12164.08
414.5152, 11906.76
414.9973, 11672.35
415.4794, 11481.53
415.9615, 11315.03
416.4436, 11143.95
416.9258, 10962.65
417.4079, 10796.29
417.8900, 10655.89
418.3721, 10540.16
418.8542, 10449.61
419.3363, 10387.39
419.8185, 10337.92
420.3006, 10278.99
420.7827, 10209.43
421.2648, 10169.51
421.7469, 10188.68
422.2290, 10221.13
422.7112, 10222.76
423.1933, 10198.01
423.6754, 10186.04
424.1575, 10214.29
424.6396, 10278.56
425.1217, 10344.98
425.6039, 10413.12
426.0860, 10483.51
426.5681, 10564.29
427.0502, 10645.04
427.5323, 10707.28
428.0144, 10744.58
428.4966, 10775.92
428.9787, 10835.77
429.4608, 10937.19
429.9429, 11043.81
430.4250, 11145.16
430.9071, 11258.59
431.3893, 11399.63
431.8714, 11565.29
432.3535, 11735.24
432.8356, 11896.38
433.3177, 12047.94
433.7998, 12180.46
434.2820, 12275.55
434.7641, 12377.19
435.2462, 12506.67
435.7283, 12649.23
436.2104, 12782.82
436.6925, 12897.01
437.1747, 13002.73
437.6568, 13121.82
438.1389, 13257.20
438.6210, 13372.94
439.1031, 13454.45
439.5852, 13513.13
440.0674, 13565.15
440.5495, 13611.98
441.0316, 13639.31
441.5137, 13643.31
441.9958, 13621.72
442.4779, 13567.60
442.9601, 13477.91
443.4422, 13364.69
443.9243, 13229.97
444.4064, 13075.92
444.8885, 12931.36
445.3706, 12805.36
445.8528, 12682.33
446.3349, 12555.09
446.8170, 12422.65
447.2991, 12282.41
447.7812, 12131.23
448.2633, 11976.17
448.7455, 11840.07
449.2276, 11755.70
449.7097, 11646.64
450.1918, 11479.29
450.6739, 11304.00
451.1560, 11174.12
451.6382, 11094.68
452.1203, 11022.46
452.6024, 10905.79
453.0845, 10735.40
453.5666, 10590.69
454.0487, 10490.20
454.5309, 10399.74
455.0130, 10314.08
455.4951, 10231.08
455.9772, 10146.99
456.4594, 10057.77
456.9415, 9971.936
457.4236, 9914.208
457.9057, 9894.600
458.3878, 9866.619
458.8699, 9814.504
459.3521, 9749.036
459.8342, 9673.926
460.3163, 9589.477
460.7984, 9508.887
461.2805, 9447.612
461.7626, 9397.929
462.2448, 9338.703
462.7269, 9268.622
463.2090, 9183.240
463.6911, 9062.618
464.1732, 8917.678
464.6553, 8805.987
465.1375, 8766.552
465.6196, 8734.352
466.1017, 8667.765
466.5838, 8571.103
467.0659, 8454.691
467.5480, 8318.535
468.0302, 8179.948
468.5123, 8084.625
468.9944, 8064.017
469.4765, 8037.727
469.9586, 8013.007
470.4407, 7974.311
470.9229, 7894.250
471.4050, 7778.644
471.8871, 7671.739
472.3692, 7622.827
472.8513, 7634.875
473.3334, 7611.759
473.8156, 7513.656
474.2977, 7423.721
474.7798, 7365.525
475.2619, 7327.419
475.7440, 7292.690
476.2261, 7254.942
476.7083, 7216.022
477.1904, 7181.091
477.6725, 7152.171
478.1546, 7111.514
478.6367, 7044.063
479.1188, 6974.631
479.6010, 6918.459
480.0831, 6876.588
480.5652, 6851.851
481.0473, 6855.665
481.5294, 6873.682
482.0115, 6887.209
482.4937, 6895.636
482.9758, 6885.867
483.4579, 6842.274
483.9400, 6774.127
484.4221, 6723.818
484.9042, 6706.853
485.3864, 6687.264
485.8685, 6642.844
486.3506, 6590.815
486.8327, 6563.819
487.3148, 6570.641
487.7969, 6580.061
488.2791, 6545.535
488.7612, 6444.471
489.2433, 6379.796
489.7254, 6387.726
490.2075, 6390.052
490.6896, 6352.933
491.1718, 6281.886
491.6539, 6190.781
492.1360, 6081.911
492.6181, 5972.166
493.1002, 5914.725
493.5823, 5935.461
494.0645, 5941.112
494.5466, 5893.522
495.0287, 5833.626
495.5108, 5793.694
495.9929, 5776.821
496.4750, 5754.084
496.9572, 5692.997
497.4393, 5610.163
497.9214, 5557.881
498.4035, 5546.102
498.8856, 5539.118
499.3677, 5508.378
499.8499, 5462.002
500.3320, 5430.282
500.8141, 5438.681
501.2962, 5436.674
501.7783, 5386.304
502.2604, 5308.087
502.7426, 5244.480
503.2247, 5209.879
503.7068, 5189.454
504.1889, 5160.343
504.6710, 5115.297
505.1531, 5083.810
505.6353, 5070.098
506.1174, 5064.214
506.5995, 5070.506
507.0816, 5080.400
507.5637, 5072.996
508.0458, 5031.692
508.5280, 4972.792
509.0101, 4951.624
509.4922, 4994.589
509.9743, 5012.247
510.4564, 4948.820
510.9385, 4877.997
511.4207, 4864.643
511.9028, 4913.033
512.3849, 4954.175
512.8670, 4926.954
513.3491, 4855.411
513.8312, 4808.254
514.3134, 4794.444
514.7955, 4783.016
515.2776, 4750.367
515.7597, 4704.395
516.2418, 4673.428
516.7239, 4675.547
517.2061, 4670.849
517.6882, 4624.009
518.1703, 4562.498
518.6524, 4540.466
519.1345, 4573.085
519.6166, 4619.740
520.0988, 4626.458
520.5809, 4580.854
521.0630, 4549.785
521.5451, 4544.102
522.0272, 4539.246
522.5093, 4520.923
522.9915, 4496.789
523.4736, 4484.639
523.9557, 4494.799
524.4378, 4512.369
524.9199, 4505.960
525.4020, 4470.684
525.8842, 4432.528
526.3663, 4386.474
526.8484, 4347.892
527.3305, 4329.501
527.8126, 4329.748
528.2947, 4335.295
528.7769, 4346.186
529.2590, 4355.334
529.7411, 4346.528
530.2232, 4319.932
530.7053, 4303.655
531.1874, 4319.185
531.6696, 4349.959
532.1517, 4345.657
532.6338, 4278.150
533.1159, 4236.165
533.5980, 4266.665
534.0801, 4313.376
534.5623, 4312.327
535.0444, 4261.272
535.5265, 4211.584
536.0086, 4211.695
536.4907, 4258.506
536.9728, 4286.147
537.4550, 4289.737
537.9371, 4278.847
538.4192, 4244.603
538.9013, 4203.168
539.3834, 4170.220
539.8655, 4149.890
540.3477, 4138.990
540.8298, 4134.911
541.3119, 4137.597
541.7940, 4150.225
542.2761, 4181.161
542.7582, 4203.249
543.2404, 4182.618
543.7225, 4136.881
544.2046, 4113.685
544.6867, 4147.191
545.1688, 4175.270
545.6509, 4147.701
546.1331, 4088.679
546.6152, 4049.900
547.0973, 4047.932
547.5794, 4067.378
548.0615, 4090.512
548.5436, 4123.431
549.0258, 4134.792
549.5079, 4096.836
549.9900, 4069.456
550.4721, 4090.280
550.9542, 4137.109
551.4363, 4168.137
551.9185, 4163.157
552.4006, 4135.017
552.8827, 4101.791
553.3648, 4060.463
553.8469, 4032.209
554.3290, 4017.231
554.8112, 4021.024
555.2933, 4062.001
555.7754, 4128.936
556.2575, 4168.053
556.7396, 4122.042
557.2217, 4063.949
557.7039, 4084.536
558.1860, 4169.772
558.6681, 4237.366
559.1502, 4249.919
559.6323, 4231.203
560.1144, 4225.183
560.5966, 4237.966
561.0787, 4251.227
561.5608, 4266.951
562.0429, 4281.335
562.5250, 4284.428
563.0071, 4283.448
563.4893, 4300.915
563.9714, 4354.526
564.4535, 4426.506
564.9356, 4460.664
565.4177, 4439.750
565.8998, 4430.933
566.3820, 4457.899
566.8641, 4494.626
567.3462, 4527.382
567.8283, 4554.721
568.3104, 4575.778
568.7925, 4597.042
569.2747, 4608.418
569.7568, 4585.483
570.2389, 4530.362
570.7210, 4486.701
571.2031, 4481.605
571.6852, 4494.707
572.1674, 4473.101
572.6495, 4387.424
573.1316, 4331.252
573.6137, 4342.561
574.0958, 4363.738
574.5779, 4343.826
575.0601, 4288.362
575.5422, 4237.838
576.0243, 4221.960
576.5064, 4230.604
576.9885, 4222.988
577.4706, 4186.932
577.9528, 4164.015
578.4349, 4196.360
578.9170, 4221.661
579.3991, 4179.078
579.8812, 4071.408
580.3633, 3980.920
580.8455, 3967.820
581.3276, 3993.704
581.8097, 4000.765
582.2918, 3987.449
582.7739, 3964.823
583.2560, 3936.269
583.7382, 3904.637
584.2203, 3876.270
584.7024, 3847.658
585.1845, 3828.953
585.6666, 3828.661
586.1487, 3832.714
586.6309, 3831.224
587.1130, 3823.892
587.5951, 3815.842
588.0772, 3811.753
588.5593, 3807.237
589.0414, 3785.999
589.5236, 3741.589
590.0057, 3697.979
590.4878, 3649.743
590.9699, 3612.697
591.4520, 3605.542
591.9341, 3625.708
592.4163, 3640.490
592.8984, 3627.057
593.3805, 3603.459
593.8626, 3593.713
594.3447, 3596.811
594.8268, 3599.091
595.3090, 3592.803
595.7911, 3585.047
596.2732, 3591.573
596.7553, 3627.867
597.2374, 3647.262
597.7195, 3642.591
598.2017, 3627.141
598.6838, 3604.223
599.1659, 3577.693
599.6480, 3552.223
600.1301, 3529.644
600.6122, 3513.213
601.0944, 3510.539
601.5765, 3522.588
602.0586, 3544.196
602.5407, 3591.435
603.0228, 3629.069
603.5049, 3619.743
603.9871, 3572.310
604.4692, 3538.235
604.9513, 3540.683
605.4334, 3556.793
605.9155, 3576.829
606.3976, 3595.334
606.8798, 3592.166
607.3619, 3558.030
607.8440, 3518.646
608.3261, 3515.265
608.8082, 3562.121
609.2903, 3593.938
609.7725, 3610.708
610.2546, 3614.134
610.7367, 3598.193
611.2188, 3571.161
611.7009, 3542.945
612.1830, 3516.113
612.6652, 3498.636
613.1473, 3507.580
613.6294, 3539.288
614.1115, 3557.390
614.5936, 3557.109
615.0757, 3542.094
615.5579, 3507.025
616.0400, 3457.715
616.5221, 3422.469
617.0042, 3403.498
617.4863, 3397.979
617.9684, 3420.750
618.4506, 3449.738
618.9327, 3451.031
619.4148, 3419.573
619.8969, 3380.297
620.3790, 3357.803
620.8611, 3351.622
621.3433, 3345.402
621.8254, 3332.837
622.3075, 3331.080
622.7896, 3356.500
623.2717, 3387.231
623.7538, 3401.664
624.2360, 3396.157
624.7181, 3383.267
625.2002, 3369.888
625.6823, 3354.574
626.1644, 3331.768
626.6465, 3301.944
627.1287, 3277.526
627.6108, 3266.431
628.0929, 3264.330
628.5750, 3259.606
629.0571, 3253.077
629.5392, 3242.174
630.0214, 3215.185
630.5035, 3193.800
630.9856, 3204.959
631.4677, 3234.858
631.9498, 3239.590
632.4319, 3186.142
632.9141, 3113.699
633.3962, 3104.921
633.8783, 3164.686
634.3604, 3215.152
634.8425, 3241.708
635.3246, 3251.630
635.8068, 3243.123
636.2889, 3220.392
636.7710, 3209.180
637.2531, 3222.604
637.7352, 3239.280
638.2173, 3247.276
638.6995, 3250.284
639.1816, 3258.498
639.6637, 3273.939
640.1458, 3283.013
640.6279, 3266.916
641.1100, 3223.775
641.5922, 3188.168
642.0743, 3155.199
642.5564, 3137.897
