##NAMES=Svanbergite
##RRUFFID=R050549
##IDEAL CHEMISTRY=SrAl_3_(S^6+^O_4_)(PO_4_)(OH)_6_
##LOCALITY=Horrsjoberg, Varmland, Sweden
##OWNER=RRUFF
##SOURCE=University of Arizona Mineral Museum
##DESCRIPTION=Orange-brown crystals embedded in a matrix of pyrophyllite, quartz and kyanite
##STATUS=The identification of this mineral has been confirmed by X-ray diffraction and chemical analysis
##URL=rruff.info/R050549
##MEASURED CHEMISTRY=(Sr_0.85_Ca_0.15_)_Σ=1_Al_3.00_[(P_0.56_S_0.44_)_Σ=1_O_4_]_2_((OH)_5.88_(H_2_O)_0.12_)_Σ=6_ ; (OH) and H_2_O estimated by charge balance
90.92609, 0.0000000E+00
91.40820, 23.48937
91.89032, 23.09786
92.37244, 23.46587
92.85455, 24.42569
93.33667, 24.97655
93.81879, 23.78213
94.30090, 21.51717
94.78302, 20.24712
95.26514, 20.67702
95.74725, 22.15749
96.22937, 23.54612
96.71149, 24.87103
97.19360, 25.64916
97.67572, 24.99842
98.15784, 22.96001
98.63995, 21.42778
99.12207, 20.95667
99.60419, 21.47132
100.0863, 22.44050
100.5684, 24.10684
101.0505, 25.74516
101.5327, 26.27319
102.0148, 25.30197
102.4969, 24.53148
102.9790, 24.76681
103.4611, 26.41152
103.9432, 26.64627
104.4253, 24.56616
104.9075, 21.56354
105.3896, 20.60601
105.8717, 23.20087
106.3538, 25.78382
106.8359, 26.96992
107.3180, 25.54852
107.8002, 24.80601
108.2823, 24.79589
108.7644, 25.47026
109.2465, 26.66969
109.7286, 29.01671
110.2107, 31.42551
110.6929, 33.46964
111.1750, 34.66959
111.6571, 35.99866
112.1392, 37.45860
112.6213, 39.07379
113.1034, 41.04462
113.5856, 43.37609
114.0677, 46.11839
114.5498, 49.28115
115.0319, 52.90747
115.5140, 56.93979
115.9961, 61.28203
116.4783, 65.93747
116.9604, 71.11233
117.4425, 76.53051
117.9246, 82.68887
118.4067, 90.07080
118.8888, 100.2081
119.3710, 110.6774
119.8531, 119.9113
120.3352, 127.6396
120.8173, 135.5270
121.2994, 144.6239
121.7815, 154.5144
122.2637, 164.5185
122.7458, 174.9738
123.2279, 184.9642
123.7100, 193.2690
124.1921, 199.4577
124.6742, 205.2257
125.1564, 212.0647
125.6385, 219.7636
126.1206, 227.6884
126.6027, 234.9443
127.0848, 242.1977
127.5669, 250.5556
128.0491, 260.2162
128.5312, 270.9604
129.0133, 282.6879
129.4954, 295.2654
129.9775, 308.4424
130.4596, 322.5937
130.9418, 337.2527
131.4239, 351.1548
131.9060, 364.0905
132.3881, 376.1466
132.8702, 386.9424
133.3523, 396.4366
133.8345, 405.8964
134.3166, 416.7188
134.7987, 428.9782
135.2808, 440.4610
135.7629, 450.8734
136.2450, 460.3053
136.7272, 468.8489
137.2093, 476.4657
137.6914, 483.4762
138.1735, 490.3720
138.6556, 497.2786
139.1377, 503.1150
139.6199, 507.2296
140.1020, 509.6002
140.5841, 513.3651
141.0662, 518.9896
141.5483, 525.3208
142.0304, 530.6410
142.5126, 533.9008
142.9947, 538.2086
143.4768, 542.7491
143.9589, 546.3939
144.4410, 551.4366
144.9231, 559.0519
145.4053, 567.3116
145.8874, 573.2028
146.3695, 574.6105
146.8516, 576.6663
147.3337, 580.9473
147.8158, 588.4058
148.2980, 595.7378
148.7801, 603.0495
149.2622, 610.2707
149.7443, 617.0318
150.2264, 621.1111
150.7085, 626.8262
151.1907, 635.8656
151.6728, 652.6523
152.1549, 665.6085
152.6370, 672.2406
153.1191, 674.8741
153.6012, 679.0416
154.0834, 685.8160
154.5655, 693.6288
155.0476, 701.8595
155.5297, 709.1672
156.0118, 718.3484
156.4939, 729.9704
156.9761, 743.8102
157.4582, 758.8265
157.9403, 774.8959
158.4224, 791.9825
158.9045, 810.1782
159.3866, 830.2822
159.8688, 850.3049
160.3509, 869.3934
160.8330, 887.7565
161.3151, 906.3260
161.7972, 925.3724
162.2793, 944.8046
162.7615, 964.5469
163.2436, 983.9531
163.7257, 1004.262
164.2078, 1025.927
164.6899, 1048.974
165.1720, 1073.656
165.6541, 1099.236
166.1363, 1126.799
166.6184, 1157.414
167.1005, 1191.781
167.5826, 1228.950
168.0647, 1267.849
168.5468, 1308.654
169.0290, 1354.089
169.5111, 1405.489
169.9932, 1462.548
170.4753, 1525.152
170.9574, 1592.270
171.4395, 1664.673
171.9217, 1743.380
172.4038, 1828.374
172.8859, 1919.781
173.3680, 2022.941
173.8501, 2131.819
174.3322, 2237.740
174.8144, 2345.278
175.2965, 2444.956
175.7786, 2527.306
176.2607, 2593.740
176.7428, 2633.043
177.2249, 2637.137
177.7071, 2606.571
178.1892, 2542.692
178.6713, 2430.588
179.1534, 2289.661
179.6355, 2147.031
180.1176, 2001.141
180.5998, 1862.211
181.0819, 1736.934
181.5640, 1626.018
182.0461, 1527.383
182.5282, 1442.330
183.0103, 1369.410
183.4925, 1307.390
183.9746, 1257.253
184.4567, 1214.600
184.9388, 1174.569
185.4209, 1137.111
185.9030, 1104.354
186.3852, 1077.972
186.8673, 1057.098
187.3494, 1038.060
187.8315, 1020.942
188.3136, 1005.189
188.7957, 989.5062
189.2779, 974.0756
189.7600, 959.4136
190.2421, 945.8602
190.7242, 933.4496
191.2063, 922.0736
191.6884, 911.8177
192.1706, 902.5057
192.6527, 893.5592
193.1348, 885.0028
193.6169, 877.0204
194.0990, 869.6425
194.5811, 862.8773
195.0633, 856.5120
195.5454, 850.5319
196.0275, 844.9283
196.5096, 840.1265
196.9917, 836.1904
197.4738, 832.0880
197.9560, 826.6580
198.4381, 819.9165
198.9202, 815.5048
199.4023, 813.9901
199.8844, 814.3698
200.3665, 814.8068
200.8487, 815.2949
201.3308, 815.9766
201.8129, 816.7831
202.2950, 817.6652
202.7771, 819.4055
203.2592, 822.1298
203.7414, 825.6422
204.2235, 829.6851
204.7056, 834.3343
205.1877, 839.0275
205.6698, 843.0284
206.1519, 845.9023
206.6341, 851.1620
207.1162, 859.6974
207.5983, 869.8952
208.0804, 877.8182
208.5625, 882.6013
209.0446, 887.5123
209.5268, 894.2269
210.0089, 903.1237
210.4910, 912.0071
210.9731, 920.6940
211.4552, 929.4807
211.9373, 938.8400
212.4195, 948.6043
212.9016, 959.2719
213.3837, 971.3661
213.8658, 985.5750
214.3479, 998.6949
214.8300, 1010.048
215.3121, 1020.720
215.7943, 1033.293
216.2764, 1047.657
216.7585, 1063.904
217.2406, 1082.713
217.7227, 1105.055
218.2048, 1125.999
218.6870, 1144.718
219.1691, 1162.341
219.6512, 1181.901
220.1333, 1203.655
220.6154, 1227.002
221.0975, 1252.351
221.5797, 1280.084
222.0618, 1307.939
222.5439, 1335.882
223.0260, 1363.922
223.5081, 1392.862
223.9902, 1422.592
224.4724, 1453.187
224.9545, 1483.884
225.4366, 1514.660
225.9187, 1547.007
226.4008, 1581.573
226.8829, 1617.722
227.3651, 1654.144
227.8472, 1690.623
228.3293, 1728.432
228.8114, 1768.175
229.2935, 1809.967
229.7757, 1852.960
230.2578, 1897.118
230.7399, 1942.000
231.2220, 1987.544
231.7041, 2033.640
232.1862, 2080.002
232.6684, 2126.638
233.1505, 2173.829
233.6326, 2220.371
234.1147, 2266.539
234.5968, 2311.975
235.0789, 2355.599
235.5611, 2399.599
236.0432, 2438.100
236.5253, 2469.229
237.0074, 2491.232
237.4895, 2510.948
237.9716, 2530.773
238.4538, 2546.893
238.9359, 2553.216
239.4180, 2548.900
239.9001, 2536.196
240.3822, 2514.954
240.8643, 2484.329
241.3465, 2450.065
241.8286, 2411.729
242.3107, 2370.054
242.7928, 2325.869
243.2749, 2278.264
243.7570, 2229.632
244.2392, 2180.171
244.7213, 2129.251
245.2034, 2080.245
245.6855, 2033.005
246.1676, 1987.417
246.6497, 1943.343
247.1319, 1900.792
247.6140, 1859.769
248.0961, 1820.097
248.5782, 1781.503
249.0603, 1745.843
249.5424, 1713.720
250.0246, 1683.679
250.5067, 1653.684
250.9888, 1623.341
251.4709, 1593.812
251.9530, 1565.405
252.4351, 1537.908
252.9173, 1510.918
253.3994, 1483.696
253.8815, 1457.239
254.3636, 1432.506
254.8457, 1410.244
255.3278, 1388.503
255.8100, 1366.723
256.2921, 1344.851
256.7742, 1324.728
257.2563, 1307.046
257.7384, 1290.208
258.2205, 1273.066
258.7026, 1255.056
259.1848, 1237.810
259.6669, 1221.375
260.1490, 1205.817
260.6311, 1193.149
261.1132, 1184.577
261.5953, 1176.999
262.0775, 1168.111
262.5596, 1157.053
263.0417, 1147.043
263.5238, 1138.518
264.0059, 1131.301
264.4880, 1124.068
264.9702, 1116.522
265.4523, 1109.592
265.9344, 1104.026
266.4165, 1100.136
266.8986, 1096.216
267.3807, 1091.920
267.8629, 1087.543
268.3450, 1084.264
268.8271, 1082.656
269.3092, 1080.670
269.7913, 1076.899
270.2734, 1070.904
270.7556, 1065.334
271.2377, 1059.909
271.7198, 1055.291
272.2019, 1053.472
272.6840, 1055.357
273.1661, 1057.017
273.6483, 1055.992
274.1304, 1051.687
274.6125, 1049.940
275.0946, 1051.714
275.5767, 1054.866
276.0588, 1055.337
276.5410, 1052.578
277.0231, 1049.864
277.5052, 1049.503
277.9873, 1051.574
278.4694, 1049.245
278.9515, 1041.733
279.4337, 1031.405
279.9158, 1022.074
280.3979, 1014.139
280.8800, 1003.299
281.3621, 987.3255
281.8442, 966.7766
282.3264, 947.0154
282.8085, 927.8545
283.2906, 910.2150
283.7727, 895.1810
284.2548, 882.7709
284.7369, 872.3122
285.2191, 863.8369
285.7012, 857.1849
286.1833, 851.5402
286.6654, 846.9728
287.1475, 842.9399
287.6296, 839.1099
288.1118, 835.4435
288.5939, 831.6997
289.0760, 827.6449
289.5581, 823.5993
290.0402, 820.2624
290.5223, 817.6245
291.0045, 815.4894
291.4866, 814.1904
291.9687, 813.4085
292.4508, 811.4127
292.9329, 807.3806
293.4150, 802.8109
293.8972, 800.1622
294.3793, 799.3483
294.8614, 799.2991
295.3435, 799.7941
295.8256, 800.5366
296.3077, 800.5432
296.7899, 799.5153
297.2720, 798.2834
297.7541, 798.0240
298.2362, 798.5812
298.7183, 799.2521
299.2004, 799.1540
299.6826, 799.0013
300.1647, 800.6262
300.6468, 804.4650
301.1289, 808.0564
301.6110, 808.3825
302.0931, 806.3866
302.5753, 804.5793
303.0574, 803.5131
303.5395, 803.5591
304.0216, 805.9764
304.5037, 810.8682
304.9858, 815.2946
305.4680, 816.1771
305.9501, 815.0133
306.4322, 814.3566
306.9143, 815.2422
307.3964, 816.9799
307.8785, 819.3747
308.3607, 822.3168
308.8428, 824.8031
309.3249, 825.9132
309.8070, 826.2904
310.2891, 826.6613
310.7712, 827.1315
311.2534, 827.7684
311.7355, 828.4252
312.2176, 829.2173
312.6997, 830.5890
313.1818, 833.5707
313.6639, 836.7451
314.1461, 838.7793
314.6282, 838.6011
315.1103, 838.9613
315.5924, 842.0342
316.0745, 846.6237
316.5566, 850.2889
317.0388, 851.4999
317.5209, 851.8699
318.0030, 852.2021
318.4851, 852.5298
318.9672, 853.1247
319.4493, 854.6371
319.9315, 856.3334
320.4136, 857.2538
320.8957, 856.0054
321.3778, 854.9466
321.8599, 854.8336
322.3420, 855.7279
322.8242, 857.3726
323.3063, 860.6720
323.7884, 864.2372
324.2705, 866.8579
324.7526, 867.9152
325.2347, 868.4806
325.7169, 867.8537
326.1990, 866.2845
326.6811, 866.9663
327.1632, 871.7971
327.6453, 877.7923
328.1274, 883.3036
328.6096, 888.8348
329.0917, 893.2238
329.5738, 895.6844
330.0559, 896.8776
330.5380, 898.9341
331.0201, 901.6642
331.5023, 905.4775
331.9844, 910.8475
332.4665, 919.0269
332.9486, 925.5270
333.4307, 929.6779
333.9128, 932.4613
334.3950, 935.2327
334.8771, 937.2667
335.3592, 940.7377
335.8413, 946.7848
336.3234, 955.8450
336.8055, 963.3558
337.2877, 969.2020
337.7698, 973.5457
338.2519, 976.3421
338.7340, 977.1688
339.2161, 978.0204
339.6982, 979.4212
340.1803, 981.2156
340.6624, 982.2093
341.1446, 982.1783
341.6267, 982.1365
342.1088, 982.8248
342.5909, 984.2458
343.0730, 986.2928
343.5551, 989.2969
344.0373, 992.4845
344.5194, 993.5999
345.0015, 992.5446
345.4836, 991.6703
345.9657, 992.2430
346.4478, 994.1650
346.9300, 997.0953
347.4121, 1001.205
347.8942, 1005.723
348.3763, 1009.577
348.8584, 1012.906
349.3405, 1016.574
349.8227, 1021.244
350.3048, 1026.484
350.7869, 1031.075
351.2690, 1034.974
351.7511, 1039.547
352.2332, 1046.881
352.7154, 1055.762
353.1975, 1063.426
353.6796, 1067.796
354.1617, 1071.807
354.6438, 1078.627
355.1259, 1088.013
355.6081, 1098.678
356.0902, 1111.407
356.5723, 1124.375
357.0544, 1135.080
357.5365, 1141.561
358.0186, 1148.875
358.5008, 1161.166
358.9829, 1176.828
359.4650, 1192.427
359.9471, 1206.466
360.4292, 1219.887
360.9113, 1233.635
361.3935, 1247.900
361.8756, 1260.850
362.3577, 1271.974
362.8398, 1281.320
363.3219, 1288.938
363.8040, 1294.049
364.2862, 1298.262
364.7683, 1302.625
365.2504, 1307.045
365.7325, 1309.114
366.2146, 1308.107
366.6967, 1304.825
367.1789, 1299.766
367.6610, 1292.395
368.1431, 1283.948
368.6252, 1273.885
369.1073, 1262.646
369.5894, 1251.814
370.0716, 1240.560
370.5537, 1230.464
371.0358, 1221.989
371.5179, 1215.246
372.0000, 1209.752
372.4821, 1205.629
372.9643, 1202.699
373.4464, 1200.688
373.9285, 1199.309
374.4106, 1199.538
374.8927, 1202.108
375.3748, 1206.901
375.8570, 1210.105
376.3391, 1210.706
376.8212, 1211.852
377.3033, 1216.649
377.7854, 1225.615
378.2675, 1233.989
378.7497, 1240.605
379.2318, 1246.815
379.7139, 1256.764
380.1960, 1270.641
380.6781, 1285.119
381.1602, 1297.734
381.6424, 1308.980
382.1245, 1321.913
382.6066, 1336.883
383.0887, 1353.192
383.5708, 1370.806
384.0529, 1389.329
384.5351, 1407.630
385.0172, 1424.211
385.4993, 1440.496
385.9814, 1460.102
386.4635, 1482.735
386.9456, 1505.812
387.4278, 1526.195
387.9099, 1545.526
388.3920, 1566.826
388.8741, 1591.144
389.3562, 1616.868
389.8383, 1644.186
390.3205, 1672.338
390.8026, 1698.440
391.2847, 1719.194
391.7668, 1738.406
392.2489, 1760.097
392.7310, 1785.588
393.2132, 1808.268
393.6953, 1825.469
394.1774, 1837.649
394.6595, 1845.406
395.1416, 1847.258
395.6237, 1846.182
396.1059, 1844.629
396.5880, 1842.242
397.0701, 1832.856
397.5522, 1813.149
398.0343, 1787.582
398.5164, 1758.785
398.9986, 1726.259
399.4807, 1691.449
399.9628, 1653.341
400.4449, 1613.066
400.9270, 1572.939
401.4091, 1532.938
401.8913, 1493.686
402.3734, 1455.170
402.8555, 1417.080
403.3376, 1381.366
403.8197, 1347.855
404.3018, 1316.891
404.7840, 1289.287
405.2661, 1265.836
405.7482, 1242.591
406.2303, 1218.122
406.7124, 1193.329
407.1945, 1171.024
407.6767, 1151.256
408.1588, 1133.656
408.6409, 1118.666
409.1230, 1106.141
409.6051, 1092.705
410.0872, 1077.553
410.5694, 1062.696
411.0515, 1051.809
411.5336, 1044.359
412.0157, 1037.312
412.4978, 1028.803
412.9799, 1019.962
413.4621, 1013.535
413.9442, 1009.421
414.4263, 1005.144
414.9084, 997.5426
415.3905, 988.6621
415.8727, 981.8245
416.3548, 978.6824
416.8369, 976.4985
417.3190, 973.0150
417.8011, 968.6566
418.2832, 964.4798
418.7654, 961.2247
419.2475, 958.2101
419.7296, 954.9320
420.2117, 951.2059
420.6938, 947.7840
421.1759, 944.8662
421.6581, 942.4326
422.1402, 940.4308
422.6223, 939.2737
423.1044, 938.1146
423.5865, 936.8547
424.0686, 935.4711
424.5508, 933.7832
425.0329, 931.5737
425.5150, 929.2335
425.9971, 926.9669
426.4792, 925.0075
426.9613, 922.6165
427.4435, 919.2401
427.9256, 915.7737
428.4077, 913.6389
428.8898, 913.0472
429.3719, 913.3856
429.8540, 915.0645
430.3362, 917.8610
430.8183, 918.1107
431.3004, 915.0422
431.7825, 911.6268
432.2646, 910.7502
432.7467, 912.4225
433.2289, 912.7501
433.7110, 910.8208
434.1931, 907.9811
434.6752, 906.7420
435.1573, 906.9819
435.6394, 907.4284
436.1216, 907.1442
436.6036, 906.6403
437.0858, 907.1453
437.5679, 908.6948
438.0500, 910.6321
438.5321, 912.7676
439.0142, 914.8296
439.4963, 916.2743
439.9785, 916.4131
440.4606, 916.6392
440.9427, 918.4233
441.4248, 921.2838
441.9069, 923.7583
442.3890, 924.8869
442.8712, 925.6013
443.3533, 926.3013
443.8354, 926.8874
444.3175, 928.2749
444.7996, 931.4764
445.2817, 935.3168
445.7639, 938.5917
446.2460, 940.7587
446.7281, 942.6949
447.2102, 943.9540
447.6923, 944.8088
448.1744, 947.1922
448.6566, 952.1685
449.1387, 957.5482
449.6208, 962.4241
450.1029, 966.8177
450.5850, 970.6296
451.0671, 973.5028
451.5493, 976.1082
452.0314, 979.4449
452.5135, 983.6461
452.9956, 987.8223
453.4777, 991.3210
453.9598, 994.6448
454.4420, 1000.617
454.9241, 1009.463
455.4062, 1018.455
455.8883, 1025.031
456.3704, 1029.844
456.8525, 1035.758
457.3347, 1043.023
457.8168, 1051.237
458.2989, 1060.131
458.7810, 1069.552
459.2631, 1078.747
459.7452, 1086.365
460.2274, 1094.371
460.7095, 1104.875
461.1916, 1117.844
461.6737, 1132.002
462.1558, 1147.946
462.6379, 1164.167
463.1201, 1179.094
463.6022, 1191.837
464.0843, 1205.041
464.5664, 1219.572
465.0485, 1235.293
465.5306, 1251.990
466.0128, 1270.326
466.4949, 1288.902
466.9770, 1307.348
467.4591, 1325.647
467.9412, 1343.348
468.4233, 1359.798
468.9055, 1376.405
469.3876, 1394.169
469.8697, 1413.388
470.3518, 1433.197
470.8339, 1454.274
471.3160, 1475.660
471.7982, 1495.557
472.2803, 1513.605
472.7624, 1531.695
473.2445, 1549.989
473.7266, 1568.713
474.2087, 1589.017
474.6909, 1610.923
475.1730, 1633.450
475.6551, 1656.462
476.1372, 1679.366
476.6193, 1699.329
477.1014, 1715.052
477.5836, 1729.780
478.0657, 1749.397
478.5478, 1771.567
479.0299, 1789.263
479.5120, 1798.169
479.9941, 1802.042
480.4763, 1803.987
480.9584, 1804.048
481.4405, 1801.723
481.9226, 1797.771
482.4047, 1790.748
482.8868, 1779.465
483.3690, 1763.710
483.8511, 1743.925
484.3332, 1719.018
484.8153, 1690.494
485.2974, 1660.263
485.7795, 1629.483
486.2617, 1596.444
486.7438, 1559.718
487.2259, 1519.271
487.7080, 1481.242
488.1901, 1445.905
488.6722, 1412.221
489.1544, 1378.795
489.6365, 1345.125
490.1186, 1315.092
490.6007, 1289.405
491.0828, 1266.473
491.5649, 1243.194
492.0471, 1219.679
492.5292, 1197.457
493.0113, 1177.146
493.4934, 1158.686
493.9755, 1141.945
494.4576, 1126.998
494.9398, 1112.569
495.4219, 1097.728
495.9040, 1082.809
496.3861, 1068.862
496.8682, 1055.741
497.3503, 1043.886
497.8325, 1033.822
498.3146, 1025.131
498.7967, 1016.954
499.2788, 1008.820
499.7609, 1001.389
500.2430, 995.0420
500.7252, 989.7383
501.2073, 985.0954
501.6894, 980.5335
502.1715, 977.0859
502.6536, 975.2461
503.1357, 975.3055
503.6179, 976.4149
504.1000, 978.7255
504.5821, 981.9236
505.0642, 985.7682
505.5463, 990.5148
506.0284, 995.2168
506.5106, 999.3649
506.9927, 1003.450
507.4748, 1008.898
507.9569, 1015.575
508.4390, 1024.203
508.9211, 1036.034
509.4033, 1050.561
509.8854, 1063.339
510.3675, 1074.161
510.8496, 1084.917
511.3317, 1097.494
511.8138, 1111.542
512.2960, 1125.759
512.7781, 1139.921
513.2602, 1154.595
513.7423, 1170.025
514.2244, 1186.461
514.7065, 1204.512
515.1887, 1224.325
515.6708, 1246.068
516.1529, 1269.225
516.6350, 1293.932
517.1171, 1321.831
517.5992, 1355.388
518.0814, 1390.770
518.5635, 1425.310
519.0456, 1456.787
519.5277, 1490.770
520.0098, 1529.056
520.4919, 1569.072
520.9741, 1607.071
521.4562, 1642.439
521.9383, 1676.638
522.4204, 1712.167
522.9025, 1747.132
523.3846, 1770.416
523.8668, 1782.246
524.3489, 1780.592
524.8310, 1763.803
525.3131, 1732.033
525.7952, 1686.868
526.2773, 1627.435
526.7595, 1559.042
527.2416, 1483.744
527.7237, 1404.946
528.2058, 1329.629
528.6879, 1259.367
529.1700, 1195.690
529.6522, 1140.171
530.1343, 1092.974
530.6164, 1052.815
531.0985, 1021.420
531.5806, 995.5485
532.0627, 974.3383
532.5449, 957.8984
533.0270, 943.3448
533.5091, 930.8239
533.9912, 919.4492
534.4733, 908.7692
534.9554, 897.7350
535.4376, 888.6055
535.9197, 881.9347
536.4018, 876.9240
536.8839, 872.4002
537.3660, 868.1937
537.8481, 864.8563
538.3303, 862.8014
538.8124, 861.7075
539.2945, 859.8530
539.7766, 857.2114
540.2587, 854.0497
540.7408, 849.5649
541.2230, 844.5715
541.7051, 842.8781
542.1872, 845.1061
542.6693, 847.7230
543.1514, 846.7814
543.6335, 843.8132
544.1157, 841.6413
544.5978, 841.4844
545.0799, 841.8956
545.5620, 842.1530
546.0441, 842.2244
546.5262, 842.0277
547.0084, 840.6141
547.4905, 839.7531
547.9726, 840.4764
548.4547, 842.9730
548.9368, 845.0056
549.4189, 845.8707
549.9011, 846.6111
550.3832, 847.8054
550.8653, 849.5708
551.3474, 851.5696
551.8295, 854.0337
552.3116, 856.4053
552.7938, 857.5441
553.2759, 857.2437
553.7580, 857.7626
554.2401, 860.0128
554.7222, 863.1974
555.2043, 865.2948
555.6865, 866.3694
556.1686, 867.2842
556.6507, 868.4083
557.1328, 869.7752
557.6149, 871.2327
558.0970, 872.7758
558.5792, 875.2736
559.0613, 880.6159
559.5434, 886.5972
560.0255, 890.9922
560.5076, 892.9792
560.9897, 893.8021
561.4719, 892.0198
561.9540, 889.6824
562.4361, 890.2108
562.9182, 898.1489
563.4003, 904.2676
563.8824, 905.9084
564.3646, 903.9133
564.8467, 904.6285
565.3288, 909.1037
565.8109, 914.1017
566.2930, 918.0975
566.7751, 921.0358
567.2573, 923.4205
567.7394, 925.0724
568.2215, 927.0428
568.7036, 930.5610
569.1857, 935.3493
569.6678, 940.6938
570.1500, 946.7010
570.6321, 952.4645
571.1142, 956.6063
571.5963, 959.6523
572.0784, 962.7675
572.5605, 966.0863
573.0427, 970.0153
573.5248, 974.9774
574.0069, 980.8555
574.4890, 987.1484
574.9711, 994.6472
575.4532, 1001.643
575.9354, 1006.751
576.4175, 1008.708
576.8996, 1013.175
577.3817, 1021.564
577.8638, 1031.020
578.3459, 1039.081
578.8281, 1045.234
579.3102, 1051.557
579.7923, 1058.230
580.2744, 1065.199
580.7565, 1071.956
581.2386, 1078.563
581.7208, 1086.250
582.2029, 1096.267
582.6850, 1107.180
583.1671, 1116.724
