##NAMES=Svanbergite
##RRUFFID=R060501
##IDEAL CHEMISTRY=SrAl_3_(S^6+^O_4_)(PO_4_)(OH)_6_
##LOCALITY=Dover mine, near Hawthorne, Mineral County, Nevada, USA
##OWNER=RRUFF
##SOURCE=Michael Scott
##DESCRIPTION=Brownish-orange coarsely granular
##STATUS=The identification of this mineral has been confirmed by X-ray diffraction and chemical analysis
##URL=rruff.info/R060501
##MEASURED CHEMISTRY=(Sr_0.63_Ca_0.33_Ba_0.04_)_Î£=1_Al_3.00_[(P_0.50_S_0.50_)O_4_]_2_(OH)_6_
9.059570e+001, 1.076466e+003
9.107782e+001, 1.065892e+003
9.155994e+001, 1.062184e+003
9.204205e+001, 1.070778e+003
9.252417e+001, 1.082532e+003
9.300629e+001, 1.094416e+003
9.348840e+001, 1.099710e+003
9.397052e+001, 1.091656e+003
9.445264e+001, 1.068321e+003
9.493475e+001, 1.043097e+003
9.541687e+001, 1.019975e+003
9.589898e+001, 1.000446e+003
9.638110e+001, 9.829503e+002
9.686321e+001, 9.661288e+002
9.734533e+001, 9.487247e+002
9.782745e+001, 9.292211e+002
9.830956e+001, 9.112997e+002
9.879168e+001, 8.937531e+002
9.927380e+001, 8.787001e+002
9.975591e+001, 8.672454e+002
1.002380e+002, 8.584489e+002
1.007201e+002, 8.502755e+002
1.012023e+002, 8.416280e+002
1.016844e+002, 8.325544e+002
1.021665e+002, 8.235877e+002
1.026486e+002, 8.138416e+002
1.031307e+002, 8.045685e+002
1.036128e+002, 7.971702e+002
1.040950e+002, 7.917955e+002
1.045771e+002, 7.869608e+002
1.050592e+002, 7.808343e+002
1.055413e+002, 7.743723e+002
1.060234e+002, 7.692786e+002
1.065055e+002, 7.664933e+002
1.069877e+002, 7.656242e+002
1.074698e+002, 7.654053e+002
1.079519e+002, 7.677150e+002
1.084340e+002, 7.680818e+002
1.089161e+002, 7.643831e+002
1.093982e+002, 7.573430e+002
1.098804e+002, 7.488113e+002
1.103625e+002, 7.398763e+002
1.108446e+002, 7.300471e+002
1.113267e+002, 7.226236e+002
1.118088e+002, 7.189012e+002
1.122909e+002, 7.162441e+002
1.127731e+002, 7.136197e+002
1.132552e+002, 7.108105e+002
1.137373e+002, 7.080742e+002
1.142194e+002, 7.058086e+002
1.147015e+002, 7.041623e+002
1.151836e+002, 7.027843e+002
1.156658e+002, 7.021260e+002
1.161479e+002, 7.015171e+002
1.166300e+002, 7.002992e+002
1.171121e+002, 6.982272e+002
1.175942e+002, 6.955204e+002
1.180763e+002, 6.925984e+002
1.185584e+002, 6.893019e+002
1.190406e+002, 6.861465e+002
1.195227e+002, 6.833119e+002
1.200048e+002, 6.807392e+002
1.204869e+002, 6.781834e+002
1.209690e+002, 6.753405e+002
1.214511e+002, 6.726797e+002
1.219333e+002, 6.709046e+002
1.224154e+002, 6.701133e+002
1.228975e+002, 6.700123e+002
1.233796e+002, 6.706690e+002
1.238617e+002, 6.722104e+002
1.243438e+002, 6.734037e+002
1.248260e+002, 6.731259e+002
1.253081e+002, 6.723653e+002
1.257902e+002, 6.719646e+002
1.262723e+002, 6.722151e+002
1.267544e+002, 6.729826e+002
1.272365e+002, 6.740901e+002
1.277187e+002, 6.760941e+002
1.282008e+002, 6.774545e+002
1.286829e+002, 6.782326e+002
1.291650e+002, 6.781330e+002
1.296471e+002, 6.767820e+002
1.301292e+002, 6.739464e+002
1.306114e+002, 6.696490e+002
1.310935e+002, 6.641445e+002
1.315756e+002, 6.561058e+002
1.320577e+002, 6.480249e+002
1.325398e+002, 6.402917e+002
1.330219e+002, 6.329992e+002
1.335041e+002, 6.261572e+002
1.339862e+002, 6.196915e+002
1.344683e+002, 6.134865e+002
1.349504e+002, 6.086140e+002
1.354325e+002, 6.058568e+002
1.359146e+002, 6.035128e+002
1.363968e+002, 6.003832e+002
1.368789e+002, 5.964474e+002
1.373610e+002, 5.927911e+002
1.378431e+002, 5.907789e+002
1.383252e+002, 5.907798e+002
1.388073e+002, 5.908087e+002
1.392895e+002, 5.907242e+002
1.397716e+002, 5.906264e+002
1.402537e+002, 5.910239e+002
1.407358e+002, 5.923244e+002
1.412179e+002, 5.929377e+002
1.417000e+002, 5.899938e+002
1.421821e+002, 5.838383e+002
1.426643e+002, 5.781826e+002
1.431464e+002, 5.749308e+002
1.436285e+002, 5.734933e+002
1.441106e+002, 5.716606e+002
1.445927e+002, 5.686277e+002
1.450748e+002, 5.654529e+002
1.455570e+002, 5.630625e+002
1.460391e+002, 5.614719e+002
1.465212e+002, 5.601672e+002
1.470033e+002, 5.586319e+002
1.474854e+002, 5.567946e+002
1.479675e+002, 5.554086e+002
1.484497e+002, 5.555147e+002
1.489318e+002, 5.555385e+002
1.494139e+002, 5.544480e+002
1.498960e+002, 5.520689e+002
1.503781e+002, 5.491774e+002
1.508602e+002, 5.468643e+002
1.513424e+002, 5.450873e+002
1.518245e+002, 5.440524e+002
1.523066e+002, 5.443942e+002
1.527887e+002, 5.449768e+002
1.532708e+002, 5.447224e+002
1.537529e+002, 5.432611e+002
1.542351e+002, 5.412583e+002
1.547172e+002, 5.403809e+002
1.551993e+002, 5.415156e+002
1.556814e+002, 5.428815e+002
1.561635e+002, 5.443640e+002
1.566456e+002, 5.460308e+002
1.571278e+002, 5.480283e+002
1.576099e+002, 5.504495e+002
1.580920e+002, 5.531595e+002
1.585741e+002, 5.555791e+002
1.590562e+002, 5.576061e+002
1.595383e+002, 5.595081e+002
1.600205e+002, 5.610131e+002
1.605026e+002, 5.624016e+002
1.609847e+002, 5.644229e+002
1.614668e+002, 5.676841e+002
1.619489e+002, 5.717953e+002
1.624310e+002, 5.749316e+002
1.629131e+002, 5.764597e+002
1.633953e+002, 5.777055e+002
1.638774e+002, 5.788838e+002
1.643595e+002, 5.801083e+002
1.648416e+002, 5.825577e+002
1.653237e+002, 5.873894e+002
1.658058e+002, 5.939895e+002
1.662880e+002, 6.006971e+002
1.667701e+002, 6.070421e+002
1.672522e+002, 6.137077e+002
1.677343e+002, 6.214193e+002
1.682164e+002, 6.302125e+002
1.686985e+002, 6.398285e+002
1.691807e+002, 6.497425e+002
1.696628e+002, 6.603978e+002
1.701449e+002, 6.726133e+002
1.706270e+002, 6.865740e+002
1.711091e+002, 7.022988e+002
1.715912e+002, 7.197725e+002
1.720734e+002, 7.388135e+002
1.725555e+002, 7.602733e+002
1.730376e+002, 7.837017e+002
1.735197e+002, 8.094900e+002
1.740018e+002, 8.383705e+002
1.744839e+002, 8.706212e+002
1.749661e+002, 9.062253e+002
1.754482e+002, 9.449925e+002
1.759303e+002, 9.911317e+002
1.764124e+002, 1.035912e+003
1.768945e+002, 1.080525e+003
1.773766e+002, 1.122010e+003
1.778588e+002, 1.156007e+003
1.783409e+002, 1.180215e+003
1.788230e+002, 1.194679e+003
1.793051e+002, 1.193075e+003
1.797872e+002, 1.169608e+003
1.802693e+002, 1.136080e+003
1.807515e+002, 1.091455e+003
1.812336e+002, 1.038755e+003
1.817157e+002, 9.835682e+002
1.821978e+002, 9.299517e+002
1.826799e+002, 8.775062e+002
1.831620e+002, 8.319705e+002
1.836441e+002, 7.933831e+002
1.841263e+002, 7.597706e+002
1.846084e+002, 7.310366e+002
1.850905e+002, 7.068044e+002
1.855726e+002, 6.861024e+002
1.860547e+002, 6.684027e+002
1.865368e+002, 6.541681e+002
1.870190e+002, 6.411550e+002
1.875011e+002, 6.291937e+002
1.879832e+002, 6.185891e+002
1.884653e+002, 6.099388e+002
1.889474e+002, 6.032766e+002
1.894296e+002, 5.973841e+002
1.899117e+002, 5.910222e+002
1.903938e+002, 5.842762e+002
1.908759e+002, 5.785505e+002
1.913580e+002, 5.744860e+002
1.918401e+002, 5.713242e+002
1.923223e+002, 5.681731e+002
1.928044e+002, 5.648752e+002
1.932865e+002, 5.618725e+002
1.937686e+002, 5.598455e+002
1.942507e+002, 5.585192e+002
1.947328e+002, 5.571615e+002
1.952150e+002, 5.555259e+002
1.956971e+002, 5.537062e+002
1.961792e+002, 5.518730e+002
1.966613e+002, 5.500330e+002
1.971434e+002, 5.481869e+002
1.976255e+002, 5.461862e+002
1.981077e+002, 5.441371e+002
1.985898e+002, 5.423973e+002
1.990719e+002, 5.411926e+002
1.995540e+002, 5.404498e+002
2.000361e+002, 5.398770e+002
2.005182e+002, 5.394938e+002
2.010004e+002, 5.392675e+002
2.014825e+002, 5.392166e+002
2.019646e+002, 5.392927e+002
2.024467e+002, 5.393742e+002
2.029288e+002, 5.392924e+002
2.034109e+002, 5.390764e+002
2.038930e+002, 5.392344e+002
2.043752e+002, 5.401193e+002
2.048573e+002, 5.410476e+002
2.053394e+002, 5.418190e+002
2.058215e+002, 5.424267e+002
2.063036e+002, 5.429072e+002
2.067857e+002, 5.432722e+002
2.072679e+002, 5.435177e+002
2.077500e+002, 5.437360e+002
2.082321e+002, 5.435867e+002
2.087142e+002, 5.437268e+002
2.091963e+002, 5.444126e+002
2.096784e+002, 5.455856e+002
2.101606e+002, 5.470550e+002
2.106427e+002, 5.486929e+002
2.111248e+002, 5.505210e+002
2.116069e+002, 5.522201e+002
2.120890e+002, 5.538066e+002
2.125711e+002, 5.552597e+002
2.130533e+002, 5.564242e+002
2.135354e+002, 5.574088e+002
2.140175e+002, 5.585096e+002
2.144996e+002, 5.599774e+002
2.149817e+002, 5.618189e+002
2.154638e+002, 5.640976e+002
2.159460e+002, 5.669860e+002
2.164281e+002, 5.700542e+002
2.169102e+002, 5.731687e+002
2.173923e+002, 5.762847e+002
2.178744e+002, 5.793751e+002
2.183565e+002, 5.823444e+002
2.188387e+002, 5.851443e+002
2.193208e+002, 5.884999e+002
2.198029e+002, 5.926288e+002
2.202850e+002, 5.970715e+002
2.207671e+002, 6.013354e+002
2.212492e+002, 6.055043e+002
2.217314e+002, 6.103358e+002
2.222135e+002, 6.166377e+002
2.226956e+002, 6.245361e+002
2.231777e+002, 6.319777e+002
2.236598e+002, 6.384956e+002
2.241419e+002, 6.449124e+002
2.246240e+002, 6.517367e+002
2.251062e+002, 6.590203e+002
2.255883e+002, 6.666311e+002
2.260704e+002, 6.744619e+002
2.265525e+002, 6.825491e+002
2.270346e+002, 6.910955e+002
2.275167e+002, 6.997958e+002
2.279989e+002, 7.091485e+002
2.284810e+002, 7.196672e+002
2.289631e+002, 7.313763e+002
2.294452e+002, 7.435700e+002
2.299273e+002, 7.555932e+002
2.304094e+002, 7.676750e+002
2.308916e+002, 7.805308e+002
2.313737e+002, 7.945344e+002
2.318558e+002, 8.091820e+002
2.323379e+002, 8.239388e+002
2.328200e+002, 8.387892e+002
2.333021e+002, 8.538141e+002
2.337843e+002, 8.687979e+002
2.342664e+002, 8.841183e+002
2.347485e+002, 9.005839e+002
2.352306e+002, 9.191853e+002
2.357127e+002, 9.383505e+002
2.361948e+002, 9.559421e+002
2.366770e+002, 9.717623e+002
2.371591e+002, 9.872361e+002
2.376412e+002, 1.003711e+003
2.381233e+002, 1.020136e+003
2.386054e+002, 1.035481e+003
2.390875e+002, 1.049613e+003
2.395697e+002, 1.062267e+003
2.400518e+002, 1.073146e+003
2.405339e+002, 1.082583e+003
2.410160e+002, 1.089179e+003
2.414981e+002, 1.092780e+003
2.419802e+002, 1.093297e+003
2.424624e+002, 1.090095e+003
2.429445e+002, 1.082773e+003
2.434266e+002, 1.072205e+003
2.439087e+002, 1.059736e+003
2.443908e+002, 1.045282e+003
2.448729e+002, 1.029054e+003
2.453550e+002, 1.009991e+003
2.458372e+002, 9.899648e+002
2.463193e+002, 9.704465e+002
2.468014e+002, 9.518906e+002
2.472835e+002, 9.340916e+002
2.477656e+002, 9.164354e+002
2.482477e+002, 8.989551e+002
2.487299e+002, 8.816513e+002
2.492120e+002, 8.638237e+002
2.496941e+002, 8.465921e+002
2.501762e+002, 8.310693e+002
2.506583e+002, 8.175333e+002
2.511404e+002, 8.051443e+002
2.516226e+002, 7.923223e+002
2.521047e+002, 7.786644e+002
2.525868e+002, 7.656786e+002
2.530689e+002, 7.537380e+002
2.535510e+002, 7.422440e+002
2.540331e+002, 7.305895e+002
2.545153e+002, 7.187001e+002
2.549974e+002, 7.070460e+002
2.554795e+002, 6.963275e+002
2.559616e+002, 6.870273e+002
2.564437e+002, 6.777542e+002
2.569258e+002, 6.681913e+002
2.574080e+002, 6.588452e+002
2.578901e+002, 6.499335e+002
2.583722e+002, 6.415510e+002
2.588543e+002, 6.336785e+002
2.593364e+002, 6.262365e+002
2.598185e+002, 6.189529e+002
2.603007e+002, 6.129299e+002
2.607828e+002, 6.085112e+002
2.612649e+002, 6.047384e+002
2.617470e+002, 6.012369e+002
2.622291e+002, 5.978418e+002
2.627112e+002, 5.944604e+002
2.631934e+002, 5.910174e+002
2.636755e+002, 5.876795e+002
2.641576e+002, 5.835689e+002
2.646397e+002, 5.782159e+002
2.651218e+002, 5.726587e+002
2.656039e+002, 5.673402e+002
2.660861e+002, 5.623669e+002
2.665682e+002, 5.577260e+002
2.670503e+002, 5.534315e+002
2.675324e+002, 5.495451e+002
2.680145e+002, 5.457183e+002
2.684966e+002, 5.418924e+002
2.689788e+002, 5.381641e+002
2.694609e+002, 5.344433e+002
2.699430e+002, 5.308361e+002
2.704251e+002, 5.276784e+002
2.709072e+002, 5.252992e+002
2.713893e+002, 5.237487e+002
2.718715e+002, 5.219642e+002
2.723536e+002, 5.197443e+002
2.728357e+002, 5.175447e+002
2.733178e+002, 5.154988e+002
2.737999e+002, 5.136292e+002
2.742820e+002, 5.119759e+002
2.747642e+002, 5.105883e+002
2.752463e+002, 5.094406e+002
2.757284e+002, 5.082540e+002
2.762105e+002, 5.070248e+002
2.766926e+002, 5.057670e+002
2.771747e+002, 5.045399e+002
2.776568e+002, 5.032827e+002
2.781389e+002, 5.018925e+002
2.786211e+002, 5.003277e+002
2.791032e+002, 4.985699e+002
2.795853e+002, 4.964812e+002
2.800674e+002, 4.939111e+002
2.805495e+002, 4.912593e+002
2.810316e+002, 4.889418e+002
2.815138e+002, 4.865744e+002
2.819959e+002, 4.834287e+002
2.824780e+002, 4.791629e+002
2.829601e+002, 4.740530e+002
2.834422e+002, 4.688284e+002
2.839243e+002, 4.634302e+002
2.844065e+002, 4.580190e+002
2.848886e+002, 4.523761e+002
2.853707e+002, 4.468043e+002
2.858528e+002, 4.416777e+002
2.863349e+002, 4.370867e+002
2.868170e+002, 4.331346e+002
2.872992e+002, 4.300835e+002
2.877813e+002, 4.281127e+002
2.882634e+002, 4.263528e+002
2.887455e+002, 4.247919e+002
2.892276e+002, 4.233394e+002
2.897097e+002, 4.218640e+002
2.901919e+002, 4.203296e+002
2.906740e+002, 4.188934e+002
2.911561e+002, 4.178103e+002
2.916382e+002, 4.171584e+002
2.921203e+002, 4.162506e+002
2.926024e+002, 4.146532e+002
2.930846e+002, 4.129756e+002
2.935667e+002, 4.119005e+002
2.940488e+002, 4.115016e+002
2.945309e+002, 4.112271e+002
2.950130e+002, 4.105827e+002
2.954951e+002, 4.095495e+002
2.959773e+002, 4.085117e+002
2.964594e+002, 4.072326e+002
2.969415e+002, 4.061312e+002
2.974236e+002, 4.056257e+002
2.979057e+002, 4.056906e+002
2.983878e+002, 4.058808e+002
2.988700e+002, 4.059373e+002
2.993521e+002, 4.058467e+002
2.998342e+002, 4.056472e+002
3.003163e+002, 4.055301e+002
3.007984e+002, 4.051377e+002
3.012805e+002, 4.039035e+002
3.017627e+002, 4.020727e+002
3.022448e+002, 4.007904e+002
3.027269e+002, 4.007962e+002
3.032090e+002, 4.016701e+002
3.036911e+002, 4.020865e+002
3.041732e+002, 4.018714e+002
3.046554e+002, 4.015495e+002
3.051375e+002, 4.013945e+002
3.056196e+002, 4.013168e+002
3.061017e+002, 4.009880e+002
3.065838e+002, 4.001492e+002
3.070659e+002, 3.992629e+002
3.075481e+002, 3.993962e+002
3.080302e+002, 4.008300e+002
3.085123e+002, 4.019476e+002
3.089944e+002, 4.020575e+002
3.094765e+002, 4.015496e+002
3.099586e+002, 4.010026e+002
3.104408e+002, 4.005183e+002
3.109229e+002, 4.002193e+002
3.114050e+002, 4.004967e+002
3.118871e+002, 4.014069e+002
3.123692e+002, 4.017047e+002
3.128513e+002, 4.004570e+002
3.133335e+002, 3.987841e+002
3.138156e+002, 3.981704e+002
3.142977e+002, 3.988633e+002
3.147798e+002, 3.997058e+002
3.152619e+002, 3.995121e+002
3.157440e+002, 3.983682e+002
3.162262e+002, 3.977415e+002
3.167083e+002, 3.982260e+002
3.171904e+002, 3.989322e+002
3.176725e+002, 3.991338e+002
3.181546e+002, 3.988244e+002
3.186367e+002, 3.983436e+002
3.191188e+002, 3.978148e+002
3.196010e+002, 3.973163e+002
3.200831e+002, 3.971195e+002
3.205652e+002, 3.975246e+002
3.210473e+002, 3.979232e+002
3.215294e+002, 3.979019e+002
3.220115e+002, 3.975764e+002
3.224937e+002, 3.973444e+002
3.229758e+002, 3.973780e+002
3.234579e+002, 3.976398e+002
3.239400e+002, 3.980695e+002
3.244221e+002, 3.988442e+002
3.249042e+002, 3.993973e+002
3.253864e+002, 3.994504e+002
3.258685e+002, 3.991606e+002
3.263506e+002, 3.987052e+002
3.268327e+002, 3.980541e+002
3.273148e+002, 3.975793e+002
3.277969e+002, 3.980471e+002
3.282791e+002, 3.996458e+002
3.287612e+002, 4.008966e+002
3.292433e+002, 4.012105e+002
3.297254e+002, 4.011820e+002
3.302075e+002, 4.015024e+002
3.306896e+002, 4.022910e+002
3.311718e+002, 4.032638e+002
3.316539e+002, 4.042149e+002
3.321360e+002, 4.051387e+002
3.326181e+002, 4.057867e+002
3.331002e+002, 4.057800e+002
3.335823e+002, 4.057715e+002
3.340645e+002, 4.062208e+002
3.345466e+002, 4.071298e+002
3.350287e+002, 4.083204e+002
3.355108e+002, 4.097375e+002
3.359929e+002, 4.113308e+002
3.364750e+002, 4.127003e+002
3.369572e+002, 4.135157e+002
3.374393e+002, 4.144878e+002
3.379214e+002, 4.161739e+002
3.384035e+002, 4.182571e+002
3.388856e+002, 4.199004e+002
3.393677e+002, 4.206478e+002
3.398499e+002, 4.208772e+002
3.403320e+002, 4.216642e+002
3.408141e+002, 4.236176e+002
3.412962e+002, 4.249510e+002
3.417783e+002, 4.250629e+002
3.422604e+002, 4.244640e+002
3.427426e+002, 4.236610e+002
3.432247e+002, 4.227999e+002
3.437068e+002, 4.221065e+002
3.441889e+002, 4.219416e+002
3.446710e+002, 4.225885e+002
3.451531e+002, 4.229718e+002
3.456353e+002, 4.226771e+002
3.461174e+002, 4.224010e+002
3.465995e+002, 4.228489e+002
3.470816e+002, 4.239784e+002
3.475637e+002, 4.250196e+002
3.480458e+002, 4.251596e+002
3.485280e+002, 4.243201e+002
3.490101e+002, 4.245892e+002
3.494922e+002, 4.270952e+002
3.499743e+002, 4.293808e+002
3.504564e+002, 4.300311e+002
3.509385e+002, 4.296127e+002
3.514207e+002, 4.295659e+002
3.519028e+002, 4.307576e+002
3.523849e+002, 4.328910e+002
3.528670e+002, 4.347162e+002
3.533491e+002, 4.355693e+002
3.538312e+002, 4.369342e+002
3.543134e+002, 4.393642e+002
3.547955e+002, 4.422491e+002
3.552776e+002, 4.449698e+002
3.557597e+002, 4.472959e+002
3.562418e+002, 4.492532e+002
3.567239e+002, 4.508952e+002
3.572061e+002, 4.521352e+002
3.576882e+002, 4.531831e+002
3.581703e+002, 4.536870e+002
3.586524e+002, 4.542762e+002
3.591345e+002, 4.552807e+002
3.596166e+002, 4.567834e+002
3.600987e+002, 4.587800e+002
3.605808e+002, 4.613004e+002
3.610630e+002, 4.643760e+002
3.615451e+002, 4.676837e+002
3.620272e+002, 4.712126e+002
3.625093e+002, 4.749533e+002
3.629914e+002, 4.790526e+002
3.634735e+002, 4.833665e+002
3.639557e+002, 4.876081e+002
3.644378e+002, 4.916291e+002
3.649199e+002, 4.954068e+002
3.654020e+002, 4.988598e+002
3.658841e+002, 5.022185e+002
3.663662e+002, 5.048475e+002
3.668484e+002, 5.067516e+002
3.673305e+002, 5.079015e+002
3.678126e+002, 5.084279e+002
3.682947e+002, 5.083277e+002
3.687768e+002, 5.072065e+002
3.692589e+002, 5.042327e+002
3.697411e+002, 4.986638e+002
3.702232e+002, 4.932305e+002
3.707053e+002, 4.879306e+002
3.711874e+002, 4.828423e+002
3.716695e+002, 4.779086e+002
3.721516e+002, 4.731899e+002
3.726338e+002, 4.687492e+002
3.731159e+002, 4.646239e+002
3.735980e+002, 4.608261e+002
3.740801e+002, 4.575905e+002
3.745622e+002, 4.551773e+002
3.750443e+002, 4.530573e+002
3.755265e+002, 4.511232e+002
3.760086e+002, 4.493233e+002
3.764907e+002, 4.476019e+002
3.769728e+002, 4.459089e+002
3.774549e+002, 4.443042e+002
3.779370e+002, 4.427746e+002
3.784192e+002, 4.410183e+002
3.789013e+002, 4.402268e+002
3.793834e+002, 4.418042e+002
3.798655e+002, 4.438102e+002
3.803476e+002, 4.445727e+002
3.808297e+002, 4.437764e+002
3.813119e+002, 4.427826e+002
3.817940e+002, 4.429023e+002
3.822761e+002, 4.441209e+002
3.827582e+002, 4.457670e+002
3.832403e+002, 4.479880e+002
3.837224e+002, 4.503774e+002
3.842046e+002, 4.527370e+002
3.846867e+002, 4.550315e+002
3.851688e+002, 4.572096e+002
3.856509e+002, 4.588123e+002
3.861330e+002, 4.603304e+002
3.866151e+002, 4.630592e+002
3.870973e+002, 4.672774e+002
3.875794e+002, 4.716618e+002
3.880615e+002, 4.749601e+002
3.885436e+002, 4.781185e+002
3.890257e+002, 4.825918e+002
3.895078e+002, 4.889110e+002
3.899900e+002, 4.961229e+002
3.904721e+002, 5.034361e+002
3.909542e+002, 5.109143e+002
3.914363e+002, 5.187698e+002
3.919184e+002, 5.268502e+002
3.924005e+002, 5.356677e+002
3.928827e+002, 5.460001e+002
3.933648e+002, 5.578820e+002
3.938469e+002, 5.701494e+002
3.943290e+002, 5.821126e+002
3.948111e+002, 5.942378e+002
3.952932e+002, 6.071890e+002
3.957754e+002, 6.212097e+002
3.962575e+002, 6.357294e+002
3.967396e+002, 6.507294e+002
3.972217e+002, 6.660382e+002
3.977038e+002, 6.801836e+002
3.981859e+002, 6.938466e+002
3.986681e+002, 7.058334e+002
3.991501e+002, 7.159819e+002
3.996323e+002, 7.239568e+002
4.001144e+002, 7.287593e+002
4.005965e+002, 7.299704e+002
4.010786e+002, 7.275666e+002
4.015607e+002, 7.210374e+002
4.020428e+002, 7.099930e+002
4.025250e+002, 6.963430e+002
4.030071e+002, 6.796774e+002
4.034892e+002, 6.608837e+002
4.039713e+002, 6.404029e+002
4.044534e+002, 6.185829e+002
4.049355e+002, 5.967612e+002
4.054177e+002, 5.764500e+002
4.058998e+002, 5.579067e+002
4.063819e+002, 5.405427e+002
4.068640e+002, 5.243824e+002
4.073461e+002, 5.092709e+002
4.078282e+002, 4.947961e+002
4.083104e+002, 4.812425e+002
4.087925e+002, 4.693542e+002
4.092746e+002, 4.595536e+002
4.097567e+002, 4.515470e+002
4.102388e+002, 4.437798e+002
4.107209e+002, 4.359555e+002
4.112031e+002, 4.288482e+002
4.116852e+002, 4.225741e+002
4.121673e+002, 4.169919e+002
4.126494e+002, 4.119750e+002
4.131315e+002, 4.074806e+002
4.136136e+002, 4.035088e+002
4.140958e+002, 4.001039e+002
4.145779e+002, 3.973308e+002
