##NAMES=Svanbergite
##RRUFFID=R050549
##IDEAL CHEMISTRY=SrAl_3_(S^6+^O_4_)(PO_4_)(OH)_6_
##LOCALITY=Horrsjoberg, Varmland, Sweden
##OWNER=RRUFF
##SOURCE=University of Arizona Mineral Museum
##DESCRIPTION=Orange-brown crystals embedded in a matrix of pyrophyllite, quartz and kyanite
##STATUS=The identification of this mineral has been confirmed by X-ray diffraction and chemical analysis
##URL=rruff.info/R050549
##MEASURED CHEMISTRY=(Sr_0.85_Ca_0.15_)_Σ=1_Al_3.00_[(P_0.56_S_0.44_)_Σ=1_O_4_]_2_((OH)_5.88_(H_2_O)_0.12_)_Σ=6_ ; (OH) and H_2_O estimated by charge balance
92.37695, 297.6416
92.85907, 293.9116
93.34119, 294.8802
93.82330, 298.2728
94.30542, 300.4102
94.78754, 299.9801
95.26965, 297.8608
95.75177, 296.1939
96.23389, 296.5898
96.71600, 297.2946
97.19812, 296.9262
97.68024, 295.3110
98.16235, 293.0496
98.64447, 290.7770
99.12659, 288.3546
99.60870, 285.6503
100.0908, 283.2188
100.5729, 281.3391
101.0551, 280.2725
101.5372, 280.1564
102.0193, 280.7542
102.5014, 281.0244
102.9835, 281.2469
103.4656, 280.7576
103.9478, 278.8339
104.4299, 276.0660
104.9120, 273.5358
105.3941, 272.1091
105.8762, 271.8723
106.3583, 271.7386
106.8405, 271.8492
107.3226, 271.8478
107.8047, 271.4574
108.2868, 270.6754
108.7689, 269.7855
109.2510, 269.0392
109.7332, 268.4234
110.2153, 268.1331
110.6974, 268.4093
111.1795, 268.9686
111.6616, 269.3863
112.1437, 269.5411
112.6259, 269.5966
113.1080, 269.7527
113.5901, 270.0001
114.0722, 270.1998
114.5543, 270.2224
115.0364, 270.0780
115.5185, 269.9964
116.0007, 270.1431
116.4828, 270.2742
116.9649, 270.2745
117.4470, 270.1205
117.9291, 269.7955
118.4112, 269.0633
118.8934, 267.2846
119.3755, 266.7604
119.8576, 269.0233
120.3397, 271.7444
120.8218, 272.9778
121.3039, 271.9486
121.7861, 269.4421
122.2682, 267.7216
122.7503, 268.0534
123.2324, 267.8585
123.7145, 266.7137
124.1966, 264.9666
124.6788, 263.0371
125.1609, 261.0884
125.6430, 259.2104
126.1251, 258.2068
126.6072, 258.8019
127.0893, 259.3235
127.5715, 258.9745
128.0536, 257.8728
128.5357, 256.7188
129.0178, 255.9787
129.4999, 255.6383
129.9821, 255.3611
130.4642, 255.3676
130.9463, 255.3083
131.4284, 254.6962
131.9105, 253.3902
132.3926, 252.1209
132.8748, 251.5324
133.3569, 251.3730
133.8390, 251.2555
134.3211, 250.8788
134.8032, 250.3960
135.2853, 250.4097
135.7674, 251.4262
136.2496, 252.2537
136.7317, 252.3042
137.2138, 251.7161
137.6959, 250.8539
138.1780, 249.8391
138.6601, 248.6050
139.1423, 247.9425
139.6244, 248.6967
140.1065, 249.3415
140.5886, 249.1886
141.0707, 248.2843
141.5528, 247.1616
142.0350, 246.4575
142.5171, 246.3815
142.9992, 246.2058
143.4813, 245.7812
143.9634, 245.3746
144.4455, 245.0472
144.9277, 244.8522
145.4098, 244.9662
145.8919, 245.7202
146.3740, 247.6312
146.8561, 249.2590
147.3382, 250.2060
147.8204, 250.9533
148.3025, 252.2132
148.7846, 254.3212
149.2667, 256.7261
149.7488, 258.1130
150.2309, 258.0943
150.7131, 258.5799
151.1952, 260.1631
151.6773, 262.7875
152.1594, 266.2926
152.6415, 270.7907
153.1236, 276.1118
153.6058, 281.8580
154.0879, 288.1232
154.5700, 294.4484
155.0521, 300.3990
155.5342, 305.9347
156.0163, 311.5114
156.4985, 317.1641
156.9806, 322.9588
157.4627, 329.1553
157.9448, 335.9491
158.4269, 342.5606
158.9090, 347.6191
159.3912, 350.2641
159.8733, 353.4737
160.3554, 358.2563
160.8375, 363.7129
161.3196, 369.0642
161.8017, 373.9315
162.2839, 378.6246
162.7660, 383.9782
163.2481, 389.8695
163.7302, 396.7916
164.2123, 404.9279
164.6944, 414.0247
165.1766, 423.6806
165.6587, 433.7096
166.1408, 444.1674
166.6229, 455.7691
167.1050, 468.7868
167.5871, 482.6515
168.0693, 497.2614
168.5514, 512.6852
169.0335, 528.9900
169.5156, 546.0339
169.9977, 564.0944
170.4798, 584.7776
170.9620, 608.4001
171.4441, 633.6625
171.9262, 660.1346
172.4083, 687.7226
172.8904, 716.7649
173.3725, 748.1798
173.8547, 781.2640
174.3368, 811.4902
174.8189, 842.2876
175.3010, 868.1455
175.7831, 885.7747
176.2652, 895.1779
176.7474, 894.3403
177.2295, 879.3998
177.7116, 852.4514
178.1937, 818.1761
178.6758, 772.4401
179.1579, 721.6075
179.6401, 673.8748
180.1222, 629.2070
180.6043, 588.5775
181.0864, 553.0151
181.5685, 521.5507
182.0506, 493.6332
182.5328, 469.1391
183.0149, 448.0027
183.4970, 430.0409
183.9791, 416.3513
184.4612, 404.6460
184.9433, 393.8980
185.4255, 384.0825
185.9076, 375.1352
186.3897, 367.1744
186.8718, 360.1232
187.3539, 353.3028
187.8360, 346.3756
188.3182, 340.0890
188.8003, 334.6692
189.2824, 330.0453
189.7645, 326.0837
190.2466, 322.7901
190.7287, 320.1877
191.2109, 317.3737
191.6930, 314.4090
192.1751, 311.1599
192.6572, 307.2136
193.1393, 302.8880
193.6214, 298.8781
194.1036, 295.8114
194.5857, 293.7310
195.0678, 292.2613
195.5499, 291.8661
196.0320, 291.5100
196.5141, 290.5782
196.9963, 289.1613
197.4784, 287.8405
197.9605, 287.2050
198.4426, 287.3882
198.9247, 287.2292
199.4068, 286.1416
199.8890, 285.1832
200.3711, 285.2697
200.8532, 286.3958
201.3353, 287.5552
201.8174, 287.6836
202.2995, 286.7160
202.7817, 286.5161
203.2638, 287.7095
203.7459, 289.3781
204.2280, 290.5805
204.7101, 291.1961
205.1922, 291.9152
205.6744, 293.4339
206.1565, 295.6349
206.6386, 297.9919
207.1207, 300.4215
207.6028, 302.9488
208.0849, 305.6186
208.5671, 308.4647
209.0492, 311.3901
209.5313, 314.1540
210.0134, 316.9200
210.4955, 320.1270
210.9776, 324.2756
211.4598, 328.9454
211.9419, 333.2125
212.4240, 336.9262
212.9061, 340.4703
213.3882, 343.5404
213.8703, 346.6174
214.3525, 350.7334
214.8346, 357.0666
215.3167, 364.8386
215.7988, 370.8948
216.2809, 373.8339
216.7630, 377.2300
217.2451, 382.6004
217.7273, 389.3956
218.2094, 396.6910
218.6915, 403.9803
219.1736, 411.3027
219.6557, 418.8373
220.1378, 426.6883
220.6200, 434.6100
221.1021, 442.5201
221.5842, 450.4232
222.0663, 458.3872
222.5484, 466.4178
223.0305, 474.5157
223.5127, 482.6857
223.9948, 490.0411
224.4769, 498.4312
224.9590, 509.0206
225.4411, 520.8799
225.9232, 532.3817
226.4054, 542.4613
226.8875, 551.2204
227.3696, 560.6201
227.8517, 570.8925
228.3338, 581.5323
228.8159, 592.5076
229.2981, 603.7727
229.7802, 615.1116
230.2623, 626.4030
230.7444, 637.7304
231.2265, 649.7863
231.7086, 662.9506
232.1908, 676.3456
232.6729, 690.2838
233.1550, 704.3156
233.6371, 717.7565
234.1192, 730.2230
234.6013, 741.7159
235.0835, 752.0745
235.5656, 761.8060
236.0477, 770.2150
236.5298, 777.3974
237.0119, 783.0938
237.4940, 786.8682
237.9762, 788.4764
238.4583, 787.9137
238.9404, 785.1156
239.4225, 780.7983
239.9046, 774.0900
240.3867, 764.0790
240.8689, 751.4069
241.3510, 737.4843
241.8331, 722.6837
242.3152, 707.3978
242.7973, 692.7252
243.2794, 679.1481
243.7616, 665.3656
244.2437, 650.4180
244.7258, 634.8275
245.2079, 620.2115
245.6900, 607.3785
246.1721, 595.8191
246.6543, 584.2937
247.1364, 572.8004
247.6185, 561.4305
248.1006, 550.0828
248.5827, 538.8876
249.0648, 528.1467
249.5470, 517.9187
250.0291, 508.2096
250.5112, 498.9044
250.9933, 489.9245
251.4754, 481.4882
251.9576, 474.0027
252.4397, 467.2410
252.9218, 459.8115
253.4039, 450.7081
253.8860, 441.7352
254.3681, 435.0489
254.8503, 430.6193
255.3324, 426.3121
255.8145, 420.5692
256.2966, 413.7426
256.7787, 407.6565
257.2608, 402.8586
257.7430, 398.6345
258.2251, 394.3000
258.7072, 389.9073
259.1893, 385.7865
259.6714, 382.0620
260.1535, 378.7630
260.6357, 376.1049
261.1178, 374.6541
261.5999, 373.1399
262.0820, 370.3763
262.5641, 366.8105
263.0462, 363.8233
263.5284, 362.7831
264.0105, 363.2776
264.4926, 362.7542
264.9747, 360.6166
265.4568, 358.2534
265.9389, 356.0126
266.4211, 354.0706
266.9032, 352.8091
267.3853, 352.6450
267.8674, 353.3255
268.3495, 353.7857
268.8316, 354.0872
269.3138, 354.0200
269.7959, 353.1904
270.2780, 352.0647
270.7601, 351.4203
271.2422, 351.8432
271.7243, 352.8509
272.2065, 352.6888
272.6886, 350.2788
273.1707, 348.5331
273.6528, 348.4373
274.1349, 349.2488
274.6170, 350.2144
275.0992, 351.0355
275.5813, 351.6649
276.0634, 352.0429
276.5455, 352.4576
277.0276, 351.9913
277.5097, 350.3886
277.9919, 348.0659
278.4740, 345.5319
278.9561, 342.9504
279.4382, 339.8758
279.9203, 335.2525
280.4024, 328.1114
280.8846, 321.4917
281.3667, 316.2054
281.8488, 311.1593
282.3309, 305.3146
282.8130, 298.5125
283.2951, 291.7345
283.7773, 286.5289
284.2594, 283.5836
284.7415, 280.5601
285.2236, 277.0134
285.7057, 273.6647
286.1878, 270.9587
286.6700, 268.9427
287.1521, 267.3404
287.6342, 265.8026
288.1163, 264.2227
288.5984, 263.2014
289.0805, 263.1893
289.5627, 263.2845
290.0448, 263.1212
290.5269, 262.6871
291.0090, 262.1422
291.4911, 261.6240
291.9732, 261.1362
292.4554, 260.6369
292.9375, 260.6041
293.4196, 260.0861
293.9017, 258.6283
294.3838, 256.4259
294.8659, 253.8318
295.3481, 251.0051
295.8302, 248.0179
296.3123, 246.0054
296.7944, 246.0400
297.2765, 245.9479
297.7586, 245.1849
298.2408, 244.0600
298.7229, 243.0639
299.2050, 242.4697
299.6871, 242.2089
300.1692, 242.0314
300.6513, 242.1964
301.1335, 242.1217
301.6156, 241.4806
302.0977, 240.6932
302.5798, 240.2780
303.0619, 240.4330
303.5440, 240.8475
304.0262, 240.8461
304.5083, 239.9226
304.9904, 239.3397
305.4725, 239.2188
305.9546, 239.3485
306.4367, 239.7010
306.9189, 240.2085
307.4010, 240.5832
307.8831, 240.3245
308.3652, 238.8130
308.8473, 238.3466
309.3294, 239.8758
309.8116, 241.5018
310.2937, 241.9643
310.7758, 241.2835
311.2579, 240.3531
311.7400, 240.1048
312.2221, 240.7113
312.7043, 240.7297
313.1864, 239.4159
313.6685, 238.3280
314.1506, 238.2133
314.6327, 238.8524
315.1148, 239.5806
315.5970, 239.8951
316.0791, 239.8499
316.5612, 240.1874
317.0433, 241.6451
317.5254, 242.6694
318.0075, 242.5554
318.4897, 241.8769
318.9718, 241.5553
319.4539, 242.0788
319.9360, 243.1355
320.4181, 243.7249
320.9002, 243.2850
321.3824, 243.0483
321.8645, 243.0582
322.3466, 243.3033
322.8287, 243.9127
323.3108, 244.8863
323.7929, 245.8745
324.2751, 246.2137
324.7572, 245.2495
325.2393, 244.9059
325.7214, 245.6581
326.2035, 246.5871
326.6856, 247.0405
327.1678, 246.9631
327.6499, 246.7285
328.1320, 246.6778
328.6141, 246.7095
329.0962, 247.4947
329.5783, 249.5677
330.0605, 251.7757
330.5426, 253.8776
331.0247, 255.7258
331.5068, 257.0211
331.9889, 257.4321
332.4710, 257.0612
332.9532, 257.5848
333.4353, 259.9414
333.9174, 262.2327
334.3995, 264.4659
334.8816, 266.3195
335.3637, 267.1553
335.8459, 266.6054
336.3280, 265.3559
336.8101, 265.5371
337.2922, 268.7604
337.7743, 271.0421
338.2564, 271.8194
338.7386, 271.7680
339.2206, 271.1998
339.7028, 270.3057
340.1849, 269.5628
340.6670, 269.8319
341.1491, 271.8389
341.6312, 273.0295
342.1133, 272.9060
342.5955, 272.4919
343.0776, 272.1810
343.5597, 272.0856
344.0418, 272.2529
344.5239, 272.7600
345.0060, 273.6262
345.4882, 274.4946
345.9703, 275.5931
346.4524, 276.4592
346.9345, 276.7769
347.4166, 276.7865
347.8987, 276.8619
348.3809, 277.1856
348.8630, 277.8205
349.3451, 279.0897
349.8272, 281.7236
350.3093, 283.8694
350.7914, 285.0612
351.2736, 285.7157
351.7557, 286.0628
352.2378, 286.1968
352.7199, 286.4920
353.2020, 287.5954
353.6841, 289.6717
354.1663, 292.0736
354.6484, 294.9741
355.1305, 297.9850
355.6126, 300.9438
356.0947, 303.8029
356.5768, 306.5167
357.0590, 308.8037
357.5411, 310.5981
358.0232, 313.3800
358.5053, 318.4769
358.9874, 323.0872
359.4695, 325.6577
359.9517, 326.8948
360.4338, 328.2727
360.9159, 330.6238
361.3980, 333.7356
361.8801, 337.1101
362.3622, 341.0388
362.8444, 344.5316
363.3265, 347.6335
363.8086, 350.0005
364.2907, 350.9662
364.7728, 350.1638
365.2549, 348.8945
365.7371, 349.0838
366.2192, 350.9701
366.7013, 352.0925
367.1834, 351.3018
367.6655, 349.9905
368.1476, 349.4485
368.6298, 349.6406
369.1119, 349.1857
369.5940, 346.3206
370.0761, 341.7352
370.5582, 338.8251
371.0403, 338.2628
371.5225, 338.7405
372.0046, 339.6849
372.4867, 340.9193
372.9688, 342.0400
373.4509, 342.6301
373.9330, 343.1785
374.4152, 344.4177
374.8973, 346.3789
375.3794, 348.7140
375.8615, 351.1486
376.3436, 353.9320
376.8257, 357.4924
377.3079, 362.1085
377.7900, 366.9192
378.2721, 371.5612
378.7542, 375.9473
379.2363, 379.4616
379.7184, 381.3958
380.2006, 383.3304
380.6827, 387.6143
381.1648, 394.1500
381.6469, 400.4911
382.1290, 405.7741
382.6111, 410.4749
383.0933, 415.0051
383.5754, 419.3979
384.0575, 424.3214
384.5396, 430.6055
385.0217, 438.0609
385.5038, 445.0993
385.9860, 451.3118
386.4681, 457.3919
386.9502, 463.6664
387.4323, 470.1246
387.9144, 476.8274
388.3965, 483.8059
388.8787, 490.9859
389.3608, 498.1802
389.8429, 505.4701
390.3250, 512.6879
390.8071, 519.8932
391.2892, 526.9703
391.7714, 534.0889
392.2535, 541.2202
392.7356, 547.4847
393.2177, 551.7137
393.6998, 553.4539
394.1819, 555.0215
394.6641, 557.6341
395.1462, 559.0200
395.6283, 558.0780
396.1104, 554.8093
396.5925, 549.5441
397.0746, 542.4191
397.5568, 533.5658
398.0389, 523.3366
398.5210, 511.3322
399.0031, 498.4555
399.4852, 483.9548
399.9673, 468.9831
400.4495, 454.6420
400.9316, 441.3264
401.4137, 428.6291
401.8958, 415.8702
402.3779, 402.6733
402.8600, 390.5263
403.3422, 379.8285
403.8243, 369.5908
404.3064, 358.9639
404.7885, 348.2828
405.2706, 338.6503
405.7527, 331.0953
406.2349, 325.3260
406.7170, 319.3361
407.1991, 312.4254
407.6812, 306.4068
408.1633, 302.2853
408.6454, 298.9373
409.1276, 295.0420
409.6097, 290.1229
410.0918, 284.9056
410.5739, 280.4441
411.0560, 276.8710
411.5381, 273.4356
412.0203, 269.9167
412.5024, 266.6417
412.9845, 263.9399
413.4666, 261.7307
413.9487, 259.5588
414.4308, 256.9929
414.9130, 254.2063
415.3951, 251.9389
415.8772, 250.4264
416.3593, 248.8535
416.8414, 246.4394
417.3235, 243.7801
417.8057, 241.7741
418.2878, 240.8940
418.7699, 240.1970
419.2520, 238.5868
419.7341, 236.1863
420.2162, 234.1842
420.6984, 232.9686
421.1805, 232.2854
421.6626, 231.9492
422.1447, 231.9657
422.6268, 231.7408
423.1089, 230.8358
423.5911, 229.6654
424.0732, 228.7867
424.5553, 228.2634
425.0374, 227.9054
425.5195, 227.6855
426.0016, 227.5207
426.4838, 226.9533
426.9659, 225.5817
427.4480, 224.2457
427.9301, 223.3039
428.4122, 222.6785
428.8943, 222.2739
429.3765, 222.0782
429.8586, 221.9014
430.3407, 221.3891
430.8228, 220.2734
431.3049, 219.4099
431.7870, 218.7820
432.2692, 218.4309
432.7513, 218.5583
433.2334, 219.0534
433.7155, 219.5005
434.1976, 219.5820
434.6797, 219.3044
435.1619, 218.7427
435.6440, 216.9913
436.1261, 216.0116
436.6082, 216.7050
437.0903, 218.0955
437.5724, 218.9909
438.0546, 218.9878
438.5367, 218.6808
439.0188, 219.0557
439.5009, 220.3897
439.9830, 221.5056
440.4651, 222.5172
440.9473, 223.1793
441.4294, 222.9892
441.9115, 222.3023
442.3936, 222.0970
442.8757, 223.2253
443.3578, 225.1865
443.8400, 226.0599
444.3221, 225.1485
444.8042, 224.9141
445.2863, 227.0654
445.7684, 229.8617
446.2505, 231.5859
446.7327, 231.8324
447.2148, 231.9315
447.6969, 232.9398
448.1790, 234.7775
448.6611, 237.2397
449.1432, 240.8205
449.6254, 243.9690
450.1075, 244.6463
450.5896, 243.6787
451.0717, 243.6479
451.5538, 245.9595
452.0359, 248.9799
452.5181, 251.1171
453.0002, 252.4860
453.4823, 253.8457
453.9644, 255.3949
454.4465, 257.3118
454.9286, 260.1939
455.4108, 264.4072
455.8929, 268.2379
456.3750, 270.7147
456.8571, 272.9247
457.3392, 276.1443
457.8214, 280.5096
458.3035, 285.2719
458.7856, 289.7894
459.2677, 294.0649
459.7498, 298.6618
460.2319, 303.5766
460.7141, 308.7619
461.1962, 314.2367
461.6783, 319.9718
462.1604, 325.9330
462.6425, 332.1045
463.1246, 338.3907
463.6068, 344.6694
464.0889, 350.9879
464.5710, 357.0703
465.0531, 362.4816
465.5352, 368.0591
466.0173, 374.2585
466.4995, 380.9891
466.9816, 387.9550
467.4637, 395.0456
467.9458, 402.1562
468.4279, 408.9833
468.9100, 415.5238
469.3922, 421.8510
469.8743, 427.8942
470.3564, 433.8333
470.8385, 439.7527
471.3206, 445.6700
471.8027, 451.6442
472.2849, 457.2913
472.7670, 462.9789
473.2491, 470.5429
473.7312, 481.0726
474.2133, 490.7734
474.6954, 495.7292
475.1776, 497.8534
475.6597, 501.5211
476.1418, 508.5473
476.6239, 515.8649
477.1060, 521.4832
477.5881, 525.6609
478.0703, 529.2308
478.5524, 532.3932
479.0345, 535.2303
479.5166, 538.1902
479.9987, 541.8787
480.4808, 542.4797
480.9630, 538.3910
481.4451, 532.3130
481.9272, 525.5812
482.4093, 518.4498
482.8914, 511.2612
483.3735, 504.2964
483.8557, 497.0746
484.3378, 487.7910
484.8199, 474.6502
485.3020, 461.9128
485.7841, 450.1743
486.2662, 438.5317
486.7484, 426.1796
487.2305, 413.0736
487.7126, 399.8290
488.1947, 386.6707
488.6768, 373.6686
489.1589, 361.9850
489.6411, 352.2106
490.1232, 342.8327
490.6053, 333.2944
491.0874, 323.8388
491.5695, 314.6635
492.0516, 305.8047
492.5338, 297.5930
493.0159, 290.6835
493.4980, 284.9132
493.9801, 278.9787
494.4622, 272.4457
494.9443, 266.2114
495.4265, 261.2282
495.9086, 257.1496
496.3907, 253.1634
496.8728, 248.9160
497.3549, 244.8206
497.8370, 241.2226
498.3192, 238.0822
498.8013, 235.2401
499.2834, 232.6320
499.7655, 230.3398
500.2476, 228.5191
500.7297, 227.2709
501.2119, 226.1436
501.6940, 225.0144
502.1761, 224.0764
502.6582, 223.4458
503.1403, 223.1246
503.6224, 223.0124
504.1045, 223.0154
504.5866, 223.2866
505.0688, 224.3975
505.5509, 226.8924
506.0330, 229.4290
506.5151, 232.0306
506.9972, 234.5747
507.4793, 236.8240
507.9615, 238.8717
508.4436, 241.2022
508.9257, 244.4412
509.4078, 248.3327
509.8899, 251.0345
510.3720, 251.8719
510.8542, 253.0063
511.3363, 255.6725
511.8184, 258.8091
512.3005, 261.0992
512.7827, 262.1819
513.2648, 263.9095
513.7469, 268.2922
514.2290, 274.4098
514.7111, 279.2484
515.1932, 282.0300
515.6754, 285.5399
516.1575, 292.3069
516.6396, 301.7086
517.1217, 310.3423
517.6038, 316.8349
518.0859, 323.9837
518.5681, 333.4083
519.0502, 344.2362
519.5323, 355.0123
520.0144, 365.3702
520.4965, 375.7187
520.9786, 386.7268
521.4608, 398.7681
521.9429, 409.1960
522.4250, 420.1864
522.9071, 427.6332
523.3892, 430.0731
523.8713, 428.0009
524.3535, 422.1344
524.8356, 412.8264
525.3177, 400.1642
525.7998, 383.8613
526.2819, 363.1993
526.7640, 342.5639
527.2462, 321.3019
527.7283, 301.2682
528.2104, 283.1439
528.6925, 266.9219
529.1746, 252.4140
529.6567, 239.5865
530.1389, 228.3717
530.6210, 218.8615
531.1031, 211.0349
531.5852, 204.6819
532.0673, 200.1877
532.5494, 196.4779
533.0316, 191.9825
533.5137, 186.7837
533.9958, 182.6038
534.4779, 180.1593
534.9600, 178.5598
535.4421, 177.3302
535.9243, 176.3535
536.4064, 175.3634
536.8885, 174.2334
537.3706, 173.0502
537.8527, 172.0186
538.3348, 171.2691
538.8170, 170.3911
539.2991, 169.1462
539.7812, 168.0002
540.2633, 167.0998
540.7454, 166.5245
541.2275, 166.4408
541.7097, 167.0184
542.1918, 167.9299
542.6739, 168.3092
543.1560, 168.0387
543.6381, 167.6106
544.1202, 166.8579
544.6024, 166.1891
545.0845, 165.8487
545.5666, 165.8313
546.0487, 166.0325
546.5308, 166.7105
547.0129, 167.4126
547.4951, 167.2163
547.9772, 166.1516
548.4593, 165.3949
548.9414, 165.4900
549.4235, 166.0904
549.9056, 166.5900
550.3878, 166.9407
550.8699, 167.4538
551.3520, 168.3937
551.8341, 169.3561
552.3162, 169.8017
552.7983, 169.9191
553.2805, 170.5552
553.7626, 172.2833
554.2447, 174.5476
554.7268, 175.6876
555.2089, 174.7675
555.6910, 174.3664
556.1732, 174.8451
556.6553, 175.5421
557.1374, 176.1867
557.6195, 176.6957
558.1016, 176.9277
558.5837, 176.6322
559.0659, 176.2388
559.5480, 176.8660
560.0301, 178.6712
560.5122, 180.5852
560.9943, 182.6752
561.4764, 184.3835
561.9586, 184.9027
562.4407, 184.3390
562.9228, 184.3108
563.4049, 185.9563
563.8870, 188.0538
564.3691, 189.1418
564.8513, 189.4026
565.3334, 190.0567
565.8155, 191.7316
566.2976, 193.8582
566.7797, 195.3336
567.2618, 195.6531
567.7440, 196.4891
568.2261, 198.0257
568.7082, 199.8958
569.1903, 202.1590
569.6724, 204.5652
570.1545, 206.7011
570.6367, 208.3395
571.1188, 209.5361
571.6009, 210.2271
572.0830, 210.1142
572.5651, 210.6661
573.0472, 212.3799
573.5294, 214.4876
574.0115, 216.7690
574.4936, 219.1141
574.9757, 221.1913
575.4578, 222.4246
575.9399, 223.9359
576.4221, 227.6218
576.9042, 232.9849
577.3863, 237.1179
577.8684, 238.9994
578.3505, 239.9417
578.8326, 241.2465
579.3148, 242.9324
579.7969, 245.2170
580.2790, 248.6098
580.7611, 252.0756
581.2432, 255.0688
581.7253, 257.8124
582.2075, 260.8132
582.6896, 264.2078
583.1717, 267.6742
583.6538, 270.7200
584.1359, 273.2704
584.6180, 275.9323
