##NAMES=Sylvanite
##RRUFFID=R070504
##IDEAL CHEMISTRY=AgAuTe_4_
##LOCALITY=Boulder County, Colorado, USA
##OWNER=RRUFF
##SOURCE=James Shigley
##DESCRIPTION=Columnar light yellow metallic crystals associated with quartz
##STATUS=The identification of this mineral has been confirmed by single-crystal X-ray diffraction.
##URL=rruff.info/R070504
136.1740, 885.9606
136.6561, 917.3704
137.1382, 951.5203
137.6203, 985.5285
138.1024, 1015.848
138.5845, 1042.022
139.0667, 1067.902
139.5488, 1096.701
140.0309, 1129.693
140.5130, 1154.180
140.9951, 1166.522
141.4772, 1173.679
141.9594, 1191.747
142.4415, 1227.452
142.9236, 1260.585
143.4057, 1281.728
143.8878, 1286.444
144.3699, 1289.277
144.8521, 1285.397
145.3342, 1279.281
145.8163, 1294.651
146.2984, 1349.872
146.7805, 1407.089
147.2626, 1441.980
147.7448, 1436.346
148.2269, 1435.336
148.7090, 1442.812
149.1911, 1458.889
149.6732, 1483.579
150.1554, 1532.887
150.6375, 1582.872
151.1196, 1610.278
151.6017, 1580.415
152.0838, 1562.561
152.5659, 1572.344
153.0481, 1618.342
153.5302, 1659.088
154.0123, 1700.829
154.4944, 1734.328
154.9765, 1746.875
155.4586, 1726.791
155.9408, 1694.054
156.4229, 1653.562
156.9050, 1592.036
157.3871, 1530.126
157.8692, 1478.953
158.3513, 1437.287
158.8335, 1400.579
159.3156, 1372.939
159.7977, 1346.354
160.2798, 1316.046
160.7619, 1272.558
161.2440, 1236.206
161.7262, 1216.198
162.2083, 1209.415
162.6904, 1202.622
163.1725, 1189.880
163.6546, 1175.604
164.1367, 1163.361
164.6189, 1155.558
165.1010, 1148.550
165.5831, 1140.285
166.0652, 1130.799
166.5473, 1122.043
167.0294, 1113.545
167.5116, 1106.800
167.9937, 1103.743
168.4758, 1109.965
168.9579, 1116.755
169.4400, 1116.956
169.9221, 1109.516
170.4043, 1102.312
170.8864, 1101.950
171.3685, 1105.563
171.8506, 1107.823
172.3327, 1104.786
172.8148, 1099.840
173.2970, 1097.686
173.7791, 1100.506
174.2612, 1100.077
174.7433, 1083.232
175.2254, 1055.875
175.7076, 1035.178
176.1897, 1037.284
176.6718, 1050.514
177.1539, 1057.967
177.6360, 1055.312
178.1181, 1048.729
178.6003, 1044.085
179.0824, 1041.344
179.5645, 1040.471
180.0466, 1045.707
180.5287, 1052.679
181.0108, 1050.736
181.4930, 1032.117
181.9751, 1008.436
182.4572, 1000.261
182.9393, 1007.132
183.4214, 1016.130
183.9035, 1015.495
184.3857, 1007.574
184.8678, 1000.025
185.3499, 994.6713
185.8320, 991.4866
186.3141, 991.3520
186.7962, 994.5020
187.2784, 998.1862
187.7605, 999.3579
188.2426, 998.3257
188.7247, 997.0634
189.2068, 995.6440
189.6889, 994.4839
190.1711, 995.2151
190.6532, 997.8428
191.1353, 1002.266
191.6174, 1011.557
192.0995, 1025.189
192.5816, 1032.201
193.0638, 1021.130
193.5459, 995.3598
194.0280, 984.6311
194.5101, 992.9377
194.9922, 1009.499
195.4743, 1015.198
195.9565, 1009.423
196.4386, 1003.297
196.9207, 1005.866
197.4028, 1016.744
197.8849, 1016.441
198.3671, 999.6970
198.8492, 975.5533
199.3313, 966.0186
199.8134, 973.1507
200.2955, 983.4453
200.7776, 988.4485
201.2598, 987.8196
201.7419, 988.1224
202.2240, 991.8617
202.7061, 996.1743
203.1882, 988.3802
203.6703, 964.1799
204.1525, 941.8132
204.6346, 936.6306
205.1167, 951.4080
205.5988, 964.4979
206.0809, 972.2673
206.5630, 975.5475
207.0452, 978.8621
207.5273, 982.0920
208.0094, 985.6597
208.4915, 990.4672
208.9736, 997.1078
209.4557, 1002.281
209.9379, 1005.634
210.4200, 1007.119
210.9021, 1005.442
211.3842, 999.9293
211.8663, 992.4267
212.3484, 983.5955
212.8306, 971.3608
213.3127, 965.1077
213.7948, 969.5086
214.2769, 985.1055
214.7590, 992.8154
215.2411, 989.5278
215.7233, 982.2237
216.2054, 979.9695
216.6875, 984.7988
217.1696, 989.2587
217.6517, 991.7486
218.1338, 992.4460
218.6160, 988.7386
219.0981, 977.1600
219.5802, 964.3027
220.0623, 961.6603
220.5444, 974.9628
221.0265, 985.9720
221.5087, 988.0591
221.9908, 978.6771
222.4729, 970.7061
222.9550, 961.9060
223.4371, 955.9225
223.9192, 961.7655
224.4014, 988.7584
224.8835, 1009.743
225.3656, 1011.480
225.8477, 983.6835
226.3298, 969.2759
226.8119, 973.3492
227.2941, 988.4456
227.7762, 998.3989
228.2583, 1002.375
228.7404, 1002.239
229.2225, 997.7947
229.7046, 985.5924
230.1868, 977.6092
230.6689, 975.3481
231.1510, 976.9865
231.6331, 977.1984
232.1152, 973.7198
232.5974, 972.1688
233.0795, 976.4778
233.5616, 993.3411
234.0437, 1000.442
234.5258, 992.7750
235.0079, 975.3021
235.4901, 965.3006
235.9722, 965.5816
236.4543, 969.4410
236.9364, 974.1147
237.4185, 982.0137
237.9006, 985.3708
238.3828, 982.0577
238.8649, 973.7772
239.3470, 967.8961
239.8291, 965.9766
240.3112, 964.4249
240.7933, 960.3644
241.2755, 949.3734
241.7576, 945.6310
242.2397, 954.0195
242.7218, 971.2814
243.2039, 979.2745
243.6860, 973.2982
244.1682, 964.0092
244.6503, 957.6036
245.1324, 953.0820
245.6145, 953.9958
246.0966, 964.3232
246.5787, 981.5831
247.0609, 987.8976
247.5430, 976.5833
248.0251, 962.8185
248.5072, 957.1722
248.9893, 963.2066
249.4714, 969.8443
249.9536, 976.4849
250.4357, 982.9455
250.9178, 987.7200
251.3999, 991.0185
251.8820, 992.3152
252.3641, 990.6977
252.8463, 984.1616
253.3284, 979.2245
253.8105, 976.5806
254.2926, 976.2070
254.7747, 978.8084
255.2568, 987.4362
255.7390, 995.0547
256.2211, 995.0372
256.7032, 982.0817
257.1853, 974.7417
257.6674, 978.4854
258.1495, 991.7208
258.6317, 995.8201
259.1138, 985.6234
259.5959, 973.5612
260.0780, 971.2079
260.5601, 984.2281
261.0422, 991.5623
261.5244, 987.2172
262.0065, 972.8112
262.4886, 968.5952
262.9707, 979.7262
263.4528, 992.8477
263.9349, 995.6420
264.4171, 983.1570
264.8992, 974.9732
265.3813, 975.8091
265.8634, 984.4598
266.3455, 987.9742
266.8276, 983.7233
267.3098, 979.1265
267.7919, 982.0432
268.2740, 995.9442
268.7561, 1004.356
269.2382, 1002.157
269.7203, 991.2393
270.2025, 986.8915
270.6846, 991.4213
271.1667, 997.7206
271.6488, 999.5500
272.1309, 996.0440
272.6130, 991.6522
273.0952, 985.9459
273.5773, 979.8351
274.0594, 980.2903
274.5415, 989.3322
275.0236, 999.4651
275.5057, 1004.367
275.9879, 1003.763
276.4700, 999.4238
276.9521, 989.4786
277.4342, 976.1626
277.9163, 971.3881
278.3984, 976.5364
278.8806, 985.4051
279.3627, 994.7394
279.8448, 1004.963
280.3269, 1008.441
280.8090, 1001.173
281.2911, 986.7690
281.7733, 979.0738
282.2554, 978.8693
282.7375, 981.3533
283.2196, 981.1662
283.7017, 978.3159
284.1838, 982.5305
284.6660, 999.9282
285.1481, 1023.075
285.6302, 1027.696
286.1123, 1012.057
286.5944, 993.2701
287.0765, 985.8171
287.5587, 988.7194
288.0408, 990.6390
288.5229, 989.4583
289.0050, 986.1031
289.4871, 981.2413
289.9692, 974.7277
290.4514, 971.3821
290.9335, 978.0016
291.4156, 992.3338
291.8977, 1001.606
292.3798, 1002.744
292.8619, 998.8345
293.3441, 994.3469
293.8262, 989.3427
294.3083, 986.4394
294.7904, 988.8687
295.2726, 995.0875
295.7547, 1000.762
296.2368, 1006.249
296.7189, 1008.918
297.2010, 1000.356
297.6831, 982.5267
298.1653, 969.4832
298.6474, 975.6272
299.1295, 993.0961
299.6116, 1005.135
300.0937, 1008.631
300.5758, 1006.633
301.0580, 1000.293
301.5401, 990.7672
302.0222, 982.9689
302.5043, 981.0424
302.9864, 982.5972
303.4685, 984.1040
303.9507, 985.1169
304.4328, 985.8288
304.9149, 986.4572
305.3970, 986.9585
305.8791, 987.2037
306.3612, 987.8471
306.8434, 987.8835
307.3255, 984.8493
307.8076, 976.9660
308.2897, 971.8033
308.7718, 978.5707
309.2539, 992.8886
309.7361, 1005.034
310.2182, 1012.072
310.7003, 1013.766
311.1824, 1007.715
311.6645, 991.9941
312.1466, 977.8023
312.6288, 970.8712
313.1109, 970.2353
313.5930, 973.9624
314.0751, 988.0179
314.5572, 1001.351
315.0393, 1006.062
315.5215, 1000.622
316.0036, 994.2062
316.4857, 989.2291
316.9678, 986.2303
317.4499, 985.7759
317.9320, 991.5456
318.4142, 996.9407
318.8963, 998.9856
319.3784, 997.3749
319.8605, 994.6647
320.3426, 991.5116
320.8247, 987.7014
321.3069, 983.0629
321.7890, 972.2018
322.2711, 965.6182
322.7532, 968.8174
323.2353, 981.9836
323.7174, 991.9677
324.1996, 994.4568
324.6817, 993.7745
325.1638, 993.2871
325.6459, 995.8068
326.1280, 995.9612
326.6101, 990.8745
327.0923, 981.0865
327.5744, 975.4051
328.0565, 978.1733
328.5386, 982.5560
329.0207, 984.4569
329.5028, 979.8019
329.9850, 978.0500
330.4671, 981.6964
330.9492, 989.3149
331.4313, 993.5276
331.9134, 992.1564
332.3955, 989.6849
332.8777, 988.4998
333.3598, 990.0782
333.8419, 989.8353
334.3240, 985.8159
334.8061, 980.2108
335.2882, 980.1270
335.7704, 989.7659
336.2525, 997.5889
336.7346, 997.8660
337.2167, 988.0350
337.6988, 979.3691
338.1809, 972.2147
338.6631, 965.7896
339.1452, 957.2449
339.6273, 944.1710
340.1094, 937.2045
340.5915, 943.8343
341.0736, 965.5133
341.5558, 976.0007
342.0379, 972.1340
342.5200, 964.2560
343.0021, 969.2565
343.4842, 988.2405
343.9663, 1002.244
344.4485, 1002.186
344.9306, 990.6070
345.4127, 982.9549
345.8948, 979.5158
346.3769, 978.1854
346.8590, 976.4791
347.3412, 974.6833
347.8233, 975.1220
348.3054, 979.5885
348.7875, 986.2145
349.2696, 990.8344
349.7517, 993.3936
350.2339, 994.3668
350.7160, 992.5668
351.1981, 989.3575
351.6802, 988.6807
352.1623, 993.4784
352.6444, 998.6752
353.1266, 993.6260
353.6087, 980.7331
354.0908, 974.0052
354.5729, 992.2616
355.0550, 1019.425
355.5371, 1032.338
356.0193, 1022.544
356.5014, 1007.060
356.9835, 1000.398
357.4656, 999.6893
357.9477, 997.5277
358.4298, 985.3467
358.9120, 973.0604
359.3941, 969.6941
359.8762, 978.3495
360.3583, 987.9941
360.8404, 995.4720
361.3225, 999.6414
361.8047, 998.8115
362.2868, 980.7659
362.7689, 967.0950
363.2510, 972.2929
363.7331, 1000.293
364.2152, 1021.334
364.6974, 1021.618
365.1795, 1012.298
365.6616, 1004.749
366.1437, 1000.041
366.6258, 998.4213
367.1079, 1003.467
367.5901, 1015.092
368.0722, 1018.095
368.5543, 1000.697
369.0364, 980.6736
369.5185, 969.9932
370.0006, 974.1409
370.4828, 980.5499
370.9649, 990.6766
371.4470, 1003.019
371.9291, 1010.963
372.4112, 1014.923
372.8933, 1013.950
373.3755, 1006.119
373.8576, 984.9953
374.3397, 973.0661
374.8218, 973.5095
375.3039, 981.6711
375.7861, 987.5400
376.2682, 990.1082
376.7503, 992.9708
377.2324, 998.8478
377.7145, 1008.351
378.1967, 1011.174
378.6788, 1005.878
379.1609, 996.9585
379.6430, 989.8877
380.1251, 984.7712
380.6072, 980.8808
381.0894, 977.2490
381.5715, 974.7410
382.0536, 978.4225
382.5357, 988.9993
383.0178, 999.6507
383.4999, 1003.420
383.9821, 1001.572
384.4642, 999.3804
384.9463, 997.1442
385.4284, 996.3391
385.9105, 1002.249
386.3926, 1013.563
386.8748, 1020.435
387.3569, 1012.322
387.8390, 996.3224
388.3211, 982.6852
388.8032, 971.7594
389.2853, 966.9122
389.7675, 976.2255
390.2496, 994.2892
390.7317, 1007.689
391.2138, 1006.809
391.6959, 1000.476
392.1780, 994.4644
392.6602, 989.1205
393.1423, 986.0505
393.6244, 987.6604
394.1065, 991.4946
394.5886, 994.5000
395.0707, 996.6503
395.5529, 996.8820
396.0350, 993.3505
396.5171, 986.1176
396.9992, 981.4026
397.4813, 983.6009
397.9634, 987.0660
398.4456, 987.8787
398.9277, 979.0262
399.4098, 975.0309
399.8919, 980.2203
400.3740, 992.1800
400.8561, 1000.652
401.3383, 1003.445
401.8204, 1005.005
402.3025, 1007.534
402.7846, 1013.256
403.2667, 1014.396
403.7488, 1008.875
404.2310, 1000.216
404.7131, 994.2966
405.1952, 991.3165
405.6773, 990.7802
406.1594, 993.3983
406.6415, 999.1575
407.1237, 1003.194
407.6058, 1005.831
408.0879, 1005.744
408.5700, 998.1242
409.0521, 982.7708
409.5342, 976.7635
410.0164, 988.1149
410.4985, 1008.667
410.9806, 1016.215
411.4627, 1010.743
411.9448, 1003.453
412.4269, 1003.428
412.9091, 1008.091
413.3912, 1009.746
413.8733, 1006.406
414.3554, 1002.260
414.8375, 1002.434
415.3196, 1005.961
415.8018, 1009.987
416.2839, 1014.773
416.7660, 1018.335
417.2481, 1017.805
417.7302, 1012.778
418.2123, 1007.310
418.6945, 1000.656
419.1766, 996.1170
419.6587, 997.9719
420.1408, 1018.573
420.6229, 1035.894
421.1050, 1037.588
421.5872, 1025.402
422.0693, 1014.593
422.5514, 1010.327
423.0335, 1008.663
423.5156, 1007.170
423.9977, 1005.874
424.4799, 1004.203
424.9620, 1000.102
425.4441, 995.5856
425.9262, 995.6884
426.4083, 1005.503
426.8904, 1014.176
427.3726, 1017.934
427.8547, 1015.362
428.3368, 1014.207
428.8189, 1015.502
429.3010, 1017.184
429.7831, 1016.940
430.2653, 1014.615
430.7474, 1010.767
431.2295, 1004.324
431.7116, 996.4623
432.1937, 993.7726
432.6758, 996.7037
433.1580, 1002.755
433.6401, 1013.268
434.1222, 1027.174
434.6043, 1031.268
435.0864, 1021.298
435.5685, 1006.541
436.0507, 1000.613
436.5328, 1002.936
437.0149, 1010.008
437.4970, 1026.671
437.9791, 1044.830
438.4612, 1048.086
438.9434, 1034.979
439.4255, 1020.485
439.9076, 1017.032
440.3897, 1020.590
440.8718, 1024.862
441.3539, 1031.499
441.8361, 1034.667
442.3182, 1026.478
442.8003, 1009.983
443.2824, 999.5322
443.7645, 1007.930
444.2466, 1020.244
444.7288, 1026.081
445.2109, 1019.954
445.6930, 1015.370
446.1751, 1017.649
446.6572, 1022.825
447.1393, 1024.129
447.6215, 1015.419
448.1036, 1008.151
448.5857, 1004.289
449.0678, 1003.656
449.5499, 1008.949
450.0320, 1025.694
450.5142, 1042.581
450.9963, 1049.870
451.4784, 1044.573
451.9605, 1037.557
452.4426, 1028.536
452.9247, 1019.419
453.4069, 1015.713
453.8890, 1017.840
454.3711, 1023.311
454.8532, 1033.185
455.3353, 1046.722
455.8174, 1053.808
456.2996, 1053.412
456.7817, 1049.376
457.2638, 1045.313
457.7459, 1041.458
458.2281, 1038.766
458.7102, 1037.261
459.1923, 1037.344
459.6744, 1041.256
460.1565, 1048.454
460.6386, 1053.537
461.1208, 1049.580
461.6029, 1043.061
462.0850, 1042.650
462.5671, 1054.423
463.0492, 1062.519
463.5313, 1053.348
464.0135, 1034.518
464.4956, 1021.038
464.9777, 1019.015
465.4598, 1022.183
465.9419, 1029.539
466.4240, 1041.745
466.9062, 1051.395
467.3883, 1057.819
467.8704, 1060.874
468.3525, 1060.289
468.8346, 1052.096
469.3167, 1046.012
469.7989, 1043.914
470.2810, 1044.344
470.7631, 1041.765
471.2452, 1033.767
471.7273, 1027.575
472.2094, 1027.516
472.6916, 1034.570
473.1737, 1038.186
473.6558, 1037.900
474.1379, 1035.495
474.6200, 1033.008
475.1021, 1030.459
475.5843, 1026.786
476.0664, 1019.317
476.5485, 1012.351
477.0306, 1020.193
477.5127, 1041.159
477.9948, 1056.583
478.4770, 1046.092
478.9591, 1023.480
479.4412, 1010.839
479.9233, 1012.402
480.4054, 1020.043
480.8875, 1032.623
481.3697, 1045.961
481.8518, 1052.886
482.3339, 1044.600
482.8160, 1034.214
483.2981, 1027.561
483.7802, 1024.784
484.2624, 1024.551
484.7445, 1028.590
485.2266, 1033.561
485.7087, 1037.419
486.1908, 1040.703
486.6729, 1041.738
487.1551, 1039.053
487.6372, 1034.505
488.1193, 1031.642
488.6014, 1030.923
489.0835, 1031.180
489.5656, 1031.882
490.0478, 1033.020
490.5299, 1036.644
491.0120, 1043.496
491.4941, 1051.081
491.9762, 1058.880
492.4583, 1066.846
492.9405, 1067.521
493.4226, 1057.164
493.9047, 1043.490
494.3868, 1042.029
494.8689, 1051.031
495.3510, 1058.502
495.8332, 1057.091
496.3153, 1050.264
496.7974, 1041.083
497.2795, 1029.472
497.7616, 1022.680
498.2437, 1032.772
498.7259, 1048.361
499.2080, 1054.998
499.6901, 1039.466
500.1722, 1025.660
500.6543, 1027.316
501.1364, 1039.551
501.6186, 1049.199
502.1007, 1052.693
502.5828, 1052.727
503.0649, 1049.765
503.5470, 1042.850
504.0291, 1036.812
504.5113, 1031.657
504.9934, 1027.424
505.4755, 1023.907
505.9576, 1020.150
506.4397, 1019.506
506.9218, 1023.437
507.4040, 1030.431
507.8861, 1035.347
508.3682, 1037.684
508.8503, 1040.279
509.3324, 1043.850
509.8145, 1048.615
510.2967, 1059.500
510.7788, 1078.238
511.2609, 1092.286
511.7430, 1080.830
512.2252, 1053.188
512.7073, 1036.697
513.1894, 1045.086
513.6715, 1060.263
514.1536, 1062.252
514.6357, 1054.349
515.1179, 1047.963
515.6000, 1050.346
516.0821, 1055.754
516.5642, 1060.868
517.0463, 1065.644
517.5284, 1068.134
518.0106, 1066.006
518.4927, 1062.066
518.9748, 1059.086
519.4569, 1059.271
519.9390, 1058.232
520.4211, 1054.867
520.9033, 1049.882
521.3854, 1045.662
521.8675, 1041.372
522.3496, 1039.268
522.8317, 1040.674
523.3138, 1045.966
523.7960, 1051.757
524.2781, 1059.120
524.7602, 1064.292
525.2423, 1060.710
525.7244, 1049.314
526.2065, 1043.314
526.6887, 1047.139
527.1708, 1055.589
527.6529, 1060.650
528.1350, 1062.651
528.6171, 1063.201
529.0992, 1060.232
529.5814, 1057.849
530.0635, 1063.038
530.5456, 1076.569
531.0277, 1086.226
531.5098, 1078.150
531.9919, 1065.417
532.4741, 1061.079
532.9562, 1083.004
533.4383, 1095.809
533.9204, 1080.660
534.4025, 1049.535
534.8846, 1034.229
535.3668, 1051.311
535.8489, 1069.018
536.3310, 1079.449
536.8131, 1082.140
537.2952, 1082.177
537.7773, 1077.575
538.2595, 1073.772
538.7416, 1077.611
539.2237, 1090.647
539.7058, 1093.762
540.1879, 1081.970
540.6700, 1064.950
541.1522, 1060.495
541.6343, 1067.103
542.1164, 1073.638
542.5985, 1073.219
543.0806, 1070.210
543.5627, 1072.648
544.0449, 1080.005
544.5270, 1086.054
545.0091, 1085.939
545.4912, 1082.709
545.9733, 1079.120
546.4554, 1075.051
546.9376, 1072.355
547.4197, 1072.854
547.9018, 1074.939
548.3839, 1076.283
548.8660, 1079.154
549.3481, 1078.253
549.8303, 1068.958
550.3124, 1052.976
550.7945, 1046.644
551.2766, 1056.029
551.7587, 1065.801
552.2408, 1066.941
552.7230, 1057.156
553.2051, 1052.423
553.6872, 1053.092
554.1693, 1057.966
554.6514, 1068.202
555.1335, 1082.928
555.6157, 1092.538
556.0978, 1093.441
556.5799, 1089.430
557.0620, 1085.959
557.5441, 1082.786
558.0262, 1078.844
558.5084, 1071.236
558.9905, 1064.017
559.4726, 1061.669
559.9547, 1064.804
560.4368, 1067.830
560.9189, 1066.462
561.4011, 1064.658
561.8832, 1065.842
562.3653, 1077.113
562.8474, 1083.471
563.3295, 1079.703
563.8116, 1070.330
564.2938, 1063.415
564.7759, 1057.656
565.2580, 1056.972
565.7401, 1064.560
566.2222, 1079.457
566.7043, 1088.858
567.1865, 1092.489
567.6686, 1091.350
568.1507, 1082.547
568.6328, 1068.156
569.1149, 1062.036
569.5970, 1066.480
570.0792, 1075.395
570.5613, 1085.077
571.0434, 1093.530
571.5255, 1096.020
572.0076, 1085.382
572.4897, 1073.286
572.9719, 1068.328
573.4540, 1069.539
573.9361, 1073.512
574.4182, 1083.432
574.9003, 1091.953
575.3824, 1094.455
575.8646, 1089.022
576.3467, 1085.027
576.8288, 1083.435
577.3109, 1083.419
577.7930, 1084.818
578.2751, 1089.440
578.7573, 1090.829
579.2394, 1087.340
579.7215, 1081.438
580.2036, 1078.456
580.6857, 1078.687
581.1678, 1078.305
581.6500, 1074.127
582.1321, 1068.808
582.6142, 1072.339
583.0963, 1084.079
583.5784, 1093.499
584.0605, 1091.477
584.5427, 1083.146
585.0248, 1074.099
585.5069, 1064.354
585.9890, 1058.091
586.4711, 1060.022
586.9532, 1066.042
587.4354, 1071.393
587.9175, 1075.473
588.3996, 1078.039
588.8817, 1077.968
589.3638, 1076.157
589.8459, 1076.000
590.3281, 1080.394
590.8102, 1081.886
591.2923, 1076.012
591.7744, 1062.740
592.2565, 1058.188
592.7386, 1063.992
593.2208, 1072.774
593.7029, 1079.364
594.1850, 1083.772
594.6671, 1085.663
595.1492, 1084.715
595.6313, 1082.507
596.1135, 1080.436
596.5956, 1078.591
597.0777, 1077.131
597.5598, 1077.055
598.0419, 1076.550
598.5240, 1073.962
599.0062, 1069.828
599.4883, 1065.965
599.9704, 1061.767
600.4525, 1059.052
600.9346, 1058.823
601.4167, 1061.460
601.8989, 1064.930
602.3810, 1068.286
602.8631, 1073.241
603.3452, 1082.837
603.8273, 1100.576
604.3094, 1106.960
604.7916, 1096.732
605.2737, 1081.134
605.7558, 1080.795
606.2379, 1094.252
606.7200, 1103.055
607.2021, 1098.592
607.6843, 1087.989
608.1664, 1082.399
608.6485, 1081.087
609.1306, 1080.142
609.6127, 1076.395
610.0948, 1072.635
610.5770, 1071.154
611.0591, 1072.207
611.5412, 1074.601
612.0233, 1078.783
612.5054, 1083.605
612.9875, 1088.209
613.4697, 1096.641
613.9518, 1098.431
614.4339, 1089.097
614.9160, 1076.050
615.3981, 1072.242
615.8802, 1080.284
616.3624, 1086.786
616.8445, 1088.110
617.3266, 1085.658
617.8087, 1083.936
618.2908, 1082.826
618.7729, 1079.666
619.2551, 1068.301
619.7372, 1055.608
620.2193, 1054.416
620.7014, 1065.254
621.1835, 1076.767
621.6656, 1082.163
622.1478, 1083.987
622.6299, 1083.992
623.1120, 1080.305
623.5941, 1079.622
624.0762, 1087.295
624.5583, 1097.765
625.0405, 1102.954
625.5226, 1099.113
626.0047, 1096.061
626.4868, 1096.026
626.9689, 1097.597
627.4510, 1094.389
627.9332, 1084.849
628.4153, 1079.371
628.8974, 1086.933
629.3795, 1102.481
629.8616, 1104.084
630.3438, 1091.943
630.8259, 1081.848
631.3080, 1091.916
631.7901, 1109.444
632.2722, 1115.551
632.7543, 1104.433
633.2365, 1094.036
633.7186, 1095.360
634.2007, 1102.166
