##NAMES=Sylvanite
##RRUFFID=R070504
##IDEAL CHEMISTRY=AgAuTe_4_
##LOCALITY=Boulder County, Colorado, USA
##OWNER=RRUFF
##SOURCE=James Shigley
##DESCRIPTION=Columnar light yellow metallic crystals associated with quartz
##STATUS=The identification of this mineral has been confirmed by single-crystal X-ray diffraction.
##URL=rruff.info/R070504
115.1325, 820.4404
115.6146, 855.0108
116.0967, 876.0685
116.5788, 890.5362
117.0610, 900.6091
117.5431, 907.5043
118.0252, 914.8185
118.5073, 927.3176
118.9894, 948.3130
119.4715, 967.3500
119.9537, 974.7247
120.4358, 984.6860
120.9179, 1013.373
121.4000, 1065.415
121.8821, 1129.295
122.3642, 1187.421
122.8464, 1238.618
123.3285, 1288.282
123.8106, 1329.640
124.2927, 1371.584
124.7748, 1430.495
125.2569, 1514.175
125.7391, 1608.890
126.2212, 1684.896
126.7033, 1732.824
127.1854, 1795.783
127.6675, 1898.104
128.1496, 2027.833
128.6317, 2159.460
129.1139, 2292.936
129.5960, 2411.253
130.0781, 2487.702
130.5602, 2515.583
131.0423, 2527.249
131.5244, 2543.646
132.0066, 2561.626
132.4887, 2561.218
132.9708, 2530.865
133.4529, 2478.360
133.9350, 2417.679
134.4171, 2344.310
134.8993, 2273.110
135.3814, 2213.819
135.8635, 2166.645
136.3456, 2132.838
136.8277, 2114.598
137.3098, 2110.859
137.7920, 2121.070
138.2741, 2147.119
138.7562, 2183.458
139.2383, 2224.614
139.7204, 2270.256
140.2025, 2321.237
140.6847, 2380.368
141.1668, 2443.812
141.6489, 2508.512
142.1310, 2572.469
142.6131, 2638.737
143.0952, 2713.212
143.5774, 2798.289
144.0595, 2885.561
144.5416, 2969.207
145.0237, 3054.113
145.5058, 3148.772
145.9879, 3260.495
146.4701, 3377.031
146.9522, 3470.920
147.4343, 3540.498
147.9164, 3588.316
148.3985, 3620.250
148.8806, 3633.962
149.3628, 3622.573
149.8449, 3577.678
150.3270, 3512.019
150.8091, 3469.543
151.2912, 3478.505
151.7733, 3467.295
152.2555, 3406.366
152.7376, 3318.900
153.2197, 3236.554
153.7018, 3179.094
154.1839, 3138.940
154.6660, 3077.913
155.1481, 2977.986
155.6303, 2878.300
156.1124, 2782.202
156.5945, 2693.365
157.0766, 2616.691
157.5587, 2556.324
158.0408, 2510.344
158.5230, 2463.830
159.0051, 2405.388
159.4872, 2359.143
159.9693, 2332.534
160.4514, 2311.711
160.9335, 2290.147
161.4157, 2268.655
161.8978, 2247.300
162.3799, 2226.584
162.8620, 2217.740
163.3441, 2198.054
163.8262, 2154.608
164.3084, 2097.701
164.7905, 2045.744
165.2726, 2012.422
165.7547, 1996.646
166.2368, 1974.508
166.7189, 1936.470
167.2011, 1902.875
167.6832, 1884.327
168.1653, 1874.353
168.6474, 1859.170
169.1295, 1827.926
169.6116, 1781.219
170.0938, 1744.509
170.5759, 1724.773
171.0580, 1706.507
171.5401, 1684.075
172.0222, 1659.278
172.5043, 1636.784
172.9865, 1619.944
173.4686, 1608.699
173.9507, 1598.916
174.4328, 1590.384
174.9149, 1582.981
175.3970, 1577.932
175.8792, 1574.042
176.3613, 1568.669
176.8434, 1559.711
177.3255, 1547.128
177.8076, 1534.313
178.2897, 1518.159
178.7719, 1504.548
179.2540, 1495.718
179.7361, 1491.206
180.2182, 1489.622
180.7003, 1490.056
181.1824, 1492.501
181.6646, 1496.587
182.1467, 1510.536
182.6288, 1517.853
183.1109, 1507.327
183.5930, 1484.055
184.0751, 1462.075
184.5573, 1451.741
185.0394, 1452.799
185.5215, 1451.497
186.0036, 1447.153
186.4857, 1441.788
186.9678, 1437.378
187.4500, 1432.820
187.9321, 1424.385
188.4142, 1408.522
188.8963, 1385.900
189.3784, 1371.092
189.8605, 1368.152
190.3427, 1367.020
190.8248, 1363.470
191.3069, 1358.401
191.7890, 1355.228
192.2711, 1356.752
192.7532, 1362.235
193.2354, 1362.927
193.7175, 1354.697
194.1996, 1347.075
194.6817, 1344.731
195.1638, 1346.056
195.6459, 1346.677
196.1281, 1344.021
196.6102, 1338.388
197.0923, 1331.786
197.5744, 1322.435
198.0565, 1314.264
198.5386, 1308.960
199.0208, 1305.886
199.5029, 1303.589
199.9850, 1301.314
200.4671, 1299.084
200.9492, 1296.904
201.4313, 1296.480
201.9135, 1294.310
202.3956, 1289.091
202.8777, 1281.354
203.3598, 1270.895
203.8419, 1256.454
204.3240, 1240.810
204.8061, 1236.791
205.2883, 1256.696
205.7704, 1271.592
206.2525, 1270.458
206.7346, 1259.421
207.2167, 1250.254
207.6988, 1248.902
208.1810, 1252.060
208.6631, 1248.706
209.1452, 1230.183
209.6273, 1216.956
210.1094, 1218.185
210.5915, 1226.417
211.0737, 1229.115
211.5558, 1220.573
212.0379, 1205.608
212.5200, 1196.356
213.0021, 1194.003
213.4842, 1194.909
213.9664, 1202.110
214.4485, 1211.283
214.9306, 1216.654
215.4127, 1216.074
215.8948, 1211.206
216.3769, 1205.116
216.8591, 1198.072
217.3412, 1189.394
217.8233, 1175.175
218.3054, 1160.840
218.7875, 1153.392
219.2696, 1154.937
219.7518, 1161.157
220.2339, 1165.281
220.7160, 1167.272
221.1981, 1166.773
221.6802, 1161.895
222.1623, 1155.491
222.6445, 1150.158
223.1266, 1146.504
223.6087, 1143.870
224.0908, 1141.367
224.5729, 1138.757
225.0550, 1137.084
225.5372, 1137.173
226.0193, 1137.630
226.5014, 1137.693
226.9835, 1137.120
227.4656, 1135.447
227.9477, 1131.713
228.4298, 1124.465
228.9120, 1121.438
229.3941, 1129.199
229.8762, 1135.641
230.3583, 1130.128
230.8404, 1113.935
231.3225, 1098.527
231.8047, 1095.169
232.2868, 1106.166
232.7689, 1112.509
233.2510, 1113.327
233.7331, 1111.239
234.2152, 1105.789
234.6974, 1098.156
235.1795, 1090.948
235.6616, 1085.654
236.1437, 1082.202
236.6258, 1085.865
237.1079, 1107.231
237.5901, 1123.761
238.0722, 1125.921
238.5543, 1117.373
239.0364, 1106.493
239.5185, 1098.371
240.0006, 1092.801
240.4828, 1087.841
240.9649, 1081.198
241.4470, 1077.801
241.9291, 1085.060
242.4112, 1094.832
242.8933, 1092.870
243.3755, 1070.882
243.8576, 1037.180
244.3397, 1020.914
244.8218, 1039.990
245.3039, 1055.734
245.7860, 1065.219
246.2682, 1069.905
246.7503, 1070.677
247.2324, 1067.991
247.7145, 1063.625
248.1966, 1061.938
248.6787, 1068.568
249.1609, 1068.008
249.6430, 1052.435
250.1251, 1034.568
250.6072, 1024.080
251.0893, 1023.484
251.5714, 1029.629
252.0535, 1039.037
252.5357, 1055.167
253.0178, 1065.882
253.4999, 1071.166
253.9820, 1071.674
254.4641, 1065.078
254.9462, 1052.649
255.4284, 1040.235
255.9105, 1035.007
256.3926, 1038.832
256.8747, 1039.137
257.3568, 1031.427
257.8390, 1023.996
258.3211, 1018.432
258.8032, 1015.668
259.2853, 1017.531
259.7674, 1028.220
260.2495, 1046.901
260.7317, 1054.169
261.2138, 1039.745
261.6959, 1025.689
262.1780, 1019.458
262.6601, 1019.175
263.1422, 1021.338
263.6244, 1024.914
264.1065, 1028.838
264.5886, 1029.123
265.0707, 1023.854
265.5528, 1018.509
266.0349, 1016.522
266.5170, 1015.077
266.9991, 1009.942
267.4813, 998.2231
267.9634, 985.1743
268.4455, 981.3406
268.9276, 990.0320
269.4097, 994.4738
269.8918, 981.1224
270.3740, 964.7966
270.8561, 958.0601
271.3382, 964.2073
271.8203, 975.6600
272.3024, 987.8687
272.7845, 1000.790
273.2667, 1005.878
273.7488, 995.9783
274.2309, 981.6167
274.7130, 972.7383
275.1951, 969.7224
275.6772, 968.4821
276.1594, 965.9095
276.6415, 962.9126
277.1236, 963.7096
277.6057, 971.2819
278.0878, 978.4252
278.5699, 975.7174
279.0521, 965.0948
279.5342, 958.9257
280.0163, 967.2478
280.4984, 980.7422
280.9805, 984.0800
281.4626, 974.9715
281.9448, 962.9077
282.4269, 954.1627
282.9090, 948.5814
283.3911, 944.9866
283.8732, 943.0223
284.3553, 943.2092
284.8375, 946.8702
285.3196, 953.6268
285.8017, 960.9936
286.2838, 968.9741
286.7659, 975.7599
287.2480, 975.1632
287.7302, 959.3041
288.2123, 945.5880
288.6944, 943.5805
289.1765, 948.8455
289.6586, 950.8051
290.1407, 944.3962
290.6229, 934.3368
291.1050, 932.1206
291.5871, 944.8143
292.0692, 951.9463
292.5513, 947.6767
293.0334, 937.8826
293.5156, 927.3712
293.9977, 917.7038
294.4798, 911.2274
294.9619, 911.8029
295.4440, 923.4229
295.9261, 930.8317
296.4083, 931.2762
296.8904, 930.0562
297.3725, 931.1520
297.8546, 934.1661
298.3367, 935.3859
298.8188, 930.9417
299.3010, 920.2407
299.7831, 914.3513
300.2652, 917.1013
300.7473, 920.4221
301.2294, 923.0359
301.7115, 924.4280
302.1937, 923.8787
302.6758, 920.7857
303.1579, 915.9312
303.6400, 912.2796
304.1221, 909.8041
304.6042, 908.8166
305.0864, 909.7191
305.5685, 911.7803
306.0506, 915.3157
306.5327, 920.3519
307.0148, 924.0920
307.4969, 920.7614
307.9791, 907.2638
308.4612, 898.4333
308.9433, 901.6998
309.4254, 906.3234
309.9075, 906.3004
310.3896, 901.3190
310.8718, 895.0977
311.3539, 889.9554
311.8360, 885.9974
312.3181, 884.8163
312.8002, 889.0024
313.2823, 892.3384
313.7644, 891.3493
314.2466, 886.7714
314.7287, 880.2675
315.2108, 867.7610
315.6929, 855.7243
316.1750, 858.7581
316.6571, 879.9802
317.1393, 899.1083
317.6214, 904.2336
318.1035, 900.1085
318.5856, 894.8582
319.0677, 888.4517
319.5498, 882.6291
320.0320, 878.8290
320.5141, 876.7927
320.9962, 875.8188
321.4783, 876.5099
321.9604, 876.9153
322.4425, 872.1374
322.9247, 859.6964
323.4068, 852.1630
323.8889, 857.5955
324.3710, 868.2993
324.8531, 873.6599
325.3352, 871.5034
325.8174, 866.5258
326.2995, 863.6856
326.7816, 863.6149
327.2637, 862.2435
327.7458, 858.4631
328.2279, 854.4098
328.7101, 850.9341
329.1922, 848.2567
329.6743, 846.3625
330.1564, 845.0630
330.6385, 844.6403
331.1206, 847.4592
331.6028, 859.0747
332.0849, 867.4479
332.5670, 870.1931
333.0491, 868.7983
333.5312, 864.2704
334.0133, 857.1215
334.4955, 849.3472
334.9776, 844.5729
335.4597, 842.8557
335.9418, 844.3591
336.4239, 853.9944
336.9060, 862.6947
337.3882, 864.0073
337.8703, 857.9896
338.3524, 849.7239
338.8345, 842.9116
339.3166, 837.5284
339.7987, 836.0349
340.2809, 841.9897
340.7630, 847.1924
341.2451, 845.7452
341.7272, 841.2747
342.2093, 841.3568
342.6914, 852.3482
343.1736, 866.7543
343.6557, 869.6075
344.1378, 858.7874
344.6199, 849.2797
345.1020, 848.8268
345.5841, 852.0847
346.0663, 853.0941
346.5484, 851.6938
347.0305, 846.7245
347.5126, 831.5748
347.9947, 811.5789
348.4768, 806.0015
348.9590, 823.1422
349.4411, 845.7996
349.9232, 851.4612
350.4053, 840.2997
350.8874, 832.8864
351.3695, 836.9269
351.8517, 843.5587
352.3338, 845.3329
352.8159, 841.7518
353.2980, 834.1838
353.7801, 821.9446
354.2622, 806.1999
354.7444, 801.3995
355.2265, 815.9166
355.7086, 829.3889
356.1907, 836.1478
356.6728, 838.1387
357.1549, 838.3900
357.6371, 838.1195
358.1192, 836.7642
358.6013, 832.8666
359.0834, 822.9044
359.5655, 817.0146
360.0476, 817.1727
360.5298, 819.2321
361.0119, 820.3671
361.4940, 820.6155
361.9761, 822.2566
362.4582, 828.9044
362.9403, 840.0869
363.4224, 842.2417
363.9045, 827.1653
364.3867, 813.7580
364.8688, 808.1169
365.3509, 808.2178
365.8330, 812.0880
366.3151, 820.5012
366.7972, 828.4152
367.2794, 825.9807
367.7615, 811.7834
368.2436, 801.8182
368.7257, 803.0289
369.2078, 808.7896
369.6899, 813.0156
370.1721, 815.5728
370.6542, 815.2875
371.1363, 807.7264
371.6184, 797.5573
372.1005, 796.0211
372.5826, 805.8041
373.0648, 816.3602
373.5469, 817.8777
374.0290, 811.0852
374.5111, 807.9780
374.9932, 813.2531
375.4753, 818.4404
375.9575, 818.9125
376.4396, 815.2917
376.9217, 809.0757
377.4038, 800.5643
377.8859, 791.4123
378.3680, 785.9223
378.8502, 783.5053
379.3323, 786.1158
379.8144, 801.6463
380.2965, 817.2258
380.7786, 820.8803
381.2607, 811.7125
381.7429, 797.5609
382.2250, 785.6234
382.7071, 775.6588
383.1892, 771.2487
383.6713, 778.6276
384.1534, 785.2387
384.6356, 787.8011
385.1177, 787.1730
385.5998, 784.1196
386.0819, 778.0223
386.5640, 772.7134
387.0461, 777.1669
387.5283, 794.0463
388.0104, 807.0049
388.4925, 811.6363
388.9746, 810.4556
389.4567, 803.3995
389.9388, 790.5285
390.4210, 780.1752
390.9031, 778.8808
391.3852, 783.3584
391.8673, 786.3012
392.3494, 786.7869
392.8315, 786.9617
393.3137, 789.3684
393.7958, 793.0369
394.2779, 792.9006
394.7600, 785.4385
395.2421, 777.4007
395.7242, 771.3155
396.2064, 767.4759
396.6885, 766.6874
397.1706, 769.3865
397.6527, 774.5741
398.1348, 780.5540
398.6169, 789.4828
399.0991, 794.8511
399.5812, 793.6709
400.0633, 791.4494
400.5454, 793.0963
401.0275, 797.7706
401.5096, 800.3498
401.9918, 796.1678
402.4739, 786.0869
402.9560, 778.3073
403.4381, 771.8855
403.9202, 769.6274
404.4023, 774.2391
404.8845, 781.8995
405.3666, 789.2448
405.8487, 795.3721
406.3308, 798.8800
406.8129, 796.9633
407.2950, 789.7591
407.7772, 783.5192
408.2593, 778.4575
408.7414, 775.7803
409.2235, 778.3562
409.7056, 784.7077
410.1877, 787.7886
410.6699, 781.6296
411.1520, 773.2382
411.6341, 770.7600
412.1162, 773.8892
412.5983, 778.0668
413.0804, 781.9264
413.5625, 784.3953
414.0446, 781.4578
414.5268, 768.4663
415.0089, 759.2924
415.4910, 756.5306
415.9731, 758.7471
416.4552, 767.5908
416.9373, 781.8353
417.4195, 792.7388
417.9016, 790.3511
418.3837, 773.2724
418.8658, 762.0528
419.3479, 758.9011
419.8300, 759.4531
420.3122, 766.3940
420.7943, 775.3204
421.2764, 779.2414
421.7585, 774.8823
422.2406, 768.3962
422.7227, 771.7847
423.2049, 787.5399
423.6870, 795.9969
424.1691, 790.1637
424.6512, 779.4479
425.1333, 768.9608
425.6154, 759.2305
426.0976, 752.1240
426.5797, 748.8108
427.0618, 748.5235
427.5439, 752.0992
428.0260, 759.5313
428.5081, 762.2610
428.9903, 752.5594
429.4724, 736.8624
429.9545, 734.2417
430.4366, 751.7878
430.9187, 767.3447
431.4008, 776.0588
431.8830, 779.1931
432.3651, 776.6390
432.8472, 769.0236
433.3293, 760.3766
433.8114, 754.3712
434.2935, 750.9190
434.7757, 751.2130
435.2578, 760.9252
435.7399, 768.0558
436.2220, 768.1680
436.7041, 764.3571
437.1862, 761.3183
437.6684, 760.9782
438.1505, 760.6895
438.6326, 755.0397
439.1147, 742.9179
439.5968, 735.6506
440.0789, 736.9818
440.5611, 741.4000
441.0432, 745.5376
441.5253, 749.4248
442.0074, 753.3449
442.4895, 758.2599
442.9716, 762.7573
443.4538, 765.3688
443.9359, 766.0619
444.4180, 763.8268
444.9001, 756.5126
445.3822, 747.8827
445.8643, 747.4182
446.3465, 759.1695
446.8286, 767.1873
447.3107, 767.0651
447.7928, 763.1432
448.2749, 758.0250
448.7570, 752.7029
449.2392, 748.7885
449.7213, 747.5318
450.2034, 748.8513
450.6855, 751.9904
451.1676, 762.2045
451.6497, 766.8922
452.1319, 759.4827
452.6140, 748.4352
453.0961, 742.0512
453.5782, 742.3054
454.0603, 745.2909
454.5424, 747.7798
455.0246, 749.7200
455.5067, 750.0497
455.9888, 747.4880
456.4709, 745.7303
456.9530, 749.0674
457.4352, 754.8462
457.9173, 757.3969
458.3994, 752.2394
458.8815, 747.9552
459.3636, 753.8407
459.8457, 765.1399
460.3279, 768.9246
460.8100, 760.7131
461.2921, 747.6598
461.7742, 738.5598
462.2563, 733.4686
462.7384, 733.3025
463.2205, 743.2247
463.7026, 752.6185
464.1848, 755.9038
464.6669, 754.8663
465.1490, 753.6594
465.6311, 754.4157
466.1132, 755.9647
466.5953, 755.8134
467.0775, 753.6931
467.5596, 750.8024
468.0417, 744.1477
468.5238, 739.5225
469.0059, 743.2623
469.4880, 752.9558
469.9702, 758.1171
470.4523, 750.0399
470.9344, 735.9309
471.4165, 726.1508
471.8986, 720.7006
472.3807, 718.7781
472.8629, 721.5715
473.3450, 726.1230
473.8271, 725.1945
474.3092, 715.6595
474.7913, 711.5844
475.2734, 721.2258
475.7556, 733.3196
476.2377, 736.7677
476.7198, 732.2811
477.2019, 728.3810
477.6840, 731.4169
478.1661, 739.6342
478.6483, 744.5089
479.1304, 746.8536
479.6125, 744.0068
480.0946, 728.4933
480.5767, 713.2387
481.0588, 712.0112
481.5410, 724.5221
482.0231, 734.5028
482.5052, 722.3056
482.9873, 697.1133
483.4694, 693.1989
483.9515, 716.1122
484.4337, 736.7369
484.9158, 738.4897
485.3979, 728.3264
485.8800, 722.0353
486.3621, 720.1846
486.8442, 721.1858
487.3264, 726.8267
487.8085, 733.8174
488.2906, 738.6002
488.7727, 740.4426
489.2548, 738.8746
489.7369, 732.5776
490.2191, 722.2131
490.7012, 718.1147
491.1833, 730.8220
491.6654, 736.9885
492.1475, 727.0439
492.6296, 712.8527
493.1118, 706.3720
493.5939, 709.8398
494.0760, 716.8707
494.5581, 723.0266
495.0402, 727.8347
495.5223, 727.4736
496.0045, 720.4030
496.4866, 712.1813
496.9687, 704.5472
497.4508, 698.3195
497.9329, 695.0438
498.4150, 695.1573
498.8972, 697.5281
499.3793, 703.9894
499.8614, 711.4879
500.3435, 715.5986
500.8256, 715.4920
501.3077, 711.7167
501.7899, 703.6264
502.2720, 691.5665
502.7541, 686.6275
503.2362, 696.4569
503.7183, 704.4238
504.2004, 707.5519
504.6826, 707.7981
505.1647, 706.3666
505.6468, 703.8958
506.1289, 702.3619
506.6110, 704.2762
507.0931, 709.1520
507.5753, 713.5757
508.0574, 717.9034
508.5395, 720.6197
509.0216, 720.9556
509.5037, 719.0314
509.9858, 714.5038
510.4680, 705.3381
510.9501, 698.2889
511.4322, 696.9590
511.9143, 699.4159
512.3964, 703.6351
512.8785, 709.0576
513.3607, 714.7032
513.8428, 719.9730
514.3249, 724.7175
514.8070, 726.9636
515.2891, 725.0590
515.7712, 722.5529
516.2534, 719.4030
516.7355, 716.1336
517.2176, 712.2986
517.6997, 708.2889
518.1818, 706.6155
518.6639, 712.9479
519.1461, 723.8496
519.6282, 723.5298
520.1103, 708.9220
520.5924, 696.4908
521.0745, 696.5038
521.5566, 702.5728
522.0388, 701.4002
522.5209, 689.9006
523.0030, 680.2839
523.4851, 677.3370
523.9672, 677.7344
524.4493, 677.6671
524.9315, 677.1450
525.4136, 678.7444
525.8957, 684.3755
526.3778, 693.3882
526.8599, 703.9099
527.3420, 723.2367
527.8242, 730.7693
528.3063, 712.7816
528.7884, 692.8656
529.2705, 690.8341
529.7526, 704.3972
530.2347, 713.2938
530.7169, 699.6687
531.1990, 676.1041
531.6811, 667.2420
532.1632, 672.9534
532.6453, 678.3466
533.1274, 676.9111
533.6096, 673.4410
534.0917, 676.2147
534.5738, 686.3865
535.0559, 696.2920
535.5380, 710.7109
536.0201, 719.6628
536.5022, 711.9934
536.9843, 693.6910
537.4664, 679.2717
537.9485, 675.8223
538.4307, 679.3019
538.9128, 682.2496
539.3949, 684.8074
539.8770, 686.2494
540.3591, 685.8289
540.8412, 685.0229
541.3234, 683.9224
541.8055, 683.0977
542.2876, 683.9492
542.7697, 687.5160
543.2518, 692.0251
543.7339, 698.3627
544.2161, 704.4187
544.6982, 702.1530
545.1803, 688.9943
545.6624, 675.3594
546.1445, 672.9461
546.6266, 682.6488
547.1088, 688.3229
547.5909, 686.2899
548.0730, 685.0642
548.5551, 686.6609
549.0372, 690.1943
549.5193, 696.6668
550.0015, 705.4771
550.4836, 710.1356
550.9657, 699.3748
551.4478, 677.0603
551.9299, 669.0336
552.4120, 679.5093
552.8942, 689.9081
553.3763, 690.5673
553.8584, 685.4875
554.3405, 682.9177
554.8226, 683.7261
555.3047, 684.3929
555.7869, 683.1188
556.2690, 681.6937
556.7511, 681.7145
557.2332, 683.2808
557.7153, 686.5428
558.1974, 692.0435
558.6796, 697.7560
559.1617, 696.9203
559.6438, 685.6778
560.1259, 677.5745
560.6080, 673.7388
561.0901, 673.7344
561.5723, 680.6482
562.0544, 691.6602
562.5365, 698.2599
563.0186, 695.3734
563.5007, 688.3281
563.9828, 680.7166
564.4650, 673.5193
564.9471, 671.9080
565.4292, 678.1542
565.9113, 684.3858
566.3934, 680.9246
566.8755, 666.4558
567.3577, 656.9923
567.8398, 651.4224
568.3219, 651.4145
568.8040, 662.6680
569.2861, 677.1674
569.7682, 685.1330
570.2504, 684.5486
570.7325, 681.8323
571.2146, 684.3060
571.6967, 690.2808
572.1788, 690.7890
572.6609, 684.7123
573.1431, 677.9225
573.6252, 671.7886
574.1073, 667.4563
574.5894, 667.6870
575.0715, 674.3978
575.5536, 678.2814
576.0358, 677.1082
576.5179, 672.4791
577.0000, 661.2075
577.4821, 647.4363
577.9642, 643.2045
578.4464, 655.4093
578.9285, 675.1367
579.4106, 683.9600
579.8927, 680.0992
580.3748, 673.1272
580.8569, 658.5440
581.3391, 647.5438
581.8212, 648.6486
582.3033, 657.4927
582.7854, 664.0023
583.2675, 663.9721
583.7496, 664.3292
584.2318, 672.8868
584.7139, 684.1279
585.1960, 687.2640
585.6781, 680.7219
586.1602, 670.0706
586.6423, 658.9216
587.1245, 648.2650
587.6066, 646.3129
588.0887, 661.5350
588.5708, 672.2477
589.0529, 673.0115
589.5350, 670.9075
590.0172, 672.0244
590.4993, 675.8104
590.9814, 676.4813
591.4635, 666.1910
591.9456, 654.6122
592.4277, 659.3071
592.9099, 677.1313
593.3920, 687.0328
593.8741, 681.4722
594.3562, 669.2886
594.8383, 660.3745
595.3204, 654.5164
595.8026, 653.8414
596.2847, 665.1128
596.7668, 672.9377
597.2489, 668.2724
597.7310, 659.7133
598.2131, 659.4909
598.6953, 669.6036
599.1774, 678.8498
599.6595, 673.5359
600.1416, 658.7143
600.6237, 654.1414
601.1058, 661.1053
601.5880, 668.3707
602.0701, 671.2263
602.5522, 671.3998
603.0343, 672.2708
603.5164, 674.8047
603.9985, 674.0801
604.4807, 664.6387
604.9628, 656.5507
605.4449, 658.7521
605.9270, 666.1934
606.4091, 668.1650
606.8912, 660.3300
607.3734, 649.2606
607.8555, 643.2311
608.3376, 642.1997
608.8197, 645.9719
609.3018, 657.4139
609.7839, 666.3214
610.2661, 665.3845
610.7482, 658.7021
611.2303, 654.9437
611.7124, 655.1931
612.1945, 655.8370
612.6766, 656.0007
613.1588, 655.9618
