##NAMES=Synchysite-(Ce)
##RRUFFID=R060971
##IDEAL CHEMISTRY=CaCe(CO_3_)_2_F
##LOCALITY=Val Nalps, Tavetsch, Graubunden, Switzerland
##OWNER=RRUFF
##SOURCE=Michael Scott
##DESCRIPTION=Yellowish-orange prismatic crystals associated with albite, quartz, hematite and muscovite
##STATUS=The identification of this mineral is confirmed by single-crystal X-ray diffraction and chemical analysis.
##URL=rruff.info/R060971
##MEASURED CHEMISTRY=Ca_1.02_(Ce_0.40_La_0.19_Nd_0.18_Sm_0.07_Y_0.06_Pr_0.05_Gd_0.03_Th_0.02_)_Î£=1.00_(CO_3_)_1.98_F_1.04_
120.0817, 1047.488
120.5638, 1106.896
121.0459, 1180.519
121.5281, 1271.072
122.0102, 1384.675
122.4923, 1523.209
122.9744, 1689.875
123.4565, 1888.507
123.9386, 2126.086
124.4208, 2382.142
124.9029, 2650.296
125.3850, 2930.442
125.8671, 3218.951
126.3492, 3526.287
126.8313, 3839.206
127.3135, 4123.921
127.7956, 4377.306
128.2777, 4606.055
128.7598, 4805.684
129.2419, 4976.686
129.7240, 5153.057
130.2061, 5375.419
130.6883, 5612.180
131.1704, 5804.931
131.6525, 5944.622
132.1346, 6035.134
132.6167, 6075.967
133.0988, 6061.727
133.5810, 6019.910
134.0631, 5943.146
134.5452, 5852.566
135.0273, 5777.157
135.5094, 5721.825
135.9915, 5690.196
136.4737, 5688.522
136.9558, 5715.117
137.4379, 5778.635
137.9200, 5884.205
138.4021, 6024.067
138.8842, 6190.354
139.3664, 6377.404
139.8485, 6587.547
140.3306, 6826.331
140.8127, 7088.353
141.2948, 7393.910
141.7769, 7763.297
142.2591, 8174.749
142.7412, 8587.232
143.2233, 8972.086
143.7054, 9336.279
144.1875, 9720.368
144.6696, 10153.25
145.1518, 10570.64
145.6339, 10955.62
146.1160, 11307.91
146.5981, 11630.16
147.0802, 11925.66
147.5623, 12193.85
148.0445, 12425.28
148.5266, 12604.52
149.0087, 12754.92
149.4908, 12894.25
149.9729, 13012.04
150.4550, 13080.19
150.9371, 13065.73
151.4193, 12961.98
151.9014, 12891.48
152.3835, 12882.91
152.8656, 12883.03
153.3477, 12877.29
153.8298, 12865.72
154.3120, 12855.28
154.7941, 12853.70
155.2762, 12863.75
155.7583, 12860.70
156.2404, 12812.39
156.7225, 12780.35
157.2047, 12786.18
157.6868, 12831.09
158.1689, 12908.56
158.6510, 13016.05
159.1331, 13161.97
159.6152, 13294.54
160.0974, 13392.01
160.5795, 13496.73
161.0616, 13635.38
161.5437, 13803.69
162.0258, 13976.75
162.5079, 14131.18
162.9901, 14265.70
163.4722, 14378.86
163.9543, 14461.32
164.4364, 14534.22
164.9185, 14604.97
165.4007, 14675.89
165.8828, 14748.65
166.3649, 14828.45
166.8470, 14923.17
167.3291, 14982.62
167.8112, 14996.78
168.2934, 14989.65
168.7755, 14973.53
169.2576, 14950.51
169.7397, 14917.30
170.2218, 14868.33
170.7039, 14797.72
171.1861, 14739.37
171.6682, 14700.49
172.1503, 14667.69
172.6324, 14628.43
173.1145, 14583.44
173.5966, 14546.44
174.0788, 14532.84
174.5609, 14549.40
175.0430, 14562.76
175.5251, 14569.88
176.0072, 14576.16
176.4893, 14582.07
176.9714, 14588.80
177.4536, 14603.54
177.9357, 14634.31
178.4178, 14684.99
178.8999, 14736.33
179.3820, 14773.79
179.8641, 14821.17
180.3463, 14901.17
180.8284, 15014.56
181.3105, 15139.17
181.7926, 15252.60
182.2747, 15351.31
182.7568, 15467.33
183.2390, 15620.55
183.7211, 15778.00
184.2032, 15907.59
184.6853, 16007.81
185.1674, 16110.06
185.6495, 16246.97
186.1317, 16423.85
186.6138, 16580.37
187.0959, 16698.32
187.5780, 16807.16
188.0601, 16930.24
188.5422, 17068.76
189.0244, 17216.73
189.5065, 17374.93
189.9886, 17543.15
190.4707, 17674.89
190.9528, 17733.11
191.4349, 17779.83
191.9171, 17863.64
192.3992, 17987.34
192.8813, 18130.66
193.3634, 18281.81
193.8455, 18440.17
194.3276, 18591.40
194.8098, 18728.74
195.2919, 18863.15
195.7740, 19012.15
196.2561, 19174.34
196.7382, 19316.18
197.2203, 19403.22
197.7025, 19441.01
198.1846, 19506.04
198.6667, 19617.88
199.1488, 19743.55
199.6309, 19863.61
200.1130, 19977.60
200.5951, 20083.45
201.0773, 20179.06
201.5594, 20264.38
202.0415, 20348.91
202.5236, 20430.04
203.0057, 20512.11
203.4878, 20598.86
203.9700, 20689.78
204.4521, 20781.73
204.9342, 20870.51
205.4163, 20959.62
205.8984, 21058.93
206.3805, 21190.63
206.8627, 21312.79
207.3448, 21392.14
207.8269, 21434.82
208.3090, 21474.43
208.7911, 21522.56
209.2732, 21584.93
209.7554, 21673.98
210.2375, 21805.80
210.7196, 21945.10
211.2017, 22066.57
211.6838, 22176.69
212.1659, 22302.84
212.6481, 22461.30
213.1302, 22642.46
213.6123, 22812.60
214.0944, 22960.59
214.5765, 23116.48
215.0586, 23307.23
215.5408, 23519.90
216.0229, 23715.39
216.5050, 23872.14
216.9871, 24007.49
217.4692, 24158.56
217.9513, 24323.96
218.4335, 24503.90
218.9156, 24715.17
219.3977, 24941.19
219.8798, 25139.15
220.3619, 25288.11
220.8440, 25413.42
221.3262, 25567.90
221.8083, 25761.79
222.2904, 25944.71
222.7725, 26085.39
223.2546, 26207.66
223.7367, 26358.93
224.2189, 26559.69
224.7010, 26774.74
225.1831, 26938.69
225.6652, 27040.45
226.1473, 27161.32
226.6294, 27344.86
227.1115, 27550.13
227.5937, 27711.01
228.0758, 27808.20
228.5579, 27891.70
229.0400, 28028.70
229.5221, 28228.25
230.0042, 28418.52
230.4864, 28574.26
230.9685, 28724.16
231.4506, 28904.98
231.9327, 29122.18
232.4148, 29343.38
232.8969, 29531.97
233.3791, 29682.53
233.8612, 29840.01
234.3433, 29997.27
234.8254, 30167.94
235.3075, 30371.25
235.7896, 30606.48
236.2718, 30845.46
236.7539, 31071.45
237.2360, 31280.94
237.7181, 31454.85
238.2002, 31575.94
238.6823, 31676.59
239.1645, 31767.73
239.6466, 31853.43
240.1287, 31943.24
240.6108, 32046.29
241.0929, 32160.66
241.5750, 32263.70
242.0572, 32344.71
242.5393, 32427.30
243.0214, 32536.63
243.5035, 32657.33
243.9856, 32742.57
244.4677, 32757.74
244.9499, 32724.71
245.4320, 32759.12
245.9141, 32923.24
246.3962, 33070.95
246.8783, 33166.11
247.3604, 33222.71
247.8426, 33260.52
248.3247, 33287.50
248.8068, 33307.50
249.2889, 33331.53
249.7710, 33349.85
250.2531, 33383.80
250.7352, 33449.84
251.2174, 33525.65
251.6995, 33586.25
252.1816, 33623.09
252.6637, 33643.55
253.1458, 33660.78
253.6279, 33681.56
254.1101, 33683.81
254.5922, 33641.56
255.0743, 33597.61
255.5564, 33600.21
256.0385, 33651.40
256.5207, 33699.47
257.0028, 33673.59
257.4849, 33533.93
257.9670, 33448.18
258.4491, 33454.25
258.9312, 33472.67
259.4134, 33459.84
259.8955, 33415.78
260.3776, 33368.58
260.8597, 33350.15
261.3418, 33369.21
261.8239, 33319.61
262.3060, 33141.69
262.7881, 32958.27
263.2703, 32799.15
263.7524, 32667.29
264.2345, 32560.90
264.7166, 32482.48
265.1987, 32427.31
265.6808, 32354.73
266.1630, 32264.66
266.6451, 32154.01
267.1272, 32012.07
267.6093, 31852.37
268.0914, 31690.16
268.5735, 31532.08
269.0557, 31379.69
269.5378, 31235.86
270.0199, 31103.11
270.5020, 30973.93
270.9841, 30855.00
271.4662, 30734.33
271.9484, 30597.52
272.4305, 30439.46
272.9126, 30275.53
273.3947, 30128.82
273.8768, 30006.34
274.3589, 29877.15
274.8411, 29726.26
275.3232, 29575.28
275.8053, 29435.65
276.2874, 29309.13
276.7695, 29191.18
277.2516, 29078.15
277.7338, 28969.75
278.2159, 28864.15
278.6980, 28762.80
279.1801, 28662.45
279.6622, 28564.32
280.1443, 28466.13
280.6265, 28362.09
281.1086, 28238.25
281.5907, 28103.48
282.0728, 27999.51
282.5549, 27944.50
283.0370, 27882.90
283.5192, 27757.27
284.0013, 27605.96
284.4834, 27501.77
284.9655, 27509.89
285.4476, 27549.68
285.9297, 27493.84
286.4119, 27330.00
286.8940, 27158.58
287.3761, 27016.37
287.8582, 26901.51
288.3403, 26813.71
288.8224, 26768.45
289.3046, 26722.62
289.7867, 26627.89
290.2688, 26495.37
290.7509, 26396.79
291.2330, 26367.59
291.7151, 26373.16
292.1973, 26358.66
292.6794, 26323.19
293.1615, 26277.37
293.6436, 26218.53
294.1257, 26153.29
294.6078, 26091.70
295.0900, 26035.05
295.5721, 25986.06
296.0542, 25947.45
296.5363, 25917.87
297.0184, 25904.56
297.5005, 25924.71
297.9827, 25950.53
298.4648, 25950.14
298.9469, 25923.38
299.4290, 25903.33
299.9111, 25921.94
300.3932, 25979.04
300.8754, 26003.97
301.3575, 25967.18
301.8396, 25931.11
302.3217, 25930.78
302.8038, 25954.30
303.2859, 25971.17
303.7681, 25964.95
304.2502, 25938.36
304.7323, 25901.27
305.2144, 25822.40
305.6965, 25772.12
306.1786, 25781.65
306.6608, 25813.77
307.1429, 25826.65
307.6250, 25806.21
308.1071, 25768.26
308.5892, 25742.44
309.0714, 25753.31
309.5535, 25724.10
310.0356, 25636.83
310.5177, 25530.94
310.9998, 25417.54
311.4819, 25305.85
311.9640, 25214.64
312.4461, 25168.88
312.9283, 25174.52
313.4104, 25150.10
313.8925, 25074.04
314.3746, 24987.85
314.8567, 24894.15
315.3388, 24800.53
315.8210, 24719.03
316.3031, 24658.50
316.7852, 24613.33
317.2673, 24568.09
317.7494, 24528.28
318.2315, 24475.54
318.7137, 24383.66
319.1958, 24286.34
319.6779, 24229.40
320.1600, 24234.02
320.6421, 24232.62
321.1242, 24117.37
321.6064, 23881.56
322.0885, 23716.72
322.5706, 23718.60
323.0527, 23760.87
323.5348, 23719.99
324.0169, 23593.62
324.4991, 23470.11
324.9812, 23414.06
325.4633, 23396.51
325.9454, 23340.57
326.4275, 23227.56
326.9096, 23108.37
327.3918, 23044.62
327.8739, 23017.77
328.3560, 22944.69
328.8381, 22767.23
329.3202, 22569.03
329.8023, 22433.40
330.2845, 22354.31
330.7666, 22260.92
331.2487, 22104.99
331.7308, 21908.55
332.2129, 21755.06
332.6950, 21687.04
333.1772, 21601.36
333.6593, 21454.09
334.1414, 21271.69
334.6235, 21092.65
335.1056, 20929.01
335.5877, 20778.95
336.0699, 20641.19
336.5520, 20531.40
337.0341, 20397.83
337.5162, 20216.55
337.9983, 20030.83
338.4804, 19876.21
338.9626, 19750.28
339.4447, 19623.68
339.9268, 19466.88
340.4089, 19278.10
340.8910, 19113.10
341.3731, 18989.70
341.8553, 18872.76
342.3374, 18758.28
342.8195, 18643.96
343.3016, 18529.43
343.7837, 18414.50
344.2658, 18296.17
344.7480, 18164.40
345.2301, 18009.32
345.7122, 17865.25
346.1943, 17742.98
346.6764, 17630.43
347.1585, 17523.96
347.6407, 17421.91
348.1228, 17316.89
348.6049, 17194.11
349.0870, 17056.16
349.5691, 16942.39
350.0512, 16877.66
350.5334, 16808.47
351.0155, 16692.80
351.4976, 16543.02
351.9797, 16395.88
352.4618, 16269.84
352.9439, 16154.29
353.4261, 16030.87
353.9082, 15898.16
354.3903, 15779.26
354.8724, 15700.24
355.3545, 15638.60
355.8366, 15536.59
356.3188, 15371.19
356.8009, 15203.91
357.2830, 15058.58
357.7651, 14934.04
358.2472, 14827.67
358.7293, 14739.82
359.2115, 14666.50
359.6936, 14604.97
360.1757, 14564.33
360.6578, 14505.11
361.1399, 14416.69
361.6220, 14316.29
362.1041, 14208.45
362.5862, 14098.61
363.0684, 13999.79
363.5505, 13923.24
364.0326, 13868.19
364.5147, 13819.62
364.9968, 13802.81
365.4789, 13763.22
365.9611, 13674.05
366.4432, 13562.09
366.9253, 13456.61
367.4074, 13369.94
367.8895, 13303.47
368.3716, 13265.21
368.8538, 13268.64
369.3359, 13259.59
369.8180, 13232.08
370.3001, 13191.27
370.7822, 13126.18
371.2643, 13044.71
371.7465, 12979.28
372.2286, 12968.73
372.7107, 12998.38
373.1928, 12997.35
373.6749, 12956.20
374.1570, 12905.33
374.6392, 12861.73
375.1213, 12819.61
375.6034, 12768.72
376.0855, 12702.67
376.5676, 12633.45
377.0497, 12570.22
377.5319, 12512.92
378.0140, 12463.00
378.4961, 12422.86
378.9782, 12387.41
379.4603, 12349.19
379.9424, 12308.95
380.4246, 12264.91
380.9067, 12214.67
381.3888, 12161.71
381.8709, 12107.67
382.3530, 12053.50
382.8351, 12003.23
383.3173, 11961.29
383.7994, 11927.49
384.2815, 11885.66
384.7636, 11825.88
385.2457, 11770.79
385.7278, 11732.13
386.2100, 11700.62
386.6921, 11658.81
387.1742, 11599.69
387.6563, 11539.38
388.1384, 11514.32
388.6205, 11554.52
389.1027, 11556.02
389.5848, 11471.29
390.0669, 11385.17
390.5490, 11343.65
391.0311, 11345.55
391.5132, 11365.00
391.9954, 11394.42
392.4775, 11425.49
392.9596, 11413.65
393.4417, 11337.88
393.9238, 11267.27
394.4059, 11248.15
394.8881, 11247.53
395.3702, 11221.27
395.8523, 11149.91
396.3344, 11077.20
396.8165, 11045.48
397.2986, 11045.53
397.7808, 11035.55
398.2629, 11000.85
398.7450, 10961.81
399.2271, 10951.83
399.7092, 10973.04
400.1913, 10967.54
400.6735, 10900.00
401.1556, 10821.72
401.6377, 10774.75
402.1198, 10757.76
402.6019, 10748.34
403.0840, 10732.93
403.5662, 10713.09
404.0483, 10696.73
404.5304, 10688.16
405.0125, 10677.95
405.4946, 10660.74
405.9767, 10644.15
406.4589, 10642.39
406.9410, 10655.73
407.4231, 10662.41
407.9052, 10630.50
408.3873, 10551.72
408.8694, 10495.45
409.3516, 10462.38
409.8336, 10453.87
410.3158, 10489.89
410.7979, 10547.77
411.2800, 10584.86
411.7621, 10576.44
412.2442, 10545.89
412.7263, 10526.45
413.2085, 10517.94
413.6906, 10523.28
414.1727, 10550.72
414.6548, 10586.22
415.1369, 10610.37
415.6190, 10621.59
416.1012, 10638.31
416.5833, 10676.31
417.0654, 10720.72
417.5475, 10747.69
418.0296, 10755.27
418.5117, 10763.08
418.9939, 10787.96
419.4760, 10827.21
419.9581, 10849.97
420.4402, 10829.51
420.9223, 10826.74
421.4044, 10879.60
421.8866, 10953.31
422.3687, 10996.79
422.8508, 10995.00
423.3329, 10975.17
423.8150, 10976.63
424.2971, 11004.46
424.7793, 11035.87
425.2614, 11070.72
425.7435, 11109.32
426.2256, 11154.24
426.7077, 11202.91
427.1898, 11250.39
427.6720, 11293.18
428.1541, 11333.85
428.6362, 11376.42
429.1183, 11419.95
429.6004, 11470.69
430.0826, 11541.08
430.5647, 11611.67
431.0468, 11662.07
431.5289, 11690.37
432.0110, 11714.97
432.4931, 11739.98
432.9753, 11768.83
433.4574, 11806.35
433.9395, 11853.33
434.4216, 11910.27
434.9037, 11980.59
435.3858, 12062.01
435.8680, 12136.38
436.3501, 12206.09
436.8322, 12267.07
437.3143, 12318.67
437.7964, 12360.66
438.2785, 12385.03
438.7607, 12391.91
439.2428, 12405.95
439.7249, 12465.19
440.2070, 12585.16
440.6891, 12674.86
441.1712, 12707.60
441.6534, 12736.64
442.1355, 12775.30
442.6176, 12823.65
443.0997, 12881.51
443.5818, 12952.12
444.0639, 13023.12
444.5461, 13073.03
445.0282, 13100.43
445.5103, 13121.20
445.9924, 13134.87
446.4745, 13147.39
446.9566, 13166.99
447.4388, 13193.22
447.9209, 13213.23
448.4030, 13216.58
448.8851, 13214.96
449.3672, 13222.86
449.8493, 13240.18
450.3315, 13258.93
450.8136, 13276.85
451.2957, 13290.92
451.7778, 13289.02
452.2599, 13255.28
452.7420, 13228.94
453.2242, 13217.35
453.7063, 13212.64
454.1884, 13207.74
454.6705, 13201.79
455.1526, 13199.08
455.6347, 13206.00
456.1169, 13221.45
456.5990, 13220.16
457.0811, 13194.02
457.5632, 13161.57
458.0453, 13115.28
458.5274, 13072.04
459.0095, 13056.50
459.4916, 13077.55
459.9738, 13101.30
460.4559, 13090.09
460.9380, 13051.62
461.4201, 13025.83
461.9022, 13021.42
462.3843, 13021.90
462.8665, 13014.61
463.3486, 13000.36
463.8307, 12983.74
464.3128, 12952.03
464.7949, 12931.40
465.2770, 12945.62
465.7592, 12980.70
466.2413, 13010.38
466.7234, 13025.33
467.2055, 13025.66
467.6876, 13008.48
468.1697, 12960.87
468.6519, 12936.14
469.1340, 12952.12
469.6161, 12970.07
470.0982, 12973.03
470.5803, 12964.88
471.0624, 12955.69
471.5446, 12949.87
472.0267, 12948.21
472.5088, 12954.76
472.9909, 12971.57
473.4730, 12981.66
473.9551, 12981.83
474.4373, 12972.68
474.9194, 12953.63
475.4015, 12925.51
475.8836, 12897.47
476.3657, 12862.03
476.8478, 12835.61
477.3300, 12841.22
477.8121, 12875.29
478.2942, 12915.03
478.7763, 12952.16
479.2584, 12982.03
479.7405, 12992.34
480.2227, 12963.88
480.7048, 12948.04
481.1869, 12953.32
481.6690, 12965.93
482.1511, 12984.63
482.6332, 13002.93
483.1154, 13003.36
483.5975, 12968.85
484.0796, 12911.84
484.5617, 12881.96
485.0438, 12886.13
485.5259, 12899.70
486.0081, 12917.87
486.4902, 12941.86
486.9723, 12981.85
487.4544, 13037.12
487.9365, 13071.82
488.4186, 13048.72
488.9008, 12997.19
489.3829, 12962.96
489.8650, 12948.88
490.3471, 12958.48
490.8292, 13005.75
491.3113, 13071.59
491.7935, 13086.44
492.2756, 13023.70
492.7577, 12960.54
493.2398, 12900.88
493.7219, 12849.81
494.2040, 12814.84
494.6862, 12794.67
495.1683, 12780.09
495.6504, 12763.57
496.1325, 12745.80
496.6146, 12732.23
497.0967, 12727.23
497.5789, 12718.36
498.0610, 12702.97
498.5431, 12682.29
499.0252, 12656.74
499.5073, 12626.44
499.9894, 12593.37
500.4716, 12553.28
500.9537, 12512.72
501.4358, 12490.55
501.9179, 12489.47
502.4000, 12481.07
502.8821, 12446.05
503.3643, 12391.31
503.8464, 12340.73
504.3285, 12283.70
504.8106, 12246.33
505.2927, 12258.07
505.7748, 12276.77
506.2570, 12253.09
506.7391, 12188.03
507.2212, 12126.59
507.7033, 12109.24
508.1854, 12128.38
508.6675, 12127.37
509.1496, 12097.75
509.6317, 12063.39
510.1139, 12029.89
510.5960, 11994.98
511.0781, 11953.39
511.5602, 11904.90
512.0424, 11862.56
512.5245, 11838.15
513.0066, 11824.68
513.4887, 11811.63
513.9708, 11798.32
514.4529, 11776.49
514.9351, 11738.88
515.4172, 11691.01
515.8993, 11650.76
516.3814, 11618.35
516.8635, 11591.83
517.3456, 11592.98
517.8278, 11584.37
518.3099, 11518.34
518.7920, 11405.14
519.2741, 11305.58
519.7562, 11269.13
520.2383, 11277.38
520.7205, 11248.64
521.2026, 11161.98
521.6847, 11092.55
522.1668, 11076.95
522.6489, 11074.71
523.1310, 11057.01
523.6132, 11022.50
524.0953, 10985.81
524.5774, 10961.73
525.0595, 10935.62
525.5416, 10879.53
526.0237, 10797.52
526.5059, 10729.83
526.9880, 10698.59
527.4701, 10687.27
527.9522, 10659.19
528.4343, 10605.82
528.9164, 10551.42
529.3986, 10498.78
529.8807, 10442.81
530.3628, 10379.91
530.8449, 10311.14
531.3270, 10238.57
531.8091, 10161.80
532.2913, 10087.56
532.7734, 10033.10
533.2554, 10001.88
533.7375, 9964.785
534.2197, 9909.348
534.7018, 9854.632
535.1839, 9817.752
535.6660, 9796.133
536.1481, 9777.082
536.6302, 9751.060
537.1124, 9731.840
537.5945, 9744.893
538.0766, 9772.469
538.5587, 9765.867
539.0408, 9707.899
539.5229, 9628.121
540.0051, 9567.853
540.4872, 9529.300
540.9693, 9498.806
541.4514, 9494.120
541.9335, 9478.072
542.4156, 9429.932
542.8978, 9366.896
543.3799, 9311.851
543.8620, 9272.578
544.3441, 9245.125
544.8262, 9231.626
545.3083, 9228.217
545.7905, 9214.778
546.2726, 9188.048
546.7547, 9155.546
547.2368, 9119.295
547.7189, 9081.487
548.2010, 9050.908
548.6832, 9019.482
549.1653, 9005.872
549.6474, 9040.040
550.1295, 9080.136
550.6116, 9074.728
551.0938, 9021.976
551.5759, 8961.258
552.0580, 8926.129
552.5401, 8911.912
553.0222, 8890.192
553.5043, 8848.749
553.9865, 8827.543
554.4686, 8865.800
554.9507, 8909.824
555.4328, 8912.358
555.9149, 8872.631
556.3970, 8837.760
556.8792, 8841.942
557.3613, 8855.164
557.8434, 8834.183
558.3255, 8785.883
558.8076, 8751.940
559.2897, 8751.837
559.7719, 8771.705
560.2540, 8788.602
560.7361, 8811.575
561.2182, 8805.546
561.7003, 8748.295
562.1824, 8688.511
562.6646, 8642.146
563.1467, 8609.943
563.6288, 8591.771
564.1109, 8589.280
564.5930, 8589.585
565.0751, 8572.974
565.5573, 8542.283
566.0394, 8523.271
566.5215, 8522.398
567.0036, 8524.033
567.4857, 8517.087
567.9678, 8502.386
568.4500, 8486.885
568.9321, 8461.424
569.4142, 8446.702
569.8963, 8458.083
570.3784, 8477.899
570.8605, 8484.117
571.3427, 8475.868
571.8248, 8471.511
572.3069, 8489.570
572.7890, 8522.526
573.2711, 8528.565
573.7532, 8494.195
574.2354, 8470.905
574.7175, 8475.718
575.1996, 8495.205
575.6817, 8530.875
576.1638, 8579.373
576.6459, 8593.901
577.1281, 8513.907
577.6102, 8425.897
578.0923, 8418.303
578.5744, 8473.163
579.0565, 8530.513
579.5386, 8567.458
580.0208, 8591.205
580.5029, 8612.083
580.9850, 8629.530
581.4671, 8646.217
581.9492, 8672.428
582.4313, 8686.121
582.9135, 8667.232
583.3956, 8637.313
583.8777, 8629.460
584.3598, 8654.462
584.8419, 8680.182
585.3240, 8670.572
585.8062, 8642.890
586.2883, 8644.285
586.7704, 8679.651
587.2525, 8714.776
587.7346, 8728.861
588.2167, 8727.447
588.6989, 8728.026
589.1810, 8734.436
589.6631, 8736.973
590.1452, 8735.025
590.6273, 8729.556
591.1094, 8716.101
591.5916, 8699.695
592.0737, 8692.467
592.5558, 8701.720
593.0379, 8721.150
593.5200, 8746.978
594.0021, 8778.322
594.4843, 8787.127
594.9664, 8760.381
595.4485, 8729.343
595.9306, 8724.596
596.4127, 8741.790
596.8948, 8741.893
597.3770, 8713.529
597.8591, 8681.146
598.3412, 8639.802
598.8233, 8605.502
599.3054, 8605.506
599.7875, 8637.033
600.2697, 8661.803
600.7518, 8643.767
601.2339, 8596.369
601.7160, 8574.898
602.1981, 8584.325
602.6802, 8601.235
603.1624, 8633.985
603.6445, 8657.551
604.1266, 8636.001
604.6087, 8573.501
605.0908, 8534.330
605.5729, 8550.630
606.0551, 8578.415
606.5372, 8592.259
607.0193, 8595.569
607.5014, 8600.191
607.9835, 8608.688
608.4656, 8605.776
608.9478, 8567.466
609.4299, 8493.605
609.9120, 8449.737
610.3941, 8453.047
610.8762, 8454.361
611.3583, 8429.458
611.8405, 8398.318
612.3226, 8384.629
612.8047, 8391.618
613.2868, 8388.449
