##NAMES=Synchysite-(Ce)
##RRUFFID=R060210
##IDEAL CHEMISTRY=CaCe(CO_3_)_2_F
##LOCALITY=Mont Saint-Hilaire, Rouville County, Quebec, Canada
##OWNER=RRUFF
##SOURCE=Royal Ontario Museum
##DESCRIPTION=Yellowish-brown thin pseudohexagonal tablets
##STATUS=The identification of this mineral is confirmed by single-crystal X-ray diffraction and chemical analysis.
##URL=rruff.info/R060210
##MEASURED CHEMISTRY=Ca_1.00_(Ce_0.55_(La,Pr)_0.28_Nd_0.15_Y_0.02_)(CO_3_)_2_F_1.00_
181.4815, 12227.55
181.9637, 12199.05
182.4458, 12176.98
182.9279, 12167.61
183.4100, 12169.71
183.8921, 12178.81
184.3742, 12196.92
184.8564, 12219.79
185.3385, 12236.93
185.8206, 12248.22
186.3027, 12256.89
186.7848, 12263.33
187.2669, 12268.55
187.7491, 12280.48
188.2312, 12308.01
188.7133, 12344.57
189.1954, 12362.62
189.6775, 12358.60
190.1596, 12351.41
190.6418, 12367.21
191.1239, 12405.36
191.6060, 12441.45
192.0881, 12466.14
192.5702, 12480.16
193.0524, 12487.40
193.5345, 12485.22
194.0166, 12483.04
194.4987, 12501.40
194.9808, 12542.35
195.4629, 12572.83
195.9451, 12568.92
196.4272, 12531.55
196.9093, 12514.09
197.3914, 12522.44
197.8735, 12544.02
198.3556, 12557.05
198.8378, 12561.34
199.3199, 12558.33
199.8020, 12542.97
200.2841, 12513.49
200.7662, 12501.93
201.2483, 12515.00
201.7305, 12542.56
202.2126, 12558.76
202.6947, 12560.67
203.1768, 12562.12
203.6589, 12572.00
204.1410, 12591.39
204.6232, 12612.50
205.1053, 12639.57
205.5874, 12665.79
206.0695, 12665.35
206.5516, 12631.17
207.0337, 12588.89
207.5159, 12550.51
207.9980, 12512.56
208.4801, 12500.41
208.9622, 12526.61
209.4443, 12580.84
209.9264, 12610.64
210.4086, 12608.06
210.8907, 12596.98
211.3728, 12597.32
211.8549, 12614.84
212.3370, 12622.24
212.8191, 12606.97
213.3013, 12575.06
213.7834, 12580.74
214.2655, 12639.25
214.7476, 12711.09
215.2297, 12762.70
215.7118, 12790.96
216.1940, 12807.33
216.6761, 12805.28
217.1582, 12786.88
217.6403, 12804.98
218.1224, 12878.78
218.6045, 12963.10
219.0867, 13014.29
219.5688, 13022.54
220.0509, 13018.07
220.5330, 12996.79
221.0151, 12957.15
221.4972, 12963.03
221.9794, 13035.05
222.4615, 13129.52
222.9436, 13198.54
223.4257, 13225.09
223.9078, 13262.42
224.3899, 13326.45
224.8721, 13421.20
225.3542, 13499.81
225.8363, 13556.95
226.3184, 13603.64
226.8005, 13652.82
227.2827, 13702.13
227.7648, 13758.08
228.2469, 13824.37
228.7290, 13902.72
229.2111, 13976.08
229.6932, 14043.29
230.1754, 14105.57
230.6575, 14164.35
231.1396, 14214.66
231.6217, 14269.79
232.1038, 14336.04
232.5859, 14417.66
233.0681, 14486.81
233.5502, 14537.75
234.0323, 14580.13
234.5144, 14628.34
234.9965, 14683.70
235.4786, 14741.86
235.9608, 14797.77
236.4429, 14843.88
236.9250, 14922.84
237.4071, 15060.34
237.8892, 15214.16
238.3713, 15314.29
238.8535, 15331.64
239.3356, 15343.92
239.8177, 15377.37
240.2998, 15441.23
240.7819, 15490.66
241.2640, 15521.43
241.7462, 15541.01
242.2283, 15563.49
242.7104, 15596.06
243.1925, 15619.46
243.6746, 15623.61
244.1567, 15597.91
244.6389, 15590.13
245.1210, 15606.92
245.6031, 15637.57
246.0852, 15666.07
246.5673, 15702.59
247.0494, 15719.33
247.5316, 15700.42
248.0137, 15628.51
248.4958, 15579.21
248.9779, 15554.61
249.4600, 15551.84
249.9421, 15570.95
250.4243, 15632.13
250.9064, 15679.23
251.3885, 15688.05
251.8706, 15644.26
252.3527, 15609.55
252.8348, 15586.14
253.3170, 15570.44
253.7991, 15558.01
254.2812, 15555.56
254.7633, 15543.64
255.2454, 15510.49
255.7275, 15445.54
256.2097, 15401.05
256.6918, 15385.81
257.1739, 15385.50
257.6560, 15371.93
258.1381, 15336.62
258.6202, 15305.59
259.1024, 15291.92
259.5845, 15303.94
260.0666, 15296.92
260.5487, 15259.67
261.0308, 15211.89
261.5129, 15191.70
261.9951, 15211.79
262.4772, 15229.46
262.9593, 15225.53
263.4414, 15193.37
263.9235, 15171.11
264.4056, 15160.15
264.8878, 15157.58
265.3699, 15158.67
265.8520, 15164.24
266.3341, 15171.19
266.8162, 15180.58
267.2983, 15194.40
267.7805, 15196.03
268.2626, 15181.26
268.7447, 15158.92
269.2268, 15145.56
269.7089, 15144.72
270.1910, 15140.22
270.6732, 15123.74
271.1553, 15093.56
271.6374, 15069.25
272.1195, 15052.08
272.6016, 15038.87
273.0837, 15026.51
273.5659, 15015.96
274.0480, 15001.17
274.5301, 14978.36
275.0122, 14947.28
275.4943, 14918.51
275.9764, 14893.90
276.4586, 14868.11
276.9407, 14828.76
277.4228, 14773.75
277.9049, 14727.48
278.3870, 14700.85
278.8691, 14693.24
279.3513, 14693.58
279.8334, 14705.06
280.3155, 14716.32
280.7976, 14709.40
281.2798, 14683.54
281.7619, 14658.54
282.2440, 14643.71
282.7261, 14637.09
283.2082, 14622.11
283.6903, 14596.77
284.1725, 14570.43
284.6546, 14555.64
285.1367, 14552.14
285.6188, 14549.50
286.1009, 14544.96
286.5830, 14538.40
287.0652, 14526.28
287.5473, 14507.01
288.0294, 14492.34
288.5115, 14498.25
288.9936, 14522.69
289.4757, 14548.62
289.9579, 14573.68
290.4400, 14595.44
290.9221, 14604.44
291.4042, 14599.62
291.8863, 14595.07
292.3684, 14612.44
292.8506, 14644.75
293.3327, 14661.07
293.8148, 14641.97
294.2969, 14606.59
294.7790, 14595.90
295.2611, 14609.92
295.7433, 14623.51
296.2254, 14602.35
296.7075, 14561.91
297.1896, 14548.63
297.6717, 14594.49
298.1538, 14657.79
298.6360, 14667.77
299.1181, 14628.70
299.6002, 14589.98
300.0823, 14599.72
300.5644, 14635.32
301.0465, 14653.29
301.5287, 14636.31
302.0108, 14604.59
302.4929, 14573.84
302.9750, 14545.36
303.4571, 14528.36
303.9392, 14540.38
304.4214, 14564.01
304.9035, 14575.02
305.3856, 14562.42
305.8677, 14543.82
306.3498, 14532.68
306.8319, 14528.04
307.3141, 14526.36
307.7962, 14533.33
308.2783, 14538.68
308.7604, 14530.61
309.2425, 14501.53
309.7246, 14470.53
310.2068, 14451.77
310.6889, 14440.80
311.1710, 14425.77
311.6531, 14394.57
312.1352, 14361.02
312.6173, 14337.23
313.0995, 14329.78
313.5816, 14319.24
314.0637, 14290.35
314.5458, 14252.34
315.0279, 14222.37
315.5100, 14214.23
315.9922, 14210.40
316.4743, 14201.30
316.9564, 14184.41
317.4385, 14168.13
317.9206, 14153.76
318.4027, 14142.00
318.8849, 14133.81
319.3670, 14126.89
319.8491, 14125.85
320.3312, 14139.49
320.8133, 14174.54
321.2954, 14186.41
321.7776, 14135.95
322.2597, 14069.90
322.7418, 14038.06
323.2239, 14094.04
323.7060, 14138.51
324.1881, 14142.21
324.6703, 14100.37
325.1524, 14068.08
325.6345, 14062.07
326.1166, 14060.47
326.5987, 14045.22
327.0808, 13974.07
327.5630, 13939.28
328.0451, 13970.77
328.5272, 14064.09
329.0093, 14121.94
329.4914, 14124.40
329.9735, 14108.40
330.4557, 14096.88
330.9378, 14091.42
331.4199, 14087.31
331.9020, 14080.89
332.3841, 14074.97
332.8662, 14085.28
333.3484, 14122.42
333.8305, 14159.57
334.3126, 14180.46
334.7947, 14177.04
335.2768, 14181.91
335.7589, 14198.77
336.2411, 14223.61
336.7232, 14247.86
337.2053, 14272.42
337.6874, 14293.24
338.1695, 14306.06
338.6516, 14308.90
339.1338, 14319.65
339.6159, 14338.21
340.0980, 14365.32
340.5801, 14405.37
341.0622, 14460.64
341.5443, 14512.27
342.0265, 14553.84
342.5086, 14585.50
342.9907, 14609.76
343.4728, 14624.67
343.9549, 14639.10
344.4370, 14668.03
344.9192, 14709.17
345.4013, 14741.32
345.8834, 14750.03
346.3655, 14745.95
346.8476, 14756.78
347.3297, 14782.69
347.8119, 14816.19
348.2940, 14854.84
348.7761, 14896.03
349.2582, 14931.47
349.7403, 14960.92
350.2225, 14982.39
350.7046, 14987.50
351.1867, 14978.62
351.6688, 14973.70
352.1509, 14988.46
352.6331, 15014.71
353.1152, 15042.85
353.5973, 15077.88
354.0794, 15100.81
354.5615, 15086.88
355.0436, 15045.23
355.5258, 15003.64
356.0079, 14976.21
356.4900, 14956.15
356.9721, 14940.73
357.4542, 14933.97
357.9363, 14916.83
358.4185, 14866.29
358.9006, 14799.44
359.3827, 14745.85
359.8648, 14747.76
360.3469, 14741.58
360.8290, 14678.77
361.3112, 14542.61
361.7933, 14442.76
362.2754, 14441.89
362.7575, 14483.94
363.2396, 14508.11
363.7217, 14490.31
364.2039, 14463.41
364.6860, 14436.20
365.1681, 14408.86
365.6502, 14372.63
366.1323, 14312.19
366.6144, 14250.92
367.0966, 14204.79
367.5787, 14181.04
368.0608, 14165.14
368.5429, 14166.76
369.0250, 14178.84
369.5071, 14163.54
369.9893, 14094.06
370.4714, 14028.49
370.9535, 13998.31
371.4356, 14029.65
371.9177, 14035.90
372.3998, 14003.96
372.8820, 13952.38
373.3641, 13922.36
373.8462, 13917.93
374.3283, 13924.83
374.8104, 13939.88
375.2925, 13964.16
375.7747, 13988.62
376.2568, 14018.44
376.7389, 14038.69
377.2210, 14018.78
377.7031, 13954.75
378.1852, 13909.66
378.6674, 13915.81
379.1495, 13955.62
379.6316, 13942.04
380.1137, 13869.03
380.5958, 13798.53
381.0779, 13803.56
381.5601, 13867.36
382.0422, 13904.26
382.5243, 13886.20
383.0064, 13844.45
383.4885, 13829.90
383.9706, 13839.85
384.4528, 13855.35
384.9349, 13869.57
385.4170, 13879.44
385.8991, 13878.42
386.3812, 13862.74
386.8633, 13845.20
387.3455, 13839.37
387.8276, 13840.91
388.3097, 13839.82
388.7918, 13819.95
389.2739, 13802.61
389.7560, 13807.49
390.2382, 13837.59
390.7203, 13871.92
391.2024, 13916.79
391.6845, 13953.64
392.1666, 13961.42
392.6487, 13897.20
393.1309, 13835.87
393.6130, 13808.93
394.0951, 13814.33
394.5772, 13824.01
395.0593, 13842.54
395.5414, 13855.72
396.0236, 13854.41
396.5057, 13806.69
396.9878, 13780.81
397.4699, 13807.01
397.9520, 13862.91
398.4341, 13877.20
398.9163, 13800.65
399.3984, 13733.57
399.8805, 13715.35
400.3626, 13766.87
400.8447, 13806.57
401.3268, 13838.46
401.8090, 13855.51
402.2911, 13841.60
402.7732, 13778.02
403.2553, 13733.77
403.7374, 13734.95
404.2195, 13778.01
404.7017, 13793.61
405.1838, 13772.49
405.6659, 13748.96
406.1480, 13763.54
406.6301, 13817.26
407.1122, 13842.35
407.5944, 13817.64
408.0765, 13766.60
408.5586, 13745.67
409.0407, 13754.29
409.5228, 13770.03
410.0049, 13780.33
410.4871, 13786.26
410.9692, 13789.04
411.4513, 13787.12
411.9334, 13788.90
412.4155, 13811.93
412.8976, 13847.90
413.3798, 13872.13
413.8619, 13865.67
414.3440, 13846.79
414.8261, 13834.17
415.3082, 13828.19
415.7903, 13822.01
416.2725, 13805.05
416.7546, 13787.60
417.2367, 13781.13
417.7188, 13795.42
418.2009, 13814.87
418.6830, 13836.91
419.1652, 13859.56
419.6473, 13874.62
420.1294, 13872.51
420.6115, 13867.31
421.0937, 13867.05
421.5758, 13876.23
422.0579, 13882.95
422.5400, 13881.58
423.0221, 13877.68
423.5042, 13880.51
423.9864, 13901.04
424.4685, 13916.02
424.9506, 13914.74
425.4327, 13894.28
425.9148, 13898.78
426.3969, 13947.79
426.8791, 13999.49
427.3612, 14012.92
427.8433, 13971.42
428.3254, 13945.28
428.8075, 13950.21
429.2896, 13974.81
429.7718, 13977.74
430.2539, 13955.12
430.7360, 13931.74
431.2181, 13923.03
431.7002, 13928.03
432.1823, 13932.76
432.6645, 13936.47
433.1466, 13940.12
433.6287, 13945.25
434.1108, 13951.55
434.5929, 13957.68
435.0750, 13962.02
435.5572, 13966.23
436.0393, 13974.48
436.5214, 13986.53
437.0035, 13997.16
437.4856, 14002.78
437.9677, 14004.23
438.4499, 14002.23
438.9320, 13995.40
439.4141, 13987.83
439.8962, 13977.52
440.3783, 13968.30
440.8604, 13969.78
441.3426, 14009.99
441.8247, 14044.07
442.3068, 14036.17
442.7889, 13967.85
443.2710, 13928.13
443.7531, 13968.64
444.2353, 14038.98
444.7174, 14084.10
445.1995, 14071.75
445.6816, 14059.97
446.1637, 14057.62
446.6458, 14064.12
447.1280, 14073.68
447.6101, 14089.43
448.0922, 14104.83
448.5743, 14116.85
449.0564, 14127.35
449.5385, 14128.76
450.0207, 14117.03
450.5028, 14099.72
450.9849, 14092.33
451.4670, 14097.14
451.9491, 14100.10
452.4312, 14089.94
452.9134, 14071.05
453.3955, 14086.53
453.8776, 14141.93
454.3597, 14191.78
454.8418, 14173.52
455.3239, 14106.41
455.8061, 14075.21
456.2882, 14112.94
456.7703, 14172.71
457.2524, 14185.53
457.7345, 14160.74
458.2166, 14136.59
458.6988, 14132.68
459.1809, 14143.03
459.6630, 14167.88
460.1451, 14211.09
460.6272, 14241.53
461.1093, 14227.56
461.5915, 14192.96
462.0736, 14167.50
462.5557, 14157.01
463.0378, 14161.18
463.5199, 14192.20
464.0020, 14244.32
464.4842, 14276.91
464.9663, 14264.52
465.4484, 14242.69
465.9305, 14229.22
466.4126, 14221.86
466.8947, 14228.93
467.3769, 14266.56
467.8590, 14311.52
468.3411, 14322.58
468.8232, 14277.50
469.3053, 14242.37
469.7874, 14233.81
470.2696, 14251.08
470.7517, 14286.74
471.2338, 14349.04
471.7159, 14404.18
472.1980, 14412.96
472.6801, 14376.87
473.1623, 14361.58
473.6444, 14380.68
474.1265, 14415.71
474.6086, 14438.64
475.0907, 14450.12
475.5728, 14454.25
476.0550, 14443.55
476.5371, 14430.25
477.0192, 14438.65
477.5013, 14469.85
477.9834, 14499.88
478.4655, 14499.97
478.9477, 14491.03
479.4298, 14501.77
479.9119, 14562.12
480.3940, 14617.17
480.8761, 14632.93
481.3582, 14619.92
481.8404, 14607.96
482.3225, 14600.54
482.8046, 14601.54
483.2867, 14617.99
483.7688, 14661.38
484.2509, 14682.21
484.7331, 14648.89
485.2152, 14605.30
485.6973, 14592.61
486.1794, 14628.92
486.6615, 14665.57
487.1436, 14696.69
487.6258, 14723.15
488.1079, 14752.19
488.5900, 14789.54
489.0721, 14812.89
489.5542, 14799.09
490.0363, 14747.51
490.5185, 14732.39
491.0006, 14763.51
491.4827, 14805.19
491.9648, 14803.85
492.4470, 14768.30
492.9291, 14747.57
493.4112, 14767.24
493.8933, 14803.44
494.3754, 14818.70
494.8575, 14815.88
495.3397, 14812.20
495.8218, 14826.61
496.3039, 14842.43
496.7860, 14836.44
497.2681, 14797.03
497.7502, 14768.19
498.2324, 14785.45
498.7145, 14823.77
499.1966, 14849.44
499.6787, 14835.62
500.1608, 14824.48
500.6429, 14827.82
501.1251, 14845.51
501.6072, 14870.52
502.0893, 14918.90
502.5714, 14960.17
503.0535, 14977.30
503.5356, 14951.43
504.0178, 14948.16
504.4999, 14978.56
504.9820, 15021.54
505.4641, 15049.38
505.9462, 15063.70
506.4283, 15051.57
506.9105, 14994.24
507.3926, 14910.97
507.8747, 14884.77
508.3568, 14918.07
508.8389, 14963.72
509.3210, 14984.87
509.8032, 14991.66
510.2853, 15014.96
510.7674, 15061.91
511.2495, 15111.35
511.7316, 15145.85
512.2137, 15166.68
512.6959, 15176.09
513.1780, 15172.61
513.6601, 15160.34
514.1422, 15132.07
514.6243, 15092.37
515.1064, 15071.18
515.5886, 15097.62
516.0707, 15134.07
516.5528, 15157.35
517.0349, 15159.12
517.5170, 15159.48
517.9991, 15154.43
518.4813, 15151.26
518.9634, 15159.29
519.4455, 15180.33
519.9276, 15210.45
520.4097, 15255.73
520.8918, 15310.69
521.3740, 15340.84
521.8561, 15339.98
522.3382, 15334.79
522.8203, 15344.77
523.3024, 15368.50
523.7845, 15381.72
524.2667, 15381.46
524.7488, 15377.07
525.2309, 15382.94
525.7130, 15394.99
526.1951, 15397.61
526.6772, 15370.26
527.1594, 15345.32
527.6415, 15370.02
528.1236, 15434.11
528.6057, 15493.34
529.0878, 15523.18
529.5699, 15537.50
530.0521, 15545.89
530.5342, 15550.22
531.0163, 15546.45
531.4984, 15512.23
531.9805, 15478.24
532.4626, 15476.87
532.9448, 15545.08
533.4269, 15607.46
533.9090, 15657.19
534.3911, 15695.16
534.8732, 15720.45
535.3553, 15722.28
535.8375, 15732.66
536.3196, 15774.08
536.8017, 15850.36
537.2838, 15880.48
537.7659, 15853.70
538.2480, 15817.11
538.7302, 15822.84
539.2123, 15865.84
539.6944, 15914.25
540.1765, 15968.54
540.6586, 16011.72
541.1407, 16009.09
541.6229, 15972.63
542.1050, 15945.41
542.5871, 15948.76
543.0692, 15972.83
543.5513, 16015.59
544.0334, 16076.27
544.5156, 16132.83
544.9977, 16173.07
545.4798, 16206.04
545.9619, 16238.58
546.4440, 16276.81
546.9261, 16307.55
547.4083, 16328.28
547.8904, 16340.48
548.3725, 16344.41
548.8546, 16321.27
549.3367, 16321.52
549.8188, 16364.32
550.3010, 16445.26
550.7831, 16516.00
551.2652, 16578.92
551.7473, 16623.84
552.2294, 16633.17
552.7115, 16611.66
553.1937, 16605.99
553.6758, 16620.32
554.1579, 16648.48
554.6400, 16684.94
555.1221, 16729.42
555.6042, 16781.42
556.0864, 16856.34
556.5685, 16923.67
557.0506, 16943.73
557.5327, 16928.06
558.0148, 16919.10
558.4969, 16946.76
558.9791, 16980.63
559.4612, 16998.53
559.9433, 16992.33
560.4254, 17000.46
560.9075, 17044.58
561.3896, 17097.76
561.8718, 17135.89
562.3539, 17142.07
562.8360, 17162.83
563.3181, 17207.84
563.8002, 17266.21
564.2823, 17313.93
564.7645, 17350.45
565.2466, 17376.25
565.7287, 17385.22
566.2108, 17382.96
566.6929, 17398.73
567.1750, 17433.01
567.6572, 17472.25
568.1393, 17507.71
568.6214, 17539.04
569.1035, 17562.90
569.5856, 17577.28
570.0677, 17591.30
570.5499, 17613.23
571.0320, 17639.84
571.5141, 17666.17
571.9962, 17682.47
572.4783, 17706.01
572.9604, 17751.26
573.4426, 17812.37
573.9247, 17860.18
574.4068, 17877.17
574.8889, 17891.21
575.3710, 17913.27
575.8531, 17945.43
576.3353, 17972.08
576.8174, 17988.23
577.2995, 18005.91
577.7816, 18038.90
578.2637, 18088.72
578.7458, 18136.54
579.2280, 18180.19
579.7101, 18219.71
580.1922, 18250.43
580.6743, 18274.97
581.1564, 18308.06
581.6385, 18368.57
582.1207, 18435.13
582.6028, 18470.38
583.0849, 18479.20
583.5670, 18502.24
584.0491, 18591.44
584.5313, 18686.51
585.0134, 18735.00
585.4955, 18711.63
585.9776, 18698.63
586.4597, 18734.12
586.9418, 18783.30
587.4240, 18804.78
587.9061, 18758.61
588.3882, 18745.14
588.8703, 18778.61
589.3524, 18850.66
589.8345, 18949.22
590.3167, 19090.92
590.7988, 19194.68
591.2809, 19209.37
591.7630, 19154.18
592.2451, 19123.32
592.7272, 19117.28
593.2094, 19124.45
593.6915, 19145.14
594.1736, 19170.19
594.6557, 19178.78
595.1378, 19162.99
595.6199, 19149.60
596.1021, 19163.70
596.5842, 19191.52
597.0663, 19213.49
597.5485, 19228.57
598.0306, 19230.67
598.5127, 19211.71
598.9948, 19176.43
599.4769, 19144.83
599.9590, 19114.13
600.4412, 19091.72
600.9233, 19082.73
601.4054, 19088.38
601.8875, 19086.07
602.3696, 19072.42
602.8517, 19059.13
603.3339, 19057.96
603.8160, 19067.81
604.2981, 19075.71
604.7802, 19080.73
605.2623, 19081.59
605.7444, 19067.21
606.2266, 19046.65
606.7087, 19046.63
607.1908, 19116.34
607.6729, 19169.31
608.1550, 19112.39
608.6371, 18977.70
609.1193, 18867.72
609.6014, 18834.75
610.0835, 18827.29
610.5656, 18832.02
611.0477, 18852.96
611.5298, 18842.76
612.0120, 18780.77
612.4941, 18707.03
612.9762, 18645.69
613.4583, 18595.33
613.9404, 18568.42
614.4225, 18578.10
614.9047, 18589.34
615.3868, 18536.52
615.8689, 18425.86
616.3510, 18347.87
616.8331, 18340.13
617.3152, 18363.84
617.7974, 18364.36
618.2795, 18345.29
618.7616, 18320.87
619.2437, 18309.39
619.7258, 18287.90
620.2079, 18227.59
620.6901, 18128.04
621.1722, 18047.51
621.6543, 18017.17
622.1364, 18004.59
622.6185, 17989.91
623.1006, 17970.63
623.5828, 17952.71
624.0649, 17944.79
624.5470, 17930.29
625.0291, 17880.83
625.5112, 17784.65
625.9933, 17719.60
626.4755, 17708.99
626.9576, 17725.23
627.4397, 17708.30
627.9218, 17662.85
628.4039, 17624.19
628.8860, 17618.72
629.3682, 17625.31
629.8503, 17611.62
630.3324, 17580.76
630.8145, 17557.46
631.2966, 17564.64
631.7787, 17578.80
632.2609, 17585.35
632.7430, 17583.73
633.2251, 17569.04
633.7072, 17520.62
634.1893, 17471.01
634.6714, 17447.94
635.1536, 17465.24
635.6357, 17479.63
636.1178, 17490.43
636.5999, 17494.29
637.0820, 17478.44
637.5641, 17441.62
638.0463, 17419.77
638.5284, 17433.46
639.0105, 17461.28
639.4926, 17454.48
639.9747, 17419.26
640.4568, 17391.70
640.9390, 17399.32
641.4211, 17420.73
641.9032, 17442.97
642.3853, 17464.96
642.8674, 17467.19
643.3495, 17416.06
643.8317, 17359.69
644.3138, 17332.46
644.7959, 17361.27
645.2780, 17374.71
645.7601, 17362.94
646.2422, 17344.44
646.7244, 17342.69
647.2065, 17361.95
647.6886, 17376.56
648.1707, 17383.01
648.6528, 17381.11
649.1349, 17366.34
649.6171, 17340.67
650.0992, 17317.63
650.5813, 17302.66
651.0634, 17294.32
651.5455, 17288.88
652.0276, 17287.56
652.5098, 17297.15
652.9919, 17336.38
653.4740, 17375.93
653.9561, 17396.76
654.4382, 17394.49
654.9203, 17388.66
655.4025, 17374.15
655.8846, 17362.93
656.3667, 17366.84
656.8488, 17399.85
657.3309, 17398.83
657.8130, 17344.56
658.2952, 17286.77
658.7773, 17309.58
659.2594, 17405.21
659.7415, 17477.07
660.2236, 17494.44
660.7057, 17485.86
661.1879, 17487.34
661.6700, 17495.79
662.1521, 17502.57
662.6342, 17504.60
663.1163, 17502.68
663.5984, 17493.15
664.0806, 17477.87
664.5627, 17471.13
665.0448, 17490.72
665.5269, 17506.39
666.0090, 17501.50
666.4911, 17470.86
666.9733, 17460.92
667.4554, 17480.78
667.9375, 17503.26
668.4196, 17503.80
668.9017, 17483.21
669.3839, 17465.23
669.8660, 17450.68
670.3481, 17445.20
670.8302, 17464.12
671.3123, 17496.46
671.7944, 17518.89
672.2766, 17524.14
672.7587, 17517.29
673.2408, 17492.23
673.7229, 17458.56
674.2050, 17434.51
674.6871, 17418.95
675.1693, 17420.80
675.6514, 17460.04
676.1335, 17523.74
676.6156, 17539.41
