##NAMES=Syngenite
##RRUFFID=R061002
##IDEAL CHEMISTRY=K_2_Ca(S^6+^O_4_)_2_&#183;H_2_O
##LOCALITY=Kalush, Ukraine
##OWNER=RRUFF
##SOURCE=Michael Scott
##DESCRIPTION=Colorless transparent tabular crystal
##STATUS=The identification of this mineral has been confirmed by X-ray diffraction and chemical analysis
##URL=rruff.info/R061002
##MEASURED CHEMISTRY=K_2.00_Ca_1.00_(S_1.00_O_4_)_2_·H_2_O ; light inclusions are (K_1.99_Na_0.01_)_Σ=2_S_1.00_O_4_ (arcanite) ; H not measured but estimated by difference
147.5623, 1330.681
148.0445, 1381.063
148.5266, 1428.438
149.0087, 1472.297
149.4908, 1510.544
149.9729, 1545.666
150.4550, 1581.463
150.9371, 1621.127
151.4193, 1663.360
151.9014, 1698.609
152.3835, 1721.574
152.8656, 1742.688
153.3477, 1766.423
153.8298, 1789.642
154.3120, 1806.096
154.7941, 1811.215
155.2762, 1805.699
155.7583, 1801.097
156.2404, 1794.505
156.7225, 1791.625
157.2047, 1796.894
157.6868, 1807.269
158.1689, 1816.338
158.6510, 1819.493
159.1331, 1816.877
159.6152, 1815.370
160.0974, 1810.842
160.5795, 1811.108
161.0616, 1818.986
161.5437, 1833.983
162.0258, 1854.306
162.5079, 1878.758
162.9901, 1907.301
163.4722, 1941.575
163.9543, 1986.132
164.4364, 2030.578
164.9185, 2067.890
165.4007, 2100.351
165.8828, 2135.520
166.3649, 2179.323
166.8470, 2231.593
167.3291, 2284.490
167.8112, 2346.208
168.2934, 2401.038
168.7755, 2438.319
169.2576, 2460.439
169.7397, 2478.564
170.2218, 2501.096
170.7039, 2527.394
171.1861, 2546.426
171.6682, 2549.547
172.1503, 2553.768
172.6324, 2571.246
173.1145, 2600.021
173.5966, 2628.119
174.0788, 2647.633
174.5609, 2658.223
175.0430, 2665.082
175.5251, 2661.759
176.0072, 2660.273
176.4893, 2671.617
176.9714, 2693.848
177.4536, 2712.490
177.9357, 2715.841
178.4178, 2705.629
178.8999, 2702.593
179.3820, 2718.655
179.8641, 2732.094
180.3463, 2729.579
180.8284, 2711.177
181.3105, 2681.137
181.7926, 2638.310
182.2747, 2585.154
182.7568, 2539.068
183.2390, 2507.137
183.7211, 2476.430
184.2032, 2436.240
184.6853, 2387.397
185.1674, 2340.277
185.6495, 2303.105
186.1317, 2272.923
186.6138, 2236.181
187.0959, 2182.735
187.5780, 2130.554
188.0601, 2092.894
188.5422, 2069.091
189.0244, 2050.187
189.5065, 2034.512
189.9886, 2019.134
190.4707, 1996.008
190.9528, 1953.440
191.4349, 1913.655
191.9171, 1895.876
192.3992, 1898.383
192.8813, 1903.073
193.3634, 1902.178
193.8455, 1895.629
194.3276, 1884.944
194.8098, 1865.290
195.2919, 1847.073
195.7740, 1838.552
196.2561, 1839.013
196.7382, 1841.811
197.2203, 1844.981
197.7025, 1847.770
198.1846, 1849.002
198.6667, 1849.238
199.1488, 1847.085
199.6309, 1840.574
200.1130, 1830.133
200.5951, 1819.819
201.0773, 1812.204
201.5594, 1805.078
202.0415, 1794.754
202.5236, 1781.690
203.0057, 1764.516
203.4878, 1739.047
203.9700, 1706.990
204.4521, 1679.210
204.9342, 1662.197
205.4163, 1649.966
205.8984, 1631.348
206.3805, 1603.413
206.8627, 1576.742
207.3448, 1559.566
207.8269, 1549.844
208.3090, 1537.853
208.7911, 1519.538
209.2732, 1498.152
209.7554, 1478.075
210.2375, 1458.707
210.7196, 1442.284
211.2017, 1431.413
211.6838, 1424.800
212.1659, 1418.226
212.6481, 1411.016
213.1302, 1402.655
213.6123, 1391.763
214.0944, 1377.686
214.5765, 1365.935
215.0586, 1361.994
215.5408, 1362.510
216.0229, 1356.606
216.5050, 1338.068
216.9871, 1319.423
217.4692, 1318.653
217.9513, 1335.531
218.4335, 1350.560
218.9156, 1355.431
219.3977, 1353.145
219.8798, 1349.227
220.3619, 1344.002
220.8440, 1339.161
221.3262, 1336.105
221.8083, 1334.632
222.2904, 1335.976
222.7725, 1342.581
223.2546, 1351.672
223.7367, 1358.607
224.2189, 1362.520
224.7010, 1365.472
225.1831, 1370.445
225.6652, 1376.835
226.1473, 1379.732
226.6294, 1374.585
227.1115, 1366.881
227.5937, 1363.449
228.0758, 1365.053
228.5579, 1369.063
229.0400, 1373.005
229.5221, 1377.443
230.0042, 1385.412
230.4864, 1401.969
230.9685, 1419.348
231.4506, 1428.009
231.9327, 1427.712
232.4148, 1429.660
232.8969, 1443.127
233.3791, 1465.945
233.8612, 1485.029
234.3433, 1501.339
234.8254, 1512.621
235.3075, 1512.526
235.7896, 1503.033
236.2718, 1500.075
236.7539, 1515.741
237.2360, 1544.271
237.7181, 1562.986
238.2002, 1566.468
238.6823, 1566.281
239.1645, 1569.505
239.6466, 1574.287
240.1287, 1573.764
240.6108, 1563.659
241.0929, 1547.161
241.5750, 1533.469
242.0572, 1525.774
242.5393, 1515.511
243.0214, 1496.137
243.5035, 1472.207
243.9856, 1454.100
244.4677, 1446.714
244.9499, 1444.294
245.4320, 1434.171
245.9141, 1413.040
246.3962, 1393.865
246.8783, 1380.358
247.3604, 1370.042
247.8426, 1359.684
248.3247, 1348.254
248.8068, 1336.662
249.2889, 1325.907
249.7710, 1315.530
250.2531, 1307.695
250.7352, 1305.504
251.2174, 1304.287
251.6995, 1299.026
252.1816, 1289.007
252.6637, 1277.651
253.1458, 1268.642
253.6279, 1262.390
254.1101, 1257.367
254.5922, 1252.913
255.0743, 1250.102
255.5564, 1251.549
256.0385, 1256.222
256.5207, 1258.718
257.0028, 1253.600
257.4849, 1240.061
257.9670, 1232.743
258.4491, 1236.595
258.9312, 1240.557
259.4134, 1239.345
259.8955, 1234.301
260.3776, 1229.443
260.8597, 1227.263
261.3418, 1227.658
261.8239, 1229.835
262.3060, 1239.477
262.7881, 1244.419
263.2703, 1239.798
263.7524, 1229.407
264.2345, 1217.906
264.7166, 1207.398
265.1987, 1198.846
265.6808, 1195.178
266.1630, 1201.089
266.6451, 1206.139
267.1272, 1211.780
267.6093, 1215.359
268.0914, 1212.544
268.5735, 1202.391
269.0557, 1190.500
269.5378, 1186.989
270.0199, 1198.494
270.5020, 1205.057
270.9841, 1203.646
271.4662, 1200.125
271.9484, 1197.691
272.4305, 1197.068
272.9126, 1197.827
273.3947, 1199.908
273.8768, 1203.899
274.3589, 1206.193
274.8411, 1206.372
275.3232, 1205.130
275.8053, 1202.687
276.2874, 1198.992
276.7695, 1193.562
277.2516, 1184.704
277.7338, 1173.042
278.2159, 1168.204
278.6980, 1177.908
279.1801, 1184.685
279.6622, 1179.743
280.1443, 1168.657
280.6265, 1160.563
281.1086, 1160.484
281.5907, 1166.111
282.0728, 1172.290
282.5549, 1180.737
283.0370, 1185.483
283.5192, 1180.800
284.0013, 1173.330
284.4834, 1170.586
284.9655, 1175.808
285.4476, 1181.959
285.9297, 1178.670
286.4119, 1164.666
286.8940, 1153.439
287.3761, 1151.005
287.8582, 1151.132
288.3403, 1149.073
288.8224, 1144.439
289.3046, 1137.451
289.7867, 1123.112
290.2688, 1104.673
290.7509, 1101.525
291.2330, 1125.089
291.7151, 1152.072
292.1973, 1158.741
292.6794, 1148.064
293.1615, 1139.186
293.6436, 1142.974
294.1257, 1152.378
294.6078, 1154.472
295.0900, 1147.066
295.5721, 1139.194
296.0542, 1139.314
296.5363, 1145.143
297.0184, 1147.104
297.5005, 1138.351
297.9827, 1129.570
298.4648, 1130.106
298.9469, 1139.106
299.4290, 1150.256
299.9111, 1161.907
300.3932, 1172.057
300.8754, 1174.125
301.3575, 1160.990
301.8396, 1150.109
302.3217, 1150.302
302.8038, 1156.907
303.2859, 1160.736
303.7681, 1158.139
304.2502, 1152.842
304.7323, 1152.106
305.2144, 1159.737
305.6965, 1164.109
306.1786, 1161.948
306.6608, 1157.695
307.1429, 1155.135
307.6250, 1155.035
308.1071, 1156.314
308.5892, 1158.004
309.0714, 1160.525
309.5535, 1161.283
310.0356, 1159.364
310.5177, 1156.887
310.9998, 1155.000
311.4819, 1153.440
311.9640, 1150.637
312.4461, 1144.763
312.9283, 1136.896
313.4104, 1136.938
313.8925, 1157.854
314.3746, 1171.814
314.8567, 1169.557
315.3388, 1159.736
315.8210, 1153.405
316.3031, 1155.323
316.7852, 1161.205
317.2673, 1162.654
317.7494, 1158.829
318.2315, 1152.391
318.7137, 1137.857
319.1958, 1125.085
319.6779, 1122.626
320.1600, 1130.906
320.6421, 1141.079
321.1242, 1143.785
321.6064, 1138.926
322.0885, 1135.177
322.5706, 1131.380
323.0527, 1131.045
323.5348, 1138.369
324.0169, 1150.768
324.4991, 1160.645
324.9812, 1161.618
325.4633, 1158.005
325.9454, 1161.426
326.4275, 1175.108
326.9096, 1183.062
327.3918, 1166.797
327.8739, 1141.698
328.3560, 1132.844
328.8381, 1152.733
329.3202, 1176.693
329.8023, 1184.191
330.2845, 1177.470
330.7666, 1168.987
331.2487, 1162.233
331.7308, 1156.996
332.2129, 1152.101
332.6950, 1146.335
333.1772, 1145.282
333.6593, 1156.159
334.1414, 1170.656
334.6235, 1176.327
335.1056, 1170.794
335.5877, 1161.836
336.0699, 1157.310
336.5520, 1158.079
337.0341, 1157.581
337.5162, 1154.642
337.9983, 1151.543
338.4804, 1148.673
338.9626, 1146.630
339.4447, 1147.290
339.9268, 1152.322
340.4089, 1160.422
340.8910, 1164.323
341.3731, 1158.029
341.8553, 1154.531
342.3374, 1156.787
342.8195, 1161.903
343.3016, 1167.149
343.7837, 1171.508
344.2658, 1174.694
344.7480, 1176.306
345.2301, 1176.389
345.7122, 1174.597
346.1943, 1170.177
346.6764, 1164.610
347.1585, 1156.701
347.6407, 1147.823
348.1228, 1142.283
348.6049, 1144.907
349.0870, 1154.323
349.5691, 1159.931
350.0512, 1160.122
350.5334, 1158.953
351.0155, 1158.341
351.4976, 1157.547
351.9797, 1155.067
352.4618, 1149.414
352.9439, 1143.889
353.4261, 1143.846
353.9082, 1149.466
354.3903, 1153.420
354.8724, 1152.154
355.3545, 1149.179
355.8366, 1148.742
356.3188, 1150.997
356.8009, 1154.697
357.2830, 1160.140
357.7651, 1166.429
358.2472, 1172.652
358.7293, 1178.949
359.2115, 1182.758
359.6936, 1180.772
360.1757, 1172.902
360.6578, 1166.935
361.1399, 1164.931
361.6220, 1163.308
362.1041, 1160.491
362.5862, 1156.285
363.0684, 1149.380
363.5505, 1138.202
364.0326, 1125.763
364.5147, 1122.331
364.9968, 1139.672
365.4789, 1151.194
365.9611, 1153.079
366.4432, 1149.497
366.9253, 1141.794
367.4074, 1131.469
367.8895, 1123.830
368.3716, 1126.682
368.8538, 1143.473
369.3359, 1153.954
369.8180, 1151.607
370.3001, 1149.157
370.7822, 1152.123
371.2643, 1158.475
371.7465, 1163.226
372.2286, 1163.151
372.7107, 1159.746
373.1928, 1156.498
373.6749, 1152.026
374.1570, 1151.450
374.6392, 1161.739
375.1213, 1173.760
375.6034, 1178.961
376.0855, 1175.304
376.5676, 1169.820
377.0497, 1168.636
377.5319, 1170.789
378.0140, 1171.836
378.4961, 1171.243
378.9782, 1168.998
379.4603, 1163.644
379.9424, 1156.023
380.4246, 1150.511
380.9067, 1149.243
381.3888, 1149.695
381.8709, 1149.984
382.3530, 1149.990
382.8351, 1149.593
383.3173, 1148.718
383.7994, 1147.410
384.2815, 1145.754
384.7636, 1141.847
385.2457, 1140.240
385.7278, 1143.888
386.2100, 1149.231
386.6921, 1152.524
387.1742, 1152.793
387.6563, 1150.806
388.1384, 1147.006
388.6205, 1140.368
389.1027, 1137.058
389.5848, 1136.932
390.0669, 1140.023
390.5490, 1150.187
391.0311, 1163.285
391.5132, 1171.230
391.9954, 1168.776
392.4775, 1159.664
392.9596, 1154.059
393.4417, 1153.391
393.9238, 1152.336
394.4059, 1146.391
394.8881, 1141.542
395.3702, 1144.050
395.8523, 1154.640
396.3344, 1164.862
396.8165, 1166.939
397.2986, 1163.092
397.7808, 1162.482
398.2629, 1167.586
398.7450, 1171.581
399.2271, 1166.463
399.7092, 1155.475
400.1913, 1149.285
400.6735, 1153.134
401.1556, 1159.238
401.6377, 1164.179
402.1198, 1167.144
402.6019, 1164.402
403.0840, 1153.172
403.5662, 1138.884
404.0483, 1132.913
404.5304, 1139.163
405.0125, 1146.183
405.4946, 1157.574
405.9767, 1166.675
406.4589, 1165.367
406.9410, 1155.145
407.4231, 1145.997
407.9052, 1146.624
408.3873, 1156.519
408.8694, 1165.608
409.3516, 1177.558
409.8336, 1183.661
410.3158, 1177.505
410.7979, 1166.748
411.2800, 1159.881
411.7621, 1159.758
412.2442, 1163.654
412.7263, 1169.407
413.2085, 1177.255
413.6906, 1181.595
414.1727, 1177.429
414.6548, 1174.836
415.1369, 1182.876
415.6190, 1199.046
416.1012, 1212.881
416.5833, 1217.022
417.0654, 1218.360
417.5475, 1226.092
418.0296, 1240.016
418.5117, 1254.200
418.9939, 1265.888
419.4760, 1275.861
419.9581, 1285.591
420.4402, 1293.249
420.9223, 1304.484
421.4044, 1324.965
421.8866, 1347.491
422.3687, 1363.508
422.8508, 1371.998
423.3329, 1377.340
423.8150, 1382.607
424.2971, 1387.309
424.7793, 1402.098
425.2614, 1435.837
425.7435, 1469.771
426.2256, 1499.888
426.7077, 1527.375
427.1898, 1553.605
427.6720, 1578.926
428.1541, 1605.738
428.6362, 1636.691
429.1183, 1671.084
429.6004, 1712.879
430.0826, 1751.259
430.5647, 1810.752
431.0468, 1904.825
431.5289, 2031.675
432.0110, 2182.761
432.4931, 2348.588
432.9753, 2539.063
433.4574, 2770.544
433.9395, 3044.279
434.4216, 3341.536
434.9037, 3650.615
435.3858, 3983.080
435.8680, 4361.344
436.3501, 4771.842
436.8322, 5248.768
437.3143, 5787.183
437.7964, 6403.469
438.2785, 7127.754
438.7607, 7956.935
439.2428, 8884.626
439.7249, 9949.458
440.2070, 11142.60
440.6891, 11965.55
441.1712, 12559.43
441.6534, 12599.06
442.1355, 11786.74
442.6176, 10483.44
443.0997, 9008.199
443.5818, 7473.280
444.0639, 6035.254
444.5461, 4893.546
445.0282, 4055.956
445.5103, 3399.236
445.9924, 2966.831
446.4745, 2657.804
446.9566, 2424.068
447.4388, 2251.873
447.9209, 2108.710
448.4030, 1987.568
448.8851, 1885.260
449.3672, 1801.114
449.8493, 1734.311
450.3315, 1683.442
450.8136, 1650.536
451.2957, 1628.176
451.7778, 1604.724
452.2599, 1579.324
452.7420, 1556.409
453.2242, 1536.770
453.7063, 1519.617
454.1884, 1502.896
454.6705, 1487.782
455.1526, 1478.316
455.6347, 1477.437
456.1169, 1483.643
456.5990, 1490.722
457.0811, 1497.904
457.5632, 1507.467
458.0453, 1521.092
458.5274, 1535.787
459.0095, 1549.278
459.4916, 1561.297
459.9738, 1572.997
460.4559, 1581.502
460.9380, 1589.799
461.4201, 1611.365
461.9022, 1648.212
462.3843, 1692.233
462.8665, 1742.167
463.3486, 1795.740
463.8307, 1848.484
464.3128, 1897.987
464.7949, 1950.963
465.2770, 2009.862
465.7592, 2074.380
466.2413, 2142.952
466.7234, 2215.364
467.2055, 2296.111
467.6876, 2392.394
468.1697, 2505.907
468.6519, 2606.762
469.1340, 2691.288
469.6161, 2769.553
470.0982, 2852.195
470.5803, 2927.523
471.0624, 2982.162
471.5446, 3011.188
472.0267, 3016.258
472.5088, 2995.930
472.9909, 2947.584
473.4730, 2896.828
473.9551, 2851.397
474.4373, 2794.385
474.9194, 2708.842
475.4015, 2606.455
475.8836, 2513.733
476.3657, 2438.927
476.8478, 2377.919
477.3300, 2327.621
477.8121, 2287.734
478.2942, 2257.968
478.7763, 2238.386
479.2584, 2228.352
479.7405, 2227.087
480.2227, 2235.128
480.7048, 2252.788
481.1869, 2275.227
481.6690, 2311.792
482.1511, 2370.834
482.6332, 2447.958
483.1154, 2534.730
483.5975, 2626.778
484.0796, 2722.964
484.5617, 2817.502
485.0438, 2903.438
485.5259, 3008.525
486.0081, 3142.781
486.4902, 3290.887
486.9723, 3450.184
487.4544, 3617.173
487.9365, 3784.778
488.4186, 3948.054
488.9008, 4109.952
489.3829, 4281.085
489.8650, 4460.391
490.3471, 4621.708
490.8292, 4760.014
491.3113, 4870.919
491.7935, 4947.330
492.2756, 4994.066
492.7577, 4997.865
493.2398, 4950.800
493.7219, 4865.056
494.2040, 4742.862
494.6862, 4589.518
495.1683, 4417.345
495.6504, 4232.282
496.1325, 4035.610
496.6146, 3828.245
497.0967, 3598.229
497.5789, 3384.455
498.0610, 3188.983
498.5431, 3010.151
499.0252, 2850.976
499.5073, 2709.978
499.9894, 2582.049
500.4716, 2466.411
500.9537, 2360.601
501.4358, 2258.505
501.9179, 2160.165
502.4000, 2071.113
502.8821, 1992.588
503.3643, 1925.642
503.8464, 1874.227
504.3285, 1841.051
504.8106, 1804.686
505.2927, 1753.900
505.7748, 1704.037
506.2570, 1669.012
506.7391, 1646.939
507.2212, 1629.420
507.7033, 1611.954
508.1854, 1593.402
508.6675, 1568.963
509.1496, 1531.041
509.6317, 1503.795
510.1139, 1497.831
510.5960, 1495.150
511.0781, 1485.344
511.5602, 1469.102
512.0424, 1452.899
512.5245, 1442.007
513.0066, 1432.080
513.4887, 1413.312
513.9708, 1385.799
514.4529, 1364.351
514.9351, 1356.244
515.4172, 1354.031
515.8993, 1345.773
516.3814, 1330.144
516.8635, 1318.014
517.3456, 1310.590
517.8278, 1307.302
518.3099, 1310.029
518.7920, 1316.559
519.2741, 1322.462
519.7562, 1325.670
520.2383, 1324.981
520.7205, 1316.546
521.2026, 1296.336
521.6847, 1280.307
522.1668, 1271.425
522.6489, 1265.698
523.1310, 1262.496
523.6132, 1261.030
524.0953, 1259.646
524.5774, 1258.078
525.0595, 1255.683
525.5416, 1251.775
526.0237, 1246.382
526.5059, 1239.278
526.9880, 1229.855
527.4701, 1220.199
527.9522, 1212.333
528.4343, 1206.243
528.9164, 1203.685
529.3986, 1211.423
529.8807, 1215.650
530.3628, 1208.000
530.8449, 1193.037
531.3270, 1176.722
531.8091, 1161.634
532.2913, 1151.492
532.7734, 1154.489
533.2554, 1172.797
533.7375, 1183.830
534.2197, 1184.237
534.7018, 1180.940
535.1839, 1173.746
535.6660, 1166.364
536.1481, 1166.755
536.6302, 1181.156
537.1124, 1194.082
537.5945, 1191.761
538.0766, 1180.709
538.5587, 1175.047
539.0408, 1177.450
539.5229, 1181.197
540.0051, 1180.264
540.4872, 1174.786
540.9693, 1169.085
541.4514, 1160.730
541.9335, 1155.227
542.4156, 1157.727
542.8978, 1160.988
543.3799, 1156.710
543.8620, 1144.305
544.3441, 1131.301
544.8262, 1122.163
545.3083, 1117.890
545.7905, 1126.707
546.2726, 1153.326
546.7547, 1169.327
547.2368, 1155.059
547.7189, 1127.193
548.2010, 1116.417
548.6832, 1127.417
549.1653, 1135.874
549.6474, 1132.806
550.1295, 1126.284
550.6116, 1122.418
551.0938, 1121.835
551.5759, 1124.633
552.0580, 1131.312
552.5401, 1139.021
553.0222, 1139.344
553.5043, 1128.097
553.9865, 1120.329
554.4686, 1118.299
554.9507, 1119.333
555.4328, 1125.205
555.9149, 1133.360
556.3970, 1136.586
556.8792, 1128.923
557.3613, 1119.101
557.8434, 1117.688
558.3255, 1122.483
558.8076, 1124.165
559.2897, 1119.756
559.7719, 1114.958
560.2540, 1116.985
560.7361, 1127.007
561.2182, 1130.078
561.7003, 1120.169
562.1824, 1111.398
562.6646, 1107.021
563.1467, 1106.356
563.6288, 1110.207
564.1109, 1117.979
564.5930, 1123.768
565.0751, 1120.425
565.5573, 1109.255
566.0394, 1098.565
566.5215, 1087.749
567.0036, 1079.907
567.4857, 1077.646
567.9678, 1078.818
568.4500, 1078.717
568.9321, 1076.102
569.4142, 1076.478
569.8963, 1084.084
570.3784, 1093.405
570.8605, 1099.445
571.3427, 1102.391
571.8248, 1104.962
572.3069, 1108.794
572.7890, 1112.892
573.2711, 1114.064
573.7532, 1110.062
574.2354, 1110.566
574.7175, 1122.918
575.1996, 1133.387
575.6817, 1131.723
576.1638, 1122.284
576.6459, 1117.148
577.1281, 1122.995
577.6102, 1130.353
578.0923, 1128.811
578.5744, 1122.771
579.0565, 1124.294
579.5386, 1136.144
580.0208, 1150.129
580.5029, 1158.884
580.9850, 1162.426
581.4671, 1163.044
581.9492, 1153.038
582.4313, 1149.691
582.9135, 1163.226
583.3956, 1179.187
583.8777, 1181.657
584.3598, 1170.445
584.8419, 1161.209
585.3240, 1165.903
585.8062, 1180.333
586.2883, 1196.850
586.7704, 1215.421
587.2525, 1232.329
587.7346, 1245.531
588.2167, 1257.452
588.6989, 1271.590
589.1810, 1288.469
589.6631, 1305.699
590.1452, 1323.679
590.6273, 1341.551
591.1094, 1359.318
591.5916, 1376.489
592.0737, 1391.200
592.5558, 1402.952
593.0379, 1416.168
593.5200, 1438.586
594.0021, 1469.378
594.4843, 1493.791
594.9664, 1507.971
595.4485, 1524.936
595.9306, 1554.820
596.4127, 1591.278
596.8948, 1619.597
597.3770, 1635.238
597.8591, 1654.174
598.3412, 1678.479
598.8233, 1709.895
599.3054, 1757.005
599.7875, 1813.870
600.2697, 1860.553
600.7518, 1884.774
601.2339, 1896.434
601.7160, 1920.308
602.1981, 1962.576
602.6802, 1987.507
603.1624, 1989.030
603.6445, 1975.007
604.1266, 1948.231
604.6087, 1911.056
605.0908, 1868.082
605.5729, 1814.546
606.0551, 1765.019
606.5372, 1731.320
607.0193, 1705.731
607.5014, 1674.610
607.9835, 1636.913
608.4656, 1602.792
608.9478, 1580.870
609.4299, 1568.835
609.9120, 1554.076
610.3941, 1531.998
610.8762, 1517.032
611.3583, 1517.838
611.8405, 1521.313
612.3226, 1514.819
612.8047, 1502.430
613.2868, 1502.443
613.7689, 1522.022
614.2510, 1557.435
614.7332, 1612.298
615.2153, 1679.725
615.6974, 1737.898
616.1795, 1781.672
616.6616, 1832.352
617.1437, 1913.031
617.6259, 2022.762
618.1080, 2135.941
618.5901, 2254.208
619.0722, 2373.958
619.5543, 2512.607
620.0364, 2639.064
620.5186, 2731.906
621.0007, 2787.757
621.4828, 2807.283
621.9649, 2782.848
622.4470, 2727.768
622.9291, 2643.977
623.4113, 2540.848
623.8934, 2456.844
624.3755, 2404.738
624.8576, 2380.632
625.3397, 2381.048
625.8218, 2406.839
626.3040, 2448.383
626.7861, 2503.606
627.2682, 2577.711
627.7503, 2664.217
628.2324, 2774.544
628.7145, 2923.571
629.1967, 3111.973
629.6788, 3326.424
630.1609, 3557.697
630.6430, 3808.490
631.1251, 4100.868
631.6072, 4425.886
632.0893, 4720.963
632.5714, 4971.183
633.0535, 5139.614
633.5356, 5170.278
634.0178, 5050.327
634.4999, 4852.761
634.9820, 4488.526
635.4641, 4155.053
635.9462, 3885.140
636.4283, 3686.408
636.9105, 3566.145
637.3926, 3524.709
637.8747, 3551.498
638.3568, 3647.235
638.8389, 3802.580
639.3210, 4002.258
639.8032, 4245.081
640.2853, 4548.165
640.7674, 4933.119
641.2495, 5331.158
641.7316, 5646.754
