##NAMES=Syngenite
##RRUFFID=R061002
##IDEAL CHEMISTRY=K_2_Ca(S^6+^O_4_)_2_&#183;H_2_O
##LOCALITY=Kalush, Ukraine
##OWNER=RRUFF
##SOURCE=Michael Scott
##DESCRIPTION=Colorless transparent tabular crystal
##STATUS=The identification of this mineral has been confirmed by X-ray diffraction and chemical analysis
##URL=rruff.info/R061002
##MEASURED CHEMISTRY=K_2.00_Ca_1.00_(S_1.00_O_4_)_2_·H_2_O ; light inclusions are (K_1.99_Na_0.01_)_Σ=2_S_1.00_O_4_ (arcanite) ; H not measured but estimated by difference
123.9327, 920.0675
124.4148, 944.2599
124.8969, 963.7919
125.3791, 981.6025
125.8612, 1001.076
126.3433, 1018.761
126.8254, 1029.047
127.3075, 1031.275
127.7896, 1028.771
128.2718, 1021.925
128.7539, 1012.023
129.2360, 1006.083
129.7181, 1006.596
130.2002, 1013.947
130.6823, 1030.479
131.1645, 1058.565
131.6466, 1092.909
132.1287, 1121.834
132.6108, 1144.665
133.0929, 1171.054
133.5750, 1207.449
134.0572, 1254.243
134.5393, 1309.381
135.0214, 1372.417
135.5035, 1443.921
135.9856, 1531.456
136.4677, 1639.205
136.9499, 1748.422
137.4320, 1841.192
137.9141, 1918.284
138.3962, 1971.361
138.8783, 1995.527
139.3604, 1989.123
139.8426, 1970.932
140.3247, 1937.469
140.8068, 1895.452
141.2889, 1855.918
141.7710, 1818.761
142.2531, 1784.980
142.7353, 1755.518
143.2174, 1733.448
143.6995, 1707.880
144.1816, 1675.868
144.6637, 1639.568
145.1458, 1610.728
145.6280, 1590.046
146.1101, 1575.647
146.5922, 1566.648
147.0743, 1566.592
147.5564, 1566.363
148.0385, 1561.233
148.5207, 1550.324
149.0028, 1554.594
149.4849, 1578.780
149.9670, 1616.102
150.4491, 1659.278
150.9312, 1712.394
151.4134, 1767.776
151.8955, 1824.887
152.3776, 1885.095
152.8597, 1942.072
153.3418, 1987.928
153.8239, 2031.617
154.3060, 2086.504
154.7882, 2181.361
155.2703, 2266.088
155.7524, 2321.623
156.2345, 2335.358
156.7166, 2338.459
157.1987, 2333.985
157.6809, 2322.277
158.1630, 2304.383
158.6451, 2271.988
159.1272, 2238.749
159.6093, 2212.338
160.0914, 2198.257
160.5736, 2187.424
161.0557, 2175.643
161.5378, 2163.663
162.0199, 2157.523
162.5020, 2157.320
162.9841, 2164.988
163.4663, 2182.275
163.9484, 2217.847
164.4305, 2256.721
164.9126, 2292.457
165.3947, 2324.842
165.8768, 2354.576
166.3590, 2376.783
166.8411, 2397.486
167.3232, 2425.634
167.8053, 2472.350
168.2874, 2523.521
168.7695, 2568.217
169.2517, 2604.369
169.7338, 2638.958
170.2159, 2681.010
170.6980, 2725.400
171.1801, 2762.088
171.6622, 2780.699
172.1444, 2790.711
172.6265, 2801.522
173.1086, 2813.488
173.5907, 2829.223
174.0728, 2855.255
174.5549, 2889.153
175.0371, 2919.464
175.5192, 2934.468
176.0013, 2941.708
176.4834, 2953.940
176.9655, 2979.297
177.4476, 3005.688
177.9298, 3017.562
178.4119, 3015.319
178.8940, 3006.385
179.3761, 2999.728
179.8582, 2991.322
180.3403, 2970.860
180.8224, 2929.900
181.3046, 2876.625
181.7867, 2824.036
182.2688, 2772.642
182.7509, 2721.199
183.2330, 2665.571
183.7151, 2608.409
184.1973, 2556.536
184.6794, 2518.396
185.1615, 2488.298
185.6436, 2447.612
186.1257, 2392.412
186.6078, 2338.837
187.0900, 2311.934
187.5721, 2309.620
188.0542, 2309.629
188.5363, 2299.565
189.0184, 2281.715
189.5005, 2266.350
189.9827, 2253.870
190.4648, 2245.159
190.9469, 2243.861
191.4290, 2250.243
191.9111, 2255.723
192.3932, 2250.963
192.8754, 2237.505
193.3575, 2235.871
193.8396, 2252.588
194.3217, 2279.122
194.8038, 2290.755
195.2859, 2285.483
195.7681, 2279.182
196.2502, 2284.308
196.7323, 2301.058
197.2144, 2320.963
197.6965, 2346.484
198.1786, 2373.236
198.6608, 2381.490
199.1429, 2368.335
199.6250, 2345.762
200.1071, 2326.538
200.5892, 2312.021
201.0714, 2287.372
201.5535, 2246.937
202.0356, 2191.911
202.5177, 2136.292
202.9998, 2080.938
203.4819, 2022.943
203.9641, 1958.126
204.4462, 1883.668
204.9283, 1814.562
205.4104, 1756.713
205.8925, 1710.449
206.3746, 1663.854
206.8568, 1616.407
207.3389, 1568.790
207.8210, 1521.793
208.3031, 1473.987
208.7852, 1430.988
209.2673, 1395.456
209.7494, 1368.301
210.2316, 1344.566
210.7137, 1326.642
211.1958, 1310.120
211.6779, 1284.241
212.1600, 1243.964
212.6421, 1206.815
213.1243, 1181.139
213.6064, 1169.546
214.0885, 1160.292
214.5706, 1152.377
215.0527, 1146.850
215.5348, 1148.474
216.0170, 1162.060
216.4991, 1173.033
216.9812, 1171.492
217.4633, 1150.938
217.9454, 1137.403
218.4275, 1134.483
218.9097, 1139.862
219.3918, 1144.033
219.8739, 1147.471
220.3560, 1148.923
220.8381, 1146.625
221.3202, 1137.410
221.8024, 1132.871
222.2845, 1135.837
222.7666, 1145.148
223.2487, 1150.751
223.7308, 1147.166
224.2129, 1147.015
224.6951, 1162.278
225.1772, 1204.793
225.6593, 1236.622
226.1414, 1248.232
226.6235, 1240.624
227.1056, 1244.456
227.5878, 1266.243
228.0699, 1292.286
228.5520, 1309.694
229.0341, 1309.995
229.5162, 1318.270
229.9983, 1341.673
230.4805, 1380.911
230.9626, 1415.656
231.4447, 1444.285
231.9268, 1469.689
232.4089, 1494.375
232.8910, 1518.535
233.3732, 1542.440
233.8553, 1566.043
234.3374, 1589.537
234.8195, 1613.369
235.3016, 1639.577
235.7837, 1664.584
236.2658, 1683.513
236.7480, 1693.561
237.2301, 1702.539
237.7122, 1714.230
238.1943, 1731.322
238.6764, 1736.490
239.1585, 1725.838
239.6407, 1705.684
240.1228, 1685.666
240.6049, 1667.526
241.0870, 1646.395
241.5691, 1620.478
242.0512, 1588.735
242.5334, 1555.830
243.0155, 1521.163
243.4976, 1485.569
243.9797, 1450.243
244.4618, 1415.142
244.9439, 1380.859
245.4261, 1347.060
245.9082, 1312.191
246.3903, 1282.801
246.8724, 1260.848
247.3545, 1243.489
247.8366, 1225.250
248.3188, 1206.854
248.8009, 1186.812
249.2830, 1163.689
249.7651, 1134.881
250.2472, 1110.969
250.7293, 1092.025
251.2115, 1078.009
251.6936, 1069.941
252.1757, 1073.126
252.6578, 1073.865
253.1399, 1065.494
253.6220, 1042.655
254.1042, 1024.435
254.5863, 1012.705
255.0684, 1005.072
255.5505, 995.0385
256.0326, 979.4122
256.5147, 966.5895
256.9969, 961.4121
257.4790, 968.9096
257.9611, 970.0253
258.4432, 961.6436
258.9253, 947.2751
259.4074, 937.3757
259.8896, 932.6563
260.3717, 930.9297
260.8538, 931.2507
261.3359, 933.9891
261.8180, 937.8687
262.3001, 943.7068
262.7823, 950.3718
263.2644, 954.0356
263.7465, 952.8259
264.2286, 952.2973
264.7107, 955.9783
265.1928, 965.4498
265.6750, 973.6078
266.1571, 979.8738
266.6392, 984.6741
267.1213, 989.8666
267.6034, 996.3559
268.0855, 1001.140
268.5677, 1002.008
269.0498, 998.0287
269.5319, 994.6055
270.0140, 992.7830
270.4961, 991.4863
270.9782, 986.2307
271.4604, 974.8948
271.9425, 965.3442
272.4246, 963.9824
272.9067, 972.9230
273.3888, 976.6739
273.8709, 971.6253
274.3531, 961.8416
274.8352, 961.5175
275.3173, 974.2043
275.7994, 984.1732
276.2815, 978.7504
276.7636, 956.1342
277.2457, 938.7516
277.7278, 929.9199
278.2100, 927.0747
278.6921, 924.1836
279.1742, 921.6849
279.6563, 916.9148
280.1384, 905.7325
280.6205, 888.0031
281.1027, 876.4053
281.5848, 873.0497
282.0669, 876.0895
282.5490, 884.0356
283.0311, 898.2274
283.5132, 907.0103
283.9954, 898.3968
284.4775, 873.2355
284.9596, 856.4426
285.4417, 852.6343
285.9238, 856.1987
286.4059, 854.1304
286.8881, 846.1205
287.3702, 839.5502
287.8523, 841.6243
288.3344, 850.8005
288.8165, 854.9591
289.2986, 852.0134
289.7808, 844.5945
290.2629, 835.6785
290.7450, 825.4523
291.2271, 818.2972
291.7092, 818.5688
292.1913, 824.7215
292.6735, 830.7073
293.1556, 836.1511
293.6377, 840.1804
294.1198, 840.9614
294.6019, 838.6861
295.0840, 835.1909
295.5662, 830.2576
296.0483, 824.9291
296.5304, 822.4581
297.0125, 823.8168
297.4946, 826.6541
297.9767, 828.3250
298.4589, 828.8663
298.9410, 828.3754
299.4231, 826.8292
299.9052, 824.2610
300.3873, 819.6390
300.8694, 811.4652
301.3516, 805.5154
301.8337, 810.3954
302.3158, 823.5779
302.7979, 835.9709
303.2800, 844.8553
303.7621, 849.0913
304.2443, 845.2201
304.7264, 830.6877
305.2085, 816.5272
305.6906, 813.5302
306.1727, 818.7644
306.6548, 824.8785
307.1370, 829.9406
307.6191, 833.0618
308.1012, 832.8524
308.5833, 828.8348
309.0654, 823.4813
309.5475, 816.4068
310.0297, 809.4329
310.5118, 805.8635
310.9939, 809.7207
311.4760, 816.0361
311.9581, 821.6974
312.4402, 826.5644
312.9224, 829.6510
313.4045, 829.1005
313.8866, 826.6979
314.3687, 825.1019
314.8508, 827.8927
315.3329, 829.8456
315.8151, 826.9866
316.2972, 818.3796
316.7793, 811.2618
317.2614, 808.8561
317.7435, 809.5176
318.2256, 811.2904
318.7078, 815.0347
319.1899, 818.4957
319.6720, 819.5137
320.1541, 817.6530
320.6362, 819.5034
321.1183, 832.9489
321.6005, 848.4294
322.0826, 856.7650
322.5647, 851.2703
323.0468, 843.0914
323.5289, 832.5019
324.0110, 819.4016
324.4932, 812.7008
324.9753, 820.9903
325.4574, 832.4220
325.9395, 837.9543
326.4216, 829.6974
326.9037, 823.2783
327.3859, 821.4960
327.8680, 824.2064
328.3501, 825.9962
328.8322, 824.1155
329.3143, 823.2384
329.7964, 826.6341
330.2786, 842.7098
330.7607, 850.9510
331.2428, 845.6103
331.7249, 829.6727
332.2070, 821.4998
332.6891, 826.2991
333.1712, 832.9735
333.6534, 834.6851
334.1355, 826.8536
334.6176, 824.7415
335.0997, 832.2101
335.5818, 845.4423
336.0639, 851.7664
336.5461, 848.5837
337.0282, 843.4348
337.5103, 839.7310
337.9924, 837.5601
338.4745, 836.6860
338.9566, 837.6288
339.4388, 839.3765
339.9209, 839.1133
340.4030, 835.9543
340.8851, 834.5882
341.3672, 838.5131
341.8493, 848.0214
342.3315, 854.4545
342.8136, 857.6252
343.2957, 858.0749
343.7778, 856.2169
344.2599, 852.0556
344.7420, 847.0015
345.2242, 839.8255
345.7063, 831.6517
346.1884, 830.4500
346.6705, 837.1385
347.1526, 846.0549
347.6347, 850.3204
348.1169, 850.5927
348.5990, 850.7008
349.0811, 853.0790
349.5632, 855.9324
350.0453, 853.8925
350.5274, 846.7550
351.0096, 841.3429
351.4917, 846.9496
351.9738, 859.0464
352.4559, 866.7393
352.9380, 863.2448
353.4201, 856.3667
353.9023, 855.3466
354.3844, 859.7464
354.8665, 865.6106
355.3486, 870.9119
355.8307, 875.8150
356.3128, 880.9655
356.7950, 888.5353
357.2771, 893.4709
357.7592, 890.5463
358.2413, 881.3825
358.7234, 871.9315
359.2055, 861.7831
359.6877, 854.5853
360.1698, 854.0544
360.6519, 864.3348
361.1340, 874.3057
361.6161, 878.2266
362.0982, 878.3868
362.5804, 879.7332
363.0625, 885.6693
363.5446, 891.8256
364.0267, 896.1302
364.5088, 898.1331
364.9909, 898.9399
365.4731, 897.7219
365.9552, 895.7379
366.4373, 894.7751
366.9194, 896.3037
367.4015, 897.7661
367.8836, 899.3414
368.3658, 901.9882
368.8479, 899.9545
369.3300, 885.9834
369.8121, 871.1313
370.2942, 866.6118
370.7763, 882.6301
371.2585, 894.2532
371.7406, 894.3730
372.2227, 883.5470
372.7048, 883.8862
373.1869, 904.7018
373.6690, 924.9073
374.1512, 925.8830
374.6333, 896.3795
375.1154, 881.1328
375.5975, 890.3009
376.0796, 916.3005
376.5617, 928.6204
377.0439, 924.2852
377.5260, 916.1164
378.0081, 911.9337
378.4902, 911.9810
378.9723, 910.3337
379.4544, 905.1193
379.9366, 900.3760
380.4187, 906.0575
380.9008, 922.3946
381.3829, 936.4973
381.8650, 942.1100
382.3471, 940.0970
382.8293, 931.5081
383.3114, 914.7299
383.7935, 899.2667
384.2756, 897.9908
384.7577, 908.1973
385.2398, 918.8552
385.7219, 927.1141
386.2040, 932.4574
386.6862, 931.8721
387.1683, 925.4241
387.6504, 921.3076
388.1325, 930.1736
388.6146, 944.9885
389.0967, 954.1063
389.5789, 949.7451
390.0610, 942.9236
390.5431, 941.8629
391.0252, 945.8080
391.5073, 951.0588
391.9894, 959.0811
392.4716, 965.8419
392.9537, 967.3496
393.4358, 959.5225
393.9179, 952.6072
394.4000, 951.0201
394.8821, 953.1758
395.3643, 955.4236
395.8464, 954.9653
396.3285, 955.7758
396.8106, 960.5114
397.2927, 971.8199
397.7748, 979.5519
398.2570, 979.3912
398.7391, 975.9135
399.2212, 975.1154
399.7033, 978.9371
400.1854, 983.5105
400.6675, 988.9489
401.1497, 995.4402
401.6318, 998.9372
402.1139, 998.9108
402.5960, 996.4525
403.0781, 991.0041
403.5602, 977.6903
404.0424, 974.1275
404.5245, 985.8867
405.0066, 1008.850
405.4887, 1026.479
405.9708, 1038.837
406.4529, 1045.700
406.9351, 1044.366
407.4172, 1034.213
407.8993, 1030.432
408.3814, 1035.728
408.8635, 1045.054
409.3456, 1048.300
409.8278, 1045.780
410.3099, 1045.744
410.7920, 1054.796
411.2741, 1069.587
411.7562, 1079.254
412.2383, 1083.241
412.7205, 1085.162
413.2026, 1086.427
413.6847, 1088.468
414.1668, 1094.934
414.6489, 1108.265
415.1310, 1125.824
415.6132, 1148.633
416.0953, 1175.618
416.5774, 1195.899
417.0595, 1194.987
417.5416, 1187.521
418.0237, 1189.435
418.5059, 1208.767
418.9880, 1230.969
419.4701, 1246.465
419.9522, 1258.846
420.4343, 1276.720
420.9164, 1304.457
421.3986, 1337.450
421.8807, 1375.129
422.3628, 1419.367
422.8449, 1460.602
423.3270, 1487.692
423.8091, 1513.425
424.2913, 1554.514
424.7734, 1610.317
425.2555, 1683.492
425.7376, 1777.807
426.2197, 1893.670
426.7018, 2010.425
427.1840, 2127.464
427.6661, 2247.532
428.1482, 2372.437
428.6303, 2504.299
429.1124, 2637.948
429.5945, 2767.172
430.0767, 2900.634
430.5588, 3069.323
431.0409, 3276.754
431.5230, 3503.015
432.0051, 3731.491
432.4872, 3963.990
432.9694, 4230.483
433.4515, 4530.801
433.9336, 4880.647
434.4157, 5288.959
434.8978, 5760.341
435.3799, 6326.699
435.8621, 6963.416
436.3442, 7721.329
436.8263, 8649.197
437.3084, 9753.427
437.7905, 11137.12
438.2726, 12800.15
438.7548, 14816.04
439.2369, 17383.68
439.7190, 20934.94
440.2011, 24459.63
440.6832, 27804.73
441.1653, 30564.13
441.6474, 31522.95
442.1295, 29166.85
442.6117, 25457.47
443.0938, 21421.25
443.5759, 16953.71
444.0580, 13060.64
444.5401, 10229.02
445.0222, 8165.295
445.5044, 6551.926
445.9865, 5548.923
446.4686, 4764.493
446.9507, 4155.542
447.4328, 3718.829
447.9149, 3359.218
448.3971, 3097.461
448.8792, 2894.892
449.3613, 2726.146
449.8434, 2600.790
450.3255, 2487.940
450.8076, 2386.136
451.2898, 2296.499
451.7719, 2223.262
452.2540, 2167.642
452.7361, 2126.105
453.2182, 2099.839
453.7003, 2088.798
454.1825, 2075.506
454.6646, 2057.753
455.1467, 2046.400
455.6288, 2057.391
456.1109, 2088.128
456.5930, 2121.427
457.0752, 2149.483
457.5573, 2178.663
458.0394, 2217.742
458.5215, 2267.080
459.0036, 2326.779
459.4857, 2394.987
459.9679, 2474.890
460.4500, 2569.811
460.9321, 2684.399
461.4142, 2805.709
461.8963, 2920.441
462.3784, 3036.872
462.8606, 3170.724
463.3427, 3332.770
463.8248, 3512.641
464.3069, 3699.714
464.7890, 3895.006
465.2711, 4116.198
465.7533, 4363.998
466.2354, 4642.145
466.7175, 4951.075
467.1996, 5312.067
467.6817, 5677.168
468.1638, 6042.651
468.6460, 6409.070
469.1281, 6799.791
469.6102, 7244.351
470.0923, 7667.032
470.5744, 8053.103
471.0565, 8413.007
471.5387, 8671.358
472.0208, 8834.231
472.5029, 8884.866
472.9850, 8790.698
473.4671, 8547.689
473.9492, 8229.602
474.4314, 7833.886
474.9135, 7390.194
475.3956, 6974.267
475.8777, 6582.829
476.3598, 6220.350
476.8419, 5891.774
477.3241, 5595.962
477.8062, 5332.244
478.2883, 5102.215
478.7704, 4907.370
479.2525, 4747.081
479.7346, 4623.380
480.2168, 4542.688
480.6989, 4522.155
481.1810, 4532.844
481.6631, 4555.513
482.1452, 4589.569
482.6273, 4647.062
483.1095, 4737.150
483.5916, 4849.853
484.0737, 4975.878
484.5558, 5096.725
485.0379, 5253.213
485.5201, 5458.452
486.0022, 5703.062
486.4843, 5958.892
486.9664, 6222.039
487.4485, 6501.337
487.9306, 6804.056
488.4128, 7130.846
488.8949, 7467.012
489.3770, 7816.508
489.8591, 8174.712
490.3412, 8551.864
490.8233, 8962.083
491.3055, 9295.291
491.7876, 9534.523
492.2697, 9677.793
492.7518, 9719.468
493.2339, 9659.432
493.7160, 9507.399
494.1982, 9255.414
494.6803, 8916.777
495.1624, 8519.939
495.6445, 8057.149
496.1266, 7572.450
496.6087, 7067.787
497.0908, 6566.945
497.5729, 6099.592
498.0551, 5689.306
498.5372, 5310.594
499.0193, 4951.777
499.5014, 4614.263
499.9835, 4304.552
500.4656, 4026.516
500.9478, 3777.093
501.4299, 3552.834
501.9120, 3358.838
502.3941, 3182.052
502.8762, 3023.097
503.3583, 2881.278
503.8405, 2756.166
504.3226, 2656.547
504.8047, 2560.028
505.2868, 2460.953
505.7689, 2361.114
506.2510, 2271.975
506.7332, 2195.010
507.2153, 2126.717
507.6974, 2065.589
508.1795, 2012.444
508.6616, 1962.910
509.1437, 1916.929
509.6259, 1874.962
510.1080, 1838.492
510.5901, 1807.045
511.0722, 1777.665
511.5543, 1750.618
512.0364, 1724.421
512.5186, 1696.230
513.0007, 1666.214
513.4828, 1638.089
513.9649, 1613.928
514.4470, 1593.089
514.9291, 1575.304
515.4113, 1561.391
515.8934, 1548.041
516.3755, 1533.268
516.8576, 1518.025
517.3397, 1503.586
517.8218, 1490.760
518.3040, 1478.302
518.7861, 1465.163
519.2682, 1451.246
519.7503, 1440.593
520.2324, 1436.550
520.7145, 1432.270
521.1967, 1423.625
521.6788, 1408.853
522.1609, 1394.706
522.6430, 1381.445
523.1251, 1368.803
523.6072, 1356.057
524.0894, 1343.086
524.5715, 1331.965
525.0536, 1323.287
525.5357, 1317.066
526.0178, 1314.740
526.4999, 1316.255
526.9821, 1315.757
527.4642, 1306.231
527.9463, 1292.058
528.4284, 1281.515
528.9105, 1276.532
529.3926, 1272.995
529.8748, 1267.557
530.3569, 1261.267
530.8390, 1256.027
531.3211, 1257.949
531.8032, 1256.158
532.2853, 1241.750
532.7675, 1215.941
533.2496, 1197.864
533.7317, 1196.366
534.2138, 1199.908
534.6959, 1202.347
535.1780, 1203.174
535.6602, 1203.697
536.1423, 1204.444
536.6244, 1204.537
537.1065, 1202.661
537.5886, 1198.650
538.0707, 1192.989
538.5529, 1184.573
539.0350, 1174.759
539.5171, 1170.822
539.9992, 1173.249
540.4813, 1174.293
540.9634, 1164.766
541.4456, 1149.441
541.9277, 1144.074
542.4098, 1151.570
542.8919, 1160.853
543.3740, 1160.759
543.8561, 1154.496
544.3383, 1147.708
544.8204, 1142.738
545.3025, 1137.736
545.7846, 1131.794
546.2667, 1124.989
546.7488, 1117.586
547.2310, 1106.469
547.7131, 1097.523
548.1952, 1095.052
548.6773, 1104.284
549.1594, 1105.136
549.6415, 1088.326
550.1237, 1069.236
550.6058, 1064.547
551.0879, 1082.507
551.5700, 1092.604
552.0521, 1086.768
552.5342, 1072.384
553.0164, 1073.786
553.4985, 1092.979
553.9806, 1108.656
554.4627, 1106.484
554.9448, 1091.296
555.4269, 1081.605
555.9091, 1077.649
556.3912, 1076.841
556.8733, 1077.758
557.3554, 1080.034
557.8375, 1083.638
558.3196, 1090.768
558.8018, 1095.109
559.2839, 1088.922
559.7660, 1077.007
560.2481, 1069.277
560.7302, 1071.803
561.2123, 1076.766
561.6945, 1082.339
562.1766, 1088.492
562.6587, 1091.423
563.1408, 1088.674
563.6229, 1084.662
564.1050, 1081.577
564.5872, 1078.950
565.0693, 1078.735
565.5514, 1081.929
566.0335, 1086.383
566.5156, 1088.121
566.9977, 1086.933
567.4799, 1087.064
567.9620, 1091.221
568.4441, 1096.689
568.9262, 1094.895
569.4083, 1086.606
569.8904, 1080.281
570.3726, 1084.351
570.8547, 1092.564
571.3368, 1096.123
571.8189, 1093.446
572.3010, 1091.292
572.7831, 1095.535
573.2653, 1101.967
573.7474, 1105.840
574.2295, 1100.521
574.7116, 1098.541
575.1937, 1105.253
575.6758, 1117.879
576.1580, 1127.040
576.6401, 1130.279
577.1222, 1133.050
577.6042, 1136.666
578.0864, 1141.160
578.5685, 1147.553
579.0506, 1156.401
579.5327, 1165.740
580.0148, 1174.126
580.4969, 1181.556
580.9791, 1188.534
581.4612, 1194.887
581.9433, 1201.443
582.4254, 1208.213
582.9075, 1215.830
583.3896, 1226.181
583.8718, 1241.089
584.3539, 1258.192
584.8360, 1276.525
585.3181, 1295.659
585.8002, 1313.918
586.2823, 1328.305
586.7645, 1343.013
587.2466, 1360.410
587.7287, 1380.984
588.2108, 1403.466
588.6929, 1428.170
589.1750, 1454.495
589.6572, 1481.878
590.1393, 1509.793
590.6214, 1540.453
591.1035, 1575.659
591.5856, 1612.854
592.0677, 1646.860
592.5499, 1677.937
593.0320, 1703.156
593.5141, 1719.284
593.9962, 1728.981
594.4783, 1741.436
594.9604, 1756.536
595.4426, 1767.689
595.9247, 1766.612
596.4068, 1760.029
596.8889, 1755.609
597.3710, 1753.503
597.8531, 1758.306
598.3353, 1775.390
598.8174, 1799.832
599.2995, 1825.628
599.7816, 1850.278
600.2637, 1876.858
600.7458, 1909.253
601.2280, 1944.751
601.7101, 1972.429
602.1922, 1989.200
602.6743, 2003.410
603.1564, 2019.616
603.6385, 2037.907
604.1207, 2042.618
604.6028, 2031.578
605.0849, 2016.389
605.5670, 2008.994
606.0491, 2006.830
606.5313, 1996.461
607.0134, 1973.446
607.4955, 1951.556
607.9776, 1949.409
608.4597, 1958.928
608.9418, 1964.256
609.4240, 1949.974
609.9061, 1937.917
610.3882, 1940.125
610.8703, 1954.711
611.3524, 1974.249
611.8345, 1994.985
612.3167, 2022.117
612.7988, 2054.674
613.2809, 2090.061
613.7630, 2150.715
614.2451, 2241.783
614.7272, 2351.089
615.2094, 2462.517
615.6915, 2570.892
616.1736, 2721.049
616.6557, 2916.123
617.1378, 3154.536
617.6199, 3439.381
618.1021, 3767.446
