##NAMES=Szaibelyite
##RRUFFID=R060289
##IDEAL CHEMISTRY=MgBO_2_(OH)
##LOCALITY=Franklin, Sussex County, New Jersey, USA
##OWNER=RRUFF
##SOURCE=Herb Obodda
##DESCRIPTION=Pink massive, associated with rhodochrosite.
##STATUS=The identification of this mineral has been confirmed by X-ray diffraction and chemical analysis
##URL=rruff.info/R060289
##MEASURED CHEMISTRY=(Mg_0.66_Mn^2+^_0.34_)_Σ=1_BO_2_(OH); = gray phase: B and OH assumed by stoichiometry; light rim: (Mn^2+^_0.70_Ca_0.18_Mg_0.12_)_Σ=1_CO_3_ is rhodochrosite; CO_2_ estimated by difference
92.52344, 117.1330
93.00555, 116.1258
93.48767, 116.3417
93.96979, 120.5626
94.45190, 124.5542
94.93402, 127.6232
95.41614, 128.5373
95.89825, 128.1989
96.38037, 127.7925
96.86249, 127.3407
97.34460, 127.0378
97.82672, 127.1585
98.30884, 127.3123
98.79095, 127.3917
99.27307, 127.2972
99.75519, 127.1146
100.2373, 127.3017
100.7194, 127.9218
101.2015, 128.6617
101.6837, 129.6207
102.1658, 130.5605
102.6479, 131.3922
103.1300, 132.1386
103.6121, 132.5654
104.0942, 132.3816
104.5764, 131.7552
105.0585, 130.8411
105.5406, 129.6584
106.0227, 128.2163
106.5048, 126.5412
106.9869, 124.5145
107.4691, 122.3112
107.9512, 119.8246
108.4333, 117.2052
108.9154, 114.8329
109.3975, 113.1169
109.8796, 112.1866
110.3618, 111.0285
110.8439, 109.6185
111.3260, 108.0039
111.8081, 106.2122
112.2902, 104.2442
112.7723, 102.0542
113.2544, 99.57368
113.7366, 96.67046
114.2187, 93.66770
114.7008, 90.48975
115.1829, 87.25123
115.6650, 84.02736
116.1471, 80.83067
116.6293, 77.72749
117.1114, 74.89455
117.5935, 72.32835
118.0756, 69.97548
118.5577, 67.85894
119.0398, 65.94930
119.5220, 64.14015
120.0041, 62.36803
120.4862, 60.71856
120.9683, 59.32690
121.4504, 58.25788
121.9325, 57.32641
122.4147, 56.44207
122.8968, 55.61306
123.3789, 54.72599
123.8610, 53.55714
124.3431, 52.35601
124.8252, 51.40041
125.3074, 50.84647
125.7895, 50.49744
126.2716, 49.89944
126.7537, 48.79269
127.2358, 47.92141
127.7179, 47.59405
128.2001, 47.57890
128.6822, 47.56950
129.1643, 47.37329
129.6464, 47.00921
130.1285, 46.73031
130.6107, 46.77473
131.0928, 46.67654
131.5749, 46.24685
132.0570, 45.57174
132.5391, 44.83949
133.0212, 44.20054
133.5034, 43.63936
133.9855, 43.33072
134.4676, 43.42225
134.9497, 43.59045
135.4318, 43.67856
135.9139, 43.66346
136.3960, 43.58533
136.8782, 43.47404
137.3603, 43.31620
137.8424, 43.20940
138.3245, 43.22008
138.8066, 43.26141
139.2887, 43.22308
139.7709, 43.07116
140.2530, 42.87884
140.7351, 42.75571
141.2172, 42.69656
141.6993, 42.58513
142.1814, 42.31886
142.6636, 41.94793
143.1457, 41.65955
143.6278, 41.52686
144.1099, 41.45992
144.5920, 41.38704
145.0741, 41.30596
145.5563, 41.20613
146.0384, 41.07547
146.5205, 40.91202
147.0026, 40.73791
147.4847, 40.54287
147.9668, 40.34674
148.4490, 40.13189
148.9311, 39.90332
149.4132, 39.72172
149.8953, 39.72343
150.3774, 40.13048
150.8595, 40.24675
151.3417, 39.77871
151.8238, 39.18831
152.3059, 38.87561
152.7880, 38.98534
153.2701, 39.33210
153.7522, 39.44736
154.2344, 39.04021
154.7165, 38.70967
155.1986, 38.50880
155.6807, 38.38610
156.1628, 38.29148
156.6449, 38.20649
157.1271, 38.11154
157.6092, 37.91776
158.0913, 37.45617
158.5734, 37.09914
159.0555, 36.99721
159.5376, 37.08841
160.0198, 37.22086
160.5019, 37.33245
160.9840, 37.40794
161.4661, 37.41351
161.9482, 37.29237
162.4303, 37.16410
162.9125, 37.10707
163.3946, 37.11919
163.8767, 37.15606
164.3588, 37.18279
164.8409, 37.22367
165.3230, 37.32210
165.8052, 37.50896
166.2873, 37.73474
166.7694, 37.94715
167.2515, 38.15946
167.7336, 38.31264
168.2157, 38.33046
168.6979, 38.28963
169.1800, 38.26319
169.6621, 38.24791
170.1442, 38.29223
170.6263, 38.56095
171.1084, 39.23987
171.5906, 39.85204
172.0727, 40.23732
172.5548, 40.47392
173.0369, 40.66649
173.5190, 40.86976
174.0011, 41.08567
174.4833, 41.33080
174.9654, 41.62300
175.4475, 41.93235
175.9296, 42.26353
176.4117, 42.60645
176.8938, 42.94337
177.3760, 43.25542
177.8581, 43.54013
178.3402, 43.89872
178.8223, 44.32946
179.3044, 44.82311
179.7865, 45.41964
180.2687, 46.08628
180.7508, 46.74458
181.2329, 47.33376
181.7150, 47.85293
182.1971, 48.24788
182.6792, 48.26976
183.1614, 48.38686
183.6435, 48.94897
184.1256, 49.93607
184.6077, 50.99666
185.0898, 51.84668
185.5719, 52.45619
186.0541, 52.94588
186.5362, 53.25731
187.0183, 53.48203
187.5004, 53.67994
187.9825, 53.85482
188.4646, 54.04597
188.9468, 54.29139
189.4289, 54.58401
189.9110, 54.91209
190.3931, 55.31910
190.8752, 55.74609
191.3573, 56.10822
191.8395, 56.39724
192.3216, 56.62503
192.8037, 56.73669
193.2858, 56.78911
193.7679, 56.92225
194.2500, 57.24271
194.7322, 57.69648
195.2143, 58.11813
195.6964, 58.50378
196.1785, 58.85188
196.6606, 59.19379
197.1427, 59.50879
197.6249, 59.74405
198.1070, 59.82749
198.5891, 59.77963
199.0712, 59.81164
199.5533, 59.97484
200.0354, 60.16983
200.5176, 60.43623
200.9997, 60.70876
201.4818, 60.85385
201.9639, 60.74746
202.4460, 60.38406
202.9281, 60.01479
203.4103, 59.55024
203.8924, 59.16721
204.3745, 59.10238
204.8566, 59.19477
205.3387, 59.04974
205.8208, 58.27367
206.3030, 56.76277
206.7851, 55.56527
207.2672, 54.89753
207.7493, 54.30026
208.2314, 53.58234
208.7135, 52.77014
209.1957, 52.01413
209.6778, 51.45745
210.1599, 51.13129
210.6420, 50.78679
211.1241, 50.46167
211.6062, 50.09194
212.0884, 49.58473
212.5705, 48.97525
213.0526, 48.42329
213.5347, 48.08728
214.0168, 48.00208
214.4989, 47.81270
214.9811, 47.43593
215.4632, 47.02898
215.9453, 46.70259
216.4274, 46.45879
216.9095, 46.21692
217.3916, 45.89911
217.8737, 45.50374
218.3559, 45.16264
218.8380, 44.89472
219.3201, 44.66846
219.8022, 44.46510
220.2843, 44.28330
220.7664, 44.10674
221.2486, 43.92950
221.7307, 43.74668
222.2128, 43.54559
222.6949, 43.29759
223.1770, 43.04364
223.6591, 42.80525
224.1413, 42.57150
224.6234, 42.43184
225.1055, 42.55857
225.5876, 42.82137
226.0697, 42.98046
226.5518, 42.92226
227.0340, 42.75236
227.5161, 42.61895
227.9982, 42.52779
228.4803, 42.45305
228.9624, 42.34267
229.4445, 42.24648
229.9267, 42.25194
230.4088, 42.45295
230.8909, 42.72231
231.3730, 42.81057
231.8551, 42.67368
232.3372, 42.46008
232.8194, 42.10810
233.3015, 41.75804
233.7836, 41.61632
234.2657, 41.83491
234.7478, 42.20348
235.2299, 42.20443
235.7121, 41.59946
236.1942, 41.10281
236.6763, 40.98867
237.1584, 41.04709
237.6405, 41.06201
238.1227, 40.93893
238.6048, 40.72801
239.0869, 40.56039
239.5690, 40.47813
240.0511, 40.36352
240.5332, 40.17161
241.0154, 39.95192
241.4975, 39.75276
241.9796, 39.59464
242.4617, 39.46819
242.9438, 39.35172
243.4259, 39.23710
243.9081, 39.14810
244.3902, 39.13265
244.8723, 39.12011
245.3544, 39.01882
245.8365, 38.79609
246.3186, 38.53198
246.8008, 38.41545
247.2829, 38.62114
247.7650, 38.72538
248.2471, 38.72899
248.7292, 38.62233
249.2113, 38.31746
249.6935, 37.80296
250.1756, 37.26458
250.6577, 37.07598
251.1398, 37.60770
251.6219, 37.97268
252.1040, 38.07647
252.5862, 38.07010
253.0683, 38.07361
253.5504, 38.12481
254.0325, 38.20229
254.5146, 38.26678
254.9967, 38.25788
255.4789, 38.36344
255.9610, 38.68610
256.4431, 39.06208
256.9252, 39.33743
257.4073, 39.48005
257.8894, 39.58551
258.3716, 39.78919
258.8537, 40.16115
259.3358, 40.44325
259.8179, 40.48204
260.3000, 40.52348
260.7821, 40.83826
261.2643, 41.46008
261.7464, 42.12339
262.2285, 42.52840
262.7106, 42.60153
263.1927, 42.74836
263.6748, 43.00756
264.1570, 43.32084
264.6391, 43.67443
265.1212, 44.05855
265.6033, 44.38664
266.0854, 44.54940
266.5675, 44.53719
267.0497, 44.60769
267.5318, 44.75777
268.0139, 44.99762
268.4960, 45.37958
268.9781, 45.89587
269.4602, 46.40887
269.9424, 46.81995
270.4245, 47.13033
270.9066, 47.41855
271.3887, 47.63119
271.8708, 47.86507
272.3529, 48.22762
272.8351, 48.70742
273.3172, 49.16264
273.7993, 49.55974
274.2814, 49.83966
274.7635, 49.88375
275.2456, 49.41675
275.7278, 49.01783
276.2099, 49.23114
276.6920, 49.97327
277.1741, 50.54436
277.6562, 50.53859
278.1383, 50.19363
278.6205, 50.05722
279.1026, 50.21992
279.5847, 50.39201
280.0668, 50.39921
280.5489, 50.25320
281.0310, 49.99344
281.5132, 49.51593
281.9953, 49.05793
282.4774, 48.96455
282.9595, 49.28997
283.4416, 49.64701
283.9237, 49.82219
284.4059, 49.84050
284.8880, 49.79425
285.3701, 49.66286
285.8522, 49.53109
286.3343, 49.48910
286.8164, 49.53248
287.2986, 49.59633
287.7807, 49.66922
288.2628, 49.73857
288.7449, 49.76139
289.2270, 49.72512
289.7091, 49.65121
290.1913, 49.53988
290.6734, 49.40351
291.1555, 49.28551
291.6376, 49.18185
292.1197, 49.11334
292.6018, 49.18765
293.0840, 49.53326
293.5661, 49.71937
294.0482, 49.28553
294.5303, 48.51427
295.0124, 47.91505
295.4945, 47.79486
295.9767, 47.90717
296.4588, 47.82464
296.9409, 47.52610
297.4230, 47.10225
297.9051, 46.46063
298.3872, 45.75909
298.8694, 45.20750
299.3515, 44.92966
299.8336, 44.71176
300.3157, 44.23955
300.7978, 43.46352
301.2799, 42.71482
301.7621, 42.16629
302.2442, 41.67634
302.7263, 41.09440
303.2084, 40.37297
303.6905, 39.67855
304.1726, 39.24340
304.6548, 39.08533
305.1369, 38.76984
305.6190, 38.06104
306.1011, 37.25479
306.5832, 36.56273
307.0653, 36.00029
307.5475, 35.51109
308.0296, 35.07787
308.5117, 34.69527
308.9938, 34.29094
309.4759, 33.88862
309.9580, 33.41704
310.4402, 32.75819
310.9223, 31.97595
311.4044, 31.30799
311.8865, 30.98364
312.3686, 30.91930
312.8507, 30.74055
313.3329, 30.40681
313.8150, 30.01327
314.2971, 29.53127
314.7792, 29.03633
315.2613, 28.68179
315.7434, 28.61555
316.2256, 28.67929
316.7077, 28.50260
317.1898, 27.98847
317.6719, 27.49795
318.1540, 27.20121
318.6361, 27.00691
319.1183, 26.84498
319.6004, 26.71727
320.0825, 26.54946
320.5646, 26.17986
321.0467, 25.55362
321.5288, 25.07754
322.0110, 25.00249
322.4931, 25.06203
322.9752, 25.07657
323.4573, 25.01938
323.9394, 24.90874
324.4215, 24.71695
324.9037, 24.44846
325.3858, 24.29354
325.8679, 24.40273
326.3500, 24.51635
326.8321, 24.42478
327.3142, 24.15373
327.7964, 23.88680
328.2785, 23.73462
328.7606, 23.68661
329.2427, 23.70126
329.7248, 23.81922
330.2069, 23.92667
330.6891, 23.96878
331.1712, 23.95212
331.6533, 23.88299
332.1354, 23.72924
332.6175, 23.54248
333.0996, 23.41776
333.5818, 23.34899
334.0639, 23.36175
334.5460, 23.60410
335.0281, 23.88908
335.5102, 23.97529
335.9923, 23.74377
336.4745, 23.43035
336.9566, 23.33079
337.4387, 23.46036
337.9208, 23.54618
338.4029, 23.44019
338.8850, 23.29483
339.3671, 23.26051
339.8492, 23.35342
340.3314, 23.48973
340.8135, 23.63514
341.2956, 23.78183
341.7777, 23.86822
342.2598, 23.86166
342.7419, 23.82095
343.2241, 23.77240
343.7062, 23.72527
344.1883, 23.73565
344.6704, 23.90554
345.1525, 24.13958
345.6346, 24.19849
346.1168, 24.01435
346.5989, 23.83554
347.0810, 23.88869
347.5631, 24.06834
348.0452, 24.19454
348.5273, 24.18610
349.0095, 24.13713
349.4916, 24.13109
349.9737, 24.16714
350.4558, 24.29456
350.9379, 24.62308
351.4200, 25.00494
351.9022, 25.19829
352.3843, 25.14428
352.8664, 25.03336
353.3485, 25.00074
353.8306, 25.01862
354.3127, 24.95197
354.7949, 24.70225
355.2770, 24.45941
355.7591, 24.49428
356.2412, 24.79688
356.7233, 25.09653
357.2054, 25.33792
357.6876, 25.50342
358.1697, 25.53924
358.6518, 25.42448
359.1339, 25.27762
359.6160, 25.17679
360.0981, 25.12713
360.5803, 25.15601
361.0624, 25.34991
361.5445, 25.56165
362.0266, 25.66707
362.5087, 25.67376
362.9908, 25.65081
363.4730, 25.61856
363.9551, 25.59474
364.4372, 25.62897
364.9193, 25.74534
365.4014, 25.87294
365.8835, 26.03107
366.3657, 26.17492
366.8478, 26.19399
367.3299, 26.03619
367.8120, 25.80501
368.2941, 25.65664
368.7762, 25.59823
369.2584, 25.58032
369.7405, 25.62378
370.2226, 25.68928
370.7047, 25.79349
371.1868, 25.92219
371.6689, 25.90834
372.1511, 25.54448
372.6332, 24.81123
373.1153, 24.40394
373.5974, 24.51082
374.0795, 24.71854
374.5616, 24.89670
375.0438, 25.01821
375.5259, 25.04196
376.0080, 24.93740
376.4901, 24.73775
376.9722, 24.55898
377.4543, 24.43826
377.9365, 24.29064
378.4186, 24.04438
378.9007, 23.79505
379.3828, 23.67187
379.8649, 23.70362
380.3470, 23.78461
380.8292, 23.76220
381.3113, 23.57767
381.7934, 23.46461
382.2755, 23.47267
382.7576, 23.49889
383.2397, 23.48813
383.7219, 23.44176
384.2040, 23.38827
384.6861, 23.35094
385.1682, 23.32795
385.6503, 23.28909
386.1324, 23.26055
386.6146, 23.18452
387.0967, 23.01383
387.5788, 22.80249
388.0609, 22.59830
388.5430, 22.42321
389.0251, 22.30691
389.5073, 22.33053
389.9894, 22.61979
390.4715, 22.78236
390.9536, 22.78993
391.4357, 22.69117
391.9178, 22.45157
392.4000, 22.10846
392.8821, 21.80407
393.3642, 21.70690
393.8463, 21.82640
394.3284, 21.81843
394.8105, 21.52995
395.2927, 21.28740
395.7748, 21.25458
396.2569, 21.33136
396.7390, 21.33700
397.2211, 21.16407
397.7032, 20.90643
398.1854, 20.78992
398.6675, 20.87158
399.1496, 20.92042
399.6317, 20.77391
400.1138, 20.63002
400.5959, 20.67562
401.0781, 20.93801
401.5602, 21.21858
402.0423, 21.31310
402.5244, 21.24096
403.0065, 21.22967
403.4886, 21.36144
403.9708, 21.47350
404.4529, 21.42223
404.9350, 21.25996
405.4171, 21.13376
405.8992, 21.13558
406.3813, 21.19504
406.8635, 21.18624
407.3456, 21.09766
407.8277, 21.05193
408.3098, 21.16378
408.7919, 21.32896
409.2740, 21.35747
409.7562, 21.18074
410.2383, 21.02093
410.7204, 21.04518
411.2025, 21.19470
411.6846, 21.28101
412.1667, 21.23369
412.6489, 21.18109
413.1310, 21.34646
413.6131, 21.72617
414.0952, 21.91327
414.5773, 21.63270
415.0594, 21.26823
415.5416, 21.19460
416.0237, 21.40728
416.5058, 21.66673
416.9879, 21.83251
417.4700, 21.91065
417.9521, 21.93751
418.4343, 21.83975
418.9164, 21.78682
419.3985, 21.89858
419.8806, 22.06128
420.3627, 22.08844
420.8448, 21.92172
421.3270, 21.67592
421.8091, 21.51433
422.2912, 21.44643
422.7733, 21.45694
423.2554, 21.70613
423.7375, 21.88962
424.2197, 21.75978
424.7018, 21.38696
425.1839, 21.02166
425.6660, 20.83739
426.1481, 20.82213
426.6302, 20.89820
427.1124, 21.20068
427.5945, 21.42912
428.0766, 21.56920
428.5587, 21.60888
429.0408, 21.48077
429.5229, 21.18384
430.0051, 20.88738
430.4872, 20.86236
430.9693, 21.19621
431.4514, 21.43493
431.9335, 21.58366
432.4156, 21.61357
432.8978, 21.41222
433.3799, 21.07419
433.8620, 20.82001
434.3441, 20.79709
434.8262, 20.94472
435.3083, 21.11133
435.7905, 21.32959
436.2726, 21.47357
436.7547, 21.37982
437.2368, 21.25452
437.7189, 21.31386
438.2010, 21.60974
438.6832, 21.91298
439.1653, 21.99759
439.6474, 21.90768
440.1295, 21.89310
440.6116, 22.02446
441.0938, 22.17309
441.5759, 22.22687
442.0580, 22.20824
442.5401, 22.17608
443.0222, 22.14795
443.5043, 22.11248
443.9865, 22.06315
444.4686, 21.99876
444.9507, 21.89453
445.4328, 21.70517
445.9149, 21.50410
446.3970, 21.48356
446.8792, 21.72281
447.3613, 21.88241
447.8434, 21.81414
448.3255, 21.64234
448.8076, 21.51718
449.2897, 21.46376
449.7719, 21.42393
450.2540, 21.33675
450.7361, 21.19747
451.2182, 21.12396
451.7003, 21.13565
452.1824, 21.18048
452.6646, 21.24596
453.1467, 21.33037
453.6288, 21.44412
454.1109, 21.59219
454.5930, 21.74174
455.0751, 21.82673
455.5573, 21.81715
456.0394, 21.79748
456.5215, 21.75386
457.0036, 21.71344
457.4857, 21.70155
457.9678, 21.70957
458.4500, 21.70020
458.9321, 21.63214
459.4142, 21.52736
459.8963, 21.52185
460.3784, 21.67458
460.8605, 21.82383
461.3427, 21.94497
461.8248, 22.03409
462.3069, 22.06440
462.7890, 22.02974
463.2711, 22.01849
463.7532, 22.14121
464.2354, 22.38823
464.7175, 22.62231
465.1996, 22.86296
465.6817, 23.02964
466.1638, 22.98224
466.6459, 22.81782
467.1281, 22.79127
467.6102, 23.07454
468.0923, 23.45198
468.5744, 23.69805
469.0565, 23.82280
469.5386, 23.90131
470.0208, 23.94250
470.5029, 23.97846
470.9850, 24.04604
471.4671, 24.12122
471.9492, 24.32030
472.4313, 24.77106
472.9135, 25.30379
473.3956, 25.77267
473.8777, 26.15104
474.3598, 26.40941
474.8419, 26.50578
475.3240, 26.45909
475.8062, 26.45333
476.2883, 26.44746
476.7704, 26.52619
477.2525, 26.73902
477.7346, 27.03231
478.2167, 27.35193
478.6989, 27.68066
479.1810, 28.01234
479.6631, 28.34365
480.1452, 28.67151
480.6273, 29.00432
481.1094, 29.47288
481.5916, 29.80819
482.0737, 29.78299
482.5558, 29.58710
483.0379, 29.58365
483.5200, 29.97523
484.0021, 30.49764
484.4843, 30.60112
484.9664, 30.17299
485.4485, 29.84821
485.9306, 29.85275
486.4127, 29.90927
486.8948, 29.85469
487.3770, 29.68748
487.8591, 29.45873
488.3412, 29.18655
488.8233, 28.87657
489.3054, 28.52500
489.7875, 28.12769
490.2697, 27.74836
490.7518, 27.40489
491.2339, 27.11491
491.7160, 26.90926
492.1981, 26.83190
492.6802, 26.71335
493.1624, 26.48545
493.6445, 26.17244
494.1266, 25.74794
494.6087, 25.21380
495.0908, 24.79021
495.5729, 24.70256
496.0551, 24.94666
496.5372, 25.05221
497.0193, 24.93534
497.5014, 24.80063
497.9835, 24.65953
498.4656, 24.55585
498.9478, 24.59468
499.4299, 24.79691
499.9120, 24.98951
500.3941, 24.87937
500.8762, 24.31263
501.3583, 24.05616
501.8405, 24.43761
502.3226, 24.79711
502.8047, 24.83953
503.2868, 24.69926
503.7689, 24.64363
504.2510, 24.80776
504.7331, 25.10004
505.2152, 25.37925
505.6974, 25.65844
506.1795, 25.84765
506.6616, 25.89926
507.1437, 25.87557
507.6258, 25.81068
508.1079, 25.71099
508.5901, 25.60355
509.0722, 25.48001
509.5543, 25.36697
510.0364, 25.30710
510.5185, 25.30015
511.0006, 25.31498
511.4828, 25.34888
511.9649, 25.38536
512.4470, 25.40138
512.9291, 25.42165
513.4113, 25.35130
513.8934, 25.13161
514.3755, 24.83022
514.8576, 24.49284
515.3397, 24.13535
515.8218, 23.80392
516.3040, 23.53664
516.7861, 23.32086
517.2682, 23.06924
517.7503, 22.79783
518.2324, 22.46777
518.7145, 21.96893
519.1967, 21.47073
519.6788, 21.16802
520.1609, 21.06939
520.6430, 20.99114
521.1251, 20.74011
521.6072, 20.32087
522.0894, 19.95060
522.5715, 19.64474
523.0536, 19.36434
523.5357, 19.07153
524.0178, 18.80359
524.4999, 18.61416
524.9821, 18.52118
525.4642, 18.45713
525.9463, 18.37670
526.4284, 18.27628
526.9105, 18.11941
527.3926, 17.87524
527.8748, 17.65599
528.3569, 17.57838
528.8390, 17.60032
529.3211, 17.57257
529.8032, 17.42142
530.2853, 17.28561
530.7675, 17.25976
531.2496, 17.29969
531.7317, 17.33088
532.2138, 17.33217
532.6959, 17.28667
533.1780, 17.16335
533.6602, 16.93940
534.1423, 16.77976
534.6244, 16.70924
535.1065, 16.66355
535.5886, 16.63348
536.0707, 16.60821
536.5529, 16.56508
537.0350, 16.49673
537.5171, 16.43899
537.9992, 16.48104
538.4813, 16.67106
538.9634, 16.70663
539.4456, 16.41007
539.9277, 16.13762
540.4098, 16.09534
540.8919, 16.19064
541.3740, 16.22744
541.8561, 16.11178
542.3383, 15.94505
542.8204, 15.83919
543.3025, 15.79163
543.7846, 15.78538
544.2667, 15.83334
544.7488, 15.88737
545.2310, 15.86068
545.7131, 15.76820
546.1952, 15.54667
546.6773, 15.84168
547.1594, 16.00617
547.6415, 16.04714
548.1237, 15.59467
548.6058, 15.77938
549.0879, 15.70874
549.5700, 15.62762
550.0521, 15.90201
550.5342, 15.52131
551.0164, 15.79006
551.4985, 15.79957
551.9806, 15.92772
552.4627, 15.79895
552.9448, 15.74953
553.4269, 15.95712
553.9091, 16.02241
554.3912, 15.86406
554.8733, 15.99975
555.3554, 15.61008
555.8375, 15.68142
556.3196, 15.95168
556.8018, 15.80625
557.2839, 15.94664
557.7660, 15.97818
558.2481, 15.51499
558.7302, 15.91218
559.2123, 15.93728
559.6945, 15.58033
560.1766, 15.84303
560.6587, 15.93123
561.1408, 15.91842
561.6229, 15.86121
562.1050, 15.82754
562.5872, 15.82267
563.0693, 15.80585
563.5514, 15.73967
564.0335, 15.69884
564.5156, 15.74794
564.9977, 15.84400
565.4799, 15.89827
565.9620, 15.87658
566.4441, 15.83913
566.9262, 15.89514
567.4083, 16.08824
567.8904, 16.19730
568.3726, 16.17875
568.8547, 16.11489
569.3368, 15.98280
569.8189, 15.83637
570.3010, 15.76188
570.7831, 15.79494
571.2653, 15.88363
571.7474, 16.00426
572.2295, 16.14287
572.7116, 16.17859
573.1937, 16.06855
573.6758, 15.90974
574.1580, 15.72435
574.6401, 15.54883
575.1222, 15.52965
575.6043, 15.78423
576.0864, 16.07989
576.5685, 16.33652
577.0507, 16.54761
577.5328, 16.70589
578.0149, 16.80872
578.4970, 16.84371
578.9791, 16.78588
579.4612, 16.62954
579.9434, 16.52497
580.4255, 16.51650
580.9076, 16.50933
581.3897, 16.45069
581.8718, 16.40320
582.3539, 16.44719
582.8361, 16.59519
583.3182, 16.77427
583.8003, 16.90501
584.2824, 16.99890
584.7645, 17.14468
585.2466, 17.36035
