##NAMES=Szaibelyite
##RRUFFID=R060289
##IDEAL CHEMISTRY=MgBO_2_(OH)
##LOCALITY=Franklin, Sussex County, New Jersey, USA
##OWNER=RRUFF
##SOURCE=Herb Obodda
##DESCRIPTION=Pink massive, associated with rhodochrosite.
##STATUS=The identification of this mineral has been confirmed by X-ray diffraction and chemical analysis
##URL=rruff.info/R060289
##MEASURED CHEMISTRY=(Mg_0.66_Mn^2+^_0.34_)_Σ=1_BO_2_(OH); = gray phase: B and OH assumed by stoichiometry; light rim: (Mn^2+^_0.70_Ca_0.18_Mg_0.12_)_Σ=1_CO_3_ is rhodochrosite; CO_2_ estimated by difference
91.87140, 0.0000000E+00
92.35352, 5.527078
92.83563, 5.428722
93.31775, 5.386971
93.79987, 5.424867
94.28198, 5.522438
94.76410, 5.622838
95.24622, 5.713122
95.72833, 5.801858
96.21045, 5.889932
96.69257, 5.974901
97.17468, 6.101506
97.65680, 6.322563
98.13892, 6.637166
98.62103, 6.963058
99.10315, 7.268588
99.58527, 7.563048
100.0674, 7.884530
100.5495, 8.218487
101.0316, 8.605664
101.5137, 9.101819
101.9958, 9.734756
102.4780, 10.38916
102.9601, 11.01373
103.4422, 11.59127
103.9243, 12.24250
104.4064, 12.94837
104.8885, 13.74290
105.3707, 14.72470
105.8528, 16.00204
106.3349, 17.30322
106.8170, 18.51652
107.2991, 19.58587
107.7813, 20.67499
108.2634, 21.81810
108.7455, 22.99136
109.2276, 24.07332
109.7097, 25.07726
110.1918, 25.98889
110.6740, 26.80346
111.1561, 27.44229
111.6382, 28.07231
112.1203, 28.59920
112.6024, 29.07809
113.0845, 29.81656
113.5667, 31.14242
114.0488, 32.58556
114.5309, 33.84403
115.0130, 34.45427
115.4951, 35.23574
115.9772, 36.53760
116.4594, 38.35918
116.9415, 40.10901
117.4236, 41.64185
117.9057, 42.96796
118.3878, 44.09361
118.8699, 44.79755
119.3521, 45.47866
119.8342, 46.40538
120.3163, 47.61430
120.7984, 48.84304
121.2805, 49.87706
121.7626, 50.82606
122.2448, 51.87756
122.7269, 53.39459
123.2090, 54.92365
123.6911, 56.02398
124.1732, 56.62909
124.6553, 56.88929
125.1375, 56.72924
125.6196, 56.28083
126.1017, 55.96152
126.5838, 56.02586
127.0659, 56.38500
127.5480, 56.87600
128.0302, 57.47218
128.5123, 58.20390
128.9944, 59.22866
129.4765, 60.50907
129.9586, 61.69581
130.4407, 62.48003
130.9229, 62.94244
131.4050, 63.40572
131.8871, 63.90177
132.3692, 64.44830
132.8513, 65.06533
133.3334, 65.64770
133.8156, 66.03020
134.2977, 66.36613
134.7798, 66.87719
135.2619, 67.31110
135.7440, 66.52156
136.2261, 67.98485
136.7083, 68.87851
137.1904, 69.23311
137.6725, 67.43418
138.1546, 68.41608
138.6367, 68.28355
139.1188, 68.10533
139.6010, 69.47866
140.0831, 67.99296
140.5652, 69.34165
141.0473, 69.55890
141.5294, 70.29398
142.0115, 69.90776
142.4937, 69.86790
142.9758, 70.94968
143.4579, 71.41039
143.9400, 70.54417
144.4221, 70.68307
144.9042, 70.36803
145.3864, 69.91286
145.8685, 69.89711
146.3506, 70.73044
146.8327, 71.43935
147.3148, 71.66597
147.7969, 71.06550
148.2791, 70.76393
148.7612, 70.93933
149.2433, 71.39347
149.7254, 71.67255
150.2075, 71.56294
150.6896, 71.46563
151.1718, 71.53411
151.6539, 71.97536
152.1360, 72.28129
152.6181, 72.40694
153.1002, 72.38730
153.5823, 72.32463
154.0645, 72.12641
154.5466, 71.95782
155.0287, 71.89619
155.5108, 72.04987
155.9929, 72.18606
156.4750, 72.31227
156.9572, 72.40687
157.4393, 72.37695
157.9214, 72.05534
158.4035, 71.69161
158.8856, 71.44048
159.3677, 71.41080
159.8499, 71.42068
160.3320, 71.36826
160.8141, 71.28376
161.2962, 71.35934
161.7783, 71.86729
162.2604, 72.46931
162.7426, 72.88638
163.2247, 72.93864
163.7068, 72.87637
164.1889, 72.79092
164.6710, 72.68398
165.1531, 72.54917
165.6353, 72.31895
166.1174, 72.08017
166.5995, 71.92634
167.0816, 71.79211
167.5637, 71.82374
168.0458, 72.25677
168.5280, 73.08483
169.0101, 73.76347
169.4922, 73.81631
169.9743, 73.52385
170.4564, 73.27625
170.9385, 73.28210
171.4207, 73.37121
171.9028, 73.35823
172.3849, 73.22868
172.8670, 73.17947
173.3491, 73.49191
173.8312, 73.98981
174.3134, 74.33687
174.7955, 74.19838
175.2776, 73.90443
175.7597, 73.88564
176.2418, 74.19244
176.7239, 74.52809
177.2061, 74.60152
177.6882, 74.48449
178.1703, 74.37092
178.6524, 74.37489
179.1345, 74.43693
179.6166, 74.42327
180.0988, 74.30160
180.5809, 74.23498
181.0630, 74.46532
181.5451, 74.93218
182.0272, 75.38380
182.5093, 75.69294
182.9915, 75.89523
183.4736, 76.05209
183.9557, 76.15368
184.4378, 76.26572
184.9199, 76.45252
185.4020, 76.71488
185.8842, 77.08936
186.3663, 77.79778
186.8484, 78.67378
187.3305, 78.99041
187.8126, 78.57005
188.2947, 77.91483
188.7769, 77.87458
189.2590, 78.42175
189.7411, 78.98197
190.2232, 79.15522
190.7053, 79.01984
191.1874, 79.10320
191.6696, 79.48820
192.1517, 80.03236
192.6338, 80.52727
193.1159, 80.97657
193.5980, 81.29419
194.0801, 81.35537
194.5623, 81.18336
195.0444, 81.10808
195.5265, 81.15357
196.0086, 81.31567
196.4907, 81.67181
196.9728, 82.26033
197.4550, 82.71879
197.9371, 82.67354
198.4192, 82.11026
198.9013, 81.98084
199.3834, 82.47676
199.8655, 83.33568
200.3477, 83.93705
200.8298, 84.24480
201.3119, 84.44827
201.7940, 84.66311
202.2761, 84.89603
202.7582, 85.07036
203.2404, 85.17681
203.7225, 85.22417
204.2046, 85.24759
204.6867, 85.26440
205.1688, 85.20064
205.6509, 84.96874
206.1331, 84.52617
206.6152, 84.21125
207.0973, 84.12060
207.5794, 84.14117
208.0615, 83.89593
208.5436, 83.30718
209.0258, 82.65531
209.5079, 82.05362
209.9900, 81.44319
210.4721, 81.20985
210.9542, 81.56316
211.4363, 82.25280
211.9185, 82.35837
212.4006, 81.63106
212.8827, 80.85294
213.3648, 80.55032
213.8469, 80.87051
214.3290, 81.11372
214.8112, 81.25723
215.2933, 81.27908
215.7754, 81.05735
216.2575, 80.44921
216.7396, 79.86427
217.2217, 79.57830
217.7039, 79.71638
218.1860, 79.76765
218.6681, 79.67440
219.1502, 79.47431
219.6323, 79.29911
220.1144, 79.14585
220.5966, 79.02656
221.0787, 78.96205
221.5608, 78.99280
222.0429, 78.96681
222.5250, 78.84724
223.0071, 78.66866
223.4893, 78.56393
223.9714, 78.55990
224.4535, 78.58778
224.9356, 78.63034
225.4177, 78.75273
225.8998, 78.71122
226.3820, 78.37378
226.8641, 77.87757
227.3462, 77.74428
227.8283, 78.19873
228.3104, 78.67116
228.7925, 78.83858
229.2747, 78.49606
229.7568, 78.32673
230.2389, 78.44935
230.7210, 78.74351
231.2031, 78.80289
231.6852, 78.47368
232.1674, 78.13695
232.6495, 77.96658
233.1316, 77.95805
233.6137, 78.14708
234.0958, 78.66841
234.5779, 79.35876
235.0601, 79.73898
235.5422, 79.67782
236.0243, 79.50279
236.5064, 79.33205
236.9885, 79.07749
237.4706, 79.04106
237.9528, 79.35562
238.4349, 79.85294
238.9170, 80.09042
239.3991, 79.89309
239.8812, 79.69760
240.3633, 79.71836
240.8455, 80.14057
241.3276, 80.29265
241.8097, 79.96802
242.2918, 79.44805
242.7739, 79.39256
243.2560, 80.12267
243.7382, 80.82177
244.2203, 81.17947
244.7024, 81.10313
245.1845, 80.93151
245.6666, 80.57568
246.1487, 80.16798
246.6309, 79.96011
247.1130, 80.01563
247.5951, 80.16917
248.0772, 80.38585
248.5593, 80.70924
249.0414, 80.94321
249.5236, 81.09306
250.0057, 81.14892
250.4878, 81.06297
250.9699, 80.68008
251.4520, 80.43548
251.9341, 80.53597
252.4163, 81.10985
252.8984, 81.35908
253.3805, 81.06482
253.8626, 80.61406
254.3447, 80.61720
254.8268, 81.31910
255.3090, 81.97482
255.7911, 82.36099
256.2732, 82.45101
256.7553, 82.52215
257.2374, 82.59373
257.7195, 82.62744
258.2017, 82.54220
258.6838, 82.21510
259.1659, 82.05191
259.6480, 82.18949
260.1301, 82.63918
260.6122, 83.05282
261.0944, 83.44029
261.5765, 83.78152
262.0586, 84.03280
262.5407, 84.12908
263.0228, 84.32858
263.5049, 84.76766
263.9871, 85.42842
264.4692, 85.69433
264.9513, 85.38236
265.4334, 84.97349
265.9155, 84.92953
266.3976, 85.35737
266.8798, 85.79072
267.3619, 86.14128
267.8440, 86.42497
268.3261, 86.74641
268.8082, 87.11111
269.2903, 87.49963
269.7725, 87.94661
270.2546, 88.51322
270.7367, 88.80037
271.2188, 88.61842
271.7009, 88.13480
272.1830, 88.08465
272.6652, 88.55942
273.1473, 89.21843
273.6294, 89.91629
274.1115, 90.70064
274.5936, 91.16263
275.0757, 91.13305
275.5579, 90.84933
276.0400, 91.07519
276.5221, 91.94265
277.0042, 92.78263
277.4863, 93.17744
277.9684, 93.09721
278.4506, 92.96036
278.9327, 92.76320
279.4148, 92.56358
279.8969, 92.49777
280.3790, 92.58098
280.8611, 92.69524
281.3433, 92.78297
281.8254, 92.84527
282.3075, 92.91086
282.7896, 92.97431
283.2717, 93.05814
283.7538, 93.27345
284.2360, 93.63316
284.7181, 93.80538
285.2002, 93.50136
285.6823, 92.79969
286.1644, 92.43140
286.6465, 92.43378
287.1287, 92.64246
287.6108, 92.92557
288.0929, 93.27357
288.5750, 93.52079
289.0571, 93.58955
289.5392, 93.50729
290.0214, 93.31906
290.5035, 93.00111
290.9856, 92.77401
291.4677, 92.91505
291.9498, 93.37990
292.4319, 93.90592
292.9141, 94.54300
293.3962, 95.12502
293.8783, 95.16160
294.3604, 94.64547
294.8425, 94.05279
295.3246, 93.78377
295.8068, 93.76894
296.2889, 93.77566
296.7710, 93.73428
297.2531, 93.70531
297.7352, 93.77184
298.2173, 93.93387
298.6995, 94.20052
299.1816, 94.80983
299.6637, 95.50910
300.1458, 95.67894
300.6279, 95.05199
301.1100, 94.21004
301.5922, 93.89446
302.0743, 94.00554
302.5564, 94.14311
303.0385, 94.07280
303.5206, 93.88061
304.0027, 93.66228
304.4849, 93.41013
304.9670, 93.21818
305.4491, 93.29661
305.9312, 93.51791
306.4133, 93.57653
306.8954, 93.22686
307.3776, 92.69272
307.8597, 92.18112
308.3418, 91.70139
308.8239, 91.26433
309.3060, 90.94379
309.7881, 90.65881
310.2703, 90.29172
310.7524, 89.53863
311.2345, 88.86951
311.7166, 88.77949
312.1987, 89.24712
312.6808, 89.55170
313.1630, 89.11318
313.6451, 88.36337
314.1272, 87.76416
314.6093, 87.70394
315.0914, 87.60989
315.5735, 87.06667
316.0557, 86.18259
316.5378, 85.53590
317.0199, 85.52548
317.5020, 85.75773
317.9841, 85.95920
318.4662, 86.11015
318.9484, 86.15565
319.4305, 86.05156
319.9126, 85.82594
320.3947, 85.55191
320.8768, 85.17326
321.3589, 84.81079
321.8411, 84.52145
322.3232, 84.32169
322.8053, 84.18043
323.2874, 84.16408
323.7695, 84.18964
324.2516, 84.12568
324.7338, 83.83951
325.2159, 83.56398
325.6980, 83.36675
326.1801, 83.25748
326.6622, 83.19538
327.1443, 83.30843
327.6265, 83.41093
328.1086, 83.31353
328.5907, 82.75557
329.0728, 82.28979
329.5549, 82.00893
330.0370, 81.91415
330.5192, 81.86485
331.0013, 81.85660
331.4834, 81.89747
331.9655, 82.01816
332.4476, 82.43938
332.9297, 82.54171
333.4119, 82.09097
333.8940, 81.26059
334.3761, 80.83672
334.8582, 80.98034
335.3403, 81.28420
335.8224, 81.59595
336.3046, 82.01852
336.7867, 82.09476
337.2688, 81.64097
337.7509, 80.96949
338.2330, 80.76187
338.7151, 81.17661
339.1973, 81.56026
339.6794, 81.59428
340.1615, 81.25038
340.6436, 81.23866
341.1257, 81.66832
341.6078, 82.19588
342.0900, 82.37173
342.5721, 82.17448
343.0542, 81.88614
343.5363, 81.50210
344.0184, 81.10174
344.5005, 81.10056
344.9827, 81.54430
345.4648, 82.05533
345.9469, 82.27867
346.4290, 82.24763
346.9111, 82.19270
347.3932, 82.12959
347.8754, 82.10155
348.3575, 82.27036
348.8396, 82.60997
349.3217, 82.84245
349.8038, 82.61623
350.2859, 82.14663
350.7681, 82.00182
351.2502, 82.30228
351.7323, 82.71927
352.2144, 82.85392
352.6965, 82.78954
353.1786, 82.77414
353.6608, 83.07535
354.1429, 83.43011
354.6250, 83.42214
355.1071, 83.02262
355.5892, 82.69827
356.0714, 82.91544
356.5535, 83.41901
357.0356, 83.83252
357.5177, 84.04044
357.9998, 84.09460
358.4819, 83.92264
358.9641, 83.57554
359.4462, 83.34318
359.9283, 83.44204
360.4104, 83.68513
360.8925, 83.93288
361.3746, 84.22107
361.8568, 84.39101
362.3389, 84.22095
362.8210, 83.88057
363.3031, 83.75169
363.7852, 84.28179
364.2673, 84.78653
364.7495, 84.89007
365.2316, 84.41087
365.7137, 84.05585
366.1958, 84.00828
366.6779, 84.14371
367.1600, 84.31560
367.6422, 84.54205
368.1243, 84.76835
368.6064, 85.00488
369.0885, 85.25565
369.5706, 85.42271
370.0527, 85.44584
370.5349, 85.43410
371.0170, 85.47065
371.4991, 85.69617
371.9812, 85.72376
372.4633, 85.43171
372.9454, 84.92672
373.4276, 84.57632
373.9097, 84.36757
374.3918, 84.33243
374.8739, 84.54459
375.3560, 85.10869
375.8381, 85.45495
376.3203, 85.54720
376.8024, 85.46400
377.2845, 85.27741
377.7666, 84.95548
378.2487, 84.70700
378.7308, 84.59482
379.2130, 84.61356
379.6951, 84.78666
380.1772, 85.14633
380.6593, 85.49885
381.1414, 85.69416
381.6235, 85.73228
382.1057, 85.58569
382.5878, 85.14732
383.0699, 84.66175
383.5520, 84.66382
384.0341, 85.11171
384.5162, 85.57703
384.9984, 85.89444
385.4805, 86.02201
385.9626, 85.77625
386.4447, 85.06764
386.9268, 84.37166
387.4089, 84.24174
387.8911, 84.49590
388.3732, 84.72868
388.8553, 84.58838
389.3374, 84.44985
389.8195, 84.84277
390.3016, 85.71964
390.7838, 86.34988
391.2659, 86.06731
391.7480, 85.38439
392.2301, 84.82859
392.7122, 84.56899
393.1943, 84.42958
393.6765, 84.34553
394.1586, 84.32238
394.6407, 84.37492
395.1228, 84.60234
395.6049, 84.83340
396.0870, 85.00192
396.5692, 85.11883
397.0513, 85.10728
397.5334, 84.78483
398.0155, 84.37914
398.4976, 84.17867
398.9797, 84.51751
399.4619, 84.73170
399.9440, 84.58676
400.4261, 84.08465
400.9082, 83.89677
401.3903, 84.31260
401.8724, 84.76518
402.3546, 84.86818
402.8367, 84.38502
403.3188, 84.06425
403.8009, 83.96717
404.2830, 84.04782
404.7651, 84.22942
405.2473, 84.57938
405.7294, 84.83088
406.2115, 84.79942
406.6936, 84.47034
407.1757, 84.46175
407.6578, 84.86921
408.1400, 85.34034
408.6221, 85.40227
409.1042, 85.06670
409.5863, 84.87441
410.0684, 85.03590
410.5505, 85.37807
411.0327, 85.46962
411.5148, 85.31805
411.9969, 85.15215
412.4790, 85.14124
412.9611, 85.23680
413.4432, 85.32195
413.9254, 85.37891
414.4075, 85.43813
414.8896, 85.56104
415.3717, 85.71374
415.8538, 85.81471
416.3359, 85.75314
416.8181, 85.66767
417.3002, 85.67290
417.7823, 85.77148
418.2644, 85.93913
418.7465, 86.27267
419.2286, 86.61880
419.7108, 86.81782
420.1929, 86.70552
420.6750, 86.60789
421.1571, 86.66964
421.6392, 86.84098
422.1213, 86.99233
422.6035, 87.21384
423.0856, 87.30190
423.5677, 87.11342
424.0498, 86.51230
424.5319, 86.09652
425.0140, 86.04601
425.4962, 86.13766
425.9783, 86.14024
426.4604, 85.89883
426.9425, 85.80787
427.4246, 86.02738
427.9067, 86.48348
428.3889, 86.61221
428.8710, 86.25462
429.3531, 85.85194
429.8352, 85.63511
430.3173, 85.62526
430.7994, 85.73409
431.2816, 86.01049
431.7637, 86.31915
432.2458, 86.41827
432.7279, 86.29565
433.2100, 86.15101
433.6921, 86.05473
434.1743, 85.98852
434.6564, 85.88494
435.1385, 85.74117
435.6206, 85.59480
436.1027, 85.48962
436.5848, 85.40752
437.0670, 85.27789
437.5491, 85.04967
438.0312, 84.86778
438.5133, 84.92023
438.9954, 85.15593
439.4775, 85.43140
439.9597, 85.79405
440.4418, 86.08906
440.9239, 86.13255
441.4060, 85.91476
441.8881, 85.68380
442.3702, 85.58884
442.8524, 85.54851
443.3345, 85.48215
443.8166, 85.30362
444.2987, 85.17101
444.7808, 85.14478
445.2629, 85.20166
445.7451, 85.27563
446.2272, 85.42663
446.7093, 85.52480
447.1914, 85.50883
447.6735, 85.33930
448.1556, 85.16153
448.6378, 84.76770
449.1199, 84.50558
449.6020, 84.81324
450.0841, 86.17205
450.5662, 87.05734
451.0483, 87.08580
451.5305, 86.47304
452.0126, 86.21609
452.4947, 86.42509
452.9768, 86.64340
453.4589, 86.55696
453.9410, 86.15305
454.4232, 85.98900
454.9053, 86.11186
455.3874, 86.35049
455.8695, 86.50349
456.3516, 86.57925
456.8337, 86.63265
457.3159, 86.65220
457.7980, 86.68527
458.2801, 86.88161
458.7622, 87.20894
459.2443, 87.44192
459.7264, 87.30743
460.2086, 87.03214
460.6907, 86.93886
461.1728, 87.11172
461.6549, 87.29336
462.1370, 87.23702
462.6191, 87.08464
463.1013, 87.04527
463.5834, 87.34535
464.0655, 87.63602
464.5476, 87.71346
465.0297, 87.60615
465.5118, 87.58586
465.9940, 87.73298
466.4761, 87.97903
466.9582, 88.30376
467.4403, 88.85847
467.9224, 89.21528
468.4045, 89.24833
468.8867, 89.12996
469.3688, 89.11152
469.8509, 89.27465
470.3330, 89.38421
470.8151, 89.33766
471.2972, 89.16750
471.7794, 89.23808
472.2615, 89.62055
472.7436, 90.05462
473.2257, 90.37632
473.7078, 90.58601
474.1899, 90.68755
474.6721, 90.63445
475.1542, 90.60341
475.6363, 90.87533
476.1184, 91.41859
476.6005, 92.04629
477.0826, 92.86053
477.5648, 93.60684
478.0469, 93.69102
478.5290, 93.19380
479.0111, 92.84895
479.4932, 93.33801
479.9753, 94.19930
480.4575, 94.92107
480.9396, 95.42888
481.4217, 95.73618
481.9038, 95.70613
482.3859, 95.50781
482.8680, 95.38914
483.3502, 95.32835
483.8323, 95.46011
484.3144, 95.96764
484.7965, 96.80748
485.2786, 97.43346
485.7607, 97.78811
486.2429, 97.87754
486.7250, 97.67845
487.2071, 96.99245
487.6892, 96.44651
488.1713, 96.06780
488.6534, 95.81229
489.1356, 95.64588
489.6177, 95.64616
490.0998, 95.49976
490.5819, 95.08296
491.0640, 94.46245
491.5461, 94.00991
492.0283, 93.74999
492.5104, 93.46861
492.9925, 92.96716
493.4746, 92.29739
493.9567, 91.74094
494.4388, 91.29831
494.9210, 91.02495
495.4031, 91.16352
495.8852, 91.52302
496.3673, 91.61421
496.8494, 91.03404
497.3315, 90.31372
497.8137, 89.93814
498.2958, 89.85511
498.7779, 89.86964
499.2600, 89.91870
499.7421, 89.99954
500.2242, 90.13786
500.7064, 90.37221
501.1885, 90.50878
501.6706, 90.47128
502.1527, 90.31784
502.6348, 90.10638
503.1169, 89.58330
503.5991, 89.32253
504.0812, 89.50333
504.5633, 90.00266
505.0454, 90.36147
505.5275, 90.47837
506.0096, 90.62511
506.4918, 90.99422
506.9739, 91.64441
507.4560, 91.75327
507.9381, 91.17946
508.4202, 90.44424
508.9023, 90.06471
509.3845, 90.02676
509.8666, 90.09679
510.3487, 90.24369
510.8308, 90.45724
511.3129, 90.82862
511.7950, 91.29367
512.2772, 91.55079
512.7593, 91.20177
513.2414, 90.68479
513.7235, 90.59938
514.2056, 90.93584
514.6877, 91.21189
515.1699, 91.05263
515.6520, 90.72536
516.1341, 90.48359
516.6162, 90.44702
517.0983, 90.36962
517.5804, 90.16788
518.0626, 89.87243
518.5447, 89.53397
519.0268, 89.02392
519.5089, 88.61692
519.9910, 88.39259
520.4731, 88.34011
520.9553, 88.32592
521.4374, 88.40076
521.9195, 88.43973
522.4016, 88.36799
522.8837, 88.17062
523.3658, 87.96556
523.8480, 87.78313
524.3301, 87.53275
524.8122, 86.99172
525.2943, 86.19240
525.7764, 85.63241
526.2585, 85.50784
526.7407, 85.62929
527.2228, 85.70445
527.7049, 85.72980
528.1870, 85.68345
528.6691, 85.42677
529.1512, 85.15493
529.6334, 85.20580
530.1155, 85.61811
530.5976, 85.81319
531.0797, 85.07851
531.5618, 84.12759
532.0439, 83.69160
532.5261, 84.35142
533.0082, 84.95489
533.4903, 85.28893
533.9724, 85.36460
534.4545, 85.20766
534.9366, 84.41634
535.4188, 83.85915
535.9009, 83.79674
536.3830, 84.21731
536.8651, 84.60156
537.3472, 84.99361
537.8293, 85.26624
538.3115, 85.29438
538.7936, 85.05946
539.2757, 84.86064
539.7578, 84.71294
540.2399, 84.60627
540.7220, 84.52853
541.2042, 84.47997
541.6863, 84.46230
542.1684, 84.50477
542.6505, 84.54240
543.1326, 84.46565
543.6147, 84.29749
544.0969, 84.12450
544.5790, 84.03176
545.0611, 83.93440
545.5432, 83.71764
546.0253, 83.36278
546.5074, 83.11837
546.9896, 83.20200
547.4717, 83.37881
547.9538, 83.45447
548.4359, 83.15925
548.9180, 83.09040
549.4001, 83.44640
549.8823, 84.00832
550.3644, 84.41824
550.8465, 84.68711
551.3286, 84.78267
551.8107, 84.64174
552.2928, 84.30671
552.7750, 84.12374
553.2571, 84.13203
553.7392, 84.09714
554.2213, 83.70441
554.7034, 83.07957
555.1855, 83.04719
555.6677, 83.71194
556.1498, 84.47466
556.6319, 84.73363
557.1140, 84.61523
557.5961, 84.34719
558.0782, 83.89172
558.5604, 83.47939
559.0425, 83.31725
559.5246, 83.34152
560.0067, 83.41389
560.4888, 83.57420
560.9709, 83.68236
561.4531, 83.63534
561.9352, 83.43183
562.4173, 83.29445
562.8994, 83.28091
563.3815, 83.32070
563.8636, 83.41137
564.3458, 83.67756
564.8279, 83.60479
565.3100, 82.97042
565.7921, 82.27759
566.2742, 82.28336
566.7563, 83.08037
567.2385, 83.64931
567.7206, 83.71121
568.2027, 83.49767
568.6848, 83.53859
569.1669, 83.79316
569.6490, 83.95156
570.1312, 83.71023
570.6133, 83.33627
571.0954, 83.21836
571.5775, 83.35454
572.0596, 83.59415
572.5417, 83.95589
573.0239, 84.31117
573.5060, 84.54038
573.9881, 84.60342
574.4702, 84.60059
574.9523, 84.55443
575.4344, 84.46212
575.9166, 84.31909
576.3987, 83.99780
576.8808, 83.79294
577.3629, 83.73222
577.8450, 83.80992
578.3271, 84.05429
578.8093, 84.56797
579.2914, 84.93154
579.7735, 84.87125
580.2556, 84.47061
580.7377, 84.41594
581.2198, 84.73021
581.7020, 85.13886
582.1841, 85.54094
582.6662, 85.85161
583.1483, 85.79684
583.6304, 85.27856
584.1125, 84.73827
584.5947, 84.56930
