##NAMES=Szaibelyite
##RRUFFID=R070498
##IDEAL CHEMISTRY=MgBO_2_(OH)
##LOCALITY=Stinson Beach, Marin County, California, USA
##OWNER=RRUFF
##SOURCE=James Shigley
##DESCRIPTION=Matted aggregates of white fibrous crystals, associated with magnetite and chromite
##STATUS=The identification of this mineral has been confirmed by X-ray diffraction.
##URL=rruff.info/R070498
158.5223, 13856.88
159.0045, 13948.37
159.4866, 14064.76
159.9687, 14188.15
160.4508, 14301.60
160.9329, 14365.11
161.4150, 14375.10
161.8972, 14393.99
162.3793, 14425.38
162.8614, 14451.32
163.3435, 14469.37
163.8256, 14486.70
164.3077, 14510.25
164.7899, 14539.44
165.2720, 14567.18
165.7541, 14586.44
166.2362, 14598.04
166.7183, 14602.63
167.2004, 14610.00
167.6826, 14607.20
168.1647, 14576.81
168.6468, 14523.52
169.1289, 14477.74
169.6110, 14474.50
170.0931, 14530.49
170.5753, 14549.18
171.0574, 14513.08
171.5395, 14458.90
172.0216, 14400.35
172.5037, 14342.85
172.9858, 14300.76
173.4680, 14290.42
173.9501, 14319.17
174.4322, 14341.01
174.9143, 14354.61
175.3964, 14361.80
175.8785, 14357.72
176.3607, 14343.81
176.8428, 14336.16
177.3249, 14354.11
177.8070, 14402.80
178.2891, 14424.51
178.7712, 14387.30
179.2534, 14345.88
179.7355, 14342.01
180.2176, 14378.04
180.6997, 14429.57
181.1818, 14479.25
181.6639, 14526.69
182.1461, 14561.69
182.6282, 14587.64
183.1103, 14599.34
183.5924, 14584.72
184.0745, 14545.47
184.5566, 14507.81
185.0388, 14495.34
185.5209, 14508.54
186.0030, 14514.50
186.4851, 14506.89
186.9672, 14496.19
187.4493, 14493.00
187.9315, 14497.10
188.4136, 14495.59
188.8957, 14474.70
189.3778, 14437.30
189.8599, 14413.86
190.3420, 14418.81
190.8242, 14427.76
191.3063, 14416.02
191.7884, 14384.75
192.2705, 14363.95
192.7526, 14382.02
193.2347, 14428.89
193.7169, 14449.91
194.1990, 14418.05
194.6811, 14379.77
195.1632, 14368.57
195.6453, 14383.66
196.1274, 14411.23
196.6096, 14453.58
197.0917, 14499.85
197.5738, 14516.63
198.0559, 14478.38
198.5380, 14433.73
199.0201, 14416.92
199.5023, 14425.92
199.9844, 14442.97
200.4665, 14465.19
200.9486, 14486.14
201.4307, 14490.60
201.9128, 14466.97
202.3950, 14441.69
202.8771, 14432.88
203.3592, 14438.67
203.8413, 14446.19
204.3234, 14448.79
204.8055, 14450.04
205.2877, 14459.36
205.7698, 14486.96
206.2519, 14503.97
206.7340, 14476.51
207.2161, 14415.86
207.6982, 14382.75
208.1804, 14409.99
208.6625, 14468.82
209.1446, 14506.08
209.6267, 14517.76
210.1088, 14520.39
210.5909, 14521.72
211.0731, 14521.01
211.5552, 14516.32
212.0373, 14507.98
212.5194, 14493.41
213.0015, 14467.77
213.4836, 14429.21
213.9658, 14392.19
214.4479, 14364.70
214.9300, 14344.35
215.4121, 14324.43
215.8942, 14302.43
216.3763, 14282.22
216.8584, 14267.92
217.3406, 14259.01
217.8227, 14256.15
218.3048, 14271.08
218.7869, 14291.25
219.2690, 14285.42
219.7511, 14240.14
220.2333, 14187.15
220.7154, 14160.35
221.1975, 14156.37
221.6796, 14166.38
222.1617, 14200.03
222.6438, 14242.55
223.1260, 14271.25
223.6081, 14283.17
224.0902, 14281.75
224.5723, 14259.28
225.0544, 14221.66
225.5365, 14200.12
226.0187, 14220.18
226.5008, 14251.86
226.9829, 14255.55
227.4650, 14226.54
227.9471, 14188.78
228.4292, 14154.42
228.9114, 14125.80
229.3935, 14112.38
229.8756, 14131.47
230.3577, 14156.03
230.8398, 14161.87
231.3219, 14148.37
231.8041, 14120.58
232.2862, 14067.24
232.7683, 14003.93
233.2504, 13979.86
233.7325, 14024.00
234.2146, 14084.48
234.6968, 14131.03
235.1789, 14163.59
235.6610, 14183.21
236.1431, 14189.05
236.6252, 14181.64
237.1073, 14165.71
237.5895, 14134.53
238.0716, 14105.33
238.5537, 14086.53
239.0358, 14077.03
239.5179, 14074.66
240.0000, 14081.99
240.4822, 14091.71
240.9643, 14088.75
241.4464, 14072.61
241.9285, 14049.62
242.4106, 14009.16
242.8927, 13964.88
243.3749, 13947.02
243.8570, 13968.32
244.3391, 14007.73
244.8212, 14034.26
245.3033, 14049.16
245.7854, 14052.74
246.2676, 14039.60
246.7497, 14017.16
247.2318, 13991.72
247.7139, 13963.95
248.1960, 13941.70
248.6781, 13935.10
249.1603, 13946.15
249.6424, 13960.42
250.1245, 13987.41
250.6066, 14010.49
251.0887, 14011.81
251.5708, 13990.65
252.0530, 13963.68
252.5351, 13945.39
253.0172, 13936.55
253.4993, 13922.80
253.9814, 13895.17
254.4635, 13870.50
254.9457, 13858.47
255.4278, 13858.57
255.9099, 13868.79
256.3920, 13892.41
256.8741, 13925.05
257.3563, 13924.32
257.8384, 13854.76
258.3205, 13796.60
258.8026, 13783.37
259.2847, 13801.42
259.7668, 13822.88
260.2490, 13834.38
260.7311, 13838.31
261.2132, 13842.78
261.6953, 13867.94
262.1774, 13868.83
262.6595, 13814.83
263.1417, 13742.91
263.6238, 13700.43
264.1059, 13703.65
264.5880, 13732.25
265.0701, 13750.25
265.5522, 13755.87
266.0344, 13752.16
266.5165, 13714.65
266.9986, 13683.88
267.4807, 13709.82
267.9628, 13792.03
268.4449, 13870.90
268.9271, 13869.47
269.4092, 13755.09
269.8913, 13680.12
270.3734, 13665.60
270.8555, 13663.37
271.3376, 13649.75
271.8198, 13625.63
272.3019, 13603.95
272.7840, 13595.56
273.2661, 13600.37
273.7482, 13608.38
274.2303, 13628.51
274.7125, 13642.13
275.1946, 13639.68
275.6767, 13628.03
276.1588, 13618.83
276.6409, 13619.05
277.1230, 13626.19
277.6052, 13631.00
278.0873, 13635.25
278.5694, 13634.04
279.0515, 13627.08
279.5336, 13614.94
280.0157, 13595.63
280.4979, 13568.74
280.9800, 13541.44
281.4621, 13526.79
281.9442, 13529.01
282.4263, 13533.01
282.9084, 13539.06
283.3906, 13544.95
283.8727, 13552.11
284.3548, 13559.45
284.8369, 13560.27
285.3190, 13539.48
285.8011, 13493.42
286.2833, 13475.14
286.7654, 13517.35
287.2475, 13557.89
287.7296, 13562.26
288.2117, 13538.32
288.6938, 13514.49
289.1760, 13512.45
289.6581, 13525.58
290.1402, 13524.50
290.6223, 13501.72
291.1044, 13479.22
291.5865, 13461.87
292.0687, 13452.67
292.5508, 13459.25
293.0329, 13492.07
293.5150, 13532.02
293.9971, 13550.34
294.4792, 13544.78
294.9614, 13534.90
295.4435, 13526.53
295.9256, 13518.72
296.4077, 13511.10
296.8898, 13504.41
297.3719, 13494.75
297.8541, 13476.15
298.3362, 13450.77
298.8183, 13432.13
299.3004, 13428.72
299.7825, 13425.35
300.2646, 13396.49
300.7468, 13341.39
301.2289, 13303.01
301.7110, 13314.62
302.1931, 13346.93
302.6752, 13352.43
303.1573, 13322.83
303.6395, 13281.49
304.1216, 13244.50
304.6037, 13212.93
305.0858, 13195.28
305.5679, 13204.36
306.0500, 13218.08
306.5322, 13222.80
307.0143, 13218.13
307.4964, 13203.28
307.9785, 13173.28
308.4606, 13134.91
308.9427, 13124.10
309.4249, 13162.92
309.9070, 13197.80
310.3891, 13214.96
310.8712, 13218.66
311.3533, 13212.76
311.8354, 13198.46
312.3176, 13181.39
312.7997, 13172.39
313.2818, 13179.12
313.7639, 13180.66
314.2460, 13173.16
314.7281, 13163.11
315.2103, 13155.75
315.6924, 13151.55
316.1745, 13147.11
316.6566, 13138.12
317.1387, 13123.05
317.6208, 13115.17
318.1030, 13110.22
318.5851, 13115.88
319.0672, 13143.68
319.5493, 13183.85
320.0314, 13217.62
320.5135, 13233.49
320.9957, 13234.26
321.4778, 13231.63
321.9599, 13224.07
322.4420, 13214.95
322.9241, 13202.80
323.4063, 13190.60
323.8884, 13179.68
324.3705, 13170.55
324.8526, 13166.69
325.3347, 13176.89
325.8168, 13205.76
326.2990, 13223.11
326.7811, 13218.28
327.2632, 13205.72
327.7453, 13190.93
328.2274, 13175.12
328.7095, 13160.44
329.1917, 13151.01
329.6738, 13144.62
330.1559, 13133.65
330.6380, 13122.03
331.1201, 13096.85
331.6022, 13028.51
332.0844, 12944.20
332.5665, 12894.95
333.0486, 12913.37
333.5307, 12955.21
334.0128, 12971.79
334.4949, 12964.05
334.9771, 12954.92
335.4592, 12956.28
335.9413, 12959.78
336.4234, 12949.77
336.9055, 12922.13
337.3876, 12894.65
337.8698, 12869.21
338.3519, 12850.37
338.8340, 12853.20
339.3161, 12884.21
339.7982, 12913.99
340.2803, 12903.16
340.7624, 12842.01
341.2445, 12806.96
341.7267, 12816.27
342.2088, 12840.35
342.6909, 12861.68
343.1730, 12878.94
343.6551, 12897.38
344.1372, 12922.90
344.6194, 12951.77
345.1015, 12955.86
345.5836, 12921.24
346.0657, 12880.25
346.5478, 12819.95
347.0299, 12763.35
347.5121, 12745.85
347.9942, 12778.28
348.4763, 12829.77
348.9584, 12845.32
349.4405, 12799.14
349.9226, 12774.91
350.4048, 12788.41
350.8869, 12807.60
351.3690, 12818.91
351.8511, 12819.99
352.3332, 12812.05
352.8153, 12794.30
353.2975, 12767.91
353.7796, 12742.36
354.2617, 12709.09
354.7438, 12691.08
355.2259, 12709.13
355.7080, 12740.39
356.1902, 12752.77
356.6723, 12730.93
357.1544, 12698.17
357.6365, 12686.60
358.1186, 12697.50
358.6007, 12710.80
359.0829, 12728.02
359.5650, 12738.93
360.0471, 12733.01
360.5292, 12709.94
361.0113, 12682.74
361.4934, 12653.30
361.9756, 12625.17
362.4577, 12603.42
362.9398, 12587.67
363.4219, 12585.25
363.9040, 12610.83
364.3861, 12657.86
364.8683, 12684.28
365.3504, 12670.66
365.8325, 12652.03
366.3146, 12655.63
366.7967, 12671.52
367.2788, 12666.79
367.7610, 12622.62
368.2431, 12562.82
368.7252, 12541.82
369.2073, 12586.35
369.6894, 12623.87
370.1715, 12662.87
370.6537, 12685.43
371.1358, 12663.59
371.6179, 12601.66
372.1000, 12539.99
372.5821, 12519.62
373.0642, 12543.34
373.5464, 12562.77
374.0285, 12588.70
374.5106, 12598.61
374.9927, 12572.02
375.4748, 12529.19
375.9569, 12501.48
376.4391, 12504.35
376.9212, 12522.78
377.4033, 12524.56
377.8854, 12501.25
378.3675, 12488.69
378.8496, 12499.66
379.3318, 12519.26
379.8139, 12546.96
380.2960, 12579.42
380.7781, 12596.97
381.2602, 12574.76
381.7423, 12524.96
382.2245, 12491.04
382.7066, 12475.72
383.1887, 12473.63
383.6708, 12496.44
384.1529, 12528.51
384.6350, 12537.42
385.1172, 12506.04
385.5993, 12464.27
386.0814, 12422.55
386.5635, 12386.76
387.0456, 12384.63
387.5277, 12432.80
388.0099, 12501.29
388.4920, 12540.87
388.9741, 12548.46
389.4562, 12541.21
389.9383, 12501.65
390.4204, 12461.13
390.9026, 12452.46
391.3847, 12472.83
391.8668, 12490.43
392.3489, 12478.95
392.8310, 12441.44
393.3131, 12418.87
393.7953, 12426.12
394.2774, 12431.34
394.7595, 12426.27
395.2416, 12418.14
395.7237, 12416.40
396.2058, 12424.02
396.6880, 12434.85
397.1701, 12443.21
397.6522, 12452.92
398.1343, 12442.70
398.6164, 12377.63
399.0985, 12324.48
399.5807, 12325.43
400.0628, 12364.65
400.5449, 12395.20
401.0270, 12387.53
401.5091, 12357.44
401.9912, 12335.86
402.4734, 12323.45
402.9555, 12315.60
403.4376, 12313.11
403.9197, 12312.51
404.4018, 12308.88
404.8839, 12301.42
405.3661, 12292.79
405.8482, 12281.68
406.3303, 12270.73
406.8124, 12264.24
407.2945, 12262.78
407.7766, 12268.38
408.2588, 12287.48
408.7409, 12320.41
409.2230, 12329.66
409.7051, 12297.38
410.1872, 12261.37
410.6693, 12234.86
411.1515, 12217.24
411.6336, 12206.17
412.1157, 12200.71
412.5978, 12200.00
413.0799, 12203.02
413.5620, 12215.43
414.0442, 12220.35
414.5263, 12219.17
415.0084, 12210.72
415.4905, 12189.16
415.9726, 12158.72
416.4547, 12131.27
416.9369, 12113.63
417.4190, 12106.64
417.9011, 12118.06
418.3832, 12161.02
418.8653, 12190.47
419.3474, 12178.61
419.8296, 12150.81
420.3117, 12131.04
420.7938, 12124.43
421.2759, 12119.27
421.7580, 12106.96
422.2401, 12089.20
422.7223, 12070.04
423.2044, 12049.14
423.6865, 12030.87
424.1686, 12017.63
424.6507, 12010.17
425.1328, 12012.50
425.6150, 12042.88
426.0971, 12065.85
426.5792, 12053.70
427.0613, 12019.08
427.5434, 11992.14
428.0255, 11985.49
428.5077, 11990.36
428.9898, 11990.41
429.4719, 11983.14
429.9540, 11975.57
430.4361, 11967.51
430.9182, 11959.03
431.4004, 11948.10
431.8825, 11936.42
432.3646, 11929.65
432.8467, 11933.89
433.3288, 11943.50
433.8109, 11934.45
434.2931, 11894.69
434.7752, 11864.04
435.2573, 11851.97
435.7394, 11854.11
436.2215, 11875.13
436.7036, 11915.26
437.1858, 11946.61
437.6679, 11937.33
438.1500, 11903.77
438.6321, 11897.85
439.1142, 11929.96
439.5963, 11961.94
440.0785, 11965.32
440.5606, 11945.64
441.0427, 11929.91
441.5248, 11923.38
442.0069, 11915.78
442.4890, 11901.24
442.9712, 11882.73
443.4533, 11866.19
443.9354, 11853.33
444.4175, 11839.62
444.8996, 11817.28
445.3817, 11780.31
445.8639, 11761.32
446.3460, 11774.65
446.8281, 11788.20
447.3102, 11782.57
447.7923, 11768.67
448.2744, 11772.16
448.7566, 11808.11
449.2387, 11851.46
449.7208, 11846.71
450.2029, 11779.70
450.6850, 11728.62
451.1671, 11716.89
451.6493, 11716.14
452.1314, 11707.14
452.6135, 11691.53
453.0956, 11681.67
453.5777, 11685.76
454.0598, 11698.42
454.5420, 11718.17
455.0241, 11744.37
455.5062, 11752.37
455.9883, 11724.56
456.4704, 11676.39
456.9525, 11642.19
457.4347, 11620.18
457.9168, 11612.03
458.3989, 11630.93
458.8810, 11655.46
459.3631, 11662.64
459.8452, 11652.57
460.3274, 11643.43
460.8095, 11651.06
461.2916, 11672.09
461.7737, 11676.20
462.2558, 11640.53
462.7379, 11619.62
463.2201, 11636.50
463.7022, 11661.87
464.1843, 11668.45
464.6664, 11651.36
465.1485, 11625.17
465.6306, 11599.88
466.1128, 11576.54
466.5949, 11563.10
467.0770, 11563.10
467.5591, 11565.64
468.0412, 11568.36
468.5233, 11568.57
469.0055, 11559.42
469.4876, 11532.22
469.9697, 11510.81
470.4518, 11516.83
470.9339, 11537.13
471.4160, 11545.83
471.8982, 11536.92
472.3803, 11518.45
472.8624, 11495.94
473.3445, 11467.47
473.8266, 11457.98
474.3087, 11487.43
474.7909, 11509.79
475.2730, 11508.40
475.7551, 11491.34
476.2372, 11466.43
476.7193, 11437.39
477.2014, 11413.98
477.6836, 11412.55
478.1657, 11435.91
478.6478, 11459.63
479.1299, 11484.12
479.6120, 11506.97
480.0941, 11532.87
480.5763, 11555.61
481.0584, 11561.24
481.5405, 11538.59
482.0226, 11508.13
482.5047, 11484.06
482.9868, 11468.34
483.4690, 11474.09
483.9511, 11510.31
484.4332, 11550.77
484.9153, 11564.53
485.3974, 11547.18
485.8795, 11529.13
486.3617, 11515.12
486.8438, 11496.27
487.3259, 11454.37
487.8080, 11406.46
488.2901, 11390.06
488.7722, 11421.37
489.2544, 11471.23
489.7365, 11484.42
490.2186, 11444.50
490.7007, 11421.98
491.1828, 11444.41
491.6649, 11460.20
492.1471, 11435.43
492.6292, 11387.93
493.1113, 11361.65
493.5934, 11383.59
494.0755, 11420.99
494.5576, 11434.00
495.0398, 11423.89
495.5219, 11399.28
496.0040, 11356.59
496.4861, 11312.46
496.9682, 11289.00
497.4503, 11286.59
497.9325, 11282.46
498.4146, 11270.17
498.8967, 11259.47
499.3788, 11258.20
499.8609, 11262.84
500.3430, 11266.83
500.8252, 11267.35
501.3073, 11261.89
501.7894, 11243.07
502.2715, 11200.63
502.7536, 11174.75
503.2357, 11178.17
503.7179, 11186.29
504.2000, 11192.94
504.6821, 11196.46
505.1642, 11194.54
505.6463, 11184.62
506.1284, 11172.32
506.6106, 11162.39
507.0927, 11155.44
507.5748, 11161.66
508.0569, 11191.77
508.5390, 11218.07
509.0211, 11201.56
509.5033, 11144.71
509.9854, 11112.99
510.4675, 11147.28
510.9496, 11173.26
511.4317, 11131.64
511.9138, 11055.16
512.3960, 11009.66
512.8781, 11019.12
513.3602, 11056.44
513.8423, 11084.46
514.3245, 11107.07
514.8066, 11103.37
515.2887, 11030.93
515.7708, 10977.17
516.2529, 10994.04
516.7350, 11042.94
517.2172, 11056.21
517.6993, 11003.29
518.1814, 10938.41
518.6635, 10924.31
519.1456, 10951.08
519.6277, 10969.61
520.1099, 10970.42
520.5920, 10965.64
521.0741, 10964.18
521.5562, 10966.12
522.0383, 10970.05
522.5204, 10976.66
523.0026, 10984.29
523.4847, 11000.16
523.9668, 11013.39
524.4489, 11004.76
524.9310, 10971.88
525.4131, 10935.71
525.8953, 10920.09
526.3774, 10925.21
526.8595, 10926.27
527.3416, 10918.66
527.8237, 10914.06
528.3058, 10922.91
528.7880, 10932.90
529.2701, 10927.64
529.7522, 10902.79
530.2343, 10879.42
530.7164, 10875.23
531.1985, 10882.64
531.6807, 10884.66
532.1628, 10879.59
532.6449, 10876.74
533.1270, 10883.19
533.6091, 10895.85
534.0912, 10902.54
534.5734, 10916.58
535.0555, 10905.72
535.5376, 10838.94
536.0197, 10765.99
536.5018, 10733.93
536.9839, 10738.78
537.4661, 10739.94
537.9482, 10703.45
538.4303, 10648.10
538.9124, 10642.53
539.3945, 10705.04
539.8766, 10750.77
540.3588, 10750.74
540.8409, 10732.88
541.3230, 10721.98
541.8051, 10717.56
542.2872, 10705.97
542.7693, 10665.82
543.2515, 10629.02
543.7336, 10635.62
544.2157, 10674.29
544.6978, 10701.71
545.1799, 10700.09
545.6620, 10681.73
546.1442, 10665.59
546.6263, 10650.69
547.1084, 10641.02
547.5905, 10645.22
548.0726, 10644.74
548.5547, 10626.43
549.0369, 10600.17
549.5190, 10582.49
550.0011, 10579.97
550.4832, 10583.65
550.9653, 10585.42
551.4474, 10584.69
551.9296, 10575.48
552.4117, 10553.52
552.8938, 10534.46
553.3759, 10531.41
553.8580, 10540.81
554.3401, 10545.38
554.8223, 10542.63
555.3044, 10538.32
555.7865, 10531.32
556.2686, 10525.35
556.7507, 10522.81
557.2328, 10525.15
557.7150, 10537.94
558.1971, 10570.27
558.6792, 10613.81
559.1613, 10618.40
559.6434, 10562.59
560.1255, 10516.58
560.6077, 10506.01
561.0898, 10504.74
561.5719, 10495.19
562.0540, 10476.83
562.5361, 10457.48
563.0182, 10434.61
563.5004, 10417.02
563.9825, 10422.37
564.4646, 10444.38
564.9467, 10452.98
565.4288, 10434.75
565.9109, 10406.05
566.3931, 10392.64
566.8752, 10400.40
567.3573, 10400.60
567.8394, 10378.68
568.3215, 10365.83
568.8036, 10386.30
569.2858, 10418.62
569.7679, 10427.77
570.2500, 10401.59
570.7321, 10369.63
571.2142, 10370.49
571.6964, 10395.98
572.1785, 10398.85
572.6606, 10370.59
573.1427, 10340.79
573.6248, 10325.39
574.1069, 10322.35
574.5891, 10325.53
575.0712, 10344.28
575.5533, 10350.69
576.0354, 10327.98
576.5175, 10297.96
576.9996, 10277.24
577.4818, 10267.83
577.9639, 10268.06
578.4460, 10278.39
578.9281, 10292.48
579.4102, 10289.94
579.8923, 10263.02
580.3745, 10254.24
580.8566, 10288.64
581.3387, 10322.31
581.8208, 10322.76
582.3029, 10296.90
582.7850, 10268.43
583.2672, 10232.29
583.7493, 10208.69
584.2314, 10225.21
584.7135, 10261.27
585.1956, 10271.84
585.6777, 10247.78
586.1598, 10222.13
586.6419, 10231.65
587.1240, 10273.30
587.6061, 10277.92
588.0883, 10208.88
588.5704, 10156.88
589.0525, 10144.05
589.5346, 10149.10
590.0167, 10160.36
590.4988, 10173.83
590.9810, 10178.53
591.4631, 10156.72
591.9452, 10128.32
592.4273, 10125.93
592.9094, 10146.37
593.3915, 10166.54
593.8737, 10178.73
594.3558, 10183.54
594.8379, 10181.76
595.3200, 10173.22
595.8021, 10157.35
596.2842, 10123.53
596.7664, 10095.00
597.2485, 10075.86
597.7306, 10068.24
598.2127, 10079.03
598.6948, 10108.85
599.1769, 10138.66
599.6591, 10147.52
600.1412, 10140.97
600.6233, 10142.49
601.1054, 10154.90
601.5875, 10158.40
602.0696, 10140.29
602.5518, 10110.34
603.0339, 10088.34
603.5160, 10077.13
603.9981, 10064.15
604.4802, 10035.25
604.9623, 10016.39
605.4445, 10033.26
605.9266, 10071.27
606.4087, 10099.62
606.8908, 10104.77
607.3729, 10097.40
607.8550, 10091.38
608.3372, 10086.67
608.8193, 10081.78
609.3014, 10076.42
609.7835, 10071.33
610.2656, 10065.35
610.7477, 10060.55
611.2299, 10061.92
611.7120, 10072.91
612.1941, 10082.13
612.6762, 10090.46
613.1583, 10092.48
613.6404, 10074.38
614.1226, 10044.30
614.6047, 10030.37
615.0868, 10049.64
615.5689, 10084.74
616.0510, 10098.59
616.5331, 10087.29
617.0153, 10080.17
617.4974, 10083.44
617.9795, 10085.77
618.4616, 10071.30
618.9437, 10051.80
619.4258, 10054.93
619.9080, 10099.88
620.3901, 10136.42
620.8722, 10133.95
621.3543, 10113.81
621.8364, 10096.84
622.3185, 10087.69
622.8007, 10092.99
623.2828, 10120.19
623.7649, 10154.23
624.2470, 10147.08
624.7291, 10081.43
625.2112, 10035.12
625.6934, 10026.41
626.1755, 10028.27
626.6576, 10028.68
627.1397, 10026.39
627.6218, 10018.25
628.1039, 10001.14
628.5861, 9982.396
629.0682, 9966.012
629.5503, 9950.907
630.0324, 9935.731
630.5145, 9920.159
630.9966, 9903.601
631.4788, 9885.311
631.9609, 9866.609
632.4430, 9853.253
632.9251, 9850.687
633.4072, 9838.989
633.8893, 9805.384
634.3715, 9772.158
634.8536, 9743.441
635.3357, 9725.200
635.8178, 9735.990
636.2999, 9805.017
636.7820, 9862.488
637.2642, 9847.167
637.7463, 9794.040
638.2284, 9759.320
638.7105, 9751.227
639.1926, 9751.476
639.6747, 9746.526
640.1569, 9738.858
640.6390, 9738.230
641.1211, 9745.977
641.6032, 9757.629
642.0853, 9788.736
642.5674, 9807.958
643.0496, 9787.732
643.5317, 9741.442
644.0138, 9706.822
644.4959, 9698.860
644.9780, 9698.020
645.4601, 9690.471
645.9423, 9681.584
646.4244, 9683.316
646.9065, 9695.613
647.3886, 9704.082
647.8707, 9697.922
648.3528, 9681.101
648.8350, 9667.759
649.3171, 9660.737
649.7992, 9649.233
650.2813, 9622.463
650.7634, 9601.101
651.2455, 9601.390
651.7277, 9615.628
652.2098, 9624.563
652.6919, 9623.903
653.1740, 9615.806
653.6561, 9592.414
654.1382, 9566.722
654.6204, 9561.186
655.1025, 9575.438
655.5846, 9590.952
656.0667, 9596.206
