##NAMES=Szenicsite
##RRUFFID=R050146
##IDEAL CHEMISTRY=Cu^2+^_3_Mo^6+^O_4_(OH)_4_
##LOCALITY=Jardinera mine, Inca del Oro, Chile
##OWNER=RRUFF
##SOURCE=Jim McGlasson
##DESCRIPTION=Green lamellar crystals
##STATUS=The identification of this mineral is confirmed by single-crystal X-ray diffraction and chemical analysis.
##URL=rruff.info/R050146
##MEASURED CHEMISTRY=Cu_3.00_Mo_1.00_O_4_(OH)_4_
93.74609, 165.6966
94.22821, 164.8790
94.71033, 163.0648
95.19244, 161.6078
95.67456, 165.3929
96.15668, 175.8368
96.63879, 192.9873
97.12091, 219.0948
97.60303, 255.9287
98.08514, 295.5598
98.56726, 326.6926
99.04938, 349.3643
99.53149, 368.4581
100.0136, 381.3652
100.4957, 387.6727
100.9778, 409.5763
101.4600, 449.9181
101.9421, 504.1872
102.4242, 562.0435
102.9063, 625.3757
103.3884, 688.3525
103.8705, 745.6779
104.3527, 794.7297
104.8348, 848.8959
105.3169, 914.2156
105.7990, 987.2442
106.2811, 1048.572
106.7632, 1100.916
107.2454, 1138.102
107.7275, 1153.743
108.2096, 1133.151
108.6917, 1111.811
109.1738, 1095.452
109.6559, 1085.016
110.1381, 1069.401
110.6202, 1039.501
111.1023, 1008.010
111.5844, 987.2041
112.0665, 984.6153
112.5486, 985.5605
113.0308, 984.2343
113.5129, 976.0366
113.9950, 982.1557
114.4771, 1013.288
114.9592, 1058.810
115.4413, 1103.891
115.9235, 1150.264
116.4056, 1191.427
116.8877, 1223.477
117.3698, 1244.700
117.8519, 1261.099
118.3340, 1270.715
118.8162, 1276.658
119.2983, 1286.308
119.7804, 1309.835
120.2625, 1334.761
120.7446, 1349.603
121.2267, 1341.154
121.7089, 1337.251
122.1910, 1357.322
122.6731, 1397.980
123.1552, 1443.406
123.6373, 1480.005
124.1194, 1516.627
124.6016, 1565.592
125.0837, 1637.638
125.5658, 1717.578
126.0479, 1793.223
126.5300, 1864.375
127.0121, 1926.629
127.4943, 1981.779
127.9764, 2025.382
128.4585, 2048.488
128.9406, 2038.704
129.4227, 2007.919
129.9048, 1978.501
130.3869, 1951.330
130.8691, 1918.491
131.3512, 1866.557
131.8333, 1792.665
132.3154, 1711.464
132.7975, 1639.446
133.2796, 1576.868
133.7618, 1514.612
134.2439, 1448.281
134.7260, 1391.851
135.2081, 1375.510
135.6902, 1399.945
136.1723, 1424.502
136.6545, 1422.567
137.1366, 1394.313
137.6187, 1384.159
138.1008, 1397.980
138.5829, 1426.741
139.0650, 1450.679
139.5472, 1469.246
140.0293, 1485.325
140.5114, 1500.586
140.9935, 1515.085
141.4756, 1527.686
141.9577, 1534.780
142.4399, 1540.087
142.9220, 1562.924
143.4041, 1610.390
143.8862, 1663.374
144.3683, 1708.163
144.8504, 1738.470
145.3326, 1774.900
145.8147, 1823.733
146.2968, 1884.405
146.7789, 1929.446
147.2610, 1951.352
147.7431, 1965.172
148.2253, 1984.422
148.7074, 2018.611
149.1895, 2044.976
149.6716, 2058.124
150.1537, 2056.898
150.6358, 2054.542
151.1180, 2045.343
151.6001, 2037.435
152.0822, 2039.422
152.5643, 2064.976
153.0464, 2086.594
153.5285, 2096.991
154.0107, 2092.129
154.4928, 2091.370
154.9749, 2095.576
155.4570, 2104.406
155.9391, 2117.364
156.4212, 2133.811
156.9034, 2154.939
157.3855, 2182.591
157.8676, 2219.646
158.3497, 2254.133
158.8318, 2285.974
159.3139, 2313.948
159.7961, 2336.207
160.2782, 2339.349
160.7603, 2346.422
161.2424, 2369.734
161.7245, 2417.505
162.2066, 2466.857
162.6888, 2514.122
163.1709, 2557.710
163.6530, 2594.052
164.1351, 2628.117
164.6172, 2650.626
165.0993, 2654.260
165.5815, 2631.306
166.0636, 2600.299
166.5457, 2571.977
167.0278, 2543.206
167.5099, 2504.317
167.9920, 2444.496
168.4742, 2375.198
168.9563, 2306.135
169.4384, 2237.457
169.9205, 2172.355
170.4026, 2116.358
170.8847, 2066.997
171.3669, 2014.733
171.8490, 1945.725
172.3311, 1873.224
172.8132, 1813.326
173.2953, 1774.938
173.7774, 1746.226
174.2596, 1717.212
174.7417, 1688.120
175.2238, 1661.405
175.7059, 1643.524
176.1880, 1628.724
176.6701, 1607.419
177.1523, 1569.607
177.6344, 1528.604
178.1165, 1499.517
178.5986, 1481.898
179.0807, 1472.927
179.5628, 1473.595
180.0450, 1481.131
180.5271, 1489.228
181.0092, 1498.579
181.4913, 1505.891
181.9734, 1503.863
182.4555, 1492.254
182.9377, 1478.571
183.4198, 1468.700
183.9019, 1462.282
184.3840, 1458.304
184.8661, 1457.581
185.3482, 1458.746
185.8304, 1457.541
186.3125, 1453.499
186.7946, 1451.076
187.2767, 1457.003
187.7588, 1469.911
188.2409, 1481.445
188.7231, 1488.915
189.2052, 1492.522
189.6873, 1490.079
190.1694, 1479.619
190.6515, 1472.534
191.1336, 1488.117
191.6158, 1524.608
192.0979, 1556.769
192.5800, 1571.673
193.0621, 1572.016
193.5442, 1574.922
194.0263, 1579.894
194.5085, 1589.071
194.9906, 1607.002
195.4727, 1633.669
195.9548, 1661.300
196.4369, 1685.926
196.9190, 1707.802
197.4012, 1731.825
197.8833, 1758.532
198.3654, 1786.103
198.8475, 1811.416
199.3296, 1834.681
199.8117, 1854.778
200.2939, 1868.055
200.7760, 1874.212
201.2581, 1891.316
201.7402, 1922.759
202.2223, 1959.805
202.7044, 1985.692
203.1866, 1997.896
203.6687, 2011.846
204.1508, 2036.432
204.6329, 2073.137
205.1150, 2102.509
205.5971, 2120.560
206.0793, 2135.918
206.5614, 2168.359
207.0435, 2222.640
207.5256, 2274.232
208.0077, 2308.590
208.4898, 2321.107
208.9720, 2347.011
209.4541, 2391.272
209.9362, 2444.751
210.4183, 2488.433
210.9004, 2519.999
211.3825, 2547.478
211.8647, 2575.531
212.3468, 2606.032
212.8289, 2628.509
213.3110, 2642.857
213.7931, 2649.096
214.2752, 2646.201
214.7574, 2631.745
215.2395, 2613.996
215.7216, 2594.346
216.2037, 2569.563
216.6858, 2557.163
217.1679, 2563.577
217.6500, 2578.798
218.1322, 2577.068
218.6143, 2549.125
219.0964, 2523.461
219.5785, 2517.128
220.0606, 2543.070
220.5427, 2545.284
221.0249, 2514.103
221.5070, 2463.531
221.9891, 2429.282
222.4712, 2421.268
222.9533, 2410.359
223.4354, 2381.990
223.9176, 2325.700
224.3997, 2280.637
224.8818, 2247.325
225.3639, 2224.706
225.8460, 2211.966
226.3281, 2218.267
226.8103, 2218.833
227.2924, 2199.823
227.7745, 2146.334
228.2566, 2113.243
228.7387, 2105.505
229.2208, 2116.009
229.7030, 2130.288
230.1851, 2155.035
230.6672, 2172.958
231.1493, 2174.531
231.6314, 2149.105
232.1135, 2136.531
232.5957, 2140.349
233.0778, 2155.455
233.5599, 2171.556
234.0420, 2191.156
234.5241, 2207.650
235.0062, 2217.457
235.4884, 2217.000
235.9705, 2220.402
236.4526, 2231.632
236.9347, 2244.962
237.4168, 2247.868
237.8989, 2234.421
238.3811, 2219.939
238.8632, 2209.505
239.3453, 2202.529
239.8274, 2202.988
240.3095, 2220.846
240.7916, 2241.035
241.2738, 2232.478
241.7559, 2176.824
242.2380, 2122.611
242.7201, 2087.797
243.2022, 2077.932
243.6843, 2068.399
244.1665, 2056.710
244.6486, 2046.756
245.1307, 2046.586
245.6128, 2064.118
246.0949, 2077.969
246.5770, 2078.115
247.0592, 2056.754
247.5413, 2053.904
248.0234, 2077.844
248.5055, 2114.679
248.9876, 2141.977
249.4697, 2153.693
249.9519, 2167.240
250.4340, 2188.348
250.9161, 2218.757
251.3982, 2247.438
251.8803, 2272.179
252.3624, 2296.824
252.8446, 2325.900
253.3267, 2359.522
253.8088, 2397.874
254.2909, 2442.563
254.7730, 2495.150
255.2551, 2543.073
255.7373, 2584.071
256.2194, 2622.722
256.7015, 2663.803
257.1836, 2708.477
257.6657, 2753.319
258.1478, 2796.490
258.6299, 2837.081
259.1121, 2883.640
259.5942, 2935.094
260.0763, 2993.765
260.5584, 3065.667
261.0405, 3155.612
261.5226, 3245.064
262.0048, 3333.509
262.4869, 3419.954
262.9690, 3486.189
263.4511, 3520.031
263.9332, 3550.899
264.4153, 3608.729
264.8975, 3704.344
265.3796, 3795.314
265.8617, 3871.830
266.3438, 3935.583
266.8259, 4013.883
267.3080, 4112.776
267.7902, 4214.506
268.2723, 4298.250
268.7544, 4357.576
269.2365, 4428.775
269.7186, 4518.303
270.2007, 4624.659
270.6829, 4736.861
271.1650, 4857.654
271.6471, 4977.519
272.1292, 5083.517
272.6113, 5171.440
273.0934, 5271.713
273.5756, 5394.608
274.0577, 5528.662
274.5398, 5632.519
275.0219, 5697.532
275.5040, 5757.104
275.9861, 5833.803
276.4683, 5929.897
276.9504, 6023.571
277.4325, 6114.471
277.9146, 6200.282
278.3967, 6275.089
278.8788, 6338.226
279.3610, 6393.107
279.8431, 6441.396
280.3252, 6482.880
280.8073, 6517.651
281.2894, 6547.863
281.7715, 6568.559
282.2537, 6571.417
282.7358, 6556.710
283.2179, 6522.897
283.7000, 6461.936
284.1821, 6374.978
284.6642, 6295.039
285.1464, 6222.080
285.6285, 6156.824
286.1106, 6102.915
286.5927, 6060.287
287.0748, 6018.377
287.5569, 5969.393
288.0391, 5915.402
288.5212, 5872.931
289.0033, 5842.404
289.4854, 5820.050
289.9675, 5799.618
290.4496, 5781.787
290.9318, 5774.589
291.4139, 5778.212
291.8960, 5794.967
292.3781, 5833.181
292.8602, 5893.831
293.3423, 5969.790
293.8245, 6052.426
294.3066, 6143.904
294.7887, 6256.034
295.2708, 6398.848
295.7529, 6559.554
296.2350, 6706.881
296.7172, 6840.411
297.1993, 6982.567
297.6814, 7159.938
298.1635, 7363.246
298.6456, 7561.677
299.1277, 7745.455
299.6099, 7927.676
300.0920, 8119.714
300.5741, 8324.167
301.0562, 8540.599
301.5383, 8773.957
302.0204, 9021.516
302.5026, 9274.767
302.9847, 9535.868
303.4668, 9799.948
303.9489, 10064.51
304.4310, 10327.37
304.9131, 10600.31
305.3953, 10870.40
305.8774, 11159.08
306.3595, 11495.38
306.8416, 11888.43
307.3237, 12303.49
307.8058, 12710.74
308.2880, 13113.14
308.7701, 13515.88
309.2522, 13934.62
309.7343, 14351.71
310.2164, 14753.57
310.6985, 15143.34
311.1807, 15514.13
311.6628, 15892.47
312.1449, 16247.66
312.6270, 16521.36
313.1091, 16702.03
313.5912, 16789.93
314.0734, 16792.39
314.5555, 16708.77
315.0376, 16516.64
315.5197, 16182.18
316.0018, 15739.36
316.4839, 15232.59
316.9661, 14671.08
317.4482, 14047.87
317.9303, 13333.07
318.4124, 12542.92
318.8945, 11754.99
319.3766, 10978.87
319.8588, 10231.41
320.3409, 9532.622
320.8230, 8872.737
321.3051, 8270.828
321.7872, 7745.357
322.2693, 7284.206
322.7515, 6850.203
323.2336, 6426.557
323.7157, 6034.045
324.1978, 5681.127
324.6799, 5374.166
325.1620, 5104.228
325.6442, 4881.305
326.1263, 4693.411
326.6084, 4519.291
327.0905, 4356.637
327.5726, 4207.633
328.0547, 4072.365
328.5369, 3952.207
329.0190, 3845.600
329.5011, 3753.118
329.9832, 3674.427
330.4653, 3609.494
330.9474, 3556.021
331.4296, 3519.305
331.9117, 3503.606
332.3938, 3509.959
332.8759, 3518.468
333.3580, 3530.632
333.8401, 3543.706
334.3223, 3554.426
334.8044, 3557.294
335.2865, 3569.792
335.7686, 3598.948
336.2507, 3640.376
336.7328, 3665.317
337.2150, 3661.185
337.6971, 3663.368
338.1792, 3696.438
338.6613, 3769.096
339.1434, 3836.035
339.6255, 3893.146
340.1077, 3944.279
340.5898, 4000.233
341.0719, 4060.955
341.5540, 4122.489
342.0361, 4183.661
342.5182, 4245.014
343.0003, 4297.906
343.4825, 4338.548
343.9646, 4378.771
344.4467, 4436.627
344.9288, 4511.502
345.4109, 4589.086
345.8930, 4671.233
346.3752, 4751.939
346.8573, 4798.161
347.3394, 4807.710
347.8215, 4804.824
348.3036, 4824.910
348.7857, 4857.733
349.2679, 4850.501
349.7500, 4776.530
350.2321, 4669.216
350.7142, 4594.734
351.1963, 4549.486
351.6784, 4494.877
352.1606, 4399.006
352.6427, 4275.390
353.1248, 4147.561
353.6069, 4016.918
354.0890, 3886.065
354.5711, 3752.988
355.0533, 3621.329
355.5354, 3498.869
356.0175, 3400.152
356.4996, 3309.245
356.9817, 3204.384
357.4638, 3081.812
357.9460, 2964.968
358.4281, 2876.505
358.9102, 2802.699
359.3923, 2725.071
359.8744, 2626.465
360.3565, 2529.052
360.8387, 2447.309
361.3208, 2380.458
361.8029, 2320.403
362.2850, 2267.976
362.7671, 2218.390
363.2492, 2167.630
363.7314, 2112.388
364.2135, 2058.408
364.6956, 2004.248
365.1777, 1952.318
365.6598, 1910.954
366.1419, 1891.851
366.6241, 1876.266
367.1062, 1855.653
367.5883, 1827.668
368.0704, 1797.729
368.5525, 1761.973
369.0346, 1725.639
369.5168, 1696.252
369.9989, 1682.754
370.4810, 1667.107
370.9631, 1642.796
371.4452, 1607.443
371.9273, 1582.255
372.4095, 1573.793
372.8916, 1570.201
373.3737, 1561.329
373.8558, 1544.866
374.3379, 1527.254
374.8200, 1506.929
375.3022, 1485.619
375.7843, 1473.836
376.2664, 1473.450
376.7485, 1478.442
377.2306, 1488.649
377.7127, 1507.291
378.1949, 1510.767
378.6770, 1494.666
379.1591, 1467.242
379.6412, 1441.889
380.1233, 1417.901
380.6054, 1400.827
381.0876, 1395.953
381.5697, 1401.168
382.0518, 1400.302
382.5339, 1391.968
383.0160, 1385.450
383.4981, 1395.253
383.9803, 1417.820
384.4624, 1432.787
384.9445, 1429.871
385.4266, 1420.229
385.9087, 1424.542
386.3908, 1441.758
386.8730, 1461.080
387.3551, 1473.918
387.8372, 1483.971
388.3193, 1499.153
388.8014, 1523.128
389.2835, 1545.314
389.7657, 1553.325
390.2478, 1551.836
390.7299, 1551.530
391.2120, 1553.000
391.6941, 1560.935
392.1762, 1581.314
392.6584, 1614.830
393.1405, 1650.509
393.6226, 1683.573
394.1047, 1715.381
394.5868, 1746.943
395.0689, 1773.225
395.5511, 1804.666
396.0332, 1849.141
396.5153, 1903.796
396.9974, 1953.240
397.4795, 1977.874
397.9616, 2007.533
398.4438, 2059.834
398.9259, 2153.317
399.4080, 2239.941
399.8901, 2305.501
400.3722, 2363.380
400.8543, 2437.001
401.3365, 2529.494
401.8186, 2634.876
402.3007, 2755.486
402.7828, 2893.934
403.2649, 3023.578
403.7470, 3135.218
404.2292, 3248.503
404.7113, 3379.835
405.1934, 3533.340
405.6755, 3696.439
406.1576, 3869.636
406.6397, 4049.255
407.1219, 4217.294
407.6040, 4369.982
408.0861, 4525.540
408.5682, 4693.935
409.0503, 4872.303
409.5324, 5065.018
410.0146, 5273.717
410.4967, 5492.170
410.9788, 5710.674
411.4609, 5928.489
411.9430, 6157.213
412.4251, 6402.693
412.9073, 6660.005
413.3894, 6932.849
413.8715, 7222.153
414.3536, 7514.035
414.8357, 7792.459
415.3178, 8070.459
415.8000, 8371.495
416.2821, 8715.260
416.7642, 9062.402
417.2463, 9388.126
417.7284, 9691.303
418.2105, 9958.925
418.6927, 10178.93
419.1748, 10367.75
419.6569, 10559.82
420.1390, 10769.10
420.6211, 10887.03
421.1032, 10849.00
421.5854, 10702.06
422.0675, 10498.58
422.5496, 10233.76
423.0317, 9932.508
423.5138, 9602.908
423.9959, 9244.785
424.4781, 8835.458
424.9602, 8323.604
425.4423, 7805.768
425.9244, 7324.199
426.4065, 6895.907
426.8886, 6478.991
427.3708, 6056.060
427.8529, 5648.636
428.3350, 5289.192
428.8171, 4993.062
429.2992, 4716.710
429.7813, 4447.204
430.2635, 4186.190
430.7456, 3956.339
431.2277, 3764.275
431.7098, 3592.367
432.1919, 3425.436
432.6740, 3262.440
433.1562, 3118.726
433.6383, 2998.393
434.1204, 2895.024
434.6025, 2797.689
435.0846, 2706.343
435.5667, 2619.360
436.0489, 2532.779
436.5310, 2449.050
437.0131, 2377.387
437.4952, 2317.999
437.9773, 2264.631
438.4594, 2212.797
438.9416, 2162.439
439.4236, 2113.146
439.9058, 2062.867
440.3879, 2016.006
440.8700, 1975.259
441.3521, 1940.735
441.8342, 1912.813
442.3163, 1893.627
442.7985, 1879.888
443.2806, 1871.359
443.7627, 1870.538
444.2448, 1863.460
444.7269, 1838.112
445.2090, 1805.495
445.6912, 1778.741
446.1733, 1754.189
446.6554, 1742.786
447.1375, 1757.496
447.6196, 1794.804
448.1017, 1814.193
448.5839, 1792.823
449.0660, 1769.645
449.5481, 1763.551
450.0302, 1785.819
450.5123, 1801.372
450.9944, 1805.870
451.4766, 1806.498
451.9587, 1815.729
452.4408, 1837.406
452.9229, 1857.351
453.4050, 1872.025
453.8871, 1881.707
454.3693, 1886.240
454.8514, 1882.653
455.3335, 1887.075
455.8156, 1917.806
456.2977, 1971.774
456.7798, 2021.420
457.2620, 2064.318
457.7441, 2099.780
458.2262, 2119.635
458.7083, 2128.670
459.1904, 2149.729
459.6725, 2203.914
460.1547, 2272.228
460.6368, 2326.172
461.1189, 2366.417
461.6010, 2409.007
462.0831, 2465.298
462.5652, 2530.571
463.0474, 2598.672
463.5295, 2669.327
464.0116, 2742.162
464.4937, 2817.391
464.9758, 2894.668
465.4579, 2971.009
465.9401, 3037.543
466.4222, 3110.221
466.9043, 3194.766
467.3864, 3291.970
467.8685, 3398.338
468.3506, 3523.264
468.8328, 3651.162
469.3149, 3770.041
469.7970, 3867.709
470.2791, 3976.137
470.7612, 4098.814
471.2433, 4232.473
471.7255, 4371.640
472.2076, 4524.480
472.6897, 4662.316
473.1718, 4774.872
473.6539, 4861.572
474.1360, 4943.088
474.6182, 5022.558
475.1003, 5085.585
475.5824, 5118.007
476.0645, 5120.604
476.5466, 5099.152
477.0287, 5052.949
477.5109, 4986.802
477.9930, 4907.382
478.4751, 4814.578
478.9572, 4707.764
479.4393, 4582.896
479.9214, 4444.934
480.4036, 4298.245
480.8857, 4142.209
481.3678, 3988.936
481.8499, 3840.958
482.3320, 3701.828
482.8141, 3577.429
483.2963, 3471.198
483.7784, 3375.280
484.2605, 3293.448
484.7426, 3220.451
485.2247, 3143.836
485.7068, 3049.550
486.1890, 2962.360
486.6711, 2895.536
487.1532, 2856.689
487.6353, 2802.663
488.1174, 2724.321
488.5995, 2640.054
489.0817, 2564.392
489.5638, 2500.323
490.0459, 2439.191
490.5280, 2379.480
491.0101, 2322.770
491.4922, 2271.292
491.9744, 2224.544
492.4565, 2184.215
492.9386, 2152.992
493.4207, 2128.900
493.9028, 2097.352
494.3849, 2056.954
494.8671, 2020.338
495.3492, 2004.164
495.8313, 2001.162
496.3134, 1987.802
496.7955, 1953.188
497.2776, 1920.807
497.7598, 1923.564
498.2419, 1949.711
498.7240, 1969.653
499.2061, 1964.402
499.6882, 1951.215
500.1703, 1940.327
500.6525, 1932.365
501.1346, 1928.888
501.6167, 1937.346
502.0988, 1946.274
502.5809, 1947.553
503.0630, 1940.537
503.5452, 1924.727
504.0273, 1894.935
504.5094, 1857.247
504.9915, 1822.893
505.4736, 1794.019
505.9557, 1765.354
506.4379, 1736.162
506.9200, 1706.392
507.4021, 1676.005
507.8842, 1645.882
508.3663, 1612.096
508.8484, 1569.384
509.3306, 1517.473
509.8127, 1470.091
510.2948, 1428.662
510.7769, 1390.842
511.2590, 1353.689
511.7411, 1317.476
512.2233, 1284.416
512.7054, 1251.828
513.1875, 1225.272
513.6696, 1220.536
514.1517, 1232.954
514.6339, 1236.709
515.1160, 1206.475
515.5981, 1165.045
516.0802, 1132.709
516.5623, 1112.707
517.0444, 1099.050
517.5266, 1095.678
518.0087, 1094.475
518.4908, 1086.590
518.9729, 1060.939
519.4550, 1038.464
519.9371, 1024.798
520.4193, 1018.162
520.9014, 1011.050
521.3835, 1004.047
521.8656, 995.7888
522.3477, 985.9841
522.8298, 974.7589
523.3120, 959.2233
523.7941, 935.7991
524.2762, 915.9315
524.7583, 915.0049
525.2404, 934.0087
525.7225, 942.1105
526.2047, 932.0198
526.6868, 914.2180
527.1689, 908.1902
527.6510, 912.1298
528.1331, 914.4175
528.6152, 907.8007
529.0974, 896.9815
529.5795, 886.9495
530.0616, 877.9871
530.5437, 873.1122
531.0258, 881.2309
531.5079, 890.5854
531.9901, 888.0545
532.4722, 864.8279
532.9543, 847.3901
533.4364, 854.6913
533.9185, 871.0995
534.4006, 875.5331
534.8828, 846.2731
535.3649, 824.1823
535.8470, 821.2704
536.3291, 833.7078
536.8112, 841.1937
537.2933, 844.7299
537.7755, 841.5747
538.2576, 826.4240
538.7397, 795.4126
539.2218, 786.3165
539.7039, 805.5844
540.1860, 829.3192
540.6682, 827.8610
541.1503, 803.8207
541.6324, 785.6857
542.1145, 779.3556
542.5966, 781.3917
543.0787, 791.8428
543.5609, 807.4855
544.0430, 816.2852
544.5251, 807.7111
545.0072, 792.1097
545.4893, 778.2054
545.9714, 766.3527
546.4536, 757.4370
546.9357, 752.6072
547.4178, 750.4670
547.8999, 749.9649
548.3820, 750.7714
548.8641, 753.5445
549.3463, 761.2255
549.8284, 769.9271
550.3105, 774.5953
550.7926, 774.1157
551.2747, 770.7766
551.7568, 761.5698
552.2390, 749.7307
552.7211, 751.8320
553.2032, 774.3135
553.6853, 790.6818
554.1674, 782.4150
554.6495, 752.0947
555.1317, 742.6979
555.6138, 756.5477
556.0959, 774.3896
556.5780, 777.7292
557.0601, 770.6138
557.5422, 764.0085
558.0244, 760.4183
558.5065, 756.9684
558.9886, 748.3401
559.4707, 737.8737
559.9528, 732.4465
560.4349, 742.2876
560.9171, 751.2021
561.3992, 748.2722
561.8813, 735.2735
562.3634, 725.7769
562.8455, 723.4547
563.3276, 725.2650
563.8098, 730.2636
564.2919, 739.1465
564.7740, 748.8369
565.2561, 763.8849
565.7382, 775.1605
566.2203, 771.0092
566.7025, 744.9258
567.1846, 731.2651
567.6667, 737.8918
568.1488, 754.0596
568.6309, 756.2014
569.1130, 744.9976
569.5952, 735.4585
570.0773, 736.7266
570.5594, 742.5771
571.0415, 738.7878
571.5236, 726.6631
572.0057, 718.2849
572.4879, 726.2906
572.9700, 739.7939
573.4521, 747.8767
573.9342, 748.7625
574.4163, 746.2214
574.8984, 737.0914
575.3806, 727.6715
575.8627, 724.2788
576.3448, 739.4247
576.8269, 746.9517
577.3090, 735.6517
577.7911, 715.9445
578.2733, 712.8868
578.7554, 735.9022
579.2375, 757.1144
579.7196, 769.2490
580.2017, 772.5983
580.6838, 766.5679
581.1660, 749.5327
581.6481, 733.2193
582.1302, 725.4979
582.6123, 725.6501
583.0944, 734.2163
583.5765, 752.7360
584.0587, 766.4551
584.5408, 754.4135
585.0229, 728.4783
585.5050, 708.8629
585.9871, 702.7065
586.4692, 702.5471
586.9514, 707.1522
587.4335, 714.2042
587.9155, 718.7952
588.3976, 711.2299
588.8798, 709.0651
589.3619, 723.8499
589.8440, 755.2692
590.3261, 770.8001
