##NAMES=Szomolnokite
##RRUFFID=R070620
##IDEAL CHEMISTRY=Fe^2+^S^6+^O_4_&#183;H_2_O
##LOCALITY=Oage mine, Ominato, Aomori-Ken, Honshu, Japan
##OWNER=RRUFF
##SOURCE=James Shigley
##DESCRIPTION=Pulverulent colorless to pale yellow efflorescent grains. Larger colorless grain with scalloped surface was examined.
##STATUS=The identification of this mineral has been confirmed only by single crystal X-ray diffraction.
##URL=rruff.info/R070620
120.1467, 397.0991
120.6289, 410.0105
121.1110, 431.5556
121.5931, 459.4668
122.0752, 496.9785
122.5573, 539.8333
123.0394, 577.9053
123.5216, 603.2755
124.0037, 621.3268
124.4858, 639.3997
124.9679, 657.2533
125.4500, 677.7979
125.9321, 705.0538
126.4143, 738.8850
126.8964, 776.6483
127.3785, 820.2010
127.8606, 867.1313
128.3427, 907.9752
128.8248, 939.1243
129.3070, 963.7557
129.7891, 991.7604
130.2712, 1024.528
130.7533, 1052.125
131.2354, 1055.257
131.7175, 1034.707
132.1996, 1034.297
132.6818, 1083.323
133.1639, 1176.243
133.6460, 1229.304
134.1281, 1232.739
134.6102, 1212.951
135.0923, 1212.741
135.5745, 1234.352
136.0566, 1265.717
136.5387, 1306.081
137.0208, 1360.189
137.5029, 1398.247
137.9850, 1415.842
138.4672, 1417.013
138.9493, 1415.429
139.4314, 1406.210
139.9135, 1402.514
140.3956, 1417.011
140.8777, 1462.659
141.3599, 1496.000
141.8420, 1505.972
142.3241, 1491.675
142.8062, 1487.889
143.2883, 1491.848
143.7704, 1498.940
144.2526, 1504.877
144.7347, 1508.008
145.2168, 1512.153
145.6989, 1518.422
146.1810, 1528.053
146.6631, 1536.505
147.1453, 1543.438
147.6274, 1549.332
148.1095, 1554.871
148.5916, 1558.570
149.0737, 1563.208
149.5558, 1569.639
150.0379, 1577.313
150.5201, 1587.479
151.0022, 1609.465
151.4843, 1637.168
151.9664, 1643.938
152.4485, 1600.827
152.9306, 1552.194
153.4128, 1524.543
153.8949, 1553.571
154.3770, 1570.903
154.8591, 1552.475
155.3412, 1497.868
155.8233, 1457.555
156.3055, 1449.202
156.7876, 1458.249
157.2697, 1470.407
157.7518, 1495.900
158.2339, 1512.118
158.7160, 1504.640
159.1982, 1465.698
159.6803, 1433.769
160.1624, 1427.311
160.6445, 1436.806
161.1266, 1446.089
161.6087, 1453.083
162.0909, 1455.146
162.5730, 1449.019
163.0551, 1428.927
163.5372, 1411.192
164.0193, 1407.615
164.5014, 1414.221
164.9836, 1418.298
165.4657, 1408.669
165.9478, 1395.167
166.4299, 1387.874
166.9120, 1396.845
167.3941, 1405.870
167.8763, 1398.784
168.3584, 1377.379
168.8405, 1361.107
169.3226, 1376.066
169.8047, 1402.296
170.2868, 1409.974
170.7690, 1363.093
171.2511, 1305.000
171.7332, 1280.862
172.2153, 1293.068
172.6974, 1317.701
173.1795, 1344.187
173.6617, 1368.042
174.1438, 1377.992
174.6259, 1354.648
175.1080, 1317.612
175.5901, 1297.896
176.0722, 1300.394
176.5544, 1311.679
177.0365, 1317.874
177.5186, 1319.924
178.0007, 1322.179
178.4828, 1330.134
178.9649, 1340.250
179.4471, 1343.309
179.9292, 1334.631
180.4113, 1323.202
180.8934, 1324.430
181.3755, 1337.654
181.8576, 1351.904
182.3397, 1355.478
182.8219, 1351.915
183.3040, 1355.132
183.7861, 1371.170
184.2682, 1394.683
184.7503, 1415.761
185.2324, 1434.497
185.7146, 1448.232
186.1967, 1450.936
186.6788, 1444.070
187.1609, 1440.470
187.6430, 1445.831
188.1251, 1458.095
188.6073, 1469.451
189.0894, 1479.766
189.5715, 1489.210
190.0536, 1498.749
190.5357, 1508.342
191.0178, 1515.574
191.5000, 1517.264
191.9821, 1514.175
192.4642, 1517.506
192.9463, 1529.561
193.4284, 1544.305
193.9105, 1550.525
194.3927, 1547.750
194.8748, 1541.584
195.3569, 1532.447
195.8390, 1519.988
196.3211, 1515.704
196.8032, 1521.896
197.2854, 1535.468
197.7675, 1548.046
198.2496, 1558.929
198.7317, 1571.703
199.2138, 1592.035
199.6959, 1622.269
200.1780, 1641.066
200.6602, 1641.840
201.1423, 1629.092
201.6244, 1624.865
202.1065, 1630.238
202.5886, 1641.236
203.0707, 1656.571
203.5529, 1678.302
204.0350, 1694.263
204.5171, 1699.978
204.9992, 1696.265
205.4813, 1695.721
205.9634, 1697.686
206.4456, 1703.924
206.9277, 1718.179
207.4098, 1743.498
207.8919, 1766.850
208.3740, 1785.828
208.8561, 1801.067
209.3383, 1802.758
209.8204, 1781.772
210.3025, 1757.639
210.7846, 1765.056
211.2667, 1819.638
211.7488, 1867.151
212.2310, 1886.103
212.7131, 1870.114
213.1952, 1853.975
213.6773, 1834.956
214.1594, 1817.692
214.6415, 1815.013
215.1236, 1835.926
215.6058, 1853.334
216.0879, 1853.876
216.5700, 1832.114
217.0521, 1809.127
217.5342, 1781.618
218.0163, 1754.075
218.4985, 1743.249
218.9806, 1761.651
219.4627, 1776.434
219.9448, 1765.144
220.4269, 1711.673
220.9090, 1674.109
221.3912, 1662.946
221.8733, 1672.551
222.3554, 1671.349
222.8375, 1654.948
223.3196, 1633.582
223.8017, 1614.405
224.2839, 1600.509
224.7660, 1582.220
225.2481, 1557.153
225.7302, 1525.957
226.2123, 1494.758
226.6944, 1458.646
227.1766, 1428.333
227.6587, 1416.001
228.1408, 1435.661
228.6229, 1445.563
229.1050, 1435.424
229.5871, 1404.468
230.0693, 1380.007
230.5514, 1364.228
231.0335, 1353.210
231.5156, 1343.394
231.9977, 1336.750
232.4798, 1327.359
232.9619, 1311.418
233.4441, 1286.395
233.9262, 1274.418
234.4083, 1283.811
234.8904, 1300.259
235.3725, 1303.680
235.8546, 1284.081
236.3368, 1268.305
236.8189, 1266.725
237.3010, 1285.706
237.7831, 1291.323
238.2652, 1277.651
238.7473, 1254.004
239.2295, 1236.089
239.7116, 1228.114
240.1937, 1219.000
240.6758, 1202.116
241.1579, 1168.099
241.6400, 1156.817
242.1222, 1180.610
242.6043, 1222.074
243.0864, 1243.709
243.5685, 1236.167
244.0506, 1223.112
244.5327, 1213.598
245.0149, 1209.281
245.4970, 1204.370
245.9791, 1196.326
246.4612, 1188.284
246.9433, 1190.096
247.4254, 1209.611
247.9075, 1227.368
248.3897, 1234.061
248.8718, 1225.681
249.3539, 1215.074
249.8360, 1199.806
250.3181, 1182.773
250.8002, 1175.091
251.2824, 1180.266
251.7645, 1189.325
252.2466, 1198.422
252.7287, 1210.136
253.2108, 1215.068
253.6929, 1210.258
254.1751, 1198.202
254.6572, 1189.210
255.1393, 1182.760
255.6214, 1180.190
256.1035, 1184.109
256.5856, 1200.468
257.0677, 1207.184
257.5499, 1197.486
258.0320, 1175.564
258.5141, 1166.893
258.9962, 1174.152
259.4783, 1190.142
259.9604, 1213.882
260.4426, 1254.066
260.9247, 1275.056
261.4068, 1266.364
261.8889, 1232.674
262.3710, 1208.973
262.8531, 1195.230
263.3353, 1191.108
263.8174, 1199.630
264.2995, 1227.066
264.7816, 1245.335
265.2637, 1246.779
265.7458, 1233.971
266.2280, 1227.575
266.7101, 1229.857
267.1922, 1234.313
267.6743, 1233.798
268.1564, 1225.872
268.6385, 1224.133
269.1207, 1235.565
269.6028, 1257.239
270.0849, 1260.254
270.5670, 1237.999
271.0491, 1211.395
271.5313, 1203.761
272.0134, 1219.859
272.4955, 1228.560
272.9776, 1220.093
273.4597, 1196.970
273.9418, 1181.032
274.4240, 1173.691
274.9061, 1169.397
275.3882, 1160.565
275.8703, 1145.866
276.3524, 1138.752
276.8345, 1147.367
277.3167, 1167.820
277.7988, 1171.186
278.2809, 1153.884
278.7630, 1130.528
279.2451, 1115.411
279.7272, 1108.650
280.2094, 1108.227
280.6915, 1116.358
281.1736, 1131.028
281.6557, 1138.616
282.1378, 1137.955
282.6199, 1135.474
283.1021, 1141.366
283.5842, 1155.270
284.0663, 1160.750
284.5484, 1149.152
285.0305, 1124.461
285.5126, 1103.310
285.9948, 1084.629
286.4769, 1074.025
286.9590, 1083.446
287.4411, 1110.462
287.9232, 1131.868
288.4053, 1136.726
288.8874, 1130.158
289.3695, 1127.932
289.8517, 1130.066
290.3338, 1135.958
290.8159, 1148.546
291.2980, 1165.767
291.7801, 1177.710
292.2622, 1177.917
292.7444, 1170.961
293.2265, 1167.133
293.7086, 1166.565
294.1907, 1168.032
294.6728, 1170.401
295.1549, 1173.846
295.6371, 1178.929
296.1192, 1191.868
296.6013, 1204.679
297.0834, 1196.535
297.5655, 1166.447
298.0476, 1141.443
298.5298, 1153.721
299.0119, 1190.469
299.4940, 1220.759
299.9761, 1230.304
300.4582, 1227.954
300.9403, 1222.526
301.4225, 1214.051
301.9046, 1208.113
302.3867, 1209.267
302.8688, 1216.228
303.3509, 1226.699
303.8330, 1245.853
304.3152, 1264.513
304.7973, 1275.157
305.2794, 1277.731
305.7615, 1270.795
306.2436, 1239.633
306.7257, 1201.256
307.2079, 1179.946
307.6900, 1203.210
308.1721, 1233.494
308.6542, 1242.787
309.1363, 1231.465
309.6184, 1217.126
310.1006, 1205.458
310.5827, 1197.861
311.0648, 1195.929
311.5469, 1205.488
312.0290, 1216.395
312.5111, 1222.577
312.9933, 1224.315
313.4754, 1227.367
313.9575, 1239.905
314.4396, 1252.582
314.9217, 1256.713
315.4038, 1238.483
315.8860, 1221.843
316.3681, 1217.609
316.8502, 1224.915
317.3323, 1230.210
317.8144, 1227.141
318.2965, 1221.463
318.7787, 1217.678
319.2608, 1216.829
319.7429, 1217.899
320.2250, 1223.601
320.7071, 1232.893
321.1892, 1235.728
321.6713, 1223.522
322.1534, 1208.357
322.6356, 1197.952
323.1177, 1194.132
323.5998, 1194.049
324.0819, 1199.928
324.5640, 1210.734
325.0461, 1217.922
325.5283, 1219.236
326.0104, 1218.112
326.4925, 1216.334
326.9746, 1214.797
327.4567, 1211.308
327.9388, 1203.152
328.4210, 1192.146
328.9031, 1188.273
329.3852, 1201.160
329.8673, 1211.077
330.3494, 1206.678
330.8315, 1176.779
331.3137, 1154.386
331.7958, 1141.885
332.2779, 1137.792
332.7600, 1138.123
333.2421, 1145.195
333.7242, 1152.676
334.2064, 1157.395
334.6885, 1158.665
335.1706, 1158.943
335.6527, 1156.440
336.1348, 1154.255
336.6169, 1162.946
337.0991, 1187.675
337.5812, 1206.178
338.0633, 1202.371
338.5454, 1173.440
339.0275, 1158.795
339.5096, 1162.942
339.9918, 1177.233
340.4739, 1186.788
340.9560, 1191.460
341.4381, 1193.778
341.9202, 1193.688
342.4023, 1191.641
342.8845, 1190.972
343.3666, 1191.080
343.8487, 1194.599
344.3308, 1209.294
344.8129, 1233.657
345.2950, 1252.646
345.7772, 1254.754
346.2593, 1246.292
346.7414, 1246.140
347.2235, 1255.649
347.7056, 1266.257
348.1877, 1266.583
348.6699, 1259.863
349.1520, 1256.333
349.6341, 1262.098
350.1162, 1272.923
350.5983, 1282.288
351.0804, 1289.997
351.5626, 1300.492
352.0447, 1326.919
352.5268, 1357.595
353.0089, 1372.409
353.4910, 1348.179
353.9731, 1315.432
354.4552, 1297.734
354.9373, 1294.703
355.4195, 1300.948
355.9016, 1322.215
356.3837, 1347.627
356.8658, 1365.508
357.3479, 1371.265
357.8300, 1369.250
358.3122, 1353.667
358.7943, 1328.341
359.2764, 1315.542
359.7585, 1334.808
360.2406, 1364.100
360.7227, 1387.894
361.2049, 1406.899
361.6870, 1415.100
362.1691, 1400.723
362.6512, 1371.881
363.1333, 1357.876
363.6154, 1378.652
364.0976, 1405.180
364.5797, 1423.376
365.0618, 1428.200
365.5439, 1430.272
366.0260, 1428.037
366.5081, 1423.515
366.9903, 1421.698
367.4724, 1426.583
367.9545, 1430.108
368.4366, 1429.605
368.9187, 1424.394
369.4008, 1416.300
369.8830, 1401.421
370.3651, 1385.953
370.8472, 1380.987
371.3293, 1391.464
371.8114, 1403.179
372.2935, 1414.221
372.7757, 1426.021
373.2578, 1421.680
373.7399, 1394.531
374.2220, 1361.733
374.7041, 1345.980
375.1862, 1349.604
375.6684, 1356.394
376.1505, 1363.460
376.6326, 1370.164
377.1147, 1372.302
377.5968, 1369.495
378.0789, 1363.738
378.5611, 1356.063
379.0432, 1346.712
379.5253, 1337.017
380.0074, 1325.342
380.4895, 1315.158
380.9716, 1317.112
381.4538, 1330.923
381.9359, 1343.583
382.4180, 1342.397
382.9001, 1332.424
383.3822, 1326.499
383.8643, 1329.404
384.3465, 1333.438
384.8286, 1326.951
385.3107, 1312.699
385.7928, 1301.137
386.2749, 1299.497
386.7570, 1303.668
387.2391, 1310.367
387.7213, 1320.740
388.2034, 1328.338
388.6855, 1326.692
389.1676, 1319.029
389.6497, 1312.058
390.1318, 1305.919
390.6140, 1303.374
391.0961, 1307.427
391.5782, 1319.711
392.0603, 1330.934
392.5424, 1338.773
393.0245, 1343.355
393.5067, 1344.767
393.9888, 1336.551
394.4709, 1331.521
394.9530, 1335.606
395.4351, 1349.869
395.9172, 1359.568
396.3994, 1356.196
396.8815, 1351.741
397.3636, 1356.158
397.8457, 1382.315
398.3278, 1400.166
398.8099, 1402.934
399.2921, 1393.133
399.7742, 1390.434
400.2563, 1399.969
400.7384, 1409.693
401.2205, 1411.036
401.7026, 1398.700
402.1848, 1394.592
402.6669, 1401.292
403.1490, 1416.215
403.6311, 1434.350
404.1132, 1457.150
404.5953, 1477.598
405.0775, 1490.263
405.5596, 1495.173
406.0417, 1506.776
406.5238, 1527.017
407.0059, 1549.840
407.4880, 1567.900
407.9702, 1581.288
408.4523, 1591.057
408.9344, 1594.319
409.4165, 1594.628
409.8986, 1603.130
410.3807, 1620.230
410.8629, 1636.054
411.3450, 1637.701
411.8271, 1631.288
412.3092, 1629.962
412.7913, 1638.437
413.2734, 1653.652
413.7556, 1675.667
414.2377, 1703.210
414.7198, 1729.462
415.2019, 1748.911
415.6840, 1765.371
416.1661, 1782.413
416.6483, 1800.995
417.1304, 1819.833
417.6125, 1836.420
418.0946, 1852.473
418.5767, 1871.721
419.0588, 1902.713
419.5410, 1931.425
420.0230, 1950.613
420.5052, 1957.789
420.9873, 1960.807
421.4694, 1957.649
421.9515, 1951.828
422.4336, 1948.472
422.9157, 1954.572
423.3979, 1955.461
423.8800, 1944.606
424.3621, 1919.710
424.8442, 1909.223
425.3263, 1922.247
425.8084, 1939.917
426.2906, 1943.297
426.7727, 1923.871
427.2548, 1916.085
427.7369, 1928.668
428.2190, 1956.214
428.7011, 1974.741
429.1833, 1982.462
429.6654, 1988.295
430.1475, 1999.199
430.6296, 2014.803
431.1117, 2024.635
431.5938, 2025.245
432.0760, 2024.917
432.5581, 2039.707
433.0402, 2067.926
433.5223, 2095.037
434.0044, 2112.264
434.4865, 2123.863
434.9687, 2140.036
435.4508, 2162.000
435.9329, 2178.999
436.4150, 2177.865
436.8971, 2165.522
437.3792, 2154.320
437.8614, 2150.715
438.3435, 2148.600
438.8256, 2140.155
439.3077, 2127.101
439.7898, 2122.859
440.2719, 2144.213
440.7541, 2171.544
441.2362, 2188.788
441.7183, 2187.002
442.2004, 2183.032
442.6825, 2178.393
443.1646, 2174.568
443.6468, 2175.589
444.1289, 2190.636
444.6110, 2203.180
445.0931, 2204.807
445.5752, 2188.088
446.0573, 2183.224
446.5395, 2197.843
447.0216, 2219.599
447.5037, 2231.613
447.9858, 2224.583
448.4679, 2228.131
448.9500, 2254.282
449.4322, 2300.093
449.9143, 2326.612
450.3964, 2328.737
450.8785, 2326.874
451.3606, 2342.977
451.8427, 2377.249
452.3249, 2392.594
452.8070, 2376.709
453.2891, 2349.012
453.7712, 2350.691
454.2533, 2379.605
454.7354, 2410.143
455.2175, 2429.015
455.6996, 2438.738
456.1818, 2445.296
456.6639, 2449.592
457.1460, 2447.773
457.6281, 2428.850
458.1102, 2402.058
458.5923, 2383.943
459.0745, 2384.099
459.5566, 2393.577
460.0387, 2414.187
460.5208, 2444.021
461.0029, 2458.604
461.4850, 2433.443
461.9672, 2396.245
462.4493, 2368.801
462.9314, 2368.608
463.4135, 2361.698
463.8956, 2337.935
464.3777, 2302.182
464.8599, 2268.897
465.3420, 2243.590
465.8241, 2216.742
466.3062, 2185.164
466.7883, 2147.515
467.2704, 2110.031
467.7526, 2072.758
468.2347, 2035.202
468.7168, 1994.308
469.1989, 1946.679
469.6810, 1910.503
470.1631, 1895.010
470.6453, 1894.423
471.1274, 1876.317
471.6095, 1838.190
472.0916, 1800.677
472.5737, 1785.788
473.0558, 1788.256
473.5380, 1777.974
474.0201, 1748.071
474.5022, 1710.231
474.9843, 1676.233
475.4664, 1647.003
475.9485, 1626.164
476.4307, 1616.840
476.9128, 1616.308
477.3949, 1624.447
477.8770, 1641.746
478.3591, 1656.547
478.8412, 1667.447
479.3234, 1669.676
479.8055, 1657.766
480.2876, 1606.330
480.7697, 1564.129
481.2518, 1551.867
481.7339, 1564.838
482.2161, 1579.108
482.6982, 1594.399
483.1803, 1606.671
483.6624, 1613.971
484.1445, 1617.465
484.6266, 1613.474
485.1088, 1595.373
485.5909, 1573.337
486.0730, 1563.980
486.5551, 1573.505
487.0372, 1581.162
487.5193, 1580.696
488.0014, 1572.668
488.4836, 1566.070
488.9657, 1561.257
489.4478, 1556.441
489.9299, 1548.769
490.4120, 1538.824
490.8941, 1533.251
491.3763, 1534.604
491.8584, 1538.031
492.3405, 1536.713
492.8226, 1530.925
493.3047, 1521.747
493.7868, 1508.410
494.2690, 1492.762
494.7511, 1475.493
495.2332, 1456.031
495.7153, 1441.627
496.1974, 1441.403
496.6795, 1447.383
497.1617, 1449.888
497.6438, 1444.656
498.1259, 1436.530
498.6080, 1424.959
499.0901, 1411.013
499.5722, 1400.268
500.0544, 1396.142
500.5365, 1393.417
501.0186, 1389.515
501.5007, 1383.437
501.9828, 1378.198
502.4649, 1374.211
502.9471, 1370.797
503.4292, 1366.409
503.9113, 1359.621
504.3934, 1356.592
504.8755, 1362.636
505.3576, 1374.495
505.8398, 1366.247
506.3219, 1333.899
506.8040, 1304.064
507.2861, 1308.524
507.7682, 1337.739
508.2503, 1338.292
508.7325, 1294.067
509.2146, 1242.133
509.6967, 1233.985
510.1788, 1259.664
510.6609, 1287.638
511.1430, 1306.104
511.6252, 1316.811
512.1072, 1321.156
512.5894, 1319.134
513.0715, 1310.924
513.5536, 1288.448
514.0357, 1263.847
514.5178, 1247.985
514.9999, 1246.003
515.4821, 1250.032
515.9642, 1264.185
516.4463, 1283.839
516.9284, 1294.633
517.4105, 1290.934
517.8926, 1284.338
518.3748, 1278.103
518.8569, 1272.223
519.3390, 1266.763
519.8211, 1261.734
520.3032, 1257.064
520.7853, 1250.826
521.2675, 1241.875
521.7496, 1242.204
522.2317, 1257.775
522.7138, 1280.539
523.1959, 1290.907
523.6780, 1289.267
524.1602, 1281.447
524.6423, 1263.141
525.1244, 1243.123
525.6065, 1240.914
526.0886, 1259.964
526.5707, 1280.710
527.0529, 1286.886
527.5350, 1284.337
528.0171, 1281.880
528.4992, 1281.229
528.9813, 1282.794
529.4634, 1289.122
529.9456, 1298.696
530.4277, 1304.398
530.9098, 1299.737
531.3919, 1294.258
531.8740, 1293.652
532.3561, 1304.098
532.8383, 1304.938
533.3204, 1288.438
533.8025, 1267.503
534.2846, 1259.707
534.7667, 1270.984
535.2488, 1278.353
535.7310, 1275.018
536.2131, 1264.305
536.6952, 1261.963
537.1773, 1268.951
537.6594, 1276.199
538.1415, 1276.729
538.6237, 1272.217
539.1058, 1269.868
539.5879, 1271.144
540.0700, 1270.713
540.5521, 1253.100
541.0342, 1229.863
541.5164, 1225.280
541.9985, 1273.584
542.4806, 1324.306
542.9627, 1336.860
543.4448, 1316.891
543.9269, 1299.920
544.4091, 1302.055
544.8912, 1310.026
545.3733, 1317.133
545.8554, 1325.943
546.3375, 1326.225
546.8196, 1306.229
547.3018, 1282.020
547.7839, 1275.542
548.2660, 1299.610
548.7481, 1315.232
549.2302, 1310.840
549.7123, 1290.907
550.1945, 1283.286
550.6766, 1290.050
551.1587, 1299.616
551.6408, 1303.787
552.1229, 1303.643
552.6050, 1306.216
553.0872, 1312.219
553.5693, 1320.092
554.0514, 1330.308
554.5335, 1341.123
555.0156, 1347.953
555.4977, 1345.490
555.9799, 1341.489
556.4620, 1342.576
556.9441, 1347.826
557.4262, 1352.728
557.9083, 1357.593
558.3904, 1359.707
558.8726, 1355.431
559.3547, 1338.001
559.8368, 1331.184
560.3189, 1348.203
560.8010, 1372.358
561.2831, 1385.402
561.7653, 1381.567
562.2474, 1376.573
562.7295, 1370.022
563.2116, 1364.468
563.6937, 1375.167
564.1758, 1406.794
564.6580, 1432.988
565.1401, 1435.559
565.6222, 1418.272
566.1043, 1401.665
566.5864, 1385.679
567.0685, 1376.897
567.5507, 1389.375
568.0327, 1413.987
568.5148, 1431.243
568.9969, 1429.906
569.4791, 1424.921
569.9612, 1429.226
570.4433, 1439.739
570.9254, 1446.790
571.4075, 1442.005
571.8896, 1436.209
572.3718, 1434.655
572.8539, 1438.263
573.3360, 1443.727
573.8181, 1451.333
574.3002, 1460.254
574.7823, 1470.713
575.2645, 1486.498
575.7466, 1493.814
576.2287, 1488.132
576.7108, 1475.440
577.1929, 1468.022
577.6750, 1465.549
578.1572, 1472.176
578.6393, 1491.917
579.1214, 1522.438
579.6035, 1559.995
580.0856, 1604.928
580.5677, 1637.983
581.0499, 1625.631
581.5320, 1596.338
582.0141, 1597.026
582.4962, 1652.899
582.9783, 1705.177
583.4604, 1711.535
583.9426, 1691.404
584.4247, 1678.635
584.9068, 1686.748
585.3889, 1700.183
585.8710, 1714.894
586.3531, 1730.782
586.8353, 1748.885
587.3174, 1772.855
587.7995, 1794.223
588.2816, 1806.862
588.7637, 1807.435
589.2458, 1813.571
589.7280, 1825.835
590.2101, 1843.032
590.6922, 1866.999
591.1743, 1896.486
591.6564, 1919.430
592.1385, 1931.602
592.6207, 1935.874
593.1028, 1930.776
593.5849, 1919.562
594.0670, 1917.689
594.5491, 1945.144
595.0313, 1979.230
595.5134, 2000.890
595.9955, 2007.266
596.4776, 2007.849
596.9597, 2001.668
597.4418, 1993.634
597.9240, 1988.263
598.4061, 1993.738
598.8882, 1991.723
599.3703, 1975.888
599.8524, 1953.413
600.3345, 1941.887
600.8167, 1944.539
601.2988, 1949.689
601.7809, 1956.635
602.2630, 1963.372
602.7451, 1950.409
603.2272, 1915.989
603.7094, 1884.923
604.1915, 1885.490
604.6736, 1904.208
605.1557, 1906.669
605.6378, 1884.082
606.1199, 1859.213
606.6021, 1851.418
607.0842, 1855.186
607.5663, 1862.117
608.0484, 1870.527
608.5305, 1880.209
609.0126, 1895.817
609.4948, 1914.728
609.9769, 1920.934
610.4590, 1892.768
610.9411, 1871.181
611.4232, 1874.428
611.9053, 1909.570
612.3875, 1928.210
612.8696, 1925.817
613.3517, 1915.655
613.8338, 1912.025
614.3159, 1914.639
614.7980, 1910.087
615.2802, 1893.574
615.7623, 1874.303
