##NAMES=Tainiolite
##RRUFFID=R061070
##IDEAL CHEMISTRY=KLiMg_2_Si_4_O_10_F_2_
##LOCALITY=Mont Saint-Hilaire, Quebec, Canada
##OWNER=RRUFF
##SOURCE=Bob Downs
##DESCRIPTION=Brown hexagonal prism
##STATUS=The identification of this mineral has been made only by X-ray diffraction.
##URL=rruff.info/R061070
187.1972, 20814.77
187.6793, 20803.85
188.1615, 20815.54
188.6436, 20856.20
189.1257, 20863.99
189.6078, 20799.43
190.0899, 20735.21
190.5720, 20694.93
191.0542, 20678.08
191.5363, 20673.32
192.0184, 20674.77
192.5005, 20684.18
192.9826, 20678.45
193.4647, 20620.75
193.9469, 20581.04
194.4290, 20596.78
194.9111, 20654.08
195.3932, 20709.71
195.8753, 20725.31
196.3574, 20698.56
196.8396, 20685.07
197.3217, 20705.19
197.8038, 20720.62
198.2859, 20711.97
198.7680, 20688.30
199.2501, 20672.91
199.7323, 20686.96
200.2144, 20730.60
200.6965, 20761.88
201.1786, 20777.57
201.6607, 20782.47
202.1428, 20762.28
202.6250, 20731.42
203.1071, 20719.94
203.5892, 20755.18
204.0713, 20833.38
204.5534, 20877.69
205.0355, 20860.64
205.5177, 20833.17
205.9998, 20796.41
206.4819, 20757.92
206.9640, 20730.11
207.4461, 20723.18
207.9282, 20733.19
208.4104, 20728.28
208.8925, 20677.46
209.3746, 20646.07
209.8567, 20664.40
210.3388, 20707.96
210.8209, 20739.19
211.3030, 20734.98
211.7852, 20702.40
212.2673, 20675.33
212.7494, 20656.54
213.2315, 20641.30
213.7136, 20624.27
214.1957, 20611.77
214.6779, 20614.08
215.1600, 20637.88
215.6421, 20675.96
216.1242, 20702.53
216.6063, 20709.15
217.0884, 20717.25
217.5706, 20729.56
218.0527, 20745.98
218.5348, 20766.54
219.0169, 20791.43
219.4990, 20820.00
219.9811, 20849.62
220.4633, 20875.46
220.9454, 20912.20
221.4275, 20991.91
221.9096, 21066.73
222.3917, 21080.26
222.8738, 21013.03
223.3560, 20915.77
223.8381, 20890.80
224.3202, 20987.39
224.8023, 21049.57
225.2844, 21047.32
225.7665, 21016.75
226.2487, 20979.10
226.7308, 20941.26
227.2129, 20904.90
227.6950, 20874.01
228.1771, 20851.94
228.6592, 20824.63
229.1414, 20780.63
229.6235, 20738.49
230.1056, 20709.96
230.5877, 20696.60
231.0698, 20691.72
231.5519, 20690.64
232.0341, 20696.47
232.5162, 20692.10
232.9983, 20664.13
233.4804, 20635.94
233.9625, 20620.58
234.4446, 20617.19
234.9268, 20614.24
235.4089, 20594.85
235.8910, 20555.56
236.3731, 20541.77
236.8552, 20591.71
237.3373, 20632.58
237.8195, 20625.20
238.3016, 20580.63
238.7837, 20536.48
239.2658, 20519.36
239.7479, 20528.17
240.2300, 20550.66
240.7122, 20602.12
241.1943, 20648.36
241.6764, 20676.83
242.1585, 20690.34
242.6406, 20694.11
243.1227, 20687.43
243.6049, 20674.20
244.0870, 20672.09
244.5691, 20694.90
245.0512, 20702.87
245.5333, 20661.15
246.0154, 20600.47
246.4975, 20568.14
246.9797, 20594.42
247.4618, 20648.15
247.9439, 20661.16
248.4260, 20616.00
248.9081, 20579.06
249.3902, 20586.75
249.8724, 20611.42
250.3545, 20625.77
250.8366, 20620.30
251.3187, 20605.60
251.8008, 20593.42
252.2829, 20583.31
252.7651, 20579.19
253.2472, 20592.13
253.7293, 20606.19
254.2114, 20604.08
254.6935, 20580.84
255.1756, 20556.70
255.6578, 20552.18
256.1399, 20566.36
256.6220, 20578.04
257.1041, 20577.96
257.5862, 20577.85
258.0684, 20591.32
258.5505, 20619.30
259.0326, 20644.91
259.5147, 20662.74
259.9968, 20670.81
260.4789, 20656.37
260.9611, 20603.96
261.4432, 20551.89
261.9253, 20543.29
262.4074, 20572.06
262.8895, 20595.76
263.3716, 20591.89
263.8537, 20573.92
264.3358, 20565.85
264.8180, 20571.44
265.3001, 20581.89
265.7822, 20595.35
266.2643, 20609.16
266.7464, 20609.66
267.2285, 20585.74
267.7107, 20552.27
268.1928, 20517.77
268.6749, 20482.93
269.1570, 20464.35
269.6391, 20478.26
270.1212, 20519.36
270.6034, 20552.90
271.0855, 20574.28
271.5676, 20591.54
272.0497, 20610.07
272.5318, 20628.50
273.0139, 20641.42
273.4961, 20645.71
273.9782, 20642.70
274.4603, 20636.74
274.9424, 20625.53
275.4245, 20615.22
275.9066, 20607.05
276.3888, 20601.21
276.8709, 20598.80
277.3530, 20600.65
277.8351, 20604.11
278.3172, 20603.01
278.7993, 20588.95
279.2815, 20589.40
279.7636, 20629.87
280.2457, 20674.51
280.7278, 20681.30
281.2099, 20643.52
281.6920, 20593.85
282.1742, 20571.77
282.6563, 20586.40
283.1384, 20600.76
283.6205, 20613.92
284.1026, 20627.97
284.5847, 20646.43
285.0669, 20667.82
285.5490, 20686.99
286.0311, 20699.72
286.5132, 20706.08
286.9953, 20704.73
287.4774, 20671.89
287.9596, 20656.53
288.4417, 20690.22
288.9238, 20750.48
289.4059, 20797.75
289.8880, 20809.29
290.3701, 20789.19
290.8523, 20753.80
291.3344, 20671.28
291.8165, 20616.80
292.2986, 20624.13
292.7807, 20651.37
293.2628, 20651.20
293.7450, 20606.45
294.2271, 20544.16
294.7092, 20512.46
295.1913, 20519.25
295.6734, 20536.00
296.1555, 20573.45
296.6377, 20609.21
297.1198, 20633.42
297.6019, 20642.99
298.0840, 20633.69
298.5661, 20586.84
299.0482, 20498.34
299.5304, 20452.51
300.0125, 20487.98
300.4946, 20531.12
300.9767, 20545.72
301.4588, 20537.35
301.9409, 20526.80
302.4231, 20531.38
302.9052, 20543.39
303.3873, 20531.51
303.8694, 20479.05
304.3515, 20443.26
304.8336, 20474.11
305.3158, 20536.17
305.7979, 20577.93
306.2800, 20577.90
306.7621, 20560.32
307.2442, 20555.10
307.7263, 20562.69
308.2085, 20560.18
308.6906, 20523.68
309.1727, 20482.09
309.6548, 20482.72
310.1369, 20540.98
310.6190, 20596.95
311.1012, 20607.76
311.5833, 20589.14
312.0654, 20589.96
312.5475, 20630.15
313.0296, 20674.37
313.5117, 20663.74
313.9939, 20594.26
314.4760, 20545.42
314.9581, 20551.97
315.4402, 20576.91
315.9223, 20578.32
316.4044, 20551.94
316.8866, 20522.72
317.3687, 20512.38
317.8508, 20521.96
318.3329, 20527.01
318.8150, 20526.39
319.2971, 20523.01
319.7793, 20511.65
320.2614, 20498.38
320.7435, 20500.13
321.2256, 20528.77
321.7077, 20574.57
322.1898, 20597.66
322.6720, 20562.70
323.1541, 20548.59
323.6362, 20583.39
324.1183, 20633.01
324.6004, 20659.38
325.0826, 20651.42
325.5647, 20628.49
326.0468, 20622.01
326.5289, 20643.58
327.0110, 20653.56
327.4931, 20650.94
327.9753, 20639.73
328.4574, 20616.55
328.9395, 20585.27
329.4216, 20557.39
329.9037, 20542.61
330.3858, 20540.63
330.8680, 20544.74
331.3501, 20572.21
331.8322, 20582.21
332.3143, 20549.75
332.7964, 20495.02
333.2785, 20447.24
333.7606, 20417.96
334.2427, 20405.39
334.7249, 20410.65
335.2070, 20438.79
335.6891, 20461.40
336.1712, 20471.88
336.6533, 20469.78
337.1354, 20449.85
337.6176, 20409.05
338.0997, 20368.16
338.5818, 20338.78
339.0639, 20321.21
339.5460, 20322.95
340.0281, 20355.26
340.5103, 20387.19
340.9924, 20375.70
341.4745, 20327.97
341.9566, 20300.53
342.4387, 20324.81
342.9208, 20367.88
343.4030, 20398.62
343.8851, 20414.83
344.3672, 20412.60
344.8493, 20384.49
345.3314, 20335.39
345.8135, 20297.31
346.2957, 20263.55
346.7778, 20247.30
347.2599, 20265.11
347.7420, 20302.73
348.2241, 20335.08
348.7062, 20352.34
349.1884, 20358.37
349.6705, 20359.80
350.1526, 20346.98
350.6347, 20346.75
351.1168, 20372.36
351.5989, 20400.81
352.0811, 20410.80
352.5632, 20403.02
353.0453, 20396.99
353.5274, 20413.46
354.0095, 20454.21
354.4916, 20485.39
354.9738, 20508.13
355.4559, 20518.66
355.9380, 20511.19
356.4201, 20491.57
356.9022, 20466.90
357.3843, 20439.44
357.8665, 20413.64
358.3486, 20399.03
358.8307, 20395.74
359.3128, 20403.11
359.7949, 20438.38
360.2770, 20473.21
360.7592, 20482.84
361.2413, 20463.51
361.7234, 20439.01
362.2055, 20432.73
362.6876, 20439.61
363.1697, 20427.77
363.6519, 20379.48
364.1340, 20338.44
364.6161, 20355.20
365.0982, 20412.09
365.5803, 20450.85
366.0624, 20452.00
366.5446, 20429.97
367.0267, 20393.94
367.5088, 20345.77
367.9909, 20294.77
368.4730, 20241.37
368.9551, 20192.79
369.4373, 20172.00
369.9194, 20184.32
370.4015, 20211.06
370.8836, 20264.89
371.3657, 20324.13
371.8478, 20358.81
372.3300, 20361.49
372.8121, 20344.95
373.2942, 20323.23
373.7763, 20291.61
374.2584, 20274.10
374.7405, 20278.57
375.2227, 20287.54
375.7048, 20291.71
376.1869, 20293.04
376.6690, 20299.70
377.1511, 20318.39
377.6332, 20344.25
378.1154, 20356.07
378.5975, 20346.11
379.0796, 20333.44
379.5617, 20317.68
380.0438, 20302.94
380.5259, 20295.44
381.0081, 20296.22
381.4902, 20294.65
381.9723, 20275.85
382.4544, 20239.81
382.9365, 20210.72
383.4186, 20197.39
383.9008, 20182.66
384.3829, 20148.39
384.8650, 20101.72
385.3471, 20067.20
385.8292, 20056.50
386.3113, 20062.29
386.7935, 20080.23
387.2756, 20110.20
387.7577, 20134.64
388.2398, 20147.38
388.7219, 20146.72
389.2040, 20127.09
389.6862, 20068.66
390.1683, 20031.89
390.6504, 20055.71
391.1325, 20107.76
391.6146, 20141.84
392.0967, 20147.34
392.5789, 20140.28
393.0610, 20139.15
393.5431, 20146.69
394.0252, 20145.75
394.5073, 20122.98
394.9894, 20106.42
395.4716, 20111.61
395.9537, 20132.56
396.4358, 20158.82
396.9179, 20186.33
397.4000, 20207.41
397.8821, 20194.21
398.3643, 20114.28
398.8464, 20064.81
399.3285, 20081.53
399.8106, 20113.24
400.2927, 20116.96
400.7748, 20089.60
401.2570, 20068.51
401.7391, 20101.63
402.2212, 20177.59
402.7033, 20208.34
403.1854, 20172.84
403.6675, 20126.74
404.1497, 20097.94
404.6317, 20083.41
405.1139, 20081.76
405.5960, 20104.59
406.0781, 20125.27
406.5602, 20114.42
407.0423, 20079.07
407.5244, 20052.29
408.0066, 20047.30
408.4887, 20053.43
408.9708, 20054.16
409.4529, 20049.65
409.9350, 20040.31
410.4171, 20019.05
410.8993, 19998.01
411.3814, 19988.62
411.8635, 19990.38
412.3456, 19994.51
412.8277, 19993.55
413.3098, 19989.17
413.7920, 19997.12
414.2741, 20043.18
414.7562, 20071.11
415.2383, 20065.74
415.7204, 20043.03
416.2025, 20018.35
416.6847, 19996.57
417.1668, 19975.56
417.6489, 19949.92
418.1310, 19918.04
418.6131, 19898.91
419.0952, 19899.75
419.5774, 19906.94
420.0595, 19917.44
420.5416, 19928.23
421.0237, 19931.15
421.5058, 19913.85
421.9879, 19895.61
422.4701, 19909.85
422.9522, 19954.99
423.4343, 19986.99
423.9164, 19988.71
424.3985, 19967.80
424.8806, 19931.92
425.3628, 19872.42
425.8449, 19834.02
426.3270, 19843.96
426.8091, 19871.54
427.2912, 19885.04
427.7733, 19881.23
428.2555, 19872.51
428.7376, 19868.30
429.2197, 19868.26
429.7018, 19867.35
430.1839, 19863.10
430.6660, 19860.81
431.1482, 19867.91
431.6303, 19874.55
432.1124, 19865.77
432.5945, 19838.35
433.0766, 19808.48
433.5587, 19797.96
434.0409, 19809.23
434.5230, 19824.12
435.0051, 19857.90
435.4872, 19876.17
435.9693, 19850.49
436.4514, 19798.42
436.9336, 19761.07
437.4157, 19762.21
437.8978, 19777.49
438.3799, 19774.15
438.8620, 19753.33
439.3441, 19737.55
439.8263, 19738.21
440.3084, 19742.90
440.7905, 19729.93
441.2726, 19696.96
441.7547, 19667.89
442.2368, 19640.65
442.7190, 19624.68
443.2011, 19636.66
443.6832, 19672.04
444.1653, 19705.16
444.6474, 19718.27
445.1295, 19713.82
445.6117, 19705.79
446.0938, 19690.94
446.5759, 19676.44
447.0580, 19659.54
447.5401, 19645.39
448.0222, 19637.39
448.5044, 19636.78
448.9865, 19644.75
449.4686, 19669.72
449.9507, 19710.69
450.4328, 19725.29
450.9149, 19698.03
451.3971, 19670.14
451.8792, 19665.81
452.3613, 19672.27
452.8434, 19671.03
453.3255, 19658.60
453.8076, 19634.58
454.2898, 19580.05
454.7719, 19510.52
455.2540, 19486.78
455.7361, 19530.39
456.2182, 19599.18
456.7003, 19654.45
457.1825, 19697.24
457.6646, 19699.58
458.1467, 19622.77
458.6288, 19542.13
459.1109, 19488.51
459.5930, 19463.30
460.0752, 19471.09
460.5573, 19515.37
461.0394, 19573.47
461.5215, 19596.91
462.0036, 19576.87
462.4857, 19542.44
462.9679, 19468.03
463.4500, 19403.79
463.9321, 19380.41
464.4142, 19392.03
464.8963, 19413.04
465.3784, 19429.33
465.8606, 19443.90
466.3427, 19466.02
466.8248, 19497.63
467.3069, 19519.53
467.7890, 19519.79
468.2711, 19510.23
468.7533, 19513.31
469.2354, 19534.56
469.7175, 19535.29
470.1996, 19476.12
470.6817, 19404.50
471.1638, 19379.47
471.6460, 19401.51
472.1281, 19432.42
472.6102, 19448.18
473.0923, 19448.90
473.5744, 19435.99
474.0565, 19387.05
474.5387, 19351.74
475.0208, 19340.22
475.5029, 19339.11
475.9850, 19338.25
476.4671, 19335.25
476.9492, 19331.54
477.4313, 19328.58
477.9135, 19326.25
478.3956, 19325.08
478.8777, 19331.03
479.3598, 19325.66
479.8419, 19286.63
480.3240, 19237.20
480.8062, 19205.42
481.2883, 19197.80
481.7704, 19201.18
482.2525, 19208.94
482.7346, 19221.52
483.2167, 19243.01
483.6989, 19274.37
484.1810, 19303.08
484.6631, 19318.41
485.1452, 19320.47
485.6273, 19316.33
486.1094, 19290.34
486.5916, 19277.37
487.0737, 19300.98
487.5558, 19336.01
488.0379, 19348.39
488.5200, 19330.11
489.0021, 19304.94
489.4843, 19306.05
489.9664, 19336.60
490.4485, 19342.76
490.9306, 19301.61
491.4127, 19268.77
491.8948, 19271.38
492.3770, 19295.51
492.8591, 19322.26
493.3412, 19349.77
493.8233, 19369.99
494.3054, 19373.96
494.7875, 19365.00
495.2697, 19351.73
495.7518, 19335.19
496.2339, 19319.12
496.7160, 19307.87
497.1981, 19301.59
497.6802, 19291.71
498.1624, 19274.53
498.6445, 19257.99
499.1266, 19244.80
499.6087, 19233.96
500.0908, 19226.88
500.5729, 19223.07
501.0551, 19213.58
501.5372, 19180.30
502.0193, 19116.88
502.5014, 19080.29
502.9835, 19091.32
503.4656, 19103.08
503.9478, 19084.87
504.4299, 19057.22
504.9120, 19056.19
505.3941, 19099.45
505.8762, 19152.75
506.3583, 19194.35
506.8405, 19221.79
507.3226, 19219.16
507.8047, 19178.36
508.2868, 19137.01
508.7689, 19134.70
509.2510, 19172.79
509.7332, 19191.62
510.2153, 19171.46
510.6974, 19155.55
511.1795, 19167.31
511.6616, 19189.25
512.1437, 19194.25
512.6259, 19175.12
513.1080, 19149.73
513.5901, 19140.48
514.0722, 19148.22
514.5543, 19160.10
515.0364, 19186.50
515.5186, 19201.12
516.0007, 19181.47
516.4828, 19147.94
516.9649, 19132.43
517.4470, 19147.71
517.9291, 19165.31
518.4113, 19167.31
518.8934, 19154.89
519.3755, 19125.95
519.8576, 19078.89
520.3397, 19034.75
520.8218, 19013.39
521.3040, 19013.46
521.7861, 19003.09
522.2682, 18962.95
522.7503, 18937.78
523.2324, 18946.69
523.7145, 18970.36
524.1967, 18993.66
524.6788, 19010.54
525.1609, 19013.54
525.6430, 18987.76
526.1251, 18937.54
526.6072, 18911.94
527.0894, 18919.42
527.5715, 18932.50
528.0536, 18952.13
528.5357, 18964.96
529.0178, 18947.67
529.4999, 18889.41
529.9821, 18843.17
530.4642, 18851.53
530.9463, 18880.87
531.4284, 18881.29
531.9105, 18850.10
532.3926, 18817.09
532.8748, 18802.87
533.3569, 18803.11
533.8390, 18797.94
534.3211, 18764.31
534.8032, 18759.41
535.2853, 18823.64
535.7675, 18887.80
536.2496, 18890.89
536.7317, 18840.23
537.2138, 18792.69
537.6959, 18793.13
538.1780, 18820.67
538.6602, 18825.76
539.1423, 18807.05
539.6244, 18778.85
540.1065, 18740.21
540.5886, 18700.19
541.0707, 18669.90
541.5529, 18648.78
542.0350, 18637.83
542.5171, 18636.24
542.9992, 18645.71
543.4813, 18683.89
543.9634, 18734.02
544.4456, 18748.86
544.9277, 18705.46
545.4098, 18636.67
545.8919, 18606.54
546.3740, 18627.72
546.8561, 18646.83
547.3383, 18671.21
547.8204, 18683.95
548.3025, 18670.54
548.7846, 18641.14
549.2667, 18614.13
549.7488, 18591.41
550.2310, 18583.59
550.7131, 18617.60
551.1952, 18676.82
551.6773, 18702.12
552.1594, 18679.68
552.6415, 18639.54
553.1237, 18606.19
553.6058, 18579.92
554.0879, 18560.00
554.5700, 18555.15
555.0521, 18545.58
555.5342, 18515.90
556.0164, 18485.41
556.4985, 18475.31
556.9806, 18488.88
557.4627, 18514.76
557.9448, 18552.65
558.4269, 18594.66
558.9091, 18588.47
559.3912, 18516.12
559.8733, 18459.44
560.3554, 18462.39
560.8375, 18491.67
561.3196, 18497.05
561.8018, 18473.79
562.2839, 18452.01
562.7660, 18445.46
563.2481, 18440.98
563.7302, 18424.79
564.2123, 18399.05
564.6945, 18374.98
565.1766, 18358.79
565.6587, 18346.27
566.1408, 18326.99
566.6229, 18295.26
567.1050, 18272.90
567.5872, 18262.77
568.0693, 18261.07
568.5514, 18277.20
569.0335, 18299.72
569.5156, 18301.55
569.9977, 18262.50
570.4799, 18222.36
570.9620, 18223.03
571.4441, 18253.67
571.9262, 18286.49
572.4083, 18317.23
572.8904, 18329.81
573.3726, 18303.82
573.8547, 18241.84
574.3368, 18206.64
574.8189, 18217.96
575.3010, 18229.42
575.7831, 18237.94
576.2653, 18240.55
576.7474, 18232.04
577.2295, 18213.67
577.7116, 18195.38
578.1937, 18186.89
578.6758, 18183.86
579.1580, 18168.77
579.6401, 18138.76
580.1222, 18127.62
580.6042, 18157.99
581.0864, 18201.64
581.5685, 18214.95
582.0506, 18196.47
582.5327, 18176.56
583.0148, 18162.56
583.4969, 18145.06
583.9791, 18111.36
584.4612, 18071.01
584.9433, 18044.79
585.4254, 18040.41
585.9075, 18044.63
586.3896, 18039.82
586.8718, 18025.70
587.3539, 18002.93
587.8360, 17960.32
588.3181, 17928.67
588.8002, 17932.95
589.2823, 17954.59
589.7645, 17969.87
590.2466, 17979.56
590.7287, 17970.46
591.2108, 17916.21
591.6929, 17851.01
592.1750, 17817.58
592.6572, 17817.16
593.1393, 17829.49
593.6214, 17842.65
594.1035, 17856.42
594.5856, 17870.91
595.0677, 17890.45
595.5499, 17899.90
596.0320, 17893.01
596.5141, 17879.71
596.9962, 17859.75
597.4783, 17837.16
597.9604, 17821.26
598.4426, 17817.21
598.9247, 17818.04
599.4068, 17817.57
599.8889, 17817.04
600.3710, 17825.07
600.8531, 17843.69
601.3353, 17847.77
601.8174, 17808.58
602.2995, 17732.60
602.7816, 17696.38
603.2637, 17740.29
603.7458, 17771.48
604.2280, 17776.93
604.7101, 17769.52
605.1922, 17760.23
605.6743, 17749.13
606.1564, 17728.26
606.6385, 17682.20
607.1207, 17632.34
607.6028, 17615.58
608.0849, 17628.92
608.5670, 17647.66
609.0491, 17666.67
609.5313, 17681.40
610.0134, 17687.52
610.4955, 17685.30
610.9776, 17669.56
611.4597, 17623.47
611.9418, 17585.38
612.4240, 17560.61
612.9061, 17552.82
613.3882, 17581.60
613.8703, 17642.61
614.3524, 17680.54
614.8345, 17622.57
615.3167, 17507.84
615.7988, 17458.39
616.2809, 17477.87
616.7630, 17504.73
617.2451, 17518.09
617.7272, 17522.76
618.2094, 17525.17
618.6915, 17524.61
619.1736, 17524.75
619.6557, 17523.35
620.1378, 17525.10
620.6199, 17542.58
621.1021, 17561.11
621.5842, 17556.54
622.0663, 17522.05
622.5484, 17476.10
623.0305, 17431.97
623.5126, 17392.46
623.9948, 17381.17
624.4769, 17406.74
624.9590, 17418.71
625.4411, 17381.88
625.9232, 17327.03
626.4053, 17316.03
626.8875, 17360.02
627.3696, 17394.18
627.8517, 17412.85
628.3338, 17416.57
628.8159, 17393.93
629.2980, 17359.01
629.7802, 17307.93
630.2623, 17350.14
630.7444, 17372.18
631.2265, 17375.14
631.7086, 17301.85
632.1907, 17327.02
632.6729, 17312.73
633.1550, 17296.82
633.6371, 17335.84
634.1192, 17273.65
634.6013, 17311.80
635.0834, 17325.17
635.5656, 17344.93
636.0477, 17336.28
636.5298, 17367.72
637.0119, 17378.99
637.4940, 17371.18
637.9761, 17287.12
638.4583, 17301.51
638.9404, 17276.45
639.4225, 17249.77
639.9046, 17278.02
640.3867, 17205.05
640.8688, 17232.43
641.3510, 17219.75
641.8331, 17225.41
642.3152, 17191.36
642.7973, 17169.58
643.2794, 17187.51
643.7615, 17183.46
644.2437, 17144.84
644.7258, 17151.66
645.2079, 17077.31
645.6900, 17074.19
646.1721, 17101.80
646.6542, 17065.80
647.1364, 17115.32
647.6185, 17100.25
648.1006, 17024.77
648.5827, 16983.19
649.0648, 16986.26
649.5469, 17009.92
650.0291, 17055.06
650.5112, 17105.52
650.9933, 17120.93
651.4754, 17091.98
651.9575, 17056.86
652.4396, 17016.39
652.9218, 16977.02
653.4039, 16934.48
653.8860, 16898.26
654.3681, 16889.88
654.8502, 16919.66
655.3323, 16963.42
655.8145, 16995.38
656.2966, 17014.38
656.7787, 17001.42
657.2608, 16944.80
657.7429, 16904.70
658.2250, 16926.02
658.7072, 16977.94
659.1893, 16982.15
659.6714, 16915.82
660.1535, 16868.06
660.6356, 16850.33
661.1177, 16849.83
661.5999, 16872.13
662.0820, 16902.48
662.5641, 16915.21
663.0462, 16900.29
663.5283, 16874.61
664.0104, 16849.42
664.4926, 16828.66
664.9747, 16836.74
665.4568, 16878.61
665.9389, 16904.88
666.4210, 16884.88
666.9031, 16842.29
667.3853, 16825.19
667.8674, 16848.86
668.3495, 16858.05
668.8316, 16842.01
669.3137, 16823.59
669.7958, 16809.75
670.2780, 16801.43
670.7601, 16803.16
671.2422, 16815.83
671.7243, 16820.99
672.2064, 16794.96
672.6885, 16752.21
673.1707, 16721.83
673.6528, 16705.12
674.1349, 16704.53
674.6170, 16722.65
675.0991, 16752.60
675.5812, 16785.89
676.0634, 16828.36
676.5455, 16846.56
677.0276, 16824.28
677.5097, 16796.32
677.9918, 16761.15
678.4739, 16730.39
678.9561, 16715.53
679.4382, 16718.45
679.9203, 16735.63
680.4024, 16782.58
680.8845, 16830.49
681.3666, 16831.03
681.8488, 16799.02
682.3309, 16797.01
682.8130, 16846.44
683.2951, 16901.66
683.7772, 16906.06
684.2593, 16859.63
684.7415, 16825.37
685.2236, 16803.85
685.7057, 16794.03
686.1878, 16800.56
