##NAMES=Tainiolite
##RRUFFID=R061070
##IDEAL CHEMISTRY=KLiMg_2_Si_4_O_10_F_2_
##LOCALITY=Mont Saint-Hilaire, Quebec, Canada
##OWNER=RRUFF
##SOURCE=Bob Downs
##DESCRIPTION=Brown hexagonal prism
##STATUS=The identification of this mineral has been made only by X-ray diffraction.
##URL=rruff.info/R061070
146.1530, 18163.58
146.6352, 18230.58
147.1173, 18401.16
147.5994, 18548.87
148.0815, 18646.71
148.5636, 18686.25
149.0457, 18736.11
149.5279, 18808.23
150.0100, 18884.35
150.4921, 18941.89
150.9742, 18960.33
151.4563, 18978.62
151.9384, 19006.04
152.4206, 19048.23
152.9027, 19082.28
153.3848, 19099.47
153.8669, 19107.79
154.3490, 19121.40
154.8311, 19163.11
155.3133, 19194.32
155.7954, 19196.94
156.2775, 19142.43
156.7596, 19104.37
157.2417, 19096.30
157.7238, 19115.96
158.2060, 19155.94
158.6881, 19239.62
159.1702, 19327.58
159.6523, 19396.85
160.1344, 19433.02
160.6165, 19458.83
161.0986, 19478.94
161.5808, 19494.00
162.0629, 19507.90
162.5450, 19508.59
163.0271, 19514.35
163.5092, 19542.26
163.9913, 19626.32
164.4735, 19710.83
164.9556, 19762.06
165.4377, 19778.12
165.9198, 19795.24
166.4019, 19852.20
166.8840, 19918.82
167.3662, 19953.41
167.8483, 19904.76
168.3304, 19837.52
168.8125, 19802.35
169.2946, 19806.75
169.7767, 19821.49
170.2589, 19827.54
170.7410, 19827.90
171.2231, 19829.53
171.7052, 19836.18
172.1873, 19845.82
172.6694, 19856.62
173.1516, 19869.06
173.6337, 19881.27
174.1158, 19891.89
174.5979, 19901.11
175.0800, 19909.29
175.5621, 19910.36
176.0443, 19912.15
176.5264, 19930.58
177.0085, 19980.65
177.4906, 20032.09
177.9727, 20041.14
178.4548, 20011.77
178.9370, 19976.26
179.4191, 19949.61
179.9012, 19934.81
180.3833, 19941.18
180.8654, 19981.08
181.3475, 20036.58
181.8297, 20076.02
182.3118, 20099.51
182.7939, 20116.63
183.2760, 20138.23
183.7581, 20161.40
184.2402, 20176.91
184.7224, 20181.27
185.2045, 20175.36
185.6866, 20157.21
186.1687, 20124.66
186.6508, 20093.13
187.1329, 20081.01
187.6151, 20086.98
188.0972, 20097.80
188.5793, 20111.52
189.0614, 20126.75
189.5435, 20135.72
190.0257, 20137.77
190.5078, 20136.68
190.9899, 20135.77
191.4720, 20135.38
191.9541, 20140.33
192.4362, 20161.57
192.9183, 20195.90
193.4005, 20202.74
193.8826, 20170.23
194.3647, 20126.04
194.8468, 20131.76
195.3289, 20192.41
195.8110, 20248.33
196.2932, 20258.47
196.7753, 20222.42
197.2574, 20190.20
197.7395, 20162.15
198.2216, 20143.33
198.7037, 20156.58
199.1859, 20210.61
199.6680, 20256.36
200.1501, 20252.69
200.6322, 20194.44
201.1143, 20149.84
201.5964, 20127.91
202.0786, 20126.98
202.5607, 20145.22
203.0428, 20189.67
203.5249, 20234.31
204.0070, 20259.04
204.4891, 20263.44
204.9713, 20254.65
205.4534, 20228.42
205.9355, 20189.13
206.4176, 20167.02
206.8997, 20163.56
207.3818, 20174.45
207.8640, 20197.86
208.3461, 20236.71
208.8282, 20275.84
209.3103, 20311.29
209.7924, 20343.02
210.2745, 20377.06
210.7567, 20414.90
211.2388, 20451.95
211.7209, 20481.13
212.2030, 20498.73
212.6851, 20518.41
213.1672, 20542.94
213.6494, 20572.22
214.1315, 20605.15
214.6136, 20642.09
215.0957, 20681.79
215.5778, 20723.63
216.0599, 20767.79
216.5421, 20812.93
217.0242, 20861.94
217.5063, 20918.71
217.9884, 20957.14
218.4705, 20972.36
218.9526, 20974.28
219.4348, 20978.47
219.9169, 20985.21
220.3990, 20994.92
220.8811, 21009.31
221.3632, 21031.81
221.8453, 21047.81
222.3274, 21055.65
222.8096, 21058.49
223.2917, 21060.70
223.7738, 21055.84
224.2559, 21061.85
224.7380, 21091.32
225.2201, 21164.89
225.7023, 21203.27
226.1844, 21191.76
226.6665, 21149.83
227.1486, 21125.33
227.6307, 21124.48
228.1128, 21130.75
228.5950, 21139.10
229.0771, 21157.11
229.5592, 21157.20
230.0413, 21129.86
230.5234, 21085.70
231.0055, 21057.12
231.4877, 21053.81
231.9698, 21053.04
232.4519, 21041.30
232.9340, 21004.33
233.4161, 20990.11
233.8982, 21012.22
234.3804, 21059.52
234.8625, 21084.17
235.3446, 21074.52
235.8267, 21059.16
236.3088, 21053.58
236.7909, 21060.24
237.2731, 21072.16
237.7552, 21085.31
238.2373, 21102.81
238.7194, 21143.58
239.2015, 21228.57
239.6836, 21309.60
240.1658, 21350.00
240.6479, 21312.29
241.1300, 21310.75
241.6121, 21372.49
242.0942, 21483.31
242.5763, 21550.38
243.0585, 21553.50
243.5406, 21535.58
244.0227, 21525.18
244.5048, 21529.78
244.9869, 21525.62
245.4690, 21503.31
245.9512, 21467.55
246.4333, 21457.75
246.9154, 21489.21
247.3975, 21530.41
247.8796, 21560.20
248.3617, 21576.90
248.8439, 21587.62
249.3260, 21592.70
249.8081, 21592.76
250.2902, 21590.62
250.7723, 21581.51
251.2544, 21575.69
251.7366, 21581.26
252.2187, 21601.47
252.7008, 21624.17
253.1829, 21647.57
253.6650, 21671.19
254.1471, 21695.24
254.6292, 21722.02
255.1114, 21745.01
255.5935, 21756.54
256.0756, 21747.57
256.5577, 21748.71
257.0398, 21770.03
257.5219, 21809.19
258.0041, 21831.40
258.4862, 21834.61
258.9683, 21825.07
259.4504, 21801.91
259.9325, 21749.49
260.4146, 21729.59
260.8968, 21769.80
261.3789, 21861.79
261.8610, 21891.61
262.3431, 21831.81
262.8252, 21752.47
263.3073, 21716.65
263.7895, 21737.97
264.2716, 21761.65
264.7537, 21776.16
265.2358, 21783.43
265.7179, 21807.32
266.2000, 21856.11
266.6822, 21906.49
267.1643, 21938.52
267.6464, 21948.42
268.1285, 21949.51
268.6106, 21934.81
269.0927, 21909.82
269.5749, 21930.15
270.0570, 22014.54
270.5391, 22104.41
271.0212, 22141.19
271.5033, 22109.08
271.9854, 22094.09
272.4676, 22115.27
272.9497, 22167.40
273.4318, 22220.38
273.9139, 22276.41
274.3960, 22326.59
274.8781, 22362.23
275.3603, 22382.47
275.8424, 22392.80
276.3245, 22391.83
276.8066, 22381.82
277.2887, 22372.82
277.7708, 22363.86
278.2530, 22360.18
278.7351, 22369.59
279.2172, 22393.65
279.6993, 22413.56
280.1814, 22424.27
280.6635, 22429.41
281.1457, 22444.58
281.6278, 22472.65
282.1099, 22498.96
282.5920, 22507.50
283.0741, 22498.40
283.5562, 22495.35
284.0384, 22502.25
284.5205, 22518.57
285.0026, 22545.79
285.4847, 22584.67
285.9668, 22622.86
286.4489, 22645.23
286.9311, 22653.65
287.4132, 22673.70
287.8953, 22714.87
288.3774, 22765.75
288.8595, 22796.31
289.3416, 22806.08
289.8238, 22811.35
290.3059, 22835.25
290.7880, 22869.79
291.2701, 22867.31
291.7522, 22801.55
292.2343, 22716.51
292.7165, 22704.83
293.1986, 22763.65
293.6807, 22827.68
294.1628, 22841.45
294.6449, 22821.54
295.1270, 22822.55
295.6092, 22865.50
296.0913, 22914.38
296.5734, 22898.69
297.0555, 22827.33
297.5376, 22770.99
298.0197, 22792.11
298.5019, 22860.60
298.9839, 22913.39
299.4661, 22938.65
299.9482, 22949.05
300.4303, 22954.67
300.9124, 22957.17
301.3945, 22964.51
301.8766, 22991.84
302.3588, 23024.27
302.8409, 23035.78
303.3230, 23017.36
303.8051, 22992.85
304.2872, 22981.14
304.7693, 22981.69
305.2515, 22992.41
305.7336, 23025.82
306.2157, 23062.91
306.6978, 23079.97
307.1799, 23070.67
307.6620, 23054.59
308.1442, 23041.75
308.6263, 23033.93
309.1084, 23034.37
309.5905, 23051.83
310.0726, 23074.37
310.5547, 23090.45
311.0369, 23096.63
311.5190, 23108.69
312.0011, 23143.30
312.4832, 23189.95
312.9653, 23230.16
313.4474, 23252.74
313.9296, 23269.36
314.4117, 23287.03
314.8938, 23306.62
315.3759, 23321.82
315.8580, 23321.79
316.3401, 23317.17
316.8223, 23321.71
317.3044, 23350.34
317.7865, 23379.54
318.2686, 23397.69
318.7507, 23403.28
319.2328, 23410.26
319.7150, 23422.29
320.1971, 23438.15
320.6792, 23456.72
321.1613, 23482.15
321.6434, 23506.21
322.1255, 23523.34
322.6077, 23533.72
323.0898, 23554.30
323.5719, 23597.94
324.0540, 23647.84
324.5361, 23691.45
325.0182, 23741.06
325.5004, 23768.54
325.9825, 23751.61
326.4646, 23694.74
326.9467, 23671.92
327.4288, 23725.47
327.9109, 23787.41
328.3931, 23818.06
328.8752, 23804.40
329.3573, 23776.77
329.8394, 23723.57
330.3215, 23653.86
330.8036, 23614.14
331.2858, 23626.50
331.7679, 23645.71
332.2500, 23648.79
332.7321, 23625.70
333.2142, 23606.62
333.6964, 23593.54
334.1785, 23584.51
334.6606, 23570.97
335.1427, 23540.47
335.6248, 23527.38
336.1069, 23555.82
336.5891, 23647.57
337.0712, 23697.37
337.5533, 23688.89
338.0354, 23653.46
338.5175, 23655.54
338.9996, 23708.17
339.4818, 23749.05
339.9639, 23746.28
340.4460, 23697.52
340.9281, 23662.67
341.4102, 23639.42
341.8923, 23636.36
342.3745, 23682.26
342.8566, 23780.62
343.3387, 23849.26
343.8208, 23843.11
344.3029, 23778.34
344.7850, 23741.33
345.2672, 23732.37
345.7493, 23749.13
346.2314, 23806.61
346.7135, 23896.42
347.1956, 23960.64
347.6777, 23968.53
348.1599, 23945.89
348.6420, 23952.58
349.1241, 23987.71
349.6062, 24024.01
350.0883, 24040.14
350.5704, 24039.99
351.0526, 24030.33
351.5347, 24003.50
352.0168, 23981.10
352.4989, 24002.06
352.9810, 24058.07
353.4631, 24106.05
353.9453, 24101.73
354.4274, 24078.11
354.9095, 24081.52
355.3916, 24132.04
355.8737, 24186.36
356.3558, 24201.25
356.8380, 24191.38
357.3201, 24196.56
357.8022, 24251.25
358.2843, 24319.99
358.7664, 24378.12
359.2485, 24423.49
359.7307, 24451.80
360.2128, 24443.05
360.6949, 24418.08
361.1770, 24410.34
361.6591, 24445.64
362.1412, 24488.13
362.6233, 24521.59
363.1054, 24543.49
363.5876, 24564.79
364.0697, 24596.84
364.5518, 24626.08
365.0339, 24638.67
365.5160, 24608.62
365.9981, 24586.02
366.4803, 24583.86
366.9624, 24602.24
367.4445, 24623.64
367.9266, 24661.83
368.4087, 24693.34
368.8908, 24702.32
369.3730, 24664.55
369.8551, 24638.09
370.3372, 24630.54
370.8193, 24638.40
371.3014, 24645.22
371.7835, 24656.18
372.2657, 24660.23
372.7478, 24647.32
373.2299, 24600.85
373.7120, 24587.09
374.1941, 24627.55
374.6762, 24688.50
375.1584, 24688.29
375.6405, 24600.82
376.1226, 24530.42
376.6047, 24529.27
377.0868, 24602.26
377.5689, 24650.88
378.0511, 24671.64
378.5332, 24676.00
379.0153, 24674.42
379.4974, 24666.61
379.9795, 24666.27
380.4616, 24675.92
380.9438, 24696.78
381.4259, 24736.19
381.9080, 24795.55
382.3901, 24859.67
382.8722, 24926.11
383.3543, 24987.96
383.8365, 25017.00
384.3186, 24989.57
384.8007, 24944.56
385.2828, 24946.64
385.7649, 24989.59
386.2470, 25029.64
386.7292, 25029.67
387.2113, 25010.44
387.6934, 25002.02
388.1755, 25009.69
388.6576, 25029.40
389.1397, 25071.41
389.6219, 25123.61
390.1040, 25158.25
390.5861, 25139.73
391.0682, 25112.74
391.5503, 25114.68
392.0324, 25154.34
392.5146, 25188.59
392.9967, 25187.22
393.4788, 25170.95
393.9609, 25165.18
394.4430, 25195.92
394.9251, 25220.66
395.4073, 25214.17
395.8894, 25176.51
396.3715, 25161.43
396.8536, 25216.32
397.3357, 25276.20
397.8178, 25296.14
398.3000, 25214.40
398.7821, 25161.27
399.2642, 25160.45
399.7463, 25199.03
400.2284, 25223.75
400.7105, 25219.92
401.1927, 25219.17
401.6748, 25238.17
402.1569, 25293.90
402.6390, 25326.54
403.1211, 25329.11
403.6032, 25313.71
404.0854, 25298.88
404.5675, 25280.82
405.0496, 25274.15
405.5317, 25284.39
406.0138, 25311.33
406.4959, 25347.76
406.9781, 25395.03
407.4602, 25447.59
407.9423, 25509.77
408.4244, 25580.54
408.9065, 25611.81
409.3886, 25572.19
409.8708, 25497.75
410.3529, 25489.28
410.8350, 25544.67
411.3171, 25598.96
411.7992, 25594.72
412.2813, 25552.10
412.7635, 25520.45
413.2456, 25509.27
413.7277, 25507.10
414.2098, 25502.05
414.6919, 25496.21
415.1740, 25494.82
415.6562, 25511.41
416.1383, 25528.87
416.6204, 25526.64
417.1025, 25501.66
417.5846, 25480.31
418.0667, 25470.17
418.5489, 25475.99
419.0310, 25503.62
419.5131, 25590.03
419.9952, 25665.42
420.4773, 25688.55
420.9594, 25664.87
421.4416, 25659.73
421.9237, 25710.80
422.4058, 25771.33
422.8879, 25813.16
423.3700, 25819.26
423.8521, 25822.01
424.3342, 25817.74
424.8163, 25811.01
425.2985, 25813.81
425.7806, 25836.37
426.2627, 25855.82
426.7448, 25863.67
427.2269, 25856.41
427.7090, 25855.53
428.1912, 25863.72
428.6733, 25876.75
429.1554, 25892.95
429.6375, 25918.24
430.1196, 25925.11
430.6017, 25898.58
431.0839, 25849.30
431.5660, 25837.06
432.0481, 25867.77
432.5302, 25904.91
433.0123, 25921.45
433.4944, 25919.42
433.9766, 25907.41
434.4587, 25880.70
434.9408, 25857.46
435.4229, 25869.93
435.9050, 25913.15
436.3871, 25961.89
436.8693, 26006.79
437.3514, 26046.13
437.8335, 26071.82
438.3156, 26081.80
438.7977, 26098.28
439.2798, 26160.13
439.7620, 26234.90
440.2441, 26274.98
440.7262, 26223.39
441.2083, 26165.96
441.6904, 26151.78
442.1725, 26174.95
442.6547, 26206.23
443.1368, 26240.54
443.6189, 26273.81
444.1010, 26303.55
444.5831, 26328.50
445.0652, 26351.46
445.5474, 26387.37
446.0295, 26420.23
446.5116, 26420.56
446.9937, 26330.81
447.4758, 26267.59
447.9579, 26269.97
448.4401, 26348.67
448.9222, 26400.04
449.4043, 26412.98
449.8864, 26413.01
450.3685, 26426.14
450.8506, 26464.53
451.3328, 26474.45
451.8149, 26435.15
452.2970, 26368.01
452.7791, 26347.22
453.2612, 26375.87
453.7433, 26424.17
454.2255, 26485.77
454.7076, 26556.34
455.1897, 26596.28
455.6718, 26599.63
456.1539, 26588.33
456.6360, 26585.25
457.1182, 26589.84
457.6003, 26601.02
458.0824, 26630.01
458.5645, 26658.28
459.0466, 26653.16
459.5287, 26618.47
460.0109, 26588.60
460.4930, 26591.09
460.9751, 26609.86
461.4572, 26627.87
461.9393, 26641.62
462.4214, 26654.85
462.9036, 26675.11
463.3857, 26696.17
463.8678, 26705.36
464.3499, 26677.97
464.8320, 26655.53
465.3141, 26661.49
465.7963, 26704.51
466.2784, 26726.58
466.7605, 26692.06
467.2426, 26649.37
467.7247, 26638.45
468.2068, 26676.40
468.6890, 26721.03
469.1711, 26776.86
469.6532, 26836.73
470.1353, 26872.15
470.6174, 26879.74
471.0995, 26872.16
471.5817, 26844.81
472.0638, 26791.58
472.5459, 26791.18
473.0280, 26858.37
473.5101, 26940.26
473.9922, 26961.07
474.4744, 26925.73
474.9565, 26895.90
475.4386, 26890.36
475.9207, 26902.53
476.4028, 26922.37
476.8849, 26948.96
477.3671, 26976.77
477.8492, 26993.32
478.3313, 27010.82
478.8134, 27053.43
479.2955, 27135.52
479.7776, 27208.57
480.2598, 27231.06
480.7419, 27219.44
481.2240, 27202.19
481.7061, 27170.14
482.1882, 27153.40
482.6703, 27180.85
483.1525, 27252.69
483.6346, 27296.62
484.1167, 27260.48
484.5988, 27212.09
485.0809, 27196.11
485.5630, 27250.15
486.0451, 27294.42
486.5273, 27325.97
487.0094, 27348.34
487.4915, 27371.42
487.9736, 27404.18
488.4557, 27420.95
488.9378, 27406.50
489.4200, 27359.24
489.9021, 27337.89
490.3842, 27346.23
490.8663, 27368.53
491.3484, 27391.02
491.8305, 27413.66
492.3127, 27436.04
492.7948, 27457.54
493.2769, 27479.18
493.7590, 27509.88
494.2411, 27546.37
494.7232, 27567.99
495.2054, 27550.05
495.6875, 27515.71
496.1696, 27494.40
496.6517, 27487.98
497.1338, 27500.32
497.6159, 27561.23
498.0981, 27633.95
498.5802, 27673.77
499.0623, 27622.77
499.5444, 27582.31
500.0265, 27616.38
500.5086, 27699.17
500.9908, 27744.39
501.4729, 27688.16
501.9550, 27625.20
502.4371, 27591.20
502.9192, 27587.84
503.4013, 27615.65
503.8835, 27708.69
504.3656, 27807.46
504.8477, 27845.06
505.3298, 27790.70
505.8119, 27756.09
506.2940, 27770.70
506.7762, 27816.71
507.2583, 27819.74
507.7404, 27773.19
508.2225, 27726.13
508.7046, 27705.92
509.1867, 27710.34
509.6689, 27725.30
510.1510, 27752.21
510.6331, 27780.30
511.1152, 27794.01
511.5973, 27798.94
512.0795, 27809.82
512.5616, 27832.67
513.0437, 27861.69
513.5258, 27894.94
514.0079, 27930.23
514.4901, 27959.90
514.9722, 27980.98
515.4542, 27993.81
515.9363, 27997.34
516.4185, 27989.87
516.9006, 27980.13
517.3827, 27944.64
517.8648, 27919.13
518.3469, 27942.93
518.8290, 28104.45
519.3112, 28217.25
519.7933, 28232.07
520.2754, 28174.37
520.7575, 28174.51
521.2396, 28267.47
521.7217, 28352.67
522.2039, 28371.78
522.6860, 28312.83
523.1681, 28282.93
523.6502, 28283.76
524.1323, 28305.84
524.6144, 28347.49
525.0966, 28404.46
525.5787, 28445.48
526.0608, 28461.35
526.5429, 28456.56
527.0250, 28434.23
527.5071, 28396.82
527.9893, 28355.51
528.4714, 28307.84
528.9535, 28266.34
529.4356, 28246.46
529.9177, 28252.56
530.3998, 28264.21
530.8820, 28276.66
531.3641, 28287.84
531.8462, 28295.71
532.3283, 28304.04
532.8104, 28305.29
533.2925, 28288.95
533.7747, 28262.18
534.2568, 28253.21
534.7389, 28276.26
535.2210, 28299.21
535.7031, 28308.66
536.1852, 28300.76
536.6674, 28301.13
537.1495, 28308.47
537.6316, 28324.92
538.1137, 28358.01
538.5958, 28408.88
539.0779, 28446.78
539.5601, 28460.81
540.0422, 28468.72
540.5243, 28510.31
541.0064, 28580.72
541.4885, 28643.85
541.9706, 28685.41
542.4528, 28706.37
542.9349, 28692.65
543.4170, 28645.39
543.8991, 28621.42
544.3812, 28686.75
544.8633, 28780.56
545.3455, 28838.79
545.8276, 28824.25
546.3097, 28809.62
546.7918, 28822.45
547.2739, 28850.53
547.7560, 28871.14
548.2382, 28871.63
548.7203, 28873.89
549.2024, 28882.27
549.6845, 28896.77
550.1666, 28917.29
550.6487, 28949.50
551.1309, 28979.53
551.6130, 29001.02
552.0951, 29015.40
552.5772, 29011.68
553.0593, 28984.22
553.5414, 28953.17
554.0236, 28958.06
554.5057, 28992.52
554.9878, 29004.04
555.4699, 28958.28
555.9520, 28894.01
556.4341, 28863.22
556.9163, 28864.37
557.3984, 28889.27
557.8805, 28960.61
558.3626, 29037.27
558.8447, 29073.51
559.3268, 29056.44
559.8090, 29048.03
560.2911, 29079.80
560.7732, 29129.45
561.2553, 29173.70
561.7374, 29215.90
562.2195, 29242.96
562.7017, 29241.09
563.1838, 29222.87
563.6659, 29227.92
564.1480, 29271.46
564.6301, 29308.56
565.1122, 29318.08
565.5944, 29300.11
566.0765, 29301.39
566.5586, 29324.86
567.0407, 29354.99
567.5228, 29382.94
568.0049, 29407.50
568.4871, 29420.75
568.9692, 29420.69
569.4513, 29413.29
569.9334, 29404.19
570.4155, 29393.73
570.8976, 29382.07
571.3798, 29356.50
571.8619, 29340.52
572.3440, 29358.47
572.8261, 29405.73
573.3082, 29446.49
573.7903, 29467.64
574.2725, 29478.78
574.7546, 29482.87
575.2367, 29471.89
575.7188, 29475.42
576.2009, 29509.30
576.6830, 29546.51
577.1652, 29553.51
577.6473, 29512.67
578.1294, 29492.84
578.6115, 29512.45
579.0936, 29554.35
579.5757, 29566.83
580.0579, 29547.79
580.5400, 29539.31
581.0221, 29572.48
581.5042, 29630.89
581.9863, 29672.65
582.4684, 29696.76
582.9506, 29713.66
583.4327, 29736.49
583.9148, 29755.08
584.3969, 29753.53
584.8790, 29719.58
585.3611, 29689.26
585.8433, 29680.55
586.3254, 29688.06
586.8075, 29703.19
587.2896, 29747.80
587.7717, 29774.88
588.2538, 29758.14
588.7360, 29708.49
589.2181, 29693.50
589.7002, 29736.62
590.1823, 29776.51
590.6644, 29775.48
591.1465, 29726.43
591.6287, 29724.17
592.1108, 29778.69
592.5929, 29842.17
593.0750, 29856.91
593.5571, 29832.25
594.0392, 29822.49
594.5214, 29844.13
595.0035, 29870.63
595.4856, 29868.30
595.9677, 29845.62
596.4498, 29823.72
596.9319, 29821.38
597.4141, 29817.11
597.8962, 29799.25
598.3783, 29768.45
598.8604, 29728.44
599.3425, 29654.80
599.8246, 29594.22
600.3068, 29574.95
600.7889, 29612.65
601.2710, 29653.35
601.7531, 29708.66
602.2352, 29756.17
602.7173, 29768.33
603.1995, 29735.73
603.6816, 29714.49
604.1637, 29715.16
604.6458, 29728.82
605.1279, 29734.25
605.6100, 29732.65
606.0922, 29739.65
606.5743, 29775.68
607.0564, 29818.14
607.5385, 29827.80
608.0206, 29807.39
608.5027, 29788.33
608.9849, 29779.36
609.4670, 29786.60
609.9491, 29821.39
610.4312, 29897.79
610.9133, 29957.97
611.3954, 29987.14
611.8776, 29991.82
612.3597, 29976.93
612.8418, 29917.87
613.3239, 29881.00
613.8060, 29880.73
614.2881, 29904.06
614.7703, 29916.42
615.2524, 29915.70
615.7345, 29920.04
616.2166, 29942.54
616.6987, 29976.08
617.1808, 29987.81
617.6630, 29978.61
618.1451, 29969.60
618.6272, 29973.08
619.1093, 29988.26
619.5914, 30017.58
620.0735, 30063.90
620.5557, 30106.24
621.0378, 30134.14
621.5199, 30148.33
622.0020, 30149.97
622.4841, 30104.46
622.9662, 30085.04
623.4484, 30115.66
623.9305, 30179.16
624.4126, 30238.89
624.8947, 30305.73
625.3768, 30346.30
625.8589, 30342.09
626.3411, 30301.48
626.8232, 30291.20
627.3053, 30316.68
627.7874, 30340.97
628.2695, 30336.23
628.7516, 30311.44
629.2338, 30299.47
629.7159, 30305.40
630.1980, 30304.83
630.6801, 30271.00
631.1622, 30221.07
631.6443, 30179.58
632.1265, 30163.41
632.6086, 30140.17
633.0907, 30085.88
633.5728, 30017.13
634.0549, 29961.56
634.5370, 29931.30
635.0192, 29906.65
635.5013, 29889.11
635.9834, 29874.08
636.4655, 29834.24
636.9476, 29750.77
637.4297, 29682.28
637.9119, 29659.72
638.3939, 29678.46
638.8760, 29685.86
639.3582, 29678.29
639.8403, 29682.93
640.3224, 29732.19
640.8045, 29809.16
641.2866, 29886.18
641.7687, 29961.16
642.2509, 30018.44
642.7330, 30020.44
643.2151, 30003.72
643.6972, 30018.35
644.1793, 30122.50
644.6614, 30212.98
645.1436, 30261.77
