##NAMES=Takeuchiite
##RRUFFID=R100047
##IDEAL CHEMISTRY=Mg_2_Mn^3+^O_2_BO_3_
##LOCALITY=Langban, Filipstad, Varmland, Sweden
##OWNER=RRUFF
##SOURCE=William W Pinch (Large sample), Don Doell (Small sample)
##DESCRIPTION=Black thin blades embedded in calcite
##STATUS=The identification of this mineral has been confirmed by single-crystal X-ray diffraction.
##URL=rruff.info/R100047
91.53320, 208.5524
92.01532, 211.3511
92.49744, 211.8454
92.97955, 212.0300
93.46167, 210.4094
93.94379, 207.3572
94.42590, 204.3930
94.90802, 201.4008
95.39014, 197.7510
95.87225, 193.4152
96.35437, 188.7650
96.83649, 183.4445
97.31860, 178.2456
97.80072, 174.1133
98.28284, 171.5385
98.76495, 169.9828
99.24707, 167.7047
99.72919, 163.9729
100.2113, 160.3867
100.6934, 157.0969
101.1755, 154.1910
101.6577, 151.8349
102.1398, 150.1935
102.6219, 149.4068
103.1040, 148.5664
103.5861, 147.5572
104.0682, 146.5671
104.5504, 145.7567
105.0325, 145.1228
105.5146, 144.4549
105.9967, 143.4281
106.4788, 141.8505
106.9609, 140.3463
107.4431, 139.0161
107.9252, 137.7451
108.4073, 136.3830
108.8894, 134.8696
109.3715, 133.2540
109.8536, 131.6014
110.3358, 129.8550
110.8179, 128.2228
111.3000, 126.5145
111.7821, 124.8170
112.2642, 124.0711
112.7463, 125.4385
113.2285, 127.4989
113.7106, 128.8499
114.1927, 129.1877
114.6748, 128.9709
115.1569, 128.7862
115.6390, 128.6544
116.1212, 128.4921
116.6033, 128.5908
117.0854, 128.5431
117.5675, 127.8256
118.0496, 126.0893
118.5317, 123.6190
119.0139, 121.7958
119.4960, 120.9028
119.9781, 120.4708
120.4602, 120.5019
120.9423, 120.9231
121.4244, 121.7373
121.9066, 123.0511
122.3887, 124.9846
122.8708, 125.6011
123.3529, 124.0770
123.8350, 122.3110
124.3171, 121.0205
124.7993, 120.3046
125.2814, 120.0666
125.7635, 120.3608
126.2456, 121.3921
126.7277, 121.6074
127.2098, 120.2829
127.6920, 118.4441
128.1741, 117.0982
128.6562, 116.4458
129.1383, 116.2915
129.6204, 116.8951
130.1025, 118.1880
130.5847, 118.5855
131.0668, 116.6167
131.5489, 113.0612
132.0310, 110.7281
132.5131, 110.8123
132.9952, 111.6829
133.4774, 111.9041
133.9595, 111.4457
134.4416, 110.7573
134.9237, 110.2932
135.4058, 110.1294
135.8879, 109.6463
136.3701, 108.2259
136.8522, 106.7706
137.3343, 105.8100
137.8164, 105.4694
138.2985, 105.5086
138.7806, 105.6142
139.2628, 106.2305
139.7449, 106.0071
140.2270, 104.2163
140.7091, 101.9610
141.1912, 100.1888
141.6733, 99.33466
142.1555, 99.20283
142.6376, 99.14812
143.1197, 99.72576
143.6018, 99.74851
144.0839, 98.52097
144.5660, 96.71195
145.0482, 95.43774
145.5303, 95.42022
146.0124, 96.43484
146.4945, 96.77253
146.9766, 95.68644
147.4587, 94.80869
147.9409, 95.18190
148.4230, 96.52673
148.9051, 97.49350
149.3872, 97.00288
149.8693, 95.26554
150.3514, 94.01413
150.8336, 93.48800
151.3157, 93.32669
151.7978, 93.33242
152.2799, 93.54478
152.7620, 93.60049
153.2441, 92.93464
153.7263, 91.92636
154.2084, 91.22413
154.6905, 91.26970
155.1726, 91.73877
155.6547, 91.90983
156.1368, 91.67769
156.6190, 91.31277
157.1011, 90.87381
157.5832, 90.42699
158.0653, 90.10974
158.5474, 90.11445
159.0295, 90.39747
159.5117, 90.36376
159.9938, 89.58362
160.4759, 88.89421
160.9580, 88.64534
161.4401, 88.75130
161.9222, 88.95827
162.4044, 89.10652
162.8865, 89.26530
163.3686, 88.91756
163.8507, 87.22737
164.3328, 85.77341
164.8149, 85.42658
165.2971, 86.11770
165.7792, 87.11161
166.2613, 87.53350
166.7434, 87.06175
167.2255, 86.93497
167.7076, 87.65666
168.1898, 88.33701
168.6719, 88.20639
169.1540, 87.15682
169.6361, 85.83027
170.1182, 85.13527
170.6003, 85.37919
171.0825, 85.53802
171.5646, 85.61179
172.0467, 85.56414
172.5288, 85.26076
173.0109, 84.62356
173.4930, 83.96313
173.9752, 83.98022
174.4573, 84.83636
174.9394, 85.21181
175.4215, 84.22242
175.9036, 82.47761
176.3857, 81.36441
176.8679, 81.36326
177.3500, 82.01899
177.8321, 82.88750
178.3142, 84.06100
178.7963, 84.71455
179.2784, 83.87470
179.7606, 81.77953
180.2427, 80.48210
180.7248, 81.13833
181.2069, 82.29154
181.6890, 82.58297
182.1711, 81.88797
182.6533, 81.02709
183.1354, 80.88383
183.6175, 81.58248
184.0996, 82.01425
184.5817, 81.74392
185.0638, 81.22823
185.5460, 80.63457
186.0281, 80.01017
186.5102, 79.44950
186.9923, 79.16366
187.4744, 79.39070
187.9565, 79.23757
188.4387, 77.77930
188.9208, 76.43137
189.4029, 76.49606
189.8850, 78.30396
190.3671, 80.81358
190.8492, 82.01033
191.3314, 80.80177
191.8135, 79.96042
192.2956, 79.96828
192.7777, 80.22047
193.2598, 80.14719
193.7419, 79.53105
194.2241, 78.61131
194.7062, 77.96418
195.1883, 77.62155
195.6704, 77.57039
196.1525, 78.05927
196.6346, 78.76004
197.1168, 79.37160
197.5989, 79.77590
198.0810, 79.89664
198.5631, 79.45611
199.0452, 77.54192
199.5273, 76.29385
200.0095, 76.59526
200.4916, 77.71037
200.9737, 78.39646
201.4558, 78.04696
201.9379, 77.04638
202.4200, 76.51172
202.9022, 76.66254
203.3843, 76.78527
203.8664, 76.45179
204.3485, 75.87113
204.8306, 75.66434
205.3127, 76.20710
205.7949, 77.17319
206.2770, 77.83336
206.7591, 78.16106
207.2412, 78.29692
207.7233, 78.32056
208.2054, 78.22427
208.6876, 77.91634
209.1697, 77.13161
209.6518, 76.29806
210.1339, 76.06030
210.6160, 76.59647
211.0981, 77.28689
211.5803, 77.70159
212.0624, 77.84068
212.5445, 77.73161
213.0266, 76.98701
213.5087, 76.25069
213.9908, 76.26074
214.4730, 77.24023
214.9551, 78.33115
215.4372, 78.46284
215.9193, 77.44955
216.4014, 76.64019
216.8836, 76.76429
217.3657, 77.03967
217.8478, 76.89560
218.3299, 76.18984
218.8120, 75.30986
219.2941, 74.74730
219.7763, 74.51660
220.2584, 74.57688
220.7405, 75.32344
221.2226, 76.09265
221.7047, 76.30721
222.1868, 75.83436
222.6690, 75.17338
223.1511, 75.23447
223.6332, 76.64165
224.1153, 77.31751
224.5974, 76.51785
225.0795, 75.38570
225.5617, 74.76720
226.0438, 74.88982
226.5259, 75.35722
227.0080, 75.42683
227.4901, 74.54211
227.9722, 74.31733
228.4544, 75.50051
228.9365, 76.84637
229.4186, 77.31031
229.9007, 76.63078
230.3828, 75.36604
230.8649, 74.46390
231.3471, 73.95295
231.8292, 73.83714
232.3113, 74.49364
232.7934, 75.28967
233.2755, 75.67746
233.7576, 75.51468
234.2398, 75.08279
234.7219, 74.84238
235.2040, 74.89098
235.6861, 74.98685
236.1682, 75.14866
236.6503, 75.34563
237.1325, 75.60482
237.6146, 75.92197
238.0967, 76.15611
238.5788, 76.04176
239.0609, 75.20634
239.5430, 74.94065
240.0252, 75.96946
240.5073, 77.25378
240.9894, 77.60567
241.4715, 76.74839
241.9536, 75.55699
242.4357, 75.25751
242.9179, 76.12669
243.4000, 76.66753
243.8821, 76.42173
244.3642, 75.92880
244.8463, 75.91839
245.3284, 76.56615
245.8106, 77.13226
246.2927, 76.44154
246.7748, 74.40625
247.2569, 73.31998
247.7390, 74.44401
248.2211, 76.29287
248.7033, 76.92107
249.1854, 75.92349
249.6675, 74.64745
250.1496, 74.71127
250.6317, 75.86217
251.1138, 76.28951
251.5960, 74.74890
252.0781, 72.65063
252.5602, 72.01240
253.0423, 73.22096
253.5244, 74.70206
254.0065, 74.91650
254.4887, 74.29331
254.9708, 73.99781
255.4529, 74.68230
255.9350, 75.70984
256.4171, 76.15405
256.8992, 75.89976
257.3813, 75.46981
257.8635, 75.12988
258.3456, 74.87410
258.8277, 74.70570
259.3098, 74.50654
259.7919, 74.46733
260.2740, 75.08167
260.7562, 76.59058
261.2383, 77.70792
261.7204, 77.31973
262.2025, 76.18419
262.6846, 75.11442
263.1667, 74.20767
263.6489, 73.62865
264.1310, 73.73331
264.6131, 74.68309
265.0952, 75.61461
265.5773, 76.42729
266.0594, 76.90479
266.5416, 76.63726
267.0237, 75.30907
267.5058, 73.75844
267.9879, 73.16127
268.4700, 73.69978
268.9521, 74.36327
269.4343, 74.94603
269.9164, 75.44991
270.3985, 75.85180
270.8806, 76.14256
271.3627, 76.37115
271.8448, 76.64360
272.3270, 77.01310
272.8091, 77.15158
273.2912, 76.34930
273.7733, 75.69350
274.2554, 76.20033
274.7375, 77.98366
275.2197, 79.72268
275.7018, 79.71983
276.1839, 77.64394
276.6660, 75.98460
277.1481, 75.13978
277.6302, 74.79479
278.1124, 75.06547
278.5945, 75.85098
279.0766, 76.65549
279.5587, 76.91291
280.0408, 76.53894
280.5229, 76.39198
281.0051, 76.60673
281.4872, 76.99204
281.9693, 77.51253
282.4514, 78.14523
282.9335, 78.87128
283.4156, 79.83614
283.8978, 81.06131
284.3799, 81.50489
284.8620, 80.44984
285.3441, 79.26997
285.8262, 78.13196
286.3083, 77.22999
286.7905, 76.92458
287.2726, 77.63718
287.7547, 79.21447
288.2368, 80.13894
288.7189, 79.71531
289.2010, 79.43244
289.6832, 79.90417
290.1653, 80.73229
290.6474, 81.23692
291.1295, 80.95494
291.6116, 80.17959
292.0938, 80.20217
292.5759, 82.22307
293.0580, 83.27673
293.5401, 82.04341
294.0222, 79.91714
294.5043, 78.45077
294.9865, 78.34199
295.4686, 79.15406
295.9507, 79.84786
296.4328, 80.31662
296.9149, 80.85629
297.3970, 81.58369
297.8792, 82.34087
298.3613, 83.06841
298.8434, 83.72962
299.3255, 84.17648
299.8076, 84.13676
300.2897, 83.44090
300.7719, 82.60655
301.2540, 81.03895
301.7361, 79.80122
302.2182, 79.80502
302.7003, 81.06771
303.1824, 82.68298
303.6646, 83.56973
304.1467, 83.54052
304.6288, 83.42733
305.1109, 83.08865
305.5930, 82.79270
306.0751, 82.62247
306.5573, 82.60466
307.0394, 82.78593
307.5215, 83.29922
308.0036, 84.20808
308.4857, 84.53092
308.9678, 83.62037
309.4500, 82.73497
309.9321, 82.22674
310.4142, 82.01986
310.8963, 81.87112
311.3784, 81.59238
311.8605, 81.23774
312.3427, 81.24653
312.8248, 82.19382
313.3069, 82.83850
313.7890, 82.72349
314.2711, 82.25120
314.7532, 81.98481
315.2354, 82.21461
315.7175, 82.71659
316.1996, 82.84560
316.6817, 82.44484
317.1638, 81.87709
317.6459, 80.90575
318.1281, 79.95438
318.6102, 79.55286
319.0923, 79.82536
319.5744, 80.24287
320.0565, 79.77351
320.5386, 77.57040
321.0208, 76.48147
321.5029, 77.41500
321.9850, 78.71254
322.4671, 79.44765
322.9492, 79.46719
323.4313, 79.08244
323.9135, 78.59232
324.3956, 77.97564
324.8777, 77.35913
325.3598, 76.87836
325.8419, 76.27001
326.3240, 75.03440
326.8062, 73.52572
327.2883, 72.70249
327.7704, 73.53407
328.2525, 75.86382
328.7346, 76.88449
329.2167, 75.13294
329.6989, 73.66105
330.1810, 73.59360
330.6631, 74.18987
331.1452, 74.23714
331.6273, 73.01963
332.1094, 71.04794
332.5916, 69.95293
333.0737, 70.32533
333.5558, 70.60352
334.0379, 70.52343
334.5200, 70.23676
335.0021, 69.82142
335.4843, 69.31152
335.9664, 68.83643
336.4485, 68.65328
336.9306, 68.91508
337.4127, 69.00782
337.8948, 68.90537
338.3770, 68.60194
338.8591, 67.83174
339.3412, 66.70977
339.8233, 65.87393
340.3055, 66.26154
340.7876, 68.08678
341.2697, 68.94579
341.7518, 68.18010
342.2339, 66.99953
342.7160, 65.33959
343.1982, 63.61369
343.6803, 62.71854
344.1624, 63.56688
344.6445, 65.68422
345.1266, 66.62386
345.6087, 65.71842
346.0909, 64.66273
346.5730, 63.82985
347.0551, 63.26006
347.5372, 63.06173
348.0193, 63.32505
348.5014, 63.80715
348.9836, 64.07256
349.4657, 64.07390
349.9478, 64.01192
350.4299, 63.93792
350.9120, 63.81993
351.3941, 63.57969
351.8763, 63.20968
352.3584, 62.89202
352.8405, 62.88460
353.3226, 63.20009
353.8047, 63.35809
354.2868, 63.24039
354.7690, 62.99446
355.2511, 62.68179
355.7332, 62.31983
356.2153, 61.96624
356.6974, 61.66129
357.1795, 61.39499
357.6617, 61.08253
358.1438, 60.59373
358.6259, 60.34315
359.1080, 60.91834
359.5901, 61.81073
360.0722, 62.12397
360.5544, 61.17645
361.0365, 59.93366
361.5186, 60.04023
362.0007, 61.73758
362.4828, 62.84143
362.9649, 61.86190
363.4471, 60.15480
363.9292, 59.24839
364.4113, 59.37778
364.8934, 59.93963
365.3755, 60.76640
365.8576, 61.73672
366.3398, 62.12239
366.8219, 61.55216
367.3040, 60.63873
367.7861, 59.94189
368.2682, 59.45103
368.7503, 59.20028
369.2325, 59.26737
369.7146, 59.56434
370.1967, 59.99877
370.6788, 60.59557
371.1609, 61.13999
371.6430, 61.59743
372.1252, 61.86618
372.6073, 61.60229
373.0894, 60.36810
373.5715, 58.89648
374.0536, 57.48827
374.5357, 56.23513
375.0179, 55.79717
375.5000, 56.83496
375.9821, 58.58903
376.4642, 59.18813
376.9463, 58.12823
377.4284, 57.24479
377.9106, 57.49694
378.3927, 58.30562
378.8748, 58.59427
379.3569, 58.03468
379.8390, 57.25374
380.3211, 57.08622
380.8033, 57.67034
381.2854, 58.08135
381.7675, 58.13748
382.2496, 58.08103
382.7317, 58.12293
383.2138, 58.25888
383.6960, 58.31143
384.1781, 58.10867
384.6602, 57.68476
385.1423, 57.54255
385.6244, 57.57486
386.1065, 57.94108
386.5887, 59.15383
387.0708, 60.65279
387.5529, 61.48560
388.0350, 61.22440
388.5171, 60.19617
388.9992, 59.07909
389.4814, 57.07726
389.9635, 56.32188
390.4456, 58.07793
390.9277, 60.22412
391.4098, 60.87965
391.8919, 59.90011
392.3741, 58.59792
392.8562, 58.41568
393.3383, 59.60783
393.8204, 59.94555
394.3025, 58.80166
394.7846, 57.52080
395.2668, 56.12812
395.7489, 54.97572
396.2310, 54.74166
396.7131, 55.91175
397.1952, 57.94883
397.6773, 58.96201
398.1595, 58.34265
398.6416, 57.64819
399.1237, 56.98666
399.6058, 56.40384
400.0879, 55.94423
400.5700, 55.61401
401.0522, 55.36992
401.5343, 55.09076
402.0164, 54.70635
402.4985, 54.73389
402.9806, 55.75573
403.4627, 56.66517
403.9449, 56.98097
404.4270, 56.79425
404.9091, 56.40574
405.3912, 55.96117
405.8733, 55.46801
406.3554, 54.87278
406.8376, 53.96342
407.3197, 53.48224
407.8018, 54.33598
408.2839, 55.48003
408.7660, 55.78047
409.2481, 54.89055
409.7303, 53.59718
410.2124, 52.44404
410.6945, 51.46464
411.1766, 51.17486
411.6587, 51.91407
412.1408, 53.11372
412.6230, 54.51113
413.1051, 56.01489
413.5872, 56.84460
414.0693, 56.29682
414.5514, 55.01442
415.0335, 53.90647
415.5157, 53.00786
415.9978, 52.45192
416.4799, 52.40571
416.9620, 52.78383
417.4441, 53.27119
417.9262, 54.21802
418.4084, 54.79168
418.8905, 54.13065
419.3726, 52.71540
419.8547, 51.81666
420.3368, 51.90627
420.8189, 52.55423
421.3011, 53.19198
421.7832, 53.94397
422.2653, 54.16781
422.7474, 53.19801
423.2295, 52.07376
423.7116, 51.77624
424.1938, 52.30669
424.6759, 52.91674
425.1580, 52.96054
425.6401, 52.50513
426.1222, 52.82976
426.6043, 54.96043
427.0865, 56.55407
427.5686, 56.69458
428.0507, 56.05678
428.5328, 55.65310
429.0149, 55.86320
429.4970, 56.23220
429.9792, 55.87200
430.4613, 53.99705
430.9434, 53.13958
431.4255, 54.17648
431.9076, 55.27540
432.3897, 55.23955
432.8719, 54.27094
433.3540, 53.39665
433.8361, 53.47140
434.3182, 54.33287
434.8003, 54.80991
435.2824, 54.80107
435.7646, 54.52216
436.2467, 53.67211
436.7288, 52.78413
437.2109, 52.48460
437.6930, 52.97348
438.1751, 53.78590
438.6573, 54.42307
439.1394, 54.88831
439.6215, 55.07850
440.1036, 54.66963
440.5857, 54.32847
441.0678, 54.66806
441.5500, 55.48511
442.0321, 56.00016
442.5142, 55.60448
442.9963, 54.74534
443.4784, 54.19954
443.9605, 53.98051
444.4427, 53.98236
444.9248, 54.27330
445.4069, 54.70354
445.8890, 55.03409
446.3711, 55.29116
446.8532, 55.35164
447.3354, 54.90073
447.8175, 54.23156
448.2996, 54.08990
448.7817, 54.70898
449.2638, 55.42326
449.7459, 55.44327
450.2281, 54.71463
450.7102, 54.32630
451.1923, 54.54969
451.6744, 54.91744
452.1565, 55.37431
452.6386, 55.75630
453.1208, 55.53684
453.6029, 54.35848
454.0850, 52.68130
454.5671, 51.78817
455.0492, 52.72778
455.5313, 53.03399
456.0135, 51.95786
456.4956, 50.72211
456.9777, 50.40039
457.4598, 51.05608
457.9419, 51.98207
458.4240, 52.56986
458.9062, 52.81922
459.3883, 52.60291
459.8704, 51.46161
460.3525, 50.34233
460.8346, 49.19441
461.3167, 48.27760
461.7989, 48.02264
462.2810, 48.60361
462.7631, 49.46358
463.2452, 49.68814
463.7273, 49.14458
464.2094, 48.75420
464.6916, 48.73252
465.1737, 48.80235
465.6558, 48.72356
466.1379, 48.57518
466.6200, 48.66443
467.1021, 49.37030
467.5843, 50.32821
468.0664, 50.80322
468.5485, 50.76159
469.0306, 50.45913
469.5127, 49.70283
469.9948, 48.94125
470.4770, 48.95552
470.9591, 50.01331
471.4412, 50.93201
471.9233, 50.99433
472.4054, 50.54992
472.8875, 50.32174
473.3697, 50.46365
473.8518, 50.36975
474.3339, 49.29319
474.8160, 47.27089
475.2981, 46.19135
475.7802, 46.62693
476.2624, 47.37455
476.7445, 48.20927
477.2266, 48.92472
477.7087, 49.03152
478.1908, 48.32452
478.6729, 47.38453
479.1551, 47.33323
479.6372, 48.97543
480.1193, 49.58554
480.6014, 48.21429
481.0835, 46.80706
481.5656, 46.59432
482.0478, 47.30479
482.5299, 47.91833
483.0120, 47.73426
483.4941, 47.00547
483.9762, 46.71067
484.4583, 47.08358
484.9405, 47.42088
485.4226, 47.75480
485.9047, 47.89254
486.3868, 47.51688
486.8689, 46.65357
487.3510, 45.88829
487.8332, 45.87352
488.3153, 46.42073
488.7974, 46.51617
489.2795, 45.88428
489.7616, 45.39356
490.2437, 45.81862
490.7259, 46.67332
491.2080, 47.22524
491.6901, 47.26005
492.1722, 47.13612
492.6543, 47.07763
493.1364, 47.06300
493.6186, 46.98923
494.1007, 46.79466
494.5828, 46.70283
495.0649, 47.10985
495.5470, 48.09798
496.0291, 48.42730
496.5113, 47.08179
496.9934, 45.97694
497.4755, 46.58490
497.9576, 48.33112
498.4397, 49.75109
498.9218, 50.13513
499.4040, 49.81976
499.8861, 49.50928
500.3682, 49.00346
500.8503, 48.90314
501.3324, 49.78341
501.8145, 50.53204
502.2967, 50.21247
502.7788, 49.09950
503.2609, 48.24815
503.7430, 48.45618
504.2251, 49.40965
504.7072, 49.87544
505.1894, 49.67447
505.6715, 49.39350
506.1536, 49.19245
506.6357, 48.96593
507.1178, 48.53950
507.5999, 47.91751
508.0821, 47.46777
508.5642, 47.44526
509.0463, 47.80362
509.5284, 48.52514
510.0105, 49.72602
510.4926, 50.76449
510.9748, 51.18311
511.4569, 51.15798
511.9390, 51.16780
512.4211, 51.42657
512.9032, 51.36707
513.3853, 50.18245
513.8674, 48.63442
514.3495, 48.26969
514.8317, 49.42581
515.3138, 50.77944
515.7959, 50.88807
516.2780, 49.61405
516.7601, 49.22939
517.2422, 50.61961
517.7244, 51.75485
518.2065, 51.75848
518.6886, 51.14613
519.1707, 50.61220
519.6528, 50.42304
520.1349, 50.55190
520.6171, 51.07045
521.0992, 52.19530
521.5813, 52.82574
522.0634, 52.50856
522.5455, 52.12217
523.0276, 51.78374
523.5098, 51.63477
523.9919, 51.99591
524.4740, 53.17260
524.9561, 54.44812
525.4382, 54.63819
525.9203, 53.71861
526.4025, 53.01061
526.8846, 52.85633
527.3667, 52.96355
527.8488, 53.02003
528.3309, 53.05384
528.8130, 53.28705
529.2952, 54.14688
529.7773, 54.95636
530.2594, 54.79995
530.7415, 53.93908
531.2236, 53.69384
531.7057, 54.76581
532.1879, 56.41548
532.6700, 57.21214
533.1521, 56.72963
533.6342, 56.31445
534.1163, 55.83069
534.5984, 55.55589
535.0806, 55.80710
535.5627, 56.43790
536.0448, 57.04218
536.5269, 57.37305
537.0090, 57.48036
537.4911, 57.50045
537.9733, 57.40586
538.4554, 57.28163
538.9375, 57.06020
539.4196, 56.87689
539.9017, 56.75890
540.3839, 56.74337
540.8660, 56.93941
541.3481, 57.51583
541.8302, 58.29610
542.3123, 58.86553
542.7944, 59.19662
543.2766, 59.55332
543.7587, 60.03800
544.2408, 60.60268
544.7229, 61.30116
545.2050, 62.21428
545.6871, 62.59737
546.1693, 61.70795
546.6514, 60.46081
547.1335, 59.76941
547.6156, 59.69218
548.0977, 60.04726
548.5798, 60.79152
549.0620, 61.78383
549.5441, 62.54265
550.0262, 63.17067
550.5083, 63.38761
550.9904, 62.62465
551.4725, 61.87853
551.9547, 61.94827
552.4368, 62.78368
552.9189, 63.89118
553.4010, 65.00113
553.8831, 65.98129
554.3652, 66.16130
554.8474, 65.10172
555.3295, 64.35216
555.8116, 64.64038
556.2937, 65.15369
556.7758, 65.37119
557.2579, 65.24807
557.7401, 64.94292
558.2222, 64.21032
558.7043, 63.48748
559.1864, 63.74780
559.6685, 65.01864
560.1506, 66.04695
560.6328, 66.13627
561.1149, 65.69100
561.5970, 65.65850
562.0791, 66.29437
562.5612, 66.46243
563.0433, 65.35938
563.5255, 64.15166
564.0076, 63.92052
564.4897, 64.55936
564.9718, 65.24249
565.4539, 65.43830
565.9360, 65.30889
566.4182, 65.42488
566.9003, 66.09913
567.3824, 66.42197
567.8645, 66.08241
568.3466, 65.62872
568.8287, 65.38857
569.3109, 65.35120
569.7930, 65.35496
570.2751, 65.32080
570.7572, 65.24135
571.2393, 65.00946
571.7214, 64.58599
572.2036, 64.49924
572.6857, 65.04601
573.1678, 65.86700
573.6499, 66.70905
574.1320, 67.57011
574.6141, 67.86983
575.0963, 66.81903
575.5784, 65.64157
576.0605, 65.62009
576.5426, 66.43430
577.0247, 66.84177
577.5068, 66.24984
577.9890, 65.14045
578.4711, 64.36259
578.9532, 63.76542
579.4353, 63.95028
579.9174, 65.80660
580.3995, 67.45860
580.8817, 67.81638
581.3638, 67.32714
581.8459, 66.97083
582.3280, 67.22564
582.8101, 67.66761
583.2922, 67.44698
583.7744, 66.47799
584.2565, 66.18733
584.7386, 67.22952
585.2207, 68.31806
585.7029, 68.50744
586.1850, 68.04536
586.6671, 67.51596
587.1492, 66.89007
587.6313, 66.46079
588.1135, 66.57610
588.5956, 67.03616
