##NAMES=Takeuchiite
##RRUFFID=R100047
##IDEAL CHEMISTRY=Mg_2_Mn^3+^O_2_BO_3_
##LOCALITY=Langban, Filipstad, Varmland, Sweden
##OWNER=RRUFF
##SOURCE=William W Pinch (Large sample), Don Doell (Small sample)
##DESCRIPTION=Black thin blades embedded in calcite
##STATUS=The identification of this mineral has been confirmed by single-crystal X-ray diffraction.
##URL=rruff.info/R100047
90.49219, 8.900503
90.97430, 9.328816
91.45642, 9.481428
91.93854, 8.996333
92.42065, 8.341943
92.90277, 8.327098
93.38489, 9.117507
93.86700, 10.02051
94.34912, 10.19031
94.83124, 9.707824
95.31335, 9.024065
95.79547, 8.147515
96.27759, 7.225781
96.75970, 6.910540
97.24182, 7.460421
97.72394, 8.455645
98.20605, 9.030825
98.68817, 9.165128
99.17029, 9.051501
99.65240, 8.733130
100.1345, 8.182913
100.6166, 7.840428
101.0988, 7.881140
101.5809, 8.234073
102.0630, 8.269546
102.5451, 7.893064
103.0272, 7.368114
103.5093, 6.964314
103.9915, 6.696384
104.4736, 6.521339
104.9557, 6.433993
105.4378, 6.437963
105.9199, 6.520026
106.4020, 6.749383
106.8842, 7.023391
107.3663, 7.172643
107.8484, 7.206021
108.3305, 7.101973
108.8126, 6.845853
109.2947, 6.366493
109.7769, 5.851188
110.2590, 5.062270
110.7411, 4.193886
111.2232, 3.870117
111.7053, 4.693277
112.1874, 5.646487
112.6696, 6.267730
113.1517, 6.083421
113.6338, 6.028258
114.1159, 6.422987
114.5980, 7.166214
115.0801, 7.536535
115.5623, 7.102415
116.0444, 6.353256
116.5265, 5.670348
117.0086, 5.174007
117.4907, 4.733719
117.9728, 4.212074
118.4550, 3.597752
118.9371, 3.251732
119.4192, 3.512429
119.9013, 4.094638
120.3834, 4.631363
120.8655, 5.115016
121.3477, 5.411232
121.8298, 5.329678
122.3119, 4.786361
122.7940, 4.265725
123.2761, 4.090109
123.7582, 4.192745
124.2404, 4.424904
124.7225, 4.876199
125.2046, 5.355945
125.6867, 5.616766
126.1688, 5.599813
126.6509, 5.422048
127.1331, 5.017370
127.6152, 4.471882
128.0973, 4.213439
128.5794, 4.934408
129.0615, 6.171624
129.5436, 6.754052
130.0258, 6.182294
130.5079, 5.108988
130.9900, 4.673637
131.4721, 4.879534
131.9542, 5.316435
132.4363, 5.710489
132.9185, 6.058020
133.4006, 6.335289
133.8827, 6.545206
134.3648, 6.676790
134.8469, 6.638542
135.3290, 6.381948
135.8112, 6.168390
136.2933, 6.361496
136.7754, 6.990061
137.2575, 7.578479
137.7396, 7.942381
138.2217, 8.083823
138.7039, 8.345380
139.1860, 8.792660
139.6681, 9.257097
140.1502, 9.431075
140.6323, 9.198587
141.1144, 9.058402
141.5966, 9.287930
142.0787, 10.05087
142.5608, 10.40164
143.0429, 10.15416
143.5250, 9.599932
144.0071, 9.427447
144.4893, 9.830770
144.9714, 10.30347
145.4535, 10.56290
145.9356, 10.24310
146.4177, 10.48175
146.8998, 11.62464
147.3820, 13.37997
147.8641, 14.57002
148.3462, 14.81898
148.8283, 14.84187
149.3104, 15.01187
149.7925, 15.33963
150.2747, 15.80380
150.7568, 16.49124
151.2389, 17.37323
151.7210, 18.09348
152.2031, 18.37195
152.6852, 18.65129
153.1674, 19.21027
153.6495, 20.65492
154.1316, 21.75262
154.6137, 22.21880
155.0958, 22.03942
155.5779, 21.87449
156.0601, 21.77035
156.5422, 21.72585
157.0243, 21.74173
157.5064, 21.96557
157.9885, 22.11283
158.4706, 22.01594
158.9528, 21.61821
159.4349, 21.43090
159.9170, 21.71145
160.3991, 22.23435
160.8812, 22.73899
161.3633, 23.11606
161.8455, 23.48660
162.3276, 23.87597
162.8097, 24.25964
163.2918, 24.77334
163.7739, 25.71006
164.2560, 26.74964
164.7382, 27.26567
165.2203, 26.78832
165.7024, 26.23474
166.1845, 26.21162
166.6666, 26.97004
167.1487, 27.66288
167.6309, 27.69801
168.1130, 27.33357
168.5951, 27.11306
169.0772, 27.53119
169.5593, 28.07174
170.0414, 28.26761
170.5236, 27.93706
171.0057, 27.50012
171.4878, 27.17341
171.9699, 26.96522
172.4520, 26.91060
172.9341, 27.21426
173.4163, 27.61124
173.8984, 27.76014
174.3805, 27.46700
174.8626, 27.10902
175.3447, 27.05726
175.8268, 27.26190
176.3090, 27.49760
176.7911, 27.75780
177.2732, 27.92405
177.7553, 27.76063
178.2374, 27.01975
178.7195, 26.13720
179.2017, 25.65076
179.6838, 25.53377
180.1659, 25.59896
180.6480, 25.71462
181.1301, 25.89921
181.6122, 26.23584
182.0944, 26.97206
182.5765, 27.70943
183.0586, 27.63030
183.5407, 26.74694
184.0228, 25.77245
184.5049, 25.27500
184.9871, 25.20107
185.4692, 25.41318
185.9513, 26.12107
186.4334, 26.99066
186.9155, 27.11538
187.3976, 26.44080
187.8798, 25.65400
188.3619, 25.50670
188.8440, 25.90818
189.3261, 26.28570
189.8082, 26.38688
190.2903, 26.31784
190.7725, 26.55576
191.2546, 27.17339
191.7367, 27.73125
192.2188, 27.63954
192.7009, 26.93134
193.1830, 26.22881
193.6652, 25.70617
194.1473, 25.36370
194.6294, 25.27846
195.1115, 25.48688
195.5936, 25.82728
196.0757, 26.18692
196.5579, 26.57673
197.0400, 26.69719
197.5221, 26.27206
198.0042, 25.35735
198.4863, 24.81771
198.9684, 24.71856
199.4506, 24.85645
199.9327, 24.97199
200.4148, 25.07055
200.8969, 25.10858
201.3790, 25.07618
201.8611, 24.97408
202.3433, 24.72775
202.8254, 24.24794
203.3075, 23.76351
203.7896, 23.72289
204.2717, 24.20506
204.7538, 24.71811
205.2360, 25.04906
205.7181, 25.17671
206.2002, 25.33838
206.6823, 25.58558
207.1644, 25.80567
207.6465, 25.72345
208.1287, 25.22971
208.6108, 24.82063
209.0929, 24.78425
209.5750, 25.23433
210.0571, 25.41589
210.5392, 25.22791
211.0214, 24.86341
211.5035, 24.73690
211.9856, 24.91907
212.4677, 25.14594
212.9498, 25.33550
213.4319, 25.52345
213.9140, 25.49512
214.3962, 25.15474
214.8783, 24.65697
215.3604, 24.37769
215.8425, 24.38797
216.3246, 24.44869
216.8067, 24.44000
217.2889, 24.31619
217.7710, 24.29705
218.2531, 24.46680
218.7352, 24.70068
219.2173, 24.65779
219.6994, 24.15672
220.1816, 23.72421
220.6637, 23.59011
221.1458, 23.81018
221.6279, 24.20291
222.1100, 24.91935
222.5921, 25.74893
223.0743, 26.13439
223.5564, 25.91918
224.0385, 25.53188
224.5206, 25.14072
225.0027, 24.67276
225.4848, 24.38791
225.9670, 24.33729
226.4491, 24.45819
226.9312, 24.59421
227.4133, 24.74664
227.8954, 24.91089
228.3775, 25.10718
228.8597, 25.44024
229.3418, 25.53166
229.8239, 25.23196
230.3060, 24.72518
230.7881, 24.55516
231.2702, 24.91932
231.7524, 25.31732
232.2345, 25.51092
232.7166, 25.39263
233.1987, 25.32516
233.6808, 25.31143
234.1629, 25.34886
234.6451, 25.45040
235.1272, 25.70936
235.6093, 25.89350
236.0914, 25.87426
236.5735, 25.49356
237.0556, 25.27399
237.5378, 25.24662
238.0199, 25.37166
238.5020, 25.57021
238.9841, 25.95195
239.4662, 26.24959
239.9483, 26.32071
240.4305, 25.99711
240.9126, 25.85163
241.3947, 25.97998
241.8768, 26.25584
242.3589, 26.35180
242.8410, 26.13218
243.3232, 25.94010
243.8053, 25.96209
244.2874, 26.42139
244.7695, 26.51105
245.2516, 25.94556
245.7337, 25.12211
246.2159, 25.01743
246.6980, 26.23165
247.1801, 27.21904
247.6622, 27.26345
248.1443, 25.79001
248.6264, 25.03332
249.1086, 25.32846
249.5907, 26.16992
250.0728, 26.47139
250.5549, 25.85848
251.0370, 25.33804
251.5191, 25.35507
252.0013, 26.16208
252.4834, 26.64618
252.9655, 26.67753
253.4476, 26.45996
253.9297, 26.36556
254.4118, 26.44385
254.8940, 26.55603
255.3761, 26.69333
255.8582, 26.92448
256.3403, 26.85978
256.8224, 26.29545
257.3046, 25.59158
257.7867, 25.39828
258.2688, 25.94552
258.7509, 26.51779
259.2330, 26.89571
259.7151, 27.07047
260.1973, 27.12366
260.6794, 27.05568
261.1615, 26.86632
261.6436, 26.51060
262.1257, 25.85963
262.6078, 25.35085
263.0900, 25.14831
263.5721, 25.28280
264.0542, 25.42393
264.5363, 25.63106
265.0184, 25.77495
265.5005, 25.60849
265.9827, 24.93142
266.4648, 24.54537
266.9469, 24.80487
267.4290, 25.73071
267.9111, 26.20732
268.3932, 26.07381
268.8754, 25.73361
269.3575, 25.64465
269.8396, 25.86544
270.3217, 26.13388
270.8038, 26.45698
271.2859, 26.81900
271.7681, 26.77343
272.2502, 26.15380
272.7323, 25.47220
273.2144, 25.37532
273.6965, 26.02722
274.1786, 26.35034
274.6608, 25.99784
275.1429, 25.09279
275.6250, 24.51565
276.1071, 24.30413
276.5892, 24.31126
277.0714, 24.47418
277.5535, 24.82212
278.0356, 25.06151
278.5177, 25.12251
278.9998, 25.03834
279.4819, 24.89377
279.9641, 24.64614
280.4462, 24.51145
280.9283, 24.69440
281.4104, 25.20175
281.8925, 25.79772
282.3746, 26.55030
282.8568, 27.29032
283.3389, 27.43808
283.8210, 26.92704
284.3031, 26.33778
284.7852, 26.02804
285.2673, 25.99486
285.7495, 26.18390
286.2316, 26.65802
286.7137, 27.25086
287.1958, 27.63442
287.6779, 27.80588
288.1600, 27.84071
288.6422, 27.73274
289.1243, 27.50289
289.6064, 27.29039
290.0885, 27.07877
290.5706, 26.94905
291.0527, 27.17536
291.5349, 27.72132
292.0170, 28.04754
292.4991, 27.61479
292.9812, 26.68285
293.4633, 26.21894
293.9454, 26.30374
294.4276, 26.70918
294.9097, 27.28779
295.3918, 27.98821
295.8739, 28.52461
296.3560, 28.67910
296.8381, 28.57639
297.3203, 28.48897
297.8024, 28.42335
298.2845, 28.36713
298.7666, 28.35241
299.2487, 28.34548
299.7308, 28.23936
300.2130, 27.72444
300.6951, 27.18331
301.1772, 27.34266
301.6593, 28.19814
302.1414, 29.18686
302.6235, 29.94617
303.1057, 30.47424
303.5878, 30.73545
304.0699, 30.55229
304.5520, 30.23527
305.0341, 30.10758
305.5162, 30.16309
305.9984, 30.35279
306.4805, 30.89404
306.9626, 31.48207
307.4447, 31.63782
307.9268, 30.95293
308.4089, 30.17266
308.8911, 29.98957
309.3732, 30.29213
309.8553, 30.62226
310.3374, 30.62893
310.8195, 30.56751
311.3016, 30.72163
311.7838, 31.25623
312.2659, 31.78630
312.7480, 32.05539
313.2301, 32.12235
313.7122, 32.14021
314.1943, 32.04964
314.6765, 32.02021
315.1586, 32.25949
315.6407, 32.93979
316.1228, 33.37938
316.6049, 32.99982
317.0870, 32.19453
317.5692, 31.61710
318.0513, 31.73285
318.5334, 31.93628
319.0155, 31.86067
319.4976, 31.40575
319.9797, 31.18394
320.4619, 31.67552
320.9440, 32.40918
321.4261, 32.85166
321.9082, 32.60921
322.3903, 32.31892
322.8724, 32.16348
323.3546, 32.15239
323.8367, 32.17445
324.3188, 32.38185
324.8009, 32.52196
325.2830, 32.40101
325.7651, 31.40425
326.2473, 30.80263
326.7294, 31.05150
327.2115, 32.00976
327.6936, 32.55246
328.1757, 32.21612
328.6578, 31.73742
329.1400, 31.48526
329.6221, 31.91662
330.1042, 31.95109
330.5863, 31.25879
331.0684, 30.15320
331.5505, 29.57847
332.0327, 29.87169
332.5148, 30.29306
332.9969, 30.60196
333.4790, 30.86685
333.9611, 30.77973
334.4432, 30.07447
334.9254, 29.16907
335.4075, 28.84236
335.8896, 29.43882
336.3717, 29.91141
336.8538, 29.89482
337.3359, 29.33498
337.8180, 28.84311
338.3001, 28.37274
338.7823, 28.04147
339.2644, 28.09120
339.7465, 28.67170
340.2286, 28.97448
340.7107, 28.76824
341.1928, 28.10898
341.6750, 27.30750
342.1571, 26.24103
342.6392, 25.44026
343.1213, 25.53529
343.6034, 26.54253
344.0855, 27.24134
344.5677, 27.40015
345.0498, 27.16176
345.5319, 26.77194
346.0140, 26.22213
346.4961, 25.76324
346.9782, 25.59356
347.4604, 25.66475
347.9425, 25.77826
348.4246, 25.94445
348.9067, 26.06643
349.3888, 25.95341
349.8709, 25.64616
350.3531, 25.36950
350.8352, 25.22757
351.3173, 25.19553
351.7994, 25.24941
352.2815, 25.39478
352.7636, 25.54978
353.2458, 25.65549
353.7279, 25.71187
354.2100, 25.71897
354.6921, 25.68185
355.1742, 25.59205
355.6563, 25.39402
356.1385, 25.10240
356.6206, 24.86220
357.1027, 24.72733
357.5848, 24.71647
358.0669, 24.89358
358.5490, 25.53555
359.0312, 25.97998
359.5133, 25.59114
359.9954, 24.61854
360.4775, 23.83441
360.9596, 23.68418
361.4417, 23.80102
361.9239, 23.94402
362.4060, 24.07193
362.8881, 24.23613
363.3702, 24.49891
363.8523, 24.80190
364.3344, 25.05560
364.8166, 25.31952
365.2987, 25.45539
365.7808, 25.33643
366.2629, 24.91343
366.7450, 24.63292
367.2271, 24.67103
367.7093, 24.82960
368.1914, 24.93449
368.6735, 24.88764
369.1556, 24.87902
369.6377, 24.92026
370.1198, 25.01358
370.6020, 25.19936
371.0841, 25.73146
371.5662, 26.12077
372.0483, 26.07596
372.5304, 25.27177
373.0125, 24.63933
373.4947, 24.20314
373.9768, 23.95205
374.4589, 23.87889
374.9410, 24.05519
375.4231, 24.26237
375.9052, 24.40772
376.3874, 24.47394
376.8695, 24.66450
377.3516, 25.08719
377.8337, 25.45624
378.3158, 25.33450
378.7979, 24.63987
379.2801, 24.06894
379.7622, 23.82965
380.2443, 23.85853
380.7264, 23.86274
381.2085, 23.83500
381.6906, 23.83424
382.1728, 23.95354
382.6549, 24.16479
383.1370, 24.28379
383.6191, 24.27891
384.1012, 24.17127
384.5833, 23.88511
385.0655, 23.46402
385.5476, 23.22834
386.0297, 23.56296
386.5118, 24.15687
386.9939, 24.44452
387.4760, 24.36133
387.9582, 24.09323
388.4403, 23.57942
388.9224, 23.01365
389.4045, 22.79621
389.8866, 23.49718
390.3687, 24.33281
390.8509, 24.56889
391.3330, 24.24796
391.8151, 23.90605
392.2972, 23.99641
392.7793, 24.15692
393.2614, 24.01901
393.7436, 23.25974
394.2257, 22.51735
394.7078, 21.86556
395.1899, 21.41984
395.6720, 21.48379
396.1541, 22.96250
396.6363, 24.32862
397.1184, 24.77245
397.6005, 23.89312
398.0826, 23.09655
398.5647, 22.56921
399.0468, 22.24406
399.5290, 22.03989
400.0111, 22.04549
400.4932, 22.07053
400.9753, 22.06096
401.4574, 22.01762
401.9395, 22.09183
402.4217, 22.38167
402.9038, 22.68590
403.3859, 22.87979
403.8680, 22.96814
404.3501, 22.91983
404.8322, 22.67292
405.3144, 22.31583
405.7965, 22.09851
406.2786, 22.05347
406.7607, 22.03586
407.2428, 21.99907
407.7249, 21.94406
408.2071, 21.81072
408.6892, 21.58537
409.1713, 21.32036
409.6534, 20.99691
410.1355, 20.63160
410.6176, 20.52299
411.0998, 20.80522
411.5819, 21.36834
412.0640, 22.08028
412.5461, 22.92200
413.0282, 23.55805
413.5103, 23.68826
413.9925, 23.42617
414.4746, 22.93566
414.9567, 22.14817
415.4388, 21.41980
415.9209, 21.10566
416.4030, 21.13507
416.8852, 21.32451
417.3673, 21.85117
417.8494, 22.32128
418.3315, 22.31474
418.8136, 21.80197
419.2957, 21.33376
419.7779, 21.22412
420.2600, 21.31188
420.7421, 21.43735
421.2242, 21.58561
421.7063, 21.73212
422.1884, 21.89874
422.6706, 22.06563
423.1527, 22.16428
423.6348, 22.18146
424.1169, 22.12402
424.5990, 21.94772
425.0811, 21.45239
425.5633, 21.30293
426.0454, 21.80472
426.5275, 22.54043
427.0096, 22.98565
427.4917, 22.97552
427.9738, 22.91579
428.4560, 22.86853
428.9381, 22.83454
429.4202, 22.85848
429.9023, 22.99307
430.3844, 23.08792
430.8665, 23.02700
431.3487, 22.79291
431.8308, 22.47850
432.3129, 22.03001
432.7950, 21.58553
433.2771, 21.49579
433.7592, 21.77544
434.2414, 22.05090
434.7235, 22.18278
435.2056, 22.17392
435.6877, 21.95068
436.1698, 21.48954
436.6519, 21.11092
437.1341, 21.23566
437.6162, 21.70193
438.0983, 22.09385
438.5804, 22.29774
439.0625, 22.38189
439.5446, 22.35996
440.0268, 22.26704
440.5089, 22.23089
440.9910, 22.46753
441.4731, 22.71119
441.9552, 22.69477
442.4373, 22.34593
442.9195, 21.97501
443.4016, 21.58753
443.8837, 21.31646
444.3658, 21.32346
444.8479, 21.97232
445.3300, 22.58840
445.8122, 23.00022
446.2943, 23.20352
446.7764, 23.24302
447.2585, 22.96387
447.7406, 22.64565
448.2227, 22.41639
448.7049, 22.24351
449.1870, 22.23646
449.6691, 22.51031
450.1512, 22.89294
450.6333, 23.08910
451.1154, 22.97945
451.5976, 22.95316
452.0797, 23.18320
452.5618, 23.63480
453.0439, 23.72326
453.5260, 23.34952
454.0081, 22.91745
454.4903, 22.79092
454.9724, 22.96502
455.4545, 22.99118
455.9366, 22.77368
456.4187, 22.47459
456.9008, 22.35818
457.3830, 22.41265
457.8651, 22.55251
458.3472, 22.90767
458.8293, 23.26896
459.3114, 23.19914
459.7935, 22.69959
460.2757, 22.11331
460.7578, 21.52115
461.2399, 21.07567
461.7220, 21.04672
462.2041, 21.78848
462.6862, 22.47305
463.1684, 22.45924
463.6505, 21.97701
464.1326, 21.55801
464.6147, 21.40062
465.0968, 21.37062
465.5789, 21.39808
466.0611, 21.46784
466.5432, 21.66055
467.0253, 22.19527
467.5074, 22.74971
467.9895, 23.05321
468.4716, 23.09434
468.9538, 22.86167
469.4359, 22.05696
469.9180, 20.98521
470.4001, 20.70582
470.8822, 21.69952
471.3643, 22.63559
471.8465, 22.93396
472.3286, 22.52273
472.8107, 22.26011
473.2928, 22.21136
473.7749, 22.16070
474.2570, 21.77353
474.7392, 21.05416
475.2213, 20.58047
475.7034, 20.48433
476.1855, 20.69628
476.6676, 21.30200
477.1497, 22.23080
477.6319, 22.79854
478.1140, 22.23104
478.5961, 21.15621
479.0782, 20.68542
479.5603, 20.92688
480.0424, 21.26983
480.5246, 21.11764
481.0067, 20.78276
481.4888, 20.72034
481.9709, 21.39786
482.4530, 22.01126
482.9352, 22.07612
483.4173, 21.72924
483.8994, 21.40309
484.3815, 21.17354
484.8636, 21.05462
485.3457, 21.12555
485.8279, 21.51787
486.3100, 21.61055
486.7921, 21.03820
487.2742, 20.31561
487.7563, 19.89482
488.2384, 19.96752
488.7206, 20.00139
489.2027, 19.85597
489.6848, 19.64094
490.1669, 19.84388
490.6490, 20.66045
491.1311, 21.29403
491.6133, 21.24234
492.0954, 20.52090
492.5775, 20.09648
493.0596, 20.00137
493.5417, 20.07971
494.0238, 20.18152
494.5060, 20.31364
494.9881, 20.55118
495.4702, 21.03510
495.9523, 21.43460
496.4344, 21.02447
496.9165, 20.04062
497.3987, 19.37147
497.8808, 19.80343
498.3629, 20.60608
498.8450, 21.06287
499.3271, 21.10953
499.8092, 21.15228
500.2914, 21.49764
500.7735, 21.90030
501.2556, 22.13478
501.7377, 21.99197
502.2198, 21.85628
502.7019, 21.78311
503.1841, 21.77529
503.6662, 21.84035
504.1483, 22.18990
504.6304, 22.38658
505.1125, 22.25449
505.5946, 21.75883
506.0768, 21.40317
506.5589, 21.25053
507.0410, 21.14896
507.5231, 20.93518
508.0052, 20.56189
508.4873, 20.39911
508.9695, 20.51193
509.4516, 20.81870
509.9337, 21.25341
510.4158, 21.80278
510.8979, 22.20944
511.3800, 22.26125
511.8622, 22.12719
512.3443, 22.27673
512.8264, 22.68619
513.3085, 22.93952
513.7906, 22.45946
514.2728, 21.73164
514.7549, 21.44764
515.2370, 21.88179
515.7191, 22.33035
516.2012, 22.23484
516.6833, 21.89357
517.1655, 21.76356
517.6476, 22.37306
518.1297, 22.83972
518.6118, 22.72012
519.0939, 22.07638
519.5760, 21.67939
520.0582, 21.81236
520.5403, 22.05004
521.0224, 22.21613
521.5045, 22.27512
521.9866, 22.36296
522.4688, 22.45996
522.9509, 22.60740
523.4330, 22.86945
523.9151, 23.26287
524.3972, 23.70199
524.8793, 24.23483
525.3615, 24.74102
525.8436, 24.84412
526.3257, 24.54926
526.8078, 24.22022
527.2899, 24.06736
527.7720, 24.03143
528.2542, 23.93345
528.7363, 23.75939
529.2184, 23.72871
529.7005, 24.21089
530.1826, 24.89229
530.6647, 25.32675
531.1469, 25.23722
531.6290, 25.12635
532.1111, 25.26177
532.5932, 25.57561
533.0753, 25.92817
533.5574, 26.49773
534.0396, 26.89139
534.5217, 26.84031
535.0038, 26.29902
535.4859, 26.12135
535.9680, 26.63528
536.4501, 27.21307
536.9323, 27.47886
537.4144, 27.28588
537.8965, 27.19704
538.3786, 27.23830
538.8607, 27.36370
539.3428, 27.52064
539.8250, 27.71450
540.3071, 27.88173
540.7892, 27.97885
541.2713, 28.05673
541.7534, 28.24486
542.2355, 28.53638
542.7177, 28.85621
543.1998, 29.18403
543.6819, 29.50408
544.1640, 29.78649
544.6461, 30.02858
545.1282, 30.25586
545.6104, 30.56202
546.0925, 30.82911
546.5746, 30.91434
547.0567, 30.61620
547.5388, 30.35795
548.0209, 30.19144
548.5031, 30.17057
548.9852, 30.40859
549.4673, 31.24695
549.9494, 32.00970
550.4315, 32.59676
550.9136, 33.00753
551.3958, 32.96038
551.8779, 32.10649
552.3600, 31.38212
552.8421, 31.46782
553.3242, 32.46589
553.8063, 33.34056
554.2885, 34.08504
554.7706, 34.60381
555.2527, 34.61768
555.7348, 34.21980
556.2169, 34.00934
556.6990, 34.25440
557.1812, 34.66132
557.6633, 34.80891
558.1454, 34.75352
558.6275, 34.70711
559.1096, 34.66554
559.5917, 34.76929
560.0739, 35.27849
560.5560, 36.22050
561.0381, 36.88142
561.5202, 36.68233
562.0023, 36.26068
562.4844, 36.09241
562.9666, 36.50092
563.4487, 36.77497
563.9308, 36.72654
564.4129, 36.58638
564.8950, 36.74120
565.3771, 37.38999
565.8593, 37.87096
566.3414, 37.97733
566.8235, 37.80871
567.3056, 37.84401
567.7877, 38.11110
568.2698, 38.37657
568.7520, 38.53652
569.2341, 38.58525
569.7162, 38.38380
570.1983, 37.90144
570.6804, 37.62752
571.1625, 38.32455
571.6447, 39.46112
572.1268, 40.14415
572.6089, 39.99937
573.0910, 39.72390
573.5731, 39.73016
574.0552, 39.91975
574.5374, 40.12089
575.0195, 40.43512
575.5016, 40.59303
575.9837, 40.36857
576.4658, 39.81337
576.9479, 39.56604
577.4301, 39.84535
577.9122, 40.19289
578.3943, 40.43116
578.8764, 40.55323
579.3585, 40.50407
579.8406, 40.09809
580.3228, 39.93349
580.8049, 40.96026
581.2870, 43.07433
581.7691, 44.39129
582.2512, 44.41471
582.7333, 43.90752
583.2155, 44.03535
583.6975, 44.59312
584.1796, 44.94275
584.6617, 44.43425
585.1439, 43.84040
585.6260, 43.97857
586.1081, 44.70817
586.5902, 45.31279
587.0723, 45.30599
587.5544, 45.19539
