##NAMES=Talc
##RRUFFID=R050058
##IDEAL CHEMISTRY=Mg_3_Si_4_O_10_(OH)_2_
##LOCALITY=Murphy, North Carolina, USA
##OWNER=RRUFF
##SOURCE=Rock Currier
##DESCRIPTION=Fine-grained massive fragment
##STATUS=The identification of this mineral has been confirmed by X-ray diffraction and chemical analysis
##URL=rruff.info/R050058
##MEASURED CHEMISTRY=(Mg_.994_Fe_.006_)_3_(Si_.996_Al_.004_)_4_O_10_(OH)_2_
171.6417, 22693.76
172.1238, 22762.06
172.6059, 22858.47
173.0880, 23009.09
173.5701, 23133.91
174.0522, 23176.61
174.5344, 23178.86
175.0165, 23199.66
175.4986, 23271.31
175.9807, 23377.88
176.4628, 23474.32
176.9449, 23546.79
177.4271, 23636.12
177.9092, 23768.21
178.3913, 23921.19
178.8734, 24064.00
179.3555, 24179.23
179.8376, 24278.54
180.3197, 24401.04
180.8019, 24567.55
181.2840, 24719.91
181.7661, 24825.55
182.2482, 24913.27
182.7303, 25019.33
183.2124, 25164.06
183.6946, 25333.93
184.1767, 25489.82
184.6588, 25620.61
185.1409, 25754.87
185.6230, 25888.30
186.1051, 26031.82
186.5873, 26195.11
187.0694, 26380.52
187.5515, 26594.30
188.0336, 26857.71
188.5157, 27171.06
188.9978, 27538.99
189.4800, 27884.98
189.9621, 28301.56
190.4442, 28893.10
190.9263, 29705.07
191.4084, 30698.38
191.8905, 31792.63
192.3727, 33066.51
192.8548, 34312.14
193.3369, 35836.98
193.8190, 37174.95
194.3011, 37891.66
194.7832, 37814.15
195.2654, 37068.93
195.7475, 35862.87
196.2296, 33838.84
196.7117, 31995.95
197.1938, 30356.68
197.6759, 28970.43
198.1581, 27917.50
198.6402, 27215.81
199.1223, 26770.83
199.6044, 26419.05
200.0865, 26178.28
200.5686, 26006.18
201.0508, 25912.93
201.5329, 25862.40
202.0150, 25844.51
202.4971, 25851.34
202.9792, 25854.57
203.4613, 25798.25
203.9435, 25627.89
204.4256, 25523.29
204.9077, 25525.61
205.3898, 25561.92
205.8719, 25587.94
206.3540, 25592.95
206.8362, 25589.21
207.3183, 25595.06
207.8004, 25619.59
208.2825, 25629.73
208.7646, 25620.70
209.2467, 25602.93
209.7289, 25574.19
210.2110, 25538.81
210.6931, 25511.79
211.1752, 25513.71
211.6573, 25554.83
212.1395, 25587.42
212.6216, 25600.09
213.1037, 25614.39
213.5858, 25646.35
214.0679, 25692.23
214.5500, 25733.47
215.0322, 25748.80
215.5143, 25732.15
215.9964, 25729.92
216.4785, 25740.15
216.9606, 25766.30
217.4427, 25823.59
217.9249, 25900.83
218.4070, 25968.84
218.8891, 25999.47
219.3712, 25991.04
219.8533, 26005.97
220.3354, 26077.81
220.8176, 26141.35
221.2997, 26182.73
221.7818, 26202.02
222.2639, 26199.97
222.7460, 26172.71
223.2281, 26124.58
223.7103, 26104.72
224.1924, 26136.26
224.6745, 26173.62
225.1566, 26212.67
225.6387, 26250.54
226.1208, 26283.11
226.6030, 26306.92
227.0851, 26325.72
227.5672, 26357.41
228.0493, 26434.88
228.5314, 26478.77
229.0135, 26461.59
229.4957, 26411.30
229.9778, 26356.36
230.4599, 26309.09
230.9420, 26269.88
231.4241, 26241.07
231.9062, 26234.60
232.3884, 26217.88
232.8705, 26177.48
233.3526, 26131.78
233.8347, 26090.51
234.3168, 26058.06
234.7989, 26043.76
235.2811, 26069.36
235.7632, 26159.42
236.2453, 26231.42
236.7274, 26281.42
237.2095, 26312.31
237.6916, 26316.97
238.1738, 26297.83
238.6559, 26276.57
239.1380, 26284.79
239.6201, 26335.70
240.1022, 26366.89
240.5843, 26359.26
241.0665, 26345.38
241.5486, 26334.99
242.0307, 26331.60
242.5128, 26339.69
242.9949, 26374.00
243.4770, 26440.16
243.9592, 26463.66
244.4413, 26386.43
244.9234, 26319.96
245.4055, 26313.71
245.8876, 26353.61
246.3697, 26397.05
246.8519, 26413.17
247.3340, 26405.38
247.8161, 26405.04
248.2982, 26426.27
248.7803, 26435.27
249.2624, 26412.78
249.7446, 26372.85
250.2267, 26336.54
250.7088, 26311.89
251.1909, 26301.46
251.6730, 26315.45
252.1551, 26366.64
252.6373, 26417.03
253.1194, 26463.67
253.6015, 26499.70
254.0836, 26515.46
254.5657, 26505.87
255.0478, 26481.03
255.5300, 26451.49
256.0121, 26411.36
256.4942, 26389.63
256.9763, 26418.36
257.4584, 26455.28
257.9406, 26462.75
258.4227, 26431.77
258.9048, 26403.25
259.3869, 26433.11
259.8690, 26525.28
260.3511, 26583.07
260.8333, 26558.40
261.3154, 26519.54
261.7975, 26517.30
262.2796, 26552.04
262.7617, 26591.54
263.2438, 26616.69
263.7260, 26628.21
264.2081, 26627.89
264.6902, 26607.26
265.1723, 26588.17
265.6544, 26594.00
266.1365, 26616.14
266.6187, 26625.27
267.1008, 26597.02
267.5829, 26548.31
268.0650, 26511.16
268.5471, 26483.78
269.0292, 26476.42
269.5114, 26521.93
269.9935, 26590.66
270.4756, 26630.04
270.9577, 26609.49
271.4398, 26568.02
271.9219, 26547.80
272.4041, 26549.29
272.8862, 26556.84
273.3683, 26563.20
273.8504, 26571.15
274.3325, 26588.13
274.8146, 26626.67
275.2968, 26651.96
275.7789, 26622.36
276.2610, 26554.34
276.7431, 26517.53
277.2252, 26542.59
277.7073, 26602.46
278.1895, 26656.48
278.6716, 26707.87
279.1537, 26743.03
279.6358, 26744.44
280.1179, 26729.09
280.6000, 26724.88
281.0822, 26737.83
281.5643, 26762.94
282.0464, 26796.22
282.5285, 26837.72
283.0106, 26884.60
283.4927, 26940.39
283.9749, 26999.00
284.4570, 27052.34
284.9391, 27100.77
285.4212, 27155.43
285.9033, 27224.99
286.3854, 27309.91
286.8676, 27402.25
287.3497, 27532.03
287.8318, 27639.88
288.3139, 27683.90
288.7960, 27681.46
289.2781, 27683.96
289.7603, 27724.00
290.2424, 27783.81
290.7245, 27786.04
291.2066, 27687.90
291.6887, 27589.64
292.1708, 27505.68
292.6530, 27429.73
293.1351, 27353.39
293.6172, 27273.73
294.0993, 27194.04
294.5814, 27120.92
295.0635, 27058.88
295.5457, 26994.86
296.0278, 26907.70
296.5099, 26834.04
296.9920, 26819.86
297.4741, 26857.79
297.9562, 26884.44
298.4384, 26824.48
298.9205, 26655.24
299.4026, 26557.91
299.8847, 26588.53
300.3668, 26632.62
300.8489, 26653.91
301.3311, 26658.01
301.8131, 26667.11
302.2953, 26698.61
302.7774, 26743.96
303.2595, 26757.78
303.7416, 26716.60
304.2237, 26676.78
304.7058, 26648.84
305.1880, 26628.61
305.6701, 26610.20
306.1522, 26591.24
306.6343, 26577.26
307.1164, 26579.79
307.5985, 26604.05
308.0807, 26625.26
308.5628, 26640.80
309.0449, 26650.54
309.5270, 26652.28
310.0091, 26646.45
310.4912, 26637.82
310.9734, 26628.31
311.4555, 26618.45
311.9376, 26617.08
312.4197, 26640.14
312.9018, 26648.41
313.3839, 26600.02
313.8661, 26517.77
314.3482, 26462.87
314.8303, 26484.80
315.3124, 26541.23
315.7945, 26554.80
316.2766, 26519.27
316.7588, 26476.89
317.2409, 26439.57
317.7230, 26414.07
318.2051, 26414.69
318.6872, 26458.46
319.1693, 26501.67
319.6515, 26512.95
320.1336, 26496.00
320.6157, 26464.24
321.0978, 26415.42
321.5799, 26364.52
322.0620, 26334.58
322.5442, 26325.06
323.0263, 26328.86
323.5084, 26349.92
323.9905, 26380.70
324.4726, 26414.77
324.9547, 26451.08
325.4369, 26481.42
325.9190, 26495.43
326.4011, 26490.96
326.8832, 26498.16
327.3653, 26514.68
327.8474, 26544.36
328.3296, 26599.42
328.8117, 26671.03
329.2938, 26734.20
329.7759, 26774.21
330.2580, 26795.33
330.7401, 26815.61
331.2223, 26857.96
331.7044, 26870.84
332.1865, 26821.75
332.6686, 26752.96
333.1507, 26712.38
333.6328, 26713.71
334.1150, 26732.09
334.5971, 26728.87
335.0792, 26689.57
335.5613, 26668.34
336.0434, 26697.03
336.5255, 26713.77
337.0077, 26676.46
337.4898, 26595.98
337.9719, 26513.76
338.4540, 26461.71
338.9361, 26437.35
339.4182, 26419.57
339.9004, 26415.93
340.3825, 26407.75
340.8646, 26380.03
341.3467, 26348.44
341.8288, 26334.05
342.3109, 26346.10
342.7931, 26371.17
343.2752, 26386.31
343.7573, 26387.93
344.2394, 26406.44
344.7215, 26466.78
345.2036, 26532.88
345.6858, 26570.47
346.1679, 26579.07
346.6500, 26596.04
347.1321, 26653.22
347.6142, 26736.55
348.0963, 26805.27
348.5785, 26850.70
349.0606, 26896.52
349.5427, 26959.54
350.0248, 27037.81
350.5069, 27127.85
350.9890, 27243.69
351.4712, 27360.00
351.9533, 27451.34
352.4354, 27522.91
352.9175, 27598.76
353.3996, 27684.25
353.8817, 27787.80
354.3639, 27941.49
354.8460, 28175.86
355.3281, 28384.00
355.8102, 28500.84
356.2923, 28597.40
356.7744, 28754.20
357.2566, 28989.18
357.7387, 29273.61
358.2208, 29578.85
358.7029, 29909.41
359.1850, 30241.09
359.6671, 30592.22
360.1493, 30925.21
360.6314, 31264.58
361.1135, 31571.11
361.5956, 31774.02
362.0777, 31833.32
362.5598, 31755.29
363.0420, 31560.16
363.5241, 31205.83
364.0062, 30790.75
364.4883, 30303.10
364.9704, 29783.01
365.4525, 29239.48
365.9347, 28685.81
366.4168, 28170.78
366.8989, 27753.64
367.3810, 27433.72
367.8631, 27172.97
368.3452, 26983.35
368.8274, 26841.70
369.3095, 26750.10
369.7916, 26692.15
370.2737, 26629.87
370.7558, 26536.81
371.2379, 26436.25
371.7201, 26375.49
372.2022, 26359.77
372.6843, 26332.65
373.1664, 26253.66
373.6485, 26160.78
374.1306, 26110.16
374.6128, 26109.37
375.0949, 26129.63
375.5770, 26169.81
376.0591, 26218.29
376.5412, 26251.26
377.0233, 26263.35
377.5055, 26263.93
377.9876, 26261.84
378.4697, 26256.87
378.9518, 26245.84
379.4339, 26220.14
379.9160, 26196.10
380.3982, 26190.93
380.8803, 26196.32
381.3624, 26187.93
381.8445, 26151.73
382.3266, 26096.04
382.8087, 26045.41
383.2909, 26018.48
383.7730, 25971.50
384.2551, 25876.16
384.7372, 25778.63
385.2193, 25721.73
385.7014, 25708.78
386.1836, 25706.84
386.6657, 25680.11
387.1478, 25626.81
387.6299, 25585.05
388.1120, 25557.28
388.5941, 25539.24
389.0763, 25544.45
389.5584, 25554.66
390.0405, 25532.08
390.5226, 25447.25
391.0047, 25362.02
391.4868, 25402.35
391.9690, 25588.33
392.4511, 25702.74
392.9332, 25639.55
393.4153, 25524.55
393.8974, 25485.17
394.3795, 25522.07
394.8617, 25546.89
395.3438, 25500.74
395.8259, 25420.38
396.3080, 25366.63
396.7901, 25345.61
397.2722, 25335.40
397.7544, 25320.24
398.2365, 25303.79
398.7186, 25302.13
399.2007, 25333.31
399.6828, 25358.77
400.1649, 25356.11
400.6471, 25339.65
401.1292, 25339.42
401.6113, 25365.41
402.0934, 25389.29
402.5755, 25364.88
403.0576, 25262.77
403.5398, 25203.33
404.0219, 25221.02
404.5040, 25242.62
404.9861, 25227.39
405.4682, 25184.08
405.9503, 25144.17
406.4325, 25129.22
406.9146, 25128.67
407.3967, 25099.07
407.8788, 25005.35
408.3609, 24956.25
408.8430, 25015.33
409.3252, 25095.19
409.8073, 25123.77
410.2894, 25091.61
410.7715, 25047.45
411.2536, 25031.06
411.7357, 25038.13
412.2179, 25051.32
412.7000, 25077.29
413.1821, 25090.53
413.6642, 25052.91
414.1463, 24991.10
414.6284, 24961.11
415.1106, 24993.89
415.5927, 25035.82
416.0748, 25044.21
416.5569, 25029.29
417.0390, 25024.04
417.5211, 25041.16
418.0033, 25066.22
418.4854, 25075.47
418.9675, 25058.56
419.4496, 25062.68
419.9317, 25106.55
420.4138, 25157.90
420.8960, 25205.44
421.3781, 25242.39
421.8602, 25253.21
422.3423, 25224.74
422.8244, 25169.23
423.3065, 25140.15
423.7887, 25154.71
424.2708, 25170.10
424.7529, 25170.53
425.2350, 25177.29
425.7171, 25214.38
426.1992, 25281.68
426.6814, 25350.53
427.1635, 25386.25
427.6456, 25393.63
428.1277, 25427.07
428.6098, 25491.10
429.0919, 25573.00
429.5741, 25692.81
430.0562, 25819.32
430.5383, 25899.58
431.0204, 25905.38
431.5025, 25896.96
431.9846, 25939.56
432.4668, 26012.06
432.9489, 26038.95
433.4310, 25999.86
433.9131, 25913.35
434.3952, 25791.27
434.8773, 25629.90
435.3595, 25476.00
435.8416, 25322.23
436.3237, 25185.96
436.8058, 25081.73
437.2879, 25003.55
437.7701, 24935.91
438.2522, 24871.47
438.7343, 24809.29
439.2164, 24746.08
439.6985, 24668.96
440.1806, 24615.44
440.6628, 24600.12
441.1449, 24593.52
441.6270, 24570.00
442.1091, 24535.16
442.5912, 24517.81
443.0733, 24545.62
443.5555, 24605.58
444.0376, 24647.21
444.5197, 24666.01
445.0018, 24679.09
445.4839, 24698.09
445.9660, 24711.53
446.4482, 24702.74
446.9303, 24666.44
447.4124, 24634.09
447.8945, 24632.36
448.3766, 24646.75
448.8587, 24640.95
449.3409, 24608.03
449.8230, 24586.48
450.3051, 24613.77
450.7872, 24682.87
451.2693, 24719.81
451.7514, 24700.66
452.2336, 24679.90
452.7157, 24680.04
453.1978, 24687.57
453.6799, 24684.30
454.1620, 24664.75
454.6441, 24633.12
455.1263, 24592.70
455.6084, 24540.27
456.0905, 24497.65
456.5726, 24478.67
457.0547, 24455.96
457.5368, 24419.62
458.0190, 24374.43
458.5011, 24322.95
458.9832, 24261.88
459.4653, 24215.90
459.9474, 24232.60
460.4295, 24313.11
460.9117, 24372.41
461.3938, 24385.17
461.8759, 24384.49
462.3580, 24399.16
462.8401, 24426.59
463.3222, 24454.22
463.8044, 24475.04
464.2865, 24497.60
464.7686, 24531.79
465.2507, 24574.92
465.7328, 24615.32
466.2149, 24647.18
466.6971, 24676.58
467.1792, 24717.18
467.6613, 24793.34
468.1434, 24826.09
468.6255, 24799.35
469.1076, 24744.34
469.5898, 24672.75
470.0719, 24589.59
470.5540, 24499.31
471.0361, 24402.38
471.5182, 24305.21
472.0003, 24224.89
472.4825, 24165.25
472.9646, 24113.51
473.4467, 24091.50
473.9288, 24058.78
474.4109, 23970.17
474.8930, 23833.01
475.3752, 23722.35
475.8573, 23697.72
476.3394, 23720.39
476.8215, 23731.80
477.3036, 23730.55
477.7857, 23705.52
478.2679, 23639.46
478.7500, 23555.70
479.2321, 23512.88
479.7142, 23523.85
480.1963, 23536.19
480.6784, 23545.69
481.1606, 23548.52
481.6427, 23539.67
482.1248, 23519.93
482.6069, 23494.14
483.0890, 23464.57
483.5711, 23433.21
484.0533, 23410.80
484.5354, 23402.22
485.0175, 23394.91
485.4996, 23386.28
485.9817, 23378.55
486.4638, 23373.44
486.9460, 23371.14
487.4281, 23371.01
487.9102, 23375.40
488.3923, 23381.46
488.8744, 23378.37
489.3565, 23364.00
489.8387, 23352.30
490.3208, 23348.49
490.8029, 23353.25
491.2850, 23370.93
491.7671, 23414.98
492.2492, 23433.58
492.7314, 23386.72
493.2135, 23317.79
493.6956, 23271.87
494.1777, 23254.86
494.6598, 23258.12
495.1419, 23279.00
495.6241, 23311.98
496.1062, 23321.12
496.5883, 23283.73
497.0704, 23253.46
497.5525, 23242.72
498.0346, 23235.86
498.5168, 23216.99
498.9989, 23186.32
499.4810, 23159.46
499.9631, 23151.39
500.4452, 23157.33
500.9273, 23160.69
501.4095, 23162.11
501.8916, 23158.09
502.3737, 23146.92
502.8558, 23129.07
503.3379, 23102.97
503.8200, 23063.90
504.3022, 23036.99
504.7843, 23047.00
505.2664, 23065.39
505.7485, 23049.63
506.2306, 23002.97
506.7127, 22972.86
507.1949, 22994.32
507.6770, 23052.79
508.1591, 23084.24
508.6412, 23069.33
509.1233, 23054.43
509.6054, 23037.02
510.0876, 23024.32
510.5697, 23032.11
511.0518, 23053.00
511.5339, 23053.21
512.0161, 22991.80
512.4982, 22902.94
512.9803, 22896.79
513.4624, 22993.06
513.9445, 23050.43
514.4266, 22998.55
514.9088, 22901.33
515.3909, 22837.78
515.8730, 22808.15
516.3551, 22802.65
516.8372, 22844.61
517.3193, 22889.92
517.8015, 22894.15
518.2836, 22862.70
518.7657, 22826.85
519.2478, 22802.81
519.7299, 22786.23
520.2120, 22767.58
520.6942, 22752.03
521.1763, 22723.73
521.6584, 22681.27
522.1405, 22629.24
522.6226, 22548.38
523.1047, 22460.03
523.5869, 22419.26
524.0690, 22467.09
524.5511, 22548.92
525.0332, 22575.74
525.5153, 22547.87
525.9974, 22509.56
526.4796, 22464.08
526.9617, 22422.86
527.4438, 22398.25
527.9259, 22388.82
528.4080, 22390.10
528.8901, 22417.30
529.3723, 22439.48
529.8544, 22434.46
530.3365, 22411.94
530.8186, 22390.66
531.3007, 22377.03
531.7828, 22366.89
532.2650, 22354.37
532.7471, 22338.62
533.2292, 22325.31
533.7113, 22312.86
534.1934, 22304.94
534.6755, 22306.71
535.1577, 22312.00
535.6398, 22310.36
536.1219, 22297.66
536.6040, 22288.66
537.0861, 22308.90
537.5682, 22344.34
538.0504, 22345.38
538.5325, 22303.28
539.0146, 22248.82
539.4967, 22198.03
539.9788, 22153.34
540.4609, 22126.71
540.9431, 22122.50
541.4252, 22127.70
541.9073, 22151.93
542.3894, 22176.49
542.8715, 22181.25
543.3536, 22166.29
543.8358, 22146.36
544.3179, 22132.03
544.8000, 22123.37
545.2821, 22125.06
545.7642, 22149.82
546.2463, 22149.75
546.7285, 22086.49
547.2106, 22013.10
547.6927, 21971.20
548.1748, 21960.29
548.6569, 21951.76
549.1390, 21935.47
549.6211, 21913.97
550.1032, 21881.59
550.5853, 21844.27
551.0674, 21832.53
551.5496, 21862.15
552.0317, 21902.93
552.5138, 21902.69
552.9959, 21838.69
553.4780, 21811.26
553.9601, 21858.90
554.4423, 21896.39
554.9244, 21878.83
555.4065, 21831.87
555.8886, 21796.82
556.3707, 21788.70
556.8528, 21795.47
557.3350, 21810.94
557.8171, 21831.97
558.2992, 21828.52
558.7813, 21789.59
559.2634, 21752.48
559.7455, 21744.73
560.2277, 21757.45
560.7098, 21760.52
561.1919, 21749.85
561.6740, 21736.29
562.1561, 21722.34
562.6382, 21707.72
563.1204, 21696.02
563.6025, 21684.71
564.0846, 21660.61
564.5667, 21611.05
565.0488, 21545.93
565.5309, 21502.55
566.0131, 21481.71
566.4952, 21480.70
566.9773, 21526.35
567.4594, 21569.88
567.9415, 21580.24
568.4236, 21560.28
568.9058, 21530.30
569.3879, 21490.73
569.8700, 21451.99
570.3521, 21422.16
570.8342, 21401.58
571.3163, 21393.09
571.7985, 21398.19
572.2806, 21409.83
572.7627, 21420.96
573.2448, 21432.57
573.7269, 21434.10
574.2090, 21429.85
574.6912, 21410.89
575.1733, 21353.70
575.6554, 21291.76
576.1375, 21267.67
576.6196, 21288.21
577.1017, 21314.88
577.5839, 21309.54
578.0660, 21282.44
578.5481, 21269.49
579.0302, 21272.83
579.5123, 21275.72
579.9944, 21269.52
580.4766, 21259.40
580.9587, 21255.27
581.4408, 21257.40
581.9229, 21262.43
582.4050, 21277.98
582.8871, 21288.99
583.3693, 21284.20
583.8514, 21267.02
584.3335, 21243.73
584.8156, 21217.19
585.2977, 21193.35
585.7798, 21185.45
586.2620, 21195.99
586.7441, 21191.54
587.2262, 21160.54
587.7083, 21130.72
588.1904, 21125.76
588.6725, 21130.24
589.1547, 21116.17
589.6368, 21070.09
590.1189, 21031.09
590.6010, 21026.68
591.0831, 21035.16
591.5652, 21028.45
592.0474, 21005.49
592.5295, 20980.06
593.0116, 20960.87
593.4937, 20947.02
593.9758, 20936.97
594.4579, 20937.11
594.9401, 20925.93
595.4222, 20882.23
595.9043, 20844.73
596.3864, 20837.94
596.8685, 20852.89
597.3506, 20865.58
597.8328, 20867.86
598.3149, 20863.82
598.7970, 20853.22
599.2791, 20839.52
599.7612, 20830.59
600.2433, 20827.90
600.7255, 20834.53
601.2076, 20857.97
601.6897, 20892.73
602.1718, 20893.42
602.6539, 20817.42
603.1360, 20765.21
603.6182, 20763.47
604.1003, 20772.66
604.5824, 20761.08
605.0645, 20731.35
605.5466, 20708.31
606.0287, 20711.39
606.5109, 20721.75
606.9930, 20709.92
607.4751, 20678.13
607.9572, 20640.36
608.4393, 20595.18
608.9214, 20564.55
609.4036, 20579.13
609.8857, 20639.10
610.3678, 20657.79
610.8499, 20591.07
611.3320, 20543.00
611.8141, 20558.44
612.2963, 20590.81
612.7784, 20590.83
613.2605, 20555.38
613.7426, 20515.85
614.2247, 20494.34
614.7068, 20486.82
615.1890, 20483.08
615.6711, 20482.89
616.1532, 20495.67
616.6353, 20536.13
617.1174, 20568.65
617.5995, 20543.92
618.0817, 20460.44
618.5638, 20401.08
619.0459, 20366.88
619.5280, 20359.74
620.0101, 20412.31
620.4922, 20476.62
620.9744, 20485.70
621.4565, 20432.46
621.9386, 20370.98
622.4207, 20351.87
622.9028, 20362.49
623.3849, 20350.28
623.8671, 20309.59
624.3492, 20280.04
624.8313, 20279.62
625.3134, 20288.46
625.7955, 20277.24
626.2776, 20247.40
626.7598, 20239.75
627.2419, 20284.96
627.7240, 20326.51
628.2061, 20333.78
628.6882, 20320.06
629.1703, 20304.03
629.6525, 20290.89
630.1346, 20277.20
630.6167, 20258.20
631.0988, 20236.01
631.5809, 20223.43
632.0630, 20223.02
632.5452, 20222.38
633.0273, 20220.18
633.5094, 20213.71
633.9915, 20195.29
634.4736, 20166.01
634.9557, 20149.85
635.4379, 20166.50
635.9200, 20181.90
636.4021, 20176.58
636.8842, 20157.61
637.3663, 20132.05
637.8484, 20103.94
638.3306, 20084.72
638.8127, 20089.93
639.2948, 20113.29
639.7769, 20114.85
640.2590, 20089.22
640.7411, 20060.37
641.2233, 20030.73
641.7054, 20005.01
642.1875, 19985.32
642.6696, 19972.00
643.1517, 19971.92
643.6339, 20008.07
644.1160, 20034.79
644.5981, 20010.15
645.0802, 19966.54
645.5623, 19958.14
646.0444, 19993.40
646.5266, 20034.82
647.0087, 20047.01
647.4908, 20036.52
647.9729, 20031.29
648.4550, 20028.23
648.9371, 20046.33
649.4193, 20117.41
649.9014, 20181.79
650.3835, 20166.79
650.8656, 20085.90
651.3477, 20034.76
651.8298, 20045.19
652.3120, 20070.47
652.7941, 20098.15
653.2762, 20123.01
653.7583, 20134.02
654.2404, 20132.58
654.7225, 20135.78
655.2047, 20157.90
655.6868, 20194.47
656.1689, 20231.40
656.6510, 20268.87
657.1331, 20304.68
657.6152, 20333.67
658.0974, 20367.27
658.5795, 20415.81
659.0616, 20477.78
659.5437, 20547.33
660.0258, 20610.57
660.5079, 20698.19
660.9901, 20843.98
661.4722, 21004.37
661.9543, 21123.59
662.4364, 21207.38
662.9185, 21309.50
663.4006, 21466.17
663.8828, 21662.10
664.3649, 21868.05
664.8470, 22084.10
665.3291, 22303.39
665.8112, 22515.94
666.2933, 22756.01
666.7755, 23057.33
667.2576, 23408.11
667.7397, 23755.33
668.2218, 24084.98
