##NAMES=Talc
##RRUFFID=R040137
##IDEAL CHEMISTRY=Mg_3_Si_4_O_10_(OH)_2_
##LOCALITY=Murphy, North Carolina, USA
##OWNER=RRUFF
##SOURCE=University of Arizona Mineral Museum
##DESCRIPTION=Colorless massive
##STATUS=The identification of this mineral has been confirmed by X-ray diffraction and chemical analysis
##URL=rruff.info/R040137
##MEASURED CHEMISTRY=(Mg_0.97_Fe_0.01_Al_0.01_)_3_Si_4.03_O_10_((OH)_0.99_F_0.01_)_2_
161.7148, 24551.80
162.1969, 24650.02
162.6790, 24764.40
163.1611, 24870.78
163.6432, 24944.84
164.1253, 25022.93
164.6075, 25130.64
165.0896, 25269.10
165.5717, 25402.51
166.0538, 25503.57
166.5359, 25588.33
167.0180, 25680.01
167.5002, 25806.16
167.9823, 25932.48
168.4644, 26027.44
168.9465, 26084.40
169.4286, 26140.24
169.9107, 26229.67
170.3929, 26337.86
170.8750, 26435.92
171.3571, 26496.30
171.8392, 26543.47
172.3213, 26600.52
172.8034, 26667.65
173.2856, 26751.61
173.7677, 26882.40
174.2498, 27043.05
174.7319, 27173.18
175.2140, 27203.16
175.6961, 27187.45
176.1783, 27212.48
176.6604, 27305.19
177.1425, 27422.09
177.6246, 27515.04
178.1067, 27585.23
178.5888, 27646.44
179.0710, 27699.77
179.5531, 27750.40
180.0352, 27808.49
180.5173, 27874.13
180.9994, 27950.22
181.4815, 28050.34
181.9637, 28174.28
182.4458, 28287.20
182.9279, 28338.14
183.4100, 28348.00
183.8921, 28398.28
184.3742, 28529.15
184.8564, 28708.08
185.3385, 28851.57
185.8206, 28958.04
186.3027, 29063.10
186.7848, 29201.40
187.2669, 29371.04
187.7491, 29560.84
188.2312, 29764.88
188.7133, 29984.92
189.1954, 30233.98
189.6775, 30512.04
190.1596, 30812.84
190.6418, 31112.82
191.1239, 31412.92
191.6060, 31790.07
192.0881, 32335.31
192.5702, 33018.46
193.0524, 33621.99
193.5345, 34189.31
194.0166, 34563.46
194.4987, 34431.16
194.9808, 33767.77
195.4629, 32965.77
195.9451, 32133.35
196.4272, 31263.90
196.9093, 30616.21
197.3914, 30221.80
197.8735, 30012.18
198.3556, 29882.44
198.8378, 29840.33
199.3199, 29830.08
199.8020, 29828.77
200.2841, 29837.05
200.7662, 29843.43
201.2483, 29843.87
201.7305, 29845.12
202.2126, 29865.40
202.6947, 29907.82
203.1768, 29957.66
203.6589, 30008.12
204.1410, 30059.28
204.6232, 30107.29
205.1053, 30152.15
205.5874, 30193.46
206.0695, 30229.14
206.5516, 30257.89
207.0337, 30284.43
207.5159, 30310.80
207.9980, 30335.26
208.4801, 30365.50
208.9622, 30402.52
209.4443, 30446.02
209.9264, 30497.84
210.4086, 30564.96
210.8907, 30626.52
211.3728, 30662.24
211.8549, 30662.88
212.3370, 30670.28
212.8191, 30691.57
213.3013, 30725.17
213.7834, 30759.64
214.2655, 30794.53
214.7476, 30831.19
215.2297, 30868.38
215.7118, 30901.95
216.1940, 30949.60
216.6761, 31018.83
217.1582, 31108.55
217.6403, 31191.01
218.1224, 31272.44
218.6045, 31337.10
219.0867, 31363.23
219.5688, 31328.24
220.0509, 31307.94
220.5330, 31320.94
221.0151, 31368.11
221.4972, 31413.60
221.9794, 31458.12
222.4615, 31500.58
222.9436, 31540.91
223.4257, 31581.08
223.9078, 31614.83
224.3899, 31636.40
224.8721, 31643.90
225.3542, 31669.14
225.8363, 31723.44
226.3184, 31784.96
226.8005, 31825.57
227.2827, 31826.79
227.7648, 31842.52
228.2469, 31892.48
228.7290, 31983.68
229.2111, 32052.29
229.6932, 32088.90
230.1754, 32109.77
230.6575, 32136.73
231.1396, 32174.79
231.6217, 32209.94
232.1038, 32240.19
232.5859, 32267.34
233.0681, 32278.55
233.5502, 32265.09
234.0323, 32241.98
234.5144, 32229.17
234.9965, 32222.98
235.4786, 32233.66
235.9608, 32264.26
236.4429, 32314.44
236.9250, 32386.63
237.4071, 32499.08
237.8892, 32621.69
238.3713, 32706.16
238.8535, 32740.04
239.3356, 32756.27
239.8177, 32761.38
240.2998, 32749.81
240.7819, 32749.15
241.2640, 32763.77
241.7462, 32786.73
242.2283, 32803.88
242.7104, 32801.41
243.1925, 32815.93
243.6746, 32861.99
244.1567, 32949.07
244.6389, 33039.31
245.1210, 33145.21
245.6031, 33246.75
246.0852, 33305.30
246.5673, 33303.43
247.0494, 33287.96
247.5316, 33271.66
248.0137, 33249.57
248.4958, 33243.16
248.9779, 33252.01
249.4600, 33276.91
249.9421, 33321.07
250.4243, 33393.81
250.9064, 33469.73
251.3885, 33542.79
251.8706, 33618.98
252.3527, 33671.18
252.8348, 33690.60
253.3170, 33691.52
253.7991, 33698.33
254.2812, 33705.99
254.7633, 33729.35
255.2454, 33783.72
255.7275, 33890.05
256.2097, 33941.93
256.6918, 33909.18
257.1739, 33842.14
257.6560, 33838.71
258.1381, 33927.35
258.6202, 34021.18
259.1024, 34086.33
259.5845, 34112.68
260.0666, 34153.32
260.5487, 34223.91
261.0308, 34296.74
261.5129, 34314.00
261.9951, 34246.39
262.4772, 34192.93
262.9593, 34196.71
263.4414, 34270.84
263.9235, 34342.96
264.4056, 34420.67
264.8878, 34490.04
265.3699, 34522.12
265.8520, 34502.23
266.3341, 34487.85
266.8162, 34504.35
267.2983, 34557.61
267.7805, 34603.32
268.2626, 34640.24
268.7447, 34670.49
269.2268, 34697.97
269.7089, 34723.35
270.1910, 34743.40
270.6732, 34755.42
271.1553, 34758.25
271.6374, 34760.55
272.1195, 34755.61
272.6016, 34760.04
273.0837, 34810.91
273.5659, 34920.45
274.0480, 35014.77
274.5301, 35057.68
275.0122, 35046.48
275.4943, 35058.33
275.9764, 35099.36
276.4586, 35151.89
276.9407, 35184.15
277.4228, 35191.49
277.9049, 35215.22
278.3870, 35278.50
278.8691, 35379.09
279.3513, 35467.34
279.8334, 35544.13
280.3155, 35606.33
280.7976, 35643.41
281.2798, 35653.81
281.7619, 35667.67
282.2440, 35694.62
282.7261, 35734.26
283.2082, 35787.19
283.6903, 35856.51
284.1725, 35927.66
284.6546, 35982.10
285.1367, 36019.88
285.6188, 36053.93
286.1009, 36084.71
286.5830, 36115.00
287.0652, 36157.86
287.5473, 36213.65
288.0294, 36277.32
288.5115, 36347.00
288.9936, 36421.79
289.4757, 36492.69
289.9579, 36567.50
290.4400, 36634.04
290.9221, 36657.25
291.4042, 36635.61
291.8863, 36589.55
292.3684, 36515.32
292.8506, 36426.37
293.3327, 36382.16
293.8148, 36427.27
294.2969, 36513.36
294.7790, 36542.22
295.2611, 36513.75
295.7433, 36474.16
296.2254, 36462.93
296.7075, 36472.27
297.1896, 36479.55
297.6717, 36470.57
298.1538, 36462.85
298.6360, 36489.96
299.1181, 36549.32
299.6002, 36607.30
300.0823, 36630.33
300.5644, 36635.02
301.0465, 36654.05
301.5287, 36702.42
302.0108, 36760.39
302.4929, 36810.06
302.9750, 36851.34
303.4571, 36880.97
303.9392, 36881.43
304.4214, 36873.80
304.9035, 36889.59
305.3856, 36948.52
305.8677, 37012.43
306.3498, 37049.57
306.8319, 37063.48
307.3141, 37067.19
307.7962, 37044.52
308.2783, 37026.29
308.7604, 37049.07
309.2425, 37138.99
309.7246, 37228.61
310.2068, 37275.77
310.6889, 37289.24
311.1710, 37292.64
311.6531, 37279.85
312.1352, 37272.06
312.6173, 37287.02
313.0995, 37332.95
313.5816, 37385.40
314.0637, 37441.28
314.5458, 37495.51
315.0279, 37539.08
315.5100, 37562.80
315.9922, 37579.26
316.4743, 37592.57
316.9564, 37600.57
317.4385, 37616.31
317.9206, 37640.39
318.4027, 37675.60
318.8849, 37725.80
319.3670, 37830.10
319.8491, 37916.11
320.3312, 37942.42
320.8133, 37891.05
321.2954, 37873.27
321.7776, 37945.00
322.2597, 38047.50
322.7418, 38118.20
323.2239, 38124.02
323.7060, 38121.27
324.1881, 38122.89
324.6703, 38130.20
325.1524, 38130.69
325.6345, 38096.90
326.1166, 38070.10
326.5987, 38083.20
327.0808, 38153.34
327.5630, 38243.85
328.0451, 38370.08
328.5272, 38528.32
329.0093, 38637.00
329.4914, 38672.93
329.9735, 38678.29
330.4557, 38676.63
330.9378, 38650.10
331.4199, 38649.18
331.9020, 38690.91
332.3841, 38763.45
332.8662, 38807.40
333.3484, 38809.71
333.8305, 38802.63
334.3126, 38801.30
334.7947, 38803.02
335.2768, 38820.49
335.7589, 38861.39
336.2411, 38914.45
336.7232, 38952.90
337.2053, 38974.93
337.6874, 38986.71
338.1695, 38982.26
338.6516, 38955.86
339.1338, 38969.03
339.6159, 39034.64
340.0980, 39121.05
340.5801, 39172.50
341.0622, 39186.48
341.5443, 39193.42
342.0265, 39200.73
342.5086, 39209.72
342.9907, 39233.51
343.4728, 39271.98
343.9549, 39325.01
344.4370, 39407.08
344.9192, 39512.55
345.4013, 39589.18
345.8834, 39600.74
346.3655, 39574.29
346.8476, 39577.48
347.3297, 39610.50
347.8119, 39664.23
348.2940, 39745.51
348.7761, 39842.80
349.2582, 39916.96
349.7403, 39941.31
350.2225, 39955.46
350.7046, 40022.29
351.1867, 40136.68
351.6688, 40254.58
352.1509, 40336.18
352.6331, 40403.32
353.1152, 40489.84
353.5973, 40608.32
354.0794, 40738.47
354.5615, 40863.92
355.0436, 40986.54
355.5258, 41112.07
356.0079, 41236.66
356.4900, 41369.40
356.9721, 41520.32
357.4542, 41694.86
357.9363, 41874.44
358.4185, 42041.80
358.9006, 42207.85
359.3827, 42391.48
359.8648, 42663.82
360.3469, 42905.07
360.8290, 43053.16
361.3112, 43098.36
361.7933, 43083.52
362.2754, 43005.89
362.7575, 42882.03
363.2396, 42729.30
363.7217, 42548.02
364.2039, 42343.79
364.6860, 42092.98
365.1681, 41794.18
365.6502, 41558.64
366.1323, 41437.06
366.6144, 41357.46
367.0966, 41269.99
367.5787, 41137.11
368.0608, 41041.82
368.5429, 41005.00
369.0250, 41014.80
369.5071, 41010.40
369.9893, 40976.11
370.4714, 40945.86
370.9535, 40937.49
371.4356, 40963.19
371.9177, 40983.52
372.3998, 40998.52
372.8820, 41007.66
373.3641, 41004.25
373.8462, 40975.63
374.3283, 40967.48
374.8104, 41003.76
375.2925, 41089.34
375.7747, 41165.95
376.2568, 41232.89
376.7389, 41293.55
377.2210, 41353.19
377.7031, 41412.39
378.1852, 41462.10
378.6674, 41499.41
379.1495, 41525.14
379.6316, 41541.35
380.1137, 41546.89
380.5958, 41552.23
381.0779, 41577.09
381.5601, 41613.93
382.0422, 41621.06
382.5243, 41577.93
383.0064, 41515.45
383.4885, 41480.91
383.9706, 41472.65
384.4528, 41480.77
384.9349, 41507.02
385.4170, 41543.09
385.8991, 41576.48
386.3812, 41606.14
386.8633, 41631.36
387.3455, 41648.03
387.8276, 41659.60
388.3097, 41674.30
388.7918, 41691.97
389.2739, 41717.07
389.7560, 41759.73
390.2382, 41823.09
390.7203, 41874.92
391.2024, 41886.68
391.6845, 41881.05
392.1666, 41884.25
392.6487, 41933.20
393.1309, 41965.97
393.6130, 41933.15
394.0951, 41843.83
394.5772, 41805.26
395.0593, 41903.54
395.5414, 42023.93
396.0236, 42093.71
396.5057, 42023.21
396.9878, 41996.46
397.4699, 42069.34
397.9520, 42203.46
398.4341, 42277.05
398.9163, 42241.27
399.3984, 42195.25
399.8805, 42171.24
400.3626, 42168.82
400.8447, 42192.21
401.3268, 42258.89
401.8090, 42338.40
402.2911, 42385.02
402.7732, 42382.11
403.2553, 42388.71
403.7374, 42422.23
404.2195, 42481.21
404.7017, 42544.94
405.1838, 42621.77
405.6659, 42681.12
406.1480, 42678.53
406.6301, 42612.53
407.1122, 42584.44
407.5944, 42621.23
408.0765, 42697.42
408.5586, 42758.85
409.0407, 42805.81
409.5228, 42835.84
410.0049, 42827.67
410.4871, 42800.59
410.9692, 42818.96
411.4513, 42899.96
411.9334, 42983.53
412.4155, 42982.98
412.8976, 42926.80
413.3798, 42897.04
413.8619, 42954.35
414.3440, 43042.91
414.8261, 43109.62
415.3082, 43153.23
415.7903, 43181.93
416.2725, 43184.70
416.7546, 43182.07
417.2367, 43197.64
417.7188, 43248.11
418.2009, 43307.66
418.6830, 43366.20
419.1652, 43424.63
419.6473, 43484.12
420.1294, 43554.63
420.6115, 43619.81
421.0937, 43673.47
421.5758, 43719.17
422.0579, 43741.29
422.5400, 43716.12
423.0221, 43670.75
423.5042, 43648.78
423.9864, 43644.04
424.4685, 43671.75
424.9506, 43748.37
425.4327, 43878.82
425.9148, 43980.04
426.3969, 44034.60
426.8791, 44079.78
427.3612, 44151.96
427.8433, 44267.90
428.3254, 44355.40
428.8075, 44394.54
429.2896, 44401.91
429.7718, 44433.16
430.2539, 44490.89
430.7360, 44558.16
431.2181, 44632.70
431.7002, 44712.57
432.1823, 44768.29
432.6645, 44796.37
433.1466, 44807.13
433.6287, 44820.44
434.1108, 44831.53
434.5929, 44814.80
435.0750, 44743.86
435.5572, 44645.35
436.0393, 44549.50
436.5214, 44458.09
437.0035, 44408.89
437.4856, 44475.50
437.9677, 44590.13
438.4499, 44656.61
438.9320, 44635.95
439.4141, 44586.37
439.8962, 44527.86
440.3783, 44470.88
440.8604, 44440.60
441.3426, 44459.66
441.8247, 44500.40
442.3068, 44550.23
442.7889, 44609.45
443.2710, 44669.45
443.7531, 44745.28
444.2353, 44813.81
444.7174, 44850.76
445.1995, 44800.14
445.6816, 44774.61
446.1637, 44802.35
446.6458, 44877.82
447.1280, 44946.23
447.6101, 44999.36
448.0922, 45054.77
448.5743, 45128.41
449.0564, 45249.21
449.5385, 45305.14
450.0207, 45263.24
450.5028, 45182.73
450.9849, 45189.25
451.4670, 45304.59
451.9491, 45394.87
452.4312, 45391.13
452.9134, 45310.38
453.3955, 45294.95
453.8776, 45352.33
454.3597, 45421.32
454.8418, 45433.62
455.3239, 45403.84
455.8061, 45395.28
456.2882, 45433.25
456.7703, 45481.38
457.2524, 45470.58
457.7345, 45418.28
458.2166, 45395.74
458.6988, 45475.63
459.1809, 45592.57
459.6630, 45677.36
460.1451, 45722.18
460.6272, 45746.14
461.1093, 45732.52
461.5915, 45713.82
462.0736, 45730.95
462.5557, 45854.87
463.0378, 45960.56
463.5199, 45973.59
464.0020, 45910.64
464.4842, 45900.51
464.9663, 46030.89
465.4484, 46175.90
465.9305, 46268.36
466.4126, 46270.46
466.8947, 46284.32
467.3769, 46321.96
467.8590, 46366.05
468.3411, 46388.61
468.8232, 46384.48
469.3053, 46366.89
469.7874, 46328.98
470.2696, 46273.88
470.7517, 46269.26
471.2338, 46330.34
471.7159, 46394.92
472.1980, 46393.51
472.6801, 46328.61
473.1623, 46315.74
473.6444, 46386.34
474.1265, 46485.71
474.6086, 46512.42
475.0907, 46477.05
475.5728, 46448.23
476.0550, 46476.23
476.5371, 46529.10
477.0192, 46551.16
477.5013, 46540.29
477.9834, 46528.59
478.4655, 46549.68
478.9477, 46582.09
479.4298, 46596.47
479.9119, 46567.58
480.3940, 46539.82
480.8761, 46539.13
481.3582, 46558.26
481.8404, 46576.53
482.3225, 46574.99
482.8046, 46581.15
483.2867, 46612.32
483.7688, 46681.61
484.2509, 46735.35
484.7331, 46763.03
485.2152, 46776.01
485.6973, 46782.57
486.1794, 46762.87
486.6615, 46773.71
487.1436, 46842.69
487.6258, 46949.34
488.1079, 46985.61
488.5900, 46923.22
489.0721, 46868.04
489.5542, 46893.85
490.0363, 47001.77
490.5185, 47053.76
491.0006, 47034.52
491.4827, 46997.23
491.9648, 47008.66
492.4470, 47063.00
492.9291, 47132.61
493.4112, 47228.34
493.8933, 47315.31
494.3754, 47317.19
494.8575, 47247.40
495.3397, 47190.29
495.8218, 47201.73
496.3039, 47254.38
496.7860, 47323.41
497.2681, 47411.52
497.7502, 47493.42
498.2324, 47558.08
498.7145, 47608.27
499.1966, 47648.99
499.6787, 47682.06
500.1608, 47704.84
500.6429, 47708.66
501.1251, 47695.63
501.6072, 47698.29
502.0893, 47750.77
502.5714, 47791.22
503.0535, 47782.95
503.5356, 47677.23
504.0178, 47643.32
504.4999, 47708.76
504.9820, 47821.50
505.4641, 47909.19
505.9462, 47971.60
506.4283, 48007.36
506.9105, 48005.80
507.3926, 47979.16
507.8747, 47975.46
508.3568, 47995.34
508.8389, 48027.60
509.3210, 48070.73
509.8032, 48120.13
510.2853, 48164.76
510.7674, 48204.13
511.2495, 48235.00
511.7316, 48250.84
512.2137, 48255.95
512.6959, 48259.02
513.1780, 48249.61
513.6601, 48251.09
514.1422, 48291.32
514.6243, 48363.00
515.1064, 48416.30
515.5886, 48416.24
516.0707, 48402.60
516.5528, 48399.63
517.0349, 48416.33
517.5170, 48431.17
517.9991, 48425.13
518.4813, 48422.71
518.9634, 48458.56
519.4455, 48565.03
519.9276, 48654.18
520.4097, 48706.57
520.8918, 48725.96
521.3740, 48740.80
521.8561, 48749.90
522.3382, 48758.34
522.8203, 48767.70
523.3024, 48778.21
523.7845, 48798.17
524.2667, 48830.81
524.7488, 48862.73
525.2309, 48879.59
525.7130, 48882.86
526.1951, 48875.53
526.6772, 48839.43
527.1594, 48811.65
527.6415, 48857.78
528.1236, 48958.81
528.6057, 49032.01
529.0878, 48987.98
529.5699, 48925.09
530.0521, 48926.89
530.5342, 49022.72
531.0163, 49097.88
531.4984, 49084.98
531.9805, 49046.58
532.4626, 49049.16
532.9448, 49148.32
533.4269, 49232.84
533.9090, 49286.45
534.3911, 49316.00
534.8732, 49345.97
535.3553, 49378.21
535.8375, 49408.30
536.3196, 49437.47
536.8017, 49467.04
537.2838, 49471.75
537.7659, 49446.41
538.2480, 49413.43
538.7302, 49389.41
539.2123, 49376.04
539.6944, 49388.57
540.1765, 49436.33
540.6586, 49500.24
541.1407, 49564.79
541.6229, 49625.95
542.1050, 49670.53
542.5871, 49682.16
543.0692, 49680.18
543.5513, 49679.06
544.0334, 49679.71
544.5156, 49683.69
544.9977, 49684.24
545.4798, 49692.77
545.9619, 49718.14
546.4440, 49762.04
546.9261, 49822.84
547.4083, 49930.21
547.8904, 50048.64
548.3725, 50111.44
548.8546, 50089.95
549.3367, 50059.29
549.8188, 50028.35
550.3010, 50000.02
550.7831, 50017.12
551.2652, 50094.09
551.7473, 50168.46
552.2294, 50189.44
552.7115, 50162.70
553.1937, 50138.88
553.6758, 50118.64
554.1579, 50115.22
554.6400, 50160.72
555.1221, 50238.19
555.6042, 50297.04
556.0864, 50300.14
556.5685, 50297.04
557.0506, 50343.63
557.5327, 50426.84
558.0148, 50497.52
558.4969, 50528.41
558.9791, 50541.93
559.4612, 50544.64
559.9433, 50531.22
560.4254, 50539.24
560.9075, 50598.96
561.3896, 50669.89
561.8718, 50716.86
562.3539, 50725.79
562.8360, 50734.24
563.3181, 50743.79
563.8002, 50754.95
564.2823, 50768.68
564.7645, 50784.39
565.2466, 50804.88
565.7287, 50831.16
566.2108, 50863.00
566.6929, 50909.56
567.1750, 50972.14
567.6572, 51010.72
568.1393, 50961.63
568.6214, 50868.76
569.1035, 50819.09
569.5856, 50826.41
570.0677, 50875.04
570.5499, 50999.52
571.0320, 51147.16
571.5141, 51235.66
571.9962, 51174.95
572.4783, 51109.09
572.9604, 51097.74
573.4426, 51132.22
573.9247, 51163.35
574.4068, 51174.61
574.8889, 51189.08
575.3710, 51216.27
575.8531, 51258.47
576.3353, 51300.58
576.8174, 51345.40
577.2995, 51385.35
577.7816, 51409.70
578.2637, 51415.94
578.7458, 51434.65
579.2280, 51475.30
579.7101, 51521.00
580.1922, 51540.81
580.6743, 51537.73
581.1564, 51528.59
581.6385, 51506.61
582.1207, 51490.75
582.6028, 51514.99
583.0849, 51574.16
583.5670, 51629.25
584.0491, 51648.94
584.5313, 51660.59
585.0134, 51688.12
585.4955, 51743.00
585.9776, 51787.50
586.4597, 51802.89
586.9418, 51806.57
587.4240, 51818.29
587.9061, 51846.82
588.3882, 51869.47
588.8703, 51873.16
589.3524, 51872.30
589.8345, 51922.01
590.3167, 52043.72
590.7988, 52132.50
591.2809, 52122.22
591.7630, 52037.91
592.2451, 52005.48
592.7272, 52025.64
593.2094, 52080.44
593.6915, 52191.43
594.1736, 52319.09
594.6557, 52376.77
595.1378, 52334.11
595.6199, 52287.15
596.1021, 52319.21
596.5842, 52389.21
597.0663, 52438.75
597.5485, 52428.57
598.0306, 52415.04
598.5127, 52414.18
598.9948, 52424.27
599.4769, 52436.22
599.9590, 52434.79
600.4412, 52453.39
600.9233, 52515.49
601.4054, 52627.68
601.8875, 52679.27
602.3696, 52655.11
602.8517, 52606.40
603.3339, 52561.23
603.8160, 52522.05
604.2981, 52540.95
604.7802, 52635.17
605.2623, 52747.34
605.7444, 52805.65
606.2266, 52822.19
606.7087, 52826.12
607.1908, 52813.51
607.6729, 52808.36
608.1550, 52835.48
608.6371, 52886.80
609.1193, 52937.11
609.6014, 52980.60
610.0835, 53016.73
610.5656, 53037.08
611.0477, 53035.95
611.5298, 53064.59
612.0120, 53159.80
612.4941, 53249.64
612.9762, 53282.07
613.4583, 53239.28
613.9404, 53201.42
614.4225, 53168.83
614.9047, 53147.07
615.3868, 53144.39
615.8689, 53160.24
616.3510, 53188.54
616.8331, 53231.60
617.3152, 53280.69
617.7974, 53326.41
618.2795, 53367.52
618.7616, 53401.65
619.2437, 53405.26
619.7258, 53417.71
620.2079, 53493.88
620.6901, 53634.34
621.1722, 53714.89
621.6543, 53625.66
622.1364, 53509.19
622.6185, 53458.46
623.1006, 53498.12
623.5828, 53564.42
624.0649, 53695.54
624.5470, 53818.26
625.0291, 53822.04
625.5112, 53672.09
625.9933, 53596.14
626.4755, 53654.29
626.9576, 53783.12
627.4397, 53867.01
627.9218, 53906.74
628.4039, 53908.15
628.8860, 53820.02
629.3682, 53723.51
629.8503, 53749.24
630.3324, 53882.48
630.8145, 54010.74
631.2966, 54062.58
631.7787, 54088.77
632.2609, 54127.06
632.7430, 54190.01
633.2251, 54234.53
633.7072, 54245.58
634.1893, 54238.18
634.6714, 54220.88
635.1536, 54172.80
635.6357, 54163.91
636.1178, 54211.39
636.5999, 54287.48
637.0820, 54341.52
637.5641, 54372.35
638.0463, 54404.28
638.5284, 54452.88
639.0105, 54501.02
639.4926, 54498.46
639.9747, 54456.51
640.4568, 54440.32
640.9390, 54527.22
641.4211, 54633.36
641.9032, 54678.55
642.3853, 54657.06
642.8674, 54622.79
643.3495, 54548.33
643.8317, 54501.41
644.3138, 54537.82
644.7959, 54758.98
645.2780, 54874.00
645.7601, 54820.51
646.2422, 54715.59
646.7244, 54702.52
647.2065, 54801.42
647.6886, 54891.56
648.1707, 54957.39
648.6528, 54995.30
649.1349, 54973.89
649.6171, 54905.23
650.0992, 54873.68
650.5813, 54945.88
651.0634, 55059.73
651.5455, 55157.57
652.0276, 55236.05
652.5098, 55272.29
652.9919, 55182.69
653.4740, 55102.57
653.9561, 55138.99
654.4382, 55332.00
654.9203, 55456.38
655.4025, 55413.93
655.8846, 55352.32
656.3667, 55376.86
656.8488, 55533.42
657.3309, 55631.06
657.8130, 55642.68
