##NAMES=Talc
##RRUFFID=R040137
##IDEAL CHEMISTRY=Mg_3_Si_4_O_10_(OH)_2_
##LOCALITY=Murphy, North Carolina, USA
##OWNER=RRUFF
##SOURCE=University of Arizona Mineral Museum
##DESCRIPTION=Colorless massive
##STATUS=The identification of this mineral has been confirmed by X-ray diffraction and chemical analysis
##URL=rruff.info/R040137
##MEASURED CHEMISTRY=(Mg_0.97_Fe_0.01_Al_0.01_)_3_Si_4.03_O_10_((OH)_0.99_F_0.01_)_2_
172.6059, 20890.84
173.0880, 20913.25
173.5701, 20940.02
174.0522, 20992.67
174.5344, 21062.44
175.0165, 21137.32
175.4986, 21213.38
175.9807, 21289.97
176.4628, 21366.04
176.9449, 21440.51
177.4271, 21516.71
177.9092, 21597.62
178.3913, 21680.21
178.8734, 21761.51
179.3555, 21843.66
179.8376, 21921.34
180.3197, 21976.20
180.8019, 21988.97
181.2840, 22013.23
181.7661, 22062.62
182.2482, 22131.95
182.7303, 22216.36
183.2124, 22315.39
183.6946, 22425.00
184.1767, 22535.13
184.6588, 22649.70
185.1409, 22755.94
185.6230, 22844.58
186.1051, 22926.09
186.5873, 23007.48
187.0694, 23088.19
187.5515, 23181.39
188.0336, 23326.48
188.5157, 23540.62
188.9978, 23781.12
189.4800, 24009.89
189.9621, 24263.96
190.4442, 24579.63
190.9263, 24969.68
191.4084, 25437.08
191.8905, 25998.59
192.3727, 26720.03
192.8548, 27426.57
193.3369, 28272.36
193.8190, 29012.90
194.3011, 29423.32
194.7832, 29414.31
195.2654, 29044.66
195.7475, 28405.71
196.2296, 27301.20
196.7117, 26277.84
197.1938, 25328.59
197.6759, 24513.55
198.1581, 23904.51
198.6402, 23520.62
199.1223, 23301.62
199.6044, 23146.84
200.0865, 23085.67
200.5686, 23034.36
201.0508, 22977.78
201.5329, 22930.00
202.0150, 22909.77
202.4971, 22919.85
202.9792, 22937.51
203.4613, 22920.52
203.9435, 22836.19
204.4256, 22792.43
204.9077, 22825.50
205.3898, 22872.31
205.8719, 22887.72
206.3540, 22864.10
206.8362, 22827.87
207.3183, 22816.96
207.8004, 22846.65
208.2825, 22863.08
208.7646, 22874.40
209.2467, 22868.20
209.7289, 22821.14
210.2110, 22739.58
210.6931, 22662.46
211.1752, 22635.70
211.6573, 22668.81
212.1395, 22720.03
212.6216, 22830.21
213.1037, 22922.62
213.5858, 22944.06
214.0679, 22904.47
214.5500, 22859.29
215.0322, 22868.80
215.5143, 22946.95
215.9964, 22986.16
216.4785, 22934.20
216.9606, 22892.41
217.4427, 22907.10
217.9249, 22967.53
218.4070, 23033.99
218.8891, 23073.99
219.3712, 23086.88
219.8533, 23096.96
220.3354, 23092.45
220.8176, 23096.79
221.2997, 23119.02
221.7818, 23155.19
222.2639, 23199.34
222.7460, 23250.49
223.2281, 23305.83
223.7103, 23330.64
224.1924, 23280.30
224.6745, 23247.02
225.1566, 23262.86
225.6387, 23305.18
226.1208, 23337.86
226.6030, 23338.60
227.0851, 23317.41
227.5672, 23317.91
228.0493, 23370.96
228.5314, 23403.81
229.0135, 23392.67
229.4957, 23360.36
229.9778, 23334.10
230.4599, 23326.42
230.9420, 23327.29
231.4241, 23307.81
231.9062, 23235.59
232.3884, 23201.34
232.8705, 23252.04
233.3526, 23320.53
233.8347, 23341.07
234.3168, 23293.39
234.7989, 23219.84
235.2811, 23197.24
235.7632, 23255.26
236.2453, 23294.18
236.7274, 23289.68
237.2095, 23277.07
237.6916, 23280.98
238.1738, 23305.48
238.6559, 23336.24
239.1380, 23356.01
239.6201, 23362.62
240.1022, 23366.04
240.5843, 23356.92
241.0665, 23352.60
241.5486, 23365.02
242.0307, 23392.39
242.5128, 23422.01
242.9949, 23441.87
243.4770, 23451.27
243.9592, 23459.46
244.4413, 23464.48
244.9234, 23470.21
245.4055, 23480.98
245.8876, 23494.01
246.3697, 23502.45
246.8519, 23501.25
247.3340, 23491.00
247.8161, 23475.92
248.2982, 23444.34
248.7803, 23424.40
249.2624, 23435.09
249.7446, 23461.09
250.2267, 23478.31
250.7088, 23474.41
251.1909, 23452.88
251.6730, 23419.99
252.1551, 23362.17
252.6373, 23321.28
253.1194, 23318.67
253.6015, 23334.50
254.0836, 23347.93
254.5657, 23351.01
255.0478, 23350.88
255.5300, 23363.39
256.0121, 23396.41
256.4942, 23411.83
256.9763, 23363.94
257.4584, 23314.28
257.9406, 23315.92
258.4227, 23381.41
258.9048, 23460.19
259.3869, 23498.55
259.8690, 23494.79
260.3511, 23490.91
260.8333, 23490.10
261.3154, 23496.11
261.7975, 23520.82
262.2796, 23561.68
262.7617, 23586.47
263.2438, 23555.73
263.7260, 23482.27
264.2081, 23443.02
264.6902, 23457.43
265.1723, 23490.64
265.6544, 23528.83
266.1365, 23566.40
266.6187, 23582.13
267.1008, 23542.67
267.5829, 23478.84
268.0650, 23466.81
268.5471, 23527.53
269.0292, 23577.43
269.5114, 23525.77
269.9935, 23426.25
270.4756, 23372.62
270.9577, 23415.69
271.4398, 23492.61
271.9219, 23538.40
272.4041, 23552.71
272.8862, 23546.87
273.3683, 23511.46
273.8504, 23466.16
274.3325, 23449.84
274.8146, 23478.91
275.2968, 23510.40
275.7789, 23507.54
276.2610, 23480.39
276.7431, 23474.66
277.2252, 23517.08
277.7073, 23573.51
278.1895, 23579.92
278.6716, 23523.79
279.1537, 23486.24
279.6358, 23500.82
280.1179, 23552.06
280.6000, 23623.90
281.0822, 23718.13
281.5643, 23800.80
282.0464, 23821.94
282.5285, 23775.20
283.0106, 23747.14
283.4927, 23751.30
283.9749, 23775.71
284.4570, 23808.61
284.9391, 23849.48
285.4212, 23910.13
285.9033, 24010.28
286.3854, 24146.88
286.8676, 24226.90
287.3497, 24200.77
287.8318, 24171.72
288.3139, 24197.19
288.7960, 24261.26
289.2781, 24318.90
289.7603, 24346.86
290.2424, 24346.93
290.7245, 24324.36
291.2066, 24270.95
291.6887, 24207.00
292.1708, 24123.92
292.6530, 24035.95
293.1351, 23962.18
293.6172, 23909.13
294.0993, 23866.61
294.5814, 23816.19
295.0635, 23744.51
295.5457, 23691.17
296.0278, 23666.86
296.5099, 23651.96
296.9920, 23633.19
297.4741, 23608.99
297.9562, 23586.06
298.4384, 23572.29
298.9205, 23570.13
299.4026, 23559.78
299.8847, 23520.49
300.3668, 23493.89
300.8489, 23504.91
301.3310, 23539.91
301.8131, 23569.02
302.2953, 23572.18
302.7774, 23554.12
303.2595, 23538.73
303.7416, 23525.01
304.2237, 23515.96
304.7058, 23509.31
305.1880, 23508.21
305.6701, 23520.14
306.1522, 23548.50
306.6343, 23578.33
307.1164, 23582.16
307.5985, 23551.80
308.0807, 23525.93
308.5628, 23515.94
309.0449, 23509.33
309.5270, 23500.39
310.0091, 23488.08
310.4912, 23472.51
310.9734, 23451.83
311.4555, 23426.71
311.9376, 23404.73
312.4197, 23384.62
312.9018, 23370.96
313.3839, 23366.06
313.8661, 23368.85
314.3482, 23377.07
314.8303, 23394.99
315.3124, 23415.44
315.7945, 23426.63
316.2766, 23428.54
316.7588, 23420.63
317.2409, 23388.64
317.7230, 23351.51
318.2051, 23343.24
318.6872, 23382.70
319.1693, 23425.47
319.6515, 23434.74
320.1336, 23417.60
320.6157, 23407.39
321.0978, 23418.71
321.5799, 23436.46
322.0620, 23431.02
322.5442, 23396.06
323.0263, 23379.45
323.5084, 23419.20
323.9905, 23474.41
324.4726, 23482.41
324.9547, 23433.00
325.4369, 23381.09
325.9190, 23379.99
326.4011, 23435.84
326.8832, 23488.51
327.3653, 23540.84
327.8474, 23587.83
328.3296, 23629.60
328.8117, 23664.17
329.2938, 23684.86
329.7759, 23686.56
330.2580, 23673.77
330.7401, 23666.83
331.2223, 23667.33
331.7044, 23671.82
332.1865, 23682.87
332.6686, 23696.44
333.1507, 23711.44
333.6328, 23726.54
334.1150, 23735.21
334.5971, 23729.05
335.0792, 23711.88
335.5613, 23667.47
336.0434, 23568.96
336.5255, 23470.38
337.0077, 23390.09
337.4898, 23333.80
337.9719, 23308.56
338.4540, 23329.91
338.9361, 23389.04
339.4182, 23402.00
339.9004, 23320.68
340.3825, 23264.46
340.8646, 23290.58
341.3467, 23350.73
341.8288, 23378.46
342.3109, 23343.82
342.7931, 23293.08
343.2752, 23303.00
343.7573, 23384.44
344.2394, 23448.93
344.7215, 23462.06
345.2036, 23461.04
345.6858, 23473.82
346.1679, 23501.95
346.6500, 23536.35
347.1321, 23573.31
347.6142, 23612.12
348.0963, 23651.53
348.5785, 23692.17
349.0606, 23731.18
349.5427, 23761.43
350.0248, 23787.64
350.5069, 23824.81
350.9890, 23881.54
351.4712, 23945.61
351.9533, 24005.88
352.4354, 24064.19
352.9175, 24130.97
353.3996, 24212.32
353.8817, 24303.81
354.3639, 24393.32
354.8460, 24471.29
355.3281, 24565.73
355.8102, 24677.52
356.2923, 24811.31
356.7744, 24977.01
357.2566, 25175.85
357.7387, 25388.37
358.2208, 25594.44
358.7029, 25794.93
359.1850, 25985.02
359.6671, 26175.60
360.1493, 26346.36
360.6314, 26500.59
361.1135, 26627.40
361.5956, 26710.91
362.0777, 26743.88
362.5598, 26720.53
363.0420, 26619.25
363.5241, 26419.37
364.0062, 26166.18
364.4883, 25835.64
364.9704, 25479.78
365.4525, 25127.65
365.9347, 24792.07
366.4168, 24489.97
366.8989, 24247.81
367.3810, 24066.17
367.8631, 23905.20
368.3452, 23767.28
368.8274, 23646.77
369.3095, 23535.13
369.7916, 23436.19
370.2737, 23360.54
370.7558, 23319.64
371.2379, 23299.38
371.7201, 23274.46
372.2022, 23243.02
372.6843, 23226.59
373.1664, 23248.14
373.6485, 23281.63
374.1306, 23287.22
374.6128, 23258.30
375.0949, 23221.10
375.5770, 23180.84
376.0591, 23143.45
376.5412, 23122.13
377.0233, 23120.25
377.5055, 23129.28
377.9876, 23142.17
378.4697, 23159.38
378.9518, 23176.44
379.4339, 23196.87
379.9160, 23213.87
380.3982, 23233.74
380.8803, 23247.60
381.3624, 23226.15
381.8445, 23149.28
382.3266, 23041.49
382.8087, 22976.49
383.2909, 23011.59
383.7730, 23016.11
384.2551, 22967.24
384.7372, 22900.30
385.2193, 22838.98
385.7014, 22789.78
386.1836, 22751.51
386.6657, 22724.15
387.1478, 22708.27
387.6299, 22694.59
388.1120, 22687.37
388.5941, 22677.13
389.0763, 22650.38
389.5584, 22621.13
390.0405, 22615.45
390.5226, 22650.25
391.0047, 22695.87
391.4868, 22701.44
391.9690, 22662.29
392.4511, 22627.74
392.9332, 22616.20
393.4153, 22609.07
393.8974, 22584.62
394.3795, 22542.93
394.8617, 22511.03
395.3438, 22510.37
395.8259, 22525.14
396.3080, 22527.77
396.7901, 22515.29
397.2722, 22501.90
397.7544, 22495.54
398.2365, 22496.88
398.7186, 22505.73
399.2007, 22538.50
399.6828, 22560.29
400.1649, 22555.29
400.6471, 22530.97
401.1292, 22494.55
401.6113, 22448.06
402.0934, 22404.77
402.5755, 22384.01
403.0576, 22391.33
403.5398, 22406.83
404.0219, 22451.00
404.5040, 22483.47
404.9861, 22477.35
405.4682, 22441.88
405.9503, 22402.15
406.4325, 22373.44
406.9146, 22353.63
407.3967, 22337.03
407.8788, 22328.72
408.3609, 22312.94
408.8430, 22267.71
409.3252, 22226.67
409.8073, 22224.25
410.2894, 22263.11
410.7715, 22303.12
411.2536, 22302.95
411.7357, 22272.10
412.2179, 22262.41
412.7000, 22285.94
413.1821, 22309.65
413.6642, 22306.36
414.1463, 22287.15
414.6284, 22273.17
415.1106, 22269.74
415.5927, 22270.70
416.0748, 22271.10
416.5569, 22272.14
417.0390, 22280.70
417.5211, 22301.82
418.0033, 22320.72
418.4854, 22310.75
418.9675, 22254.85
419.4496, 22230.20
419.9317, 22266.06
420.4138, 22312.27
420.8960, 22337.29
421.3781, 22342.31
421.8602, 22341.16
422.3423, 22342.06
422.8244, 22345.29
423.3065, 22352.36
423.7887, 22369.48
424.2708, 22380.51
424.7529, 22375.39
425.2350, 22369.70
425.7171, 22375.71
426.1992, 22395.27
426.6814, 22422.58
427.1635, 22455.04
427.6456, 22492.10
428.1277, 22521.53
428.6098, 22533.81
429.0919, 22556.98
429.5741, 22620.02
430.0562, 22699.22
430.5383, 22758.37
431.0204, 22784.51
431.5025, 22798.71
431.9846, 22833.98
432.4668, 22874.50
432.9489, 22853.41
433.4310, 22741.86
433.9131, 22604.91
434.3952, 22522.65
434.8773, 22502.98
435.3595, 22458.65
435.8416, 22369.04
436.3237, 22268.26
436.8058, 22160.58
437.2879, 22058.63
437.7701, 21990.44
438.2522, 21971.87
438.7343, 21986.67
439.2164, 21994.67
439.6985, 21995.29
440.1806, 21989.43
440.6628, 21974.96
441.1449, 21956.71
441.6270, 21936.95
442.1091, 21916.25
442.5912, 21893.41
443.0733, 21862.65
443.5555, 21831.13
444.0376, 21832.88
444.5197, 21884.54
445.0018, 21922.91
445.4839, 21916.97
445.9660, 21888.94
446.4482, 21852.59
446.9303, 21806.65
447.4124, 21776.94
447.8945, 21789.08
448.3766, 21826.79
448.8587, 21857.00
449.3409, 21875.28
449.8230, 21889.13
450.3051, 21905.63
450.7872, 21923.26
451.2693, 21929.58
451.7514, 21928.96
452.2336, 21913.13
452.7157, 21859.52
453.1978, 21796.18
453.6799, 21767.99
454.1620, 21785.96
454.6441, 21817.32
455.1263, 21819.59
455.6084, 21787.71
456.0905, 21755.42
456.5726, 21722.17
457.0547, 21689.30
457.5368, 21652.45
458.0190, 21617.41
458.5011, 21593.90
458.9832, 21586.86
459.4653, 21588.62
459.9474, 21584.57
460.4295, 21574.37
460.9117, 21585.98
461.3938, 21642.67
461.8759, 21698.00
462.3580, 21699.70
462.8401, 21659.36
463.3222, 21638.75
463.8044, 21669.76
464.2865, 21715.54
464.7686, 21746.69
465.2507, 21764.49
465.7328, 21774.17
466.2149, 21775.57
466.6971, 21778.73
467.1792, 21804.85
467.6613, 21876.29
468.1434, 21923.02
468.6255, 21957.81
469.1076, 21957.74
469.5898, 21886.80
470.0719, 21766.59
470.5540, 21655.15
471.0361, 21588.82
471.5182, 21555.30
472.0003, 21519.34
472.4825, 21482.60
472.9646, 21439.41
473.4467, 21373.07
473.9288, 21311.43
474.4109, 21276.21
474.8930, 21266.47
475.3752, 21260.41
475.8573, 21249.77
476.3394, 21233.29
476.8215, 21204.41
477.3036, 21162.94
477.7857, 21127.32
478.2679, 21105.68
478.7500, 21096.67
479.2321, 21100.29
479.7142, 21127.24
480.1963, 21138.76
480.6784, 21123.66
481.1606, 21092.58
481.6427, 21048.82
482.1248, 20996.73
482.6069, 20946.81
483.0890, 20904.76
483.5711, 20873.35
484.0533, 20870.02
484.5354, 20926.00
485.0175, 20958.32
485.4996, 20931.64
485.9817, 20896.18
486.4638, 20894.67
486.9460, 20929.71
487.4281, 20970.54
487.9102, 21003.16
488.3923, 21022.71
488.8744, 21006.24
489.3565, 20946.20
489.8387, 20893.45
490.3208, 20874.70
490.8029, 20879.62
491.2850, 20884.75
491.7671, 20890.29
492.2492, 20895.55
492.7314, 20896.49
493.2135, 20899.12
493.6956, 20919.67
494.1777, 20954.23
494.6598, 20969.85
495.1419, 20938.46
495.6241, 20868.50
496.1062, 20813.16
496.5883, 20770.08
497.0704, 20747.38
497.5525, 20760.25
498.0346, 20782.65
498.5168, 20798.46
498.9989, 20802.96
499.4810, 20792.27
499.9631, 20752.09
500.4452, 20694.47
500.9273, 20667.54
501.4095, 20676.06
501.8916, 20696.39
502.3737, 20731.46
502.8558, 20764.41
503.3379, 20766.96
503.8200, 20730.97
504.3022, 20696.92
504.7843, 20678.73
505.2664, 20671.16
505.7485, 20674.56
506.2306, 20685.63
506.7127, 20685.50
507.1949, 20657.85
507.6770, 20614.21
508.1591, 20606.42
508.6412, 20683.01
509.1233, 20724.20
509.6054, 20701.55
510.0876, 20660.16
510.5697, 20631.68
511.0518, 20617.34
511.5339, 20600.13
512.0161, 20562.96
512.4982, 20517.34
512.9803, 20495.26
513.4624, 20499.09
513.9445, 20515.20
514.4266, 20554.75
514.9088, 20590.24
515.3909, 20579.12
515.8730, 20516.57
516.3551, 20471.44
516.8372, 20479.98
517.3193, 20503.53
517.8015, 20509.69
518.2836, 20498.03
518.7657, 20475.57
519.2478, 20444.76
519.7299, 20411.59
520.2120, 20392.22
520.6942, 20406.07
521.1763, 20395.79
521.6584, 20336.72
522.1405, 20279.56
522.6226, 20251.29
523.1047, 20247.56
523.5869, 20254.44
524.0690, 20269.52
524.5511, 20280.59
525.0332, 20258.13
525.5153, 20202.50
525.9974, 20174.47
526.4796, 20203.24
526.9617, 20239.73
527.4438, 20224.78
527.9259, 20165.24
528.4080, 20117.74
528.8901, 20097.75
529.3723, 20084.30
529.8544, 20062.48
530.3365, 20038.64
530.8186, 20027.45
531.3007, 20033.59
531.7828, 20047.19
532.2650, 20055.41
532.7471, 20058.32
533.2292, 20055.61
533.7113, 20043.71
534.1934, 20029.94
534.6755, 20018.14
535.1577, 20005.24
535.6398, 19983.73
536.1219, 19949.90
536.6040, 19921.83
537.0861, 19917.88
537.5682, 19933.25
538.0504, 19961.50
538.5325, 20006.67
539.0146, 20024.30
539.4967, 19966.29
539.9788, 19855.44
540.4609, 19806.63
540.9431, 19871.54
541.4252, 19919.66
541.9073, 19917.90
542.3894, 19892.12
542.8715, 19860.88
543.3536, 19829.85
543.8358, 19802.17
544.3179, 19778.88
544.8000, 19762.35
545.2821, 19768.31
545.7642, 19812.63
546.2463, 19835.61
546.7285, 19797.46
547.2106, 19750.52
547.6926, 19739.95
548.1747, 19763.79
548.6569, 19779.26
549.1390, 19760.89
549.6211, 19729.75
550.1032, 19709.39
550.5853, 19697.19
551.0674, 19677.81
551.5496, 19643.40
552.0317, 19607.20
552.5138, 19591.91
552.9959, 19607.27
553.4780, 19610.44
553.9601, 19585.44
554.4423, 19567.14
554.9244, 19573.37
555.4065, 19594.37
555.8886, 19616.58
556.3707, 19635.41
556.8528, 19645.82
557.3350, 19633.37
557.8171, 19602.85
558.2992, 19598.93
558.7813, 19636.19
559.2634, 19666.57
559.7455, 19654.49
560.2277, 19611.07
560.7098, 19575.52
561.1919, 19551.18
561.6740, 19529.27
562.1561, 19499.70
562.6382, 19475.69
563.1204, 19478.27
563.6025, 19503.87
564.0846, 19525.92
564.5667, 19525.34
565.0488, 19505.73
565.5309, 19478.32
566.0131, 19433.01
566.4952, 19405.53
566.9773, 19421.90
567.4594, 19442.16
567.9415, 19441.13
568.4236, 19421.10
568.9058, 19398.38
569.3879, 19373.01
569.8700, 19353.97
570.3521, 19359.67
570.8342, 19380.42
571.3163, 19377.16
571.7985, 19335.44
572.2806, 19293.00
572.7627, 19300.51
573.2448, 19367.48
573.7269, 19393.89
574.2090, 19355.27
574.6912, 19307.73
575.1733, 19252.76
575.6554, 19202.64
576.1375, 19167.82
576.6196, 19151.24
577.1017, 19153.24
577.5839, 19190.54
578.0660, 19246.45
578.5481, 19255.99
579.0302, 19211.91
579.5123, 19179.01
579.9944, 19193.22
580.4766, 19230.15
580.9587, 19240.48
581.4408, 19216.71
581.9229, 19203.25
582.4050, 19229.99
582.8871, 19247.28
583.3693, 19203.51
583.8514, 19126.34
584.3335, 19080.64
584.8156, 19096.63
585.2977, 19141.18
585.7798, 19162.06
586.2620, 19156.81
586.7441, 19156.51
587.2262, 19165.90
587.7083, 19174.95
588.1904, 19190.40
588.6725, 19198.54
589.1547, 19170.43
589.6368, 19086.25
590.1189, 19007.99
590.6010, 18967.29
591.0831, 18948.19
591.5652, 18930.89
592.0474, 18914.14
592.5295, 18908.61
593.0116, 18923.29
593.4937, 18948.82
593.9758, 18955.91
594.4579, 18938.27
594.9401, 18917.11
595.4222, 18892.50
595.9043, 18866.17
596.3864, 18831.06
596.8685, 18795.17
597.3506, 18780.06
597.8328, 18803.43
598.3149, 18831.02
598.7970, 18832.46
599.2791, 18813.95
599.7612, 18786.47
600.2433, 18751.97
600.7255, 18727.27
601.2076, 18729.48
601.6897, 18753.99
602.1718, 18762.89
602.6539, 18733.63
603.1360, 18719.63
603.6182, 18740.53
604.1003, 18765.50
604.5824, 18767.00
605.0645, 18749.36
605.5466, 18740.52
606.0287, 18764.69
606.5109, 18795.24
606.9930, 18786.03
607.4751, 18742.53
607.9572, 18711.14
608.4393, 18706.40
608.9214, 18703.09
609.4036, 18671.26
609.8857, 18610.77
610.3678, 18579.90
610.8499, 18600.25
611.3320, 18619.87
611.8141, 18629.77
612.2963, 18631.39
612.7784, 18630.32
613.2605, 18624.54
613.7426, 18599.88
614.2247, 18534.25
614.7068, 18451.59
615.1890, 18411.62
615.6711, 18415.49
616.1532, 18441.53
616.6353, 18497.34
617.1174, 18548.21
617.5995, 18548.36
618.0817, 18496.51
618.5638, 18459.73
619.0459, 18456.94
619.5280, 18450.73
620.0101, 18418.63
620.4922, 18378.98
620.9744, 18356.12
621.4565, 18353.74
621.9386, 18357.44
622.4207, 18354.91
622.9028, 18347.78
623.3849, 18342.00
623.8671, 18337.39
624.3492, 18335.58
624.8313, 18339.77
625.3134, 18343.84
625.7955, 18339.83
626.2776, 18328.24
626.7598, 18315.88
627.2419, 18296.08
627.7240, 18283.97
628.2061, 18297.26
628.6882, 18319.13
629.1703, 18320.00
629.6525, 18296.01
630.1346, 18274.92
630.6167, 18288.61
631.0988, 18327.85
631.5809, 18338.16
632.0630, 18311.62
632.5452, 18287.40
633.0273, 18280.78
633.5094, 18277.88
633.9915, 18257.43
634.4736, 18221.00
634.9557, 18203.94
635.4379, 18247.69
635.9200, 18276.52
636.4021, 18225.38
636.8842, 18139.79
637.3663, 18093.95
637.8484, 18103.76
638.3306, 18130.79
638.8127, 18138.53
639.2948, 18129.88
639.7769, 18119.96
640.2590, 18104.81
640.7411, 18103.59
641.2233, 18135.56
641.7054, 18170.35
642.1875, 18174.76
642.6696, 18151.11
643.1517, 18126.93
643.6339, 18107.97
644.1160, 18089.74
644.5981, 18062.88
645.0802, 18037.88
645.5623, 18037.45
646.0444, 18062.53
646.5266, 18082.85
647.0087, 18064.97
647.4908, 18021.85
647.9729, 18022.03
648.4550, 18081.63
648.9371, 18117.77
649.4193, 18089.45
649.9014, 18052.15
650.3835, 18071.36
650.8656, 18136.23
651.3477, 18168.36
651.8298, 18120.08
652.3120, 18075.77
652.7941, 18074.17
653.2762, 18100.46
653.7583, 18145.78
654.2404, 18201.27
654.7225, 18240.32
655.2047, 18238.94
655.6868, 18208.16
656.1689, 18174.29
656.6510, 18128.80
657.1331, 18138.57
657.6152, 18246.75
658.0974, 18371.71
658.5795, 18436.66
659.0616, 18454.23
659.5437, 18477.68
660.0258, 18498.00
660.5079, 18542.14
660.9901, 18638.58
661.4722, 18751.02
661.9543, 18834.89
662.4364, 18893.48
662.9185, 18968.04
663.4006, 19089.02
663.8828, 19234.21
664.3649, 19348.79
664.8470, 19430.83
665.3291, 19548.44
665.8112, 19721.13
666.2933, 19910.71
666.7755, 20089.16
667.2576, 20261.24
667.7397, 20448.81
668.2218, 20643.45
668.7039, 20865.57
