##NAMES=Talc
##RRUFFID=R050058
##IDEAL CHEMISTRY=Mg_3_Si_4_O_10_(OH)_2_
##LOCALITY=Murphy, North Carolina, USA
##OWNER=RRUFF
##SOURCE=Rock Currier
##DESCRIPTION=Fine-grained massive fragment
##STATUS=The identification of this mineral has been confirmed by X-ray diffraction and chemical analysis
##URL=rruff.info/R050058
##MEASURED CHEMISTRY=(Mg_.994_Fe_.006_)_3_(Si_.996_Al_.004_)_4_O_10_(OH)_2_
167.5002, 23475.29
167.9823, 23568.96
168.4644, 23666.39
168.9465, 23766.11
169.4286, 23876.05
169.9107, 24021.19
170.3929, 24181.13
170.8750, 24316.63
171.3571, 24386.53
171.8392, 24429.36
172.3213, 24487.86
172.8034, 24571.09
173.2856, 24655.67
173.7677, 24712.69
174.2498, 24750.66
174.7319, 24797.60
175.2140, 24869.14
175.6961, 24960.58
176.1783, 25064.58
176.6604, 25177.58
177.1425, 25304.55
177.6246, 25463.30
178.1067, 25647.27
178.5888, 25824.54
179.0710, 25973.79
179.5531, 26096.90
180.0352, 26188.88
180.5173, 26226.13
180.9994, 26253.83
181.4815, 26347.42
181.9637, 26506.46
182.4458, 26691.33
182.9279, 26880.28
183.4100, 27071.00
183.8921, 27257.28
184.3742, 27432.09
184.8564, 27604.05
185.3385, 27775.75
185.8206, 27945.79
186.3027, 28150.53
186.7848, 28432.37
187.2669, 28786.58
187.7491, 29185.29
188.2312, 29635.70
188.7133, 30121.78
189.1954, 30585.05
189.6775, 31014.60
190.1596, 31457.79
190.6418, 31943.23
191.1239, 32471.88
191.6060, 33139.30
192.0881, 34082.39
192.5702, 35252.89
193.0524, 36333.85
193.5345, 37429.01
194.0166, 38164.18
194.4987, 37802.69
194.9808, 36287.48
195.4629, 34529.13
195.9451, 32829.88
196.4272, 31172.83
196.9093, 29905.60
197.3914, 29081.72
197.8735, 28580.42
198.3556, 28208.54
198.8378, 27975.06
199.3199, 27818.78
199.8020, 27722.75
200.2841, 27690.78
200.7662, 27676.20
201.2483, 27680.36
201.7305, 27696.89
202.2126, 27710.96
202.6947, 27722.31
203.1768, 27732.20
203.6589, 27733.49
204.1410, 27720.16
204.6232, 27746.02
205.1053, 27832.11
205.5874, 27953.36
206.0695, 28022.47
206.5516, 28026.54
207.0337, 28012.41
207.5159, 28005.74
207.9980, 28003.19
208.4801, 28026.53
208.9622, 28087.05
209.4443, 28175.35
209.9264, 28245.73
210.4086, 28295.88
210.8907, 28332.85
211.3728, 28358.08
211.8549, 28365.96
212.3370, 28382.17
212.8191, 28412.00
213.3013, 28453.84
213.7834, 28498.90
214.2655, 28553.72
214.7476, 28601.40
215.2297, 28620.38
215.7118, 28591.82
216.1940, 28588.34
216.6761, 28628.40
217.1582, 28709.95
217.6403, 28787.34
218.1224, 28865.87
218.6045, 28932.06
219.0867, 28970.70
219.5688, 28972.57
220.0509, 28966.45
220.5330, 28949.86
221.0151, 28921.56
221.4972, 28932.36
221.9794, 28997.63
222.4615, 29084.84
222.9436, 29161.50
223.4257, 29226.51
223.9078, 29283.78
224.3899, 29332.77
224.8721, 29373.78
225.3542, 29409.55
225.8363, 29433.54
226.3184, 29458.73
226.8005, 29505.32
227.2827, 29594.11
227.7648, 29663.57
228.2469, 29694.41
228.7290, 29681.13
229.2111, 29669.90
229.6932, 29654.80
230.1754, 29646.63
230.6575, 29662.35
231.1396, 29717.69
231.6217, 29768.80
232.1038, 29801.46
232.5859, 29810.53
233.0681, 29829.45
233.5502, 29863.42
234.0323, 29903.39
234.5144, 29936.78
234.9965, 29961.23
235.4786, 29982.56
235.9608, 30001.13
236.4429, 30014.73
236.9250, 30033.24
237.4071, 30048.79
237.8892, 30074.11
238.3713, 30137.28
238.8535, 30282.09
239.3356, 30390.65
239.8177, 30412.60
240.2998, 30312.56
240.7819, 30264.21
241.2640, 30288.76
241.7462, 30351.84
242.2283, 30392.27
242.7104, 30389.07
243.1925, 30398.21
243.6746, 30446.79
244.1567, 30560.66
244.6389, 30620.77
245.1210, 30593.54
245.6031, 30532.52
246.0852, 30536.89
246.5673, 30644.13
247.0494, 30753.04
247.5316, 30828.06
248.0137, 30860.43
248.4958, 30888.15
248.9779, 30910.04
249.4600, 30927.81
249.9421, 30944.46
250.4243, 30961.42
250.9064, 30974.61
251.3885, 30976.63
251.8706, 30952.60
252.3527, 30972.38
252.8348, 31060.08
253.3170, 31176.46
253.7991, 31242.81
254.2812, 31233.59
254.7633, 31221.98
255.2454, 31236.23
255.7275, 31284.09
256.2097, 31327.79
256.6918, 31362.12
257.1739, 31395.37
257.6560, 31449.61
258.1381, 31546.49
258.6202, 31619.61
259.1024, 31637.70
259.5845, 31583.58
260.0666, 31542.73
260.5487, 31509.79
261.0308, 31494.38
261.5129, 31519.81
261.9951, 31603.94
262.4772, 31685.72
262.9593, 31738.38
263.4414, 31754.81
263.9235, 31777.28
264.4056, 31805.25
264.8878, 31840.06
265.3699, 31889.50
265.8520, 31963.96
266.3341, 32024.43
266.8162, 32050.39
267.2983, 32033.56
267.7805, 32033.97
268.2626, 32054.21
268.7447, 32088.93
269.2268, 32134.46
269.7089, 32197.71
270.1910, 32246.46
270.6732, 32256.40
271.1553, 32218.94
271.6374, 32236.46
272.1195, 32330.14
272.6016, 32447.82
273.0837, 32491.18
273.5659, 32442.91
274.0480, 32410.38
274.5301, 32446.38
275.0122, 32554.25
275.4943, 32625.79
275.9764, 32650.99
276.4586, 32658.66
276.9407, 32698.42
277.4228, 32775.38
277.9049, 32835.65
278.3870, 32843.22
278.8691, 32802.13
279.3513, 32809.83
279.8334, 32874.34
280.3155, 32966.98
280.7976, 33056.61
281.2798, 33142.88
281.7619, 33216.17
282.2440, 33267.66
282.7261, 33300.70
283.2082, 33339.81
283.6903, 33384.95
284.1725, 33436.29
284.6546, 33493.81
285.1367, 33557.11
285.6188, 33628.39
286.1009, 33712.18
286.5830, 33804.89
287.0652, 33893.47
287.5473, 33977.80
288.0294, 34053.91
288.5115, 34116.09
288.9936, 34165.24
289.4757, 34207.56
289.9579, 34255.95
290.4400, 34296.70
290.9221, 34283.50
291.4042, 34213.08
291.8863, 34129.67
292.3684, 34072.93
292.8506, 34040.05
293.3327, 34018.33
293.8148, 34008.72
294.2969, 34004.76
294.7790, 33989.79
295.2611, 33963.75
295.7433, 33943.68
296.2254, 33949.17
296.7075, 33972.87
297.1896, 33993.45
297.6717, 34001.84
298.1538, 34006.92
298.6360, 34023.57
299.1181, 34051.03
299.6002, 34078.28
300.0823, 34093.81
300.5644, 34103.72
301.0465, 34120.88
301.5287, 34154.68
302.0108, 34189.50
302.4929, 34200.98
302.9750, 34193.83
303.4571, 34194.25
303.9392, 34216.83
304.4214, 34258.52
304.9035, 34320.44
305.3856, 34417.71
305.8677, 34509.07
306.3498, 34554.23
306.8319, 34560.84
307.3141, 34556.52
307.7962, 34535.25
308.2783, 34521.19
308.7604, 34546.96
309.2425, 34644.11
309.7246, 34725.66
310.2068, 34713.88
310.6889, 34640.32
311.1710, 34586.94
311.6531, 34593.55
312.1352, 34635.21
312.6173, 34704.89
313.0995, 34820.06
313.5816, 34906.02
314.0637, 34901.52
314.5458, 34845.27
315.0279, 34810.27
315.5100, 34847.07
315.9922, 34895.46
316.4743, 34920.70
316.9564, 34911.58
317.4385, 34909.15
317.9206, 34917.63
318.4027, 34942.99
318.8849, 34993.57
319.3670, 35117.34
319.8491, 35226.48
320.3312, 35281.64
320.8133, 35270.81
321.2954, 35262.88
321.7776, 35265.03
322.2597, 35278.94
322.7418, 35306.41
323.2239, 35363.80
323.7060, 35418.68
324.1881, 35465.20
324.6703, 35503.20
325.1524, 35531.77
325.6345, 35543.01
326.1166, 35548.60
326.5987, 35557.85
327.0808, 35561.23
327.5630, 35579.66
328.0451, 35621.33
328.5272, 35684.96
329.0093, 35743.32
329.4914, 35799.02
329.9735, 35845.84
330.4557, 35876.95
330.9378, 35870.96
331.4199, 35888.04
331.9020, 35945.67
332.3841, 36032.18
332.8662, 36088.36
333.3484, 36097.64
333.8305, 36100.90
334.3126, 36124.18
334.7947, 36181.18
335.2768, 36212.93
335.7589, 36205.80
336.2411, 36177.69
336.7232, 36174.52
337.2053, 36201.96
337.6874, 36237.86
338.1695, 36275.83
338.6516, 36317.12
339.1338, 36344.73
339.6159, 36354.13
340.0980, 36356.13
340.5801, 36364.87
341.0622, 36379.63
341.5443, 36409.83
342.0265, 36465.30
342.5086, 36542.66
342.9907, 36616.96
343.4728, 36688.38
343.9549, 36753.59
344.4370, 36803.71
344.9192, 36840.16
345.4013, 36879.32
345.8834, 36928.95
346.3655, 36984.28
346.8476, 37024.50
347.3297, 37048.49
347.8119, 37083.08
348.2940, 37164.76
348.7761, 37278.82
349.2582, 37376.92
349.7403, 37432.91
350.2225, 37481.96
350.7046, 37585.75
351.1867, 37737.89
351.6688, 37882.00
352.1509, 37954.55
352.6331, 37999.32
353.1152, 38083.71
353.5973, 38231.75
354.0794, 38405.91
354.5615, 38577.76
355.0436, 38749.27
355.5258, 38926.39
356.0079, 39132.97
356.4900, 39335.22
356.9721, 39492.41
357.4542, 39578.54
357.9363, 39686.79
358.4185, 39896.52
358.9006, 40160.89
359.3827, 40398.90
359.8648, 40582.61
360.3469, 40728.92
360.8290, 40855.03
361.3112, 40968.67
361.7933, 41016.40
362.2754, 41000.16
362.7575, 40903.39
363.2396, 40707.25
363.7217, 40307.11
364.2039, 39909.94
364.6860, 39558.21
365.1681, 39252.40
365.6502, 38996.45
366.1323, 38785.88
366.6144, 38625.64
367.0966, 38519.54
367.5787, 38520.22
368.0608, 38511.63
368.5429, 38482.43
369.0250, 38436.84
369.5071, 38398.18
369.9893, 38377.24
370.4714, 38350.88
370.9535, 38299.32
371.4356, 38177.63
371.9177, 38140.34
372.3998, 38228.09
372.8820, 38381.87
373.3641, 38467.94
373.8462, 38467.34
374.3283, 38447.77
374.8104, 38430.23
375.2925, 38413.45
375.7747, 38412.65
376.2568, 38429.10
376.7389, 38458.93
377.2210, 38494.16
377.7031, 38533.84
378.1852, 38596.52
378.6674, 38714.65
379.1495, 38859.13
379.6316, 38885.18
380.1137, 38780.44
380.5958, 38667.19
381.0779, 38676.77
381.5601, 38784.05
382.0422, 38862.70
382.5243, 38879.82
383.0064, 38862.64
383.4885, 38852.54
383.9706, 38848.50
384.4528, 38843.58
384.9349, 38815.09
385.4170, 38787.14
385.8991, 38812.39
386.3812, 38918.83
386.8633, 39013.62
387.3455, 38975.93
387.8276, 38858.75
388.3097, 38782.85
388.7918, 38861.59
389.2739, 38973.28
389.7560, 39009.10
390.2382, 38953.48
390.7203, 38909.77
391.2024, 38959.30
391.6845, 39042.66
392.1666, 39091.92
392.6487, 39034.04
393.1309, 38984.89
393.6130, 39001.03
394.0951, 39076.83
394.5772, 39139.52
395.0593, 39159.13
395.5414, 39167.14
396.0236, 39183.02
396.5057, 39216.50
396.9878, 39249.67
397.4699, 39279.36
397.9520, 39307.27
398.4341, 39339.11
398.9163, 39393.42
399.3984, 39432.01
399.8805, 39432.29
400.3626, 39362.57
400.8447, 39353.49
401.3268, 39443.59
401.8090, 39565.88
402.2911, 39623.44
402.7732, 39592.62
403.2553, 39556.31
403.7374, 39529.73
404.2195, 39513.83
404.7017, 39531.85
405.1838, 39593.68
405.6659, 39663.14
406.1480, 39707.21
406.6301, 39725.80
407.1122, 39736.90
407.5944, 39735.71
408.0765, 39737.32
408.5586, 39787.18
409.0407, 39884.49
409.5228, 39980.03
410.0049, 40035.55
410.4871, 40063.24
410.9692, 40101.41
411.4513, 40157.85
411.9334, 40209.20
412.4155, 40218.64
412.8976, 40200.18
413.3798, 40193.78
413.8619, 40234.00
414.3440, 40285.93
414.8261, 40312.21
415.3082, 40312.11
415.7903, 40306.48
416.2725, 40302.66
416.7546, 40303.29
417.2367, 40311.15
417.7188, 40322.12
418.2009, 40345.91
418.6830, 40394.66
419.1652, 40462.16
419.6473, 40523.69
420.1294, 40565.59
420.6115, 40603.84
421.0937, 40647.60
421.5758, 40698.20
422.0579, 40752.22
422.5400, 40811.70
423.0221, 40873.92
423.5042, 40935.82
423.9864, 41003.34
424.4685, 41062.88
424.9506, 41107.48
425.4327, 41134.27
425.9148, 41177.46
426.3969, 41248.26
426.8791, 41322.68
427.3612, 41374.47
427.8433, 41388.49
428.3254, 41428.86
428.8075, 41512.39
429.2896, 41625.25
429.7718, 41723.64
430.2539, 41809.80
430.7360, 41871.92
431.2181, 41887.27
431.7002, 41860.73
432.1823, 41870.10
432.6645, 41927.05
433.1466, 41994.00
433.6287, 42031.07
434.1108, 42036.94
434.5929, 42001.49
435.0750, 41887.38
435.5572, 41743.74
436.0393, 41655.40
436.5214, 41621.13
437.0035, 41614.32
437.4856, 41636.55
437.9677, 41666.92
438.4499, 41673.08
438.9320, 41631.11
439.4141, 41589.86
439.8962, 41583.59
440.3783, 41605.17
440.8604, 41636.01
441.3426, 41684.94
441.8247, 41727.61
442.3068, 41742.34
442.7889, 41716.48
443.2710, 41712.73
443.7531, 41765.60
444.2353, 41842.08
444.7174, 41906.59
445.1995, 41954.91
445.6816, 41989.13
446.1637, 42000.46
446.6458, 41992.18
447.1280, 42001.43
447.6101, 42039.81
448.0922, 42083.04
448.5743, 42114.63
449.0564, 42121.16
449.5385, 42155.71
450.0207, 42231.33
450.5028, 42324.64
450.9849, 42391.21
451.4670, 42427.14
451.9491, 42452.94
452.4312, 42474.32
452.9134, 42491.58
453.3955, 42507.49
453.8776, 42521.88
454.3597, 42535.65
454.8418, 42554.70
455.3239, 42575.23
455.8061, 42576.52
456.2882, 42541.50
456.7703, 42504.70
457.2524, 42522.61
457.7345, 42584.44
458.2166, 42646.80
458.6988, 42682.71
459.1809, 42705.82
459.6630, 42731.71
460.1451, 42763.68
460.6272, 42787.68
461.1093, 42774.10
461.5915, 42753.63
462.0736, 42764.86
462.5557, 42843.75
463.0378, 42933.69
463.5199, 43019.21
464.0020, 43099.10
464.4842, 43170.57
464.9663, 43227.71
465.4484, 43279.39
465.9305, 43332.08
466.4126, 43404.72
466.8947, 43445.77
467.3769, 43439.57
467.8590, 43408.65
468.3411, 43391.35
468.8232, 43401.71
469.3053, 43396.07
469.7874, 43351.16
470.2696, 43271.42
470.7517, 43247.07
471.2338, 43292.89
471.7159, 43348.64
472.1980, 43361.21
472.6801, 43331.45
473.1623, 43294.61
473.6444, 43247.55
474.1265, 43210.92
474.6086, 43233.83
475.0907, 43307.15
475.5728, 43371.89
476.0550, 43385.72
476.5371, 43375.01
477.0192, 43386.17
477.5013, 43421.14
477.9834, 43450.36
478.4655, 43434.51
478.9477, 43404.33
479.4298, 43402.20
479.9119, 43471.50
480.3940, 43532.71
480.8761, 43526.41
481.3582, 43476.65
481.8404, 43452.61
482.3225, 43510.67
482.8046, 43571.64
483.2867, 43591.60
483.7688, 43544.31
484.2509, 43534.31
484.7331, 43606.79
485.2152, 43701.68
485.6973, 43765.30
486.1794, 43789.21
486.6615, 43794.46
487.1436, 43773.59
487.6258, 43735.84
488.1079, 43727.58
488.5900, 43756.95
489.0721, 43793.57
489.5542, 43818.01
490.0363, 43830.11
490.5185, 43856.43
491.0006, 43897.14
491.4827, 43952.98
491.9648, 44041.25
492.4470, 44152.27
492.9291, 44229.94
493.4112, 44242.89
493.8933, 44221.12
494.3754, 44194.85
494.8575, 44167.94
495.3397, 44166.27
495.8218, 44239.62
496.3039, 44331.37
496.7860, 44373.38
497.2681, 44343.96
497.7502, 44313.85
498.2324, 44311.07
498.7145, 44332.83
499.1966, 44375.36
499.6787, 44474.79
500.1608, 44557.08
500.6429, 44590.92
501.1251, 44579.33
501.6072, 44577.10
502.0893, 44585.54
502.5714, 44606.38
503.0535, 44643.25
503.5356, 44710.21
504.0178, 44758.58
504.4999, 44782.14
504.9820, 44792.30
505.4641, 44808.17
505.9462, 44832.63
506.4283, 44846.91
506.9105, 44841.12
507.3926, 44821.96
507.8747, 44812.36
508.3568, 44811.98
508.8389, 44828.25
509.3210, 44879.97
509.8032, 44952.75
510.2853, 45006.34
510.7674, 45033.66
511.2495, 45050.60
511.7316, 45067.45
512.2137, 45086.37
512.6959, 45111.38
513.1780, 45151.02
513.6601, 45191.86
514.1422, 45232.29
514.6243, 45269.56
515.1064, 45286.11
515.5886, 45243.39
516.0707, 45199.99
516.5528, 45193.48
517.0349, 45245.28
517.5170, 45298.82
517.9991, 45357.05
518.4813, 45410.68
518.9634, 45447.16
519.4455, 45461.57
519.9276, 45465.55
520.4097, 45450.18
520.8918, 45423.70
521.3740, 45450.70
521.8561, 45550.65
522.3382, 45639.61
522.8203, 45647.20
523.3024, 45579.95
523.7845, 45557.59
524.2667, 45594.20
524.7488, 45647.00
525.2309, 45664.39
525.7130, 45654.32
526.1951, 45642.55
526.6772, 45623.24
527.1594, 45620.73
527.6415, 45687.31
528.1236, 45804.46
528.6057, 45892.10
529.0878, 45873.72
529.5699, 45827.69
530.0521, 45812.57
530.5342, 45840.91
531.0163, 45876.86
531.4984, 45916.68
531.9805, 45955.31
532.4626, 45987.58
532.9448, 46005.42
533.4269, 46025.24
533.9090, 46041.79
534.3911, 46060.86
534.8732, 46110.89
535.3553, 46223.77
535.8375, 46308.34
536.3196, 46313.37
536.8017, 46233.85
537.2838, 46182.72
537.7659, 46162.16
538.2480, 46161.38
538.7302, 46170.29
539.2123, 46189.04
539.6944, 46220.08
540.1765, 46268.80
540.6586, 46321.07
541.1407, 46355.61
541.6229, 46376.86
542.1050, 46401.34
542.5871, 46457.81
543.0692, 46508.51
543.5513, 46501.79
544.0334, 46436.00
544.5156, 46399.55
544.9977, 46462.79
545.4798, 46555.81
545.9619, 46622.68
546.4440, 46633.55
546.9261, 46646.79
547.4083, 46664.21
547.8904, 46690.39
548.3725, 46735.68
548.8546, 46826.07
549.3367, 46893.01
549.8188, 46915.70
550.3010, 46897.63
550.7831, 46875.16
551.2652, 46843.98
551.7473, 46822.89
552.2294, 46825.27
552.7115, 46850.18
553.1937, 46894.71
553.6758, 46963.45
554.1579, 47031.77
554.6400, 47071.63
555.1221, 47086.59
555.6042, 47086.03
556.0864, 47068.05
556.5685, 47041.38
557.0506, 47002.36
557.5327, 46958.46
558.0148, 46938.51
558.4969, 46969.85
558.9791, 47019.58
559.4612, 47070.55
559.9433, 47122.05
560.4254, 47167.88
560.9075, 47198.21
561.3896, 47227.20
561.8718, 47268.48
562.3539, 47337.00
562.8360, 47391.75
563.3181, 47423.70
563.8002, 47442.45
564.2823, 47474.89
564.7645, 47526.28
565.2466, 47566.39
565.7287, 47581.25
566.2108, 47574.74
566.6929, 47560.38
567.1750, 47537.68
567.6572, 47520.98
568.1393, 47525.16
568.6214, 47543.77
569.1035, 47563.71
569.5856, 47582.47
570.0677, 47604.96
570.5499, 47640.72
571.0320, 47682.00
571.5141, 47716.82
571.9962, 47736.97
572.4783, 47753.63
572.9604, 47768.23
573.4426, 47781.92
573.9247, 47800.62
574.4068, 47819.48
574.8889, 47849.22
575.3710, 47899.03
575.8531, 47976.64
576.3353, 48029.85
576.8174, 48051.20
577.2995, 48058.48
577.7816, 48064.77
578.2637, 48068.91
578.7458, 48088.50
579.2280, 48133.81
579.7101, 48181.40
580.1922, 48173.00
580.6743, 48121.21
581.1564, 48097.13
581.6385, 48154.23
582.1207, 48246.66
582.6028, 48325.07
583.0849, 48387.61
583.5670, 48425.23
584.0491, 48395.30
584.5313, 48361.92
585.0134, 48387.28
585.4955, 48512.14
585.9776, 48591.82
586.4597, 48539.13
586.9418, 48443.13
587.4240, 48407.00
587.9061, 48488.40
588.3882, 48543.20
588.8703, 48546.55
589.3524, 48516.05
589.8345, 48501.28
590.3167, 48502.69
590.7988, 48519.17
591.2809, 48560.98
591.7630, 48618.88
592.2451, 48624.51
592.7272, 48574.59
593.2094, 48552.74
593.6915, 48668.29
594.1736, 48853.36
594.6557, 48979.16
595.1378, 49018.12
595.6199, 49016.09
596.1021, 48969.58
596.5842, 48913.05
597.0663, 48895.61
597.5485, 48998.31
598.0306, 49074.60
598.5127, 49040.39
598.9948, 48930.92
599.4769, 48901.36
599.9590, 49019.27
600.4412, 49147.17
600.9233, 49250.60
601.4054, 49332.13
601.8875, 49347.01
602.3696, 49270.68
602.8517, 49187.68
603.3339, 49176.86
603.8160, 49232.30
604.2981, 49279.06
604.7802, 49305.93
605.2623, 49331.62
605.7444, 49397.96
606.2266, 49483.72
606.7087, 49527.93
607.1908, 49476.27
607.6729, 49409.11
608.1550, 49382.56
608.6371, 49391.97
609.1193, 49421.34
609.6014, 49510.07
610.0835, 49577.87
610.5656, 49568.02
611.0477, 49461.23
611.5298, 49405.92
612.0120, 49426.52
612.4941, 49480.04
612.9762, 49540.86
613.4583, 49610.24
613.9404, 49686.39
614.4225, 49779.58
614.9047, 49860.42
615.3868, 49872.66
615.8689, 49822.64
616.3510, 49794.29
616.8331, 49820.57
617.3152, 49869.92
617.7974, 49887.71
618.2795, 49884.31
618.7616, 49900.63
619.2437, 50002.43
619.7258, 50100.14
620.2079, 50108.29
620.6901, 50023.68
621.1722, 49967.93
621.6543, 49999.09
622.1364, 50061.79
622.6185, 50123.57
623.1006, 50194.79
623.5828, 50235.53
624.0649, 50224.55
624.5470, 50202.56
625.0291, 50225.71
625.5112, 50307.19
625.9933, 50361.52
626.4755, 50367.54
626.9576, 50345.41
627.4397, 50327.77
627.9218, 50316.06
628.4039, 50321.25
628.8860, 50367.33
629.3682, 50423.79
629.8503, 50435.12
630.3324, 50409.54
630.8145, 50409.57
631.2966, 50505.13
631.7787, 50615.92
632.2609, 50682.21
632.7430, 50685.00
633.2251, 50688.29
633.7072, 50715.93
634.1893, 50741.41
634.6714, 50738.96
635.1536, 50679.36
635.6357, 50658.30
636.1178, 50692.02
636.5999, 50757.54
637.0820, 50818.54
637.5641, 50875.00
638.0463, 50918.60
638.5284, 50942.01
639.0105, 50955.36
639.4926, 50980.71
639.9747, 51016.04
640.4568, 51048.63
640.9390, 51075.76
641.4211, 51093.79
641.9032, 51092.24
642.3853, 51070.48
642.8674, 51062.13
643.3495, 51083.99
643.8317, 51121.73
644.3138, 51167.08
644.7959, 51227.88
645.2780, 51279.48
645.7601, 51323.59
646.2422, 51356.96
646.7244, 51371.98
647.2065, 51363.04
647.6886, 51363.69
648.1707, 51378.93
648.6528, 51407.72
649.1349, 51457.91
649.6171, 51524.98
650.0992, 51578.51
650.5813, 51588.38
651.0634, 51586.85
651.5455, 51601.23
652.0276, 51635.12
652.5098, 51707.52
652.9919, 51910.84
653.4740, 52092.10
653.9561, 52126.16
654.4382, 51963.46
654.9203, 51886.50
655.4025, 51987.37
655.8846, 52137.29
656.3667, 52256.28
656.8488, 52344.06
657.3309, 52391.45
657.8130, 52374.35
658.2952, 52360.68
658.7773, 52458.05
659.2594, 52658.75
659.7415, 52863.03
660.2236, 53051.76
660.7057, 53221.55
661.1879, 53353.46
661.6700, 53459.69
662.1521, 53572.73
662.6342, 53704.68
663.1163, 53851.64
663.5984, 53997.44
664.0806, 54148.46
