##NAMES=Talc
##RRUFFID=R050087
##IDEAL CHEMISTRY=Mg_3_Si_4_O_10_(OH)_2_
##LOCALITY=St. Lawrence County, New York, USA
##OWNER=RRUFF
##SOURCE=University of Arizona Mineral Museum
##DESCRIPTION=An aggregate of colorless foliated coarse single crystals
##STATUS=The identification of this mineral has been confirmed by X-ray diffraction and chemical analysis
##URL=rruff.info/R050087
##MEASURED CHEMISTRY=(Mg_.998_Fe_.002_)_3_(Si_.997_Al_.003_)_4_O_10_(OH_.966_F_.034_)_2_
153.7797, 2265.447
154.2619, 2281.191
154.7440, 2311.573
155.2261, 2361.158
155.7082, 2397.198
156.1903, 2407.711
156.6724, 2405.290
157.1546, 2404.558
157.6367, 2408.672
158.1188, 2414.382
158.6009, 2420.368
159.0830, 2425.948
159.5652, 2433.557
160.0473, 2445.938
160.5294, 2460.756
161.0115, 2473.285
161.4936, 2482.452
161.9757, 2488.837
162.4579, 2491.863
162.9400, 2486.915
163.4221, 2486.188
163.9042, 2496.332
164.3863, 2515.044
164.8684, 2534.701
165.3506, 2557.493
165.8327, 2576.945
166.3148, 2587.114
166.7969, 2574.228
167.2790, 2563.852
167.7611, 2573.843
168.2433, 2601.985
168.7254, 2628.615
169.2075, 2637.837
169.6896, 2640.531
170.1717, 2649.414
170.6538, 2680.071
171.1360, 2711.613
171.6181, 2727.221
172.1002, 2726.334
172.5823, 2719.252
173.0644, 2705.870
173.5465, 2691.957
174.0287, 2687.577
174.5108, 2703.289
174.9929, 2728.131
175.4750, 2747.537
175.9571, 2758.381
176.4392, 2776.616
176.9214, 2829.564
177.4035, 2904.199
177.8856, 2965.082
178.3677, 2971.384
178.8498, 2956.695
179.3319, 2980.686
179.8141, 3062.449
180.2962, 3153.253
180.7783, 3189.655
181.2604, 3179.493
181.7425, 3167.846
182.2246, 3182.093
182.7068, 3216.364
183.1889, 3258.476
183.6710, 3307.943
184.1531, 3361.374
184.6352, 3407.291
185.1173, 3447.057
185.5995, 3498.192
186.0816, 3574.130
186.5637, 3672.460
187.0458, 3787.066
187.5279, 3916.457
188.0100, 4060.502
188.4922, 4216.476
188.9743, 4385.961
189.4564, 4564.588
189.9385, 4734.734
190.4206, 4902.609
190.9027, 5112.083
191.3849, 5357.064
191.8670, 5656.030
192.3491, 6137.707
192.8312, 6846.766
193.3133, 7540.451
193.7955, 8026.884
194.2776, 8302.764
194.7597, 8199.423
195.2418, 7481.286
195.7239, 6248.389
196.2060, 5264.346
196.6882, 4552.864
197.1703, 4049.400
197.6524, 3690.283
198.1345, 3484.587
198.6166, 3345.266
199.0987, 3249.795
199.5809, 3198.204
200.0630, 3161.809
200.5451, 3143.824
201.0272, 3135.311
201.5093, 3117.882
201.9914, 3088.802
202.4736, 3065.114
202.9557, 3058.921
203.4378, 3072.362
203.9199, 3076.104
204.4020, 3064.293
204.8841, 3045.774
205.3663, 3045.527
205.8484, 3069.066
206.3305, 3092.136
206.8126, 3099.250
207.2947, 3087.611
207.7768, 3077.320
208.2590, 3070.295
208.7411, 3065.758
209.2232, 3059.982
209.7053, 3050.896
210.1874, 3045.556
210.6695, 3051.428
211.1517, 3073.069
211.6338, 3085.510
212.1159, 3081.498
212.5980, 3065.177
213.0801, 3062.396
213.5622, 3078.139
214.0444, 3098.093
214.5265, 3111.240
215.0086, 3117.083
215.4907, 3117.784
215.9728, 3112.313
216.4549, 3101.232
216.9371, 3090.754
217.4192, 3077.595
217.9013, 3070.045
218.3834, 3079.630
218.8655, 3116.666
219.3476, 3142.002
219.8298, 3142.432
220.3119, 3117.596
220.7940, 3110.924
221.2761, 3130.538
221.7582, 3159.020
222.2403, 3176.795
222.7225, 3177.378
223.2046, 3181.622
223.6867, 3196.494
224.1688, 3223.825
224.6509, 3241.459
225.1330, 3245.014
225.6152, 3243.185
226.0973, 3247.391
226.5794, 3260.342
227.0615, 3273.587
227.5436, 3284.256
228.0257, 3291.515
228.5079, 3302.993
228.9900, 3325.304
229.4721, 3346.935
229.9542, 3349.596
230.4363, 3323.073
230.9185, 3296.292
231.4006, 3278.514
231.8827, 3272.927
232.3648, 3263.169
232.8469, 3246.715
233.3290, 3227.476
233.8112, 3211.384
234.2933, 3196.327
234.7754, 3188.067
235.2575, 3190.938
235.7396, 3211.718
236.2217, 3220.778
236.7039, 3210.947
237.1860, 3192.733
237.6681, 3188.188
238.1502, 3206.691
238.6323, 3224.029
239.1144, 3230.251
239.5966, 3218.512
240.0787, 3214.265
240.5608, 3220.278
241.0429, 3232.770
241.5250, 3243.058
242.0071, 3248.667
242.4893, 3255.880
242.9714, 3268.659
243.4535, 3294.670
243.9356, 3307.895
244.4177, 3301.687
244.8998, 3284.361
245.3820, 3278.778
245.8641, 3293.302
246.3462, 3307.284
246.8283, 3310.079
247.3104, 3293.730
247.7925, 3285.146
248.2747, 3285.784
248.7568, 3294.165
249.2389, 3307.552
249.7210, 3332.201
250.2031, 3352.377
250.6852, 3358.971
251.1674, 3343.483
251.6495, 3335.053
252.1316, 3338.033
252.6137, 3348.025
253.0958, 3350.430
253.5779, 3340.495
254.0601, 3330.325
254.5422, 3326.159
255.0243, 3329.165
255.5064, 3335.358
255.9885, 3345.991
256.4706, 3359.451
256.9528, 3371.064
257.4349, 3381.703
257.9170, 3389.057
258.3991, 3391.197
258.8812, 3385.558
259.3633, 3381.696
259.8455, 3379.928
260.3276, 3380.304
260.8097, 3383.419
261.2918, 3390.754
261.7739, 3398.163
262.2560, 3402.780
262.7382, 3402.675
263.2203, 3405.948
263.7024, 3414.344
264.1845, 3426.161
264.6666, 3435.958
265.1487, 3443.537
265.6309, 3449.331
266.1130, 3453.689
266.5951, 3457.015
267.0772, 3457.213
267.5593, 3452.905
268.0414, 3445.795
268.5236, 3441.385
269.0057, 3439.358
269.4878, 3440.698
269.9699, 3447.290
270.4520, 3460.907
270.9341, 3471.843
271.4163, 3480.198
271.8984, 3484.942
272.3805, 3478.935
272.8626, 3455.719
273.3447, 3440.688
273.8268, 3454.804
274.3090, 3503.879
274.7911, 3540.892
275.2732, 3559.247
275.7553, 3564.182
276.2374, 3567.988
276.7195, 3569.781
277.2017, 3574.047
277.6838, 3585.945
278.1659, 3606.616
278.6480, 3618.676
279.1301, 3615.554
279.6122, 3607.715
280.0944, 3625.865
280.5765, 3674.961
281.0586, 3721.535
281.5407, 3739.535
282.0229, 3728.636
282.5050, 3731.717
282.9871, 3754.399
283.4692, 3790.583
283.9513, 3829.861
284.4334, 3872.542
284.9156, 3914.713
285.3977, 3952.853
285.8798, 3987.443
286.3619, 4023.869
286.8440, 4061.073
287.3261, 4103.048
287.8083, 4161.040
288.2904, 4235.182
288.7725, 4310.864
289.2546, 4398.759
289.7367, 4487.907
290.2188, 4516.905
290.7010, 4475.875
291.1831, 4383.435
291.6652, 4241.985
292.1473, 4056.177
292.6294, 3908.580
293.1115, 3870.596
293.5937, 3911.110
294.0758, 3918.350
294.5579, 3876.370
295.0400, 3821.460
295.5221, 3813.530
296.0042, 3843.529
296.4864, 3858.306
296.9685, 3810.518
297.4506, 3728.107
297.9327, 3679.747
298.4148, 3673.423
298.8969, 3685.162
299.3791, 3689.649
299.8612, 3688.764
300.3433, 3688.832
300.8254, 3691.992
301.3075, 3698.496
301.7896, 3710.343
302.2718, 3728.651
302.7539, 3746.217
303.2360, 3758.704
303.7181, 3765.181
304.2002, 3763.455
304.6823, 3747.703
305.1645, 3725.278
305.6466, 3702.935
306.1287, 3680.342
306.6108, 3663.424
307.0929, 3660.839
307.5750, 3666.959
308.0572, 3671.326
308.5393, 3664.061
309.0214, 3656.368
309.5035, 3662.082
309.9856, 3682.078
310.4677, 3696.118
310.9499, 3682.633
311.4320, 3656.822
311.9141, 3639.623
312.3962, 3648.981
312.8783, 3661.702
313.3604, 3659.890
313.8426, 3644.012
314.3247, 3632.731
314.8068, 3635.077
315.2889, 3647.631
315.7710, 3666.703
316.2531, 3700.815
316.7353, 3732.760
317.2174, 3755.143
317.6995, 3768.262
318.1816, 3776.100
318.6637, 3779.031
319.1458, 3777.924
319.6280, 3773.481
320.1101, 3751.686
320.5922, 3741.017
321.0743, 3755.528
321.5564, 3790.913
322.0385, 3823.027
322.5207, 3843.441
323.0028, 3860.123
323.4849, 3877.778
323.9670, 3898.851
324.4491, 3919.104
324.9312, 3937.921
325.4134, 3955.440
325.8955, 3972.180
326.3776, 3975.861
326.8597, 3988.001
327.3418, 4019.578
327.8239, 4094.795
328.3061, 4155.682
328.7882, 4193.033
329.2703, 4215.177
329.7524, 4243.478
330.2345, 4282.803
330.7166, 4323.573
331.1988, 4364.273
331.6809, 4410.723
332.1630, 4441.877
332.6451, 4454.963
333.1272, 4453.718
333.6093, 4444.481
334.0915, 4424.298
334.5736, 4400.681
335.0557, 4375.965
335.5378, 4350.719
336.0199, 4322.449
336.5020, 4291.208
336.9842, 4256.678
337.4663, 4215.323
337.9484, 4160.789
338.4305, 4116.635
338.9126, 4090.565
339.3947, 4082.830
339.8769, 4077.825
340.3590, 4075.389
340.8411, 4075.914
341.3232, 4077.549
341.8053, 4078.836
342.2874, 4093.060
342.7696, 4127.068
343.2517, 4177.148
343.7338, 4218.848
344.2159, 4250.645
344.6980, 4285.053
345.1801, 4339.466
345.6623, 4411.503
346.1444, 4471.382
346.6265, 4506.426
347.1086, 4530.453
347.5907, 4578.719
348.0728, 4650.302
348.5550, 4726.890
349.0371, 4795.373
349.5192, 4856.975
350.0013, 4915.619
350.4834, 4969.036
350.9655, 5024.853
351.4477, 5086.823
351.9298, 5157.946
352.4119, 5249.501
352.8940, 5380.660
353.3762, 5534.007
353.8583, 5675.507
354.3404, 5796.119
354.8225, 5923.832
355.3046, 6095.149
355.7867, 6295.225
356.2689, 6488.398
356.7510, 6649.828
357.2331, 6800.266
357.7152, 6954.899
358.1973, 7114.017
358.6794, 7286.314
359.1616, 7497.154
359.6437, 7720.241
360.1258, 7918.780
360.6079, 8098.435
361.0900, 8233.424
361.5721, 8320.354
362.0543, 8358.225
362.5364, 8315.559
363.0185, 8149.220
363.5006, 7909.592
363.9827, 7644.389
364.4648, 7356.459
364.9470, 7051.494
365.4291, 6706.836
365.9112, 6335.930
366.3933, 6010.726
366.8754, 5761.688
367.3575, 5550.184
367.8397, 5356.855
368.3218, 5168.907
368.8039, 5010.146
369.2860, 4887.808
369.7681, 4796.968
370.2502, 4719.792
370.7324, 4660.321
371.2145, 4610.314
371.6966, 4567.583
372.1787, 4533.765
372.6608, 4503.591
373.1429, 4477.878
373.6251, 4455.424
374.1072, 4432.709
374.5893, 4405.256
375.0714, 4386.557
375.5535, 4381.710
376.0356, 4391.255
376.5178, 4407.955
376.9999, 4436.464
377.4820, 4463.908
377.9641, 4471.595
378.4462, 4455.731
378.9283, 4446.569
379.4105, 4456.422
379.8926, 4478.558
380.3747, 4480.694
380.8568, 4461.053
381.3389, 4432.543
381.8210, 4402.980
382.3032, 4373.017
382.7853, 4345.737
383.2674, 4321.896
383.7495, 4301.079
384.2316, 4284.577
384.7137, 4271.798
385.1959, 4259.148
385.6780, 4243.713
386.1601, 4226.722
386.6422, 4210.718
387.1243, 4195.419
387.6064, 4182.561
388.0886, 4174.979
388.5707, 4171.175
389.0528, 4167.470
389.5349, 4162.664
390.0170, 4156.727
390.4991, 4150.025
390.9813, 4142.703
391.4634, 4132.813
391.9455, 4112.820
392.4276, 4091.322
392.9097, 4079.246
393.3918, 4087.393
393.8740, 4099.630
394.3561, 4111.329
394.8382, 4121.805
395.3203, 4126.585
395.8024, 4116.928
396.2845, 4105.231
396.7667, 4100.208
397.2488, 4113.310
397.7309, 4120.804
398.2130, 4111.646
398.6951, 4092.657
399.1772, 4085.343
399.6594, 4112.379
400.1415, 4133.802
400.6236, 4131.616
401.1057, 4085.466
401.5878, 4064.986
402.0699, 4087.037
402.5521, 4126.542
403.0342, 4146.377
403.5163, 4137.777
403.9984, 4124.642
404.4805, 4110.000
404.9626, 4093.747
405.4448, 4091.333
405.9269, 4108.506
406.4090, 4128.964
406.8911, 4135.403
407.3732, 4125.218
407.8553, 4118.964
408.3375, 4121.593
408.8196, 4129.914
409.3017, 4133.848
409.7838, 4133.071
410.2659, 4131.566
410.7480, 4130.080
411.2302, 4129.589
411.7123, 4137.502
412.1944, 4157.578
412.6765, 4177.556
413.1586, 4178.030
413.6407, 4162.695
414.1229, 4147.917
414.6050, 4138.321
415.0871, 4135.508
415.5692, 4144.250
416.0513, 4165.191
416.5334, 4188.104
417.0156, 4210.378
417.4977, 4228.524
417.9798, 4236.980
418.4619, 4215.812
418.9440, 4199.958
419.4261, 4216.540
419.9083, 4260.499
420.3904, 4303.580
420.8725, 4336.592
421.3546, 4361.695
421.8367, 4378.495
422.3188, 4377.815
422.8010, 4385.161
423.2831, 4414.044
423.7652, 4454.964
424.2473, 4488.147
424.7295, 4507.574
425.2116, 4522.147
425.6937, 4530.540
426.1758, 4525.646
426.6579, 4542.820
427.1400, 4593.989
427.6222, 4659.499
428.1043, 4720.292
428.5864, 4772.655
429.0685, 4827.261
429.5506, 4884.417
430.0327, 4944.444
430.5149, 5016.399
430.9970, 5108.588
431.4791, 5191.907
431.9612, 5248.475
432.4433, 5278.727
432.9254, 5280.495
433.4076, 5252.487
433.8897, 5197.257
434.3718, 5112.909
434.8539, 5000.083
435.3360, 4880.815
435.8181, 4757.620
436.3003, 4637.726
436.7824, 4542.264
437.2645, 4472.965
437.7466, 4419.016
438.2287, 4368.533
438.7108, 4325.464
439.1930, 4298.566
439.6751, 4293.193
440.1572, 4303.251
440.6393, 4329.452
441.1214, 4368.712
441.6035, 4405.802
442.0857, 4452.135
442.5678, 4480.979
443.0499, 4463.016
443.5320, 4370.176
444.0141, 4287.220
444.4962, 4251.497
444.9784, 4246.931
445.4605, 4246.593
445.9426, 4246.908
446.4247, 4247.315
446.9068, 4245.866
447.3889, 4241.311
447.8711, 4244.453
448.3532, 4258.411
448.8353, 4278.625
449.3174, 4302.845
449.7995, 4339.173
450.2816, 4365.900
450.7638, 4379.344
451.2459, 4381.647
451.7280, 4378.275
452.2101, 4363.941
452.6922, 4356.493
453.1743, 4371.776
453.6565, 4414.220
454.1386, 4427.402
454.6207, 4401.212
455.1028, 4366.778
455.5849, 4372.274
456.0670, 4415.281
456.5492, 4455.821
457.0313, 4482.491
457.5134, 4495.905
457.9955, 4488.353
458.4776, 4460.829
458.9597, 4441.891
459.4419, 4465.097
459.9240, 4509.710
460.4061, 4537.999
460.8882, 4534.118
461.3703, 4530.873
461.8524, 4562.307
462.3346, 4616.454
462.8167, 4664.998
463.2988, 4685.689
463.7809, 4702.724
464.2630, 4732.056
464.7451, 4776.002
465.2273, 4817.978
465.7094, 4848.705
466.1915, 4876.147
466.6736, 4907.836
467.1557, 4962.677
467.6378, 5001.661
468.1200, 5020.936
468.6021, 5020.473
469.0842, 4998.629
469.5663, 4945.935
470.0484, 4883.095
470.5305, 4816.429
471.0127, 4743.246
471.4948, 4674.575
471.9769, 4606.270
472.4590, 4546.884
472.9411, 4512.933
473.4232, 4509.168
473.9054, 4500.583
474.3875, 4476.065
474.8696, 4439.520
475.3517, 4401.990
475.8338, 4362.419
476.3159, 4337.410
476.7981, 4355.683
477.2802, 4400.108
477.7623, 4413.184
478.2444, 4378.674
478.7265, 4335.955
479.2086, 4333.118
479.6908, 4358.478
480.1729, 4382.920
480.6550, 4394.080
481.1371, 4397.306
481.6192, 4394.073
482.1013, 4384.821
482.5835, 4378.187
483.0656, 4378.257
483.5477, 4383.034
484.0298, 4391.189
484.5119, 4408.080
484.9940, 4420.732
485.4762, 4426.220
485.9583, 4425.541
486.4404, 4421.260
486.9225, 4408.484
487.4046, 4397.033
487.8867, 4387.617
488.3689, 4378.451
488.8510, 4383.807
489.3331, 4412.316
489.8152, 4444.985
490.2973, 4462.539
490.7794, 4461.423
491.2616, 4459.658
491.7437, 4459.515
492.2258, 4460.906
492.7079, 4462.993
493.1900, 4465.625
493.6722, 4471.565
494.1543, 4484.911
494.6364, 4503.032
495.1185, 4516.490
495.6006, 4524.287
496.0828, 4530.482
496.5649, 4539.158
497.0470, 4549.139
497.5291, 4557.706
498.0112, 4562.681
498.4933, 4567.351
498.9755, 4569.999
499.4576, 4573.353
499.9397, 4587.798
500.4218, 4631.173
500.9039, 4678.078
501.3860, 4711.601
501.8682, 4724.431
502.3503, 4739.738
502.8324, 4768.937
503.3145, 4801.085
503.7966, 4822.894
504.2787, 4820.880
504.7609, 4824.721
505.2430, 4843.231
505.7251, 4872.781
506.2072, 4888.306
506.6893, 4885.548
507.1714, 4876.047
507.6536, 4865.665
508.1357, 4854.704
508.6178, 4840.487
509.0999, 4822.484
509.5820, 4802.458
510.0641, 4780.977
510.5463, 4758.428
511.0284, 4740.884
511.5105, 4730.908
511.9926, 4726.241
512.4747, 4724.740
512.9568, 4725.756
513.4390, 4723.864
513.9211, 4710.682
514.4032, 4694.348
514.8853, 4685.550
515.3674, 4686.891
515.8495, 4690.925
516.3317, 4698.821
516.8138, 4705.131
517.2959, 4702.321
517.7780, 4671.539
518.2601, 4647.686
518.7422, 4649.857
519.2244, 4674.533
519.7065, 4685.363
520.1886, 4659.638
520.6707, 4635.455
521.1528, 4632.008
521.6349, 4665.101
522.1171, 4677.031
522.5992, 4659.545
523.0813, 4629.080
523.5634, 4606.809
524.0455, 4593.854
524.5276, 4583.067
525.0098, 4572.351
525.4919, 4562.658
525.9740, 4557.437
526.4561, 4556.751
526.9382, 4557.545
527.4203, 4557.365
527.9025, 4557.121
528.3846, 4559.959
528.8667, 4566.858
529.3488, 4572.450
529.8309, 4567.613
530.3130, 4558.776
530.7952, 4556.344
531.2773, 4572.865
531.7594, 4589.137
532.2415, 4594.706
532.7236, 4591.112
533.2057, 4584.767
533.6879, 4573.118
534.1700, 4562.831
534.6521, 4557.276
535.1342, 4557.820
535.6163, 4560.382
536.0984, 4568.296
536.5806, 4575.836
537.0627, 4576.488
537.5448, 4567.328
538.0269, 4557.723
538.5090, 4547.095
538.9911, 4537.903
539.4733, 4540.934
539.9554, 4557.933
540.4375, 4574.591
540.9196, 4583.555
541.4017, 4585.708
541.8839, 4583.464
542.3660, 4576.422
542.8481, 4569.360
543.3302, 4565.627
543.8123, 4565.232
544.2944, 4568.878
544.7766, 4580.275
545.2587, 4590.032
545.7408, 4586.731
546.2229, 4575.738
546.7050, 4570.240
547.1871, 4584.316
547.6693, 4597.685
548.1514, 4596.778
548.6335, 4578.485
549.1156, 4571.106
549.5977, 4595.605
550.0798, 4621.028
550.5620, 4625.247
551.0441, 4592.529
551.5262, 4569.636
552.0083, 4560.143
552.4904, 4560.163
552.9725, 4562.208
553.4547, 4565.857
553.9368, 4574.223
554.4189, 4591.278
554.9010, 4613.410
555.3831, 4626.276
555.8652, 4629.812
556.3474, 4627.429
556.8295, 4617.530
557.3116, 4604.296
557.7937, 4597.607
558.2758, 4600.265
558.7579, 4602.939
559.2401, 4593.336
559.7222, 4579.433
560.2043, 4573.650
560.6864, 4586.552
561.1685, 4602.879
561.6506, 4621.339
562.1328, 4639.447
562.6149, 4645.035
563.0970, 4620.059
563.5791, 4595.989
564.0612, 4587.094
564.5433, 4599.398
565.0255, 4602.272
565.5076, 4585.887
565.9897, 4571.717
566.4718, 4588.968
566.9539, 4646.269
567.4360, 4677.615
567.9182, 4666.478
568.4003, 4630.933
568.8824, 4604.132
569.3645, 4586.360
569.8466, 4578.328
570.3287, 4590.041
570.8109, 4608.410
571.2930, 4603.938
571.7751, 4577.798
572.2572, 4564.237
572.7393, 4603.384
573.2214, 4659.188
573.7036, 4694.753
574.1857, 4698.268
574.6678, 4690.697
575.1499, 4668.182
575.6320, 4642.151
576.1141, 4629.088
576.5963, 4644.475
577.0784, 4658.823
577.5605, 4667.740
578.0426, 4671.426
578.5247, 4670.853
579.0068, 4663.630
579.4890, 4657.057
579.9711, 4655.253
580.4532, 4658.531
580.9353, 4661.728
581.4174, 4665.333
581.8995, 4666.807
582.3817, 4660.045
582.8638, 4648.124
583.3459, 4642.821
583.8280, 4648.416
584.3101, 4658.860
584.7922, 4665.893
585.2744, 4672.134
585.7565, 4684.477
586.2386, 4715.627
586.7207, 4745.969
587.2028, 4765.193
587.6849, 4772.815
588.1671, 4771.717
588.6492, 4751.912
589.1313, 4731.206
589.6134, 4720.746
590.0955, 4724.613
590.5776, 4730.103
591.0598, 4739.097
591.5419, 4748.024
592.0240, 4751.596
592.5061, 4748.673
592.9882, 4746.234
593.4703, 4746.290
593.9525, 4747.299
594.4346, 4742.771
594.9167, 4733.491
595.3988, 4730.484
595.8809, 4747.902
596.3630, 4772.721
596.8452, 4782.267
597.3273, 4775.766
597.8094, 4766.984
598.2915, 4765.031
598.7736, 4765.319
599.2557, 4762.123
599.7379, 4747.735
600.2200, 4743.264
600.7021, 4765.462
601.1843, 4798.675
601.6664, 4817.716
602.1485, 4810.816
602.6306, 4804.771
603.1127, 4804.476
603.5948, 4808.548
604.0770, 4809.769
604.5591, 4807.274
605.0412, 4804.731
605.5233, 4802.073
606.0054, 4800.076
606.4875, 4809.034
606.9697, 4830.021
607.4518, 4850.476
607.9339, 4857.464
608.4160, 4855.131
608.8981, 4850.102
609.3802, 4840.586
609.8624, 4837.169
610.3445, 4859.483
610.8266, 4891.144
611.3087, 4905.118
611.7908, 4867.895
612.2729, 4835.636
612.7551, 4830.581
613.2372, 4849.606
613.7193, 4867.425
614.2014, 4883.652
614.6835, 4897.725
615.1656, 4909.860
615.6478, 4920.435
616.1299, 4924.698
616.6120, 4921.372
617.0941, 4914.921
617.5762, 4906.298
618.0583, 4896.652
618.5405, 4898.962
619.0226, 4919.000
619.5047, 4939.690
619.9868, 4937.059
620.4689, 4918.229
620.9510, 4900.546
621.4332, 4885.720
621.9153, 4879.476
622.3974, 4892.214
622.8795, 4918.681
623.3616, 4937.222
623.8438, 4929.328
624.3259, 4921.791
624.8080, 4928.844
625.2901, 4954.044
625.7722, 4973.350
626.2543, 4987.784
626.7365, 4995.048
627.2186, 4991.248
627.7007, 4973.989
628.1828, 4960.220
628.6649, 4950.339
629.1470, 4946.423
629.6292, 4954.242
630.1113, 4971.818
630.5934, 4989.207
631.0755, 5003.967
631.5576, 5016.075
632.0397, 5025.494
632.5219, 5032.177
633.0040, 5035.815
633.4861, 5031.217
633.9682, 5027.679
634.4503, 5034.077
634.9324, 5051.187
635.4146, 5058.585
635.8967, 5037.469
636.3788, 5017.350
636.8609, 5014.470
637.3430, 5035.225
637.8251, 5056.958
638.3073, 5082.724
638.7894, 5104.488
639.2715, 5108.283
639.7536, 5093.869
640.2357, 5087.265
640.7178, 5095.205
641.2000, 5110.405
641.6821, 5120.162
642.1642, 5127.000
642.6463, 5139.583
643.1284, 5176.412
643.6105, 5210.057
644.0927, 5209.602
644.5748, 5181.120
645.0569, 5163.733
645.5390, 5185.803
646.0211, 5212.133
646.5032, 5223.929
646.9854, 5215.221
647.4675, 5207.135
647.9496, 5193.761
648.4317, 5187.664
