##NAMES=Talc
##RRUFFID=R050087
##IDEAL CHEMISTRY=Mg_3_Si_4_O_10_(OH)_2_
##LOCALITY=St. Lawrence County, New York, USA
##OWNER=RRUFF
##SOURCE=University of Arizona Mineral Museum
##DESCRIPTION=An aggregate of colorless foliated coarse single crystals
##STATUS=The identification of this mineral has been confirmed by X-ray diffraction and chemical analysis
##URL=rruff.info/R050087
##MEASURED CHEMISTRY=(Mg_.998_Fe_.002_)_3_(Si_.997_Al_.003_)_4_O_10_(OH_.966_F_.034_)_2_
135.4927, 1861.413
135.9748, 1866.388
136.4569, 1873.242
136.9390, 1883.356
137.4211, 1893.707
137.9033, 1902.049
138.3854, 1909.759
138.8675, 1921.310
139.3496, 1941.364
139.8317, 1970.129
140.3138, 1983.227
140.7960, 1960.131
141.2781, 1944.373
141.7602, 1958.049
142.2423, 1997.152
142.7244, 2042.987
143.2065, 2081.413
143.6887, 2112.218
144.1708, 2152.025
144.6529, 2196.566
145.1350, 2252.099
145.6171, 2325.124
146.0992, 2414.247
146.5814, 2510.117
147.0635, 2605.774
147.5456, 2701.553
148.0277, 2801.928
148.5098, 2911.801
148.9919, 3022.442
149.4741, 3131.473
149.9562, 3238.681
150.4383, 3335.738
150.9204, 3415.071
151.4025, 3476.477
151.8846, 3533.560
152.3668, 3606.443
152.8489, 3663.418
153.3310, 3673.132
153.8131, 3632.670
154.2952, 3564.979
154.7773, 3477.165
155.2595, 3373.671
155.7416, 3275.060
156.2237, 3179.518
156.7058, 3092.828
157.1879, 3024.805
157.6700, 2978.021
158.1522, 2936.114
158.6343, 2882.800
159.1164, 2824.554
159.5985, 2778.734
160.0806, 2750.633
160.5627, 2737.181
161.0449, 2737.466
161.5270, 2754.419
162.0091, 2774.026
162.4912, 2785.034
162.9733, 2791.477
163.4554, 2801.001
163.9376, 2817.143
164.4197, 2837.668
164.9018, 2858.855
165.3839, 2881.000
165.8660, 2902.839
166.3481, 2922.787
166.8303, 2941.950
167.3124, 2962.497
167.7945, 2988.191
168.2766, 3014.999
168.7587, 3032.815
169.2408, 3037.383
169.7230, 3042.738
170.2051, 3060.429
170.6872, 3083.247
171.1693, 3099.704
171.6514, 3103.730
172.1335, 3098.377
172.6157, 3089.531
173.0978, 3072.708
173.5799, 3061.848
174.0620, 3065.286
174.5441, 3077.325
175.0262, 3089.215
175.5084, 3093.489
175.9905, 3096.837
176.4726, 3119.461
176.9547, 3170.538
177.4368, 3225.054
177.9189, 3274.182
178.4010, 3320.014
178.8832, 3365.056
179.3653, 3410.811
179.8474, 3456.945
180.3295, 3502.342
180.8116, 3543.935
181.2937, 3590.697
181.7759, 3649.873
182.2580, 3713.721
182.7401, 3772.131
183.2222, 3819.752
183.7043, 3859.697
184.1864, 3898.370
184.6686, 3923.964
185.1507, 3970.522
185.6328, 4041.913
186.1149, 4136.319
186.5970, 4252.599
187.0791, 4390.890
187.5613, 4548.956
188.0434, 4720.115
188.5255, 4878.917
189.0076, 5100.084
189.4897, 5373.656
189.9718, 5713.187
190.4540, 6134.139
190.9361, 6640.394
191.4182, 7234.337
191.9003, 7945.648
192.3824, 8923.033
192.8645, 9749.989
193.3467, 10561.28
193.8288, 11130.62
194.3109, 11208.28
194.7930, 10691.74
195.2751, 9747.346
195.7572, 8698.012
196.2394, 7379.286
196.7215, 6261.689
197.2036, 5384.412
197.6857, 4702.180
198.1678, 4203.922
198.6499, 3880.007
199.1321, 3683.347
199.6142, 3533.909
200.0963, 3447.829
200.5784, 3380.958
201.0605, 3329.643
201.5426, 3291.139
202.0248, 3267.835
202.5069, 3259.045
202.9890, 3256.119
203.4711, 3243.766
203.9532, 3213.093
204.4353, 3193.509
204.9175, 3194.570
205.3996, 3199.595
205.8817, 3197.030
206.3638, 3184.759
206.8459, 3168.876
207.3280, 3157.670
207.8102, 3153.339
208.2923, 3148.458
208.7744, 3147.466
209.2565, 3142.666
209.7386, 3125.331
210.2207, 3096.915
210.7029, 3069.245
211.1850, 3057.331
211.6671, 3066.631
212.1492, 3072.029
212.6313, 3065.448
213.1134, 3062.009
213.5956, 3073.152
214.0777, 3096.225
214.5598, 3118.230
215.0419, 3125.533
215.5240, 3115.535
216.0061, 3107.773
216.4883, 3097.313
216.9704, 3093.541
217.4525, 3106.289
217.9346, 3130.116
218.4167, 3149.939
218.8988, 3151.734
219.3810, 3134.789
219.8631, 3125.741
220.3452, 3135.753
220.8273, 3143.137
221.3094, 3137.226
221.7915, 3124.169
222.2737, 3116.909
222.7558, 3125.079
223.2379, 3147.285
223.7200, 3167.746
224.2021, 3186.222
224.6842, 3203.020
225.1664, 3220.919
225.6485, 3236.741
226.1306, 3243.684
226.6127, 3236.226
227.0948, 3220.551
227.5770, 3224.079
228.0591, 3272.666
228.5412, 3305.591
229.0233, 3301.168
229.5054, 3280.793
229.9875, 3273.082
230.4697, 3291.718
230.9518, 3318.997
231.4339, 3307.468
231.9160, 3221.879
232.3981, 3157.784
232.8802, 3136.837
233.3624, 3134.116
233.8445, 3128.034
234.3266, 3111.526
234.8087, 3091.771
235.2908, 3081.463
235.7729, 3084.252
236.2551, 3088.159
236.7372, 3091.375
237.2193, 3095.729
237.7014, 3104.750
238.1835, 3118.111
238.6656, 3129.551
239.1478, 3130.449
239.6299, 3117.865
240.1120, 3105.441
240.5941, 3083.380
241.0762, 3069.960
241.5583, 3082.413
242.0405, 3116.217
242.5226, 3147.352
243.0047, 3149.966
243.4868, 3121.060
243.9689, 3099.495
244.4510, 3088.922
244.9332, 3082.851
245.4153, 3080.098
245.8974, 3080.000
246.3795, 3081.583
246.8616, 3084.295
247.3437, 3088.123
247.8259, 3093.171
248.3080, 3103.244
248.7901, 3109.118
249.2722, 3106.831
249.7543, 3098.856
250.2364, 3089.120
250.7186, 3079.467
251.2007, 3069.623
251.6828, 3057.922
252.1649, 3041.114
252.6470, 3029.291
253.1291, 3028.011
253.6113, 3031.786
254.0934, 3034.654
254.5755, 3034.173
255.0576, 3033.168
255.5397, 3037.044
256.0219, 3047.634
256.5040, 3056.086
256.9861, 3060.949
257.4682, 3061.985
257.9503, 3054.789
258.4324, 3037.932
258.9146, 3026.100
259.3967, 3042.600
259.8788, 3089.499
260.3609, 3115.993
260.8430, 3097.793
261.3251, 3068.427
261.8073, 3050.339
262.2894, 3044.466
262.7715, 3043.844
263.2536, 3044.271
263.7357, 3045.930
264.2178, 3050.184
264.7000, 3058.536
265.1821, 3067.466
265.6642, 3075.333
266.1463, 3081.915
266.6284, 3086.103
267.1105, 3090.094
267.5927, 3090.859
268.0748, 3077.910
268.5569, 3045.115
269.0390, 3017.944
269.5211, 3020.826
270.0032, 3040.966
270.4854, 3057.800
270.9675, 3063.183
271.4496, 3065.457
271.9317, 3073.961
272.4138, 3088.854
272.8959, 3105.455
273.3781, 3121.592
273.8602, 3138.076
274.3423, 3156.615
274.8244, 3179.341
275.3065, 3200.445
275.7886, 3214.044
276.2708, 3222.124
276.7529, 3233.978
277.2350, 3255.327
277.7171, 3278.490
278.1992, 3286.533
278.6813, 3273.194
279.1635, 3274.994
279.6456, 3318.694
280.1277, 3383.088
280.6098, 3429.929
281.0919, 3449.481
281.5740, 3459.916
282.0562, 3480.743
282.5383, 3511.990
283.0204, 3551.856
283.5025, 3603.437
283.9846, 3661.520
284.4667, 3715.057
284.9489, 3765.414
285.4310, 3835.451
285.9131, 3946.033
286.3952, 4097.449
286.8773, 4249.795
287.3594, 4403.828
287.8416, 4558.131
288.3237, 4739.416
288.8058, 4923.687
289.2879, 5052.082
289.7700, 5094.277
290.2521, 5052.993
290.7343, 4933.249
291.2164, 4679.021
291.6985, 4421.690
292.1806, 4163.053
292.6627, 3918.042
293.1448, 3702.295
293.6270, 3521.517
294.1091, 3375.663
294.5912, 3266.802
295.0733, 3210.241
295.5554, 3165.723
296.0375, 3137.909
296.5197, 3117.986
297.0018, 3100.611
297.4839, 3084.791
297.9660, 3072.269
298.4481, 3065.076
298.9302, 3063.910
299.4124, 3063.329
299.8945, 3057.304
300.3766, 3057.797
300.8587, 3074.907
301.3408, 3101.833
301.8229, 3124.530
302.3050, 3133.768
302.7871, 3131.375
303.2693, 3126.436
303.7514, 3117.609
304.2335, 3107.997
304.7156, 3102.360
305.1977, 3094.655
305.6798, 3074.878
306.1620, 3038.778
306.6441, 3000.484
307.1262, 2986.902
307.6083, 3007.402
308.0904, 3017.831
308.5725, 2997.822
309.0547, 2974.066
309.5368, 2962.862
310.0189, 2965.340
310.5010, 2971.071
310.9831, 2969.768
311.4652, 2962.514
311.9474, 2962.233
312.4295, 2974.923
312.9116, 2987.322
313.3937, 2989.371
313.8758, 2984.577
314.3579, 2982.050
314.8401, 2986.972
315.3222, 2996.193
315.8043, 3003.804
316.2864, 3009.205
316.7685, 3016.470
317.2506, 3028.295
317.7328, 3043.280
318.2149, 3059.780
318.6970, 3080.272
319.1791, 3097.394
319.6612, 3102.646
320.1433, 3098.729
320.6255, 3095.846
321.1076, 3093.401
321.5897, 3099.941
322.0718, 3138.480
322.5539, 3217.098
323.0360, 3272.639
323.5182, 3259.183
324.0003, 3224.800
324.4824, 3239.749
324.9645, 3315.632
325.4466, 3399.127
325.9287, 3436.412
326.4109, 3421.538
326.8930, 3430.148
327.3751, 3473.348
327.8572, 3528.752
328.3393, 3585.127
328.8214, 3643.369
329.3036, 3710.719
329.7857, 3793.708
330.2678, 3885.858
330.7499, 3955.048
331.2320, 4000.137
331.7141, 4023.605
332.1963, 4018.341
332.6784, 3994.942
333.1605, 3961.484
333.6426, 3921.387
334.1247, 3878.757
334.6068, 3840.205
335.0890, 3810.336
335.5711, 3772.119
336.0532, 3718.142
336.5353, 3663.493
337.0174, 3612.745
337.4995, 3568.065
337.9817, 3531.968
338.4638, 3507.415
338.9459, 3493.554
339.4280, 3482.840
339.9101, 3475.877
340.3922, 3471.625
340.8744, 3460.703
341.3565, 3454.984
341.8386, 3472.403
342.3207, 3522.253
342.8028, 3585.120
343.2849, 3627.509
343.7671, 3644.062
344.2492, 3678.986
344.7313, 3746.908
345.2134, 3835.599
345.6955, 3940.541
346.1776, 4060.870
346.6598, 4179.852
347.1419, 4290.689
347.6240, 4392.030
348.1061, 4477.919
348.5882, 4543.685
349.0703, 4606.958
349.5525, 4678.779
350.0346, 4758.988
350.5167, 4848.564
350.9988, 4941.913
351.4809, 5049.775
351.9630, 5181.126
352.4452, 5335.257
352.9273, 5509.344
353.4094, 5704.222
353.8915, 5915.710
354.3736, 6133.469
354.8557, 6346.147
355.3379, 6583.389
355.8200, 6855.054
356.3021, 7152.975
356.7842, 7465.499
357.2663, 7791.202
357.7484, 8130.122
358.2306, 8486.291
358.7127, 8868.835
359.1948, 9219.477
359.6769, 9559.469
360.1590, 9851.378
360.6411, 10095.89
361.1233, 10278.51
361.6054, 10378.99
362.0875, 10388.04
362.5696, 10298.23
363.0517, 10078.28
363.5338, 9666.776
364.0160, 9213.309
364.4981, 8722.278
364.9802, 8211.354
365.4623, 7678.780
365.9444, 7132.402
366.4265, 6606.944
366.9087, 6143.312
367.3908, 5738.867
367.8729, 5382.643
368.3550, 5078.657
368.8371, 4821.540
369.3192, 4614.745
369.8014, 4446.869
370.2835, 4292.133
370.7656, 4133.083
371.2477, 3984.368
371.7298, 3875.828
372.2119, 3810.497
372.6941, 3757.646
373.1762, 3706.723
373.6583, 3661.048
374.1404, 3622.735
374.6225, 3589.828
375.1046, 3571.727
375.5868, 3583.302
376.0689, 3611.644
376.5510, 3631.622
377.0331, 3638.035
377.5152, 3636.906
377.9973, 3634.707
378.4795, 3631.475
378.9616, 3619.325
379.4437, 3594.593
379.9258, 3564.144
380.4079, 3528.227
380.8900, 3489.723
381.3722, 3456.858
381.8543, 3434.812
382.3364, 3418.821
382.8185, 3393.764
383.3006, 3343.825
383.7827, 3305.969
384.2649, 3294.001
384.7470, 3285.858
385.2291, 3260.940
385.7112, 3217.684
386.1933, 3171.432
386.6754, 3138.780
387.1576, 3120.729
387.6397, 3099.247
388.1218, 3068.386
388.6039, 3040.905
389.0860, 3021.955
389.5681, 3008.751
390.0503, 2996.898
390.5324, 2984.214
391.0145, 2972.560
391.4966, 2966.356
391.9787, 2966.630
392.4608, 2962.562
392.9430, 2948.925
393.4251, 2931.832
393.9072, 2915.646
394.3893, 2900.507
394.8714, 2890.281
395.3535, 2889.841
395.8357, 2894.491
396.3178, 2895.478
396.7999, 2891.743
397.2820, 2890.598
397.7641, 2899.930
398.2462, 2916.145
398.7284, 2921.018
399.2105, 2905.692
399.6926, 2889.229
400.1747, 2878.742
400.6568, 2872.023
401.1389, 2865.309
401.6211, 2857.321
402.1032, 2849.155
402.5853, 2841.704
403.0674, 2832.455
403.5495, 2832.629
404.0316, 2853.642
404.5138, 2872.164
404.9959, 2873.794
405.4780, 2862.750
405.9601, 2852.072
406.4422, 2850.560
406.9243, 2854.297
407.4065, 2848.455
407.8886, 2826.330
408.3707, 2808.421
408.8528, 2798.938
409.3349, 2794.556
409.8170, 2793.461
410.2992, 2795.174
410.7813, 2798.782
411.2634, 2805.382
411.7455, 2813.784
412.2276, 2817.645
412.7097, 2816.284
413.1919, 2810.948
413.6740, 2791.770
414.1561, 2769.904
414.6382, 2771.239
415.1203, 2817.426
415.6024, 2867.435
416.0846, 2888.167
416.5667, 2887.868
417.0488, 2891.172
417.5309, 2905.978
418.0130, 2929.110
418.4951, 2957.272
418.9773, 2993.433
419.4594, 3023.943
419.9415, 3044.053
420.4236, 3061.658
420.9057, 3082.802
421.3878, 3106.470
421.8700, 3126.972
422.3521, 3139.949
422.8342, 3148.715
423.3163, 3167.516
423.7984, 3200.708
424.2805, 3238.028
424.7627, 3274.017
425.2448, 3316.121
425.7269, 3371.660
426.2090, 3441.067
426.6911, 3516.773
427.1732, 3588.995
427.6554, 3659.642
428.1375, 3745.259
428.6196, 3848.851
429.1017, 3961.778
429.5838, 4086.317
430.0659, 4215.895
430.5481, 4342.833
431.0302, 4472.219
431.5123, 4583.828
431.9944, 4672.887
432.4765, 4732.316
432.9586, 4735.320
433.4408, 4673.090
433.9229, 4558.395
434.4050, 4393.161
434.8871, 4171.682
435.3692, 3966.874
435.8513, 3780.547
436.3335, 3614.494
436.8156, 3470.175
437.2977, 3346.624
437.7798, 3240.280
438.2619, 3149.598
438.7440, 3074.122
439.2262, 3014.193
439.7083, 2979.913
440.1904, 2943.988
440.6725, 2894.936
441.1546, 2852.666
441.6367, 2834.823
442.1189, 2837.257
442.6010, 2839.753
443.0831, 2825.436
443.5652, 2800.061
444.0473, 2786.825
444.5294, 2789.599
445.0116, 2793.641
445.4937, 2790.266
445.9758, 2787.147
446.4579, 2794.992
446.9400, 2817.156
447.4221, 2833.627
447.9043, 2825.496
448.3864, 2804.271
448.8685, 2793.599
449.3506, 2796.779
449.8327, 2807.911
450.3148, 2825.630
450.7970, 2848.283
451.2791, 2860.586
451.7612, 2855.491
452.2433, 2849.129
452.7254, 2843.184
453.2076, 2840.424
453.6897, 2847.575
454.1718, 2865.625
454.6539, 2883.927
455.1360, 2888.138
455.6181, 2875.634
456.1003, 2863.922
456.5824, 2849.338
457.0645, 2839.642
457.5466, 2838.359
458.0287, 2843.350
458.5108, 2850.435
458.9930, 2857.367
459.4751, 2868.288
459.9572, 2892.401
460.4393, 2929.896
460.9214, 2960.496
461.4035, 2975.038
461.8857, 2988.911
462.3678, 3013.497
462.8499, 3048.353
463.3320, 3093.969
463.8141, 3160.969
464.2962, 3230.815
464.7784, 3282.823
465.2605, 3321.979
465.7426, 3371.706
466.2247, 3444.495
466.7068, 3524.967
467.1889, 3583.577
467.6711, 3622.461
468.1532, 3630.261
468.6353, 3599.491
469.1174, 3544.992
469.5995, 3465.786
470.0816, 3370.385
470.5638, 3277.107
471.0459, 3196.900
471.5280, 3126.859
472.0101, 3055.978
472.4922, 2981.614
472.9743, 2914.930
473.4565, 2859.319
473.9386, 2812.167
474.4207, 2772.406
474.9028, 2740.084
475.3849, 2715.571
475.8670, 2701.428
476.3492, 2694.321
476.8313, 2690.680
477.3134, 2690.461
477.7955, 2686.233
478.2776, 2673.143
478.7597, 2654.648
479.2419, 2638.543
479.7240, 2624.218
480.2061, 2613.358
480.6882, 2607.289
481.1703, 2604.156
481.6524, 2603.823
482.1346, 2605.236
482.6167, 2605.170
483.0988, 2601.219
483.5809, 2593.760
484.0630, 2584.287
484.5451, 2568.018
485.0273, 2557.887
485.5094, 2559.029
485.9915, 2563.869
486.4736, 2564.764
486.9557, 2561.828
487.4378, 2563.405
487.9200, 2583.965
488.4021, 2613.703
488.8842, 2617.080
489.3663, 2587.869
489.8484, 2567.793
490.3305, 2585.281
490.8127, 2621.501
491.2948, 2636.071
491.7769, 2622.287
492.2590, 2606.894
492.7411, 2592.569
493.2232, 2584.892
493.7054, 2595.633
494.1875, 2622.764
494.6696, 2645.560
495.1517, 2645.633
495.6338, 2629.549
496.1159, 2641.357
496.5981, 2722.387
497.0802, 2772.732
497.5623, 2762.087
498.0444, 2732.732
498.5265, 2717.655
499.0086, 2721.256
499.4908, 2729.972
499.9729, 2731.748
500.4550, 2729.735
500.9371, 2736.026
501.4192, 2751.547
501.9013, 2771.721
502.3835, 2795.853
502.8656, 2823.106
503.3477, 2852.336
503.8298, 2884.341
504.3119, 2914.387
504.7940, 2947.089
505.2762, 2973.153
505.7583, 2978.339
506.2404, 2963.715
506.7225, 2942.727
507.2046, 2923.064
507.6867, 2905.880
508.1689, 2896.969
508.6510, 2913.670
509.1331, 2912.548
509.6152, 2880.117
510.0973, 2838.650
510.5794, 2799.590
511.0616, 2766.564
511.5437, 2743.169
512.0258, 2733.772
512.5079, 2734.732
512.9901, 2736.732
513.4722, 2739.847
513.9543, 2743.514
514.4364, 2747.739
514.9185, 2752.275
515.4006, 2757.747
515.8828, 2764.556
516.3649, 2767.542
516.8470, 2764.614
517.3291, 2757.609
517.8112, 2746.228
518.2933, 2731.900
518.7755, 2720.274
519.2576, 2715.107
519.7397, 2711.163
520.2218, 2695.543
520.7039, 2661.047
521.1860, 2628.189
521.6682, 2594.549
522.1503, 2564.626
522.6324, 2541.222
523.1145, 2523.462
523.5966, 2509.349
524.0787, 2498.114
524.5609, 2489.096
525.0430, 2483.416
525.5251, 2481.012
526.0072, 2470.643
526.4893, 2445.271
526.9714, 2418.208
527.4536, 2404.174
527.9357, 2401.708
528.4178, 2401.687
528.8999, 2401.329
529.3820, 2404.615
529.8641, 2422.077
530.3463, 2443.358
530.8284, 2445.374
531.3105, 2420.761
531.7926, 2387.728
532.2747, 2372.121
532.7568, 2377.587
533.2390, 2377.302
533.7211, 2362.612
534.2032, 2352.120
534.6853, 2354.287
535.1674, 2362.836
535.6495, 2370.649
536.1317, 2376.255
536.6138, 2375.747
537.0959, 2359.868
537.5780, 2334.761
538.0601, 2322.627
538.5422, 2327.729
539.0244, 2332.972
539.5065, 2325.005
539.9886, 2307.316
540.4707, 2297.620
540.9528, 2303.692
541.4349, 2306.054
541.9171, 2296.796
542.3992, 2284.664
542.8813, 2277.782
543.3634, 2276.899
543.8455, 2278.462
544.3276, 2279.956
544.8098, 2281.288
545.2919, 2282.220
545.7740, 2283.214
546.2561, 2282.553
546.7382, 2279.482
547.2203, 2274.733
547.7025, 2265.923
548.1846, 2254.124
548.6666, 2249.686
549.1487, 2265.882
549.6309, 2285.571
550.1130, 2289.810
550.5951, 2280.524
551.0772, 2265.812
551.5593, 2247.611
552.0414, 2231.578
552.5236, 2227.386
553.0057, 2239.343
553.4878, 2248.765
553.9699, 2260.216
554.4520, 2264.748
554.9341, 2249.519
555.4163, 2227.864
555.8984, 2222.245
556.3805, 2241.245
556.8626, 2267.302
557.3447, 2281.074
557.8268, 2283.294
558.3090, 2277.602
558.7911, 2260.466
559.2732, 2247.833
559.7553, 2253.155
560.2374, 2270.907
560.7195, 2282.673
561.2017, 2288.940
561.6838, 2288.200
562.1659, 2271.881
562.6480, 2253.244
563.1301, 2247.611
563.6122, 2255.098
564.0944, 2266.063
564.5765, 2274.610
565.0586, 2279.225
565.5407, 2272.099
566.0228, 2244.985
566.5049, 2227.015
566.9871, 2231.451
567.4692, 2240.043
567.9513, 2242.073
568.4334, 2238.079
568.9155, 2233.379
569.3976, 2228.658
569.8798, 2225.581
570.3619, 2227.067
570.8440, 2231.744
571.3261, 2235.008
571.8082, 2235.439
572.2903, 2234.223
572.7725, 2232.700
573.2546, 2230.872
573.7367, 2228.629
574.2188, 2222.922
574.7009, 2220.424
575.1830, 2224.182
575.6652, 2231.291
576.1473, 2241.167
576.6294, 2252.643
577.1115, 2258.077
577.5936, 2242.767
578.0757, 2215.955
578.5579, 2213.002
579.0400, 2237.541
579.5221, 2257.861
580.0042, 2258.514
580.4863, 2247.427
580.9684, 2238.505
581.4506, 2230.960
581.9327, 2227.706
582.4148, 2230.696
582.8969, 2236.747
583.3790, 2248.175
583.8611, 2260.413
584.3433, 2262.197
584.8254, 2248.195
585.3075, 2231.107
585.7896, 2234.345
586.2717, 2260.595
586.7538, 2275.351
587.2360, 2274.325
587.7181, 2266.116
588.2002, 2247.707
588.6823, 2227.451
589.1644, 2221.566
589.6465, 2239.463
590.1287, 2252.339
590.6108, 2237.819
591.0929, 2215.093
591.5750, 2210.104
592.0571, 2223.152
592.5392, 2238.409
593.0214, 2245.446
593.5035, 2247.116
593.9856, 2254.048
594.4677, 2275.429
594.9498, 2280.120
595.4319, 2235.042
595.9141, 2200.696
596.3962, 2222.831
596.8783, 2279.713
597.3604, 2313.025
597.8425, 2292.666
598.3246, 2258.811
598.8068, 2244.268
599.2889, 2244.808
599.7710, 2252.496
600.2531, 2265.867
600.7352, 2275.317
601.2173, 2271.732
601.6995, 2257.043
602.1816, 2246.959
602.6637, 2240.830
603.1458, 2240.704
603.6279, 2251.915
604.1100, 2264.995
604.5922, 2273.741
605.0743, 2277.722
605.5564, 2278.649
606.0385, 2276.233
606.5206, 2273.064
607.0027, 2274.134
607.4849, 2278.661
607.9670, 2279.567
608.4491, 2274.075
608.9312, 2268.779
609.4133, 2271.478
609.8954, 2282.207
610.3776, 2286.027
610.8597, 2274.273
611.3418, 2267.243
611.8239, 2275.749
612.3060, 2287.366
612.7881, 2289.909
613.2703, 2282.008
613.7524, 2268.521
614.2345, 2248.769
614.7166, 2229.621
615.1987, 2232.366
615.6808, 2258.268
616.1630, 2277.238
616.6451, 2279.148
617.1272, 2273.582
617.6093, 2269.212
618.0914, 2266.066
618.5735, 2268.174
619.0557, 2283.461
619.5378, 2295.042
620.0199, 2293.607
620.5020, 2286.176
620.9841, 2281.799
621.4662, 2282.052
621.9484, 2281.949
622.4305, 2274.938
622.9126, 2264.859
623.3947, 2270.008
623.8768, 2294.282
624.3589, 2310.298
624.8411, 2305.185
625.3232, 2293.607
625.8053, 2292.636
626.2874, 2301.587
626.7695, 2312.721
627.2516, 2331.299
627.7338, 2344.983
628.2159, 2344.441
628.6980, 2336.207
629.1801, 2328.227
629.6622, 2323.192
630.1443, 2322.635
