##NAMES=Talmessite
##RRUFFID=R060369
##IDEAL CHEMISTRY=Ca_2_Mg(As^5+^O_4_)_2_&#183;2H_2_O
##LOCALITY=Gold Hill, Tooele County, Utah, USA
##OWNER=RRUFF
##SOURCE=Michael Scott
##DESCRIPTION=Colorless saddle-shaped crystals associated with austinite
##STATUS=The identification of this mineral has been confirmed by single-crystal X-ray diffraction.
##URL=rruff.info/R060369
91.53320, 82.34059
92.01532, 81.77448
92.49744, 81.38127
92.97955, 82.59429
93.46167, 83.98963
93.94379, 84.10585
94.42590, 83.17941
94.90802, 81.94976
95.39014, 80.98219
95.87225, 80.27014
96.35437, 79.78764
96.83649, 79.82963
97.31860, 80.03048
97.80072, 79.96468
98.28284, 79.26174
98.76495, 78.01679
99.24707, 77.06416
99.72919, 76.31291
100.2113, 76.00163
100.6934, 76.68712
101.1755, 77.86705
101.6577, 78.51421
102.1398, 77.55273
102.6219, 74.37842
103.1040, 72.83635
103.5861, 73.56722
104.0682, 74.88289
104.5504, 75.97552
105.0325, 76.67555
105.5146, 77.21465
105.9967, 77.88548
106.4788, 78.72328
106.9609, 79.60217
107.4431, 80.61375
107.9252, 81.63841
108.4073, 82.67793
108.8894, 83.91377
109.3715, 84.70289
109.8536, 83.96433
110.3358, 81.71728
110.8179, 78.62213
111.3000, 74.46642
111.7821, 69.40849
112.2642, 65.04231
112.7463, 62.37894
113.2285, 60.50834
113.7106, 58.46990
114.1927, 56.02998
114.6748, 53.64508
115.1569, 52.00484
115.6390, 51.30581
116.1212, 50.85568
116.6033, 50.48632
117.0854, 50.19867
117.5675, 50.02205
118.0496, 49.98856
118.5317, 50.04787
119.0139, 49.95396
119.4960, 49.36107
119.9781, 48.98561
120.4602, 49.40456
120.9423, 50.12357
121.4244, 50.23588
121.9066, 48.95634
122.3887, 46.12876
122.8708, 44.08841
123.3529, 43.15957
123.8350, 42.50677
124.3171, 41.85571
124.7993, 41.14581
125.2814, 40.32679
125.7635, 39.22112
126.2456, 37.67950
126.7277, 37.04700
127.2098, 38.23107
127.6920, 39.93770
128.1741, 40.75834
128.6562, 40.33501
129.1383, 39.40896
129.6204, 38.81467
130.1025, 38.50678
130.5847, 38.28712
131.0668, 38.16722
131.5489, 38.09272
132.0310, 37.84477
132.5131, 37.20699
132.9952, 36.57079
133.4774, 36.27300
133.9595, 36.31821
134.4416, 36.48914
134.9237, 36.61538
135.4058, 36.69397
135.8879, 36.75361
136.3701, 36.73302
136.8522, 36.73798
137.3343, 36.88660
137.8164, 37.19962
138.2985, 37.51722
138.7806, 37.53089
139.2628, 36.94576
139.7449, 36.59796
140.2270, 36.47213
140.7091, 36.61305
141.1912, 37.13452
141.6733, 38.08357
142.1555, 39.31884
142.6376, 40.34152
143.1197, 41.29121
143.6018, 41.84187
144.0839, 41.85572
144.5660, 41.45292
145.0482, 40.67749
145.5303, 39.44372
146.0124, 37.95357
146.4945, 37.72860
146.9766, 39.75338
147.4587, 41.76914
147.9409, 42.80420
148.4230, 42.97715
148.9051, 42.94867
149.3872, 43.15741
149.8693, 43.53833
150.3514, 43.71506
150.8336, 43.14835
151.3157, 42.70210
151.7978, 43.42937
152.2799, 45.53498
152.7620, 47.50999
153.2441, 47.94801
153.7263, 47.47290
154.2084, 47.04220
154.6905, 46.79461
155.1726, 46.82576
155.6547, 47.44253
156.1368, 48.96378
156.6190, 50.50731
157.1011, 51.55796
157.5832, 52.28178
158.0653, 53.00812
158.5474, 53.94408
159.0295, 55.07429
159.5117, 56.20266
159.9938, 57.49866
160.4759, 58.61348
160.9580, 59.50651
161.4401, 60.13027
161.9222, 60.40115
162.4044, 60.24018
162.8865, 59.62667
163.3686, 58.64818
163.8507, 57.18734
164.3328, 55.49253
164.8149, 53.42112
165.2971, 51.10190
165.7792, 49.00646
166.2613, 47.69451
166.7434, 47.48511
167.2255, 47.24085
167.7076, 46.88918
168.1898, 46.55502
168.6719, 46.25626
169.1540, 46.01701
169.6361, 45.97767
170.1182, 46.39468
170.6003, 47.60292
171.0825, 48.40075
171.5646, 48.33410
172.0467, 47.98425
172.5288, 47.96506
173.0109, 48.44110
173.4930, 49.32024
173.9752, 50.66680
174.4573, 52.59046
174.9394, 54.19154
175.4215, 55.06780
175.9036, 55.43978
176.3857, 55.75825
176.8679, 56.09365
177.3500, 56.51953
177.8321, 57.20430
178.3142, 58.19343
178.7963, 59.01083
179.2784, 59.35178
179.7606, 59.25315
180.2427, 58.99224
180.7248, 58.65117
181.2069, 58.13477
181.6890, 57.24984
182.1711, 55.95901
182.6533, 54.78619
183.1354, 54.19130
183.6175, 54.19308
184.0996, 54.62623
184.5817, 56.11752
185.0638, 57.63936
185.5460, 58.57842
186.0281, 58.80522
186.5102, 58.61149
186.9923, 58.13798
187.4744, 56.76067
187.9565, 56.87714
188.4387, 60.25898
188.9208, 64.14363
189.4029, 66.38570
189.8850, 66.38229
190.3671, 65.28291
190.8492, 65.32651
191.3314, 67.55956
191.8135, 69.28011
192.2956, 69.68398
192.7777, 69.87278
193.2598, 70.87652
193.7419, 73.08694
194.2241, 76.07933
194.7062, 78.82870
195.1883, 81.68755
195.6704, 83.81626
196.1525, 85.49950
196.6346, 86.33847
197.1168, 85.59824
197.5989, 82.90666
198.0810, 78.99541
198.5631, 75.98521
199.0452, 74.84064
199.5273, 73.25838
200.0095, 70.43073
200.4916, 66.99493
200.9737, 63.94672
201.4558, 61.70491
201.9379, 60.14340
202.4200, 58.87969
202.9022, 57.78786
203.3843, 57.09144
203.8664, 57.05055
204.3485, 57.49371
204.8306, 57.97826
205.3127, 58.37111
205.7949, 58.62496
206.2770, 58.62304
206.7591, 58.19080
207.2412, 57.89227
207.7233, 58.17085
208.2054, 58.93349
208.6876, 59.56897
209.1697, 59.65966
209.6518, 59.63832
210.1339, 60.23344
210.6160, 61.72338
211.0981, 63.09513
211.5803, 63.36221
212.0624, 62.52172
212.5445, 61.79033
213.0266, 61.80604
213.5087, 61.99520
213.9908, 61.88297
214.4730, 61.41444
214.9551, 60.57697
215.4372, 59.32579
215.9193, 57.62565
216.4014, 55.70066
216.8836, 52.98867
217.3657, 50.42104
217.8478, 48.70678
218.3299, 48.03283
218.8120, 47.88712
219.2941, 47.60181
219.7763, 47.10294
220.2584, 46.71202
220.7405, 46.75066
221.2226, 46.74834
221.7047, 46.20860
222.1868, 45.02949
222.6690, 43.78113
223.1511, 43.46387
223.6332, 44.64412
224.1153, 45.47582
224.5974, 45.72701
225.0795, 45.66418
225.5617, 45.30950
226.0438, 44.72088
226.5259, 44.19751
227.0080, 44.34490
227.4901, 45.87895
227.9722, 46.75764
228.4544, 46.40754
228.9365, 45.78303
229.4186, 45.54371
229.9007, 45.89849
230.3828, 46.72214
230.8649, 47.83819
231.3471, 49.75959
231.8292, 51.12490
232.3113, 51.67123
232.7934, 51.86890
233.2755, 51.96981
233.7576, 52.08137
234.2398, 52.37022
234.7219, 53.12914
235.2040, 54.79827
235.6861, 56.17480
236.1682, 57.24879
236.6503, 58.04763
237.1325, 58.54036
237.6146, 58.72669
238.0967, 58.72123
238.5788, 58.67027
239.0609, 58.49622
239.5430, 58.47764
240.0252, 58.50835
240.5073, 58.75581
240.9894, 59.46481
241.4715, 60.69460
241.9536, 62.15871
242.4357, 63.61679
242.9179, 65.23019
243.4000, 65.99778
243.8821, 65.13486
244.3642, 63.69180
244.8463, 62.74669
245.3284, 62.50999
245.8106, 62.73051
246.2927, 63.20875
246.7748, 63.95063
247.2569, 64.74167
247.7390, 65.59333
248.2211, 66.46336
248.7033, 67.35101
249.1854, 68.27634
249.6675, 69.07281
250.1496, 69.54886
250.6317, 69.74011
251.1138, 69.77497
251.5960, 69.75171
252.0781, 69.55620
252.5602, 68.96495
253.0423, 67.90964
253.5244, 66.76036
254.0065, 65.93052
254.4887, 65.28437
254.9708, 64.41295
255.4529, 62.90623
255.9350, 61.24323
256.4171, 60.27007
256.8992, 60.19924
257.3813, 59.95291
257.8635, 58.26192
258.3456, 55.89473
258.8277, 54.17254
259.3098, 54.01270
259.7919, 54.38810
260.2740, 53.62901
260.7562, 51.41259
261.2383, 49.45779
261.7204, 49.16193
262.2025, 49.61609
262.6846, 49.70254
263.1667, 48.87739
263.6489, 47.82446
264.1310, 47.65345
264.6131, 48.61622
265.0952, 49.36344
265.5773, 48.78413
266.0594, 47.88363
266.5416, 47.68014
267.0237, 48.57769
267.5058, 49.89862
267.9879, 50.77798
268.4700, 51.16088
268.9521, 51.34348
269.4343, 51.26258
269.9164, 51.10109
270.3985, 50.95367
270.8806, 50.83281
271.3627, 50.82558
271.8448, 51.08749
272.3270, 51.67948
272.8091, 52.22747
273.2912, 52.86187
273.7733, 53.27629
274.2554, 53.05280
274.7375, 52.15823
275.2197, 51.32239
275.7018, 51.60342
276.1839, 53.27977
276.6660, 54.24865
277.1481, 53.64675
277.6302, 52.63599
278.1124, 51.75588
278.5945, 51.03870
279.0766, 50.20525
279.5587, 48.81852
280.0408, 46.75677
280.5229, 45.21705
281.0051, 44.74377
281.4872, 44.41867
281.9693, 44.08002
282.4514, 43.60377
282.9335, 42.71030
283.4156, 40.75031
283.8978, 37.66475
284.3799, 36.33747
284.8620, 38.90904
285.3441, 41.17630
285.8262, 41.57699
286.3083, 40.53846
286.7905, 39.12211
287.2726, 37.93677
287.7547, 37.02104
288.2368, 36.82887
288.7189, 38.14174
289.2010, 39.28468
289.6832, 39.73985
290.1653, 39.74848
290.6474, 39.70234
291.1295, 39.82809
291.6116, 40.05906
292.0938, 40.07552
292.5759, 39.35881
293.0580, 39.21704
293.5401, 40.46240
294.0222, 42.14844
294.5043, 43.11025
294.9865, 42.80584
295.4686, 41.83381
295.9507, 41.68145
296.4328, 42.89989
296.9149, 43.99253
297.3970, 44.95668
297.8792, 45.63859
298.3613, 45.68332
298.8434, 45.04386
299.3255, 44.33224
299.8076, 44.68264
300.2897, 46.82669
300.7719, 48.37976
301.2540, 48.70794
301.7361, 48.88583
302.2182, 49.68756
302.7003, 51.18373
303.1824, 52.82847
303.6646, 53.93712
304.1467, 54.30891
304.6288, 54.85509
305.1109, 56.32227
305.5930, 57.31533
306.0751, 56.93464
306.5573, 55.37543
307.0394, 53.53734
307.5215, 52.26556
308.0036, 51.61774
308.4857, 50.57309
308.9678, 48.46631
309.4500, 46.60152
309.9321, 45.42216
310.4142, 44.77251
310.8963, 44.31248
311.3784, 43.84403
311.8605, 43.34200
312.3427, 42.60979
312.8248, 41.16378
313.3069, 40.05354
313.7890, 39.81511
314.2711, 39.91248
314.7532, 39.57141
315.2354, 38.38980
315.7175, 36.74092
316.1996, 35.71159
316.6817, 35.56554
317.1638, 35.68578
317.6459, 36.21240
318.1281, 36.82569
318.6102, 37.22543
319.0923, 37.32243
319.5744, 37.26829
320.0565, 37.28913
320.5386, 37.33869
321.0208, 37.58671
321.5029, 38.20121
321.9850, 38.86118
322.4671, 39.36555
322.9492, 39.69627
323.4313, 39.96774
323.9135, 40.32159
324.3956, 40.79406
324.8777, 41.15895
325.3598, 40.99557
325.8419, 41.11465
326.3240, 42.07178
326.8062, 43.62342
327.2883, 45.10406
327.7704, 46.03043
328.2525, 46.41412
328.7346, 46.47350
329.2167, 45.23866
329.6989, 44.82540
330.1810, 46.31054
330.6631, 48.80007
331.1452, 50.91802
331.6273, 51.88362
332.1094, 52.14568
332.5916, 53.13280
333.0737, 55.33089
333.5558, 57.45554
334.0379, 59.13009
334.5200, 60.72137
335.0021, 62.56643
335.4843, 64.77848
335.9664, 67.18983
336.4485, 69.55475
336.9306, 71.92677
337.4127, 74.10114
337.8948, 75.48775
338.3770, 77.11446
338.8591, 79.80415
339.3412, 83.51601
339.8233, 87.37740
340.3055, 90.30492
340.7876, 92.09410
341.2697, 94.91985
341.7518, 99.80608
342.2339, 104.7732
342.7160, 109.1581
343.1982, 113.0171
343.6803, 116.5921
344.1624, 119.8663
344.6445, 123.0174
345.1266, 127.0560
345.6087, 132.7762
346.0909, 138.0868
346.5730, 142.1517
347.0551, 145.5402
347.5372, 148.9214
348.0193, 152.6068
348.5014, 156.4016
348.9836, 159.9586
349.4657, 163.1469
349.9478, 166.4867
350.4299, 170.4989
350.9120, 174.4862
351.3941, 177.8675
351.8763, 180.5376
352.3584, 182.9386
352.8405, 185.6674
353.3226, 188.7645
353.8047, 191.0574
354.2868, 191.9692
354.7690, 192.4193
355.2511, 192.9834
355.7332, 193.6288
356.2153, 194.1141
356.6974, 194.5475
357.1795, 194.7404
357.6617, 193.8383
358.1438, 191.4706
358.6259, 188.7493
359.1080, 186.1593
359.5901, 183.6918
360.0722, 181.3835
360.5544, 179.5128
361.0365, 177.5053
361.5186, 174.5374
362.0007, 170.5840
362.4828, 165.9150
362.9649, 160.1608
363.4471, 153.9639
363.9292, 148.0824
364.4113, 142.6721
364.8934, 137.1636
365.3755, 130.7249
365.8576, 123.6410
366.3398, 117.6010
366.8219, 113.3488
367.3040, 109.6998
367.7861, 105.2447
368.2682, 100.0826
368.7503, 95.33080
369.2325, 91.34103
369.7146, 88.04854
370.1967, 85.55509
370.6788, 83.98649
371.1609, 82.40575
371.6430, 79.76592
372.1252, 76.51611
372.6073, 74.22086
373.0894, 73.58595
373.5715, 73.58095
374.0536, 73.75544
374.5357, 74.00433
375.0179, 73.54823
375.5000, 71.65291
375.9821, 69.15606
376.4642, 68.07286
376.9463, 68.86411
377.4284, 69.77771
377.9106, 70.11745
378.3927, 70.17169
378.8748, 70.44197
379.3569, 71.06910
379.8390, 71.87138
380.3211, 72.64507
380.8033, 73.38914
381.2854, 74.09721
381.7675, 74.54305
382.2496, 75.10879
382.7317, 76.28761
383.2138, 78.00133
383.6960, 79.53485
384.1781, 80.29796
384.6602, 80.36076
385.1423, 80.84653
385.6244, 82.07500
386.1065, 83.28272
386.5887, 84.55101
387.0708, 85.56770
387.5529, 85.76068
388.0350, 84.85793
388.5171, 83.22403
388.9992, 81.67207
389.4814, 80.78488
389.9635, 79.01491
390.4456, 75.72630
390.9277, 71.99160
391.4098, 68.54488
391.8919, 65.56148
392.3741, 62.92701
392.8562, 60.58831
393.3383, 58.61216
393.8204, 56.33985
394.3025, 53.40639
394.7846, 50.57347
395.2668, 47.91486
395.7489, 45.55878
396.2310, 43.76514
396.7131, 42.73154
397.1952, 42.18831
397.6773, 41.13853
398.1595, 38.94099
398.6416, 37.31163
399.1237, 36.50901
399.6058, 36.25894
400.0879, 36.57391
400.5700, 37.36076
401.0522, 38.03132
401.5343, 37.75120
402.0164, 36.32130
402.4985, 35.11828
402.9806, 34.06540
403.4627, 33.39858
403.9449, 33.52266
404.4270, 34.13919
404.9091, 34.50032
405.3912, 34.04670
405.8733, 33.05033
406.3554, 32.31242
406.8376, 31.77485
407.3197, 31.64115
407.8018, 32.76212
408.2839, 33.97024
408.7660, 33.77378
409.2481, 31.57920
409.7303, 29.27899
410.2124, 29.05970
410.6945, 30.76693
411.1766, 31.93805
411.6587, 31.85664
412.1408, 31.32728
412.6230, 31.03247
413.1051, 30.96054
413.5872, 31.06221
414.0693, 31.41840
414.5514, 31.89791
415.0335, 32.36713
415.5157, 32.84143
415.9978, 33.02229
416.4799, 32.43088
416.9620, 31.44653
417.4441, 31.23249
417.9262, 32.36531
418.4084, 33.56294
418.8905, 34.10110
419.3726, 34.14132
419.8547, 34.04824
420.3368, 33.90902
420.8189, 33.81144
421.3011, 33.95838
421.7832, 34.47370
422.2653, 34.69529
422.7474, 34.08936
423.2295, 33.47369
423.7116, 33.51981
424.1938, 34.27704
424.6759, 35.55104
425.1580, 37.34298
425.6401, 39.57472
426.1222, 40.81182
426.6043, 40.29895
427.0865, 39.83436
427.5686, 39.74349
428.0507, 40.00456
428.5328, 40.63438
429.0149, 41.63038
429.4970, 42.77453
429.9792, 43.66018
430.4613, 44.00570
430.9434, 44.73225
431.4255, 46.09982
431.9076, 47.55051
432.3897, 48.91335
432.8719, 50.09577
433.3540, 50.91293
433.8361, 51.08335
434.3182, 50.78548
434.8003, 51.38544
435.2824, 53.52767
435.7646, 55.60994
436.2467, 57.15247
436.7288, 58.47289
437.2109, 59.97329
437.6930, 61.78539
438.1751, 63.50385
438.6573, 64.39920
439.1394, 64.36563
439.6215, 65.05888
440.1036, 67.31245
440.5857, 69.67702
441.0678, 71.12386
441.5500, 71.85291
442.0321, 72.66756
442.5142, 73.85081
442.9963, 75.42641
443.4784, 77.70103
443.9605, 80.82275
444.4427, 83.47718
444.9248, 84.77502
445.4069, 85.28006
445.8890, 85.96600
446.3711, 86.85924
446.8532, 87.97755
447.3354, 89.81212
447.8175, 91.82231
448.2996, 92.73209
448.7817, 92.18835
449.2638, 90.98025
449.7459, 89.95211
450.2281, 89.11805
450.7102, 87.77046
451.1923, 85.11623
451.6744, 82.62165
452.1565, 81.33464
452.6386, 81.00877
453.1208, 80.80589
453.6029, 80.28933
454.0850, 79.60714
454.5671, 79.17545
455.0492, 79.64454
455.5313, 79.45055
456.0135, 78.13253
456.4956, 76.44487
456.9777, 74.92894
457.4598, 73.68407
457.9419, 72.52972
458.4240, 71.25845
458.9062, 69.86687
459.3883, 68.83215
459.8704, 68.95843
460.3525, 68.51243
460.8346, 66.73698
461.3167, 64.32076
461.7989, 62.11507
462.2810, 60.43455
462.7631, 59.06676
463.2452, 57.82837
463.7273, 56.83979
464.2094, 55.22991
464.6916, 52.15253
465.1737, 49.11817
465.6558, 46.99032
466.1379, 45.67044
466.6200, 44.62699
467.1021, 43.60910
467.5843, 42.66459
468.0664, 42.13768
468.5485, 42.18727
469.0306, 41.39256
469.5127, 38.22819
469.9948, 34.36924
470.4770, 32.56621
470.9591, 33.38836
471.4412, 34.45730
471.9233, 34.76488
472.4054, 34.47356
472.8875, 33.73154
473.3697, 32.53456
473.8518, 31.38172
474.3339, 30.82517
474.8160, 30.84686
475.2981, 30.31960
475.7802, 28.35917
476.2624, 26.79393
476.7445, 26.80892
477.2266, 27.73919
477.7087, 28.28278
478.1908, 27.92197
478.6729, 27.10380
479.1551, 26.63317
479.6372, 26.68306
480.1193, 26.68873
480.6014, 26.83878
481.0835, 26.78468
481.5656, 26.17187
482.0478, 25.17484
482.5299, 24.21750
483.0120, 23.53451
483.4941, 23.18702
483.9762, 23.56675
484.4583, 25.38953
484.9405, 26.45495
485.4226, 25.68123
485.9047, 24.49568
486.3868, 24.11227
486.8689, 24.63187
487.3510, 25.09822
487.8332, 24.44528
488.3153, 22.98398
488.7974, 22.28938
489.2795, 22.64207
489.7616, 23.21296
490.2437, 23.65239
490.7259, 23.94876
491.2080, 24.04177
491.6901, 23.83382
492.1722, 23.58911
492.6543, 23.48082
493.1364, 23.48661
493.6186, 23.63066
494.1007, 23.99289
494.5828, 24.16719
495.0649, 23.60146
495.5470, 22.20580
496.0291, 21.01014
496.5113, 19.74537
496.9934, 18.96357
497.4755, 19.27189
497.9576, 20.31823
498.4397, 21.33076
498.9218, 21.95210
499.4040, 22.17229
499.8861, 21.92230
500.3682, 20.80157
500.8503, 19.94295
501.3324, 19.35847
501.8145, 18.98798
502.2967, 18.89302
502.7788, 18.98850
503.2609, 19.01429
503.7430, 18.71227
504.2251, 18.29250
504.7072, 18.69401
505.1894, 20.46657
505.6715, 21.79974
506.1536, 22.09288
506.6357, 21.87136
507.1178, 21.34314
507.5999, 20.58073
508.0821, 19.99023
508.5642, 20.02806
509.0463, 20.46567
509.5284, 20.65841
510.0105, 20.57667
510.4926, 20.18704
510.9748, 19.07971
511.4569, 17.76040
511.9390, 17.48498
512.4211, 19.09409
512.9032, 20.32936
513.3853, 19.50565
513.8674, 17.72362
514.3495, 17.02617
514.8317, 17.86171
515.3138, 19.01583
515.7959, 19.21122
516.2780, 18.35127
516.7601, 18.00412
517.2422, 18.68561
517.7244, 19.21368
518.2065, 19.17979
518.6886, 18.74854
519.1707, 18.10132
519.6528, 17.32398
520.1349, 16.56628
520.6171, 15.94232
521.0992, 15.24614
521.5813, 15.53343
522.0634, 18.22019
522.5455, 20.50280
523.0276, 21.21234
523.5098, 20.80630
523.9919, 20.17802
524.4740, 19.66791
524.9561, 19.25150
525.4382, 18.82883
525.9203, 18.39743
526.4025, 18.31893
526.8846, 18.97016
527.3667, 19.60854
527.8488, 19.36388
528.3309, 18.38845
528.8130, 17.65923
529.2952, 17.55686
529.7773, 17.74768
530.2594, 18.04861
530.7415, 18.40281
531.2236, 18.54264
531.7057, 18.28379
532.1879, 17.94403
532.6700, 18.16705
533.1521, 19.33976
533.6342, 20.20950
534.1163, 20.75602
534.5984, 20.98982
535.0806, 20.87088
535.5627, 20.44106
536.0448, 19.74598
536.5269, 18.78702
537.0090, 17.70699
537.4911, 16.91633
537.9733, 16.30580
538.4554, 16.23627
538.9375, 17.34190
539.4196, 18.48530
539.9017, 18.97801
540.3839, 18.84280
540.8660, 18.47918
541.3481, 18.02922
541.8302, 17.58705
542.3123, 17.28686
542.7944, 17.09355
543.2766, 17.41393
543.7587, 18.89530
544.2408, 20.56415
544.7229, 20.93139
545.2050, 19.85722
545.6871, 18.84432
546.1693, 18.27735
546.6514, 18.10660
547.1335, 18.56239
547.6156, 19.49247
548.0977, 19.95241
548.5798, 19.25048
549.0620, 17.84972
549.5441, 17.31720
550.0262, 18.53195
550.5083, 19.48281
550.9904, 20.22426
551.4725, 20.65294
551.9547, 20.54628
552.4368, 20.02044
552.9189, 19.47591
553.4010, 19.21194
553.8831, 19.16177
554.3652, 19.04464
554.8474, 18.78053
555.3295, 18.65378
555.8116, 18.93925
556.2937, 19.24921
556.7758, 19.21630
557.2579, 18.85728
557.7401, 18.63897
558.2222, 19.09818
558.7043, 19.77017
559.1864, 19.52815
559.6685, 18.34042
560.1506, 18.05552
560.6328, 20.07811
561.1149, 23.06630
561.5970, 23.86982
562.0791, 21.77877
562.5612, 20.25309
563.0433, 20.39632
563.5255, 21.00037
564.0076, 21.06594
564.4897, 20.60852
564.9718, 20.18500
565.4539, 20.17434
565.9360, 20.38019
566.4182, 20.11901
566.9003, 19.06568
567.3824, 18.14767
567.8645, 16.94797
568.3466, 16.28257
568.8287, 17.12488
569.3109, 19.06445
569.7930, 20.59616
570.2751, 20.66749
570.7572, 19.88125
571.2393, 19.47383
571.7214, 19.47300
572.2036, 19.50193
572.6857, 19.34245
573.1678, 19.28148
573.6499, 19.87254
574.1320, 21.09374
574.6141, 21.71755
575.0963, 20.77646
575.5784, 19.60376
576.0605, 19.53074
576.5426, 20.26530
577.0247, 20.63376
577.5068, 20.07400
577.9890, 19.06467
578.4711, 18.48962
578.9532, 18.45868
579.4353, 18.61437
579.9174, 19.26867
580.3995, 19.77645
580.8817, 19.74373
581.3638, 19.34695
581.8459, 18.92137
582.3280, 18.61316
582.8101, 18.43572
583.2922, 18.38154
583.7744, 18.44177
584.2565, 18.84796
584.7386, 20.13356
585.2207, 21.04968
585.7029, 20.27326
586.1850, 18.46882
586.6671, 17.37400
587.1492, 17.90579
587.6313, 18.57952
588.1135, 17.97385
588.5956, 16.72076
589.0777, 16.55542
