##NAMES=Talmessite
##RRUFFID=R080007
##IDEAL CHEMISTRY=Ca_2_Mg(As^5+^O_4_)_2_&#183;2H_2_O
##LOCALITY=Tsumeb mine, Tsumeb, Otavi District, Oshikoto, Namibia
##OWNER=RRUFF
##SOURCE=William W. Pinch
##DESCRIPTION=Pale yellow to colorless crystals
##STATUS=The identification of this mineral is confirmed by single-crystal X-ray diffraction and chemical analysis.
##URL=rruff.info/R080007
##MEASURED CHEMISTRY=Ca_2.00_(Mg_0.99_Fe_0.01_)_Σ=1_(As_1.00_O_4_)_2_·1.98H_2_O; trace amounts of P; H_2_O estimated by difference
94.51007, 0.0000000E+00
94.99219, 568.2076
95.47430, 565.4705
95.95642, 569.1938
96.43854, 578.0734
96.92065, 588.6639
97.40277, 595.2567
97.88489, 597.6531
98.36700, 599.9951
98.84912, 604.7092
99.33124, 608.0169
99.81335, 606.7856
100.2955, 600.3297
100.7776, 590.7058
101.2597, 581.0433
101.7418, 570.0826
102.2239, 559.0880
102.7061, 547.7090
103.1882, 536.4630
103.6703, 526.3634
104.1524, 517.3679
104.6345, 510.2794
105.1166, 505.4893
105.5988, 502.9036
106.0809, 502.5479
106.5630, 505.2310
107.0451, 511.4626
107.5272, 517.2087
108.0093, 521.7127
108.4915, 524.6100
108.9736, 525.5780
109.4557, 524.9215
109.9378, 521.6930
110.4199, 512.7960
110.9020, 493.3076
111.3842, 474.4990
111.8663, 457.8517
112.3484, 443.8406
112.8305, 433.2586
113.3126, 427.0021
113.7947, 425.1627
114.2769, 422.4065
114.7590, 417.7595
115.2411, 413.1727
115.7232, 408.7487
116.2053, 404.8235
116.6874, 402.1793
117.1696, 401.6865
117.6517, 403.9536
118.1338, 406.3859
118.6159, 409.5973
119.0980, 412.6168
119.5801, 414.9911
120.0623, 416.6587
120.5444, 416.9389
121.0265, 414.4244
121.5086, 409.2853
121.9907, 403.0460
122.4728, 395.2418
122.9550, 386.5952
123.4371, 378.9005
123.9192, 372.6234
124.4013, 367.5956
124.8834, 363.4238
125.3655, 360.1072
125.8476, 357.3749
126.3298, 354.9106
126.8119, 352.6791
127.2940, 351.2812
127.7761, 352.1577
128.2582, 353.2293
128.7404, 353.1259
129.2225, 351.4799
129.7046, 349.1325
130.1867, 347.5372
130.6688, 347.2515
131.1509, 346.6899
131.6331, 345.5078
132.1152, 344.0537
132.5973, 342.4945
133.0794, 340.9058
133.5615, 339.4669
134.0436, 338.9751
134.5258, 340.8325
135.0079, 342.1783
135.4900, 342.1888
135.9721, 341.4520
136.4542, 341.1078
136.9363, 342.0052
137.4185, 343.9930
137.9006, 344.6507
138.3827, 342.9941
138.8648, 341.2369
139.3469, 340.4190
139.8290, 340.5032
140.3112, 340.8634
140.7933, 341.0158
141.2754, 341.0188
141.7575, 341.3069
142.2396, 342.0813
142.7217, 343.0656
143.2039, 343.9666
143.6860, 344.7527
144.1681, 345.5314
144.6502, 346.8368
145.1323, 348.2792
145.6144, 348.7907
146.0966, 346.9504
146.5787, 343.7277
147.0608, 342.3503
147.5429, 344.1493
148.0250, 346.2404
148.5071, 346.7997
148.9893, 346.2247
149.4714, 345.6867
149.9535, 345.9394
150.4356, 346.9819
150.9177, 348.8235
151.3998, 352.0630
151.8820, 355.6904
152.3641, 359.8294
152.8462, 364.2196
153.3283, 368.1234
153.8104, 370.5499
154.2925, 370.6599
154.7747, 371.5961
155.2568, 373.8328
155.7389, 376.3679
156.2210, 378.4472
156.7031, 379.9715
157.1852, 381.5218
157.6673, 384.0606
158.1495, 388.8147
158.6316, 392.4224
159.1137, 393.8542
159.5958, 394.6376
160.0779, 396.1853
160.5600, 398.9781
161.0422, 402.8142
161.5243, 407.7474
162.0064, 415.3447
162.4885, 420.4622
162.9706, 420.8909
163.4527, 418.1074
163.9349, 414.8111
164.4170, 411.7664
164.8991, 409.0951
165.3812, 407.0124
165.8633, 405.6712
166.3454, 404.3456
166.8276, 402.2466
167.3097, 399.5715
167.7918, 397.6882
168.2739, 396.7919
168.7560, 397.3795
169.2381, 400.1439
169.7203, 405.6327
170.2024, 411.7726
170.6845, 416.4411
171.1666, 419.3840
171.6487, 422.2438
172.1308, 424.5874
172.6130, 427.5702
173.0951, 432.4307
173.5772, 439.6881
174.0593, 448.1524
174.5414, 455.8875
175.0235, 462.8018
175.5057, 469.0058
175.9878, 475.7331
176.4699, 481.4129
176.9520, 484.5439
177.4341, 484.3801
177.9162, 481.4958
178.3984, 477.6020
178.8805, 471.8936
179.3626, 466.0901
179.8447, 459.6522
180.3268, 453.4323
180.8089, 448.4764
181.2911, 445.4377
181.7732, 443.9933
182.2553, 442.3017
182.7374, 438.7747
183.2195, 436.7412
183.7016, 437.2984
184.1838, 439.7877
184.6659, 443.2167
185.1480, 447.1745
185.6301, 451.4773
186.1122, 454.1351
186.5943, 453.1503
187.0765, 452.9191
187.5586, 455.3765
188.0407, 460.0780
188.5228, 465.3950
189.0049, 470.1996
189.4870, 474.7418
189.9692, 480.4622
190.4513, 487.6782
190.9334, 495.7023
191.4155, 504.3875
191.8976, 513.6478
192.3797, 522.8214
192.8619, 530.7459
193.3440, 538.3792
193.8261, 548.2414
194.3082, 562.5657
194.7903, 577.8962
195.2724, 590.3830
195.7546, 599.6915
196.2367, 608.2594
196.7188, 620.2401
197.2009, 631.9406
197.6830, 637.7708
198.1651, 635.6718
198.6473, 627.0822
199.1294, 613.6904
199.6115, 594.2772
200.0936, 572.8981
200.5757, 548.4120
201.0578, 523.9456
201.5400, 503.6169
202.0221, 489.9075
202.5042, 481.3291
202.9863, 473.3992
203.4684, 465.8137
203.9505, 459.6461
204.4327, 454.8831
204.9148, 451.5284
205.3969, 449.6009
205.8790, 449.1771
206.3611, 450.1252
206.8432, 451.7828
207.3254, 454.3071
207.8075, 457.4978
208.2896, 461.6920
208.7717, 466.4126
209.2538, 471.0557
209.7359, 475.2227
210.2181, 478.9592
210.7002, 482.5128
211.1823, 485.1799
211.6644, 488.4104
212.1465, 494.1200
212.6286, 500.4815
213.1108, 504.4509
213.5929, 503.9451
214.0750, 499.1837
214.5571, 493.3015
215.0392, 486.5998
215.5213, 478.5817
216.0035, 468.5143
216.4856, 456.9879
216.9677, 445.1957
217.4498, 433.7213
217.9319, 422.6992
218.4140, 413.0099
218.8962, 404.6050
219.3783, 397.2964
219.8604, 391.0393
220.3425, 385.8115
220.8246, 381.5226
221.3067, 378.0844
221.7889, 375.6047
222.2710, 374.2366
222.7531, 374.3422
223.2352, 375.0440
223.7173, 376.2164
224.1994, 377.7283
224.6816, 378.9891
225.1637, 379.5026
225.6458, 379.5250
226.1279, 380.0549
226.6100, 380.6447
227.0921, 382.1448
227.5743, 385.8400
228.0564, 391.4678
228.5385, 396.3441
229.0206, 398.2255
229.5027, 398.7090
229.9848, 401.2468
230.4670, 406.8708
230.9491, 413.4893
231.4312, 419.3565
231.9133, 424.4780
232.3954, 429.7839
232.8775, 435.8859
233.3597, 442.3224
233.8418, 448.5692
234.3239, 454.7881
234.8060, 460.4480
235.2881, 464.6163
235.7702, 467.0773
236.2524, 470.1022
236.7345, 475.3149
237.2166, 481.1175
237.6987, 486.3831
238.1808, 491.0506
238.6629, 494.4211
239.1451, 494.8102
239.6272, 491.3725
240.1093, 489.4867
240.5914, 492.2809
241.0735, 496.4141
241.5556, 500.0539
242.0378, 502.8028
242.5199, 504.2963
243.0020, 503.4683
243.4841, 499.2921
243.9662, 496.6430
244.4483, 497.4322
244.9305, 499.3282
245.4126, 501.0010
245.8947, 502.1303
246.3768, 503.1064
246.8589, 504.0876
247.3410, 504.3571
247.8232, 506.9993
248.3053, 513.9594
248.7874, 522.0156
249.2695, 529.8129
249.7516, 536.8770
250.2337, 542.8595
250.7159, 547.0261
251.1980, 548.4608
251.6801, 550.5579
252.1622, 555.7577
252.6443, 559.7867
253.1264, 560.2504
253.6086, 556.8361
254.0907, 550.6544
254.5728, 542.9438
255.0549, 533.3844
255.5370, 523.0194
256.0191, 512.0841
256.5013, 500.3056
256.9834, 486.9149
257.4655, 472.2809
257.9476, 457.9637
258.4297, 445.7329
258.9118, 436.0098
259.3940, 426.6355
259.8761, 417.5807
260.3582, 408.8269
260.8403, 399.8073
261.3224, 390.9039
261.8045, 383.3616
262.2867, 378.5221
262.7688, 376.9044
263.2509, 374.6378
263.7330, 371.2470
264.2151, 367.8174
264.6972, 364.7855
265.1794, 362.1721
265.6615, 359.7037
266.1436, 357.0885
266.6257, 354.2691
267.1078, 352.7754
267.5899, 353.5740
268.0721, 354.4282
268.5542, 354.3461
269.0363, 353.4936
269.5184, 352.4109
270.0005, 351.3287
270.4826, 350.3413
270.9648, 350.8713
271.4469, 354.0981
271.9290, 357.2470
272.4111, 359.6555
272.8932, 361.2088
273.3753, 361.5469
273.8575, 360.1853
274.3396, 357.6647
274.8217, 356.8753
275.3038, 358.8174
275.7859, 360.9183
276.2680, 363.1967
276.7502, 365.0518
277.2323, 364.9960
277.7144, 362.0396
278.1965, 357.2921
278.6786, 354.1284
279.1607, 353.4584
279.6429, 352.3724
280.1250, 350.0536
280.6071, 346.7835
281.0892, 342.8017
281.5713, 337.9499
282.0534, 333.1020
282.5356, 330.2913
283.0177, 330.0609
283.4998, 329.4562
283.9819, 327.0045
284.4640, 323.9333
284.9461, 322.3700
285.4283, 323.0581
285.9104, 324.4723
286.3925, 324.3462
286.8746, 322.5707
287.3567, 320.9737
287.8388, 319.7089
288.3210, 318.9003
288.8031, 318.8693
289.2852, 319.7291
289.7673, 320.8271
290.2494, 321.3412
290.7315, 321.3247
291.2137, 321.8444
291.6958, 323.3622
292.1779, 325.3380
292.6600, 327.4227
293.1421, 329.5980
293.6242, 331.2407
294.1064, 331.5089
294.5885, 330.6873
295.0706, 330.3828
295.5527, 330.4774
296.0348, 331.3342
296.5169, 333.8430
296.9991, 337.9153
297.4812, 341.3982
297.9633, 342.5712
298.4454, 342.1678
298.9275, 342.6815
299.4096, 344.6761
299.8918, 347.0522
300.3739, 349.0340
300.8560, 350.6927
301.3381, 352.5685
301.8202, 355.1929
302.3023, 357.9399
302.7845, 359.5079
303.2666, 359.2291
303.7487, 359.3566
304.2308, 362.0517
304.7129, 366.3951
305.1950, 368.9717
305.6772, 368.1878
306.1593, 365.8337
306.6414, 364.6776
307.1235, 364.8821
307.6056, 364.5981
308.0877, 363.2639
308.5699, 360.8492
309.0520, 357.1576
309.5341, 351.9607
310.0162, 345.9235
310.4983, 338.7822
310.9804, 330.7737
311.4626, 325.1981
311.9447, 324.9890
312.4268, 327.2073
312.9089, 327.2006
313.3910, 324.1915
313.8731, 320.5659
314.3553, 318.2008
314.8374, 316.8093
315.3195, 315.5340
315.8016, 314.0135
316.2837, 312.6469
316.7658, 311.9680
317.2480, 312.0009
317.7301, 312.1651
318.2122, 312.1518
318.6943, 312.0147
319.1764, 311.8762
319.6585, 311.6057
320.1407, 311.5158
320.6228, 311.8847
321.1049, 312.6751
321.5870, 313.5947
322.0691, 314.4230
322.5512, 315.4284
323.0334, 317.1352
323.5155, 319.8177
323.9976, 322.2876
324.4797, 323.5349
324.9618, 324.0179
325.4439, 325.2106
325.9261, 327.7339
326.4082, 330.6966
326.8903, 332.7138
327.3724, 333.7430
327.8545, 335.5139
328.3366, 339.1011
328.8188, 343.6721
329.3009, 347.7172
329.7830, 350.8560
330.2651, 354.2363
330.7472, 359.2314
331.2293, 365.5505
331.7115, 371.7506
332.1936, 377.2020
332.6757, 382.6404
333.1578, 388.6880
333.6399, 395.3940
334.1220, 402.9813
334.6042, 411.9382
335.0863, 421.9750
335.5684, 431.6099
336.0505, 440.5182
336.5326, 449.3103
337.0147, 458.4009
337.4969, 467.7493
337.9790, 477.2057
338.4611, 486.8123
338.9432, 496.3654
339.4253, 505.2025
339.9074, 512.1630
340.3896, 521.1686
340.8717, 534.9940
341.3538, 551.7958
341.8359, 567.9082
342.3180, 582.3101
342.8001, 595.9813
343.2823, 610.3999
343.7644, 625.5765
344.2465, 640.8553
344.7286, 656.0057
345.2107, 671.2557
345.6928, 687.1255
346.1750, 703.7338
346.6571, 719.9210
347.1392, 734.3331
347.6213, 746.9464
348.1034, 760.5243
348.5855, 776.3766
349.0677, 792.1609
349.5498, 806.0043
350.0319, 818.3209
350.5140, 831.2342
350.9961, 846.3789
351.4782, 863.0115
351.9604, 877.4639
352.4425, 890.1154
352.9246, 900.6964
353.4067, 909.0836
353.8888, 915.4110
354.3709, 919.6167
354.8531, 921.5763
355.3352, 922.0702
355.8173, 922.5864
356.2994, 923.7025
356.7815, 923.4829
357.2636, 921.5309
357.7458, 918.2995
358.2279, 913.3931
358.7100, 907.0319
359.1921, 901.5369
359.6742, 900.1277
360.1563, 904.2432
360.6385, 902.8521
361.1206, 893.5090
361.6027, 881.5371
362.0848, 870.1154
362.5669, 858.7007
363.0490, 844.8165
363.5312, 826.9336
364.0133, 805.1306
364.4954, 779.9582
364.9775, 749.2752
365.4596, 718.0794
365.9417, 686.2094
366.4239, 654.8198
366.9060, 625.2452
367.3881, 597.9006
367.8702, 572.8464
368.3523, 550.0762
368.8344, 529.6313
369.3166, 511.9020
369.7987, 497.0015
370.2808, 484.3996
370.7629, 474.2935
371.2450, 466.3494
371.7271, 459.2565
372.2093, 451.5687
372.6914, 442.9182
373.1735, 435.7829
373.6556, 431.3407
374.1377, 427.1550
374.6198, 422.3111
375.1020, 417.0548
375.5841, 411.9826
376.0662, 407.3645
376.5483, 403.4113
377.0304, 401.2869
377.5125, 402.1401
377.9947, 403.3156
378.4768, 405.3106
378.9589, 406.9526
379.4410, 406.5136
379.9231, 403.5394
380.4052, 400.1536
380.8874, 399.7834
381.3695, 403.3090
381.8516, 407.0075
382.3337, 410.5834
382.8158, 414.2872
383.2979, 417.8489
383.7801, 421.5339
384.2622, 426.2585
384.7443, 433.1261
385.2264, 441.9213
385.7085, 450.2657
386.1906, 457.8626
386.6728, 465.4313
387.1549, 474.6671
387.6370, 483.7502
388.1191, 489.8204
388.6012, 491.5243
389.0833, 489.9845
389.5655, 487.3800
390.0476, 484.1117
390.5297, 477.9438
391.0118, 466.6397
391.4939, 452.8247
391.9760, 437.9628
392.4582, 422.2234
392.9403, 406.7458
393.4224, 392.0442
393.9045, 378.2471
394.3866, 366.2047
394.8687, 356.2369
395.3509, 347.8121
395.8330, 340.6342
396.3151, 334.5378
396.7972, 329.1292
397.2793, 324.3785
397.7614, 320.1852
398.2436, 316.4200
398.7257, 313.1141
399.2078, 310.0777
399.6899, 307.3089
400.1720, 304.7602
400.6541, 302.1281
401.1363, 298.8102
401.6184, 296.5484
402.1005, 297.6701
402.5826, 300.7569
403.0647, 301.5530
403.5468, 298.3585
404.0290, 293.5846
404.5111, 290.6051
404.9932, 289.4976
405.4753, 288.5085
405.9574, 287.2122
406.4395, 285.9726
406.9217, 284.9388
407.4038, 284.1904
407.8859, 284.2913
408.3680, 285.9307
408.8501, 288.9196
409.3322, 290.7221
409.8144, 291.1602
410.2965, 290.8401
410.7786, 289.5266
411.2607, 287.6868
411.7428, 286.0514
412.2249, 284.9261
412.7071, 284.1917
413.1892, 283.6116
413.6713, 283.0389
414.1534, 282.9621
414.6355, 283.7729
415.1176, 284.7701
415.5998, 285.5147
416.0819, 285.9395
416.5640, 286.1422
417.0461, 286.1902
417.5282, 286.0812
418.0103, 285.9893
418.4925, 285.9483
418.9746, 285.8865
419.4567, 285.3798
419.9388, 284.9639
420.4209, 285.4789
420.9030, 287.3133
421.3852, 289.8576
421.8673, 291.8613
422.3494, 293.1526
422.8315, 294.3448
423.3136, 295.8433
423.7957, 297.0150
424.2779, 296.8760
424.7600, 295.7608
425.2421, 295.4406
425.7242, 297.9564
426.2063, 302.9196
426.6884, 306.3503
427.1706, 307.3948
427.6527, 308.2923
428.1348, 309.8427
428.6169, 311.9312
429.0990, 314.5384
429.5811, 317.8651
430.0633, 321.1907
430.5454, 323.3048
431.0275, 324.1695
431.5096, 325.7134
431.9917, 328.5927
432.4738, 332.3165
432.9560, 336.4670
433.4381, 341.0360
433.9202, 345.3442
434.4023, 348.7220
434.8844, 351.7219
435.3665, 355.1787
435.8487, 359.1542
436.3308, 363.7980
436.8129, 369.3904
437.2950, 375.7819
437.7771, 382.1183
438.2592, 387.9543
438.7414, 394.2195
439.2235, 401.3491
439.7056, 409.2719
440.1877, 417.7267
440.6698, 426.5776
441.1519, 436.1751
441.6341, 447.4178
442.1162, 461.0423
442.5983, 474.1362
443.0804, 487.3329
443.5625, 499.3550
444.0446, 508.4268
444.5268, 515.1155
445.0089, 522.6293
445.4910, 533.7379
445.9731, 547.7618
446.4552, 558.2125
446.9373, 563.7382
447.4195, 567.3270
447.9016, 569.0641
448.3837, 569.2228
448.8658, 567.6060
449.3479, 564.3172
449.8300, 560.4646
450.3122, 557.4760
450.7943, 555.2126
451.2764, 554.3561
451.7585, 556.9125
452.2406, 559.0128
452.7227, 557.9200
453.2049, 555.1848
453.6870, 554.4523
454.1691, 558.1472
454.6512, 564.8386
455.1333, 571.0846
455.6154, 576.8539
456.0976, 582.2354
456.5797, 586.9000
457.0618, 591.4049
457.5439, 596.7940
458.0260, 603.1436
458.5081, 608.0656
458.9903, 609.4462
459.4724, 607.8724
459.9545, 605.7097
460.4366, 603.7001
460.9187, 599.6830
461.4008, 591.2584
461.8830, 579.5201
462.3651, 566.8579
462.8472, 554.2768
463.3293, 540.1761
463.8114, 521.9080
464.2935, 500.7818
464.7756, 481.7773
465.2578, 467.0775
465.7399, 454.3768
466.2220, 439.8297
466.7041, 422.5084
467.1862, 407.0870
467.6683, 395.3149
468.1505, 384.7216
468.6326, 372.8073
469.1147, 359.8689
469.5968, 348.6082
470.0789, 341.0795
470.5610, 336.6591
471.0432, 331.2723
471.5253, 323.1437
472.0074, 316.1956
472.4895, 311.1183
472.9716, 307.2652
473.4537, 304.3537
473.9359, 302.1552
474.4180, 299.9749
474.9001, 296.7331
475.3822, 292.1279
475.8643, 289.1372
476.3464, 289.5889
476.8286, 289.7729
477.3107, 288.2262
477.7928, 285.6831
478.2749, 283.3986
478.7570, 281.9409
479.2391, 280.9228
479.7213, 279.8847
480.2034, 278.8870
480.6855, 277.2758
481.1676, 274.4427
481.6497, 271.3434
482.1318, 268.3455
482.6140, 265.5842
483.0961, 264.0161
483.5782, 265.1503
484.0603, 267.3040
484.5424, 267.5986
485.0245, 265.8836
485.5067, 264.1660
485.9888, 263.4084
486.4709, 263.4775
486.9530, 264.0213
487.4351, 265.4964
487.9172, 266.4282
488.3994, 266.0771
488.8815, 264.9967
489.3636, 263.7951
489.8457, 262.6170
490.3278, 261.6073
490.8099, 260.9058
491.2921, 260.5234
491.7742, 260.2667
492.2563, 260.2169
492.7384, 260.1781
493.2205, 260.0927
493.7026, 259.9816
494.1848, 259.9573
494.6669, 260.0455
495.1490, 260.0047
495.6311, 259.3078
496.1132, 257.5160
496.5953, 256.5042
497.0775, 256.6818
497.5596, 257.2728
498.0417, 258.3386
498.5238, 259.5652
499.0059, 260.3823
499.4880, 260.4775
499.9702, 260.0225
500.4523, 259.1870
500.9344, 257.8391
501.4165, 256.9698
501.8986, 257.3729
502.3807, 257.9133
502.8629, 257.4532
503.3450, 256.0132
503.8271, 254.6087
504.3092, 254.0050
504.7913, 253.6104
505.2734, 252.2348
505.7556, 249.8279
506.2377, 247.9166
506.7198, 247.4751
507.2019, 248.1132
507.6840, 248.6024
508.1661, 248.9901
508.6483, 249.1726
509.1304, 248.9300
509.6125, 248.5681
510.0946, 248.4349
510.5767, 248.5841
511.0588, 248.9067
511.5410, 249.3709
512.0231, 249.9720
512.5052, 249.9731
512.9873, 248.7846
513.4694, 247.6873
513.9515, 247.2714
514.4337, 246.9114
514.9158, 245.6057
515.3979, 243.1664
515.8800, 240.7769
516.3621, 240.1713
516.8442, 241.5909
517.3264, 242.2237
517.8085, 241.5533
518.2906, 240.7073
518.7727, 239.9985
519.2548, 239.5155
519.7369, 239.4546
520.2191, 240.0004
520.7012, 240.6795
521.1833, 241.1289
521.6654, 241.3114
522.1475, 240.7742
522.6296, 239.0542
523.1118, 237.3004
523.5939, 236.9836
524.0760, 237.8958
524.5581, 238.6302
525.0402, 238.5707
525.5223, 238.5986
526.0045, 239.7185
526.4866, 241.4780
526.9687, 242.4750
527.4508, 242.0521
527.9329, 240.8956
528.4150, 240.3415
528.8972, 241.1407
529.3793, 240.7298
529.8614, 237.2791
530.3435, 234.3802
530.8256, 234.6640
531.3077, 237.1822
531.7899, 239.3548
532.2720, 239.6884
532.7541, 238.6132
533.2362, 236.9532
533.7183, 234.0192
534.2004, 232.4433
534.6826, 233.7868
535.1647, 235.7686
535.6468, 237.3418
536.1289, 238.4050
536.6110, 239.0066
537.0931, 238.9138
537.5753, 238.5041
538.0574, 238.5309
538.5395, 239.0169
539.0216, 239.4445
539.5037, 239.6295
539.9858, 239.6078
540.4680, 239.4893
540.9501, 239.3242
541.4322, 238.8379
541.9143, 237.4913
542.3964, 236.0947
542.8785, 235.3884
543.3607, 235.4167
543.8428, 236.1371
544.3249, 237.6975
544.8070, 239.6165
545.2891, 240.0904
545.7712, 237.1582
546.2534, 235.4582
546.7355, 236.3155
547.2176, 237.5166
547.6997, 237.0443
548.1818, 235.1559
548.6639, 233.7900
549.1461, 234.6444
549.6282, 237.0890
550.1103, 238.4305
550.5924, 238.2848
551.0745, 238.0401
551.5566, 237.9534
552.0388, 238.0373
552.5209, 238.5777
553.0030, 239.5439
553.4851, 239.9032
553.9672, 238.6799
554.4493, 236.5966
554.9315, 234.6987
555.4136, 233.0392
555.8957, 232.2733
556.3778, 233.0870
556.8599, 234.7906
557.3420, 235.4256
557.8242, 234.4755
558.3063, 233.8930
558.7884, 234.1755
559.2705, 234.8981
559.7526, 236.0074
560.2347, 237.2668
560.7169, 237.9369
561.1990, 237.4105
561.6811, 235.9875
562.1632, 235.0569
562.6453, 234.9698
563.1274, 234.7846
563.6096, 233.7393
564.0917, 233.0717
564.5738, 234.3037
565.0559, 237.0348
565.5380, 238.9414
566.0201, 237.9837
566.5023, 235.2149
566.9844, 233.3761
567.4665, 232.5784
567.9486, 231.9100
568.4307, 230.6732
568.9128, 229.7399
569.3950, 230.5430
569.8771, 233.2852
570.3592, 235.3670
570.8413, 235.6842
571.3234, 235.1104
571.8055, 234.1790
572.2877, 233.1007
572.7698, 232.6001
573.2519, 233.1688
573.7340, 234.2845
574.2161, 234.5874
574.6982, 233.2863
575.1804, 232.5344
575.6625, 233.0747
576.1446, 233.4761
576.6267, 232.2670
577.1088, 230.1606
577.5909, 229.2194
578.0731, 230.8442
578.5552, 233.7839
579.0373, 235.1868
579.5194, 234.7476
580.0015, 234.4850
580.4836, 235.1490
580.9658, 235.7080
581.4479, 235.3599
581.9300, 234.2384
582.4121, 232.9444
582.8942, 231.2252
583.3763, 229.8093
583.8585, 229.5924
584.3406, 230.3298
584.8227, 231.1409
585.3048, 231.7440
585.7869, 232.2456
586.2690, 232.8473
586.7512, 233.6792
587.2333, 233.8775
587.7154, 232.7510
588.1975, 231.7808
