##NAMES=Talmessite
##RRUFFID=R080007
##IDEAL CHEMISTRY=Ca_2_Mg(As^5+^O_4_)_2_&#183;2H_2_O
##LOCALITY=Tsumeb mine, Tsumeb, Otavi District, Oshikoto, Namibia
##OWNER=RRUFF
##SOURCE=William W. Pinch
##DESCRIPTION=Pale yellow to colorless crystals
##STATUS=The identification of this mineral is confirmed by single-crystal X-ray diffraction and chemical analysis.
##URL=rruff.info/R080007
##MEASURED CHEMISTRY=Ca_2.00_(Mg_0.99_Fe_0.01_)_Σ=1_(As_1.00_O_4_)_2_·1.98H_2_O; trace amounts of P; H_2_O estimated by difference
93.40625, 96.47363
93.88837, 92.79921
94.37048, 95.63842
94.85260, 103.5417
95.33472, 112.3493
95.81683, 121.1455
96.29895, 130.3346
96.78107, 140.8919
97.26318, 152.8919
97.74530, 165.9525
98.22742, 179.9124
98.70953, 194.8095
99.19165, 209.4917
99.67377, 223.3901
100.1559, 236.5556
100.6380, 250.5426
101.1201, 265.8247
101.6022, 280.7498
102.0844, 292.4607
102.5665, 300.3123
103.0486, 307.4388
103.5307, 314.4215
104.0128, 320.8293
104.4949, 329.2733
104.9771, 339.4643
105.4592, 351.8810
105.9413, 368.0590
106.4234, 388.6956
106.9055, 411.9798
107.3876, 437.2234
107.8698, 468.4664
108.3519, 495.8943
108.8340, 520.7142
109.3161, 542.3417
109.7982, 556.3824
110.2803, 559.1682
110.7624, 556.8343
111.2446, 552.6591
111.7267, 542.1387
112.2088, 534.6434
112.6909, 531.8235
113.1730, 533.4945
113.6551, 536.1323
114.1373, 538.1408
114.6194, 541.4008
115.1015, 547.4768
115.5836, 558.9444
116.0657, 571.3005
116.5478, 582.5157
117.0300, 592.4354
117.5121, 603.9677
117.9942, 620.4044
118.4763, 638.5630
118.9584, 654.2745
119.4405, 666.8452
119.9227, 676.1268
120.4048, 681.9456
120.8869, 684.3136
121.3690, 683.3931
121.8511, 678.0179
122.3332, 669.3554
122.8154, 659.8621
123.2975, 647.4344
123.7796, 636.2877
124.2617, 631.2871
124.7438, 635.0198
125.2259, 641.3946
125.7081, 644.4631
126.1902, 644.7196
126.6723, 642.6371
127.1544, 642.5048
127.6365, 644.8231
128.1186, 645.8786
128.6008, 644.3757
129.0829, 641.9504
129.5650, 641.2345
130.0471, 642.1147
130.5292, 642.8725
131.0113, 640.5871
131.4935, 636.4592
131.9756, 636.0763
132.4577, 643.4644
132.9398, 654.6534
133.4219, 656.6541
133.9040, 648.5157
134.3862, 639.1296
134.8683, 639.3706
135.3504, 648.9810
135.8325, 656.5254
136.3146, 657.1966
136.7967, 651.9105
137.2789, 650.1577
137.7610, 652.5304
138.2431, 656.8647
138.7252, 660.5421
139.2073, 663.5717
139.6894, 665.9764
140.1716, 667.3730
140.6537, 667.4296
141.1358, 669.0313
141.6179, 672.0903
142.1000, 676.7512
142.5821, 683.7651
143.0643, 694.7948
143.5464, 704.7879
144.0285, 711.3870
144.5106, 712.5149
144.9927, 715.7567
145.4748, 722.4844
145.9570, 731.0553
146.4391, 736.2426
146.9212, 735.8826
147.4033, 734.8478
147.8854, 735.3571
148.3675, 737.9532
148.8497, 741.1829
149.3318, 744.3741
149.8139, 747.8964
150.2960, 753.8705
150.7781, 765.5922
151.2602, 777.3077
151.7424, 785.8026
152.2245, 787.2108
152.7066, 789.8567
153.1887, 794.1999
153.6708, 800.1749
154.1529, 807.4127
154.6351, 815.0632
155.1172, 824.4716
155.5993, 836.4935
156.0814, 853.7852
156.5635, 871.2111
157.0456, 887.1449
157.5278, 901.4388
158.0099, 917.8102
158.4920, 936.6266
158.9741, 958.1116
159.4562, 982.5160
159.9383, 1015.970
160.4205, 1046.866
160.9026, 1073.093
161.3847, 1094.804
161.8668, 1107.167
162.3489, 1107.760
162.8310, 1098.438
163.3132, 1081.344
163.7953, 1050.912
164.2774, 1017.792
164.7595, 986.3119
165.2416, 956.4333
165.7237, 930.2441
166.2059, 907.6813
166.6880, 889.3110
167.1701, 876.0112
167.6522, 869.9601
168.1343, 867.9208
168.6164, 867.9606
169.0986, 870.0455
169.5807, 873.3602
170.0628, 877.1327
170.5449, 881.7297
171.0270, 887.8581
171.5091, 895.5012
171.9913, 905.0244
172.4734, 916.9935
172.9555, 931.8336
173.4376, 948.1787
173.9197, 967.3179
174.4018, 987.5555
174.8840, 1004.026
175.3661, 1012.285
175.8482, 1015.570
176.3303, 1018.149
176.8124, 1021.168
177.2945, 1022.408
177.7767, 1018.519
178.2588, 1010.372
178.7409, 1001.755
179.2230, 995.0841
179.7051, 989.4813
180.1872, 983.2827
180.6694, 975.7988
181.1515, 968.2335
181.6336, 962.0140
182.1157, 957.1427
182.5978, 953.6673
183.0799, 951.7698
183.5621, 951.2725
184.0442, 951.5264
184.5263, 951.9396
185.0084, 953.6553
185.4905, 959.1279
185.9726, 968.2499
186.4547, 978.7325
186.9369, 988.7999
187.4190, 998.7838
187.9011, 1009.506
188.3832, 1020.977
188.8653, 1033.607
189.3474, 1048.256
189.8296, 1065.058
190.3117, 1083.838
190.7938, 1103.323
191.2759, 1124.032
191.7580, 1150.153
192.2401, 1183.731
192.7223, 1223.008
193.2044, 1262.256
193.6865, 1301.329
194.1686, 1344.513
194.6507, 1397.867
195.1328, 1460.787
195.6150, 1522.127
196.0971, 1582.799
196.5792, 1638.748
197.0613, 1676.340
197.5434, 1696.566
198.0255, 1693.797
198.5077, 1657.995
198.9898, 1588.214
199.4719, 1507.656
199.9540, 1416.786
200.4361, 1319.605
200.9182, 1234.990
201.4004, 1163.866
201.8825, 1104.154
202.3646, 1054.134
202.8467, 1014.384
203.3288, 983.3043
203.8109, 962.0475
204.2931, 949.6902
204.7752, 938.1829
205.2573, 926.8759
205.7394, 917.9564
206.2215, 914.2881
206.7036, 916.7004
207.1858, 920.0677
207.6679, 922.9044
208.1500, 925.3846
208.6321, 930.4718
209.1142, 938.7196
209.5963, 948.5252
210.0785, 958.5948
210.5606, 969.2438
211.0427, 978.8251
211.5248, 987.4964
212.0069, 995.2072
212.4890, 999.5451
212.9712, 1000.887
213.4533, 998.2883
213.9354, 990.3646
214.4175, 976.0593
214.8996, 959.3707
215.3817, 940.5786
215.8639, 919.8369
216.3460, 898.8867
216.8281, 876.9971
217.3102, 855.7663
217.7923, 837.0980
218.2744, 820.8610
218.7566, 807.1027
219.2387, 796.3245
219.7208, 788.4464
220.2029, 781.8773
220.6850, 777.0017
221.1671, 773.0417
221.6493, 768.9254
222.1314, 763.5221
222.6135, 760.5377
223.0956, 761.3832
223.5777, 766.2393
224.0598, 770.6292
224.5420, 774.7427
225.0241, 778.2314
225.5062, 780.3769
225.9883, 779.5634
226.4704, 780.8821
226.9525, 786.1063
227.4347, 795.5355
227.9168, 802.8880
228.3989, 806.9374
228.8810, 810.2183
229.3631, 815.3708
229.8452, 823.4324
230.3274, 831.3661
230.8095, 838.0217
231.2916, 843.2567
231.7737, 851.5080
232.2558, 864.4276
232.7379, 878.6498
233.2201, 890.4423
233.7022, 898.0555
234.1843, 906.6654
234.6664, 917.6151
235.1485, 930.8496
235.6306, 943.2175
236.1128, 954.5524
236.5949, 965.3441
237.0770, 976.0877
237.5591, 986.7962
238.0412, 997.4622
238.5233, 1008.648
239.0055, 1020.388
239.4876, 1028.870
239.9697, 1033.159
240.4518, 1035.311
240.9339, 1036.812
241.4160, 1036.571
241.8982, 1037.852
242.3803, 1041.496
242.8624, 1047.461
243.3445, 1053.376
243.8266, 1059.061
244.3087, 1064.942
244.7909, 1071.190
245.2730, 1077.020
245.7551, 1084.818
246.2372, 1095.377
246.7193, 1108.486
247.2014, 1121.412
247.6836, 1133.693
248.1657, 1146.184
248.6478, 1159.328
249.1299, 1173.247
249.6120, 1187.834
250.0941, 1203.978
250.5762, 1221.148
251.0584, 1235.374
251.5405, 1247.398
252.0226, 1255.350
252.5047, 1258.049
252.9868, 1256.024
253.4689, 1247.709
253.9511, 1232.702
254.4332, 1211.170
254.9153, 1183.876
255.3974, 1148.238
255.8795, 1110.961
256.3617, 1076.222
256.8438, 1043.343
257.3259, 1014.272
257.8080, 989.6583
258.2901, 969.0170
258.7722, 949.4695
259.2544, 930.2021
259.7365, 913.2843
260.2186, 899.7966
260.7007, 890.8844
261.1828, 882.1548
261.6649, 872.6510
262.1471, 863.4157
262.6292, 857.6390
263.1113, 856.5496
263.5934, 856.4807
264.0755, 855.4707
264.5576, 852.9171
265.0398, 851.6151
265.5219, 852.0043
266.0040, 853.4300
266.4861, 854.2059
266.9682, 853.7679
267.4503, 854.1127
267.9325, 856.0641
268.4146, 859.7053
268.8967, 864.8657
269.3788, 871.8627
269.8609, 880.0759
270.3430, 888.3654
270.8252, 896.8387
271.3073, 904.9839
271.7894, 912.0690
272.2715, 917.8498
272.7536, 925.3448
273.2357, 935.0037
273.7179, 945.5851
274.2000, 955.8101
274.6821, 965.9576
275.1642, 974.1631
275.6463, 979.7995
276.1284, 982.8597
276.6106, 984.1432
277.0927, 984.2464
277.5748, 981.2792
278.0569, 971.8483
278.5390, 955.3090
279.0211, 938.1105
279.5032, 922.2186
279.9854, 907.5916
280.4675, 892.4929
280.9496, 876.8561
281.4317, 861.0057
281.9138, 844.7982
282.3959, 828.1635
282.8781, 813.1246
283.3602, 800.1567
283.8423, 789.1473
284.3244, 779.9274
284.8065, 772.4567
285.2886, 766.6483
285.7708, 762.5970
286.2529, 760.2639
286.7350, 759.0842
287.2171, 759.1776
287.6992, 760.1752
288.1813, 761.0412
288.6635, 761.7532
289.1456, 762.6906
289.6277, 764.1599
290.1098, 766.1293
290.5919, 768.5255
291.0740, 771.7072
291.5562, 774.7782
292.0383, 775.3174
292.5204, 773.4681
293.0025, 772.1716
293.4846, 773.5699
293.9667, 777.1185
294.4489, 781.1077
294.9310, 785.4982
295.4131, 789.7772
295.8952, 792.7357
296.3773, 794.6344
296.8594, 797.1562
297.3416, 800.6764
297.8237, 805.5991
298.3058, 813.4594
298.7879, 824.9159
299.2700, 836.7987
299.7521, 844.2673
300.2343, 848.7210
300.7164, 854.2682
301.1985, 863.6354
301.6806, 875.1517
302.1627, 886.3579
302.6448, 897.2936
303.1270, 907.5172
303.6091, 917.0406
304.0912, 925.5674
304.5733, 932.9367
305.0554, 939.8557
305.5375, 945.0622
306.0197, 947.9022
306.5018, 948.2643
306.9839, 944.0157
307.4660, 931.4586
307.9481, 913.7990
308.4302, 895.4885
308.9124, 876.2784
309.3945, 858.3342
309.8766, 843.9134
310.3587, 832.4591
310.8408, 821.7462
311.3229, 809.6452
311.8051, 797.8644
312.2872, 788.3905
312.7693, 781.6443
313.2514, 777.1861
313.7335, 776.5549
314.2156, 778.3062
314.6978, 778.2113
315.1799, 771.3301
315.6620, 763.7004
316.1441, 760.2255
316.6262, 763.2822
317.1083, 766.0637
317.5905, 764.3165
318.0726, 760.4879
318.5547, 758.8314
319.0368, 763.7738
319.5189, 768.9340
320.0010, 770.5122
320.4832, 767.1992
320.9653, 765.4650
321.4474, 767.8272
321.9295, 772.5043
322.4116, 777.4125
322.8937, 782.6210
323.3759, 787.5120
323.8580, 791.7441
324.3401, 795.2353
324.8222, 799.0439
325.3043, 802.9036
325.7864, 807.3710
326.2686, 812.8754
326.7507, 819.7023
327.2328, 827.2953
327.7149, 835.6405
328.1970, 844.6635
328.6791, 854.4147
329.1613, 865.0984
329.6434, 876.2311
330.1255, 887.4675
330.6076, 896.7671
331.0897, 909.1805
331.5718, 926.4533
332.0540, 946.8548
332.5361, 965.4261
333.0182, 980.3172
333.5003, 996.0575
333.9824, 1014.227
334.4645, 1035.227
334.9467, 1057.865
335.4288, 1082.194
335.9109, 1108.001
336.3930, 1134.381
336.8751, 1161.458
337.3572, 1189.324
337.8394, 1218.172
338.3215, 1247.718
338.8036, 1278.894
339.2857, 1311.722
339.7678, 1346.255
340.2499, 1383.837
340.7321, 1424.336
341.2142, 1464.560
341.6963, 1502.485
342.1784, 1539.405
342.6605, 1581.215
343.1426, 1628.062
343.6248, 1677.423
344.1069, 1726.804
344.5890, 1775.662
345.0711, 1826.999
345.5532, 1880.815
346.0353, 1937.142
346.5175, 1995.439
346.9996, 2056.153
347.4817, 2116.498
347.9638, 2174.688
348.4459, 2231.206
348.9280, 2287.903
349.4102, 2344.781
349.8923, 2401.646
350.3744, 2459.174
350.8565, 2516.062
351.3386, 2568.517
351.8207, 2615.993
352.3029, 2656.850
352.7850, 2688.787
353.2671, 2712.044
353.7492, 2728.333
354.2313, 2738.989
354.7134, 2743.841
355.1956, 2742.472
355.6777, 2732.643
356.1598, 2718.510
356.6419, 2702.305
357.1240, 2684.504
357.6061, 2667.607
358.0883, 2653.973
358.5704, 2641.571
359.0525, 2629.056
359.5346, 2617.523
360.0167, 2602.866
360.4988, 2584.444
360.9810, 2561.246
361.4631, 2531.152
361.9452, 2494.727
362.4273, 2450.001
362.9094, 2395.525
363.3915, 2330.635
363.8737, 2257.946
364.3558, 2175.451
364.8379, 2087.134
365.3200, 1998.036
365.8021, 1906.898
366.2842, 1817.122
366.7664, 1727.259
367.2485, 1636.861
367.7306, 1559.659
368.2127, 1501.398
368.6948, 1454.414
369.1769, 1413.043
369.6591, 1377.111
370.1412, 1346.779
370.6233, 1323.398
371.1054, 1305.717
371.5875, 1288.955
372.0696, 1272.804
372.5518, 1258.148
373.0339, 1244.915
373.5160, 1231.979
373.9981, 1223.957
374.4802, 1222.699
374.9623, 1224.778
375.4445, 1224.577
375.9266, 1221.059
376.4087, 1218.068
376.8908, 1216.395
377.3729, 1216.050
377.8550, 1217.765
378.3372, 1221.178
378.8193, 1227.574
379.3014, 1239.271
379.7835, 1256.652
380.2656, 1272.649
380.7477, 1284.665
381.2299, 1295.564
381.7120, 1312.873
382.1941, 1336.489
382.6762, 1363.917
383.1583, 1393.297
383.6404, 1425.041
384.1226, 1460.208
384.6047, 1499.417
385.0868, 1539.986
385.5689, 1580.876
386.0510, 1621.062
386.5331, 1657.267
387.0153, 1692.063
387.4974, 1720.610
387.9795, 1737.890
388.4616, 1743.815
388.9437, 1734.894
389.4258, 1706.739
389.9080, 1662.477
390.3901, 1606.268
390.8722, 1533.822
391.3543, 1456.614
391.8364, 1379.981
392.3185, 1305.549
392.8007, 1236.643
393.2828, 1173.804
393.7649, 1117.764
394.2470, 1070.174
394.7291, 1032.466
395.2112, 999.7017
395.6934, 970.7536
396.1755, 945.5176
396.6576, 923.8459
397.1397, 907.0411
397.6218, 892.5117
398.1039, 879.8610
398.5861, 869.1749
399.0682, 858.8890
399.5503, 847.4336
400.0324, 837.1718
400.5145, 830.0062
400.9966, 829.5839
401.4788, 827.0238
401.9609, 820.2949
402.4430, 810.8623
402.9251, 804.5299
403.4072, 802.7408
403.8893, 801.8690
404.3714, 800.4513
404.8535, 798.4502
405.3357, 795.8410
405.8178, 792.1376
406.2999, 788.4972
406.7820, 787.0609
407.2641, 788.3649
407.7462, 788.6687
408.2284, 786.2853
408.7105, 782.0073
409.1926, 779.7333
409.6747, 779.6259
410.1568, 780.3360
410.6389, 781.5418
411.1211, 782.8788
411.6032, 781.7841
412.0853, 776.8585
412.5674, 771.3105
413.0495, 770.1655
413.5316, 772.8104
414.0138, 776.0907
414.4959, 778.4427
414.9780, 780.3132
415.4601, 782.6383
415.9422, 785.5637
416.4243, 787.6492
416.9065, 786.4192
417.3886, 783.8842
417.8707, 783.1053
418.3528, 787.4040
418.8349, 791.6046
419.3170, 791.2726
419.7992, 787.5449
420.2813, 785.7708
420.7634, 789.5320
421.2455, 795.1844
421.7276, 800.3860
422.2097, 804.7277
422.6919, 808.8039
423.1740, 812.1744
423.6561, 815.5154
424.1382, 819.9549
424.6203, 826.0999
425.1024, 832.8105
425.5846, 840.3623
426.0667, 848.8428
426.5488, 855.7000
427.0309, 857.9509
427.5130, 861.2849
427.9951, 870.1369
428.4773, 888.2002
428.9594, 903.6190
429.4415, 914.6875
429.9236, 923.0087
430.4057, 932.6693
430.8878, 943.6426
431.3700, 955.9367
431.8521, 969.9282
432.3342, 985.6248
432.8163, 1000.802
433.2984, 1015.315
433.7805, 1029.856
434.2627, 1044.945
434.7448, 1060.637
435.2269, 1077.280
435.7090, 1094.763
436.1911, 1113.785
436.6732, 1135.977
437.1554, 1161.178
437.6375, 1187.470
438.1196, 1211.860
438.6017, 1236.975
439.0838, 1267.696
439.5659, 1305.306
440.0481, 1345.095
440.5302, 1383.220
441.0123, 1421.152
441.4944, 1461.364
441.9765, 1506.675
442.4586, 1553.077
442.9408, 1599.049
443.4229, 1644.057
443.9050, 1687.589
444.3871, 1730.333
444.8692, 1770.403
445.3513, 1806.648
445.8335, 1839.963
446.3156, 1867.626
446.7977, 1889.017
447.2798, 1904.323
447.7619, 1913.568
448.2440, 1911.989
448.7262, 1909.372
449.2083, 1907.264
449.6904, 1905.587
450.1725, 1905.324
450.6546, 1904.945
451.1367, 1907.863
451.6189, 1917.075
452.1010, 1934.072
452.5831, 1952.491
453.0652, 1971.428
453.5473, 1992.114
454.0294, 2019.074
454.5116, 2053.291
454.9937, 2086.717
455.4758, 2116.617
455.9579, 2142.966
456.4400, 2167.291
456.9221, 2190.162
457.4043, 2207.453
457.8864, 2217.179
458.3685, 2218.398
458.8506, 2208.606
459.3327, 2187.056
459.8148, 2154.367
460.2970, 2109.244
460.7791, 2052.916
461.2612, 1990.834
461.7433, 1924.349
462.2254, 1854.342
462.7076, 1781.080
463.1897, 1703.460
463.6718, 1628.295
464.1539, 1560.546
464.6360, 1496.805
465.1181, 1434.844
465.6003, 1370.182
466.0824, 1311.377
466.5645, 1262.292
467.0466, 1221.472
467.5287, 1183.309
468.0108, 1147.535
468.4930, 1114.011
468.9751, 1082.669
469.4572, 1053.578
469.9393, 1026.626
470.4214, 1001.740
470.9035, 979.2717
471.3857, 959.7137
471.8678, 943.3098
472.3499, 929.0568
472.8320, 916.9429
473.3141, 906.5490
473.7962, 896.2601
474.2784, 886.0399
474.7605, 876.2446
475.2426, 866.9632
475.7247, 858.2208
476.2068, 850.7204
476.6889, 844.6375
477.1711, 838.6180
477.6532, 830.1063
478.1353, 820.3597
478.6174, 812.9290
479.0995, 809.7472
479.5816, 808.4699
480.0638, 807.3469
480.5459, 806.1270
481.0280, 803.8931
481.5101, 798.6357
481.9922, 793.0741
482.4743, 789.9036
482.9565, 789.9644
483.4386, 789.0981
483.9207, 784.5311
484.4028, 778.6527
484.8849, 773.9691
485.3670, 771.7668
485.8492, 770.0243
486.3313, 768.6798
486.8134, 767.6129
487.2955, 766.1669
487.7776, 764.0001
488.2597, 761.9432
488.7419, 760.3425
489.2240, 759.2974
489.7061, 758.2810
490.1882, 757.1111
490.6703, 756.2441
491.1524, 756.4507
491.6346, 757.9545
492.1167, 758.7025
492.5988, 758.1495
493.0809, 756.7311
493.5630, 755.5900
494.0451, 754.6924
494.5273, 753.5898
495.0094, 751.1859
495.4915, 748.4924
495.9736, 748.3212
496.4557, 750.9257
496.9378, 753.5774
497.4200, 753.3449
497.9021, 751.7106
498.3842, 751.0366
498.8663, 752.9154
499.3484, 754.6724
499.8305, 754.1730
500.3127, 752.2149
500.7948, 750.8191
501.2769, 751.8477
501.7590, 752.6400
502.2411, 751.6277
502.7232, 748.3375
503.2054, 745.8775
503.6875, 745.6060
504.1696, 745.7266
504.6517, 744.8802
505.1338, 741.8970
505.6159, 740.0456
506.0981, 740.0552
506.5802, 741.0536
507.0623, 740.9061
507.5444, 739.1668
508.0265, 737.6927
508.5086, 737.3177
508.9908, 737.8583
509.4729, 737.8152
509.9550, 737.1625
510.4371, 736.1682
510.9192, 734.9419
511.4013, 733.5544
511.8835, 732.2142
512.3655, 730.8593
512.8477, 729.8658
513.3298, 730.4542
513.8119, 731.7875
514.2940, 731.8612
514.7761, 728.0294
515.2582, 723.9395
515.7404, 722.7445
516.2225, 724.0912
516.7046, 725.1106
517.1867, 724.1439
517.6688, 722.6866
518.1509, 721.6439
518.6331, 721.1132
519.1152, 721.0525
519.5973, 722.3788
520.0794, 723.7968
520.5615, 723.5970
521.0436, 719.9619
521.5258, 717.5580
522.0079, 717.6741
522.4900, 719.6273
522.9721, 719.7994
523.4542, 717.4241
523.9363, 715.5016
524.4185, 715.9739
524.9006, 718.8284
525.3827, 720.8331
525.8648, 722.0399
526.3469, 722.2759
526.8290, 720.5390
527.3112, 717.5046
527.7933, 715.8705
528.2754, 716.8007
528.7575, 718.4276
529.2396, 718.3812
529.7217, 717.1671
530.2039, 716.2646
530.6860, 715.7589
531.1681, 716.3394
531.6502, 719.5844
532.1323, 725.4396
532.6144, 729.1406
533.0966, 726.6013
533.5787, 722.6700
534.0608, 720.7736
534.5429, 722.8723
535.0250, 724.6750
535.5071, 725.5643
535.9893, 726.0573
536.4714, 726.9485
536.9535, 728.7935
537.4356, 729.9279
537.9177, 729.7227
538.3998, 728.4684
538.8820, 727.9553
539.3641, 728.2719
539.8462, 728.9528
540.3283, 730.3766
540.8104, 732.1989
541.2925, 731.4616
541.7747, 727.7299
542.2568, 723.5273
542.7389, 720.7401
543.2210, 719.5859
543.7031, 720.9756
544.1852, 726.8629
544.6674, 732.6067
545.1495, 733.0905
545.6316, 730.0085
546.1137, 727.5880
546.5958, 728.9969
547.0779, 730.5079
547.5601, 729.4643
548.0422, 725.6439
548.5243, 723.6964
549.0064, 726.0554
549.4885, 729.5629
549.9706, 732.2878
550.4528, 733.9153
550.9349, 735.3217
551.4170, 736.8714
551.8991, 737.9224
552.3812, 737.1310
552.8633, 733.7500
553.3455, 731.6674
553.8276, 732.2913
554.3097, 734.5933
554.7918, 734.8131
555.2739, 732.9535
555.7560, 731.8226
556.2382, 734.4376
556.7203, 738.7712
557.2024, 740.0789
557.6845, 738.0971
558.1666, 735.2118
558.6487, 732.1672
559.1309, 729.8589
559.6130, 729.7343
560.0951, 733.3613
560.5772, 736.8059
561.0593, 738.1432
561.5414, 738.0341
562.0236, 737.6360
562.5057, 736.9865
562.9878, 736.3230
563.4699, 735.7205
563.9520, 735.1674
564.4341, 734.4406
564.9163, 732.9449
565.3984, 732.1060
565.8805, 732.7520
566.3626, 735.1549
566.8447, 737.6400
567.3268, 740.4913
567.8090, 742.7314
568.2911, 742.8841
568.7732, 741.1770
569.2553, 739.5231
569.7374, 738.0992
570.2195, 737.3217
570.7017, 738.0847
571.1838, 740.0197
571.6659, 741.9330
572.1480, 743.2379
572.6301, 744.2975
573.1122, 745.4852
573.5944, 746.7700
574.0765, 747.7457
574.5586, 749.0610
575.0407, 749.4070
575.5228, 747.6261
576.0049, 742.3566
576.4871, 738.4554
576.9692, 736.2814
577.4513, 735.6168
577.9334, 736.5565
578.4155, 740.3239
578.8976, 742.6277
579.3798, 742.3373
579.8619, 740.8040
580.3440, 741.7496
580.8261, 745.4410
581.3082, 748.1906
581.7903, 748.0168
582.2725, 745.8729
582.7546, 744.3777
583.2367, 743.5049
583.7188, 742.9611
584.2009, 742.4798
584.6830, 742.2273
585.1652, 742.5179
585.6473, 743.4639
586.1294, 744.4301
586.6115, 744.8873
587.0936, 745.2356
