##NAMES=Talmessite
##RRUFFID=R060369
##IDEAL CHEMISTRY=Ca_2_Mg(As^5+^O_4_)_2_&#183;2H_2_O
##LOCALITY=Gold Hill, Tooele County, Utah, USA
##OWNER=RRUFF
##SOURCE=Michael Scott
##DESCRIPTION=Colorless saddle-shaped crystals associated with austinite
##STATUS=The identification of this mineral has been confirmed by single-crystal X-ray diffraction.
##URL=rruff.info/R060369
90.01007, 0.0000000E+00
90.49219, 6.003758
90.97430, 5.654004
91.45642, 5.529829
91.93854, 5.885202
92.42065, 6.391843
92.90277, 6.502750
93.38489, 6.118155
93.86700, 5.642261
94.34912, 5.618218
94.83124, 5.976384
95.31335, 6.318787
95.79547, 6.465245
96.27759, 6.411294
96.75970, 6.119178
97.24182, 5.537142
97.72394, 4.774667
98.20605, 3.874482
98.68817, 2.767223
99.17029, 2.079703
99.65240, 2.718524
100.1345, 4.833950
100.6166, 5.961607
101.0988, 5.212586
101.5809, 2.920362
102.0630, 1.970473
102.5451, 2.679830
103.0272, 4.150931
103.5093, 5.589512
103.9915, 7.248327
104.4736, 8.154398
104.9557, 7.732305
105.4378, 5.550149
105.9199, 4.551675
106.4020, 5.465962
106.8842, 7.201406
107.3663, 7.837411
107.8484, 6.556114
108.3305, 5.113616
108.8126, 4.117230
109.2947, 3.927624
109.7769, 3.581168
110.2590, 2.568627
110.7411, 1.308703
111.2232, 1.128604
111.7053, 3.880211
112.1874, 6.430853
112.6696, 7.351737
113.1517, 4.116241
113.6338, 1.819991
114.1159, 1.677357
114.5980, 3.375260
115.0801, 4.647477
115.5623, 4.516747
116.0444, 3.969926
116.5265, 3.770618
117.0086, 4.629157
117.4907, 5.418542
117.9728, 5.534199
118.4550, 4.934922
118.9371, 4.628018
119.4192, 5.688263
119.9013, 7.163179
120.3834, 7.820240
120.8655, 6.204265
121.3477, 4.193012
121.8298, 3.228079
122.3119, 3.569330
122.7940, 4.110035
123.2761, 4.228822
123.7582, 3.973564
124.2404, 3.450930
124.7225, 1.830606
125.2046, 0.2793788
125.6867, 0.5199386
126.1688, 3.316470
126.6509, 6.664824
127.1331, 8.589607
127.6152, 9.213569
128.0973, 9.147324
128.5794, 8.305059
129.0615, 7.068017
129.5436, 6.415360
130.0258, 6.806319
130.5079, 7.607708
130.9900, 7.458129
131.4721, 6.359912
131.9542, 5.500546
132.4363, 6.267297
132.9185, 8.399366
133.4006, 10.06035
133.8827, 10.51790
134.3648, 10.16602
134.8469, 10.49831
135.3290, 11.60288
135.8112, 13.01079
136.2933, 14.20287
136.7754, 15.17296
137.2575, 16.11382
137.7396, 17.06771
138.2217, 18.02066
138.7039, 18.97992
139.1860, 19.77277
139.6681, 20.85025
140.1502, 23.16417
140.6323, 27.12274
141.1144, 30.88187
141.5966, 33.71122
142.0787, 35.42000
142.5608, 36.99170
143.0429, 38.52878
143.5250, 39.87115
144.0071, 40.39428
144.4893, 39.07050
144.9714, 38.59227
145.4535, 40.46100
145.9356, 46.81445
146.4177, 51.21745
146.8998, 52.80604
147.3820, 52.29490
147.8641, 52.70773
148.3462, 54.46801
148.8283, 56.74691
149.3104, 59.12416
149.7925, 61.22636
150.2747, 63.91011
150.7568, 67.57495
151.2389, 72.09796
151.7210, 75.96056
152.2031, 78.76619
152.6852, 81.11928
153.1674, 83.42455
153.6495, 85.34399
154.1316, 87.56316
154.6137, 90.46843
155.0958, 94.08237
155.5779, 97.05342
156.0601, 98.18818
156.5422, 99.08342
157.0243, 101.0933
157.5064, 105.8464
157.9885, 110.4488
158.4706, 113.8897
158.9528, 115.9544
159.4349, 118.3379
159.9170, 122.1366
160.3991, 126.2881
160.8812, 129.5641
161.3633, 130.8526
161.8455, 131.7987
162.3276, 133.3421
162.8097, 135.8272
163.2918, 137.5143
163.7739, 136.6772
164.2560, 134.5659
164.7382, 132.5532
165.2203, 133.4461
165.7024, 134.8371
166.1845, 134.8641
166.6666, 132.8287
167.1487, 131.0058
167.6309, 130.7090
168.1130, 131.5054
168.5951, 132.4930
169.0772, 133.5957
169.5593, 134.5219
170.0414, 134.9324
170.5236, 134.5450
171.0057, 134.1742
171.4878, 134.3739
171.9699, 135.0600
172.4520, 135.9802
172.9341, 137.3909
173.4163, 138.8169
173.8984, 139.5598
174.3805, 138.9810
174.8626, 138.4936
175.3447, 139.8876
175.8268, 142.7625
176.3090, 145.2710
176.7911, 145.6701
177.2732, 144.9543
177.7553, 144.7603
178.2374, 145.7699
178.7195, 147.1690
179.2017, 147.9557
179.6838, 148.1750
180.1659, 148.1622
180.6480, 148.3032
181.1301, 148.4185
181.6122, 148.0168
182.0944, 146.4963
182.5765, 144.7235
183.0586, 144.2724
183.5407, 145.1337
184.0228, 146.3786
184.5049, 147.4096
184.9871, 148.1955
185.4692, 148.5513
185.9513, 148.1987
186.4334, 147.4690
186.9155, 147.1441
187.3976, 147.2448
187.8798, 147.5192
188.3619, 147.7154
188.8440, 147.8555
189.3261, 148.0601
189.8082, 148.2754
190.2903, 148.5877
190.7725, 149.3745
191.2546, 150.6977
191.7367, 152.2205
192.2188, 153.4821
192.7009, 154.5202
193.1830, 155.8603
193.6652, 157.6967
194.1473, 160.0104
194.6294, 162.8252
195.1115, 166.3597
195.5936, 169.6784
196.0757, 171.3870
196.5579, 171.4445
197.0400, 171.2124
197.5221, 171.3902
198.0042, 171.9038
198.4863, 171.4551
198.9684, 169.9086
199.4506, 167.7027
199.9327, 165.4651
200.4148, 163.1973
200.8969, 160.8030
201.3790, 157.9337
201.8611, 154.5488
202.3433, 152.3726
202.8254, 151.6936
203.3075, 151.7482
203.7896, 151.1882
204.2717, 149.8526
204.7538, 148.6944
205.2360, 148.2700
205.7181, 148.7094
206.2002, 148.5908
206.6823, 147.6976
207.1644, 146.5063
207.6465, 145.9265
208.1287, 146.0851
208.6108, 146.4237
209.0929, 146.7254
209.5750, 146.9891
210.0571, 147.2153
210.5392, 147.3366
211.0214, 147.4885
211.5035, 148.0876
211.9856, 149.4116
212.4677, 150.4128
212.9498, 150.4157
213.4319, 149.0089
213.9140, 148.4521
214.3962, 149.1875
214.8783, 150.5093
215.3604, 150.6610
215.8425, 149.1528
216.3246, 147.5775
216.8067, 146.6999
217.2889, 146.7904
217.7710, 146.6230
218.2531, 145.9826
218.7352, 145.1716
219.2173, 145.0228
219.6994, 145.9959
220.1816, 146.7466
220.6637, 146.4574
221.1458, 144.3389
221.6279, 143.5241
222.1100, 144.4772
222.5921, 146.5861
223.0743, 148.3977
223.5564, 150.1108
224.0385, 151.1641
224.5206, 151.0592
225.0027, 148.9815
225.4848, 148.0156
225.9670, 148.7089
226.4491, 150.3824
226.9312, 151.2413
227.4133, 150.9169
227.8954, 150.3644
228.3775, 149.9101
228.8597, 149.1958
229.3418, 149.5081
229.8239, 151.3551
230.3060, 154.1025
230.7881, 155.9667
231.2702, 156.8169
231.7524, 156.9994
232.2345, 156.4404
232.7166, 154.1407
233.1987, 153.4903
233.6808, 155.2063
234.1629, 158.3853
234.6451, 160.6509
235.1272, 161.5966
235.6093, 162.2159
236.0914, 162.9776
236.5735, 164.1676
237.0556, 164.8222
237.5378, 164.6464
238.0199, 164.0291
238.5020, 163.9739
238.9841, 164.7736
239.4662, 165.7078
239.9483, 166.5043
240.4305, 167.1918
240.9126, 167.6836
241.3947, 168.1286
241.8768, 168.3300
242.3589, 167.6848
242.8410, 165.5174
243.3232, 163.5347
243.8053, 162.5818
244.2874, 163.3832
244.7695, 163.4029
245.2516, 162.2466
245.7337, 160.4647
246.2159, 159.2747
246.6980, 158.8113
247.1801, 158.7319
247.6622, 158.9768
248.1443, 159.7610
248.6264, 160.2690
249.1086, 160.4487
249.5907, 160.3857
250.0728, 160.2829
250.5549, 160.2969
251.0370, 160.0006
251.5191, 159.0555
252.0013, 156.9960
252.4834, 155.9523
252.9655, 156.4879
253.4476, 157.7050
253.9297, 157.8320
254.4118, 156.1680
254.8940, 154.7263
255.3761, 154.4034
255.8582, 155.7098
256.3403, 155.9696
256.8224, 154.5873
257.3046, 152.6178
257.7867, 151.9501
258.2688, 153.2198
258.7509, 154.4379
259.2330, 154.8400
259.7151, 154.2028
260.1973, 154.1932
260.6794, 155.2020
261.1615, 156.4621
261.6436, 156.6339
262.1257, 155.0061
262.6078, 154.0464
263.0900, 154.7518
263.5721, 157.3728
264.0542, 159.2112
264.5363, 160.0704
265.0184, 160.4002
265.5005, 160.7273
265.9827, 160.9630
266.4648, 161.4476
266.9469, 162.3445
267.4290, 163.6593
267.9111, 164.8283
268.3932, 165.8089
268.8754, 166.6937
269.3575, 167.5763
269.8396, 168.4642
270.3217, 169.3664
270.8038, 170.3490
271.2859, 171.4010
271.7681, 171.9813
272.2502, 171.8106
272.7323, 171.7484
273.2144, 172.8225
273.6965, 175.2793
274.1786, 177.5760
274.6608, 179.4999
275.1429, 181.0156
275.6250, 181.9770
276.1071, 182.4330
276.5892, 182.2046
277.0714, 180.7524
277.5535, 177.8524
278.0356, 175.8086
278.5177, 175.3361
278.9998, 175.9709
279.4819, 175.7505
279.9641, 174.5352
280.4462, 173.0475
280.9283, 171.9682
281.4104, 171.3369
281.8925, 170.1015
282.3746, 167.8255
282.8568, 165.0537
283.3389, 163.4726
283.8210, 163.2080
284.3031, 163.1489
284.7852, 162.5528
285.2673, 161.4445
285.7495, 160.1173
286.2316, 158.4408
286.7137, 156.7937
287.1958, 156.1844
287.6779, 156.6467
288.1600, 157.0300
288.6422, 156.2848
289.1243, 154.6484
289.6064, 154.0210
290.0885, 154.7746
290.5706, 156.0085
291.0527, 156.0133
291.5349, 154.8968
292.0170, 154.2294
292.4991, 155.3339
292.9812, 157.6645
293.4633, 159.1428
293.9454, 159.5755
294.4276, 159.5753
294.9097, 159.7895
295.3918, 160.2189
295.8739, 160.8739
296.3560, 162.1542
296.8381, 163.6220
297.3203, 163.9243
297.8024, 162.9017
298.2845, 161.9290
298.7666, 162.7769
299.2487, 164.9239
299.7308, 166.7929
300.2130, 167.3313
300.6951, 167.3483
301.1772, 168.0980
301.6593, 169.5732
302.1414, 171.5891
302.6235, 174.4335
303.1057, 177.6803
303.5878, 180.4054
304.0699, 182.3139
304.5520, 183.5819
305.0341, 184.1696
305.5162, 184.1546
305.9984, 184.2124
306.4805, 185.1836
306.9626, 186.4333
307.4447, 187.0527
307.9268, 186.6901
308.4089, 185.7685
308.8911, 184.5972
309.3732, 183.1659
309.8553, 181.4374
310.3374, 179.4581
310.8195, 177.1343
311.3016, 174.2122
311.7838, 170.1223
312.2659, 166.5489
312.7480, 165.2617
313.2301, 165.4398
313.7122, 165.0120
314.1943, 162.0386
314.6765, 158.7334
315.1586, 156.7428
315.6407, 156.5886
316.1228, 156.7439
316.6049, 156.7857
317.0870, 156.6272
317.5692, 156.1284
318.0513, 154.4377
318.5334, 153.0397
319.0155, 152.9136
319.4976, 154.3554
319.9797, 155.4216
320.4619, 155.1265
320.9440, 154.2370
321.4261, 153.6171
321.9082, 153.5993
322.3903, 153.7507
322.8724, 154.1060
323.3546, 154.6694
323.8367, 154.8235
324.3188, 153.7523
324.8009, 152.6096
325.2830, 152.2864
325.7651, 154.1989
326.2473, 155.4839
326.7294, 155.3379
327.2115, 153.9846
327.6936, 153.2021
328.1757, 153.3013
328.6578, 153.8512
329.1400, 154.6520
329.6221, 156.0790
330.1042, 157.2398
330.5863, 158.1676
331.0684, 158.8263
331.5505, 159.0483
332.0327, 158.1378
332.5148, 157.6067
332.9969, 158.1698
333.4790, 160.4138
333.9611, 162.0610
334.4432, 162.7766
334.9254, 163.0904
335.4075, 163.9727
335.8896, 165.8800
336.3717, 167.4239
336.8538, 167.8870
337.3359, 167.0606
337.8180, 167.6840
338.3001, 170.3982
338.7823, 173.5816
339.2644, 174.9875
339.7465, 173.9402
340.2286, 174.1845
340.7107, 176.9933
341.1928, 181.9538
341.6750, 185.8667
342.1571, 188.6592
342.6392, 190.8874
343.1213, 192.6898
343.6034, 194.0285
344.0855, 196.4341
344.5677, 200.4163
345.0498, 205.3131
345.5319, 209.5203
346.0140, 213.0302
346.4961, 216.0706
346.9782, 218.2962
347.4604, 220.0400
347.9425, 222.9106
348.4246, 227.2402
348.9067, 232.2722
349.3888, 237.2731
349.8709, 242.1699
350.3531, 246.5420
350.8352, 249.5973
351.3173, 252.1009
351.7994, 255.8327
352.2815, 260.9341
352.7636, 266.0606
353.2458, 269.8484
353.7279, 272.6939
354.2100, 275.4472
354.6921, 278.2887
355.1742, 281.2739
355.6563, 284.6760
356.1385, 288.4228
356.6206, 291.9341
357.1027, 294.8713
357.5848, 297.3176
358.0669, 299.4036
358.5490, 301.1088
359.0312, 302.5265
359.5133, 303.5524
359.9954, 304.3092
360.4775, 305.1958
360.9596, 307.5559
361.4417, 309.3515
361.9239, 308.9837
362.4060, 305.5509
362.8881, 301.8801
363.3702, 299.4038
363.8523, 297.2847
364.3344, 294.2393
364.8166, 289.9019
365.2987, 284.5433
365.7808, 278.1115
366.2629, 270.4311
366.7450, 262.8379
367.2271, 255.5943
367.7093, 248.5072
368.1914, 241.4067
368.6735, 233.2951
369.1556, 226.2203
369.6377, 221.0962
370.1198, 217.6144
370.6020, 213.4639
371.0841, 207.5000
371.5662, 201.9117
372.0483, 197.9811
372.5304, 196.6427
373.0125, 195.1530
373.4947, 193.4740
373.9768, 191.6209
374.4589, 189.5619
374.9410, 187.1469
375.4231, 184.8148
375.9052, 182.5981
376.3874, 180.4062
376.8695, 179.0477
377.3516, 178.6277
377.8337, 178.8431
378.3158, 179.5558
378.7979, 180.9121
379.2801, 181.6094
379.7622, 180.9539
380.2443, 179.4004
380.7264, 179.1073
381.2085, 180.2054
381.6906, 181.6573
382.1728, 182.6565
382.6549, 183.2583
383.1370, 183.7061
383.6191, 183.9512
384.1012, 184.2298
384.5833, 184.8837
385.0655, 185.9180
385.5476, 187.3240
386.0297, 189.6413
386.5118, 192.2135
386.9939, 193.8007
387.4760, 194.2139
387.9582, 194.1960
388.4403, 194.6126
388.9224, 195.1125
389.4045, 194.9748
389.8866, 193.3380
390.3687, 191.3288
390.8509, 190.1458
391.3330, 189.6911
391.8151, 188.7347
392.2972, 186.0413
392.7793, 182.7366
393.2614, 179.9015
393.7436, 178.1112
394.2257, 176.4634
394.7078, 174.8095
395.1899, 173.0489
395.6720, 170.9168
396.1541, 167.6470
396.6363, 164.5328
397.1184, 162.2046
397.6005, 160.8757
398.0826, 159.8686
398.5647, 159.1719
399.0468, 158.7133
399.5290, 158.4050
400.0111, 158.4861
400.4932, 158.4550
400.9753, 158.2675
401.4574, 157.9202
401.9395, 157.2747
402.4217, 155.9995
402.9038, 154.7668
403.3859, 154.0855
403.8680, 154.3277
404.3501, 154.1994
404.8322, 153.4474
405.3144, 152.3494
405.7965, 151.6275
406.2786, 151.2827
406.7607, 151.2967
407.2428, 151.9184
407.7249, 153.1922
408.2071, 153.3938
408.6892, 152.2321
409.1713, 150.8585
409.6534, 150.8874
410.1355, 152.2460
410.6176, 153.4500
411.0998, 154.1250
411.5819, 154.3348
412.0640, 154.0192
412.5461, 153.2063
413.0282, 152.5445
413.5103, 152.7321
413.9925, 153.4096
414.4746, 153.8605
414.9567, 153.9805
415.4388, 153.8118
415.9209, 153.1568
416.4030, 152.2307
416.8852, 151.5489
417.3673, 151.3556
417.8494, 151.5342
418.3315, 152.1409
418.8136, 153.1790
419.2957, 154.0867
419.7779, 154.7794
420.2600, 155.0823
420.7421, 154.8089
421.2242, 153.2008
421.7063, 151.7506
422.1884, 150.8015
422.6706, 150.3590
423.1527, 150.4030
423.6348, 151.2434
424.1169, 152.3216
424.5990, 153.5189
425.0811, 155.2823
425.5633, 156.0717
426.0454, 154.9242
426.5275, 153.1719
427.0096, 152.5211
427.4917, 153.7178
427.9738, 154.9094
428.4560, 155.7899
428.9381, 156.3651
429.4202, 156.5228
429.9023, 155.9676
430.3844, 155.5322
430.8665, 155.9286
431.3487, 157.3235
431.8308, 158.5306
432.3129, 159.4438
432.7950, 160.1219
433.2771, 160.5099
433.7592, 160.5792
434.2414, 160.9713
434.7235, 162.3329
435.2056, 164.3035
435.6877, 165.2149
436.1698, 164.9808
436.6519, 164.7110
437.1341, 165.7255
437.6162, 167.5777
438.0983, 169.1053
438.5804, 169.8588
439.0625, 170.3499
439.5446, 170.9877
440.0268, 171.8177
440.5089, 173.0047
440.9910, 174.9852
441.4731, 177.1655
441.9552, 179.0215
442.4373, 180.4247
442.9195, 181.7900
443.4016, 183.4790
443.8837, 185.1980
444.3658, 186.5897
444.8479, 186.9560
445.3300, 187.5766
445.8122, 188.9886
446.2943, 191.1019
446.7764, 193.1550
447.2585, 195.2075
447.7406, 197.0405
448.2227, 198.5742
448.7049, 199.9607
449.1870, 200.7148
449.6691, 200.4952
450.1512, 199.8088
450.6333, 199.4367
451.1154, 199.4181
451.5976, 199.6322
452.0797, 200.1137
452.5618, 200.8383
453.0439, 201.4323
453.5260, 201.8717
454.0081, 202.2208
454.4903, 202.5760
454.9724, 202.9311
455.4545, 202.9962
455.9366, 202.6783
456.4187, 202.1768
456.9008, 201.7951
457.3830, 201.5255
457.8651, 201.3440
458.3472, 201.1304
458.8293, 201.0263
459.3114, 201.6708
459.7935, 203.0420
460.2757, 203.7112
460.7578, 201.8680
461.2399, 198.8004
461.7220, 196.3659
462.2041, 195.4442
462.6862, 194.5363
463.1684, 192.7804
463.6505, 190.2907
464.1326, 187.3697
464.6147, 183.3284
465.0968, 179.5316
465.5789, 176.8260
466.0611, 175.3741
466.5432, 174.1044
467.0253, 172.7829
467.5074, 171.5815
467.9895, 170.6572
468.4716, 171.0311
468.9538, 170.3200
469.4359, 167.6552
469.9180, 163.8323
470.4001, 161.4570
470.8822, 161.2085
471.3643, 161.2432
471.8465, 160.8369
472.3286, 159.9428
472.8107, 159.1198
473.2928, 158.3875
473.7749, 157.7101
474.2570, 157.1512
474.7392, 156.7093
475.2213, 155.9128
475.7034, 154.4313
476.1855, 152.8140
476.6676, 152.3470
477.1497, 152.9284
477.6319, 153.6029
478.1140, 153.9864
478.5961, 154.0331
479.0782, 153.5734
479.5603, 152.5683
480.0424, 151.4377
480.5246, 150.2410
481.0067, 149.2080
481.4888, 148.6825
481.9709, 149.3129
482.4530, 149.8467
482.9352, 149.4126
483.4173, 148.3185
483.8994, 147.5377
484.3815, 147.7505
484.8636, 148.0621
485.3457, 148.0066
485.8279, 147.4155
486.3100, 146.9672
486.7921, 146.8273
487.2742, 146.7961
487.7563, 146.6916
488.2384, 146.3993
488.7206, 146.2257
489.2027, 146.1797
489.6848, 146.2802
490.1669, 146.6935
490.6490, 147.5943
491.1311, 148.2695
491.6133, 148.2722
492.0954, 147.6176
492.5775, 147.1126
493.0596, 146.7533
493.5417, 146.5794
494.0238, 146.9164
494.5060, 147.5696
494.9881, 147.5301
495.4702, 146.2687
495.9523, 144.6425
496.4344, 143.7144
496.9165, 143.4456
497.3987, 143.6897
497.8808, 145.3075
498.3629, 146.8342
498.8450, 146.4841
499.3271, 144.0332
499.8092, 141.9110
500.2914, 141.5909
500.7735, 142.1202
501.2556, 142.5877
501.7377, 142.8045
502.2198, 142.8895
502.7019, 142.8748
503.1841, 142.7470
503.6662, 142.4687
504.1483, 141.4859
504.6304, 140.9431
505.1125, 141.3277
505.5946, 142.7454
506.0768, 143.7154
506.5589, 144.1229
507.0410, 144.2444
507.5231, 144.2956
508.0052, 144.2892
508.4873, 144.1132
508.9695, 143.7014
509.4516, 143.2065
509.9337, 142.8636
510.4158, 142.6758
510.8979, 142.7106
511.3800, 143.0550
511.8622, 143.6232
512.3443, 144.5025
512.8264, 145.6380
513.3085, 146.1598
513.7906, 144.6806
514.2728, 142.4613
514.7549, 141.1904
515.2370, 141.3639
515.7191, 141.9735
516.2012, 142.8277
516.6833, 143.6141
517.1655, 143.8685
517.6476, 142.8402
518.1297, 141.8539
518.6118, 141.4794
519.0939, 141.6583
519.5760, 141.5939
520.0582, 140.9160
520.5403, 140.2124
521.0224, 139.6674
521.5045, 139.0965
521.9866, 139.2893
522.4688, 140.6796
522.9509, 142.3539
523.4330, 143.1229
523.9151, 142.8031
524.3972, 142.6260
524.8793, 142.9931
525.3615, 143.5491
525.8436, 143.0152
526.3257, 141.4152
526.8078, 140.4151
527.2899, 141.8215
527.7720, 144.3845
528.2542, 144.9897
528.7363, 143.4557
529.2184, 141.6453
529.7005, 141.0033
530.1826, 141.1010
530.6647, 141.4251
531.1469, 142.1059
531.6290, 142.5245
532.1111, 141.8673
532.5932, 140.7263
533.0753, 140.3094
533.5574, 141.7896
534.0396, 143.2537
534.5217, 144.0190
535.0038, 144.0115
535.4859, 144.0021
535.9680, 144.2494
536.4501, 144.2647
536.9323, 143.7019
537.4144, 142.2306
537.8965, 141.0435
538.3786, 140.0740
538.8607, 139.5096
539.3428, 139.9163
539.8250, 141.4061
540.3071, 142.3536
540.7892, 142.1031
541.2713, 141.1656
541.7534, 140.8010
542.2355, 140.9629
542.7177, 141.1541
543.1998, 140.8417
543.6819, 140.4397
544.1640, 140.7303
544.6461, 141.8051
545.1282, 142.7960
545.6104, 143.1597
546.0925, 143.0669
546.5746, 142.6746
547.0567, 141.6039
547.5388, 140.8283
548.0209, 140.9395
548.5031, 141.5699
548.9852, 141.9119
549.4673, 141.2065
549.9494, 140.8910
550.4315, 141.5943
550.9136, 143.3088
551.3958, 144.0875
551.8779, 143.5672
552.3600, 142.7227
552.8421, 142.0830
553.3242, 141.6366
553.8063, 141.6060
554.2885, 142.1429
554.7706, 142.7031
555.2527, 142.3395
555.7348, 141.2336
556.2169, 140.5576
556.6990, 140.8646
557.1812, 141.5187
557.6633, 141.5934
558.1454, 141.2214
558.6275, 140.9016
559.1096, 141.0045
559.5917, 141.2206
560.0739, 141.1214
560.5560, 140.6660
561.0381, 140.7827
561.5202, 142.8357
562.0023, 145.0008
562.4844, 145.8797
562.9666, 144.0180
563.4487, 142.7556
563.9308, 142.3957
564.4129, 142.6708
564.8950, 143.2579
565.3771, 144.3839
565.8593, 145.3086
566.3414, 145.9269
566.8235, 146.2061
567.3056, 145.9392
567.7877, 145.0721
568.2698, 144.0503
568.7520, 142.8123
569.2341, 141.5980
569.7162, 141.5674
570.1983, 142.8300
570.6804, 144.0725
571.1625, 143.9422
571.6447, 142.9994
572.1268, 142.1058
572.6089, 141.3828
573.0910, 140.9242
573.5731, 140.7280
574.0552, 140.8415
574.5374, 141.3437
575.0195, 143.1338
575.5016, 144.4355
575.9837, 144.2919
576.4658, 142.8538
576.9479, 142.1626
577.4301, 142.9673
577.9122, 143.6936
578.3943, 143.5426
578.8764, 142.2397
579.3585, 141.6771
579.8406, 142.0586
580.3228, 142.7262
580.8049, 143.0747
581.2870, 143.1074
581.7691, 142.8371
582.2512, 142.1735
582.7333, 141.4216
583.2155, 140.9781
583.6975, 140.8203
584.1796, 140.8635
584.6617, 141.1392
585.1439, 141.5481
585.6260, 142.2235
586.1081, 143.0402
586.5902, 143.3742
587.0723, 142.5588
