##NAMES=Talmessite
##RRUFFID=R060830
##IDEAL CHEMISTRY=Ca_2_Mg(As^5+^O_4_)_2_&#183;2H_2_O
##LOCALITY=Bou Azzer, Morocco
##OWNER=RRUFF
##SOURCE=Michael Scott
##DESCRIPTION=Aggregates of reddish orange platy crystals associated with reddish purple erythrite
##STATUS=The identification of this mineral has been confirmed only by single crystal X-ray diffraction.
##URL=rruff.info/R060830
111.3986, 497.6018
111.8807, 527.4800
112.3628, 558.3965
112.8449, 589.9368
113.3271, 622.8553
113.8092, 656.4432
114.2913, 690.4285
114.7734, 729.8830
115.2555, 780.7162
115.7376, 836.0794
116.2198, 887.8234
116.7019, 927.0635
117.1840, 966.9174
117.6661, 1013.008
118.1482, 1065.298
118.6303, 1125.894
119.1124, 1211.719
119.5946, 1306.533
120.0767, 1377.738
120.5588, 1406.541
121.0409, 1406.512
121.5230, 1385.716
122.0051, 1336.561
122.4873, 1283.405
122.9694, 1246.342
123.4515, 1222.818
123.9336, 1202.925
124.4157, 1180.650
124.8979, 1157.700
125.3800, 1136.670
125.8621, 1117.728
126.3442, 1101.567
126.8263, 1088.414
127.3084, 1078.412
127.7905, 1073.181
128.2727, 1077.406
128.7548, 1088.509
129.2369, 1098.026
129.7190, 1100.629
130.2011, 1099.162
130.6832, 1102.805
131.1654, 1112.739
131.6475, 1122.954
132.1296, 1123.328
132.6117, 1114.452
133.0938, 1107.884
133.5759, 1111.541
134.0581, 1124.377
134.5402, 1131.990
135.0223, 1131.359
135.5044, 1128.467
135.9865, 1136.958
136.4686, 1158.134
136.9508, 1182.765
137.4329, 1204.715
137.9150, 1223.034
138.3971, 1246.026
138.8792, 1278.706
139.3613, 1316.468
139.8434, 1335.499
140.3256, 1328.545
140.8077, 1317.702
141.2898, 1322.045
141.7719, 1347.920
142.2540, 1371.083
142.7361, 1385.765
143.2183, 1391.933
143.7004, 1402.918
144.1825, 1419.792
144.6646, 1440.455
145.1467, 1461.421
145.6288, 1476.665
146.1110, 1501.767
146.5931, 1542.811
147.0752, 1606.469
147.5573, 1661.969
148.0394, 1698.068
148.5215, 1729.105
149.0037, 1778.904
149.4858, 1856.835
149.9679, 1943.800
150.4500, 2034.796
150.9321, 2125.413
151.4142, 2226.370
151.8964, 2340.135
152.3785, 2464.493
152.8606, 2593.356
153.3427, 2736.225
153.8248, 2878.042
154.3069, 3011.623
154.7890, 3117.198
155.2712, 3239.775
155.7533, 3391.868
156.2354, 3567.958
156.7175, 3746.222
157.1996, 3918.304
157.6817, 4095.391
158.1639, 4285.337
158.6460, 4512.121
159.1281, 4730.475
159.6102, 4948.611
160.0923, 5162.384
160.5744, 5307.521
161.0566, 5379.570
161.5387, 5364.673
162.0208, 5249.492
162.5029, 4954.320
162.9850, 4618.094
163.4671, 4288.790
163.9493, 3970.625
164.4314, 3685.433
164.9135, 3436.450
165.3956, 3229.041
165.8777, 3070.542
166.3598, 2975.860
166.8420, 2923.545
167.3241, 2902.403
167.8062, 2913.199
168.2883, 2946.286
168.7704, 3005.703
169.2525, 3083.280
169.7346, 3162.568
170.2168, 3231.023
170.6989, 3298.547
171.1810, 3373.591
171.6631, 3457.264
172.1452, 3549.905
172.6273, 3658.534
173.1095, 3778.267
173.5916, 3896.696
174.0737, 4007.018
174.5558, 4111.588
175.0379, 4215.721
175.5201, 4331.437
176.0022, 4431.204
176.4843, 4484.932
176.9664, 4494.286
177.4485, 4469.472
177.9306, 4418.764
178.4128, 4338.924
178.8949, 4217.888
179.3770, 4028.930
179.8591, 3818.386
180.3412, 3650.757
180.8233, 3524.107
181.3055, 3426.889
181.7876, 3356.455
182.2697, 3308.178
182.7518, 3264.415
183.2339, 3210.401
183.7160, 3161.517
184.1982, 3155.025
184.6803, 3192.282
185.1624, 3251.690
185.6445, 3319.334
186.1266, 3393.097
186.6087, 3465.202
187.0908, 3524.307
187.5730, 3578.866
188.0551, 3657.232
188.5372, 3762.600
189.0193, 3881.855
189.5014, 4004.080
189.9835, 4129.989
190.4657, 4254.368
190.9478, 4373.333
191.4299, 4488.907
191.9120, 4609.774
192.3941, 4738.951
192.8762, 4865.484
193.3584, 4978.423
193.8405, 5077.805
194.3226, 5151.750
194.8047, 5201.590
195.2868, 5225.992
195.7689, 5195.194
196.2511, 5105.560
196.7332, 4963.719
197.2153, 4772.325
197.6974, 4525.628
198.1795, 4271.284
198.6616, 4031.162
199.1438, 3803.039
199.6259, 3590.173
200.1080, 3389.244
200.5901, 3206.295
201.0722, 3061.308
201.5543, 2956.633
202.0364, 2874.766
202.5186, 2805.385
203.0007, 2747.795
203.4828, 2709.564
203.9649, 2694.898
204.4470, 2698.205
204.9291, 2700.800
205.4113, 2700.301
205.8934, 2706.044
206.3755, 2727.084
206.8576, 2767.021
207.3397, 2802.343
207.8218, 2827.397
208.3040, 2845.827
208.7861, 2876.303
209.2682, 2922.008
209.7503, 2972.094
210.2324, 3018.649
210.7145, 3060.423
211.1967, 3103.112
211.6788, 3151.227
212.1609, 3202.342
212.6430, 3237.477
213.1251, 3257.818
213.6072, 3259.898
214.0894, 3239.557
214.5715, 3193.393
215.0536, 3134.061
215.5357, 3061.819
216.0178, 2976.900
216.4999, 2889.885
216.9820, 2800.164
217.4642, 2710.121
217.9463, 2619.462
218.4284, 2525.312
218.9105, 2439.687
219.3926, 2363.941
219.8747, 2298.668
220.3569, 2246.516
220.8390, 2210.079
221.3211, 2183.954
221.8032, 2162.345
222.2853, 2146.963
222.7674, 2132.743
223.2496, 2117.437
223.7317, 2100.305
224.2138, 2091.803
224.6959, 2092.324
225.1780, 2101.097
225.6601, 2118.985
226.1423, 2152.072
226.6244, 2181.750
227.1065, 2201.272
227.5886, 2208.704
228.0707, 2223.778
228.5528, 2248.848
229.0350, 2279.866
229.5171, 2311.714
229.9992, 2345.887
230.4813, 2379.051
230.9634, 2410.233
231.4455, 2439.550
231.9276, 2466.877
232.4098, 2487.052
232.8919, 2509.196
233.3740, 2546.814
233.8561, 2611.082
234.3382, 2671.466
234.8203, 2719.964
235.3025, 2754.633
235.7846, 2785.078
236.2667, 2807.847
236.7488, 2828.781
237.2309, 2857.205
237.7130, 2899.344
238.1952, 2938.165
238.6773, 2969.097
239.1594, 2991.772
239.6415, 3007.642
240.1236, 3012.981
240.6057, 3013.957
241.0879, 3019.967
241.5700, 3031.017
242.0521, 3047.146
242.5342, 3070.415
243.0163, 3104.939
243.4984, 3129.402
243.9806, 3136.873
244.4627, 3138.225
244.9448, 3151.889
245.4269, 3184.964
245.9090, 3218.584
246.3911, 3246.304
246.8732, 3265.368
247.3554, 3289.003
247.8375, 3319.439
248.3196, 3352.942
248.8017, 3382.787
249.2838, 3404.349
249.7659, 3429.815
250.2481, 3465.193
250.7302, 3515.230
251.2123, 3556.786
251.6944, 3590.674
252.1765, 3615.834
252.6586, 3631.899
253.1408, 3642.548
253.6229, 3637.895
254.1050, 3612.962
254.5871, 3564.364
255.0692, 3510.437
255.5513, 3444.506
256.0334, 3378.086
256.5156, 3331.351
256.9977, 3315.816
257.4798, 3297.150
257.9619, 3260.232
258.4440, 3196.544
258.9261, 3152.049
259.4083, 3127.889
259.8904, 3121.374
260.3725, 3128.865
260.8546, 3152.271
261.3367, 3185.599
261.8188, 3225.882
262.3010, 3272.196
262.7831, 3332.959
263.2652, 3411.181
263.7473, 3501.296
264.2294, 3596.615
264.7115, 3695.593
265.1937, 3801.437
265.6758, 3914.678
266.1579, 4033.602
266.6400, 4161.862
267.1221, 4299.767
267.6042, 4445.427
268.0864, 4596.612
268.5685, 4760.753
269.0506, 4912.341
269.5327, 5041.061
270.0148, 5145.358
270.4969, 5248.324
270.9791, 5349.861
271.4612, 5450.284
271.9433, 5554.510
272.4254, 5669.993
272.9075, 5758.411
273.3896, 5804.762
273.8718, 5808.472
274.3539, 5794.761
274.8360, 5768.676
275.3181, 5715.194
275.8002, 5608.289
276.2823, 5441.167
276.7645, 5260.430
277.2466, 5077.262
277.7287, 4891.329
278.2108, 4698.419
278.6929, 4496.031
279.1750, 4289.956
279.6572, 4081.184
280.1393, 3867.634
280.6214, 3674.653
281.1035, 3512.862
281.5856, 3379.568
282.0677, 3254.458
282.5499, 3137.478
283.0320, 3028.967
283.5141, 2926.330
283.9962, 2829.449
284.4783, 2751.835
284.9604, 2703.739
285.4425, 2677.954
285.9247, 2639.840
286.4068, 2587.279
286.8889, 2536.726
287.3710, 2505.845
287.8531, 2493.535
288.3352, 2485.755
288.8174, 2477.142
289.2995, 2470.897
289.7816, 2477.955
290.2637, 2498.625
290.7458, 2526.157
291.2279, 2553.503
291.7101, 2581.840
292.1922, 2618.807
292.6743, 2669.851
293.1564, 2727.489
293.6385, 2771.780
294.1206, 2802.653
294.6028, 2838.132
295.0849, 2893.733
295.5670, 2966.201
296.0491, 3046.141
296.5312, 3133.071
297.0133, 3223.330
297.4955, 3310.790
297.9776, 3394.453
298.4597, 3479.251
298.9418, 3566.779
299.4239, 3657.285
299.9060, 3750.763
300.3882, 3846.167
300.8703, 3944.867
301.3524, 4047.679
301.8345, 4154.178
302.3166, 4262.035
302.7987, 4382.424
303.2809, 4500.142
303.7630, 4596.187
304.2451, 4667.888
304.7272, 4712.068
305.2093, 4726.815
305.6914, 4710.897
306.1736, 4660.912
306.6557, 4564.822
307.1378, 4437.523
307.6199, 4292.466
308.1020, 4126.559
308.5841, 3955.988
309.0663, 3785.990
309.5484, 3618.877
310.0305, 3466.488
310.5126, 3337.556
310.9947, 3221.549
311.4768, 3109.363
311.9590, 2998.189
312.4411, 2902.229
312.9232, 2837.424
313.4053, 2793.264
313.8874, 2753.559
314.3695, 2709.101
314.8517, 2668.088
315.3337, 2627.582
315.8159, 2584.222
316.2980, 2572.457
316.7801, 2641.849
317.2622, 2740.878
317.7443, 2807.035
318.2264, 2810.974
318.7086, 2785.632
319.1907, 2728.177
319.6728, 2637.623
320.1549, 2572.521
320.6370, 2562.311
321.1191, 2579.628
321.6013, 2600.079
322.0834, 2615.279
322.5655, 2635.932
323.0476, 2668.658
323.5297, 2712.451
324.0118, 2749.455
324.4940, 2765.829
324.9761, 2781.042
325.4582, 2807.968
325.9403, 2863.242
326.4224, 2912.927
326.9045, 2936.815
327.3867, 2943.974
327.8688, 2994.662
328.3509, 3147.110
328.8330, 3299.485
329.3151, 3404.719
329.7972, 3418.719
330.2794, 3447.923
330.7615, 3496.534
331.2436, 3561.272
331.7257, 3629.731
332.2078, 3691.950
332.6899, 3770.989
333.1721, 3879.084
333.6542, 4027.651
334.1363, 4173.872
334.6184, 4315.243
335.1005, 4456.512
335.5826, 4608.480
336.0648, 4769.926
336.5469, 4945.777
337.0290, 5140.123
337.5111, 5355.275
337.9932, 5576.656
338.4753, 5798.379
338.9575, 6033.445
339.4396, 6296.662
339.9217, 6585.438
340.4038, 6921.224
340.8859, 7330.627
341.3680, 7801.776
341.8502, 8242.698
342.3323, 8642.387
342.8144, 9022.396
343.2965, 9383.400
343.7786, 9728.608
344.2607, 10102.58
344.7429, 10524.19
345.2250, 10983.34
345.7071, 11451.88
346.1892, 11935.91
346.6713, 12432.15
347.1534, 12966.68
347.6355, 13526.23
348.1176, 14055.05
348.5998, 14541.38
349.0819, 15003.14
349.5640, 15466.61
350.0461, 15937.44
350.5282, 16410.97
351.0103, 16934.03
351.4925, 17452.54
351.9746, 17870.91
352.4567, 18168.90
352.9388, 18372.63
353.4209, 18486.42
353.9030, 18524.65
354.3852, 18528.73
354.8673, 18532.49
355.3494, 18508.13
355.8315, 18413.69
356.3136, 18240.15
356.7957, 18055.87
357.2779, 17916.16
357.7600, 17799.22
358.2421, 17672.12
358.7242, 17521.86
359.2063, 17355.81
359.6884, 17192.68
360.1706, 17031.66
360.6527, 16815.95
361.1348, 16521.29
361.6169, 16156.22
362.0990, 15733.14
362.5811, 15248.96
363.0633, 14709.61
363.5454, 14100.33
364.0275, 13429.48
364.5096, 12746.96
364.9917, 12031.34
365.4738, 11330.78
365.9560, 10670.30
366.4381, 10060.85
366.9202, 9491.936
367.4023, 8951.836
367.8844, 8448.184
368.3665, 8001.322
368.8487, 7631.028
369.3308, 7300.155
369.8129, 6998.311
370.2950, 6720.738
370.7771, 6487.619
371.2592, 6307.141
371.7414, 6167.407
372.2235, 6049.834
372.7056, 5959.093
373.1877, 5881.481
373.6698, 5809.355
374.1519, 5741.200
374.6341, 5711.673
375.1162, 5725.979
375.5983, 5770.970
376.0804, 5837.415
376.5625, 5927.656
377.0446, 6025.857
377.5267, 6127.855
378.0089, 6235.419
378.4910, 6351.423
378.9731, 6474.981
379.4552, 6609.615
379.9373, 6756.487
380.4194, 6916.790
380.9016, 7087.313
381.3837, 7271.312
381.8658, 7463.190
382.3479, 7653.425
382.8300, 7841.849
383.3121, 8035.760
383.7943, 8242.750
384.2764, 8455.807
384.7585, 8669.881
385.2406, 8887.384
385.7227, 9077.480
386.2048, 9213.507
386.6870, 9292.356
387.1691, 9305.558
387.6512, 9246.242
388.1333, 9119.842
388.6154, 8929.675
389.0975, 8675.972
389.5797, 8358.420
390.0618, 7946.052
390.5439, 7482.781
391.0260, 7026.244
391.5081, 6582.867
391.9902, 6165.196
392.4724, 5770.405
392.9545, 5403.364
393.4366, 5075.039
393.9187, 4806.757
394.4008, 4569.064
394.8829, 4335.778
395.3651, 4091.405
395.8472, 3880.111
396.3293, 3726.832
396.8114, 3611.783
397.2935, 3500.344
397.7756, 3376.013
398.2578, 3264.422
398.7399, 3174.536
399.2220, 3110.956
399.7041, 3049.836
400.1862, 2990.845
400.6683, 2934.311
401.1505, 2880.292
401.6326, 2826.252
402.1147, 2778.941
402.5968, 2740.666
403.0789, 2710.427
403.5610, 2679.665
404.0432, 2648.092
404.5253, 2616.582
405.0074, 2584.992
405.4895, 2552.295
405.9716, 2524.140
406.4537, 2501.756
406.9359, 2483.263
407.4180, 2463.791
407.9001, 2442.563
408.3822, 2426.541
408.8643, 2422.011
409.3464, 2427.025
409.8285, 2426.045
410.3106, 2418.355
410.7928, 2407.635
411.2749, 2396.365
411.7570, 2385.093
412.2391, 2376.616
412.7212, 2373.335
413.2033, 2372.275
413.6855, 2367.677
414.1676, 2360.004
414.6497, 2353.863
415.1318, 2351.842
415.6139, 2353.739
416.0960, 2360.503
416.5782, 2375.815
417.0603, 2388.839
417.5424, 2388.932
418.0245, 2380.010
418.5066, 2371.613
418.9887, 2363.807
419.4709, 2360.984
419.9530, 2367.727
420.4351, 2386.316
420.9172, 2403.606
421.3993, 2414.373
421.8814, 2421.620
422.3636, 2428.664
422.8457, 2430.481
423.3278, 2438.223
423.8099, 2456.400
424.2920, 2484.708
424.7741, 2512.585
425.2563, 2543.365
425.7384, 2570.765
426.2205, 2590.113
426.7026, 2592.316
427.1847, 2602.643
427.6668, 2620.720
428.1490, 2647.522
428.6311, 2686.971
429.1132, 2745.114
429.5953, 2802.984
430.0774, 2850.234
430.5595, 2885.887
431.0417, 2934.968
431.5238, 2998.931
432.0059, 3072.171
432.4880, 3146.188
432.9701, 3221.050
433.4522, 3310.122
433.9344, 3422.337
434.4165, 3547.834
434.8986, 3662.484
435.3807, 3767.042
435.8628, 3881.206
436.3449, 4026.546
436.8271, 4191.277
437.3092, 4344.198
437.7913, 4471.999
438.2734, 4613.520
438.7555, 4819.521
439.2376, 5069.690
439.7197, 5317.422
440.2018, 5524.364
440.6840, 5730.948
441.1661, 5972.064
441.6482, 6247.112
442.1303, 6532.969
442.6124, 6811.263
443.0945, 7098.583
443.5767, 7406.795
444.0588, 7759.120
444.5409, 8113.285
445.0230, 8461.903
445.5051, 8805.935
445.9872, 9142.313
446.4694, 9483.570
446.9515, 9805.202
447.4336, 10099.36
447.9157, 10371.36
448.3978, 10603.99
448.8799, 10798.41
449.3621, 10951.51
449.8442, 11053.44
450.3263, 11090.08
450.8084, 11106.04
451.2905, 11105.96
451.7726, 11091.69
452.2548, 11073.13
452.7369, 11042.56
453.2190, 11030.72
453.7011, 11069.55
454.1832, 11158.41
454.6653, 11234.52
455.1475, 11290.17
455.6296, 11335.38
456.1117, 11396.77
456.5938, 11469.01
457.0759, 11515.82
457.5580, 11531.78
458.0402, 11506.74
458.5223, 11423.80
459.0044, 11282.14
459.4865, 11083.05
459.9686, 10817.61
460.4507, 10497.37
460.9329, 10129.15
461.4150, 9703.670
461.8971, 9259.549
462.3792, 8802.379
462.8613, 8344.074
463.3434, 7904.297
463.8256, 7496.737
464.3077, 7112.423
464.7898, 6743.063
465.2719, 6388.663
465.7540, 6050.596
466.2361, 5720.785
466.7183, 5407.178
467.2004, 5123.339
467.6825, 4876.148
468.1646, 4652.053
468.6467, 4450.042
469.1288, 4269.187
469.6110, 4102.142
470.0930, 3947.628
470.5752, 3807.434
471.0573, 3683.169
471.5394, 3578.782
472.0215, 3475.708
472.5036, 3373.384
472.9857, 3272.498
473.4679, 3170.193
473.9500, 3066.920
474.4321, 2978.155
474.9142, 2913.801
475.3963, 2866.715
475.8784, 2817.151
476.3606, 2765.193
476.8427, 2712.019
477.3248, 2658.627
477.8069, 2605.234
478.2890, 2551.555
478.7711, 2495.696
479.2533, 2444.703
479.7354, 2405.992
480.2175, 2377.010
480.6996, 2352.099
481.1817, 2329.767
481.6638, 2310.019
482.1460, 2293.902
482.6281, 2281.548
483.1102, 2268.216
483.5923, 2253.358
484.0744, 2236.079
484.5565, 2215.594
485.0387, 2188.814
485.5208, 2162.431
486.0029, 2133.820
486.4850, 2105.881
486.9671, 2086.210
487.4492, 2079.196
487.9314, 2074.711
488.4135, 2070.380
488.8956, 2066.578
489.3777, 2059.518
489.8598, 2048.001
490.3419, 2035.661
490.8241, 2026.111
491.3062, 2019.561
491.7883, 2013.465
492.2704, 2008.394
492.7525, 2002.210
493.2346, 1986.952
493.7168, 1963.886
494.1989, 1945.373
494.6810, 1942.644
495.1631, 1948.339
495.6452, 1947.693
496.1273, 1939.619
496.6095, 1930.743
497.0916, 1927.406
497.5737, 1926.754
498.0558, 1924.706
498.5379, 1917.598
499.0201, 1911.645
499.5022, 1913.891
499.9843, 1920.795
500.4664, 1921.148
500.9485, 1907.377
501.4306, 1889.266
501.9127, 1869.060
502.3948, 1843.466
502.8770, 1829.086
503.3591, 1836.916
503.8412, 1851.067
504.3233, 1856.798
504.8054, 1845.709
505.2875, 1840.554
505.7697, 1834.649
506.2518, 1853.363
506.7339, 1862.919
507.2160, 1863.809
507.6981, 1830.078
508.1802, 1841.053
508.6624, 1834.112
509.1445, 1826.436
509.6266, 1843.703
510.1087, 1815.008
510.5908, 1831.880
511.0729, 1830.059
511.5551, 1833.742
512.0372, 1817.810
512.5193, 1797.338
513.0014, 1792.241
513.4835, 1799.072
513.9656, 1805.795
514.4478, 1803.500
514.9299, 1799.764
515.4120, 1801.523
515.8941, 1810.390
516.3762, 1817.591
516.8583, 1817.976
517.3405, 1815.567
517.8226, 1814.230
518.3047, 1817.202
518.7868, 1818.362
519.2689, 1814.547
519.7510, 1807.941
520.2332, 1805.887
520.7153, 1810.601
521.1974, 1816.743
521.6795, 1823.538
522.1616, 1831.712
522.6437, 1833.139
523.1259, 1826.149
523.6080, 1816.210
524.0901, 1807.923
524.5722, 1801.265
525.0543, 1798.515
525.5364, 1801.476
526.0186, 1806.095
526.5007, 1803.066
526.9828, 1794.030
527.4649, 1788.267
527.9470, 1795.494
528.4291, 1806.749
528.9113, 1809.156
529.3934, 1802.195
529.8755, 1795.941
530.3576, 1799.613
530.8397, 1806.090
531.3218, 1807.923
531.8040, 1799.732
532.2861, 1791.994
532.7682, 1759.975
533.2503, 1788.381
533.7324, 1807.628
534.2145, 1818.209
534.6967, 1794.171
535.1788, 1814.837
535.6609, 1817.587
536.1430, 1819.603
536.6251, 1846.562
537.1072, 1835.295
537.5894, 1840.290
538.0715, 1833.323
538.5536, 1827.681
539.0357, 1825.460
539.5178, 1822.927
539.9999, 1808.567
540.4821, 1784.368
540.9642, 1772.990
541.4463, 1791.877
541.9284, 1824.099
542.4105, 1837.540
542.8926, 1833.851
543.3748, 1827.359
543.8569, 1825.546
544.3390, 1827.410
544.8211, 1832.651
545.3032, 1842.319
545.7853, 1851.110
546.2675, 1857.364
546.7495, 1860.899
547.2316, 1861.493
547.7137, 1853.943
548.1959, 1849.124
548.6780, 1852.893
549.1601, 1862.788
549.6422, 1863.982
550.1243, 1848.773
550.6064, 1835.197
551.0886, 1830.762
551.5707, 1836.486
552.0528, 1845.740
552.5349, 1860.904
553.0170, 1873.938
553.4991, 1873.338
553.9813, 1859.871
554.4634, 1851.462
554.9455, 1853.292
555.4276, 1858.967
555.9097, 1857.454
556.3918, 1850.225
556.8740, 1843.236
557.3561, 1838.918
557.8382, 1836.881
558.3203, 1837.104
558.8024, 1839.548
559.2845, 1842.971
559.7667, 1849.258
560.2488, 1854.764
560.7309, 1856.361
561.2130, 1851.252
561.6951, 1846.248
562.1772, 1842.031
562.6594, 1838.790
563.1415, 1836.851
563.6236, 1837.368
564.1057, 1837.091
564.5878, 1833.221
565.0699, 1827.473
565.5521, 1833.830
566.0342, 1857.529
566.5163, 1876.513
566.9984, 1874.971
567.4805, 1854.643
567.9626, 1834.258
568.4448, 1812.494
568.9269, 1801.171
569.4090, 1824.518
569.8911, 1868.181
570.3732, 1895.985
570.8553, 1892.334
571.3375, 1877.264
571.8196, 1863.655
572.3017, 1852.736
572.7838, 1848.114
573.2659, 1858.355
573.7480, 1869.099
574.2302, 1870.594
574.7123, 1861.684
575.1944, 1860.490
575.6765, 1881.372
576.1586, 1902.406
576.6407, 1910.671
577.1229, 1899.075
577.6050, 1889.507
578.0871, 1883.208
578.5692, 1877.742
579.0513, 1866.780
579.5334, 1848.214
580.0156, 1841.546
580.4977, 1856.691
580.9798, 1883.517
581.4619, 1895.145
581.9440, 1892.662
582.4261, 1888.045
582.9083, 1889.893
583.3904, 1893.817
583.8725, 1892.417
584.3546, 1884.964
584.8367, 1878.389
585.3188, 1875.536
585.8010, 1876.581
586.2831, 1882.248
586.7652, 1899.234
587.2473, 1910.880
587.7294, 1909.971
588.2115, 1901.386
588.6937, 1894.644
589.1758, 1887.862
589.6579, 1886.389
590.1400, 1894.342
590.6221, 1909.886
591.1042, 1915.073
591.5864, 1906.477
592.0685, 1898.144
592.5506, 1899.494
593.0327, 1909.703
593.5148, 1920.492
593.9969, 1932.497
594.4791, 1939.806
594.9612, 1928.143
595.4433, 1907.572
595.9254, 1903.392
596.4075, 1934.228
596.8896, 1962.200
597.3718, 1941.848
597.8539, 1895.538
598.3360, 1870.921
598.8181, 1915.139
599.3002, 1958.246
599.7823, 1966.397
600.2645, 1939.514
600.7466, 1920.909
601.2287, 1918.167
601.7108, 1920.189
602.1929, 1921.547
602.6750, 1920.666
603.1572, 1926.301
603.6393, 1941.706
604.1214, 1957.646
604.6035, 1963.364
605.0856, 1958.997
605.5677, 1949.785
606.0499, 1932.725
606.5320, 1918.571
607.0141, 1933.598
607.4962, 1968.463
607.9783, 1990.750
608.4604, 1969.165
