##NAMES=Talnakhite
##RRUFFID=R060389
##IDEAL CHEMISTRY=Cu_9_Fe_8_S_16_
##LOCALITY=Oktyabrskiy mine, Talnakh, Noril'sk Region, Siberia, U.S.S.R.
##OWNER=RRUFF
##SOURCE=Michael Scott
##DESCRIPTION=Bronze metallic massive, associated with cubanite. We can not tell the difference between them by eye.
##STATUS=The identification of this mineral has been confirmed by X-ray diffraction and chemical analysis
##URL=rruff.info/R060389
##MEASURED CHEMISTRY=(Cu_8.70_Ni_0.30_)_Î£=9_Fe_9.00_S_16.00_
151.3521, 35.87543
151.8342, 36.27149
152.3164, 36.19658
152.7985, 35.71074
153.2806, 35.27023
153.7627, 35.31936
154.2448, 35.87234
154.7269, 36.18714
155.2091, 36.09949
155.6912, 35.76808
156.1733, 35.08062
156.6554, 34.09912
157.1375, 33.21784
157.6196, 33.06537
158.1018, 34.12589
158.5839, 34.47165
159.0660, 33.29869
159.5481, 31.95090
160.0302, 31.29409
160.5123, 31.52874
160.9945, 32.22927
161.4766, 32.65245
161.9587, 32.60531
162.4408, 32.54075
162.9229, 32.40340
163.4050, 32.27992
163.8871, 32.21280
164.3693, 32.22023
164.8514, 32.35891
165.3335, 32.79720
165.8156, 34.17745
166.2977, 34.95620
166.7798, 34.51945
167.2620, 33.46249
167.7441, 32.68835
168.2262, 32.60564
168.7083, 32.99682
169.1904, 33.28413
169.6725, 33.54137
170.1547, 33.61579
170.6368, 33.36971
171.1189, 32.87065
171.6010, 32.31099
172.0831, 31.65206
172.5652, 31.10787
173.0474, 31.04677
173.5295, 31.66987
174.0116, 32.38826
174.4937, 32.71317
174.9758, 32.64655
175.4579, 32.64289
175.9401, 33.06146
176.4222, 33.55986
176.9043, 33.77713
177.3864, 33.63649
177.8685, 33.23050
178.3506, 32.54460
178.8328, 31.40617
179.3149, 30.61947
179.7970, 30.94199
180.2791, 31.50520
180.7612, 31.43746
181.2433, 30.32894
181.7255, 28.80737
182.2076, 28.29268
182.6897, 29.46041
183.1718, 30.43596
183.6539, 30.89384
184.1360, 30.97439
184.6181, 30.69061
185.1003, 30.01461
185.5824, 29.18475
186.0645, 29.08749
186.5466, 30.87396
187.0287, 31.99284
187.5108, 31.72009
187.9930, 30.70791
188.4751, 29.73102
188.9572, 29.21647
189.4393, 29.12353
189.9214, 29.25590
190.4035, 29.93216
190.8857, 30.47937
191.3678, 30.85339
191.8499, 31.00626
192.3320, 30.82058
192.8141, 30.17992
193.2962, 29.17352
193.7784, 28.49724
194.2605, 28.07667
194.7426, 27.96076
195.2247, 28.43325
195.7068, 29.27470
196.1889, 29.87099
196.6711, 29.81522
197.1532, 29.20746
197.6353, 28.68996
198.1174, 28.18898
198.5995, 27.82800
199.0816, 27.67313
199.5638, 27.71821
200.0459, 27.96258
200.5280, 28.61096
201.0101, 29.38208
201.4922, 29.50115
201.9743, 28.31686
202.4565, 27.10346
202.9386, 27.09246
203.4207, 28.31620
203.9028, 29.57172
204.3849, 30.43314
204.8670, 30.82491
205.3492, 30.52140
205.8313, 29.09829
206.3134, 27.46122
206.7955, 26.80729
207.2776, 27.32015
207.7597, 27.96614
208.2419, 28.42132
208.7240, 28.71460
209.2061, 28.83420
209.6882, 28.75880
210.1703, 28.54490
210.6524, 28.23948
211.1346, 27.74239
211.6167, 27.42759
212.0988, 27.60526
212.5809, 27.92046
213.0630, 27.97251
213.5451, 27.55973
214.0273, 26.97683
214.5094, 26.96317
214.9915, 28.03722
215.4736, 28.73685
215.9557, 28.57597
216.4378, 28.05783
216.9200, 27.66402
217.4021, 27.60965
217.8842, 27.79236
218.3663, 27.94654
218.8484, 28.19786
219.3305, 28.21073
219.8127, 27.74279
220.2948, 27.12103
220.7769, 26.68636
221.2590, 26.59397
221.7411, 26.75175
222.2232, 26.88577
222.7054, 26.81566
223.1875, 26.95494
223.6696, 27.60053
224.1517, 28.37186
224.6338, 28.74884
225.1159, 28.49734
225.5980, 27.90776
226.0802, 27.82746
226.5623, 29.07503
227.0444, 29.86364
227.5265, 29.81995
228.0086, 29.31472
228.4907, 28.74887
228.9729, 28.27789
229.4550, 27.94892
229.9371, 27.92039
230.4192, 28.42721
230.9013, 28.84661
231.3834, 29.11457
231.8656, 29.23112
232.3477, 29.12297
232.8298, 28.72151
233.3119, 28.24671
233.7940, 28.25128
234.2761, 28.95839
234.7583, 29.48402
235.2404, 29.42920
235.7225, 29.07602
236.2046, 28.96498
236.6867, 29.33513
237.1688, 29.85240
237.6510, 29.85776
238.1331, 29.27094
238.6152, 28.80980
239.0973, 28.71672
239.5794, 28.91806
240.0615, 29.35544
240.5437, 30.16968
241.0258, 30.88528
241.5079, 30.68765
241.9900, 29.58376
242.4721, 28.72718
242.9542, 28.79915
243.4364, 29.48572
243.9185, 29.99917
244.4006, 30.19120
244.8827, 30.16307
245.3648, 29.92920
245.8469, 29.52473
246.3290, 29.24253
246.8112, 29.27307
247.2933, 29.54012
247.7754, 29.81907
248.2575, 30.08818
248.7396, 30.35736
249.2217, 30.81501
249.7039, 31.33840
250.1860, 31.45922
250.6681, 30.53019
251.1502, 28.92853
251.6323, 28.11061
252.1144, 28.51326
252.5966, 29.12400
253.0787, 29.42953
253.5608, 29.46986
254.0429, 29.31891
254.5250, 28.89081
255.0071, 28.29711
255.4893, 27.98068
255.9714, 28.04775
256.4535, 28.24827
256.9356, 28.48307
257.4177, 28.74719
257.8998, 29.03080
258.3820, 29.31510
258.8641, 29.61989
259.3462, 30.07182
259.8283, 30.98413
260.3104, 31.49112
260.7925, 31.21234
261.2747, 30.46868
261.7568, 29.62944
262.2389, 28.82242
262.7210, 28.12711
263.2031, 27.78538
263.6852, 27.95583
264.1674, 28.24072
264.6495, 28.78118
265.1316, 29.27404
265.6137, 29.29307
266.0958, 28.62650
266.5779, 27.65823
267.0601, 27.33415
267.5422, 28.05771
268.0243, 28.73727
268.5064, 29.24114
268.9885, 29.62172
269.4706, 29.86961
269.9528, 29.99027
270.4349, 30.10250
270.9170, 30.49511
271.3991, 31.55515
271.8812, 32.09846
272.3633, 31.70273
272.8455, 31.07125
273.3276, 30.71228
273.8097, 30.75687
274.2918, 31.03313
274.7739, 31.33709
275.2560, 31.88763
275.7382, 31.95819
276.2202, 31.20353
276.7024, 30.33295
277.1845, 29.72089
277.6666, 29.45309
278.1487, 29.47140
278.6308, 29.76045
279.1129, 30.50035
279.5951, 30.86833
280.0772, 30.57008
280.5593, 30.22455
281.0414, 30.23166
281.5235, 30.54069
282.0056, 30.78662
282.4878, 30.59134
282.9699, 29.86229
283.4520, 29.35400
283.9341, 29.26844
284.4162, 29.17196
284.8983, 28.91765
285.3805, 28.50543
285.8626, 27.96455
286.3447, 27.28844
286.8268, 26.48573
287.3089, 25.94651
287.7910, 25.93451
288.2732, 25.88122
288.7553, 25.47744
289.2374, 24.92373
289.7195, 24.65665
290.2016, 24.96896
290.6837, 25.71641
291.1659, 26.09503
291.6480, 25.70327
292.1301, 25.41212
292.6122, 25.58789
293.0943, 25.89179
293.5764, 25.73368
294.0586, 24.82224
294.5407, 23.55105
295.0228, 22.98532
295.5049, 23.87358
295.9870, 24.58954
296.4691, 25.05280
296.9513, 25.32745
297.4334, 25.45512
297.9155, 25.45304
298.3976, 25.36371
298.8797, 25.24746
299.3618, 25.01004
299.8440, 24.94406
300.3261, 25.24556
300.8082, 25.59263
301.2903, 25.70062
301.7724, 25.52732
302.2545, 25.26858
302.7367, 25.17785
303.2188, 25.37261
303.7009, 25.22778
304.1830, 24.34163
304.6651, 23.47253
305.1472, 23.03119
305.6294, 23.05580
306.1115, 23.47328
306.5936, 24.30633
307.0757, 25.60242
307.5578, 26.30418
308.0399, 26.19418
308.5221, 25.82953
309.0042, 25.37430
309.4863, 24.85575
309.9684, 24.23581
310.4505, 23.44123
310.9326, 22.56283
311.4148, 22.29449
311.8969, 23.39346
312.3790, 24.13107
312.8611, 23.68563
313.3432, 22.68294
313.8253, 22.18048
314.3075, 22.68052
314.7896, 23.81500
315.2717, 24.66216
315.7538, 25.32920
316.2359, 25.54560
316.7180, 24.89662
317.2001, 23.95673
317.6823, 23.41474
318.1644, 23.45811
318.6465, 23.67247
319.1286, 23.39221
319.6107, 22.14923
320.0928, 21.59055
320.5750, 22.34279
321.0571, 23.32392
321.5392, 23.71813
322.0213, 23.43621
322.5034, 22.86182
322.9855, 22.34515
323.4677, 21.87436
323.9498, 21.57377
324.4319, 21.46711
324.9140, 21.47687
325.3961, 21.57172
325.8782, 21.74956
326.3604, 22.05417
326.8425, 22.55625
327.3246, 23.20903
327.8067, 23.47242
328.2888, 22.92994
328.7709, 22.52912
329.2531, 22.70933
329.7352, 23.15559
330.2173, 23.26589
330.6994, 22.73177
331.1815, 21.88792
331.6636, 21.64194
332.1458, 22.82745
332.6279, 23.59739
333.1100, 23.73098
333.5921, 23.50472
334.0742, 23.13574
334.5563, 22.70104
335.0385, 22.22450
335.5206, 21.73445
336.0027, 21.17627
336.4848, 20.75850
336.9669, 20.30375
337.4490, 20.10216
337.9312, 20.51152
338.4133, 21.43722
338.8954, 22.38296
339.3775, 22.90152
339.8596, 22.97650
340.3417, 22.82255
340.8239, 22.08625
341.3060, 21.51698
341.7881, 21.52731
342.2702, 21.90281
342.7523, 22.17126
343.2344, 22.02869
343.7166, 21.57990
344.1987, 21.33651
344.6808, 21.57071
345.1629, 21.71066
345.6450, 21.74670
346.1271, 21.64589
346.6093, 21.25736
347.0914, 20.55227
347.5735, 19.83540
348.0556, 19.74710
348.5377, 20.91048
349.0198, 21.57485
349.5020, 21.55703
349.9841, 21.25407
350.4662, 20.80269
350.9483, 20.29547
351.4304, 19.90304
351.9125, 19.86033
352.3947, 20.26253
352.8768, 20.37567
353.3589, 19.75388
353.8410, 19.28759
354.3231, 19.46543
354.8052, 20.04288
355.2874, 20.42787
355.7695, 20.15852
356.2516, 19.42766
356.7337, 19.37468
357.2158, 20.79889
357.6979, 21.82444
358.1800, 22.04211
358.6621, 21.74900
359.1443, 21.15536
359.6264, 20.34403
360.1085, 19.56679
360.5906, 19.29962
361.0727, 19.71143
361.5548, 20.20949
362.0370, 21.17963
362.5191, 21.87944
363.0012, 21.54168
363.4833, 20.26661
363.9654, 19.07192
364.4475, 19.17462
364.9297, 20.68890
365.4118, 21.56547
365.8939, 21.31758
366.3760, 20.91888
366.8581, 20.62045
367.3402, 20.47440
367.8224, 20.57026
368.3045, 21.05807
368.7866, 21.74294
369.2687, 22.00984
369.7508, 21.66759
370.2329, 21.32083
370.7151, 21.22547
371.1972, 21.20263
371.6793, 21.05781
372.1614, 20.72489
372.6435, 20.35295
373.1256, 20.11344
373.6078, 20.01019
374.0899, 19.99950
374.5720, 20.24892
375.0541, 20.42401
375.5362, 20.20230
376.0183, 19.62114
376.5005, 19.08647
376.9826, 18.96509
377.4647, 19.11761
377.9468, 18.96688
378.4289, 18.30384
378.9110, 17.72849
379.3932, 17.64244
379.8753, 17.92198
380.3574, 18.39590
380.8395, 19.16069
381.3216, 19.95954
381.8037, 20.52789
382.2859, 20.86884
382.7680, 20.88322
383.2501, 20.25667
383.7322, 19.45455
384.2143, 19.30318
384.6964, 20.06226
385.1786, 20.60665
385.6607, 19.94279
386.1428, 18.56322
386.6249, 17.83910
387.1070, 18.20153
387.5891, 18.96407
388.0713, 19.38379
388.5534, 19.49460
389.0355, 19.55592
389.5176, 19.63282
389.9997, 19.67564
390.4818, 19.60990
390.9640, 19.43904
391.4461, 19.26869
391.9282, 19.16815
392.4103, 19.12921
392.8924, 19.09331
393.3745, 19.03374
393.8567, 19.00538
394.3388, 19.07509
394.8209, 19.18617
395.3030, 19.22669
395.7851, 19.15343
396.2672, 19.00117
396.7494, 18.81421
397.2315, 18.52013
397.7136, 18.37792
398.1957, 18.44500
398.6778, 18.63590
399.1599, 19.05814
399.6420, 19.62215
400.1241, 19.84599
400.6063, 19.21207
401.0884, 17.67409
401.5705, 16.81132
402.0526, 16.96458
402.5347, 17.30679
403.0168, 17.82292
403.4990, 18.31442
403.9811, 18.40863
404.4632, 17.91801
404.9453, 17.17261
405.4274, 16.99924
405.9095, 17.86649
406.3917, 18.53632
406.8738, 18.99581
407.3559, 19.24903
407.8380, 19.24511
408.3201, 19.01331
408.8022, 18.69171
409.2844, 18.41484
409.7665, 18.18982
410.2486, 17.89963
410.7307, 17.17293
411.2128, 16.80787
411.6949, 17.45473
412.1771, 18.53074
412.6592, 19.00897
413.1413, 18.28088
413.6234, 17.03314
414.1055, 16.87789
414.5876, 18.30129
415.0698, 19.33239
415.5519, 19.16649
416.0340, 18.66931
416.5161, 18.39223
416.9982, 18.40258
417.4803, 18.45696
417.9625, 18.39815
418.4446, 18.22114
418.9267, 17.78824
419.4088, 16.74915
419.8909, 16.09138
420.3730, 16.96025
420.8552, 18.61782
421.3373, 19.50341
421.8194, 18.66787
422.3015, 17.28141
422.7836, 16.86174
423.2657, 17.39441
423.7479, 17.60711
424.2300, 16.70164
424.7121, 15.47857
425.1942, 15.20202
425.6763, 16.00690
426.1584, 17.00375
426.6406, 18.11703
427.1227, 19.09098
427.6048, 19.35554
428.0869, 18.77731
428.5690, 18.04847
429.0511, 17.83257
429.5333, 18.12834
430.0154, 18.14158
430.4975, 17.32137
430.9796, 16.73443
431.4617, 17.34029
431.9438, 18.67691
432.4260, 19.47636
432.9081, 19.09074
433.3902, 18.01495
433.8723, 17.40753
434.3544, 17.50287
434.8365, 17.71400
435.3187, 18.20364
435.8008, 18.68213
436.2829, 18.82235
436.7650, 18.64514
437.2471, 18.51846
437.7292, 18.83587
438.2114, 19.62150
438.6935, 19.92669
439.1756, 19.35520
439.6577, 18.73456
440.1398, 18.13277
440.6219, 17.62964
441.1040, 17.37011
441.5862, 17.41421
442.0683, 17.55903
442.5504, 17.33911
443.0325, 16.45062
443.5146, 16.13591
443.9967, 17.18654
444.4789, 18.26326
444.9610, 18.64648
445.4431, 18.40065
445.9252, 18.00475
446.4073, 17.72680
446.8894, 17.57954
447.3716, 17.63968
447.8537, 17.98008
448.3358, 18.34652
448.8179, 18.82899
449.3000, 19.19270
449.7821, 19.07276
450.2643, 18.29763
450.7464, 17.49857
451.2285, 17.25852
451.7106, 17.48149
452.1927, 17.70756
452.6748, 17.85640
453.1570, 17.96623
453.6391, 18.06790
454.1212, 18.16183
454.6033, 18.24560
455.0854, 18.44079
455.5675, 18.53517
456.0497, 18.15522
456.5318, 17.41275
457.0139, 16.98715
457.4960, 17.27085
457.9781, 18.03817
458.4602, 18.76053
458.9424, 19.81142
459.4245, 20.09334
459.9066, 18.55395
460.3887, 16.63242
460.8708, 15.95390
461.3529, 16.66977
461.8351, 17.65722
462.3172, 17.82667
462.7993, 17.13469
463.2814, 16.96315
463.7635, 18.09855
464.2456, 18.81649
464.7278, 18.27509
465.2099, 17.19370
465.6920, 16.67626
466.1741, 17.13158
466.6562, 17.90944
467.1383, 17.76414
467.6205, 16.10794
468.1026, 15.36514
468.5847, 16.71784
469.0668, 18.01114
469.5489, 18.10123
470.0310, 17.29495
470.5132, 16.61347
470.9953, 16.76202
471.4774, 17.37752
471.9595, 17.42076
472.4416, 16.64700
472.9237, 16.21785
473.4059, 16.97164
473.8880, 18.00366
474.3701, 18.50127
474.8522, 18.36482
475.3343, 18.00962
475.8164, 17.49341
476.2986, 16.97577
476.7807, 16.94508
477.2628, 17.54354
477.7449, 18.15752
478.2270, 18.36166
478.7091, 18.18826
479.1913, 17.84726
479.6734, 16.98700
480.1555, 16.36338
480.6376, 16.59239
481.1197, 17.31752
481.6018, 17.78499
482.0839, 17.74508
482.5660, 17.44410
483.0482, 17.19071
483.5303, 16.95120
484.0124, 16.93225
484.4945, 17.37576
484.9766, 17.79856
485.4587, 17.89028
485.9409, 17.74964
486.4230, 17.67285
486.9051, 17.83458
487.3872, 18.11790
487.8693, 18.14602
488.3514, 17.56706
488.8336, 17.41088
489.3157, 18.23277
489.7978, 19.05518
490.2799, 19.13729
490.7620, 18.53305
491.2441, 17.84293
491.7263, 17.53467
492.2084, 17.54042
492.6905, 17.49409
493.1726, 17.26282
493.6547, 17.30121
494.1368, 18.34857
494.6190, 19.49087
495.1011, 19.66562
495.5832, 18.59348
496.0653, 17.32427
496.5474, 16.49884
497.0295, 16.10255
497.5117, 16.22761
497.9938, 17.01709
498.4759, 17.78243
498.9580, 17.89432
499.4401, 17.47129
499.9222, 17.20727
500.4044, 17.38348
500.8865, 17.47958
501.3686, 17.03171
501.8507, 16.33388
502.3328, 16.04521
502.8149, 16.40195
503.2971, 17.00352
503.7792, 17.28839
504.2613, 17.16877
504.7434, 17.02621
505.2255, 16.85771
505.7076, 16.67237
506.1898, 16.31686
506.6719, 15.96476
507.1540, 16.01176
507.6361, 16.68366
508.1182, 17.66982
508.6003, 18.27262
509.0825, 18.46912
509.5646, 18.34119
510.0467, 17.54613
510.5288, 16.72840
511.0109, 16.14926
511.4930, 15.84759
511.9752, 15.84992
512.4573, 16.37696
512.9394, 17.09010
513.4215, 17.08158
513.9036, 16.20478
514.3857, 15.52989
514.8679, 15.46629
515.3500, 15.82823
515.8321, 16.51824
516.3142, 17.62480
516.7963, 18.21769
517.2784, 17.27031
517.7606, 15.86653
518.2427, 15.75201
518.7248, 17.00851
519.2069, 18.15150
519.6890, 18.18885
520.1711, 17.31549
520.6533, 16.48340
521.1354, 15.18898
521.6175, 14.57843
522.0996, 15.41250
522.5817, 16.69083
523.0638, 17.49327
523.5460, 17.63032
524.0281, 17.27967
524.5102, 16.49075
524.9923, 15.29638
525.4744, 14.88623
525.9565, 16.03784
526.4387, 16.98672
526.9208, 17.27684
527.4029, 17.25309
527.8850, 17.24941
528.3671, 17.35756
528.8492, 17.52488
529.3314, 17.81635
529.8135, 18.18427
530.2956, 18.04656
530.7777, 17.03360
531.2598, 16.21776
531.7419, 16.64620
532.2241, 17.63292
532.7062, 18.03185
533.1883, 17.37902
533.6704, 16.63288
534.1525, 16.50834
534.6346, 16.77263
535.1168, 16.83841
535.5989, 16.55579
536.0810, 16.26400
536.5631, 16.34457
537.0452, 16.82042
537.5273, 17.03960
538.0095, 16.64146
538.4916, 16.41312
538.9737, 16.89350
539.4558, 17.64425
539.9379, 17.91503
540.4200, 17.49240
540.9022, 16.92345
541.3843, 17.01681
541.8664, 17.93607
542.3485, 18.59165
542.8306, 18.72678
543.3127, 18.86165
543.7948, 19.23836
544.2769, 19.69449
544.7590, 20.00375
545.2411, 20.09602
545.7233, 19.94508
546.2054, 19.33895
546.6875, 18.32972
547.1696, 17.73747
547.6517, 17.74479
548.1339, 18.07641
548.6160, 18.72843
549.0981, 19.54735
549.5802, 20.07619
550.0623, 20.13104
550.5444, 19.97635
551.0266, 19.69800
551.5087, 19.34486
551.9908, 18.98989
552.4729, 18.64898
552.9550, 18.43179
553.4371, 18.48349
553.9193, 18.84076
554.4014, 19.26870
554.8835, 20.22798
555.3656, 20.74368
555.8477, 20.12181
556.3298, 18.94567
556.8120, 18.10534
557.2941, 17.91626
557.7762, 17.98228
558.2583, 17.68450
558.7404, 16.94401
559.2225, 16.51597
559.7047, 16.52757
560.1868, 16.73610
560.6689, 17.14511
561.1510, 17.62137
561.6331, 17.96078
562.1152, 18.12222
562.5974, 18.07069
563.0795, 17.67915
563.5616, 17.03420
564.0437, 16.42064
564.5258, 15.86997
565.0079, 15.45764
565.4901, 15.23344
565.9722, 15.21829
566.4543, 15.44110
566.9364, 16.17871
567.4185, 16.83591
567.9006, 17.15470
568.3828, 17.26717
568.8649, 17.45502
569.3470, 17.75494
569.8291, 17.77929
570.3112, 16.91814
570.7933, 15.05481
571.2755, 14.39509
571.7576, 16.17285
572.2397, 17.63354
572.7218, 18.00384
573.2039, 17.78407
573.6860, 17.50617
574.1682, 17.30793
574.6503, 17.11985
575.1324, 16.75472
575.6145, 16.31935
576.0966, 16.36501
576.5787, 17.03819
577.0609, 17.75419
577.5430, 18.23031
578.0251, 18.46753
578.5072, 18.50096
578.9893, 18.28085
579.4714, 17.97042
579.9536, 17.45547
580.4357, 16.97631
580.9178, 16.89291
581.3999, 17.20591
581.8820, 17.58395
582.3641, 17.78446
582.8463, 17.82752
583.3284, 17.83834
583.8105, 17.96322
584.2926, 17.82692
584.7747, 17.03336
585.2568, 16.25959
585.7390, 16.14814
586.2211, 16.61540
586.7032, 17.00091
587.1853, 16.74805
587.6674, 16.13922
588.1495, 15.96076
588.6317, 16.26771
589.1138, 16.69743
589.5959, 17.36362
590.0780, 17.87591
590.5601, 17.58381
591.0422, 16.50463
591.5244, 15.92516
592.0065, 16.76662
592.4886, 17.86033
592.9707, 18.15783
593.4528, 17.77571
593.9349, 17.19987
594.4171, 16.62009
594.8992, 16.13153
595.3813, 15.89571
595.8634, 15.92803
596.3455, 16.18914
596.8276, 17.12064
597.3098, 17.78708
597.7919, 17.52169
598.2740, 16.79367
598.7561, 16.48467
599.2382, 16.97219
599.7203, 17.62040
600.2025, 17.47201
600.6846, 16.55473
601.1667, 15.91680
601.6488, 15.67274
602.1309, 15.69947
602.6130, 16.14919
603.0952, 16.78236
603.5773, 17.05630
604.0594, 16.63836
604.5415, 16.35824
605.0236, 17.01422
605.5057, 17.93329
605.9879, 17.79546
606.4700, 16.51148
606.9521, 15.51767
607.4342, 16.12263
607.9163, 18.02875
608.3984, 18.96780
608.8806, 17.97487
609.3627, 17.30510
609.8448, 17.37500
610.3269, 17.65632
610.8090, 17.80339
611.2911, 17.76015
611.7733, 17.56750
612.2554, 17.18545
612.7375, 16.73458
613.2196, 16.43897
613.7017, 16.28129
614.1838, 16.52502
614.6660, 17.58198
615.1481, 18.67249
615.6302, 18.76398
616.1123, 17.93467
616.5944, 17.22799
617.0765, 16.78407
617.5587, 16.59572
618.0408, 16.80337
618.5229, 17.24607
619.0050, 17.55715
619.4871, 17.61172
619.9692, 17.64454
620.4514, 18.06162
620.9335, 19.02163
621.4156, 19.14770
621.8977, 17.31390
622.3798, 15.97137
622.8619, 15.91497
623.3441, 16.58877
623.8262, 17.53837
624.3083, 18.62480
624.7904, 19.38280
625.2725, 19.13795
625.7546, 18.28759
626.2367, 18.02035
626.7188, 18.45127
627.2009, 18.77434
627.6830, 18.51086
628.1652, 17.92420
628.6473, 17.62477
629.1294, 17.69096
629.6115, 17.73051
630.0936, 17.64950
630.5757, 17.55434
631.0579, 17.51779
631.5400, 17.53350
632.0221, 17.55988
632.5042, 17.57483
632.9863, 17.60870
633.4684, 17.78243
633.9506, 18.19694
634.4327, 18.22866
634.9148, 17.51680
635.3969, 16.83341
635.8790, 16.50605
636.3611, 16.47324
636.8433, 16.66731
637.3254, 17.14102
637.8075, 17.61142
638.2896, 18.00171
638.7717, 18.20888
639.2538, 17.85666
639.7360, 16.92535
640.2181, 16.19823
640.7002, 16.27059
641.1823, 16.94281
641.6644, 17.40518
642.1465, 17.59911
642.6287, 17.64159
643.1108, 17.46724
643.5929, 17.20080
644.0750, 16.83388
644.5571, 16.44672
645.0392, 16.18109
645.5214, 16.09085
