##NAMES=Tamarugite
##RRUFFID=R061060
##IDEAL CHEMISTRY=NaAl(S^6+^O_4_)_2_&#183;6H_2_O
##LOCALITY=El Desierto mine fumaroles, Potos√≠, Bolivia
##OWNER=RRUFF
##SOURCE=Michael Scott
##DESCRIPTION=Colorless thin tabular crystals associated with yellow sulfur and colorless potassium alum
##STATUS=The identification of this mineral has been confirmed by single-crystal X-ray diffraction.
##URL=rruff.info/R061060
83.43494, 72.00556
83.91705, 68.04214
84.39917, 64.67718
84.88129, 65.28147
85.36340, 65.68784
85.84552, 62.89091
86.32764, 54.87064
86.80975, 48.07719
87.29187, 47.11158
87.77399, 50.57066
88.25610, 54.35803
88.73821, 55.93568
89.22033, 56.54173
89.70245, 57.86130
90.18456, 62.21548
90.66668, 65.87338
91.14880, 63.22644
91.63091, 54.38063
92.11303, 45.66602
92.59515, 43.16214
93.07726, 45.61953
93.55938, 48.88764
94.04150, 52.73532
94.52361, 56.16304
95.00573, 55.19613
95.48785, 48.48730
95.96996, 40.68803
96.45208, 40.54370
96.93420, 48.30458
97.41631, 55.43938
97.89843, 55.58274
98.38055, 48.82977
98.86266, 43.44456
99.34477, 40.29272
99.82689, 39.39769
100.3090, 41.29230
100.7911, 46.79247
101.2732, 53.14648
101.7554, 58.02499
102.2375, 61.39078
102.7196, 63.15583
103.2017, 62.42391
103.6838, 58.38424
104.1659, 58.19543
104.6481, 64.85228
105.1302, 73.70044
105.6123, 75.99631
106.0944, 66.38766
106.5765, 57.07692
107.0586, 52.82650
107.5408, 57.14187
108.0229, 61.19099
108.5050, 63.87774
108.9871, 65.82648
109.4692, 70.56750
109.9513, 81.27834
110.4334, 92.80685
110.9156, 102.1066
111.3977, 106.2374
111.8798, 111.0947
112.3619, 116.9787
112.8440, 123.7503
113.3261, 133.6319
113.8083, 144.0524
114.2904, 158.5173
114.7725, 181.0538
115.2546, 219.1409
115.7367, 260.3957
116.2188, 299.8901
116.7010, 336.6380
117.1831, 372.5523
117.6652, 405.3724
118.1473, 437.2400
118.6294, 472.6888
119.1115, 521.7030
119.5937, 570.9886
120.0758, 610.0450
120.5579, 630.4498
121.0400, 646.1170
121.5221, 666.0358
122.0042, 689.6561
122.4864, 712.6917
122.9685, 731.4444
123.4506, 747.9286
123.9327, 765.1717
124.4148, 779.2699
124.8969, 796.9709
125.3791, 831.1266
125.8612, 883.4351
126.3433, 934.0024
126.8254, 960.1848
127.3075, 964.3253
127.7896, 955.0702
128.2718, 949.7864
128.7539, 952.1327
129.2360, 945.5914
129.7181, 927.4140
130.2002, 904.6659
130.6823, 887.3008
131.1645, 874.7969
131.6466, 862.3340
132.1287, 843.6133
132.6108, 820.0776
133.0929, 804.6876
133.5750, 801.7089
134.0572, 806.7338
134.5393, 805.2841
135.0214, 796.2028
135.5035, 786.4312
135.9856, 783.0237
136.4677, 786.2949
136.9498, 790.2828
137.4320, 792.3060
137.9141, 792.3992
138.3962, 798.4714
138.8783, 812.0580
139.3604, 828.9446
139.8425, 842.6893
140.3247, 853.0184
140.8068, 861.8753
141.2889, 870.0154
141.7710, 877.4572
142.2531, 884.5326
142.7352, 890.7130
143.2174, 896.8854
143.6995, 905.4246
144.1816, 914.9272
144.6637, 928.6081
145.1458, 948.9531
145.6279, 983.1179
146.1101, 1011.553
146.5922, 1032.748
147.0743, 1046.981
147.5564, 1056.925
148.0385, 1060.662
148.5206, 1061.512
149.0028, 1061.943
149.4849, 1057.769
149.9670, 1057.766
150.4491, 1065.587
150.9312, 1084.148
151.4133, 1095.415
151.8955, 1091.954
152.3776, 1083.275
152.8597, 1080.711
153.3418, 1097.245
153.8239, 1109.026
154.3060, 1108.351
154.7882, 1089.146
155.2703, 1069.947
155.7524, 1052.080
156.2345, 1035.708
156.7166, 1021.608
157.1987, 1010.245
157.6808, 1000.977
158.1630, 993.6041
158.6451, 989.9039
159.1272, 985.8879
159.6093, 979.3386
160.0914, 971.2491
160.5735, 965.7994
161.0557, 965.1089
161.5378, 967.2443
162.0199, 970.7502
162.5020, 977.1831
162.9841, 983.1133
163.4662, 986.6142
163.9484, 987.7793
164.4305, 989.3225
164.9126, 993.6871
165.3947, 998.7726
165.8768, 1002.128
166.3589, 1002.946
166.8411, 1001.650
167.3232, 998.8472
167.8053, 994.7555
168.2874, 987.8531
168.7695, 974.4863
169.2516, 957.7214
169.7338, 943.2405
170.2159, 939.2660
170.6980, 936.1951
171.1801, 923.6266
171.6622, 897.7748
172.1443, 869.8434
172.6265, 848.3212
173.1086, 832.1359
173.5907, 818.2639
174.0728, 802.5358
174.5549, 788.3882
175.0370, 782.0225
175.5192, 788.7191
176.0013, 797.1443
176.4834, 793.3146
176.9655, 778.6580
177.4476, 763.6118
177.9297, 755.7624
178.4118, 752.9190
178.8940, 750.8871
179.3761, 750.3047
179.8582, 748.5620
180.3403, 739.2020
180.8224, 722.2161
181.3046, 707.0397
181.7867, 703.4011
182.2688, 708.8633
182.7509, 715.0935
183.2330, 720.6420
183.7151, 724.5933
184.1973, 723.7896
184.6794, 717.6070
185.1615, 710.9730
185.6436, 710.9973
186.1257, 716.5996
186.6078, 720.5997
187.0900, 718.5248
187.5721, 711.9396
188.0542, 706.4613
188.5363, 701.9453
189.0184, 699.3394
189.5005, 701.6115
189.9827, 708.6121
190.4648, 714.1486
190.9469, 714.9698
191.4290, 711.3567
191.9111, 704.9626
192.3932, 695.0412
192.8754, 683.6578
193.3575, 674.2547
193.8396, 666.6544
194.3217, 662.0930
194.8038, 663.4268
195.2859, 670.4280
195.7681, 673.2889
196.2502, 669.1729
196.7323, 660.9684
197.2144, 658.2000
197.6965, 661.8596
198.1786, 665.8326
198.6607, 664.0748
199.1429, 655.9769
199.6250, 650.1023
200.1071, 648.4171
200.5892, 650.2105
201.0713, 652.1007
201.5534, 654.2978
202.0356, 655.9834
202.5177, 656.1460
202.9998, 654.5833
203.4819, 652.6882
203.9640, 650.0959
204.4461, 647.0090
204.9283, 647.9413
205.4104, 654.2429
205.8925, 662.0997
206.3746, 665.9952
206.8567, 664.3209
207.3388, 664.9738
207.8210, 669.9719
208.3031, 679.2957
208.7852, 694.5896
209.2673, 719.5080
209.7494, 745.8774
210.2315, 759.2924
210.7137, 754.9064
211.1958, 751.3205
211.6779, 755.6465
212.1600, 769.0787
212.6421, 784.6050
213.1242, 804.6259
213.6064, 824.9722
214.0885, 835.8472
214.5706, 833.7685
215.0527, 830.2557
215.5348, 830.5313
216.0169, 836.0069
216.4991, 839.9063
216.9812, 839.8312
217.4633, 839.0040
217.9454, 848.6782
218.4275, 878.0814
218.9096, 901.4340
219.3917, 905.4786
219.8739, 886.9142
220.3560, 856.7714
220.8381, 809.5444
221.3202, 751.6213
221.8023, 706.1022
222.2844, 675.3852
222.7666, 653.4254
223.2487, 636.9578
223.7308, 627.7267
224.2129, 620.2049
224.6950, 613.9354
225.1771, 608.9319
225.6593, 606.0357
226.1414, 606.9255
226.6235, 607.7015
227.1056, 604.9017
227.5877, 594.8970
228.0698, 589.1927
228.5520, 591.1732
229.0341, 599.9893
229.5162, 602.9426
229.9983, 596.0984
230.4804, 587.7430
230.9625, 584.9379
231.4447, 590.8796
231.9268, 596.3115
232.4089, 599.9841
232.8910, 601.8723
233.3731, 602.7848
233.8552, 602.6343
234.3374, 601.6239
234.8195, 599.5537
235.3016, 594.4136
235.7837, 592.1001
236.2658, 595.2696
236.7479, 604.6414
237.2301, 608.2748
237.7122, 602.3033
238.1943, 594.0432
238.6764, 591.7131
239.1585, 598.6395
239.6406, 605.9128
240.1227, 611.9825
240.6049, 617.0467
241.0870, 619.3917
241.5691, 617.2372
242.0512, 613.7496
242.5333, 612.8030
243.0154, 614.5735
243.4976, 618.6168
243.9797, 625.4380
244.4618, 635.7004
244.9439, 644.7186
245.4260, 652.7098
245.9081, 659.2774
246.3903, 663.7396
246.8724, 665.3690
247.3545, 666.1085
247.8366, 666.7532
248.3187, 667.8157
248.8008, 666.2573
249.2830, 660.8184
249.7651, 653.5488
250.2472, 648.0568
250.7293, 645.9515
251.2114, 642.6983
251.6935, 635.9587
252.1757, 623.8124
252.6578, 616.2902
253.1399, 614.5823
253.6220, 616.8179
254.1041, 620.4993
254.5862, 628.2728
255.0684, 632.7292
255.5505, 629.9551
256.0326, 616.1111
256.5147, 608.8259
256.9968, 611.1123
257.4789, 617.9113
257.9611, 619.0176
258.4432, 611.7730
258.9253, 603.9808
259.4074, 598.2673
259.8895, 594.2365
260.3716, 594.0282
260.8538, 599.8281
261.3359, 607.9996
261.8180, 610.5990
262.3001, 605.1517
262.7822, 599.4842
263.2643, 597.1143
263.7465, 599.4666
264.2286, 599.6133
264.7107, 596.2402
265.1928, 591.5889
265.6749, 590.8470
266.1570, 595.4658
266.6392, 600.4218
267.1213, 603.4617
267.6034, 603.9745
268.0855, 605.1171
268.5676, 607.3098
269.0497, 609.7819
269.5318, 610.7498
270.0139, 609.6960
270.4961, 608.5865
270.9782, 608.1022
271.4603, 608.1401
271.9424, 609.5187
272.4245, 612.4901
272.9066, 616.5898
273.3888, 620.7921
273.8709, 624.9279
274.3530, 629.7947
274.8351, 637.0213
275.3172, 647.4406
275.7993, 651.9702
276.2815, 648.3438
276.7636, 641.2280
277.2457, 640.9566
277.7278, 649.0605
278.2099, 656.0260
278.6920, 655.1182
279.1742, 645.7917
279.6563, 642.8017
280.1384, 647.8157
280.6205, 657.6384
281.1026, 666.6580
281.5847, 674.7278
282.0669, 683.1456
282.5490, 693.4315
283.0311, 705.4398
283.5132, 713.9960
283.9953, 717.7334
284.4774, 720.2085
284.9596, 728.7924
285.4417, 743.7576
285.9238, 757.2308
286.4059, 763.4227
286.8880, 763.5046
287.3701, 767.3489
287.8523, 775.4447
288.3344, 787.2270
288.8165, 803.7341
289.2986, 824.7128
289.7807, 843.3152
290.2628, 856.1177
290.7450, 863.6360
291.2271, 865.6923
291.7092, 860.0994
292.1913, 856.3814
292.6734, 872.3672
293.1555, 905.4681
293.6377, 935.1048
294.1198, 949.3206
294.6019, 952.4045
295.0840, 955.8882
295.5661, 960.1219
296.0482, 965.5162
296.5304, 974.1981
297.0125, 985.0165
297.4946, 993.6967
297.9767, 997.1504
298.4588, 997.2345
298.9409, 997.3943
299.4231, 997.8718
299.9052, 997.9646
300.3873, 996.4415
300.8694, 993.8713
301.3515, 991.8037
301.8336, 990.4717
302.3158, 990.2661
302.7979, 991.8292
303.2800, 995.2243
303.7621, 999.9212
304.2442, 1005.840
304.7263, 1012.672
305.2085, 1020.072
305.6906, 1027.870
306.1727, 1036.020
306.6548, 1042.835
307.1369, 1047.968
307.6190, 1058.060
308.1012, 1083.094
308.5833, 1115.363
309.0654, 1143.732
309.5475, 1159.297
310.0296, 1171.847
310.5117, 1189.498
310.9938, 1212.300
311.4760, 1234.311
311.9581, 1253.773
312.4402, 1270.116
312.9223, 1282.546
313.4044, 1289.495
313.8865, 1293.760
314.3687, 1299.867
314.8508, 1307.086
315.3329, 1303.981
315.8150, 1276.334
316.2971, 1239.490
316.7792, 1208.537
317.2614, 1193.287
317.7435, 1179.234
318.2256, 1160.948
318.7077, 1138.860
319.1898, 1116.952
319.6719, 1096.172
320.1541, 1075.962
320.6362, 1056.082
321.1183, 1034.340
321.6004, 1014.948
322.0825, 1000.808
322.5646, 990.6541
323.0468, 977.7646
323.5289, 955.4003
324.0110, 933.4858
324.4931, 917.6408
324.9752, 917.8237
325.4573, 913.1811
325.9395, 897.3908
326.4216, 874.1425
326.9037, 857.2246
327.3858, 855.9004
327.8679, 854.4063
328.3500, 845.6136
328.8322, 818.9546
329.3143, 801.0725
329.7964, 794.8970
330.2785, 797.3900
330.7606, 801.5615
331.2427, 811.4164
331.7249, 818.3540
332.2070, 818.0809
332.6891, 804.9650
333.1712, 799.2349
333.6533, 804.4440
334.1354, 815.1936
334.6176, 820.8763
335.0997, 816.4797
335.5818, 816.5226
336.0639, 827.4324
336.5460, 852.1765
337.0281, 871.8132
337.5103, 885.2753
337.9924, 895.3823
338.4745, 906.3661
338.9566, 919.2050
339.4387, 929.5828
339.9208, 936.3473
340.4030, 939.4470
340.8851, 939.4526
341.3672, 936.2668
341.8493, 930.1647
342.3314, 920.5159
342.8135, 907.2010
343.2957, 893.9182
343.7778, 881.3939
344.2599, 869.8849
344.7420, 861.1428
345.2241, 855.8212
345.7062, 849.6262
346.1884, 837.3737
346.6705, 819.9854
347.1526, 804.1607
347.6347, 790.7902
348.1168, 780.5052
348.5989, 777.4861
349.0811, 781.3381
349.5632, 783.1233
350.0453, 773.0746
350.5274, 755.7782
351.0095, 742.6993
351.4916, 737.8681
351.9737, 735.1028
352.4558, 725.7201
352.9380, 711.0484
353.4201, 697.1326
353.9022, 686.8397
354.3843, 679.8414
354.8664, 676.2857
355.3485, 676.9911
355.8307, 678.5890
356.3128, 679.7368
356.7949, 679.7167
357.2770, 676.9097
357.7591, 667.4673
358.2412, 656.8809
358.7234, 649.7634
359.2055, 647.1067
359.6876, 644.8137
360.1697, 640.4601
360.6518, 635.2152
361.1339, 630.5905
361.6161, 629.3718
362.0982, 627.0209
362.5803, 619.0522
363.0624, 604.6342
363.5445, 596.3739
364.0266, 604.8471
364.5088, 618.1882
364.9909, 625.2811
365.4730, 615.0504
365.9551, 607.7162
366.4372, 609.9201
366.9193, 621.1571
367.4015, 628.5001
367.8836, 628.8417
368.3657, 626.0099
368.8478, 622.3060
369.3299, 616.2952
369.8120, 611.3469
370.2942, 607.6977
370.7763, 605.2691
371.2584, 603.7976
371.7405, 603.3596
372.2226, 603.8196
372.7047, 605.5305
373.1869, 610.2424
373.6690, 611.5666
374.1511, 607.4987
374.6332, 601.2654
375.1153, 600.0336
375.5974, 605.7126
376.0796, 611.1827
376.5617, 613.8843
377.0438, 613.7011
377.5259, 610.5480
378.0080, 602.6233
378.4901, 595.5378
378.9723, 598.8221
379.4544, 613.1379
379.9365, 624.9714
380.4186, 628.6431
380.9007, 626.2349
381.3828, 627.0986
381.8650, 631.5451
382.3471, 636.4738
382.8292, 639.0284
383.3113, 639.5824
383.7934, 639.3216
384.2755, 637.4390
384.7577, 636.1417
385.2398, 640.9922
385.7219, 651.1147
386.2040, 659.2354
386.6861, 657.9690
387.1682, 651.9504
387.6504, 648.9652
388.1325, 651.1884
388.6146, 654.6962
389.0967, 655.3972
389.5788, 654.4867
390.0609, 655.0612
390.5431, 660.9155
391.0252, 667.5173
391.5073, 670.9871
391.9894, 670.3638
392.4715, 669.4324
392.9536, 667.0190
393.4357, 666.2934
393.9178, 671.4650
394.4000, 693.4091
394.8821, 712.9347
395.3642, 719.9630
395.8463, 713.8760
396.3284, 711.3597
396.8105, 722.5292
397.2927, 735.3434
397.7748, 740.6899
398.2569, 724.4506
398.7390, 715.5426
399.2211, 721.8561
399.7032, 740.3132
400.1854, 752.6155
400.6675, 753.5499
401.1496, 753.4075
401.6317, 756.8260
402.1138, 764.2518
402.5959, 774.4868
403.0781, 788.9946
403.5602, 805.5568
404.0423, 819.4526
404.5244, 829.8868
405.0065, 839.6448
405.4886, 849.4072
405.9708, 859.0863
406.4529, 870.7048
406.9350, 884.5944
407.4171, 899.3646
407.8992, 914.1472
408.3813, 929.0751
408.8635, 940.7520
409.3456, 946.6498
409.8277, 949.2596
410.3098, 956.3737
410.7919, 968.1530
411.2740, 981.0203
411.7562, 993.2616
412.2383, 1004.537
412.7204, 1012.870
413.2025, 1016.820
413.6846, 1020.176
414.1667, 1030.636
414.6489, 1045.578
415.1310, 1055.057
415.6131, 1046.905
416.0952, 1033.088
416.5773, 1027.691
417.0594, 1033.120
417.5416, 1040.904
418.0237, 1045.628
418.5058, 1049.158
418.9879, 1054.257
419.4700, 1063.378
419.9521, 1073.182
420.4343, 1083.477
420.9164, 1093.999
421.3985, 1100.552
421.8806, 1098.479
422.3627, 1093.839
422.8448, 1091.133
423.3270, 1086.503
423.8091, 1089.064
424.2912, 1107.507
424.7733, 1135.960
425.2554, 1151.013
425.7375, 1140.215
426.2197, 1128.275
426.7018, 1124.244
427.1839, 1128.976
427.6660, 1140.275
428.1481, 1162.532
428.6302, 1188.241
429.1124, 1205.201
429.5945, 1209.589
430.0766, 1217.071
430.5587, 1233.716
431.0408, 1258.611
431.5229, 1277.830
432.0051, 1290.022
432.4872, 1301.495
432.9693, 1318.947
433.4514, 1341.928
433.9335, 1362.987
434.4156, 1379.475
434.8977, 1394.778
435.3799, 1416.031
435.8620, 1442.752
436.3441, 1470.607
436.8262, 1497.865
437.3083, 1523.885
437.7904, 1545.986
438.2726, 1562.873
438.7547, 1581.370
439.2368, 1612.787
439.7189, 1649.970
440.2010, 1679.353
440.6831, 1689.631
441.1653, 1693.838
441.6474, 1698.596
442.1295, 1704.317
442.6116, 1713.910
443.0937, 1736.349
443.5758, 1759.216
444.0580, 1772.168
444.5401, 1762.452
445.0222, 1755.432
445.5043, 1754.691
445.9864, 1760.456
446.4685, 1773.389
446.9507, 1802.665
447.4328, 1830.959
447.9149, 1850.123
448.3970, 1852.473
448.8791, 1869.718
449.3612, 1907.847
449.8434, 1956.060
450.3255, 2002.108
450.8076, 2046.149
451.2897, 2085.814
451.7718, 2118.136
452.2539, 2144.955
452.7361, 2179.482
453.2182, 2221.747
453.7003, 2272.694
454.1824, 2340.942
454.6645, 2424.178
455.1466, 2490.357
455.6288, 2533.961
456.1109, 2563.348
456.5930, 2589.878
457.0751, 2613.732
457.5572, 2636.566
458.0393, 2659.968
458.5215, 2682.524
459.0036, 2705.343
459.4857, 2729.013
459.9678, 2739.157
460.4499, 2716.709
460.9320, 2675.506
461.4142, 2635.144
461.8963, 2603.887
462.3784, 2572.119
462.8605, 2534.432
463.3426, 2491.315
463.8247, 2445.837
464.3069, 2392.397
464.7890, 2341.912
465.2711, 2301.477
465.7532, 2276.160
466.2353, 2249.957
466.7174, 2216.753
467.1996, 2182.728
467.6817, 2156.510
468.1638, 2143.333
468.6459, 2131.237
469.1280, 2118.145
469.6101, 2104.191
470.0923, 2090.675
470.5744, 2077.561
471.0565, 2065.086
471.5386, 2053.413
472.0207, 2042.508
472.5028, 2032.398
472.9850, 2023.304
473.4671, 2014.498
473.9492, 2005.307
474.4313, 1995.654
474.9134, 1983.450
475.3955, 1964.851
475.8776, 1942.708
476.3597, 1927.536
476.8419, 1919.447
477.3240, 1914.022
477.8061, 1908.828
478.2882, 1903.196
478.7703, 1895.826
479.2524, 1886.331
479.7346, 1874.983
480.2167, 1861.748
480.6988, 1846.820
481.1809, 1830.879
481.6630, 1812.950
482.1451, 1795.083
482.6273, 1780.640
483.1094, 1772.425
483.5915, 1755.697
484.0736, 1717.100
484.5557, 1671.642
485.0378, 1635.147
485.5200, 1624.008
486.0021, 1605.644
486.4842, 1571.371
486.9663, 1524.090
487.4484, 1483.667
487.9305, 1452.604
488.4127, 1425.469
488.8948, 1400.009
489.3769, 1377.436
489.8590, 1352.825
490.3411, 1326.232
490.8232, 1297.469
491.3054, 1262.903
491.7875, 1222.116
492.2696, 1189.024
492.7517, 1170.022
493.2338, 1160.759
493.7159, 1148.658
494.1981, 1133.918
494.6802, 1119.403
495.1623, 1107.668
495.6444, 1097.791
496.1265, 1087.975
496.6086, 1077.615
497.0908, 1067.987
497.5729, 1061.084
498.0550, 1055.541
498.5371, 1048.592
499.0192, 1035.931
499.5013, 1024.093
499.9835, 1016.755
500.4656, 1013.953
500.9477, 1013.960
501.4298, 1022.906
501.9119, 1030.201
502.3940, 1028.708
502.8762, 1003.253
503.3583, 988.7740
503.8404, 991.2662
504.3225, 1003.852
504.8046, 1013.074
505.2867, 1016.319
505.7689, 1021.312
506.2510, 1032.198
506.7331, 1048.813
507.2152, 1055.356
507.6973, 1048.651
508.1794, 1041.557
508.6616, 1048.067
509.1437, 1066.983
509.6258, 1078.735
510.1079, 1077.474
510.5900, 1074.081
511.0721, 1090.722
511.5543, 1122.441
512.0364, 1146.779
512.5185, 1142.541
513.0006, 1129.378
513.4827, 1133.739
513.9648, 1156.128
514.4470, 1177.958
514.9291, 1185.237
515.4112, 1186.779
515.8933, 1191.597
516.3754, 1204.537
516.8575, 1217.095
517.3397, 1225.610
517.8218, 1231.733
518.3039, 1239.437
518.7860, 1253.863
519.2681, 1265.500
519.7502, 1269.830
520.2324, 1265.525
520.7145, 1267.161
521.1966, 1276.927
521.6787, 1290.026
522.1608, 1304.802
522.6429, 1323.988
523.1251, 1331.645
523.6072, 1322.396
524.0893, 1305.119
524.5714, 1299.903
525.0535, 1306.806
525.5356, 1309.632
526.0178, 1297.749
526.4999, 1276.575
526.9820, 1260.210
527.4641, 1248.914
527.9462, 1239.645
528.4283, 1232.849
528.9105, 1225.743
529.3926, 1213.902
529.8747, 1195.453
530.3568, 1174.164
530.8389, 1149.742
531.3210, 1124.619
531.8032, 1102.473
532.2853, 1087.291
532.7674, 1073.143
533.2495, 1059.064
533.7316, 1045.026
534.2137, 1027.228
534.6959, 998.7547
535.1780, 971.5697
535.6601, 952.4730
536.1422, 946.3720
536.6243, 937.5296
537.1064, 923.3792
537.5885, 908.1448
538.0706, 901.1521
538.5527, 904.6019
539.0349, 902.8108
539.5170, 888.1660
539.9991, 864.6567
540.4812, 846.2183
540.9633, 832.6930
541.4454, 823.8550
541.9276, 822.1315
542.4097, 824.4413
542.8918, 825.3688
543.3739, 824.6445
543.8560, 820.2615
544.3381, 807.0164
544.8203, 789.5114
545.3024, 775.5842
545.7845, 771.2430
546.2666, 768.3804
546.7487, 762.8348
547.2308, 755.2082
547.7130, 749.6093
548.1951, 747.2633
548.6772, 746.9882
549.1593, 748.7172
549.6414, 754.0079
550.1235, 756.9398
550.6057, 757.8443
551.0878, 756.0831
551.5699, 749.2274
552.0520, 734.6394
552.5341, 726.7506
553.0162, 730.2986
553.4984, 740.8806
553.9805, 746.2510
554.4626, 746.3829
554.9447, 745.3500
555.4268, 744.0410
555.9089, 743.5518
556.3911, 748.3393
556.8732, 758.9741
557.3553, 766.8029
557.8374, 760.3858
558.3195, 748.2396
558.8016, 742.4076
559.2838, 750.5737
559.7659, 758.6412
560.2480, 756.0809
560.7301, 748.5273
561.2122, 748.0750
561.6943, 768.6489
562.1765, 786.3874
562.6586, 791.8116
563.1407, 784.4089
563.6228, 778.2454
564.1049, 771.5177
564.5870, 768.3030
565.0692, 772.9934
565.5513, 788.5922
566.0334, 797.7218
566.5155, 797.8472
566.9976, 793.9714
567.4797, 793.8831
567.9619, 797.3361
568.4440, 800.6996
568.9261, 802.4130
569.4082, 803.4958
569.8903, 804.9287
570.3724, 806.9752
570.8546, 811.4907
571.3367, 822.4606
571.8188, 834.9152
572.3009, 842.6784
572.7830, 844.0251
573.2651, 847.9278
573.7473, 863.3298
574.2294, 881.3217
574.7115, 892.5119
575.1936, 888.8674
575.6757, 886.0798
576.1578, 883.5413
576.6400, 883.3683
577.1221, 892.1223
577.6042, 914.7541
578.0863, 937.1903
578.5684, 955.1425
579.0505, 968.6425
579.5327, 975.1614
580.0148, 972.8228
