##NAMES=Taneyamalite
##RRUFFID=R070705
##IDEAL CHEMISTRY=(Na,Ca)Mn^2+^_12_(Si,Al)_12_(O,OH)_44_
##LOCALITY=Taneyama mine, Kumamoto Prefecture, Kyushu Island, Japan
##OWNER=RRUFF
##SOURCE=Michael Scott
##DESCRIPTION=Contorted mats of black fibers
##STATUS=The identification of this mineral has been confirmed by X-ray diffraction.
##URL=rruff.info/R070705
125.7535, 26492.67
126.2356, 26531.13
126.7177, 26577.69
127.1998, 26620.99
127.6820, 26643.95
128.1641, 26631.46
128.6462, 26588.86
129.1283, 26578.27
129.6104, 26652.85
130.0925, 26712.29
130.5747, 26725.71
131.0568, 26702.02
131.5389, 26669.63
132.0210, 26654.70
132.5031, 26661.49
132.9852, 26670.48
133.4674, 26692.78
133.9495, 26709.51
134.4316, 26709.36
134.9137, 26690.35
135.3958, 26656.84
135.8779, 26611.83
136.3601, 26536.27
136.8422, 26492.96
137.3243, 26503.98
137.8064, 26543.54
138.2885, 26581.97
138.7706, 26610.88
139.2528, 26628.43
139.7349, 26627.12
140.2170, 26599.23
140.6991, 26574.51
141.1812, 26566.63
141.6633, 26572.72
142.1455, 26582.41
142.6276, 26598.97
143.1097, 26610.63
143.5918, 26595.29
144.0739, 26528.84
144.5561, 26464.38
145.0382, 26465.87
145.5203, 26545.99
146.0024, 26619.23
146.4845, 26622.27
146.9666, 26595.78
147.4488, 26587.37
147.9309, 26630.86
148.4130, 26697.64
148.8951, 26710.48
149.3772, 26633.32
149.8593, 26558.27
150.3415, 26517.05
150.8236, 26504.83
151.3057, 26513.23
151.7878, 26542.84
152.2699, 26593.31
152.7520, 26631.54
153.2342, 26651.89
153.7163, 26662.64
154.1984, 26664.28
154.6805, 26657.63
155.1626, 26643.93
155.6447, 26621.60
156.1269, 26581.86
156.6090, 26561.82
157.0911, 26583.48
157.5732, 26605.15
158.0553, 26598.70
158.5374, 26560.57
159.0196, 26511.10
159.5017, 26481.83
159.9838, 26480.90
160.4659, 26492.45
160.9480, 26525.71
161.4301, 26567.03
161.9123, 26607.88
162.3944, 26645.43
162.8765, 26673.49
163.3586, 26674.17
163.8407, 26622.85
164.3228, 26578.38
164.8050, 26549.79
165.2871, 26534.09
165.7692, 26524.72
166.2513, 26516.69
166.7334, 26514.86
167.2155, 26536.57
167.6977, 26616.83
168.1798, 26681.32
168.6619, 26677.11
169.1440, 26616.78
169.6261, 26569.83
170.1082, 26589.02
170.5904, 26654.44
171.0725, 26689.52
171.5546, 26661.36
172.0367, 26619.88
172.5188, 26616.35
173.0009, 26655.75
173.4831, 26697.01
173.9652, 26720.38
174.4473, 26725.31
174.9294, 26704.67
175.4115, 26630.73
175.8936, 26534.20
176.3758, 26478.17
176.8579, 26475.84
177.3400, 26489.46
177.8221, 26498.95
178.3042, 26504.89
178.7864, 26508.49
179.2685, 26514.42
179.7506, 26520.33
180.2327, 26508.57
180.7148, 26454.86
181.1969, 26410.74
181.6791, 26405.82
182.1612, 26433.77
182.6433, 26469.56
183.1254, 26500.22
183.6075, 26528.31
184.0896, 26527.16
184.5718, 26448.44
185.0539, 26375.27
185.5360, 26342.93
186.0181, 26353.30
186.5002, 26386.55
186.9823, 26427.49
187.4645, 26491.90
187.9466, 26515.69
188.4287, 26452.30
188.9108, 26384.64
189.3929, 26372.27
189.8750, 26424.68
190.3572, 26499.18
190.8393, 26522.94
191.3214, 26441.67
191.8035, 26400.91
192.2856, 26435.86
192.7677, 26490.27
193.2499, 26519.71
193.7320, 26507.72
194.2141, 26465.24
194.6962, 26416.38
195.1783, 26329.59
195.6604, 26275.11
196.1426, 26274.67
196.6247, 26300.62
197.1068, 26318.74
197.5889, 26312.87
198.0710, 26293.66
198.5531, 26298.25
199.0353, 26357.88
199.5174, 26403.62
199.9995, 26421.04
200.4816, 26416.55
200.9637, 26399.47
201.4458, 26372.46
201.9280, 26339.20
202.4101, 26317.03
202.8922, 26297.65
203.3743, 26295.08
203.8564, 26326.22
204.3385, 26381.53
204.8207, 26433.64
205.3028, 26471.70
205.7849, 26490.58
206.2670, 26477.57
206.7491, 26396.40
207.2312, 26317.54
207.7134, 26288.56
208.1955, 26304.73
208.6776, 26321.70
209.1597, 26306.39
209.6418, 26267.83
210.1239, 26249.26
210.6061, 26268.21
211.0882, 26296.90
211.5703, 26304.54
212.0524, 26289.00
212.5345, 26288.42
213.0166, 26354.89
213.4988, 26457.51
213.9809, 26510.12
214.4630, 26449.49
214.9451, 26352.17
215.4272, 26323.31
215.9094, 26378.60
216.3915, 26439.65
216.8736, 26439.61
217.3557, 26403.86
217.8378, 26377.20
218.3199, 26389.32
218.8021, 26417.01
219.2842, 26413.39
219.7663, 26367.76
220.2484, 26314.27
220.7305, 26265.50
221.2126, 26225.06
221.6948, 26202.94
222.1769, 26224.06
222.6590, 26269.01
223.1411, 26271.71
223.6232, 26205.34
224.1053, 26140.40
224.5875, 26126.09
225.0696, 26144.74
225.5517, 26155.08
226.0338, 26116.56
226.5159, 26042.40
226.9980, 26014.42
227.4802, 26070.71
227.9623, 26126.25
228.4444, 26130.49
228.9265, 26098.53
229.4086, 26071.74
229.8907, 26096.30
230.3729, 26166.58
230.8550, 26175.11
231.3371, 26039.34
231.8192, 25927.47
232.3013, 25934.52
232.7834, 26031.06
233.2656, 26124.74
233.7477, 26130.62
234.2298, 26044.82
234.7119, 25994.33
235.1940, 26011.93
235.6761, 26038.32
236.1583, 26047.23
236.6404, 26043.71
237.1225, 26050.51
237.6046, 26100.24
238.0867, 26203.15
238.5688, 26252.44
239.0510, 26185.49
239.5331, 26115.07
240.0152, 26075.02
240.4973, 26068.32
240.9794, 26086.28
241.4615, 26127.25
241.9437, 26198.69
242.4258, 26247.96
242.9079, 26258.95
243.3900, 26261.55
243.8721, 26272.72
244.3542, 26288.62
244.8364, 26289.31
245.3185, 26245.08
245.8006, 26135.32
246.2827, 26083.11
246.7648, 26137.19
247.2469, 26202.56
247.7291, 26236.14
248.2112, 26238.21
248.6933, 26235.78
249.1754, 26260.16
249.6575, 26324.13
250.1397, 26359.68
250.6218, 26348.08
251.1039, 26328.34
251.5860, 26322.85
252.0681, 26329.76
252.5502, 26328.89
253.0324, 26295.04
253.5145, 26213.93
253.9966, 26161.25
254.4787, 26144.35
254.9608, 26143.76
255.4429, 26153.63
255.9251, 26171.38
256.4072, 26195.50
256.8893, 26227.74
257.3714, 26278.20
257.8535, 26291.87
258.3356, 26239.11
258.8177, 26182.55
259.2999, 26155.15
259.7820, 26157.29
260.2641, 26170.05
260.7462, 26174.60
261.2283, 26169.74
261.7104, 26161.52
262.1926, 26148.12
262.6747, 26133.96
263.1568, 26119.55
263.6389, 26106.18
264.1210, 26096.99
264.6031, 26095.46
265.0853, 26103.03
265.5674, 26112.44
266.0495, 26121.57
266.5316, 26134.00
267.0138, 26158.78
267.4959, 26191.31
267.9780, 26214.24
268.4601, 26209.38
268.9422, 26170.66
269.4243, 26139.36
269.9065, 26109.21
270.3886, 26089.62
270.8707, 26085.13
271.3528, 26095.45
271.8349, 26120.47
272.3170, 26165.22
272.7992, 26237.54
273.2813, 26258.44
273.7634, 26182.25
274.2455, 26108.34
274.7276, 26090.17
275.2097, 26119.43
275.6919, 26152.60
276.1740, 26152.64
276.6561, 26116.16
277.1382, 26096.26
277.6203, 26107.70
278.1024, 26048.46
278.5846, 26134.75
279.0667, 26183.42
279.5488, 26196.50
280.0309, 26067.35
280.5130, 26121.85
280.9951, 26102.75
281.4773, 26080.63
281.9594, 26160.98
282.4415, 26052.52
282.9236, 26131.25
283.4057, 26135.25
283.8878, 26173.45
284.3700, 26137.60
284.8521, 26124.62
285.3342, 26185.71
285.8163, 26205.79
286.2984, 26161.42
286.7805, 26201.79
287.2627, 26090.74
287.7448, 26112.57
288.2269, 26191.73
288.7090, 26151.07
289.1911, 26192.80
289.6732, 26203.15
290.1554, 26070.91
290.6375, 26186.66
291.1196, 26195.16
291.6017, 26093.54
292.0838, 26200.78
292.5659, 26114.35
293.0481, 26097.04
293.5302, 26131.77
294.0123, 26112.25
294.4944, 26178.25
294.9765, 26161.87
295.4586, 26138.12
295.9408, 26146.50
296.4229, 26063.86
296.9050, 26150.08
297.3871, 26120.95
297.8692, 26149.16
298.3513, 26190.37
298.8335, 26132.06
299.3156, 26179.11
299.7977, 26062.78
300.2798, 26083.15
300.7619, 26088.80
301.2440, 26181.83
301.7262, 26066.30
302.2083, 26082.87
302.6904, 26155.69
303.1725, 26149.81
303.6546, 26176.83
304.1367, 26121.42
304.6189, 26108.17
305.1010, 26109.70
305.5831, 26144.41
306.0652, 26181.37
306.5473, 26192.77
307.0294, 26173.92
307.5116, 26144.71
307.9937, 26134.61
308.4758, 26158.31
308.9579, 26165.80
309.4400, 26145.88
309.9221, 26120.93
310.4043, 26098.82
310.8864, 26083.81
311.3685, 26083.16
311.8506, 26109.69
312.3327, 26177.08
312.8148, 26215.36
313.2970, 26211.61
313.7791, 26193.95
314.2612, 26166.10
314.7433, 26134.18
315.2254, 26110.45
315.7076, 26109.09
316.1897, 26133.38
316.6718, 26142.34
317.1539, 26112.49
317.6360, 26090.29
318.1181, 26102.55
318.6003, 26135.93
319.0824, 26157.48
319.5645, 26140.46
320.0466, 26088.12
320.5287, 26050.91
321.0108, 26042.93
321.4930, 26036.41
321.9751, 26018.10
322.4572, 25998.12
322.9393, 25994.31
323.4214, 26018.92
323.9035, 26064.25
324.3857, 26100.64
324.8678, 26134.71
325.3499, 26146.94
325.8320, 26117.92
326.3141, 26073.01
326.7962, 26038.81
327.2784, 26026.60
327.7605, 26032.76
328.2426, 26052.26
328.7247, 26093.22
329.2068, 26129.44
329.6889, 26164.96
330.1711, 26189.32
330.6532, 26186.47
331.1353, 26151.56
331.6174, 26109.75
332.0995, 26105.20
332.5816, 26154.36
333.0638, 26170.40
333.5459, 26092.71
334.0280, 26007.08
334.5101, 25961.76
334.9922, 25963.88
335.4743, 25996.35
335.9565, 26061.83
336.4386, 26163.19
336.9207, 26213.25
337.4028, 26157.71
337.8849, 26090.47
338.3671, 26072.38
338.8492, 26098.67
339.3313, 26126.02
339.8134, 26120.98
340.2955, 26089.91
340.7776, 26067.36
341.2598, 26059.00
341.7419, 26052.96
342.2240, 26033.94
342.7061, 26009.64
343.1882, 26001.76
343.6703, 26034.52
344.1525, 26087.51
344.6346, 26112.91
345.1167, 26100.87
345.5988, 26092.30
346.0809, 26126.81
346.5630, 26180.49
347.0452, 26214.34
347.5273, 26209.07
348.0094, 26188.44
348.4915, 26176.65
348.9736, 26173.79
349.4557, 26177.82
349.9379, 26200.28
350.4200, 26222.79
350.9021, 26209.28
351.3842, 26135.94
351.8663, 26065.03
352.3484, 26042.87
352.8306, 26060.17
353.3127, 26077.51
353.7948, 26080.54
354.2769, 26076.72
354.7590, 26077.32
355.2411, 26078.89
355.7233, 26093.44
356.2054, 26150.40
356.6875, 26217.84
357.1696, 26228.53
357.6517, 26157.46
358.1339, 26068.61
358.6160, 26054.60
359.0981, 26134.17
359.5802, 26181.28
360.0623, 26150.56
360.5444, 26100.15
361.0266, 26087.82
361.5087, 26119.54
361.9908, 26164.05
362.4729, 26195.66
362.9550, 26213.90
363.4371, 26214.96
363.9193, 26194.52
364.4014, 26163.28
364.8835, 26114.02
365.3656, 26056.87
365.8477, 26020.99
366.3298, 26029.92
366.8120, 26076.72
367.2941, 26096.99
367.7762, 26061.27
368.2583, 26035.12
368.7404, 26038.36
369.2225, 26058.41
369.7047, 26075.75
370.1868, 26081.22
370.6689, 26080.93
371.1510, 26091.27
371.6331, 26127.46
372.1152, 26150.60
372.5974, 26153.94
373.0795, 26147.07
373.5616, 26128.66
374.0437, 26102.04
374.5258, 26086.93
375.0079, 26121.92
375.4901, 26243.16
375.9722, 26300.26
376.4543, 26226.29
376.9364, 26147.22
377.4185, 26127.69
377.9006, 26162.27
378.3828, 26205.20
378.8649, 26218.35
379.3470, 26203.15
379.8291, 26191.35
380.3112, 26197.65
380.7933, 26187.30
381.2755, 26125.42
381.7576, 26042.61
382.2397, 25994.27
382.7218, 26018.89
383.2039, 26082.54
383.6860, 26108.99
384.1682, 26086.84
384.6503, 26063.71
385.1324, 26063.50
385.6145, 26069.75
386.0966, 26064.43
386.5787, 26040.37
387.0609, 26016.17
387.5430, 26009.10
388.0251, 26018.77
388.5072, 26039.11
388.9893, 26078.90
389.4714, 26117.14
389.9536, 26129.67
390.4357, 26115.51
390.9178, 26093.61
391.3999, 26061.10
391.8820, 26028.85
392.3641, 26021.77
392.8463, 26047.20
393.3284, 26082.04
393.8105, 26104.18
394.2926, 26114.48
394.7747, 26128.19
395.2568, 26155.20
395.7390, 26180.23
396.2211, 26191.04
396.7032, 26187.64
397.1853, 26173.48
397.6674, 26145.28
398.1495, 26108.76
398.6317, 26102.71
399.1138, 26168.92
399.5959, 26213.03
400.0780, 26188.65
400.5601, 26125.90
401.0422, 26072.75
401.5244, 26048.46
402.0065, 26047.49
402.4886, 26058.63
402.9707, 26089.21
403.4528, 26122.48
403.9349, 26185.66
404.4171, 26233.90
404.8992, 26212.04
405.3813, 26123.93
405.8634, 26037.71
406.3455, 26036.92
406.8276, 26142.07
407.3098, 26203.03
407.7919, 26187.10
408.2740, 26158.64
408.7561, 26124.05
409.2383, 26094.23
409.7204, 26089.12
410.2025, 26127.22
410.6846, 26193.12
411.1667, 26227.60
411.6488, 26221.29
412.1310, 26198.77
412.6131, 26138.10
413.0952, 26079.69
413.5773, 26073.56
414.0594, 26138.99
414.5415, 26223.70
415.0237, 26266.81
415.5058, 26267.18
415.9879, 26254.24
416.4700, 26225.86
416.9521, 26193.61
417.4342, 26168.70
417.9164, 26150.90
418.3985, 26131.79
418.8806, 26098.27
419.3627, 26061.86
419.8448, 26052.68
420.3269, 26079.11
420.8091, 26106.98
421.2912, 26107.92
421.7733, 26086.99
422.2554, 26067.19
422.7375, 26052.00
423.2196, 26038.20
423.7018, 26025.23
424.1839, 26012.21
424.6660, 25993.30
425.1481, 25962.74
425.6302, 25928.37
426.1123, 25915.50
426.5945, 25945.30
427.0766, 25960.41
427.5587, 25925.43
428.0408, 25882.55
428.5229, 25890.68
429.0050, 25960.61
429.4872, 26042.72
429.9693, 26071.61
430.4514, 26028.66
430.9335, 25998.31
431.4156, 25982.92
431.8977, 25974.92
432.3799, 25977.80
432.8620, 25985.38
433.3441, 25983.11
433.8262, 25958.54
434.3083, 25917.83
434.7904, 25893.80
435.2726, 25892.79
435.7547, 25900.21
436.2368, 25923.66
436.7189, 25947.40
437.2010, 25951.24
437.6831, 25928.15
438.1653, 25900.55
438.6474, 25898.75
439.1295, 25924.30
439.6116, 25951.97
440.0937, 25988.14
440.5758, 26013.98
441.0580, 26014.05
441.5401, 25990.67
442.0222, 25962.04
442.5043, 25928.45
442.9864, 25898.12
443.4685, 25890.77
443.9507, 25910.56
444.4328, 25931.72
444.9149, 25940.45
445.3970, 25936.82
445.8791, 25923.32
446.3612, 25884.74
446.8434, 25853.24
447.3255, 25858.57
447.8076, 25885.11
448.2897, 25891.67
448.7718, 25860.61
449.2539, 25811.58
449.7361, 25780.03
450.2182, 25776.35
450.7003, 25768.71
451.1824, 25747.90
451.6645, 25728.48
452.1466, 25719.38
452.6288, 25722.63
453.1109, 25740.99
453.5930, 25781.85
454.0751, 25845.24
454.5572, 25871.55
455.0393, 25825.06
455.5215, 25777.69
456.0036, 25729.35
456.4857, 25693.07
456.9678, 25691.34
457.4499, 25735.34
457.9320, 25794.67
458.4142, 25809.98
458.8963, 25765.20
459.3784, 25740.85
459.8605, 25771.99
460.3426, 25811.48
460.8247, 25836.09
461.3069, 25843.18
461.7890, 25833.42
462.2711, 25792.61
462.7532, 25735.87
463.2353, 25706.90
463.7174, 25711.85
464.1996, 25728.06
464.6817, 25745.39
465.1638, 25762.85
465.6459, 25777.50
466.1280, 25780.77
466.6101, 25790.90
467.0923, 25833.70
467.5744, 25893.75
468.0565, 25925.01
468.5386, 25908.74
469.0207, 25866.84
469.5028, 25834.26
469.9850, 25811.52
470.4671, 25798.07
470.9492, 25793.28
471.4313, 25798.49
471.9134, 25826.38
472.3955, 25869.31
472.8777, 25896.97
473.3598, 25883.22
473.8419, 25832.32
474.3240, 25792.68
474.8061, 25762.83
475.2882, 25748.22
475.7704, 25754.73
476.2525, 25774.31
476.7346, 25803.07
477.2167, 25839.38
477.6988, 25870.72
478.1809, 25875.67
478.6631, 25850.60
479.1452, 25835.49
479.6273, 25840.93
480.1094, 25850.83
480.5916, 25852.22
481.0737, 25848.11
481.5558, 25850.67
482.0379, 25877.43
482.5200, 25908.96
483.0021, 25906.28
483.4843, 25868.01
483.9664, 25846.14
484.4485, 25875.31
484.9306, 25934.04
485.4127, 25969.15
485.8948, 25978.78
486.3770, 25970.74
486.8591, 25933.06
487.3412, 25884.75
487.8233, 25848.49
488.3054, 25830.00
488.7875, 25832.50
489.2697, 25864.94
489.7518, 25936.06
490.2339, 25972.48
490.7160, 25958.03
491.1981, 25931.87
491.6802, 25895.29
492.1624, 25859.87
492.6445, 25844.35
493.1266, 25859.14
493.6087, 25890.55
494.0908, 25909.72
494.5729, 25915.15
495.0551, 25912.82
495.5372, 25891.75
496.0193, 25872.42
496.5014, 25869.48
496.9835, 25882.00
497.4656, 25896.20
497.9478, 25907.24
498.4299, 25912.73
498.9120, 25902.72
499.3941, 25873.40
499.8762, 25846.28
500.3583, 25835.91
500.8405, 25835.79
501.3226, 25829.78
501.8047, 25810.04
502.2868, 25796.21
502.7689, 25810.10
503.2510, 25834.12
503.7332, 25826.86
504.2153, 25776.13
504.6974, 25724.49
505.1795, 25726.91
505.6616, 25801.21
506.1437, 25843.21
506.6259, 25822.60
507.1080, 25803.76
507.5901, 25817.02
508.0722, 25854.28
508.5543, 25900.01
509.0364, 25947.78
509.5186, 25987.23
510.0007, 25985.48
510.4828, 25914.41
510.9649, 25875.68
511.4470, 25913.10
511.9291, 25963.81
512.4113, 25995.14
512.8934, 26003.56
513.3755, 25995.71
513.8576, 25967.70
514.3397, 25927.49
514.8218, 25891.32
515.3040, 25856.25
515.7861, 25843.54
516.2682, 25880.56
516.7503, 25943.15
517.2324, 25973.56
517.7145, 25955.58
518.1967, 25933.29
518.6788, 25918.15
519.1609, 25913.42
519.6430, 25930.62
520.1251, 25971.63
520.6072, 26013.18
521.0894, 26029.87
521.5715, 26018.82
522.0536, 26007.92
522.5357, 26004.64
523.0178, 25993.92
523.4999, 25957.59
523.9821, 25914.01
524.4642, 25895.34
524.9463, 25915.99
525.4284, 25951.56
525.9105, 25951.42
526.3926, 25899.88
526.8748, 25888.70
527.3569, 25972.90
527.8390, 26056.68
528.3211, 26084.36
528.8032, 26062.66
529.2853, 26025.52
529.7675, 25974.74
530.2496, 25925.84
530.7317, 25909.56
531.2138, 25924.22
531.6959, 25923.65
532.1780, 25878.37
532.6602, 25815.87
533.1423, 25802.10
533.6244, 25863.04
534.1065, 25888.87
534.5886, 25827.28
535.0707, 25742.91
535.5529, 25691.34
536.0350, 25678.30
536.5171, 25688.23
536.9992, 25712.67
537.4813, 25748.16
537.9634, 25763.59
538.4456, 25726.22
538.9277, 25715.01
539.4098, 25769.69
539.8919, 25837.47
540.3740, 25864.36
540.8561, 25840.77
541.3383, 25805.58
541.8204, 25801.46
542.3025, 25821.62
542.7846, 25811.87
543.2667, 25751.52
543.7488, 25704.48
544.2310, 25728.06
544.7131, 25791.50
545.1952, 25834.98
545.6773, 25846.83
546.1594, 25842.74
546.6415, 25821.04
547.1237, 25791.84
547.6058, 25775.64
548.0879, 25777.94
548.5700, 25795.14
549.0521, 25829.26
549.5342, 25890.97
550.0164, 25901.48
550.4985, 25797.71
550.9806, 25719.17
551.4627, 25736.99
551.9448, 25809.29
552.4269, 25870.32
552.9091, 25892.01
553.3912, 25886.74
553.8733, 25865.05
554.3554, 25820.56
554.8375, 25807.88
555.3196, 25862.38
555.8018, 25916.24
556.2839, 25926.16
556.7660, 25899.83
557.2481, 25863.57
557.7302, 25812.42
558.2123, 25767.64
558.6945, 25755.54
559.1766, 25770.88
559.6587, 25786.44
560.1408, 25790.91
560.6229, 25795.16
561.1050, 25820.30
561.5872, 25886.16
562.0693, 25915.19
562.5514, 25875.47
563.0335, 25826.59
563.5156, 25799.01
563.9977, 25792.71
564.4799, 25799.67
564.9620, 25816.18
565.4441, 25839.10
565.9262, 25863.04
566.4083, 25892.01
566.8904, 25909.43
567.3726, 25905.02
567.8547, 25893.84
568.3368, 25882.01
568.8189, 25870.79
569.3010, 25863.16
569.7831, 25863.16
570.2653, 25866.41
570.7474, 25868.19
571.2295, 25868.29
571.7116, 25864.13
572.1937, 25855.99
572.6758, 25840.87
573.1580, 25807.54
573.6401, 25734.14
574.1222, 25700.87
574.6043, 25740.32
575.0864, 25802.57
575.5685, 25867.08
576.0507, 25922.63
576.5328, 25947.79
577.0149, 25925.64
577.4970, 25871.64
577.9791, 25833.46
578.4612, 25810.04
578.9434, 25804.67
579.4255, 25836.89
579.9076, 25873.15
580.3897, 25889.38
580.8718, 25886.70
581.3539, 25886.14
581.8361, 25899.28
582.3182, 25921.49
582.8003, 25948.93
583.2824, 25980.93
583.7645, 26008.44
584.2467, 26029.60
584.7288, 26040.43
585.2109, 26029.37
585.6931, 25983.80
586.1752, 25948.21
586.6573, 25938.22
587.1394, 25930.11
587.6215, 25896.73
588.1036, 25848.18
588.5858, 25822.97
589.0679, 25849.74
589.5500, 25904.99
590.0321, 25912.42
590.5142, 25847.95
590.9963, 25806.60
591.4785, 25827.59
591.9606, 25860.98
592.4427, 25870.89
592.9248, 25859.79
593.4069, 25856.77
593.8890, 25885.12
594.3712, 25923.19
594.8533, 25945.38
595.3354, 25952.18
595.8175, 25946.63
596.2996, 25926.11
596.7817, 25903.55
597.2639, 25906.71
597.7460, 25962.59
598.2281, 25980.13
598.7102, 25903.91
599.1923, 25839.78
599.6744, 25875.95
600.1566, 25974.73
600.6387, 26038.73
601.1208, 26012.98
601.6029, 25932.56
602.0850, 25859.44
602.5671, 25791.14
603.0493, 25747.38
603.5314, 25737.74
604.0135, 25747.52
604.4956, 25773.96
604.9777, 25811.46
605.4598, 25833.38
605.9420, 25811.19
606.4241, 25788.43
606.9062, 25814.16
607.3883, 25868.54
607.8704, 25891.15
608.3525, 25859.56
608.8347, 25806.32
609.3168, 25776.60
609.7989, 25773.39
610.2810, 25781.74
610.7631, 25807.48
611.2452, 25837.49
611.7274, 25875.66
612.2095, 25912.65
612.6916, 25935.46
613.1737, 25939.48
613.6558, 25927.38
614.1379, 25897.37
614.6201, 25851.61
615.1022, 25804.02
615.5843, 25747.42
616.0664, 25714.99
616.5485, 25750.92
617.0306, 25834.60
617.5128, 25877.11
617.9949, 25827.96
618.4770, 25792.58
618.9591, 25833.46
619.4412, 25900.24
619.9233, 25921.98
620.4055, 25887.85
620.8876, 25840.96
621.3697, 25824.01
621.8518, 25834.61
622.3339, 25830.57
622.8160, 25805.89
623.2982, 25776.62
