##NAMES=Tangeite
##RRUFFID=R070489
##IDEAL CHEMISTRY=CaCu^2+^V^5+^O_4_(OH)
##LOCALITY=Chinita mine, Tal Tal, Antofagasta Province, Chile
##OWNER=RRUFF
##SOURCE=Bob Jenkins
##DESCRIPTION=Aggregates of bright green prismatic crystals associated with calcite and malachite
##STATUS=The identification of this mineral is confirmed by single-crystal X-ray diffraction and chemical analysis.
##URL=rruff.info/R070489
##MEASURED CHEMISTRY=(Ca_0.99_[box]_0.01_)_Σ=1_Cu_1.00_(V_0.93_P_0.04_S_0.02_As_0.01_)_Σ=1_O_4_(OH); OH estimated by charge balance
130.3886, 1199.958
130.8707, 1302.821
131.3528, 1406.092
131.8349, 1508.221
132.3170, 1610.194
132.7991, 1715.931
133.2813, 1826.056
133.7634, 1931.374
134.2455, 2026.607
134.7276, 2111.289
135.2097, 2191.178
135.6918, 2268.709
136.1740, 2341.340
136.6561, 2400.475
137.1382, 2443.844
137.6203, 2482.260
138.1024, 2528.503
138.5845, 2585.459
139.0667, 2634.329
139.5488, 2670.056
140.0309, 2692.801
140.5130, 2711.716
140.9951, 2722.830
141.4772, 2735.674
141.9594, 2766.735
142.4415, 2827.233
142.9236, 2880.223
143.4057, 2912.191
143.8878, 2915.731
144.3699, 2925.050
144.8521, 2942.023
145.3342, 2964.114
145.8163, 2985.963
146.2984, 3013.568
146.7805, 3033.516
147.2626, 3039.601
147.7448, 3021.647
148.2269, 3006.325
148.7090, 2992.336
149.1911, 2980.667
149.6732, 2977.408
150.1553, 2988.466
150.6375, 3003.686
151.1196, 3017.006
151.6017, 3031.113
152.0838, 3040.626
152.5659, 3039.603
153.0481, 3028.288
153.5302, 3030.115
154.0123, 3051.713
154.4944, 3084.365
154.9765, 3121.042
155.4586, 3165.007
155.9408, 3209.097
156.4229, 3248.695
156.9050, 3268.428
157.3871, 3283.333
157.8692, 3325.130
158.3513, 3374.042
158.8335, 3404.531
159.3156, 3387.518
159.7977, 3371.478
160.2798, 3376.957
160.7619, 3411.964
161.2440, 3448.932
161.7262, 3480.523
162.2083, 3508.449
162.6904, 3535.799
163.1725, 3564.602
163.6546, 3592.315
164.1367, 3616.922
164.6189, 3636.703
165.1010, 3656.317
165.5831, 3674.734
166.0652, 3693.844
166.5473, 3719.973
167.0294, 3760.783
167.5116, 3806.953
167.9937, 3850.259
168.4758, 3886.741
168.9579, 3921.719
169.4400, 3958.285
169.9221, 3996.166
170.4043, 4034.192
170.8864, 4067.084
171.3685, 4100.683
171.8506, 4143.127
172.3327, 4204.326
172.8148, 4269.934
173.2970, 4325.686
173.7791, 4371.932
174.2612, 4419.806
174.7433, 4476.317
175.2254, 4540.000
175.7076, 4608.957
176.1897, 4691.904
176.6718, 4775.485
177.1539, 4842.597
177.6360, 4892.044
178.1181, 4935.893
178.6003, 4985.837
179.0824, 5040.549
179.5645, 5093.714
180.0466, 5144.975
180.5287, 5193.399
181.0108, 5237.589
181.4930, 5278.588
181.9751, 5312.426
182.4572, 5330.272
182.9393, 5334.594
183.4214, 5337.447
183.9035, 5349.096
184.3857, 5364.600
184.8678, 5370.238
185.3499, 5362.330
185.8320, 5347.994
186.3141, 5337.828
186.7962, 5331.486
187.2784, 5326.083
187.7605, 5318.312
188.2426, 5309.323
188.7247, 5306.028
189.2068, 5314.264
189.6889, 5323.466
190.1711, 5306.865
190.6532, 5263.693
191.1353, 5217.947
191.6174, 5191.896
192.0995, 5183.398
192.5816, 5169.897
193.0638, 5144.828
193.5459, 5112.636
194.0280, 5088.699
194.5101, 5074.234
194.9922, 5059.155
195.4743, 5029.613
195.9565, 4986.407
196.4386, 4952.542
196.9207, 4937.385
197.4028, 4936.975
197.8849, 4929.649
198.3671, 4913.617
198.8492, 4896.842
199.3313, 4888.466
199.8134, 4889.016
200.2955, 4891.695
200.7776, 4893.239
201.2598, 4894.135
201.7419, 4903.764
202.2240, 4924.583
202.7061, 4948.785
203.1882, 4965.482
203.6703, 4973.328
204.1525, 4980.650
204.6346, 4992.157
205.1167, 5008.378
205.5988, 5013.989
206.0809, 5004.947
206.5630, 4990.989
207.0452, 4990.184
207.5273, 5007.212
208.0094, 5020.513
208.4915, 5020.604
208.9736, 5005.553
209.4557, 4992.090
209.9379, 4982.678
210.4200, 4972.656
210.9021, 4949.521
211.3842, 4906.252
211.8663, 4869.219
212.3484, 4857.795
212.8306, 4884.876
213.3127, 4878.511
213.7948, 4824.938
214.2769, 4744.735
214.7590, 4692.248
215.2411, 4680.579
215.7233, 4668.746
216.2054, 4633.215
216.6875, 4564.528
217.1696, 4506.131
217.6517, 4464.017
218.1338, 4432.146
218.6160, 4390.166
219.0981, 4332.058
219.5802, 4273.929
220.0623, 4228.087
220.5444, 4204.229
221.0265, 4164.125
221.5087, 4098.380
221.9908, 4013.913
222.4729, 3944.057
222.9550, 3892.361
223.4371, 3848.888
223.9192, 3807.406
224.4014, 3769.765
224.8835, 3731.400
225.3656, 3691.136
225.8477, 3649.542
226.3298, 3614.138
226.8119, 3591.324
227.2941, 3565.539
227.7762, 3521.608
228.2583, 3443.511
228.7404, 3385.399
229.2225, 3358.634
229.7046, 3359.890
230.1868, 3359.499
230.6689, 3359.207
231.1510, 3355.024
231.6331, 3343.338
232.1152, 3320.924
232.5973, 3297.796
233.0795, 3275.298
233.5616, 3253.447
234.0437, 3228.356
234.5258, 3193.501
235.0079, 3162.636
235.4901, 3149.248
235.9722, 3166.966
236.4543, 3175.056
236.9364, 3162.050
237.4185, 3128.541
237.9006, 3112.500
238.3828, 3121.827
238.8649, 3140.117
239.3470, 3152.035
239.8291, 3149.685
240.3112, 3155.843
240.7933, 3178.199
241.2755, 3217.078
241.7576, 3243.375
242.2397, 3250.172
242.7218, 3251.125
243.2039, 3258.873
243.6860, 3274.157
244.1682, 3294.975
244.6503, 3322.161
245.1324, 3356.091
245.6145, 3388.212
246.0966, 3417.755
246.5787, 3446.342
247.0609, 3474.423
247.5430, 3496.829
248.0251, 3529.081
248.5072, 3577.362
248.9893, 3642.187
249.4714, 3701.624
249.9536, 3751.840
250.4357, 3800.412
250.9178, 3855.973
251.3999, 3921.109
251.8820, 3986.859
252.3641, 4052.063
252.8463, 4116.269
253.3284, 4177.755
253.8105, 4231.401
254.2926, 4286.956
254.7747, 4355.899
255.2568, 4444.908
255.7390, 4533.829
256.2211, 4619.499
256.7032, 4701.141
257.1853, 4781.417
257.6674, 4859.238
258.1495, 4935.905
258.6317, 5013.410
259.1138, 5093.236
259.5959, 5169.080
260.0780, 5240.102
260.5601, 5307.204
261.0422, 5359.686
261.5244, 5389.125
262.0065, 5414.411
262.4886, 5461.324
262.9707, 5546.617
263.4528, 5609.876
263.9349, 5633.826
264.4171, 5617.529
264.8992, 5600.399
265.3813, 5589.165
265.8634, 5566.974
266.3455, 5509.166
266.8276, 5399.962
267.3098, 5304.173
267.7919, 5244.509
268.2740, 5220.787
268.7561, 5162.747
269.2382, 5060.777
269.7203, 4942.936
270.2025, 4838.431
270.6846, 4751.422
271.1667, 4664.012
271.6488, 4570.733
272.1309, 4472.298
272.6130, 4373.765
273.0952, 4272.842
273.5773, 4176.677
274.0594, 4093.448
274.5415, 4024.708
275.0236, 3962.080
275.5057, 3906.776
275.9879, 3857.417
276.4700, 3798.259
276.9521, 3725.449
277.4342, 3653.426
277.9163, 3598.201
278.3984, 3561.424
278.8806, 3525.585
279.3627, 3483.712
279.8448, 3439.165
280.3269, 3413.475
280.8090, 3411.175
281.2911, 3412.382
281.7733, 3394.046
282.2554, 3355.157
282.7375, 3325.574
283.2196, 3314.218
283.7017, 3316.902
284.1838, 3318.176
284.6660, 3318.140
285.1481, 3315.863
285.6302, 3307.051
286.1123, 3292.394
286.5944, 3287.055
287.0765, 3298.051
287.5587, 3318.849
288.0408, 3328.396
288.5229, 3325.726
289.0050, 3322.806
289.4871, 3330.854
289.9692, 3348.406
290.4514, 3365.572
290.9335, 3380.381
291.4156, 3393.605
291.8977, 3405.516
292.3798, 3416.155
292.8619, 3429.028
293.3441, 3445.380
293.8262, 3465.886
294.3083, 3492.858
294.7904, 3527.678
295.2725, 3568.110
295.7547, 3613.547
296.2368, 3662.983
296.7189, 3708.932
297.2010, 3736.931
297.6831, 3756.692
298.1653, 3795.171
298.6474, 3863.456
299.1295, 3940.608
299.6116, 3997.327
300.0937, 4036.378
300.5758, 4076.581
301.0580, 4122.472
301.5401, 4178.636
302.0222, 4257.438
302.5043, 4365.854
302.9864, 4482.814
303.4685, 4577.385
303.9507, 4658.087
304.4328, 4751.810
304.9149, 4884.768
305.3970, 5035.584
305.8791, 5178.341
306.3612, 5305.657
306.8434, 5433.494
307.3255, 5570.151
307.8076, 5715.905
308.2897, 5874.166
308.7718, 6056.028
309.2539, 6244.661
309.7361, 6421.667
310.2182, 6581.408
310.7003, 6744.964
311.1824, 6914.072
311.6645, 7096.425
312.1466, 7304.887
312.6288, 7566.859
313.1109, 7844.187
313.5930, 8115.609
314.0751, 8382.055
314.5572, 8640.336
315.0393, 8880.249
315.5215, 9113.697
316.0036, 9355.577
316.4857, 9617.778
316.9678, 9887.591
317.4499, 10160.61
317.9320, 10436.38
318.4142, 10721.75
318.8963, 11029.67
319.3784, 11343.15
319.8605, 11649.05
320.3426, 11963.68
320.8247, 12248.95
321.3069, 12486.57
321.7890, 12677.81
322.2711, 12843.22
322.7532, 12985.70
323.2353, 13104.68
323.7174, 13199.69
324.1996, 13296.32
324.6817, 13341.28
325.1638, 13313.67
325.6459, 13218.54
326.1280, 13102.17
326.6101, 12961.18
327.0923, 12805.27
327.5744, 12641.77
328.0565, 12527.62
328.5386, 12337.71
329.0207, 12034.61
329.5028, 11645.51
329.9850, 11270.12
330.4671, 10913.86
330.9492, 10566.92
331.4313, 10221.08
331.9134, 9862.115
332.3955, 9528.509
332.8777, 9223.293
333.3598, 8944.689
333.8419, 8673.037
334.3240, 8401.269
334.8061, 8146.063
335.2882, 7914.079
335.7704, 7711.107
336.2525, 7508.154
336.7346, 7298.657
337.2167, 7091.921
337.6988, 6902.075
338.1809, 6727.241
338.6631, 6570.634
339.1452, 6438.872
339.6273, 6332.321
340.1094, 6223.934
340.5915, 6112.859
341.0736, 5999.540
341.5558, 5885.422
342.0379, 5767.969
342.5200, 5658.926
343.0021, 5558.875
343.4842, 5469.606
343.9663, 5399.473
344.4485, 5351.702
344.9306, 5310.634
345.4127, 5262.725
345.8948, 5208.609
346.3769, 5152.241
346.8590, 5090.181
347.3412, 5030.073
347.8233, 4997.105
348.3054, 4991.359
348.7875, 4989.567
349.2696, 4968.906
349.7517, 4936.746
350.2339, 4915.688
350.7160, 4913.177
351.1981, 4918.652
351.6802, 4914.955
352.1623, 4904.272
352.6444, 4899.677
353.1266, 4914.564
353.6087, 4939.318
354.0908, 4953.394
354.5729, 4946.176
355.0550, 4954.304
355.5371, 5041.266
356.0193, 5173.250
356.5014, 5266.289
356.9835, 5244.518
357.4656, 5183.627
357.9477, 5147.466
358.4298, 5143.348
358.9120, 5151.095
359.3941, 5158.030
359.8762, 5169.366
360.3583, 5192.441
360.8404, 5231.844
361.3225, 5282.257
361.8047, 5348.854
362.2868, 5431.317
362.7689, 5500.841
363.2510, 5538.466
363.7331, 5561.882
364.2152, 5586.711
364.6974, 5614.010
365.1795, 5645.336
365.6616, 5684.750
366.1437, 5730.411
366.6258, 5770.077
367.1079, 5800.196
367.5901, 5824.978
368.0722, 5846.845
368.5543, 5876.766
369.0364, 5890.419
369.5185, 5878.079
370.0006, 5848.918
370.4828, 5828.062
370.9649, 5834.278
371.4470, 5828.583
371.9291, 5793.338
372.4112, 5711.124
372.8933, 5647.560
373.3755, 5614.823
373.8576, 5593.474
374.3397, 5553.832
374.8218, 5492.721
375.3039, 5420.638
375.7860, 5338.431
376.2682, 5246.454
376.7503, 5153.349
377.2324, 5061.106
377.7145, 4965.237
378.1967, 4856.732
378.6788, 4734.577
379.1609, 4618.429
379.6430, 4513.144
380.1251, 4417.646
380.6072, 4323.077
381.0894, 4229.555
381.5715, 4141.077
382.0536, 4061.781
382.5357, 3990.379
383.0178, 3923.352
383.4999, 3859.687
383.9821, 3799.505
384.4642, 3743.259
384.9463, 3689.985
385.4284, 3639.074
385.9105, 3584.346
386.3926, 3531.754
386.8748, 3492.338
387.3569, 3467.131
387.8390, 3452.165
388.3211, 3453.287
388.8032, 3461.760
389.2853, 3458.320
389.7675, 3418.059
390.2496, 3372.659
390.7317, 3352.614
391.2138, 3358.581
391.6959, 3367.796
392.1780, 3373.042
392.6602, 3372.113
393.1423, 3362.635
393.6244, 3330.349
394.1065, 3302.942
394.5886, 3295.354
395.0707, 3303.689
395.5529, 3308.935
396.0350, 3302.006
396.5171, 3292.106
396.9992, 3284.508
397.4813, 3280.883
397.9634, 3278.091
398.4456, 3278.951
398.9277, 3280.104
399.4098, 3274.571
399.8919, 3262.242
400.3740, 3242.612
400.8561, 3212.798
401.3383, 3168.369
401.8204, 3133.344
402.3025, 3111.334
402.7846, 3096.134
403.2667, 3080.745
403.7488, 3063.964
404.2310, 3050.411
404.7131, 3043.043
405.1952, 3040.666
405.6773, 3031.019
406.1594, 3012.934
406.6415, 2990.459
407.1237, 2963.132
407.6058, 2929.832
408.0879, 2908.382
408.5700, 2902.623
409.0521, 2907.559
409.5342, 2914.609
410.0164, 2923.756
410.4985, 2930.164
410.9806, 2931.810
411.4627, 2928.554
411.9448, 2917.269
412.4269, 2896.016
412.9091, 2876.348
413.3912, 2876.054
413.8733, 2889.192
414.3554, 2898.887
414.8375, 2899.003
415.3196, 2891.424
415.8018, 2873.426
416.2839, 2846.346
416.7660, 2824.937
417.2481, 2826.297
417.7302, 2836.948
418.2123, 2841.712
418.6945, 2835.099
419.1766, 2823.890
419.6587, 2807.230
420.1408, 2788.374
420.6229, 2776.701
421.1050, 2788.910
421.5872, 2799.500
422.0693, 2792.208
422.5514, 2757.948
423.0335, 2729.193
423.5156, 2716.835
423.9977, 2712.281
424.4799, 2704.166
424.9620, 2682.563
425.4441, 2666.608
425.9262, 2662.516
426.4083, 2670.546
426.8904, 2672.851
427.3726, 2667.843
427.8547, 2658.599
428.3368, 2647.059
428.8189, 2632.477
429.3010, 2616.671
429.7831, 2598.160
430.2653, 2579.329
430.7474, 2566.240
431.2295, 2559.282
431.7116, 2557.340
432.1937, 2563.560
432.6758, 2578.127
433.1580, 2580.032
433.6401, 2566.418
434.1222, 2549.020
434.6043, 2544.764
435.0864, 2551.888
435.5685, 2555.551
436.0507, 2549.023
436.5328, 2536.594
437.0149, 2525.334
437.4970, 2515.363
437.9791, 2509.652
438.4612, 2514.461
438.9434, 2524.206
439.4255, 2530.242
439.9076, 2531.306
440.3897, 2527.114
440.8718, 2513.135
441.3539, 2493.740
441.8361, 2478.786
442.3182, 2473.984
442.8003, 2474.421
443.2824, 2479.491
443.7645, 2490.185
444.2466, 2495.679
444.7288, 2485.634
445.2109, 2471.217
445.6930, 2463.504
446.1751, 2474.341
446.6572, 2481.241
447.1393, 2475.652
447.6215, 2459.959
448.1036, 2453.640
448.5857, 2466.928
449.0678, 2479.982
449.5499, 2482.898
450.0320, 2466.988
450.5142, 2462.755
450.9963, 2477.161
451.4784, 2498.053
451.9605, 2503.545
452.4426, 2488.321
452.9247, 2475.571
453.4069, 2472.020
453.8890, 2477.026
454.3711, 2486.778
454.8532, 2502.779
455.3353, 2516.080
455.8174, 2514.574
456.2996, 2500.845
456.7817, 2493.985
457.2638, 2498.270
457.7459, 2508.982
458.2280, 2520.329
458.7101, 2532.115
459.1923, 2544.153
459.6744, 2557.893
460.1565, 2571.144
460.6386, 2580.395
461.1208, 2585.500
461.6029, 2588.658
462.0850, 2588.110
462.5671, 2587.749
463.0492, 2592.533
463.5313, 2609.684
464.0135, 2627.432
464.4956, 2634.215
464.9777, 2634.831
465.4598, 2650.729
465.9419, 2699.179
466.4240, 2756.260
466.9062, 2810.746
467.3883, 2866.346
467.8704, 2908.726
468.3525, 2918.375
468.8346, 2921.198
469.3167, 2953.866
469.7989, 3032.214
470.2810, 3114.154
470.7631, 3190.961
471.2452, 3262.797
471.7273, 3340.708
472.2094, 3427.004
472.6916, 3514.746
473.1737, 3596.865
473.6558, 3672.439
474.1379, 3761.107
474.6200, 3867.320
475.1021, 3985.160
475.5843, 4109.596
476.0664, 4239.782
476.5485, 4363.905
477.0306, 4468.523
477.5127, 4564.007
477.9948, 4673.939
478.4770, 4798.590
478.9591, 4921.731
479.4412, 5026.000
479.9233, 5121.165
480.4054, 5222.121
480.8875, 5338.820
481.3697, 5452.116
481.8518, 5550.007
482.3339, 5634.266
482.8160, 5709.779
483.2981, 5789.378
483.7802, 5852.419
484.2624, 5885.876
484.7445, 5887.306
485.2266, 5870.903
485.7087, 5844.414
486.1908, 5798.446
486.6729, 5724.063
487.1551, 5612.476
487.6372, 5485.151
488.1193, 5340.365
488.6014, 5182.571
489.0835, 5015.840
489.5656, 4831.304
490.0478, 4655.271
490.5299, 4501.047
491.0120, 4370.768
491.4941, 4238.479
491.9762, 4101.649
492.4583, 3966.119
492.9405, 3834.512
493.4226, 3706.824
493.9047, 3597.995
494.3868, 3513.526
494.8689, 3447.672
495.3510, 3388.720
495.8332, 3337.119
496.3153, 3294.516
496.7974, 3268.072
497.2795, 3248.603
497.7616, 3222.375
498.2437, 3184.817
498.7259, 3153.987
499.2080, 3144.833
499.6901, 3148.991
500.1722, 3154.472
500.6543, 3163.858
501.1364, 3167.268
501.6186, 3153.560
502.1007, 3126.564
502.5828, 3115.064
503.0649, 3141.068
503.5470, 3170.588
504.0291, 3186.239
504.5113, 3181.953
504.9934, 3178.099
505.4755, 3174.772
505.9576, 3171.905
506.4397, 3170.235
506.9218, 3171.872
507.4040, 3167.974
507.8861, 3154.227
508.3682, 3133.343
508.8503, 3120.439
509.3324, 3116.708
509.8145, 3111.492
510.2967, 3095.858
510.7788, 3071.917
511.2609, 3047.764
511.7430, 3023.136
512.2252, 3002.871
512.7073, 2997.043
513.1894, 3000.093
513.6715, 2998.687
514.1536, 2985.879
514.6357, 2967.439
515.1179, 2945.192
515.6000, 2920.273
516.0821, 2899.784
516.5642, 2893.775
517.0463, 2888.759
517.5284, 2873.740
518.0106, 2840.140
518.4927, 2815.055
518.9748, 2812.931
519.4569, 2819.729
519.9390, 2817.028
520.4211, 2799.613
520.9033, 2779.032
521.3854, 2755.362
521.8675, 2729.344
522.3496, 2707.141
522.8317, 2689.141
523.3138, 2673.730
523.7960, 2661.376
524.2781, 2652.368
524.7602, 2640.270
525.2423, 2624.904
525.7244, 2606.501
526.2065, 2581.654
526.6887, 2552.557
527.1708, 2531.166
527.6529, 2524.808
528.1350, 2524.921
528.6171, 2518.892
529.0992, 2507.807
529.5814, 2497.540
530.0635, 2492.644
530.5456, 2489.531
531.0277, 2484.372
531.5098, 2476.160
531.9919, 2468.967
532.4741, 2467.230
532.9562, 2466.253
533.4383, 2460.953
533.9204, 2445.253
534.4025, 2430.667
534.8846, 2415.850
535.3668, 2403.081
535.8489, 2403.099
536.3310, 2429.873
536.8131, 2450.101
537.2952, 2448.617
537.7773, 2421.612
538.2595, 2405.555
538.7416, 2403.322
539.2237, 2405.537
539.7058, 2402.284
540.1879, 2393.749
540.6700, 2386.847
541.1522, 2383.411
541.6343, 2381.198
542.1164, 2374.392
542.5985, 2364.482
543.0806, 2358.982
543.5627, 2366.512
544.0449, 2378.043
544.5270, 2382.642
545.0091, 2380.115
545.4912, 2376.168
545.9733, 2375.907
546.4554, 2374.969
546.9376, 2368.864
547.4197, 2351.974
547.9018, 2337.904
548.3839, 2333.979
548.8660, 2334.719
549.3481, 2329.709
549.8303, 2306.217
550.3124, 2291.644
550.7945, 2296.724
551.2766, 2319.692
551.7587, 2326.495
552.2408, 2310.046
552.7230, 2292.656
553.2051, 2291.398
553.6872, 2307.231
554.1693, 2314.212
554.6514, 2309.922
555.1335, 2300.023
555.6157, 2290.453
556.0978, 2281.446
556.5799, 2274.070
557.0620, 2267.102
557.5441, 2263.519
558.0262, 2271.953
558.5084, 2288.869
558.9905, 2299.051
559.4726, 2285.263
559.9547, 2267.603
560.4368, 2261.829
560.9189, 2271.243
561.4011, 2281.736
561.8832, 2295.505
562.3653, 2304.906
562.8474, 2303.177
563.3295, 2270.680
563.8116, 2251.264
564.2938, 2253.596
564.7759, 2268.627
565.2580, 2274.647
565.7401, 2268.344
566.2222, 2261.035
566.7043, 2255.671
567.1865, 2252.410
567.6686, 2253.261
568.1507, 2258.621
568.6328, 2265.066
569.1149, 2271.020
569.5970, 2275.894
570.0792, 2277.817
570.5613, 2276.579
571.0434, 2272.066
571.5255, 2259.555
572.0076, 2244.197
572.4897, 2235.318
572.9719, 2242.563
573.4540, 2252.187
573.9361, 2258.501
574.4182, 2261.161
574.9003, 2258.915
575.3824, 2247.348
575.8646, 2234.239
576.3467, 2221.100
576.8288, 2204.715
577.3109, 2202.767
577.7930, 2226.374
578.2751, 2253.379
578.7573, 2263.078
579.2394, 2251.466
579.7215, 2239.394
580.2036, 2228.563
580.6857, 2219.344
581.1678, 2212.102
581.6500, 2206.904
582.1321, 2204.503
582.6142, 2206.422
583.0963, 2210.905
583.5784, 2216.591
584.0605, 2222.944
584.5427, 2225.014
585.0248, 2216.816
585.5069, 2203.935
585.9890, 2190.670
586.4711, 2176.448
586.9532, 2167.384
587.4354, 2170.287
587.9175, 2177.917
588.3996, 2182.216
588.8817, 2179.560
589.3638, 2176.025
589.8459, 2169.308
590.3281, 2162.248
590.8102, 2165.632
591.2923, 2186.842
591.7744, 2201.039
592.2565, 2195.083
592.7386, 2171.009
593.2208, 2160.375
593.7029, 2164.725
594.1850, 2171.882
594.6671, 2170.474
595.1492, 2163.410
595.6313, 2158.822
596.1135, 2157.492
596.5956, 2160.447
597.0777, 2176.624
597.5598, 2196.580
598.0419, 2203.799
598.5240, 2174.825
599.0062, 2148.733
599.4883, 2147.158
599.9704, 2164.178
600.4525, 2177.276
600.9346, 2183.780
601.4167, 2182.844
601.8989, 2170.177
602.3810, 2143.068
602.8631, 2131.378
603.3452, 2142.652
603.8273, 2157.699
604.3094, 2159.790
604.7916, 2147.038
605.2737, 2142.120
605.7558, 2148.520
606.2379, 2159.312
606.7200, 2163.878
607.2021, 2163.942
607.6843, 2167.560
608.1664, 2182.553
608.6485, 2197.447
609.1306, 2197.600
609.6127, 2185.960
610.0948, 2173.341
610.5770, 2161.006
611.0591, 2152.866
611.5412, 2155.031
612.0233, 2169.563
612.5054, 2174.868
612.9875, 2151.853
613.4697, 2128.637
613.9518, 2125.398
614.4339, 2158.015
614.9160, 2175.550
615.3981, 2173.000
615.8802, 2159.632
616.3624, 2147.675
616.8445, 2137.043
617.3266, 2129.628
617.8087, 2125.932
618.2908, 2125.722
618.7729, 2129.900
619.2551, 2137.781
619.7372, 2145.309
620.2193, 2149.744
620.7014, 2152.915
621.1835, 2158.188
621.6656, 2165.469
622.1478, 2168.686
622.6299, 2158.335
623.1120, 2146.928
623.5941, 2145.003
