##NAMES=Taniajacoite
##RRUFFID=R140945
##IDEAL CHEMISTRY=SrCaMn^3+^_2_Si_4_O_11_(OH)_4_&#183;2H_2_O
##LOCALITY=N'Chwaning III mine, Kalahari manganese field, Northern Cape Province, South Africa
##OWNER=RRUFF
##SOURCE=Jaco and Tania Janse van Nieuwenhuizen
##DESCRIPTION=Aggregates of radiating acicular  brown crystals, associated with pink sugilite and dark-red lipuite. Type sample.
##STATUS=The identification of this mineral is confirmed by single-crystal X-ray diffraction and chemical analysis.
##URL=rruff.info/R140945
##MEASURED CHEMISTRY=Sr(Ca_0.81_Sr_0.19_)_Σ1.00_(Mn^3+^_1.90_Fe^3+^_0.15_Al_0.01_)_Σ2.06_Si_3.96_O_11_(OH)_4_·2H_2_O
147.1551, 707.0688
147.6372, 711.3883
148.1193, 715.4711
148.6014, 718.9632
149.0836, 722.1733
149.5657, 726.3329
150.0478, 732.0720
150.5299, 738.1595
151.0120, 744.1053
151.4941, 749.6790
151.9763, 755.2955
152.4584, 760.8337
152.9405, 766.3668
153.4226, 772.3940
153.9047, 778.9934
154.3868, 786.0598
154.8690, 793.5349
155.3511, 802.0867
155.8332, 810.3173
156.3153, 817.4798
156.7974, 823.7930
157.2795, 831.0284
157.7617, 840.2354
158.2438, 850.1608
158.7259, 859.9009
159.2080, 868.3337
159.6901, 877.4564
160.1722, 888.1786
160.6544, 900.4386
161.1365, 912.7036
161.6186, 923.9584
162.1007, 935.0865
162.5828, 947.1813
163.0649, 961.3422
163.5471, 975.7690
164.0292, 989.2510
164.5113, 1001.740
164.9934, 1015.174
165.4755, 1030.839
165.9576, 1047.973
166.4398, 1065.411
166.9219, 1083.094
167.4040, 1100.892
167.8861, 1118.478
168.3682, 1135.902
168.8503, 1153.395
169.3325, 1170.963
169.8146, 1188.793
170.2967, 1206.913
170.7788, 1226.745
171.2609, 1246.366
171.7430, 1264.036
172.2252, 1279.776
172.7073, 1293.417
173.1894, 1304.775
173.6715, 1314.004
174.1536, 1321.120
174.6357, 1325.970
175.1179, 1328.978
175.6000, 1330.633
176.0821, 1330.962
176.5642, 1329.929
177.0463, 1327.336
177.5284, 1323.289
178.0106, 1318.176
178.4927, 1311.719
178.9748, 1304.421
179.4569, 1296.999
179.9390, 1289.238
180.4211, 1282.213
180.9033, 1277.389
181.3854, 1274.455
181.8675, 1272.023
182.3496, 1269.070
182.8317, 1266.040
183.3138, 1263.953
183.7960, 1263.095
184.2781, 1262.739
184.7602, 1261.842
185.2423, 1260.461
185.7244, 1259.191
186.2065, 1258.617
186.6887, 1258.479
187.1708, 1257.858
187.6529, 1256.691
188.1350, 1254.903
188.6171, 1252.005
189.0992, 1248.006
189.5814, 1244.301
190.0635, 1242.193
190.5456, 1241.355
191.0277, 1239.719
191.5098, 1236.950
191.9919, 1233.435
192.4741, 1229.772
192.9562, 1225.950
193.4383, 1222.507
193.9204, 1219.838
194.4025, 1217.926
194.8846, 1216.484
195.3668, 1215.450
195.8489, 1214.895
196.3310, 1214.736
196.8131, 1214.856
197.2952, 1216.228
197.7773, 1219.727
198.2595, 1225.384
198.7416, 1231.767
199.2237, 1238.579
199.7058, 1246.054
200.1879, 1254.839
200.6700, 1265.146
201.1522, 1276.237
201.6343, 1287.523
202.1164, 1298.919
202.5985, 1311.510
203.0806, 1325.365
203.5627, 1340.409
204.0449, 1356.379
204.5270, 1373.420
205.0091, 1390.872
205.4912, 1408.100
205.9733, 1424.882
206.4554, 1442.859
206.9376, 1462.792
207.4197, 1483.831
207.9018, 1503.436
208.3839, 1521.336
208.8660, 1538.583
209.3481, 1555.763
209.8303, 1573.130
210.3124, 1589.817
210.7945, 1605.879
211.2766, 1621.141
211.7587, 1635.419
212.2408, 1648.689
212.7230, 1661.116
213.2051, 1673.242
213.6872, 1685.668
214.1693, 1695.593
214.6514, 1702.211
215.1335, 1706.033
215.6157, 1709.417
216.0978, 1713.020
216.5799, 1714.920
217.0620, 1713.788
217.5441, 1709.087
218.0262, 1702.907
218.5084, 1696.029
218.9905, 1687.735
219.4726, 1675.028
219.9547, 1657.079
220.4368, 1635.876
220.9189, 1612.884
221.4011, 1588.028
221.8832, 1561.124
222.3653, 1531.677
222.8474, 1500.201
223.3295, 1467.225
223.8116, 1432.827
224.2938, 1397.997
224.7759, 1363.244
225.2580, 1328.540
225.7401, 1294.569
226.2222, 1260.845
226.7043, 1227.856
227.1865, 1196.037
227.6686, 1165.859
228.1507, 1137.066
228.6328, 1109.880
229.1149, 1084.492
229.5970, 1060.375
230.0792, 1037.557
230.5613, 1016.021
231.0434, 996.5392
231.5255, 979.8444
232.0076, 964.5009
232.4897, 949.9480
232.9719, 936.0612
233.4540, 923.3209
233.9361, 911.5849
234.4182, 900.9696
234.9003, 891.7198
235.3824, 884.0943
235.8646, 877.4595
236.3467, 871.5060
236.8288, 866.1586
237.3109, 861.6184
237.7930, 857.8292
238.2751, 854.8257
238.7573, 852.8575
239.2394, 852.0483
239.7215, 852.0629
240.2036, 852.6876
240.6857, 853.6215
241.1678, 855.8472
241.6500, 859.6334
242.1321, 864.6039
242.6142, 869.9089
243.0963, 875.4098
243.5784, 881.4248
244.0605, 888.1416
244.5427, 896.0779
245.0248, 903.4846
245.5069, 910.2227
245.9890, 916.5256
246.4711, 922.7515
246.9532, 928.8491
247.4354, 935.0730
247.9175, 941.3880
248.3996, 947.6529
248.8817, 954.6719
249.3638, 962.7806
249.8459, 971.4774
250.3281, 979.9018
250.8102, 988.2679
251.2923, 996.0397
251.7744, 1002.997
252.2565, 1008.817
252.7386, 1014.968
253.2208, 1021.635
253.7029, 1028.494
254.1850, 1035.110
254.6671, 1041.267
255.1492, 1047.617
255.6313, 1054.415
256.1135, 1061.747
256.5956, 1068.766
257.0777, 1075.718
257.5598, 1081.998
258.0419, 1086.847
258.5240, 1090.306
259.0062, 1092.115
259.4883, 1092.376
259.9704, 1091.172
260.4525, 1087.079
260.9346, 1079.680
261.4167, 1069.997
261.8989, 1059.245
262.3810, 1047.892
262.8631, 1034.453
263.3452, 1018.330
263.8273, 999.3378
264.3094, 980.7553
264.7916, 962.4738
265.2737, 944.3581
265.7558, 925.7827
266.2379, 906.4301
266.7200, 888.0942
267.2021, 870.9610
267.6843, 855.0659
268.1664, 839.9449
268.6485, 825.4758
269.1306, 812.0644
269.6127, 800.3398
270.0948, 790.5557
270.5770, 781.3659
271.0591, 772.4515
271.5412, 764.0390
272.0233, 757.1021
272.5054, 751.9203
272.9875, 747.7316
273.4697, 743.9731
273.9518, 740.5215
274.4339, 738.2035
274.9160, 737.4438
275.3981, 737.6923
275.8802, 736.9786
276.3624, 734.9124
276.8445, 733.4974
277.3266, 734.5157
277.8087, 738.2078
278.2908, 740.7076
278.7729, 741.4506
279.2551, 741.1476
279.7372, 741.4327
280.2193, 742.4240
280.7014, 743.2604
281.1835, 743.5007
281.6656, 743.1499
282.1478, 742.5577
282.6299, 741.8339
283.1120, 740.6791
283.5941, 738.3779
284.0762, 734.8641
284.5583, 731.2939
285.0405, 728.5775
285.5226, 726.4923
286.0047, 722.7518
286.4868, 717.0703
286.9689, 710.6370
287.4510, 704.9966
287.9332, 700.1143
288.4153, 695.2944
288.8974, 690.5892
289.3795, 685.7943
289.8616, 679.9503
290.3438, 672.8804
290.8259, 665.9775
291.3080, 661.1086
291.7901, 657.9778
292.2722, 654.4958
292.7543, 649.7328
293.2365, 644.3358
293.7186, 639.6829
294.2007, 635.8122
294.6828, 632.7913
295.1649, 631.0739
295.6470, 630.3516
296.1292, 629.5538
296.6113, 628.4041
297.0934, 627.0606
297.5755, 625.6976
298.0576, 624.3206
298.5397, 623.0405
299.0219, 621.7330
299.5040, 620.5845
299.9861, 620.0667
300.4682, 620.4145
300.9503, 621.1368
301.4324, 621.8184
301.9146, 622.4251
302.3967, 622.8246
302.8788, 623.1847
303.3609, 623.2089
303.8430, 622.2903
304.3251, 620.1450
304.8073, 617.8264
305.2894, 616.1794
305.7715, 615.0958
306.2536, 614.2711
306.7357, 613.5531
307.2178, 613.0107
307.7000, 612.8995
308.1821, 613.3024
308.6642, 613.4039
309.1463, 611.9002
309.6284, 609.8055
310.1105, 608.6885
310.5927, 610.4210
311.0748, 612.5071
311.5569, 612.7882
312.0390, 611.2455
312.5211, 610.3322
313.0032, 611.9436
313.4854, 614.7194
313.9675, 617.1958
314.4496, 618.5270
314.9317, 619.7797
315.4138, 621.3022
315.8959, 623.1332
316.3781, 625.5045
316.8602, 629.0704
317.3423, 632.8823
317.8244, 636.1988
318.3065, 638.3062
318.7886, 640.6886
319.2708, 643.8984
319.7529, 647.7489
320.2350, 651.7328
320.7171, 655.6931
321.1992, 659.6992
321.6813, 663.8167
322.1635, 668.2079
322.6456, 672.3295
323.1277, 675.4043
323.6098, 678.2363
324.0919, 682.1901
324.5740, 689.3798
325.0562, 695.9248
325.5383, 700.3330
326.0204, 701.8715
326.5025, 704.0141
326.9846, 707.2431
327.4667, 711.0788
327.9489, 715.0619
328.4310, 720.2535
328.9131, 724.4167
329.3952, 726.7906
329.8773, 727.3185
330.3594, 728.7202
330.8416, 731.1735
331.3237, 734.3349
331.8058, 738.0222
332.2879, 742.7628
332.7700, 747.1020
333.2521, 750.5432
333.7343, 753.4564
334.2164, 757.8205
334.6985, 764.4545
335.1806, 771.1676
335.6627, 776.6417
336.1448, 780.1266
336.6270, 784.5891
337.1091, 790.4326
337.5912, 796.9854
338.0733, 803.1272
338.5554, 808.9438
339.0375, 813.8772
339.5197, 817.2939
340.0018, 819.0229
340.4839, 822.2902
340.9660, 827.6425
341.4481, 833.2042
341.9302, 836.1907
342.4124, 836.4413
342.8945, 836.6176
343.3766, 837.6723
343.8587, 839.2796
344.3408, 839.9854
344.8229, 839.7344
345.3051, 838.8974
345.7872, 837.8312
346.2693, 836.5027
346.7514, 834.5803
347.2335, 831.9011
347.7156, 828.7535
348.1978, 825.6547
348.6799, 822.6150
349.1620, 819.6906
349.6441, 816.8956
350.1262, 814.2555
350.6083, 811.8839
351.0905, 809.8314
351.5726, 807.8365
352.0547, 805.3951
352.5368, 802.7090
353.0189, 800.3923
353.5010, 799.0433
353.9832, 798.0915
354.4653, 796.9694
354.9474, 795.6469
355.4295, 793.9304
355.9116, 791.0544
356.3937, 787.7928
356.8759, 785.3497
357.3580, 784.7851
357.8401, 784.6341
358.3222, 783.8402
358.8043, 782.5181
359.2864, 781.3912
359.7686, 780.6667
360.2507, 780.3943
360.7328, 780.6521
361.2149, 781.6488
361.6970, 782.8398
362.1791, 784.1464
362.6613, 785.4815
363.1434, 786.6522
363.6255, 787.1613
364.1076, 787.8254
364.5897, 788.9194
365.0718, 790.3115
365.5540, 792.6259
366.0361, 796.9050
366.5182, 801.8513
367.0003, 805.9110
367.4824, 808.1795
367.9645, 810.3135
368.4467, 812.4227
368.9288, 814.4542
369.4109, 817.3868
369.8930, 821.2823
370.3751, 826.0576
370.8572, 831.8405
371.3394, 840.1015
371.8215, 846.7614
372.3036, 850.9469
372.7857, 853.3348
373.2678, 856.3620
373.7499, 860.1571
374.2321, 864.3895
374.7142, 868.7762
375.1963, 873.1529
375.6784, 878.6987
376.1605, 886.0280
376.6426, 893.6841
377.1248, 898.9736
377.6069, 901.5952
378.0890, 904.0078
378.5711, 906.9421
379.0532, 910.3505
379.5353, 913.6737
380.0175, 916.9301
380.4996, 920.1844
380.9817, 923.4620
381.4638, 926.7668
381.9459, 930.2949
382.4280, 934.1249
382.9102, 938.0905
383.3923, 941.9492
383.8744, 945.6893
384.3565, 948.9223
384.8386, 951.1314
385.3207, 952.6851
385.8029, 954.2654
386.2850, 955.9716
386.7671, 957.6012
387.2492, 958.8263
387.7313, 959.8232
388.2134, 960.9708
388.6956, 962.7466
389.1777, 964.5462
389.6598, 965.7038
390.1419, 966.2557
390.6240, 966.9114
391.1061, 968.2792
391.5883, 969.9295
392.0704, 971.4517
392.5525, 973.0148
393.0346, 974.0633
393.5167, 973.9789
393.9988, 973.1550
394.4810, 972.6906
394.9631, 973.7969
395.4452, 974.7151
395.9273, 974.3823
396.4094, 972.1550
396.8915, 970.3450
397.3737, 969.8565
397.8558, 969.8373
398.3379, 969.2372
398.8200, 967.4102
399.3021, 965.5415
399.7842, 964.1221
400.2664, 963.1390
400.7485, 960.9727
401.2306, 957.0512
401.7127, 952.5101
402.1948, 947.9652
402.6769, 943.0481
403.1591, 939.0063
403.6412, 936.4330
404.1233, 934.5444
404.6054, 931.2263
405.0875, 926.1737
405.5696, 920.7008
406.0518, 915.2667
406.5339, 909.8781
407.0160, 904.6116
407.4981, 899.5507
407.9802, 894.5732
408.4623, 889.6223
408.9445, 884.6832
409.4266, 879.5703
409.9087, 874.1474
410.3908, 868.6256
410.8729, 863.5974
411.3550, 859.0377
411.8372, 854.6157
412.3193, 849.9619
412.8014, 845.2342
413.2835, 840.7891
413.7656, 836.6725
414.2477, 832.6904
414.7299, 828.4160
415.2120, 824.0941
415.6941, 820.4453
416.1762, 817.8275
416.6583, 815.9408
417.1404, 814.5946
417.6226, 813.7484
418.1047, 813.2134
418.5868, 812.7660
419.0689, 812.6032
419.5510, 812.9400
420.0331, 814.2245
420.5153, 815.4842
420.9974, 816.0691
421.4795, 816.3312
421.9616, 817.1382
422.4437, 818.8943
422.9258, 821.1207
423.4080, 823.7800
423.8901, 827.1661
424.3722, 830.0457
424.8543, 831.6097
425.3364, 832.9989
425.8185, 835.3279
426.3007, 839.2551
426.7828, 843.2238
427.2649, 847.0023
427.7470, 850.6205
428.2291, 854.4503
428.7112, 858.6761
429.1934, 862.7266
429.6755, 866.2805
430.1576, 869.1713
430.6397, 872.2874
431.1218, 875.6992
431.6039, 879.2331
432.0861, 882.9323
432.5682, 886.8591
433.0503, 889.8076
433.5324, 890.9933
434.0145, 890.9839
434.4966, 891.9003
434.9788, 893.7836
435.4609, 895.5964
435.9430, 896.1517
436.4251, 895.9591
436.9072, 896.6838
437.3893, 899.1218
437.8715, 901.3066
438.3536, 900.6072
438.8357, 897.7656
439.3178, 894.8509
439.7999, 892.9854
440.2820, 891.4666
440.7642, 889.9902
441.2463, 888.5125
441.7284, 886.0889
442.2105, 881.4061
442.6926, 875.8557
443.1747, 870.7876
443.6569, 867.1363
444.1390, 863.2880
444.6211, 858.8328
445.1032, 853.8091
445.5853, 848.4739
446.0674, 841.7190
446.5496, 835.6524
447.0317, 831.3536
447.5138, 829.6645
447.9959, 827.0450
448.4780, 822.7988
448.9601, 818.1291
449.4423, 814.0629
449.9244, 810.4897
450.4065, 807.9426
450.8886, 806.9135
451.3707, 806.9542
451.8528, 805.9431
452.3350, 803.4597
452.8171, 801.1508
453.2992, 799.7120
453.7813, 799.1316
454.2634, 799.7394
454.7455, 801.7585
455.2277, 804.2192
455.7098, 805.6722
456.1919, 806.3084
456.6740, 807.6412
457.1561, 810.4548
457.6382, 813.9677
458.1204, 816.7815
458.6025, 818.9911
459.0846, 821.0667
459.5667, 823.1306
460.0488, 825.3722
460.5309, 828.0406
461.0131, 831.1692
461.4952, 834.7217
461.9773, 838.3740
462.4594, 842.4554
462.9415, 847.5101
463.4236, 855.5247
463.9058, 862.8148
464.3879, 867.3596
464.8700, 869.3741
465.3521, 871.7593
465.8342, 875.9494
466.3163, 880.1920
466.7985, 883.4755
467.2806, 884.9881
467.7627, 886.8736
468.2448, 889.5864
468.7269, 892.4899
469.2090, 894.8201
469.6912, 897.0319
470.1733, 897.8293
470.6554, 896.6383
471.1375, 893.6484
471.6196, 890.7234
472.1017, 887.9539
472.5839, 884.9789
473.0660, 881.7128
473.5481, 878.1754
474.0302, 873.2595
474.5123, 866.6661
474.9944, 859.2907
475.4766, 852.6776
475.9587, 846.6177
476.4408, 839.6725
476.9229, 831.0602
477.4050, 821.4445
477.8871, 811.6102
478.3693, 801.6371
478.8514, 792.2060
479.3335, 784.0814
479.8156, 776.6145
480.2977, 769.0950
480.7798, 761.3550
481.2620, 753.7601
481.7441, 746.5547
482.2262, 739.6224
482.7083, 732.7942
483.1904, 725.6703
483.6725, 718.9240
484.1547, 713.0331
484.6368, 707.9496
485.1189, 702.6866
485.6010, 696.5731
486.0831, 690.6473
486.5652, 685.4755
487.0474, 681.2628
487.5295, 677.2995
488.0116, 673.7028
488.4937, 670.3128
488.9758, 666.8564
489.4579, 663.2570
489.9401, 659.8106
490.4222, 656.5975
490.9043, 653.5820
491.3864, 650.4279
491.8685, 647.0956
492.3506, 643.8166
492.8328, 640.6298
493.3149, 637.6097
493.7970, 635.1441
494.2791, 633.3444
494.7612, 631.6613
495.2433, 629.3002
495.7255, 626.5377
496.2076, 624.0355
496.6897, 621.9420
497.1718, 620.3112
497.6539, 619.5735
498.1360, 619.4810
498.6182, 619.0443
499.1003, 616.9346
499.5824, 614.8563
500.0645, 614.3834
500.5466, 616.2314
501.0287, 617.1149
501.5109, 615.0928
501.9930, 612.0803
502.4751, 610.0128
502.9572, 609.8417
503.4393, 609.7797
503.9214, 609.6194
504.4036, 609.4258
504.8857, 609.4727
505.3678, 610.0545
505.8499, 610.3625
506.3320, 609.9418
506.8141, 608.7164
507.2963, 607.9689
507.7784, 607.7758
508.2605, 607.8450
508.7426, 607.8365
509.2247, 607.7714
509.7068, 608.0063
510.1890, 608.6765
510.6711, 609.5364
511.1532, 610.2050
511.6353, 610.6982
512.1174, 611.0939
512.5995, 611.2734
513.0817, 611.4617
513.5638, 611.9852
514.0459, 612.8352
514.5280, 613.7043
515.0101, 614.5391
515.4922, 615.2358
515.9744, 615.6225
516.4565, 615.3307
516.9386, 615.4138
517.4207, 616.3909
517.9028, 617.9330
518.3849, 619.4969
518.8671, 621.5069
519.3492, 622.9666
519.8313, 623.3554
520.3134, 622.7819
520.7955, 622.9957
521.2776, 624.3495
521.7598, 625.9623
522.2419, 627.4150
522.7240, 628.7677
523.2061, 629.4849
523.6882, 629.2374
524.1703, 629.0381
524.6525, 630.5956
525.1346, 633.7770
525.6167, 636.2796
526.0988, 637.2345
526.5809, 637.4295
527.0630, 638.1912
527.5452, 639.4633
528.0273, 640.9039
528.5094, 642.7889
528.9915, 644.4912
529.4736, 644.9636
529.9557, 644.0760
530.4379, 643.6702
530.9200, 645.4135
531.4021, 647.9023
531.8842, 649.7321
532.3663, 649.9227
532.8484, 650.3254
533.3306, 651.6655
533.8127, 653.4985
534.2948, 654.8545
534.7769, 655.1721
535.2590, 655.5875
535.7411, 656.4051
536.2233, 657.6103
536.7054, 658.6768
537.1875, 659.5294
537.6696, 660.3979
538.1517, 661.4310
538.6339, 662.6275
539.1160, 663.9610
539.5981, 665.4175
540.0802, 667.0513
540.5623, 668.9230
541.0444, 671.0486
541.5266, 673.5875
542.0087, 676.7470
542.4908, 680.1493
542.9729, 682.9528
543.4550, 685.3793
543.9371, 688.4146
544.4193, 692.9601
544.9014, 698.1470
545.3835, 703.2305
545.8656, 708.1225
546.3477, 713.3545
546.8298, 719.1989
547.3120, 725.5211
547.7941, 732.1550
548.2762, 738.9948
548.7583, 746.3207
549.2404, 754.6270
549.7225, 763.2857
550.2047, 771.1115
550.6868, 777.2183
551.1689, 784.2562
551.6510, 792.9942
552.1331, 803.2132
552.6152, 813.2205
553.0974, 822.9290
553.5795, 832.9053
554.0616, 843.4258
554.5437, 854.5234
555.0258, 866.4774
555.5079, 879.4442
555.9901, 892.6844
556.4722, 905.7017
556.9543, 918.5510
557.4364, 931.3432
557.9185, 944.2122
558.4006, 956.9008
558.8828, 969.1541
559.3649, 981.1188
559.8470, 993.4260
560.3291, 1008.004
560.8112, 1021.384
561.2933, 1032.068
561.7755, 1039.956
562.2576, 1046.480
562.7397, 1051.079
563.2218, 1054.834
563.7039, 1058.545
564.1860, 1063.505
564.6682, 1064.964
565.1503, 1062.397
565.6324, 1057.037
566.1145, 1050.141
566.5966, 1041.526
567.0787, 1032.888
567.5609, 1025.081
568.0430, 1016.894
568.5251, 1005.519
569.0072, 991.1694
569.4893, 976.3320
569.9714, 962.0489
570.4536, 948.0593
570.9357, 933.7079
571.4178, 919.0923
571.8999, 904.9506
572.3820, 892.1975
572.8641, 880.0148
573.3463, 867.7119
573.8284, 854.5186
574.3105, 842.5724
574.7926, 833.0569
575.2747, 824.9179
575.7568, 816.8826
576.2390, 808.7418
576.7211, 800.6419
577.2032, 792.2259
577.6853, 783.8596
578.1674, 777.1981
578.6495, 772.6600
579.1317, 768.6281
579.6138, 764.5718
580.0959, 760.4801
580.5780, 756.0082
581.0601, 751.0331
581.5422, 746.6652
582.0244, 744.0465
582.5065, 742.7194
582.9886, 741.6852
583.4707, 740.8491
583.9528, 739.9858
584.4349, 738.6216
584.9171, 737.1647
585.3992, 736.2414
585.8813, 737.5898
586.3634, 737.8528
586.8455, 734.3940
587.3276, 728.6696
587.8098, 724.7993
588.2919, 725.0645
588.7740, 725.7823
589.2561, 726.0393
589.7382, 725.8319
590.2203, 724.9667
590.7025, 722.8539
591.1846, 721.1523
591.6667, 721.3042
592.1488, 723.5131
592.6309, 724.4648
593.1130, 723.7973
593.5952, 722.8476
594.0773, 723.5698
594.5594, 725.4818
595.0415, 726.6696
595.5236, 726.5638
596.0057, 725.7487
596.4879, 724.2390
596.9700, 722.5146
597.4521, 721.7187
597.9342, 723.4701
598.4163, 725.3336
598.8984, 725.6367
599.3806, 724.5733
599.8627, 724.2327
600.3448, 726.1719
600.8269, 728.0012
601.3090, 728.3588
601.7911, 726.4961
602.2733, 726.2449
602.7554, 728.4604
603.2375, 731.0782
603.7196, 732.0109
604.2017, 731.0801
604.6838, 730.3286
605.1660, 729.9216
605.6481, 729.9496
606.1302, 730.8378
606.6123, 732.3865
607.0944, 733.6301
607.5765, 733.8912
608.0587, 733.9980
608.5408, 735.3326
609.0229, 737.4412
609.5050, 738.7555
609.9871, 737.5914
610.4692, 736.0582
610.9514, 735.3894
611.4335, 735.6946
611.9156, 736.2403
612.3977, 737.5930
612.8798, 738.5804
613.3619, 738.4422
613.8441, 736.4877
614.3262, 735.1248
614.8083, 734.6807
615.2904, 734.3844
615.7725, 733.1475
616.2546, 730.9069
616.7368, 728.9272
617.2189, 727.4235
617.7010, 726.3189
618.1831, 725.7974
618.6652, 725.6515
619.1473, 725.0234
619.6295, 723.1567
620.1116, 720.8436
620.5937, 718.6638
621.0758, 716.6805
621.5579, 715.1438
622.0400, 714.6153
622.5222, 714.2595
623.0043, 713.5872
623.4864, 712.4873
623.9685, 711.4498
624.4506, 710.9766
624.9327, 710.1991
625.4149, 708.3697
625.8970, 704.8351
626.3791, 702.3511
626.8612, 701.2861
627.3433, 700.8220
627.8254, 699.9103
628.3076, 698.5591
628.7897, 696.9426
629.2718, 695.0939
629.7539, 693.0118
630.2360, 690.5352
630.7181, 687.8109
631.2003, 685.3329
631.6824, 683.3713
632.1645, 681.7338
632.6466, 680.3536
633.1287, 679.1990
633.6108, 678.1680
634.0930, 677.7491
634.5751, 676.9893
635.0572, 675.2401
635.5393, 672.1827
636.0214, 669.7188
636.5035, 668.5123
636.9857, 667.0706
637.4678, 663.9025
