##NAMES=Taniajacoite
##RRUFFID=R140945
##IDEAL CHEMISTRY=SrCaMn^3+^_2_Si_4_O_11_(OH)_4_&#183;2H_2_O
##LOCALITY=N'Chwaning III mine, Kalahari manganese field, Northern Cape Province, South Africa
##OWNER=RRUFF
##SOURCE=Jaco and Tania Janse van Nieuwenhuizen
##DESCRIPTION=Aggregates of radiating acicular  brown crystals, associated with pink sugilite and dark-red lipuite. Type sample.
##STATUS=The identification of this mineral is confirmed by single-crystal X-ray diffraction and chemical analysis.
##URL=rruff.info/R140945
##MEASURED CHEMISTRY=Sr(Ca_0.81_Sr_0.19_)_Σ1.00_(Mn^3+^_1.90_Fe^3+^_0.15_Al_0.01_)_Σ2.06_Si_3.96_O_11_(OH)_4_·2H_2_O
170.6270, 1410.235
171.1091, 1424.901
171.5912, 1440.572
172.0734, 1458.281
172.5555, 1475.029
173.0376, 1489.462
173.5197, 1502.532
174.0018, 1515.716
174.4839, 1529.985
174.9661, 1545.024
175.4482, 1558.783
175.9303, 1572.141
176.4124, 1582.868
176.8945, 1589.990
177.3766, 1594.181
177.8588, 1596.500
178.3409, 1597.668
178.8230, 1597.683
179.3051, 1596.602
179.7872, 1593.943
180.2693, 1590.673
180.7515, 1586.775
181.2336, 1582.442
181.7157, 1578.113
182.1978, 1574.233
182.6799, 1570.946
183.1620, 1566.499
183.6441, 1560.011
184.1263, 1553.411
184.6084, 1547.546
185.0905, 1542.474
185.5726, 1537.918
186.0547, 1533.754
186.5368, 1530.065
187.0190, 1525.934
187.5011, 1520.337
187.9832, 1515.064
188.4653, 1511.558
188.9474, 1509.963
189.4296, 1509.293
189.9117, 1509.167
190.3938, 1509.486
190.8759, 1508.137
191.3580, 1504.054
191.8401, 1498.583
192.3223, 1493.023
192.8044, 1487.455
193.2865, 1482.089
193.7686, 1477.554
194.2507, 1473.509
194.7328, 1468.763
195.2150, 1462.308
195.6971, 1454.984
196.1792, 1448.444
196.6613, 1442.963
197.1434, 1437.959
197.6255, 1433.147
198.1077, 1428.422
198.5898, 1423.620
199.0719, 1417.877
199.5540, 1411.757
200.0361, 1407.951
200.5182, 1407.903
201.0004, 1408.362
201.4825, 1407.209
201.9646, 1405.070
202.4467, 1403.537
202.9288, 1403.759
203.4109, 1405.664
203.8930, 1408.050
204.3752, 1411.460
204.8573, 1414.822
205.3394, 1417.098
205.8215, 1418.902
206.3036, 1421.742
206.7857, 1427.167
207.2679, 1435.363
207.7500, 1442.504
208.2321, 1446.954
208.7142, 1451.796
209.1963, 1457.913
209.6784, 1465.252
210.1606, 1473.423
210.6427, 1482.258
211.1248, 1491.877
211.6069, 1500.557
212.0890, 1507.755
212.5711, 1514.601
213.0533, 1521.551
213.5354, 1528.565
214.0175, 1535.356
214.4996, 1541.533
214.9817, 1546.842
215.4638, 1553.539
215.9460, 1562.112
216.4281, 1571.304
216.9102, 1581.141
217.3923, 1591.238
217.8744, 1600.684
218.3565, 1608.592
218.8387, 1614.781
219.3208, 1620.218
219.8029, 1625.074
220.2850, 1629.182
220.7671, 1633.181
221.2492, 1636.766
221.7314, 1638.062
222.2135, 1635.259
222.6956, 1627.886
223.1777, 1619.604
223.6598, 1610.962
224.1419, 1601.038
224.6240, 1589.049
225.1062, 1574.977
225.5883, 1559.641
226.0704, 1543.630
226.5525, 1526.840
227.0346, 1508.807
227.5167, 1488.470
227.9989, 1467.553
228.4810, 1447.363
228.9631, 1427.961
229.4452, 1410.209
229.9273, 1395.437
230.4094, 1383.006
230.8916, 1370.998
231.3737, 1359.246
231.8558, 1347.764
232.3379, 1336.362
232.8200, 1324.925
233.3021, 1314.361
233.7843, 1305.205
234.2664, 1297.313
234.7485, 1290.733
235.2306, 1286.076
235.7127, 1282.239
236.1948, 1277.635
236.6770, 1272.024
237.1591, 1266.524
237.6412, 1261.964
238.1233, 1257.739
238.6054, 1253.042
239.0875, 1247.310
239.5697, 1241.458
240.0518, 1236.888
240.5339, 1233.630
241.0160, 1231.572
241.4981, 1230.954
241.9802, 1231.323
242.4624, 1232.418
242.9445, 1234.198
243.4266, 1236.505
243.9087, 1239.165
244.3908, 1242.332
244.8729, 1245.408
245.3550, 1248.322
245.8372, 1251.024
246.3193, 1253.228
246.8014, 1254.788
247.2835, 1256.422
247.7656, 1259.839
248.2477, 1266.610
248.7299, 1271.262
249.2120, 1271.169
249.6941, 1269.848
250.1762, 1269.999
250.6583, 1272.440
251.1404, 1276.012
251.6226, 1278.773
252.1047, 1280.180
252.5868, 1281.983
253.0689, 1283.898
253.5510, 1286.474
254.0331, 1290.004
254.5153, 1294.600
254.9974, 1300.374
255.4795, 1307.698
255.9616, 1317.371
256.4437, 1326.912
256.9258, 1336.179
257.4080, 1345.383
257.8901, 1354.684
258.3722, 1364.103
258.8543, 1373.646
259.3364, 1383.489
259.8185, 1394.429
260.3007, 1403.486
260.7828, 1412.097
261.2649, 1418.300
261.7470, 1420.714
262.2291, 1419.314
262.7112, 1415.100
263.1934, 1409.183
263.6755, 1401.649
264.1576, 1391.673
264.6397, 1378.360
265.1218, 1363.918
265.6039, 1348.936
266.0861, 1333.865
266.5682, 1319.444
267.0503, 1306.449
267.5324, 1295.123
268.0145, 1284.042
268.4966, 1273.416
268.9788, 1262.794
269.4609, 1251.590
269.9430, 1240.113
270.4251, 1229.379
270.9072, 1220.239
271.3893, 1212.794
271.8715, 1205.817
272.3536, 1198.740
272.8357, 1192.565
273.3178, 1187.587
273.7999, 1183.854
274.2820, 1181.562
274.7642, 1181.004
275.2463, 1182.015
275.7284, 1182.586
276.2105, 1182.503
276.6926, 1182.325
277.1747, 1181.757
277.6568, 1181.220
278.1389, 1181.807
278.6211, 1184.317
279.1032, 1188.104
279.5853, 1190.338
280.0674, 1188.691
280.5495, 1188.526
281.0316, 1192.600
281.5138, 1198.898
281.9959, 1203.699
282.4780, 1205.270
282.9601, 1204.904
283.4422, 1205.875
283.9243, 1208.830
284.4065, 1211.677
284.8886, 1214.275
285.3707, 1216.448
285.8528, 1217.756
286.3349, 1217.978
286.8170, 1217.803
287.2992, 1218.617
287.7813, 1221.112
288.2634, 1222.204
288.7455, 1220.953
289.2276, 1218.217
289.7097, 1215.109
290.1919, 1211.899
290.6740, 1207.932
291.1561, 1202.013
291.6382, 1193.833
292.1203, 1186.231
292.6024, 1179.706
293.0846, 1173.748
293.5667, 1167.787
294.0488, 1161.732
294.5309, 1156.096
295.0130, 1151.322
295.4951, 1147.486
295.9773, 1144.296
296.4594, 1142.253
296.9415, 1140.477
297.4236, 1138.066
297.9057, 1135.085
298.3878, 1132.644
298.8700, 1131.968
299.3521, 1132.524
299.8342, 1131.134
300.3163, 1125.645
300.7984, 1120.219
301.2805, 1117.413
301.7627, 1116.840
302.2448, 1116.570
302.7269, 1115.608
303.2090, 1114.270
303.6911, 1113.527
304.1732, 1113.781
304.6554, 1113.919
305.1375, 1113.308
305.6196, 1112.198
306.1017, 1111.246
306.5838, 1110.737
307.0659, 1110.442
307.5481, 1109.954
308.0302, 1109.324
308.5123, 1108.451
308.9944, 1106.775
309.4765, 1104.941
309.9586, 1104.511
310.4408, 1106.213
310.9229, 1107.925
311.4050, 1106.188
311.8871, 1100.873
312.3692, 1096.718
312.8513, 1095.046
313.3335, 1094.826
313.8156, 1095.173
314.2977, 1095.995
314.7798, 1096.549
315.2619, 1096.124
315.7440, 1094.717
316.2262, 1092.938
316.7083, 1089.876
317.1904, 1087.134
317.6725, 1086.083
318.1546, 1086.713
318.6367, 1088.281
319.1188, 1090.695
319.6010, 1093.618
320.0831, 1095.575
320.5652, 1096.115
321.0473, 1096.189
321.5294, 1095.879
322.0115, 1095.427
322.4937, 1095.843
322.9758, 1097.902
323.4579, 1100.756
323.9400, 1102.145
324.4221, 1101.598
324.9042, 1100.958
325.3864, 1100.822
325.8685, 1101.047
326.3506, 1101.304
326.8327, 1101.445
327.3148, 1101.765
327.7969, 1102.743
328.2791, 1104.360
328.7612, 1106.458
329.2433, 1109.463
329.7254, 1112.725
330.2075, 1115.182
330.6896, 1116.650
331.1718, 1118.493
331.6539, 1122.260
332.1360, 1128.141
332.6181, 1133.643
333.1002, 1138.303
333.5823, 1142.816
334.0645, 1147.370
334.5466, 1152.091
335.0287, 1157.809
335.5108, 1165.352
335.9929, 1174.397
336.4750, 1182.241
336.9572, 1188.210
337.4393, 1193.919
337.9214, 1199.722
338.4035, 1205.785
338.8856, 1212.500
339.3677, 1220.120
339.8499, 1228.302
340.3320, 1236.041
340.8141, 1242.531
341.2962, 1250.021
341.7783, 1259.845
342.2604, 1270.584
342.7426, 1280.520
343.2247, 1289.127
343.7068, 1296.625
344.1889, 1303.283
344.6710, 1309.023
345.1531, 1313.786
345.6353, 1316.848
346.1174, 1319.402
346.5995, 1322.893
347.0816, 1327.134
347.5637, 1330.242
348.0458, 1330.375
348.5280, 1327.360
349.0101, 1324.358
349.4922, 1321.740
349.9743, 1318.779
350.4564, 1315.102
350.9385, 1310.865
351.4207, 1306.227
351.9028, 1301.178
352.3849, 1296.092
352.8670, 1292.587
353.3491, 1292.218
353.8312, 1291.506
354.3134, 1289.631
354.7955, 1287.363
355.2776, 1285.838
355.7597, 1285.416
356.2418, 1285.142
356.7239, 1283.358
357.2061, 1279.245
357.6882, 1275.147
358.1703, 1270.804
358.6524, 1266.648
359.1345, 1263.250
359.6166, 1260.472
360.0987, 1257.495
360.5808, 1253.381
361.0630, 1247.905
361.5451, 1243.457
362.0272, 1241.106
362.5093, 1238.607
362.9914, 1234.680
363.4735, 1230.081
363.9557, 1226.544
364.4378, 1225.235
364.9199, 1225.429
365.4020, 1223.976
365.8841, 1219.061
366.3662, 1214.955
366.8484, 1212.374
367.3305, 1210.697
367.8126, 1209.352
368.2947, 1208.150
368.7768, 1207.188
369.2589, 1206.684
369.7411, 1206.881
370.2232, 1206.883
370.7053, 1207.008
371.1874, 1206.658
371.6695, 1205.177
372.1516, 1202.790
372.6338, 1200.400
373.1159, 1198.705
373.5980, 1197.702
374.0801, 1197.428
374.5622, 1198.254
375.0443, 1199.418
375.5265, 1201.014
376.0086, 1202.684
376.4907, 1203.864
376.9728, 1204.240
377.4549, 1204.093
377.9370, 1204.062
378.4192, 1204.254
378.9013, 1204.259
379.3834, 1203.453
379.8655, 1202.729
380.3476, 1203.075
380.8297, 1204.667
381.3119, 1206.188
381.7940, 1205.959
382.2761, 1204.033
382.7582, 1203.032
383.2403, 1203.970
383.7224, 1205.128
384.2046, 1205.360
384.6867, 1204.822
385.1688, 1204.116
385.6509, 1203.194
386.1330, 1202.393
386.6151, 1202.735
387.0973, 1204.602
387.5794, 1206.219
388.0615, 1206.493
388.5436, 1205.880
389.0257, 1204.832
389.5078, 1203.052
389.9900, 1201.528
390.4721, 1201.371
390.9542, 1202.401
391.4363, 1203.184
391.9184, 1203.032
392.4005, 1202.718
392.8827, 1203.378
393.3648, 1205.061
393.8469, 1206.796
394.3290, 1208.396
394.8111, 1209.761
395.2932, 1210.481
395.7754, 1210.428
396.2575, 1210.644
396.7396, 1212.228
397.2217, 1215.075
397.7038, 1217.540
398.1859, 1219.566
398.6681, 1221.210
399.1501, 1222.406
399.6323, 1223.232
400.1144, 1224.012
400.5965, 1224.983
401.0786, 1225.883
401.5607, 1225.852
402.0428, 1224.384
402.5250, 1223.022
403.0071, 1221.764
403.4892, 1220.863
403.9713, 1221.010
404.4534, 1222.254
404.9355, 1223.282
405.4177, 1222.385
405.8998, 1218.930
406.3819, 1216.773
406.8640, 1217.233
407.3461, 1217.577
407.8282, 1216.400
408.3104, 1213.982
408.7925, 1211.277
409.2746, 1208.841
409.7567, 1206.606
410.2388, 1204.216
410.7209, 1201.745
411.2031, 1198.998
411.6852, 1195.702
412.1673, 1192.269
412.6494, 1189.121
413.1315, 1186.352
413.6136, 1183.684
414.0958, 1180.548
414.5779, 1176.463
415.0600, 1173.813
415.5421, 1174.547
416.0242, 1174.947
416.5063, 1173.205
416.9885, 1169.930
417.4706, 1166.724
417.9527, 1164.398
418.4348, 1163.063
418.9169, 1163.301
419.3990, 1165.957
419.8812, 1168.325
420.3633, 1169.350
420.8454, 1169.837
421.3275, 1170.579
421.8096, 1171.777
422.2917, 1172.777
422.7739, 1172.419
423.2560, 1170.822
423.7381, 1170.678
424.2202, 1173.064
424.7023, 1176.081
425.1844, 1178.162
425.6666, 1179.572
426.1487, 1181.310
426.6308, 1183.956
427.1129, 1187.100
427.5950, 1190.171
428.0771, 1193.186
428.5593, 1196.102
429.0414, 1198.703
429.5235, 1201.300
430.0056, 1204.451
430.4877, 1208.201
430.9698, 1212.435
431.4520, 1217.807
431.9341, 1223.504
432.4162, 1227.751
432.8983, 1229.992
433.3804, 1231.445
433.8625, 1233.459
434.3447, 1236.124
434.8268, 1238.635
435.3089, 1241.224
435.7910, 1243.427
436.2731, 1244.670
436.7552, 1245.195
437.2374, 1245.792
437.7195, 1246.910
438.2016, 1248.463
438.6837, 1250.109
439.1658, 1252.345
439.6479, 1254.037
440.1301, 1254.838
440.6122, 1255.217
441.0943, 1255.557
441.5764, 1255.960
442.0585, 1256.399
442.5406, 1256.930
443.0227, 1257.693
443.5049, 1257.576
443.9870, 1256.274
444.4691, 1254.393
444.9512, 1251.674
445.4333, 1248.589
445.9154, 1245.923
446.3976, 1244.161
446.8797, 1242.701
447.3618, 1240.034
447.8439, 1235.546
448.3260, 1231.680
448.8081, 1228.933
449.2903, 1226.898
449.7724, 1225.436
450.2545, 1224.497
450.7366, 1223.971
451.2187, 1224.197
451.7008, 1224.845
452.1830, 1224.422
452.6651, 1222.629
453.1472, 1220.432
453.6293, 1217.778
454.1114, 1215.222
454.5935, 1213.747
455.0757, 1213.992
455.5578, 1214.518
456.0399, 1213.706
456.5220, 1212.028
457.0041, 1211.568
457.4862, 1213.023
457.9684, 1215.684
458.4505, 1219.073
458.9326, 1223.204
459.4147, 1226.703
459.8968, 1228.796
460.3789, 1230.537
460.8611, 1232.554
461.3432, 1234.995
461.8253, 1238.271
462.3074, 1242.791
462.7895, 1248.214
463.2716, 1253.224
463.7538, 1258.105
464.2359, 1262.250
464.7180, 1264.739
465.2001, 1266.953
465.6822, 1270.172
466.1643, 1274.706
466.6465, 1280.225
467.1286, 1286.391
467.6107, 1293.270
468.0928, 1300.599
468.5749, 1309.734
469.0570, 1317.844
469.5392, 1323.758
470.0213, 1328.240
470.5034, 1332.394
470.9855, 1336.705
471.4676, 1340.898
471.9497, 1344.761
472.4319, 1348.640
472.9140, 1350.668
473.3961, 1349.568
473.8782, 1347.290
474.3603, 1345.143
474.8424, 1342.898
475.3246, 1339.289
475.8067, 1332.900
476.2888, 1324.905
476.7709, 1317.875
477.2530, 1312.030
477.7351, 1305.969
478.2173, 1299.029
478.6994, 1291.458
479.1815, 1283.825
479.6636, 1276.308
480.1457, 1268.202
480.6278, 1258.507
481.1100, 1248.142
481.5920, 1238.788
482.0742, 1230.755
482.5563, 1223.319
483.0384, 1215.938
483.5205, 1208.603
484.0026, 1200.895
484.4847, 1192.367
484.9669, 1183.984
485.4490, 1175.830
485.9311, 1168.107
486.4132, 1161.163
486.8953, 1155.101
487.3774, 1149.789
487.8596, 1145.168
488.3417, 1141.771
488.8238, 1137.481
489.3059, 1131.076
489.7880, 1125.107
490.2701, 1121.236
490.7523, 1118.815
491.2344, 1116.142
491.7165, 1112.116
492.1986, 1107.429
492.6807, 1104.099
493.1628, 1102.700
493.6450, 1101.105
494.1271, 1098.459
494.6092, 1095.790
495.0913, 1094.161
495.5734, 1093.444
496.0555, 1092.075
496.5377, 1088.326
497.0198, 1083.167
497.5019, 1079.433
497.9840, 1077.461
498.4661, 1075.533
498.9482, 1072.332
499.4304, 1068.711
499.9125, 1066.330
500.3946, 1065.614
500.8767, 1065.284
501.3588, 1064.821
501.8409, 1064.281
502.3231, 1063.846
502.8052, 1063.563
503.2873, 1063.030
503.7694, 1061.789
504.2515, 1059.796
504.7336, 1058.200
505.2158, 1057.115
505.6979, 1056.249
506.1800, 1055.720
506.6621, 1055.276
507.1442, 1054.423
507.6263, 1053.013
508.1085, 1051.582
508.5906, 1051.031
509.0727, 1051.681
509.5548, 1052.038
510.0369, 1052.308
510.5190, 1052.066
511.0012, 1050.644
511.4833, 1048.650
511.9654, 1047.283
512.4475, 1047.253
512.9296, 1047.755
513.4117, 1046.946
513.8939, 1044.457
514.3760, 1043.620
514.8581, 1046.606
515.3402, 1050.035
515.8223, 1051.281
516.3044, 1050.479
516.7866, 1048.738
517.2687, 1045.507
517.7508, 1042.171
518.2329, 1040.540
518.7150, 1040.573
519.1971, 1041.426
519.6793, 1043.069
520.1614, 1044.869
520.6435, 1045.202
521.1256, 1043.614
521.6077, 1042.242
522.0898, 1041.836
522.5720, 1041.511
523.0541, 1040.001
523.5362, 1037.620
524.0183, 1036.173
524.5004, 1037.069
524.9825, 1039.832
525.4647, 1042.062
525.9468, 1043.706
526.4289, 1044.801
526.9110, 1045.648
527.3931, 1045.797
527.8752, 1044.189
528.3574, 1041.153
528.8395, 1038.834
529.3216, 1039.679
529.8037, 1042.972
530.2858, 1044.083
530.7679, 1042.006
531.2501, 1040.073
531.7322, 1039.603
532.2143, 1040.069
532.6964, 1041.182
533.1785, 1043.000
533.6606, 1044.739
534.1428, 1046.193
534.6249, 1047.147
535.1070, 1046.875
535.5891, 1045.193
536.0712, 1043.421
536.5533, 1042.336
537.0355, 1042.025
537.5176, 1042.758
537.9997, 1046.124
538.4818, 1048.504
538.9639, 1048.027
539.4460, 1046.401
539.9282, 1045.768
540.4103, 1046.552
540.8924, 1047.778
541.3745, 1048.419
541.8566, 1048.450
542.3387, 1048.738
542.8209, 1049.322
543.3029, 1050.140
543.7850, 1051.103
544.2672, 1052.328
544.7493, 1054.146
545.2314, 1056.598
545.7135, 1058.914
546.1956, 1059.921
546.6777, 1059.789
547.1599, 1060.473
547.6420, 1062.098
548.1241, 1064.487
548.6062, 1067.973
549.0883, 1072.063
549.5704, 1075.984
550.0526, 1079.365
550.5347, 1083.058
551.0168, 1087.716
551.4989, 1093.068
551.9810, 1098.736
552.4631, 1104.657
552.9453, 1110.290
553.4274, 1114.923
553.9095, 1118.567
554.3916, 1123.463
554.8737, 1130.200
555.3558, 1137.268
555.8380, 1144.089
556.3201, 1151.124
556.8022, 1158.758
557.2843, 1167.174
557.7664, 1176.432
558.2485, 1186.679
558.7307, 1197.859
559.2128, 1210.002
559.6949, 1224.141
560.1770, 1237.611
560.6591, 1248.958
561.1412, 1259.498
561.6234, 1270.891
562.1055, 1283.544
562.5876, 1296.814
563.0697, 1310.746
563.5518, 1324.881
564.0339, 1337.666
564.5161, 1348.937
564.9982, 1359.075
565.4803, 1368.468
565.9624, 1376.857
566.4445, 1383.728
566.9266, 1389.904
567.4088, 1393.430
567.8909, 1393.333
568.3730, 1390.361
568.8551, 1385.012
569.3372, 1377.620
569.8193, 1369.077
570.3015, 1360.436
570.7836, 1351.545
571.2657, 1340.136
571.7478, 1324.041
572.2299, 1308.159
572.7120, 1293.007
573.1942, 1278.478
573.6763, 1264.693
574.1584, 1251.492
574.6405, 1238.219
575.1226, 1223.648
575.6047, 1208.430
576.0869, 1195.589
576.5690, 1185.673
577.0511, 1175.816
577.5332, 1164.090
578.0153, 1152.123
578.4974, 1142.469
578.9796, 1135.419
579.4617, 1129.564
579.9438, 1125.626
580.4259, 1121.876
580.9080, 1116.154
581.3901, 1108.499
581.8723, 1100.052
582.3544, 1091.274
582.8365, 1082.743
583.3186, 1076.406
583.8007, 1074.088
584.2828, 1071.255
584.7650, 1067.806
585.2471, 1063.869
585.7292, 1059.028
586.2113, 1053.730
586.6934, 1049.219
587.1755, 1046.450
587.6577, 1044.625
588.1398, 1041.645
588.6219, 1037.143
589.1040, 1034.078
589.5861, 1034.135
590.0682, 1034.789
590.5504, 1033.339
591.0325, 1030.180
591.5146, 1027.912
591.9967, 1027.831
592.4788, 1028.527
592.9609, 1029.186
593.4431, 1029.656
593.9252, 1029.500
594.4073, 1028.533
594.8894, 1027.119
595.3715, 1025.690
595.8536, 1024.116
596.3358, 1023.141
596.8179, 1023.288
597.3000, 1023.364
597.7821, 1022.911
598.2642, 1022.138
598.7463, 1021.075
599.2285, 1019.787
599.7106, 1019.187
600.1927, 1021.008
600.6748, 1025.114
601.1569, 1027.528
601.6390, 1027.648
602.1212, 1026.972
602.6033, 1025.673
603.0854, 1024.315
603.5675, 1023.910
604.0496, 1024.872
604.5317, 1025.897
605.0139, 1026.416
605.4960, 1026.561
605.9781, 1026.406
606.4602, 1026.010
606.9423, 1025.642
607.4244, 1025.455
607.9066, 1025.505
608.3887, 1026.052
608.8708, 1027.354
609.3529, 1028.834
609.8350, 1030.785
610.3171, 1032.652
610.7993, 1034.258
611.2814, 1035.445
611.7635, 1035.825
612.2456, 1034.922
612.7277, 1033.446
613.2098, 1032.931
613.6920, 1033.450
614.1741, 1034.027
614.6562, 1034.487
615.1383, 1034.839
615.6204, 1035.388
616.1025, 1035.991
616.5847, 1035.532
617.0668, 1032.809
617.5489, 1029.924
618.0310, 1028.135
618.5131, 1027.174
618.9952, 1026.523
619.4774, 1026.014
619.9595, 1025.600
620.4416, 1025.185
620.9237, 1024.738
621.4058, 1024.796
621.8879, 1025.662
622.3701, 1026.703
622.8522, 1028.097
623.3343, 1029.428
623.8164, 1030.396
624.2985, 1030.898
624.7806, 1030.710
625.2628, 1028.984
625.7448, 1026.520
626.2269, 1025.636
626.7090, 1026.489
627.1912, 1027.658
627.6733, 1028.675
628.1554, 1029.469
628.6375, 1029.763
629.1196, 1029.359
629.6017, 1029.445
630.0839, 1030.422
630.5660, 1031.734
631.0481, 1033.248
631.5302, 1034.763
632.0123, 1035.891
632.4944, 1036.448
632.9766, 1036.711
633.4587, 1037.201
633.9408, 1038.048
634.4229, 1038.467
634.9050, 1038.366
635.3871, 1037.912
635.8693, 1037.108
636.3514, 1036.064
636.8335, 1034.858
637.3156, 1033.415
637.7977, 1032.257
638.2798, 1032.173
638.7620, 1032.513
639.2441, 1031.920
639.7262, 1030.271
640.2083, 1028.539
640.6904, 1027.348
641.1725, 1026.542
641.6547, 1025.579
642.1368, 1024.457
642.6189, 1023.159
643.1010, 1021.475
643.5831, 1019.801
644.0652, 1018.564
644.5474, 1017.536
645.0295, 1015.986
645.5116, 1013.414
645.9937, 1010.732
646.4758, 1009.540
646.9579, 1009.825
647.4401, 1010.363
647.9222, 1011.550
648.4043, 1011.738
648.8864, 1008.949
649.3685, 1004.121
649.8506, 1000.279
650.3328, 998.2279
650.8149, 996.3035
651.2970, 993.8882
651.7791, 991.2478
652.2612, 988.6236
652.7433, 986.0969
653.2255, 983.7853
653.7076, 981.7851
654.1897, 980.0412
654.6718, 978.2532
655.1539, 976.0643
655.6360, 974.6974
656.1182, 975.3505
656.6003, 975.9772
657.0824, 975.1655
657.5645, 973.3527
658.0466, 972.0784
658.5287, 972.3255
659.0109, 972.6532
659.4930, 971.6835
659.9751, 969.7039
660.4572, 967.2846
660.9393, 964.5270
