##NAMES=Tantalite-(Fe)
##RRUFFID=R070548
##IDEAL CHEMISTRY=Fe^2+^Ta^5+^_2_O_6_
##LOCALITY=Grizzly Bear Gulch, Black Hills, Custer County, South Dakota, USA
##OWNER=RRUFF
##SOURCE=James Shigley
##DESCRIPTION=Submetallic dark grey fragments with parallel cleavage planes
##STATUS=The identification of this mineral has been made only by X-ray diffraction.
##URL=rruff.info/R070548
135.8635, 3673.931
136.3456, 3696.037
136.8277, 3747.117
137.3098, 3782.933
137.7920, 3781.222
138.2741, 3748.296
138.7562, 3705.173
139.2383, 3667.897
139.7204, 3637.174
140.2025, 3606.463
140.6847, 3577.278
141.1668, 3547.044
141.6489, 3506.556
142.1310, 3461.190
142.6131, 3428.187
143.0952, 3426.263
143.5774, 3461.339
144.0595, 3502.071
144.5416, 3536.448
145.0237, 3585.697
145.5058, 3661.877
145.9879, 3764.730
146.4701, 3885.906
146.9522, 4016.996
147.4343, 4162.581
147.9164, 4304.988
148.3985, 4448.763
148.8806, 4587.744
149.3627, 4723.102
149.8449, 4852.636
150.3270, 4966.803
150.8091, 5052.369
151.2912, 5100.602
151.7733, 5136.717
152.2554, 5166.857
152.7376, 5183.350
153.2197, 5185.690
153.7018, 5171.818
154.1839, 5133.604
154.6660, 5057.540
155.1481, 4921.413
155.6303, 4788.751
156.1124, 4644.525
156.5945, 4511.985
157.0766, 4408.123
157.5587, 4337.409
158.0408, 4295.131
158.5230, 4274.623
159.0051, 4283.959
159.4872, 4305.517
159.9693, 4345.950
160.4514, 4375.333
160.9335, 4384.557
161.4157, 4381.904
161.8978, 4375.329
162.3799, 4377.046
162.8620, 4386.895
163.3441, 4407.084
163.8262, 4457.486
164.3084, 4509.480
164.7905, 4532.059
165.2726, 4516.542
165.7547, 4479.131
166.2368, 4443.417
166.7189, 4404.417
167.2011, 4379.491
167.6832, 4378.084
168.1653, 4388.529
168.6474, 4397.639
169.1295, 4401.578
169.6116, 4403.771
170.0938, 4410.422
170.5759, 4424.204
171.0580, 4435.349
171.5401, 4442.048
172.0222, 4445.490
172.5043, 4445.921
172.9865, 4442.786
173.4686, 4439.748
173.9507, 4443.900
174.4328, 4456.656
174.9149, 4469.584
175.3970, 4483.434
175.8792, 4495.648
176.3613, 4505.980
176.8434, 4516.662
177.3255, 4516.169
177.8076, 4476.130
178.2897, 4384.875
178.7719, 4309.028
179.2540, 4279.177
179.7361, 4271.787
180.2182, 4246.262
180.7003, 4188.142
181.1824, 4118.583
181.6646, 4073.999
182.1467, 4055.619
182.6288, 4040.128
183.1109, 4020.113
183.5930, 3999.043
184.0751, 3983.099
184.5573, 3974.520
185.0394, 3970.059
185.5215, 3963.609
186.0036, 3953.530
186.4857, 3950.928
186.9678, 3966.130
187.4500, 3989.836
187.9321, 4003.717
188.4142, 4001.339
188.8963, 3993.872
189.3784, 3995.751
189.8605, 4005.915
190.3427, 4022.447
190.8248, 4052.138
191.3069, 4086.476
191.7890, 4108.272
192.2711, 4110.756
192.7532, 4108.214
193.2354, 4121.458
193.7175, 4149.912
194.1996, 4173.980
194.6817, 4181.581
195.1638, 4181.903
195.6459, 4190.939
196.1281, 4211.951
196.6102, 4241.221
197.0923, 4278.352
197.5744, 4322.615
198.0565, 4364.174
198.5386, 4399.803
199.0207, 4431.244
199.5029, 4459.375
199.9850, 4483.042
200.4671, 4508.881
200.9492, 4549.072
201.4313, 4600.974
201.9134, 4646.838
202.3956, 4683.213
202.8777, 4710.084
203.3598, 4726.431
203.8419, 4730.987
204.3240, 4729.487
204.8061, 4732.560
205.2883, 4737.626
205.7704, 4721.713
206.2525, 4668.521
206.7346, 4594.905
207.2167, 4520.508
207.6988, 4446.487
208.1810, 4378.209
208.6631, 4324.287
209.1452, 4281.795
209.6273, 4239.045
210.1094, 4193.023
210.5915, 4145.754
211.0737, 4099.086
211.5558, 4053.205
212.0379, 4008.969
212.5200, 3966.596
213.0021, 3926.566
213.4842, 3890.419
213.9664, 3861.945
214.4485, 3835.497
214.9306, 3801.661
215.4127, 3759.632
215.8948, 3725.249
216.3769, 3714.355
216.8591, 3720.713
217.3412, 3720.061
217.8233, 3702.402
218.3054, 3682.256
218.7875, 3672.540
219.2696, 3673.086
219.7518, 3676.100
220.2339, 3677.297
220.7160, 3677.371
221.1981, 3678.834
221.6802, 3688.213
222.1623, 3693.292
222.6445, 3680.459
223.1266, 3652.398
223.6087, 3629.229
224.0908, 3622.208
224.5729, 3627.915
225.0550, 3633.221
225.5371, 3638.203
226.0193, 3642.750
226.5014, 3647.028
226.9835, 3650.915
227.4656, 3654.060
227.9477, 3656.510
228.4298, 3657.846
228.9120, 3656.229
229.3941, 3646.215
229.8762, 3643.157
230.3583, 3657.697
230.8404, 3684.651
231.3225, 3711.700
231.8047, 3735.518
232.2868, 3754.892
232.7689, 3766.072
233.2510, 3767.232
233.7331, 3767.612
234.2152, 3765.857
234.6974, 3765.872
235.1795, 3776.672
235.6616, 3802.553
236.1437, 3834.141
236.6258, 3854.971
237.1079, 3862.074
237.5901, 3872.782
238.0722, 3892.189
238.5543, 3916.446
239.0364, 3941.794
239.5185, 3967.677
240.0006, 3992.158
240.4828, 4014.660
240.9649, 4037.362
241.4470, 4045.389
241.9291, 4025.340
242.4112, 3997.311
242.8933, 3975.838
243.3755, 3963.760
243.8576, 3966.285
244.3397, 3993.973
244.8218, 4054.274
245.3039, 4083.916
245.7860, 4060.046
246.2682, 4024.537
246.7503, 4004.291
247.2324, 4000.134
247.7145, 4000.327
248.1966, 3995.161
248.6787, 3984.429
249.1608, 3981.710
249.6430, 3999.469
250.1251, 4012.003
250.6072, 4000.613
251.0893, 3973.172
251.5714, 3952.319
252.0535, 3953.251
252.5357, 3973.444
253.0178, 3991.459
253.4999, 4007.310
253.9820, 4021.354
254.4641, 4036.016
254.9462, 4048.521
255.4284, 4051.714
255.9105, 4041.049
256.3926, 4023.685
256.8747, 4023.338
257.3568, 4055.541
257.8390, 4087.344
258.3211, 4116.288
258.8032, 4143.967
259.2853, 4173.880
259.7674, 4207.053
260.2495, 4238.897
260.7316, 4259.655
261.2137, 4256.959
261.6959, 4262.813
262.1780, 4283.693
262.6601, 4308.182
263.1422, 4328.143
263.6243, 4341.711
264.1064, 4351.312
264.5886, 4359.077
265.0707, 4362.258
265.5528, 4372.354
266.0349, 4400.458
266.5170, 4425.207
266.9991, 4432.490
267.4813, 4424.600
267.9634, 4415.025
268.4455, 4415.942
268.9276, 4427.875
269.4097, 4442.305
269.8918, 4467.998
270.3740, 4487.789
270.8561, 4495.842
271.3382, 4493.987
271.8203, 4486.283
272.3024, 4474.286
272.7845, 4459.023
273.2667, 4447.364
273.7488, 4447.698
274.2309, 4438.559
274.7130, 4411.693
275.1951, 4373.902
275.6772, 4332.635
276.1594, 4290.432
276.6415, 4249.196
277.1236, 4213.267
277.6057, 4183.926
278.0878, 4156.231
278.5699, 4129.559
279.0521, 4103.624
279.5342, 4078.573
280.0163, 4054.547
280.4984, 4030.379
280.9805, 4003.705
281.4626, 3974.129
281.9448, 3947.762
282.4269, 3925.600
282.9090, 3907.839
283.3911, 3896.191
283.8732, 3890.455
284.3553, 3883.502
284.8375, 3869.501
285.3196, 3849.753
285.8017, 3830.704
286.2838, 3814.918
286.7659, 3796.777
287.2480, 3769.596
287.7302, 3735.608
288.2123, 3703.742
288.6944, 3678.394
289.1765, 3656.922
289.6586, 3633.291
290.1407, 3605.811
290.6229, 3584.559
291.1050, 3582.455
291.5871, 3592.384
292.0692, 3593.694
292.5513, 3574.615
293.0334, 3552.762
293.5156, 3543.893
293.9977, 3546.312
294.4798, 3547.444
294.9619, 3540.527
295.4440, 3528.062
295.9261, 3517.366
296.4083, 3506.385
296.8904, 3500.006
297.3725, 3503.573
297.8546, 3512.807
298.3367, 3519.554
298.8188, 3520.989
299.3010, 3518.678
299.7831, 3515.097
300.2652, 3509.957
300.7473, 3504.275
301.2294, 3499.031
301.7115, 3492.816
302.1937, 3482.528
302.6758, 3468.250
303.1579, 3455.677
303.6400, 3451.739
304.1221, 3459.118
304.6042, 3461.482
305.0864, 3455.855
305.5685, 3448.747
306.0506, 3443.281
306.5327, 3439.297
307.0148, 3435.027
307.4969, 3428.955
307.9791, 3421.486
308.4612, 3416.706
308.9433, 3411.507
309.4254, 3412.923
309.9075, 3428.827
310.3896, 3450.033
310.8717, 3463.819
311.3539, 3464.219
311.8360, 3457.744
312.3181, 3459.951
312.8002, 3478.734
313.2823, 3490.145
313.7644, 3486.583
314.2466, 3479.333
314.7287, 3477.623
315.2108, 3482.630
315.6929, 3487.403
316.1750, 3482.067
316.6571, 3464.895
317.1393, 3454.497
317.6214, 3454.997
318.1035, 3459.662
318.5856, 3470.990
319.0677, 3484.615
319.5498, 3487.973
320.0320, 3466.216
320.5141, 3428.667
320.9962, 3407.569
321.4783, 3411.034
321.9604, 3410.714
322.4425, 3382.098
322.9247, 3342.206
323.4068, 3315.823
323.8889, 3314.230
324.3710, 3321.536
324.8531, 3322.514
325.3352, 3317.316
325.8174, 3308.538
326.2995, 3294.302
326.7816, 3279.445
327.2637, 3273.553
327.7458, 3280.932
328.2279, 3281.419
328.7101, 3255.488
329.1922, 3218.450
329.6743, 3202.008
330.1564, 3215.217
330.6385, 3237.859
331.1206, 3247.728
331.6028, 3243.631
332.0849, 3235.044
332.5670, 3215.632
333.0491, 3197.170
333.5312, 3189.046
334.0133, 3190.877
334.4955, 3196.958
334.9776, 3204.059
335.4597, 3211.825
335.9418, 3215.368
336.4239, 3209.261
336.9060, 3205.786
337.3882, 3211.876
337.8703, 3221.515
338.3524, 3224.854
338.8345, 3217.704
339.3166, 3205.417
339.7987, 3199.988
340.2809, 3207.301
340.7630, 3210.914
341.2451, 3205.406
341.7272, 3200.110
342.2093, 3201.382
342.6914, 3209.850
343.1736, 3222.316
343.6557, 3235.551
344.1378, 3249.454
344.6199, 3266.561
345.1020, 3294.443
345.5841, 3316.673
346.0663, 3323.983
346.5484, 3321.877
347.0305, 3320.882
347.5126, 3327.006
347.9947, 3336.703
348.4768, 3341.549
348.9590, 3339.573
349.4411, 3340.938
349.9232, 3351.979
350.4053, 3367.224
350.8874, 3381.656
351.3695, 3394.594
351.8517, 3406.937
352.3338, 3419.521
352.8159, 3432.203
353.2980, 3444.185
353.7801, 3454.735
354.2622, 3465.617
354.7444, 3481.113
355.2265, 3500.630
355.7086, 3514.116
356.1907, 3513.676
356.6728, 3509.597
357.1549, 3511.486
357.6371, 3519.805
358.1192, 3531.889
358.6013, 3546.963
359.0834, 3564.164
359.5655, 3577.321
360.0476, 3588.946
360.5297, 3594.388
361.0118, 3585.049
361.4940, 3570.527
361.9761, 3565.867
362.4582, 3576.648
362.9403, 3596.109
363.4224, 3612.884
363.9045, 3627.677
364.3867, 3637.649
364.8688, 3641.196
365.3509, 3641.868
365.8330, 3639.813
366.3151, 3636.430
366.7972, 3635.200
367.2794, 3639.490
367.7615, 3648.909
368.2436, 3657.232
368.7257, 3661.428
369.2078, 3669.068
369.6899, 3682.611
370.1721, 3700.426
370.6542, 3721.521
371.1363, 3746.261
371.6184, 3770.652
372.1005, 3784.871
372.5826, 3787.087
373.0648, 3802.879
373.5469, 3849.531
374.0290, 3902.365
374.5111, 3937.274
374.9932, 3954.129
375.4753, 3971.471
375.9575, 3999.743
376.4396, 4034.567
376.9217, 4065.533
377.4038, 4090.312
377.8859, 4122.846
378.3680, 4177.544
378.8502, 4250.827
379.3323, 4314.347
379.8144, 4359.305
380.2965, 4402.479
380.7786, 4451.488
381.2607, 4504.977
381.7429, 4559.654
382.2250, 4614.022
382.7071, 4668.729
383.1892, 4724.759
383.6713, 4780.441
384.1534, 4841.433
384.6356, 4912.747
385.1177, 4985.342
385.5998, 5051.813
386.0819, 5112.418
386.5640, 5172.982
387.0461, 5239.100
387.5283, 5310.437
388.0104, 5377.347
388.4925, 5434.933
388.9746, 5493.847
389.4567, 5558.200
389.9388, 5625.139
390.4210, 5691.410
390.9031, 5756.347
391.3852, 5818.259
391.8673, 5875.500
392.3494, 5928.096
392.8315, 5976.061
393.3137, 6022.588
393.7958, 6060.220
394.2779, 6079.701
394.7600, 6083.417
395.2421, 6089.774
395.7242, 6121.691
396.2064, 6156.902
396.6885, 6153.877
397.1706, 6109.085
397.6527, 6056.907
398.1348, 6020.648
398.6169, 5993.120
399.0991, 5948.197
399.5812, 5886.378
400.0633, 5807.679
400.5454, 5703.317
401.0275, 5584.549
401.5096, 5467.829
401.9918, 5357.979
402.4739, 5252.912
402.9560, 5147.434
403.4381, 5038.551
403.9202, 4942.143
404.4023, 4868.942
404.8845, 4796.000
405.3666, 4709.287
405.8487, 4612.608
406.3308, 4517.257
406.8129, 4429.652
407.2950, 4349.936
407.7772, 4278.224
408.2592, 4216.362
408.7414, 4159.685
409.2235, 4108.442
409.7056, 4060.792
410.1877, 4018.495
410.6698, 3981.102
411.1519, 3937.848
411.6341, 3870.616
412.1162, 3786.499
412.5983, 3725.289
413.0804, 3696.704
413.5625, 3675.984
414.0446, 3645.932
414.5268, 3610.158
415.0089, 3577.272
415.4910, 3546.994
415.9731, 3521.556
416.4552, 3503.349
416.9373, 3491.359
417.4195, 3484.615
417.9016, 3484.567
418.3837, 3483.425
418.8658, 3466.042
419.3479, 3420.923
419.8300, 3388.293
420.3122, 3380.325
420.7943, 3376.815
421.2764, 3362.350
421.7585, 3338.131
422.2406, 3314.758
422.7227, 3300.012
423.2049, 3292.913
423.6870, 3287.399
424.1691, 3288.579
424.6512, 3283.499
425.1333, 3265.627
425.6154, 3243.696
426.0976, 3223.547
426.5797, 3207.068
427.0618, 3197.970
427.5439, 3206.077
428.0260, 3229.360
428.5081, 3236.279
428.9903, 3215.103
429.4724, 3193.612
429.9545, 3193.809
430.4366, 3207.578
430.9187, 3216.931
431.4008, 3217.008
431.8830, 3211.225
432.3651, 3197.032
432.8472, 3177.995
433.3293, 3170.856
433.8114, 3183.890
434.2935, 3205.234
434.7757, 3215.807
435.2578, 3214.574
435.7399, 3204.826
436.2220, 3171.281
436.7041, 3141.552
437.1862, 3143.693
437.6684, 3169.925
438.1505, 3187.291
438.6326, 3171.481
439.1147, 3131.423
439.5968, 3108.269
440.0789, 3110.901
440.5611, 3117.552
441.0432, 3133.662
441.5253, 3146.533
442.0074, 3142.878
442.4895, 3121.686
442.9716, 3097.247
443.4538, 3082.305
443.9359, 3075.551
444.4180, 3068.473
444.9001, 3059.699
445.3822, 3053.088
445.8643, 3052.532
446.3465, 3055.496
446.8286, 3057.485
447.3107, 3056.079
447.7928, 3056.205
448.2749, 3064.661
448.7570, 3076.892
449.2392, 3080.870
449.7213, 3072.760
450.2034, 3060.267
450.6855, 3052.248
451.1676, 3049.255
451.6497, 3049.493
452.1319, 3056.082
452.6140, 3062.589
453.0961, 3069.458
453.5782, 3073.488
454.0603, 3065.797
454.5424, 3041.117
455.0246, 3012.291
455.5067, 3012.093
455.9888, 3056.918
456.4709, 3083.139
456.9530, 3063.888
457.4351, 3040.099
457.9172, 3031.838
458.3994, 3038.875
458.8815, 3052.208
459.3636, 3071.752
459.8457, 3091.846
460.3278, 3101.213
460.8099, 3099.286
461.2921, 3094.293
461.7742, 3087.729
462.2563, 3081.896
462.7384, 3081.311
463.2205, 3087.236
463.7026, 3093.767
464.1848, 3100.945
464.6669, 3106.953
465.1490, 3108.863
465.6311, 3107.014
466.1132, 3105.299
466.5953, 3106.571
467.0775, 3110.783
467.5596, 3117.430
468.0417, 3129.111
468.5238, 3140.205
469.0059, 3148.282
469.4880, 3156.557
469.9702, 3170.635
470.4523, 3190.585
470.9344, 3207.057
471.4165, 3206.500
471.8986, 3191.251
472.3807, 3187.616
472.8629, 3199.268
473.3450, 3215.471
473.8271, 3233.820
474.3092, 3251.788
474.7913, 3264.606
475.2734, 3269.112
475.7556, 3273.288
476.2377, 3284.720
476.7198, 3299.092
477.2019, 3305.235
477.6840, 3300.257
478.1661, 3295.012
478.6483, 3300.814
479.1304, 3318.602
479.6125, 3337.484
480.0946, 3361.426
480.5767, 3381.735
481.0588, 3394.780
481.5410, 3402.518
482.0231, 3406.711
482.5052, 3408.211
482.9873, 3410.048
483.4694, 3419.033
483.9515, 3437.447
484.4337, 3444.203
484.9158, 3425.816
485.3979, 3411.663
485.8800, 3425.016
486.3621, 3452.626
486.8442, 3465.194
487.3264, 3447.517
487.8085, 3420.217
488.2906, 3400.507
488.7727, 3387.533
489.2548, 3377.728
489.7369, 3370.192
490.2191, 3365.250
490.7012, 3364.075
491.1833, 3367.888
491.6654, 3368.374
492.1475, 3366.622
492.6296, 3360.552
493.1118, 3349.264
493.5939, 3332.914
494.0760, 3309.146
494.5581, 3276.888
495.0402, 3245.208
495.5223, 3231.082
496.0045, 3238.549
496.4866, 3247.515
496.9687, 3261.750
497.4508, 3272.120
497.9329, 3272.678
498.4150, 3265.982
498.8972, 3258.716
499.3793, 3255.093
499.8614, 3250.004
500.3435, 3234.546
500.8256, 3210.994
501.3077, 3193.160
501.7899, 3185.448
502.2720, 3183.906
502.7541, 3184.869
503.2362, 3189.393
503.7183, 3189.090
504.2004, 3173.458
504.6826, 3162.921
505.1647, 3175.669
505.6468, 3200.630
506.1289, 3213.384
506.6110, 3203.122
507.0931, 3184.281
507.5752, 3184.195
508.0573, 3208.979
508.5395, 3228.145
509.0216, 3234.711
509.5037, 3241.240
509.9858, 3255.750
510.4679, 3274.789
510.9500, 3289.556
511.4322, 3294.372
511.9143, 3297.277
512.3964, 3309.481
512.8785, 3328.178
513.3607, 3337.853
513.8428, 3331.919
514.3249, 3324.513
514.8070, 3331.636
515.2891, 3355.367
515.7712, 3383.743
516.2534, 3422.057
516.7355, 3459.402
517.2176, 3492.040
517.6997, 3520.070
518.1818, 3543.935
518.6639, 3563.790
519.1461, 3581.112
519.6282, 3596.367
520.1103, 3607.944
520.5924, 3629.101
521.0745, 3665.943
521.5566, 3704.793
522.0388, 3739.800
522.5209, 3771.995
523.0030, 3803.647
523.4851, 3835.776
523.9672, 3866.586
524.4493, 3895.099
524.9315, 3921.379
525.4136, 3944.842
525.8957, 3965.161
526.3778, 3986.268
526.8599, 4012.869
527.3420, 4045.369
527.8242, 4071.594
528.3063, 4086.288
528.7884, 4102.170
529.2705, 4128.857
529.7526, 4155.317
530.2347, 4168.503
530.7169, 4165.640
531.1990, 4153.586
531.6810, 4137.858
532.1631, 4118.805
532.6453, 4100.246
533.1274, 4083.348
533.6095, 4064.226
534.0916, 4039.416
534.5737, 4011.888
535.0558, 3987.635
535.5380, 3970.776
536.0201, 3944.416
536.5022, 3896.021
536.9843, 3836.063
537.4664, 3774.642
537.9485, 3714.162
538.4307, 3661.626
538.9128, 3622.942
539.3949, 3595.262
539.8770, 3566.454
540.3591, 3539.474
540.8412, 3506.035
541.3234, 3457.773
541.8055, 3409.429
542.2876, 3373.520
542.7697, 3348.404
543.2518, 3322.204
543.7339, 3285.177
544.2161, 3243.771
544.6982, 3211.702
545.1803, 3189.143
545.6624, 3166.320
546.1445, 3139.847
546.6266, 3111.723
547.1088, 3083.133
547.5909, 3052.697
548.0730, 3031.639
548.5551, 3035.979
549.0372, 3036.279
549.5193, 3008.198
550.0015, 2962.751
550.4836, 2924.938
550.9657, 2905.360
551.4478, 2896.210
551.9299, 2884.744
552.4120, 2870.114
552.8942, 2858.284
553.3763, 2852.677
553.8584, 2845.647
554.3405, 2830.608
554.8226, 2812.377
555.3047, 2800.617
555.7869, 2801.330
556.2690, 2800.601
556.7511, 2783.759
557.2332, 2759.129
557.7153, 2745.431
558.1974, 2745.779
558.6796, 2748.312
559.1617, 2742.865
559.6438, 2730.416
560.1259, 2721.020
560.6080, 2717.612
561.0901, 2713.645
561.5723, 2713.362
562.0544, 2708.945
562.5365, 2687.563
563.0186, 2652.274
563.5007, 2624.707
563.9828, 2623.350
564.4650, 2640.530
564.9471, 2661.369
565.4292, 2686.917
565.9113, 2699.899
566.3934, 2690.198
566.8755, 2669.177
567.3577, 2652.575
567.8398, 2640.369
568.3219, 2630.409
568.8040, 2620.040
569.2861, 2614.106
569.7682, 2620.297
570.2504, 2632.508
570.7325, 2638.494
571.2146, 2633.080
571.6967, 2621.154
572.1788, 2607.982
572.6609, 2592.185
573.1431, 2586.369
573.6252, 2595.615
574.1073, 2607.878
574.5894, 2620.287
575.0715, 2630.748
575.5536, 2634.653
576.0358, 2628.647
576.5179, 2623.292
577.0000, 2627.811
577.4821, 2635.619
577.9642, 2635.259
578.4464, 2626.178
578.9285, 2617.157
579.4106, 2614.595
579.8927, 2617.200
580.3748, 2619.017
580.8569, 2617.545
581.3391, 2619.787
581.8212, 2630.391
582.3033, 2640.944
582.7854, 2644.520
583.2675, 2642.811
583.7496, 2643.021
584.2318, 2648.999
584.7139, 2658.628
585.1960, 2672.314
585.6781, 2688.231
586.1602, 2694.741
586.6423, 2687.042
587.1245, 2675.828
587.6066, 2671.831
588.0887, 2675.285
588.5708, 2683.612
589.0529, 2705.660
589.5350, 2721.407
590.0172, 2717.626
590.4993, 2708.747
590.9814, 2714.480
591.4635, 2736.816
591.9456, 2756.203
592.4277, 2750.211
592.9099, 2727.077
593.3920, 2719.254
593.8741, 2728.537
594.3562, 2741.758
594.8383, 2756.298
595.3204, 2769.498
595.8026, 2774.365
596.2847, 2768.476
596.7668, 2771.810
597.2489, 2795.495
597.7310, 2821.553
598.2131, 2841.107
598.6953, 2853.851
599.1774, 2859.455
599.6595, 2857.982
600.1416, 2854.012
600.6237, 2853.010
601.1058, 2854.862
601.5880, 2864.913
602.0701, 2893.956
602.5522, 2910.192
603.0343, 2882.042
603.5164, 2836.245
603.9985, 2813.984
604.4807, 2824.480
604.9628, 2839.471
605.4449, 2852.979
605.9270, 2862.224
606.4091, 2861.960
606.8912, 2854.168
607.3734, 2847.589
607.8555, 2847.446
608.3376, 2850.018
608.8197, 2846.495
609.3018, 2834.913
609.7839, 2824.201
610.2661, 2814.310
610.7482, 2806.185
611.2303, 2802.311
611.7124, 2800.117
612.1945, 2793.674
612.6766, 2779.019
613.1588, 2765.699
613.6409, 2762.188
614.1230, 2763.030
614.6051, 2759.134
615.0872, 2749.600
615.5693, 2738.768
616.0515, 2729.081
616.5336, 2721.581
617.0157, 2721.274
617.4978, 2735.871
617.9799, 2741.596
618.4620, 2731.238
618.9442, 2715.948
619.4263, 2697.485
619.9084, 2678.944
620.3905, 2668.102
620.8726, 2672.070
621.3547, 2677.909
621.8369, 2672.561
622.3190, 2660.423
622.8011, 2650.864
623.2832, 2645.854
623.7653, 2647.307
624.2474, 2659.542
624.7296, 2679.041
625.2117, 2677.621
625.6938, 2630.450
626.1759, 2602.729
626.6580, 2614.230
627.1401, 2634.807
627.6223, 2644.071
628.1044, 2642.856
628.5865, 2642.771
629.0686, 2653.927
629.5507, 2662.878
630.0328, 2647.245
630.5149, 2616.323
630.9970, 2601.973
631.4791, 2611.991
631.9612, 2632.693
632.4434, 2653.463
632.9255, 2673.588
