##NAMES=Tantalite-(Mn)
##RRUFFID=R060252
##IDEAL CHEMISTRY=Mn^2+^Ta^5+^_2_O_6_
##LOCALITY=Kohtokay mine, Xinjiang Autonomous Region, China
##OWNER=RRUFF
##SOURCE=William W. Pinch
##DESCRIPTION=Reddish-brown fragment
##STATUS=The identification of this mineral is confirmed by single-crystal X-ray diffraction and chemical analysis.
##URL=rruff.info/R060252
##MEASURED CHEMISTRY=(Mn^2+^_0.93_Fe^2+^_0.07_)_Σ=1_(Ta_1.44_Nb_0.56_)_Σ=2_O_6_
91.18097, 0.0000000E+00
91.66309, 958.3342
92.14520, 965.4279
92.62732, 972.8353
93.10944, 970.7342
93.59155, 965.4203
94.07367, 962.8675
94.55579, 964.5928
95.03790, 965.8109
95.52002, 960.4935
96.00214, 946.9648
96.48425, 935.3446
96.96637, 926.5829
97.44849, 921.1938
97.93060, 920.8135
98.41272, 924.8252
98.89484, 930.0578
99.37695, 931.5764
99.85907, 923.0822
100.3412, 919.4427
100.8233, 923.4972
101.3054, 932.4268
101.7875, 941.9603
102.2697, 949.1881
102.7518, 954.3947
103.2339, 967.4066
103.7160, 989.6570
104.1981, 1015.447
104.6802, 1044.333
105.1624, 1075.357
105.6445, 1105.370
106.1266, 1130.527
106.6087, 1150.840
107.0908, 1173.597
107.5729, 1200.141
108.0551, 1229.038
108.5372, 1257.215
109.0193, 1282.703
109.5014, 1312.513
109.9835, 1353.765
110.4656, 1404.573
110.9478, 1459.506
111.4299, 1515.566
111.9120, 1573.119
112.3941, 1635.500
112.8762, 1708.919
113.3583, 1782.254
113.8405, 1850.417
114.3226, 1912.541
114.8047, 1969.370
115.2868, 2020.751
115.7689, 2066.333
116.2510, 2108.297
116.7332, 2146.161
117.2153, 2181.757
117.6974, 2214.018
118.1795, 2243.250
118.6616, 2273.380
119.1437, 2313.076
119.6259, 2363.082
120.1080, 2423.963
120.5901, 2497.958
121.0722, 2582.156
121.5543, 2674.568
122.0364, 2775.055
122.5186, 2881.281
123.0007, 2978.617
123.4828, 3083.103
123.9649, 3166.213
124.4470, 3223.778
124.9291, 3253.343
125.4113, 3245.689
125.8934, 3191.207
126.3755, 3088.550
126.8576, 2966.141
127.3397, 2814.705
127.8218, 2649.427
128.3040, 2478.613
128.7861, 2300.868
129.2682, 2130.166
129.7503, 1974.630
130.2324, 1832.510
130.7145, 1706.027
131.1967, 1598.589
131.6788, 1507.425
132.1609, 1424.502
132.6430, 1349.106
133.1251, 1283.515
133.6072, 1228.654
134.0894, 1182.779
134.5715, 1142.144
135.0536, 1104.278
135.5357, 1068.983
136.0178, 1037.020
136.4999, 1010.400
136.9821, 985.7391
137.4642, 961.9116
137.9463, 938.8097
138.4284, 917.4169
138.9105, 898.9546
139.3926, 885.0596
139.8748, 869.8013
140.3569, 850.9493
140.8390, 832.4398
141.3211, 816.2886
141.8032, 803.2333
142.2853, 793.4047
142.7675, 787.3636
143.2496, 787.0119
143.7317, 787.3398
144.2138, 788.0270
144.6959, 789.3168
145.1780, 791.7072
145.6602, 795.5076
146.1423, 800.0370
146.6244, 803.8202
147.1065, 806.5502
147.5886, 809.5804
148.0707, 812.3245
148.5529, 815.4879
149.0350, 821.8325
149.5171, 833.8224
149.9992, 848.7241
150.4813, 861.3454
150.9634, 870.2484
151.4456, 880.4289
151.9277, 895.4728
152.4098, 915.4845
152.8919, 940.4539
153.3740, 974.6160
153.8561, 1012.162
154.3383, 1048.967
154.8204, 1083.302
155.3025, 1117.372
155.7846, 1156.081
156.2667, 1202.986
156.7488, 1246.251
157.2310, 1279.774
157.7131, 1310.005
158.1952, 1343.542
158.6773, 1383.534
159.1594, 1428.773
159.6415, 1474.473
160.1237, 1517.923
160.6058, 1565.963
161.0879, 1617.066
161.5700, 1673.531
162.0521, 1739.205
162.5342, 1816.991
163.0164, 1906.400
163.4985, 1992.383
163.9806, 2085.487
164.4627, 2165.562
164.9448, 2226.161
165.4269, 2268.861
165.9091, 2295.931
166.3912, 2307.569
166.8733, 2303.218
167.3554, 2303.326
167.8375, 2296.923
168.3196, 2302.959
168.8018, 2330.325
169.2839, 2379.780
169.7660, 2449.025
170.2481, 2535.703
170.7302, 2642.827
171.2123, 2774.831
171.6945, 2941.031
172.1766, 3127.109
172.6587, 3329.192
173.1408, 3550.868
173.6229, 3759.180
174.1050, 3941.124
174.5872, 4091.816
175.0693, 4173.587
175.5514, 4170.856
176.0335, 4092.726
176.5156, 3950.503
176.9977, 3726.929
177.4799, 3468.933
177.9620, 3191.599
178.4441, 2905.845
178.9262, 2644.085
179.4083, 2424.809
179.8904, 2244.210
180.3726, 2090.399
180.8547, 1970.636
181.3368, 1873.228
181.8189, 1792.367
182.3010, 1727.159
182.7831, 1677.363
183.2653, 1645.135
183.7474, 1631.413
184.2295, 1621.141
184.7116, 1614.735
185.1937, 1611.866
185.6758, 1612.938
186.1580, 1617.753
186.6401, 1625.539
187.1222, 1634.751
187.6043, 1643.523
188.0864, 1662.730
188.5685, 1697.034
189.0507, 1736.269
189.5328, 1775.462
190.0149, 1814.446
190.4970, 1855.545
190.9791, 1902.001
191.4612, 1954.161
191.9434, 2011.127
192.4255, 2070.747
192.9076, 2135.481
193.3897, 2207.887
193.8718, 2287.923
194.3539, 2372.878
194.8361, 2459.315
195.3182, 2547.446
195.8003, 2638.319
196.2824, 2733.476
196.7645, 2830.289
197.2466, 2928.381
197.7288, 3027.772
198.2109, 3123.520
198.6930, 3210.262
199.1751, 3289.635
199.6572, 3352.018
200.1393, 3400.339
200.6215, 3429.199
201.1036, 3431.605
201.5857, 3405.691
202.0678, 3353.269
202.5499, 3268.527
203.0320, 3155.527
203.5142, 3032.169
203.9963, 2903.378
204.4784, 2768.514
204.9605, 2624.783
205.4426, 2466.739
205.9247, 2308.805
206.4069, 2163.617
206.8890, 2029.817
207.3711, 1906.906
207.8532, 1795.994
208.3353, 1695.861
208.8174, 1602.515
209.2996, 1514.143
209.7817, 1435.577
210.2638, 1369.789
210.7459, 1316.160
211.2280, 1269.420
211.7101, 1226.067
212.1923, 1186.218
212.6744, 1151.601
213.1565, 1123.967
213.6386, 1101.243
214.1207, 1082.983
214.6028, 1068.866
215.0850, 1057.499
215.5671, 1047.208
216.0492, 1037.454
216.5313, 1032.907
217.0134, 1038.457
217.4955, 1045.649
217.9777, 1050.811
218.4598, 1054.342
218.9419, 1059.204
219.4240, 1068.221
219.9061, 1081.631
220.3882, 1098.241
220.8704, 1120.800
221.3525, 1144.134
221.8346, 1166.435
222.3167, 1187.439
222.7988, 1207.520
223.2809, 1226.752
223.7631, 1244.490
224.2452, 1264.673
224.7273, 1288.857
225.2094, 1313.579
225.6915, 1336.266
226.1736, 1357.368
226.6558, 1379.637
227.1379, 1406.025
227.6200, 1437.083
228.1021, 1470.006
228.5842, 1503.570
229.0663, 1539.458
229.5485, 1577.805
230.0306, 1618.834
230.5127, 1663.668
230.9948, 1713.450
231.4769, 1769.462
231.9590, 1825.391
232.4412, 1875.244
232.9233, 1929.369
233.4054, 1994.719
233.8875, 2071.385
234.3696, 2156.143
234.8517, 2245.397
235.3339, 2339.950
235.8160, 2439.786
236.2981, 2548.541
236.7802, 2659.750
237.2623, 2773.285
237.7444, 2887.396
238.2266, 2991.512
238.7087, 3079.473
239.1908, 3147.505
239.6729, 3189.463
240.1550, 3205.588
240.6371, 3194.629
241.1193, 3151.287
241.6014, 3075.450
242.0835, 2981.391
242.5656, 2873.890
243.0477, 2755.187
243.5298, 2634.964
244.0120, 2508.693
244.4941, 2385.108
244.9762, 2270.153
245.4583, 2163.245
245.9404, 2070.021
246.4225, 1997.197
246.9047, 1941.153
247.3868, 1893.776
247.8689, 1853.462
248.3510, 1821.563
248.8331, 1802.298
249.3152, 1796.852
249.7974, 1791.891
250.2795, 1777.419
250.7616, 1760.031
251.2437, 1749.256
251.7258, 1748.127
252.2079, 1752.322
252.6901, 1756.399
253.1722, 1759.723
253.6543, 1767.393
254.1364, 1782.809
254.6185, 1803.479
255.1006, 1827.297
255.5828, 1853.349
256.0649, 1883.576
256.5470, 1920.018
257.0291, 1962.775
257.5112, 2011.008
257.9933, 2064.939
258.4755, 2124.642
258.9576, 2190.093
259.4397, 2260.482
259.9218, 2340.120
260.4039, 2432.926
260.8860, 2538.472
261.3682, 2659.395
261.8503, 2799.844
262.3324, 2955.629
262.8145, 3131.063
263.2966, 3326.416
263.7787, 3527.365
264.2609, 3725.980
264.7430, 3927.368
265.2251, 4097.733
265.7072, 4245.592
266.1893, 4347.829
266.6714, 4388.554
267.1536, 4366.694
267.6357, 4292.845
268.1178, 4166.481
268.5999, 3978.186
269.0820, 3794.390
269.5641, 3611.341
270.0463, 3439.107
270.5284, 3284.050
271.0105, 3145.670
271.4926, 3019.310
271.9747, 2900.290
272.4568, 2787.390
272.9390, 2688.426
273.4211, 2608.658
273.9032, 2539.490
274.3853, 2476.365
274.8674, 2420.873
275.3495, 2379.228
275.8317, 2357.438
276.3138, 2355.775
276.7959, 2358.174
277.2780, 2363.594
277.7601, 2374.783
278.2422, 2395.322
278.7244, 2422.282
279.2065, 2451.533
279.6886, 2481.910
280.1707, 2511.907
280.6528, 2524.815
281.1349, 2518.428
281.6171, 2494.229
282.0992, 2452.611
282.5813, 2393.470
283.0634, 2314.258
283.5455, 2212.758
284.0276, 2093.149
284.5098, 1974.072
284.9919, 1851.518
285.4740, 1735.012
285.9561, 1623.875
286.4382, 1519.908
286.9203, 1424.902
287.4025, 1340.117
287.8846, 1264.737
288.3667, 1197.331
288.8488, 1141.710
289.3309, 1089.714
289.8130, 1039.108
290.2952, 992.7044
290.7773, 953.7595
291.2594, 923.3008
291.7415, 898.1991
292.2236, 872.7839
292.7057, 844.5037
293.1879, 820.7659
293.6700, 802.8906
294.1521, 788.0376
294.6342, 774.3152
295.1163, 761.3016
295.5984, 749.6985
296.0806, 740.4764
296.5627, 734.1221
297.0448, 729.0982
297.5269, 723.6438
298.0090, 720.6315
298.4911, 722.1152
298.9733, 727.9279
299.4554, 736.3499
299.9375, 745.6896
300.4196, 755.7932
300.9017, 768.2017
301.3839, 783.6603
301.8660, 800.2635
302.3481, 817.4063
302.8302, 835.1069
303.3123, 854.1848
303.7944, 875.8125
304.2766, 899.7429
304.7587, 918.6190
305.2408, 929.4123
305.7229, 938.9357
306.2050, 948.6230
306.6871, 958.2596
307.1693, 966.6549
307.6514, 972.8910
308.1335, 978.2072
308.6156, 988.0114
309.0977, 1005.409
309.5798, 1023.989
310.0620, 1042.253
310.5441, 1061.784
311.0262, 1084.002
311.5083, 1109.577
311.9904, 1139.069
312.4725, 1173.407
312.9547, 1214.898
313.4368, 1259.310
313.9189, 1303.814
314.4010, 1352.722
314.8831, 1409.557
315.3652, 1475.098
315.8474, 1549.420
316.3295, 1632.553
316.8116, 1728.353
317.2937, 1824.697
317.7758, 1920.009
318.2579, 2016.948
318.7401, 2122.107
319.2222, 2232.458
319.7043, 2336.027
320.1864, 2422.946
320.6685, 2494.804
321.1506, 2533.368
321.6328, 2545.139
322.1149, 2523.901
322.5970, 2461.043
323.0791, 2362.421
323.5612, 2239.230
324.0433, 2095.654
324.5255, 1934.440
325.0076, 1786.182
325.4897, 1652.121
325.9718, 1529.222
326.4539, 1415.476
326.9360, 1312.242
327.4182, 1221.135
327.9003, 1142.533
328.3824, 1075.755
328.8645, 1018.651
329.3466, 976.3450
329.8287, 937.6996
330.3109, 903.4090
330.7930, 871.7472
331.2751, 840.5701
331.7572, 809.5378
332.2393, 781.2375
332.7214, 760.0830
333.2036, 749.6734
333.6857, 738.5045
334.1678, 723.8524
334.6499, 710.6663
335.1320, 702.6276
335.6141, 699.5143
336.0963, 698.4089
336.5784, 696.4228
337.0605, 693.2848
337.5426, 691.5986
338.0247, 694.2248
338.5068, 695.3802
338.9890, 691.2635
339.4711, 684.1435
339.9532, 678.8034
340.4353, 678.4557
340.9174, 682.4930
341.3995, 687.0259
341.8817, 692.3395
342.3638, 697.8310
342.8459, 702.8620
343.3280, 708.2288
343.8101, 715.1025
344.2922, 723.9802
344.7744, 733.9369
345.2565, 742.8271
345.7386, 749.3633
346.2207, 757.4063
346.7028, 765.8566
347.1849, 776.5317
347.6671, 791.3907
348.1492, 810.5369
348.6313, 831.4403
349.1134, 851.4889
349.5955, 870.5973
350.0776, 888.8247
350.5598, 905.6052
351.0419, 922.0358
351.5240, 936.6771
352.0061, 951.0107
352.4882, 969.0247
352.9703, 994.7435
353.4525, 1027.192
353.9346, 1055.241
354.4167, 1075.047
354.8988, 1095.385
355.3809, 1118.032
355.8630, 1142.938
356.3452, 1169.910
356.8273, 1198.987
357.3094, 1229.702
357.7915, 1261.150
358.2736, 1293.154
358.7557, 1325.920
359.2379, 1358.236
359.7200, 1391.906
360.2021, 1429.336
360.6842, 1470.962
361.1663, 1513.352
361.6484, 1552.182
362.1306, 1586.654
362.6127, 1625.502
363.0948, 1674.765
363.5769, 1723.977
364.0590, 1766.826
364.5411, 1804.404
365.0233, 1841.617
365.5054, 1882.187
365.9875, 1925.219
366.4696, 1966.762
366.9517, 2006.631
367.4338, 2045.649
367.9160, 2087.294
368.3981, 2127.907
368.8802, 2161.740
369.3623, 2186.961
369.8444, 2204.581
370.3265, 2215.101
370.8087, 2218.145
371.2908, 2217.752
371.7729, 2214.773
372.2550, 2209.165
372.7371, 2200.499
373.2192, 2188.450
373.7014, 2175.562
374.1835, 2161.905
374.6656, 2148.521
375.1477, 2139.817
375.6298, 2136.525
376.1119, 2138.792
376.5941, 2146.848
377.0762, 2160.149
377.5583, 2177.822
378.0404, 2199.248
378.5225, 2224.944
379.0046, 2255.504
379.4868, 2290.925
379.9689, 2331.411
380.4510, 2376.523
380.9331, 2427.659
381.4152, 2487.652
381.8973, 2558.323
382.3795, 2635.613
382.8616, 2717.522
383.3437, 2804.228
383.8258, 2895.163
384.3079, 2989.132
384.7900, 3089.534
385.2722, 3205.625
385.7543, 3337.635
386.2364, 3477.848
386.7185, 3623.279
387.2006, 3775.403
387.6827, 3938.201
388.1649, 4112.746
388.6470, 4292.870
389.1291, 4471.606
389.6112, 4647.827
390.0933, 4835.727
390.5754, 5044.102
391.0576, 5256.364
391.5397, 5470.264
392.0218, 5680.419
392.5039, 5876.861
392.9860, 6053.759
393.4681, 6211.359
393.9503, 6345.709
394.4324, 6467.153
394.9145, 6554.970
395.3966, 6609.548
395.8787, 6627.741
396.3608, 6606.706
396.8430, 6545.225
397.3251, 6442.205
397.8072, 6294.237
398.2893, 6088.219
398.7714, 5867.331
399.2535, 5629.625
399.7357, 5381.098
400.2178, 5121.083
400.6999, 4852.477
401.1820, 4581.492
401.6641, 4308.400
402.1462, 4035.555
402.6284, 3779.264
403.1105, 3542.038
403.5926, 3320.881
404.0747, 3115.416
404.5568, 2925.424
405.0389, 2751.637
405.5211, 2594.296
406.0032, 2450.360
406.4853, 2316.295
406.9674, 2191.866
407.4495, 2075.275
407.9316, 1965.055
408.4138, 1863.860
408.8959, 1775.985
409.3780, 1699.699
409.8601, 1630.189
410.3422, 1563.223
410.8243, 1499.167
411.3065, 1440.107
411.7886, 1386.485
412.2707, 1337.117
412.7528, 1290.967
413.2349, 1248.360
413.7170, 1210.074
414.1992, 1176.798
414.6813, 1147.041
415.1634, 1119.427
415.6455, 1093.988
416.1276, 1070.154
416.6097, 1048.580
417.0919, 1027.929
417.5740, 1006.397
418.0561, 983.9281
418.5382, 962.7133
419.0203, 944.1852
419.5024, 927.7775
419.9846, 912.3575
420.4667, 897.7660
420.9488, 884.3371
421.4309, 872.6216
421.9130, 862.4336
422.3951, 852.9632
422.8773, 844.2748
423.3594, 836.1520
423.8415, 828.4481
424.3236, 821.1580
424.8057, 814.2960
425.2878, 807.9335
425.7700, 801.7966
426.2521, 795.1417
426.7342, 787.4435
427.2163, 780.7327
427.6984, 775.6887
428.1805, 771.5804
428.6627, 767.5727
429.1448, 763.5738
429.6269, 760.1636
430.1090, 757.8900
430.5911, 756.7867
431.0732, 756.0806
431.5554, 755.8550
432.0375, 755.8466
432.5196, 756.9724
433.0017, 758.0519
433.4838, 756.6710
433.9659, 751.6759
434.4481, 745.1323
434.9302, 741.7686
435.4123, 744.5721
435.8944, 745.1520
436.3765, 741.9664
436.8586, 737.9281
437.3408, 734.2879
437.8229, 731.5204
438.3050, 730.2509
438.7871, 731.6299
439.2692, 735.3546
439.7513, 736.1664
440.2335, 733.1620
440.7156, 728.2711
441.1977, 719.2592
441.6798, 709.9354
442.1619, 705.7213
442.6440, 708.9095
443.1262, 714.7029
443.6083, 716.6764
444.0904, 714.5667
444.5725, 711.8431
445.0546, 708.7070
445.5367, 705.5658
446.0189, 702.5536
446.5010, 699.7407
446.9831, 697.4954
447.4652, 695.7994
447.9473, 694.8683
448.4294, 695.4441
448.9116, 697.7313
449.3937, 699.9922
449.8758, 701.7109
450.3579, 702.4839
450.8400, 701.4852
451.3221, 697.6442
451.8043, 694.1485
452.2864, 692.8071
452.7685, 693.0126
453.2506, 693.3239
453.7327, 693.2915
454.2148, 693.9190
454.6970, 696.3948
455.1791, 701.0078
455.6612, 706.4313
456.1433, 715.0788
456.6254, 722.3694
457.1075, 723.9448
457.5897, 721.6669
458.0718, 721.2401
458.5539, 725.9402
459.0360, 734.2985
459.5181, 741.7677
460.0002, 748.4263
460.4824, 753.9952
460.9645, 758.4274
461.4466, 761.8291
461.9287, 764.5460
462.4108, 766.4622
462.8929, 766.8078
463.3751, 764.6454
463.8572, 759.9569
464.3393, 755.0973
464.8214, 748.8226
465.3035, 744.0029
465.7856, 741.3958
466.2678, 740.6024
466.7499, 741.7195
467.2320, 744.9717
467.7141, 747.9817
468.1962, 746.8830
468.6783, 741.2625
469.1605, 735.9163
469.6426, 731.3439
470.1247, 727.5522
470.6068, 723.2690
471.0889, 719.3468
471.5710, 719.1992
472.0532, 727.1194
472.5353, 738.6033
473.0174, 745.9977
473.4995, 749.1036
473.9816, 753.1182
474.4637, 760.9562
474.9459, 770.9269
475.4280, 779.6649
475.9101, 787.0002
476.3922, 793.6859
476.8743, 799.4454
477.3564, 804.9957
477.8386, 811.0848
478.3207, 817.9093
478.8028, 825.8582
479.2849, 835.2698
479.7670, 846.2145
480.2491, 858.1881
480.7313, 871.4994
481.2134, 885.3880
481.6955, 900.2589
482.1776, 915.3149
482.6597, 928.9240
483.1418, 940.5179
483.6240, 951.9801
484.1061, 966.4505
484.5882, 985.4529
485.0703, 1003.158
485.5524, 1018.730
486.0345, 1033.969
486.5167, 1049.009
486.9988, 1064.292
487.4809, 1080.603
487.9630, 1098.622
488.4451, 1117.513
488.9272, 1135.375
489.4094, 1151.714
489.8915, 1168.471
490.3736, 1186.437
490.8557, 1204.847
491.3378, 1223.547
491.8199, 1242.366
492.3021, 1261.089
492.7842, 1278.694
493.2663, 1296.145
493.7484, 1316.377
494.2305, 1340.313
494.7126, 1363.501
495.1948, 1382.857
495.6769, 1399.662
496.1590, 1417.112
496.6411, 1434.896
497.1232, 1454.242
497.6053, 1477.319
498.0875, 1501.950
498.5696, 1524.349
499.0517, 1543.519
499.5338, 1560.965
500.0159, 1577.644
500.4980, 1593.211
500.9802, 1611.781
501.4623, 1634.829
501.9444, 1658.952
502.4265, 1682.987
502.9086, 1707.285
503.3907, 1732.865
503.8729, 1760.170
504.3550, 1788.102
504.8371, 1814.689
505.3192, 1840.143
505.8013, 1863.954
506.2834, 1884.556
506.7656, 1905.075
507.2477, 1927.262
507.7298, 1950.381
508.2119, 1972.211
508.6940, 1990.826
509.1761, 2008.718
509.6583, 2032.049
510.1404, 2062.016
510.6225, 2090.239
511.1046, 2113.478
511.5867, 2134.583
512.0688, 2155.719
512.5510, 2176.897
513.0331, 2199.258
513.5152, 2225.404
513.9973, 2251.992
514.4794, 2274.545
514.9615, 2292.972
515.4437, 2306.520
515.9258, 2313.700
516.4079, 2316.480
516.8900, 2320.486
517.3721, 2325.551
517.8542, 2331.887
518.3364, 2340.890
518.8185, 2350.394
519.3006, 2358.207
519.7827, 2364.072
520.2648, 2368.862
520.7469, 2373.103
521.2291, 2376.905
521.7112, 2381.913
522.1933, 2389.160
522.6754, 2396.438
523.1575, 2402.136
523.6396, 2408.470
524.1218, 2417.315
524.6039, 2429.230
525.0860, 2443.911
525.5681, 2460.846
526.0502, 2479.990
526.5323, 2503.692
527.0145, 2532.654
527.4966, 2564.922
527.9787, 2597.585
528.4608, 2633.620
528.9429, 2678.416
529.4250, 2734.644
529.9072, 2794.991
530.3893, 2853.037
530.8714, 2910.447
531.3535, 2972.180
531.8356, 3038.517
532.3177, 3112.433
532.7999, 3197.441
533.2820, 3294.169
533.7641, 3394.601
534.2462, 3498.653
534.7283, 3605.768
535.2104, 3716.839
535.6926, 3830.450
536.1747, 3943.668
536.6568, 4055.147
537.1389, 4169.180
537.6210, 4292.866
538.1031, 4434.544
538.5853, 4552.640
539.0674, 4638.947
539.5495, 4711.747
540.0316, 4781.540
540.5137, 4840.977
540.9958, 4879.208
541.4780, 4891.963
541.9601, 4878.742
542.4422, 4837.931
542.9243, 4769.327
543.4064, 4677.513
543.8885, 4559.033
544.3707, 4421.210
544.8528, 4265.591
545.3349, 4096.963
545.8170, 3926.729
546.2991, 3758.067
546.7813, 3590.539
547.2634, 3419.736
547.7455, 3248.546
548.2276, 3086.195
548.7097, 2936.241
549.1918, 2793.619
549.6740, 2651.858
550.1561, 2510.037
550.6382, 2378.574
551.1203, 2257.043
551.6024, 2146.147
552.0845, 2047.673
552.5667, 1959.902
553.0488, 1880.154
553.5309, 1807.673
554.0130, 1739.852
554.4951, 1672.208
554.9772, 1603.299
555.4594, 1539.891
555.9415, 1481.945
556.4236, 1429.841
556.9057, 1386.016
557.3878, 1348.277
557.8699, 1312.107
558.3521, 1275.359
558.8342, 1239.961
559.3163, 1208.601
559.7984, 1181.325
560.2805, 1154.120
560.7626, 1125.933
561.2448, 1098.255
561.7269, 1070.996
562.2090, 1044.764
562.6911, 1023.269
563.1732, 1011.493
563.6553, 1000.633
564.1375, 984.1940
564.6196, 964.1177
565.1017, 944.6130
565.5838, 927.0830
566.0659, 911.9754
566.5480, 900.2933
567.0302, 892.8563
567.5123, 884.9437
567.9944, 875.6766
568.4765, 866.9204
568.9586, 860.0302
569.4407, 853.8998
569.9229, 846.6374
570.4050, 837.4993
570.8871, 828.2420
571.3692, 821.8242
571.8513, 818.4468
572.3334, 813.6871
572.8156, 805.5531
573.2977, 798.6793
573.7798, 796.5291
574.2619, 797.3054
574.7440, 797.8575
575.2261, 797.8230
575.7083, 796.6458
576.1904, 793.0184
576.6725, 788.0154
577.1546, 784.2645
577.6367, 782.3789
578.1188, 781.2642
578.6010, 779.6852
579.0831, 777.6660
579.5652, 777.9221
580.0473, 782.0920
580.5294, 786.2001
581.0115, 788.0192
581.4937, 789.7703
581.9758, 794.6643
582.4579, 803.0723
582.9400, 811.9595
583.4221, 818.3406
583.9042, 822.2491
584.3864, 824.5986
584.8685, 823.3875
585.3506, 824.2499
585.8327, 830.0288
586.3148, 838.1942
586.7969, 846.3496
