##NAMES=Tantalite-(Mn)
##RRUFFID=R060252
##IDEAL CHEMISTRY=Mn^2+^Ta^5+^_2_O_6_
##LOCALITY=Kohtokay mine, Xinjiang Autonomous Region, China
##OWNER=RRUFF
##SOURCE=William W. Pinch
##DESCRIPTION=Reddish-brown fragment
##STATUS=The identification of this mineral is confirmed by single-crystal X-ray diffraction and chemical analysis.
##URL=rruff.info/R060252
##MEASURED CHEMISTRY=(Mn^2+^_0.93_Fe^2+^_0.07_)_Σ=1_(Ta_1.44_Nb_0.56_)_Σ=2_O_6_
89.60352, 50.61663
90.08563, 55.23972
90.56775, 56.11596
91.04987, 50.80111
91.53198, 43.97666
92.01410, 42.63234
92.49622, 46.45808
92.97833, 49.91170
93.46045, 46.74450
93.94257, 38.76340
94.42468, 32.15501
94.90680, 29.09800
95.38892, 29.09077
95.87103, 30.87952
96.35315, 34.69413
96.83527, 39.34863
97.31738, 43.81348
97.79950, 48.13009
98.28162, 51.27630
98.76373, 52.85028
99.24585, 52.84164
99.72797, 51.12153
100.2101, 46.87748
100.6922, 41.68538
101.1743, 39.30956
101.6564, 40.29575
102.1385, 42.55649
102.6207, 45.47135
103.1028, 49.99471
103.5849, 51.96075
104.0670, 50.12870
104.5491, 45.08970
105.0313, 41.51682
105.5134, 40.68524
105.9955, 39.96735
106.4776, 36.98446
106.9597, 27.77674
107.4418, 21.99811
107.9240, 22.26664
108.4061, 29.57987
108.8882, 35.17228
109.3703, 37.82795
109.8524, 39.22474
110.3345, 41.10022
110.8167, 47.00187
111.2988, 50.16792
111.7809, 47.73260
112.2630, 36.52474
112.7451, 28.72998
113.2272, 26.69167
113.7094, 28.97973
114.1915, 33.23408
114.6736, 43.35228
115.1557, 52.14994
115.6378, 55.64566
116.1199, 49.96463
116.6021, 44.63104
117.0842, 43.08492
117.5663, 44.50738
118.0484, 46.43833
118.5305, 47.87165
119.0126, 49.35681
119.4948, 51.23568
119.9769, 52.41984
120.4590, 55.23986
120.9411, 62.30278
121.4232, 73.07378
121.9053, 83.36211
122.3875, 90.88515
122.8696, 96.20742
123.3517, 100.1129
123.8338, 98.41923
124.3159, 97.74799
124.7980, 106.7857
125.2802, 125.8598
125.7623, 146.6084
126.2444, 161.5279
126.7265, 172.1827
127.2086, 182.7428
127.6907, 194.8747
128.1729, 208.2707
128.6550, 222.9053
129.1371, 239.2830
129.6192, 255.0770
130.1013, 267.3604
130.5834, 276.2833
131.0656, 283.9551
131.5477, 292.5448
132.0298, 301.2446
132.5119, 305.2692
132.9940, 302.8501
133.4761, 297.5679
133.9583, 296.6594
134.4404, 300.4321
134.9225, 305.1667
135.4046, 307.3750
135.8867, 306.9516
136.3688, 310.2287
136.8510, 319.8011
137.3331, 333.1356
137.8152, 340.8626
138.2973, 341.8870
138.7794, 340.3363
139.2615, 338.5894
139.7437, 335.7314
140.2258, 336.9488
140.7079, 345.0262
141.1900, 359.4445
141.6721, 368.4139
142.1542, 370.3612
142.6364, 368.9085
143.1185, 367.5284
143.6006, 365.6490
144.0827, 365.0235
144.5648, 366.1880
145.0469, 369.3981
145.5291, 373.0490
146.0112, 376.9310
146.4933, 381.4028
146.9754, 387.3893
147.4575, 398.8200
147.9396, 406.8948
148.4218, 407.9621
148.9039, 396.3992
149.3860, 391.4584
149.8681, 395.2952
150.3502, 405.5729
150.8323, 417.8206
151.3145, 435.6129
151.7966, 452.2457
152.2787, 465.3283
152.7608, 470.1603
153.2429, 478.4931
153.7250, 494.1436
154.2072, 514.2403
154.6893, 530.7341
155.1714, 532.7526
155.6535, 533.4569
156.1356, 542.6832
156.6177, 566.9750
157.0999, 593.1528
157.5820, 620.3176
158.0641, 647.9490
158.5462, 673.7448
159.0283, 695.2657
159.5104, 715.9413
159.9926, 738.0085
160.4747, 763.2825
160.9568, 788.7429
161.4389, 813.4247
161.9210, 837.1528
162.4031, 861.2861
162.8853, 886.3781
163.3674, 911.8527
163.8495, 937.1808
164.3316, 965.1826
164.8137, 990.5587
165.2958, 1009.912
165.7780, 1023.398
166.2601, 1035.206
166.7422, 1048.262
167.2243, 1060.978
167.7064, 1071.173
168.1885, 1072.167
168.6707, 1074.450
169.1528, 1084.795
169.6349, 1103.543
170.1170, 1129.451
170.5991, 1161.085
171.0812, 1199.537
171.5634, 1246.120
172.0455, 1306.668
172.5276, 1373.190
173.0097, 1440.315
173.4918, 1509.356
173.9739, 1571.132
174.4561, 1623.529
174.9382, 1664.623
175.4203, 1689.620
175.9024, 1698.329
176.3845, 1688.863
176.8666, 1655.872
177.3488, 1596.254
177.8309, 1522.603
178.3130, 1441.775
178.7951, 1355.814
179.2772, 1275.646
179.7593, 1201.346
180.2415, 1137.375
180.7236, 1092.501
181.2057, 1070.058
181.6878, 1060.846
182.1699, 1052.944
182.6520, 1047.006
183.1342, 1046.641
183.6163, 1055.830
184.0984, 1072.646
184.5805, 1091.517
185.0626, 1112.182
185.5447, 1133.836
186.0269, 1155.026
186.5090, 1175.748
186.9911, 1198.263
187.4732, 1223.700
187.9553, 1252.275
188.4374, 1284.086
188.9196, 1320.159
189.4017, 1358.839
189.8838, 1395.770
190.3659, 1431.223
190.8480, 1469.135
191.3301, 1513.169
191.8123, 1563.366
192.2944, 1616.303
192.7765, 1671.429
193.2586, 1728.936
193.7407, 1787.073
194.2228, 1845.487
194.7050, 1907.098
195.1871, 1976.585
195.6692, 2053.858
196.1513, 2128.305
196.6334, 2198.477
197.1155, 2263.765
197.5977, 2323.587
198.0798, 2377.876
198.5619, 2425.809
199.0440, 2469.583
199.5261, 2510.498
200.0082, 2532.427
200.4904, 2533.347
200.9725, 2512.586
201.4546, 2463.778
201.9367, 2383.571
202.4188, 2284.531
202.9009, 2178.662
203.3831, 2065.259
203.8652, 1946.085
204.3473, 1818.680
204.8294, 1684.442
205.3115, 1558.958
205.7936, 1442.366
206.2758, 1334.164
206.7579, 1232.810
207.2400, 1138.344
207.7221, 1054.704
208.2042, 984.0456
208.6863, 925.9447
209.1685, 873.3066
209.6506, 826.0048
210.1327, 783.6503
210.6148, 746.0198
211.0969, 713.9736
211.5790, 684.8849
212.0612, 658.0653
212.5433, 633.7204
213.0254, 611.6965
213.5075, 591.1665
213.9896, 573.9679
214.4717, 563.5125
214.9538, 562.3505
215.4360, 560.6610
215.9181, 555.6761
216.4002, 547.2120
216.8823, 538.7421
217.3644, 529.4406
217.8465, 521.0523
218.3287, 515.7114
218.8108, 514.0095
219.2929, 514.0486
219.7750, 515.8285
220.2571, 519.7039
220.7392, 521.8630
221.2214, 520.8253
221.7035, 519.5787
222.1856, 522.3802
222.6677, 531.3160
223.1498, 539.8931
223.6319, 546.2225
224.1141, 550.1694
224.5962, 553.3052
225.0783, 554.5641
225.5604, 555.9109
226.0425, 560.3478
226.5246, 569.7316
227.0068, 578.5139
227.4889, 584.5676
227.9710, 587.2477
228.4531, 592.2762
228.9352, 601.0333
229.4173, 610.9755
229.8995, 618.2272
230.3816, 620.5975
230.8637, 624.4264
231.3458, 631.6343
231.8279, 642.8889
232.3100, 653.8719
232.7922, 664.5648
233.2743, 674.9625
233.7564, 684.8199
234.2385, 692.2095
234.7206, 702.3997
235.2027, 717.2808
235.6849, 737.6020
236.1670, 757.9398
236.6491, 779.1962
237.1312, 799.7570
237.6133, 817.4866
238.0954, 832.0365
238.5776, 844.7137
239.0597, 856.0299
239.5418, 866.0652
240.0239, 873.6454
240.5060, 879.2577
240.9881, 882.0329
241.4703, 881.0687
241.9524, 877.0690
242.4345, 868.0137
242.9166, 852.1519
243.3987, 828.1974
243.8808, 806.6409
244.3630, 787.5620
244.8451, 770.6161
245.3272, 755.2678
245.8093, 740.7540
246.2914, 729.1412
246.7735, 720.4299
247.2557, 714.4064
247.7378, 713.6705
248.2199, 719.7835
248.7020, 729.6088
249.1841, 739.7896
249.6662, 750.0260
250.1484, 761.1677
250.6305, 773.4394
251.1126, 786.7311
251.5947, 800.9777
252.0768, 815.9327
252.5589, 831.8768
253.0411, 849.1019
253.5232, 867.4334
254.0053, 886.9948
254.4874, 907.8719
254.9695, 930.1671
255.4516, 953.2661
255.9338, 977.0182
256.4159, 1001.740
256.8980, 1026.989
257.3801, 1051.814
257.8622, 1079.840
258.3444, 1110.804
258.8265, 1144.939
259.3086, 1186.055
259.7907, 1234.427
260.2728, 1288.198
260.7549, 1344.865
261.2371, 1404.540
261.7192, 1467.746
262.2013, 1532.868
262.6834, 1601.059
263.1655, 1678.810
263.6476, 1770.688
264.1298, 1865.760
264.6119, 1959.435
265.0940, 2053.069
265.5761, 2138.691
266.0582, 2217.180
266.5403, 2286.320
267.0225, 2335.129
267.5046, 2362.568
267.9867, 2370.902
268.4688, 2360.103
268.9509, 2327.700
269.4330, 2284.924
269.9152, 2229.328
270.3973, 2165.058
270.8794, 2110.814
271.3615, 2068.085
271.8436, 2031.385
272.3257, 1998.987
272.8079, 1971.379
273.2900, 1943.936
273.7721, 1915.850
274.2542, 1887.646
274.7363, 1860.082
275.2184, 1832.909
275.7006, 1807.618
276.1827, 1784.900
276.6648, 1764.393
277.1469, 1750.470
277.6290, 1745.681
278.1111, 1745.089
278.5933, 1737.532
279.0754, 1722.149
279.5575, 1704.429
280.0396, 1689.817
280.5217, 1678.513
281.0038, 1655.368
281.4860, 1619.041
281.9681, 1571.833
282.4502, 1517.157
282.9323, 1454.943
283.4144, 1386.193
283.8965, 1308.361
284.3787, 1223.026
284.8608, 1140.045
285.3429, 1059.032
285.8250, 981.9999
286.3071, 911.4315
286.7892, 847.3301
287.2714, 789.8121
287.7535, 739.3450
288.2356, 695.2899
288.7177, 657.3503
289.1998, 625.4666
289.6819, 597.6481
290.1641, 571.8071
290.6462, 547.9904
291.1283, 526.5158
291.6104, 507.9128
292.0925, 491.7497
292.5746, 478.1361
293.0568, 467.1992
293.5389, 456.3471
294.0210, 441.6664
294.5031, 424.4667
294.9852, 410.2144
295.4673, 401.5941
295.9495, 396.5563
296.4316, 391.0805
296.9137, 385.2430
297.3958, 381.0938
297.8779, 381.9481
298.3600, 385.9054
298.8422, 388.2480
299.3243, 387.4726
299.8064, 384.7845
300.2885, 380.3122
300.7706, 374.6090
301.2527, 371.4127
301.7349, 375.1010
302.2170, 382.8283
302.6991, 389.8303
303.1812, 395.2866
303.6633, 399.5078
304.1454, 402.0693
304.6276, 403.4558
305.1097, 405.4635
305.5918, 409.2275
306.0739, 414.1883
306.5560, 419.8772
307.0381, 426.6349
307.5203, 433.0086
308.0024, 436.6657
308.4845, 438.9420
308.9666, 442.9693
309.4487, 451.3096
309.9308, 461.5195
310.4130, 471.7119
310.8951, 481.7364
311.3772, 491.2322
311.8593, 498.2448
312.3414, 504.7197
312.8235, 513.8113
313.3057, 529.3181
313.7878, 546.0311
314.2699, 560.0433
314.7520, 570.8656
315.2341, 583.7745
315.7162, 601.5823
316.1984, 622.6758
316.6805, 644.9911
317.1626, 669.1627
317.6447, 693.4579
318.1268, 717.7292
318.6089, 742.0485
319.0911, 764.4906
319.5732, 785.4923
320.0553, 803.9021
320.5374, 818.6202
321.0195, 834.1092
321.5016, 841.1229
321.9838, 834.8395
322.4659, 817.3019
322.9480, 798.4520
323.4301, 783.8391
323.9122, 765.7523
324.3943, 739.9262
324.8765, 698.3112
325.3586, 659.7277
325.8407, 624.8697
326.3228, 594.1199
326.8049, 568.3559
327.2870, 550.9620
327.7692, 536.0118
328.2513, 521.7804
328.7334, 509.2867
329.2155, 495.4128
329.6976, 477.0365
330.1797, 458.2682
330.6619, 445.9736
331.1440, 444.9842
331.6261, 443.8323
332.1082, 438.5864
332.5903, 428.0667
333.0724, 422.7350
333.5546, 425.4993
334.0367, 430.7883
334.5188, 432.3788
335.0009, 428.3756
335.4830, 425.0303
335.9651, 423.8472
336.4473, 424.5856
336.9294, 424.2981
337.4115, 422.7418
337.8936, 420.6519
338.3757, 417.9731
338.8578, 413.9701
339.3399, 413.2345
339.8221, 417.1183
340.3042, 424.3123
340.7863, 430.9195
341.2684, 437.2480
341.7505, 441.9810
342.2326, 443.3843
342.7148, 441.4882
343.1969, 441.6996
343.6790, 444.5851
344.1611, 449.3273
344.6432, 454.1981
345.1253, 459.2130
345.6075, 466.0304
346.0896, 477.2837
346.5717, 491.4464
347.0538, 500.4733
347.5359, 503.5585
348.0180, 506.0306
348.5002, 515.5224
348.9823, 530.2399
349.4644, 542.6071
349.9465, 547.4968
350.4286, 549.5682
350.9107, 557.6957
351.3929, 571.6898
351.8750, 586.3591
352.3571, 596.4019
352.8392, 604.3146
353.3213, 614.7511
353.8034, 629.6750
354.2856, 646.4652
354.7677, 662.7726
355.2498, 678.8102
355.7319, 695.6812
356.2140, 715.1284
356.6961, 735.1812
357.1783, 753.9968
357.6604, 770.9495
358.1425, 787.4134
358.6246, 803.6199
359.1067, 820.0687
359.5888, 837.8639
360.0710, 857.8861
360.5531, 879.0414
361.0352, 900.9868
361.5173, 923.7087
361.9994, 946.9099
362.4815, 970.6566
362.9637, 994.7513
363.4458, 1018.984
363.9279, 1042.476
364.4100, 1067.131
364.8921, 1093.960
365.3742, 1122.907
365.8564, 1150.116
366.3385, 1172.508
366.8206, 1194.575
367.3027, 1219.021
367.7848, 1250.946
368.2669, 1279.601
368.7491, 1301.898
369.2312, 1320.178
369.7133, 1340.624
370.1954, 1365.550
370.6775, 1390.278
371.1596, 1412.881
371.6418, 1433.086
372.1239, 1452.336
372.6060, 1469.472
373.0881, 1486.303
373.5702, 1504.965
374.0523, 1523.868
374.5345, 1548.457
375.0166, 1580.748
375.4987, 1620.844
375.9808, 1663.962
376.4629, 1710.185
376.9450, 1760.181
377.4272, 1816.124
377.9093, 1878.585
378.3914, 1942.827
378.8735, 2006.638
379.3556, 2073.176
379.8377, 2154.997
380.3199, 2252.486
380.8020, 2356.141
381.2841, 2459.216
381.7662, 2563.405
382.2483, 2672.155
382.7304, 2786.689
383.2126, 2906.106
383.6947, 3032.449
384.1768, 3165.241
384.6589, 3300.079
385.1410, 3436.242
385.6231, 3574.583
386.1053, 3718.519
386.5874, 3867.480
387.0695, 4023.759
387.5516, 4193.267
388.0337, 4372.897
388.5158, 4555.836
388.9980, 4741.355
389.4801, 4929.962
389.9622, 5121.399
390.4443, 5314.077
390.9264, 5506.323
391.4085, 5702.664
391.8907, 5892.868
392.3728, 6070.289
392.8549, 6232.764
393.3370, 6378.831
393.8191, 6510.806
394.3012, 6623.945
394.7834, 6710.258
395.2655, 6774.676
395.7476, 6805.249
396.2297, 6797.807
396.7118, 6751.938
397.1939, 6668.972
397.6761, 6544.552
398.1582, 6385.520
398.6403, 6197.609
399.1224, 5967.848
399.6045, 5724.432
400.0866, 5467.798
400.5688, 5197.859
401.0509, 4921.476
401.5330, 4626.123
402.0151, 4337.144
402.4972, 4066.216
402.9793, 3815.025
403.4615, 3576.760
403.9436, 3353.777
404.4257, 3143.414
404.9078, 2945.691
405.3899, 2759.089
405.8720, 2586.376
406.3542, 2428.553
406.8363, 2284.901
407.3184, 2156.174
407.8005, 2042.784
408.2826, 1939.381
408.7647, 1840.343
409.2469, 1746.369
409.7290, 1661.697
410.2111, 1588.050
410.6932, 1521.922
411.1753, 1455.902
411.6574, 1390.942
412.1396, 1330.374
412.6217, 1278.068
413.1038, 1232.107
413.5859, 1188.174
414.0680, 1145.581
414.5501, 1106.147
415.0323, 1071.397
415.5144, 1040.760
415.9965, 1012.274
416.4786, 985.9156
416.9607, 961.2249
417.4428, 937.8228
417.9250, 915.8190
418.4071, 894.3674
418.8892, 872.6443
419.3713, 851.6649
419.8534, 832.6379
420.3355, 815.9569
420.8177, 800.6614
421.2998, 786.5086
421.7819, 773.3678
422.2640, 760.5729
422.7461, 747.4130
423.2282, 735.2892
423.7104, 724.7199
424.1925, 716.0854
424.6746, 707.9019
425.1567, 700.7965
425.6388, 693.7330
426.1209, 685.5443
426.6031, 674.4506
427.0852, 665.2151
427.5673, 658.7360
428.0494, 654.6058
428.5315, 651.1175
429.0136, 648.6660
429.4958, 646.0692
429.9779, 642.6922
430.4600, 638.4474
430.9421, 634.0399
431.4242, 629.6534
431.9063, 624.8054
432.3885, 617.9094
432.8706, 608.9778
433.3527, 602.3265
433.8348, 600.5329
434.3169, 601.8524
434.7990, 601.0085
435.2812, 598.0119
435.7633, 594.3414
436.2454, 590.9778
436.7275, 587.9409
437.2096, 585.2487
437.6917, 583.0182
438.1739, 580.8674
438.6560, 578.4495
439.1381, 575.7917
439.6202, 572.9637
440.1023, 569.1564
440.5844, 565.7600
441.0666, 564.3705
441.5487, 565.1873
442.0308, 565.4432
442.5129, 563.3730
442.9950, 560.2416
443.4771, 557.2560
443.9593, 555.3278
444.4414, 552.9446
444.9235, 548.2822
445.4056, 542.5493
445.8877, 539.8753
446.3698, 545.1241
446.8520, 549.8622
447.3341, 550.0156
447.8162, 542.7476
448.2983, 539.6774
448.7804, 544.2128
449.2625, 550.5705
449.7447, 551.6578
450.2268, 544.6349
450.7089, 538.9745
451.1910, 536.9036
451.6731, 537.6611
452.1552, 537.1395
452.6374, 534.9341
453.1195, 533.0016
453.6016, 532.8557
454.0837, 534.4382
454.5658, 535.7069
455.0479, 536.6158
455.5301, 536.9478
456.0122, 535.7099
456.4943, 533.2768
456.9764, 532.0338
457.4585, 533.9000
457.9406, 536.8698
458.4228, 536.4371
458.9049, 533.1066
459.3870, 531.8530
459.8691, 538.4454
460.3512, 548.3793
460.8333, 556.3385
461.3155, 561.6416
461.7976, 564.0819
462.2797, 561.0288
462.7618, 555.3468
463.2439, 552.0929
463.7260, 554.9115
464.2082, 558.9882
464.6903, 562.5731
465.1724, 565.5736
465.6545, 567.8453
466.1366, 569.3519
466.6187, 570.1026
467.1009, 570.0869
467.5830, 567.9762
468.0651, 566.8842
468.5472, 566.8124
469.0293, 567.7677
469.5114, 569.8571
469.9936, 573.3328
470.4757, 577.4485
470.9578, 582.0245
471.4399, 587.0581
471.9220, 592.2507
472.4041, 597.2311
472.8863, 603.2485
473.3684, 612.1366
473.8505, 623.7862
474.3326, 633.9569
474.8147, 642.0809
475.2968, 648.3351
475.7790, 651.5051
476.2611, 652.2990
476.7432, 655.2701
477.2253, 664.1600
477.7074, 676.1624
478.1895, 686.4508
478.6717, 694.9598
479.1538, 704.6463
479.6359, 719.1776
480.1180, 735.7022
480.6001, 750.7229
481.0822, 763.2585
481.5644, 774.4875
482.0465, 783.1869
482.5286, 791.0639
483.0107, 801.8114
483.4928, 820.8521
483.9749, 839.2855
484.4571, 852.5005
484.9392, 859.3522
485.4213, 868.7301
485.9034, 883.6931
486.3855, 899.9115
486.8676, 914.4906
487.3498, 925.4697
487.8319, 938.6100
488.3140, 955.5565
488.7961, 974.1996
489.2782, 989.0404
489.7603, 998.8182
490.2425, 1008.504
490.7246, 1019.593
491.2067, 1032.119
491.6888, 1046.659
492.1709, 1063.517
492.6530, 1080.266
493.1352, 1094.232
493.6173, 1106.105
494.0994, 1118.506
494.5815, 1131.891
495.0636, 1145.836
495.5457, 1159.620
496.0279, 1173.349
496.5100, 1187.248
496.9921, 1201.655
497.4742, 1216.310
497.9563, 1231.241
498.4384, 1246.524
498.9206, 1261.121
499.4027, 1274.007
499.8848, 1286.355
500.3669, 1299.460
500.8490, 1313.692
501.3311, 1328.240
501.8133, 1343.295
502.2954, 1358.573
502.7775, 1373.589
503.2596, 1388.208
503.7417, 1402.962
504.2238, 1418.102
504.7060, 1433.601
505.1881, 1447.826
505.6702, 1459.990
506.1523, 1472.005
506.6344, 1485.229
507.1165, 1499.781
507.5987, 1514.434
508.0808, 1529.029
508.5629, 1543.375
509.0450, 1556.656
509.5271, 1569.012
510.0092, 1582.343
510.4914, 1598.754
510.9735, 1615.843
511.4556, 1628.060
511.9377, 1635.848
512.4199, 1643.779
512.9020, 1653.456
513.3841, 1665.713
513.8662, 1683.536
514.3483, 1709.267
514.8304, 1730.768
515.3126, 1736.176
515.7947, 1734.263
516.2768, 1736.297
516.7589, 1750.188
517.2410, 1763.744
517.7231, 1771.819
518.2053, 1775.872
518.6874, 1783.342
519.1695, 1797.976
519.6516, 1813.461
520.1337, 1827.212
520.6158, 1838.427
521.0980, 1852.047
521.5801, 1869.190
522.0622, 1887.365
522.5443, 1903.942
523.0264, 1918.381
523.5085, 1934.245
523.9907, 1951.139
524.4728, 1970.705
524.9549, 1996.323
525.4370, 2028.153
525.9191, 2066.150
526.4012, 2113.741
526.8834, 2167.218
527.3655, 2216.817
527.8476, 2262.418
528.3297, 2310.821
528.8118, 2365.968
529.2939, 2426.858
529.7761, 2492.757
530.2582, 2564.079
530.7403, 2637.524
531.2224, 2708.595
531.7045, 2780.435
532.1866, 2857.885
532.6688, 2945.355
533.1509, 3036.169
533.6330, 3130.221
534.1151, 3226.506
534.5972, 3323.235
535.0793, 3420.468
535.5615, 3516.996
536.0436, 3611.990
536.5257, 3706.472
537.0078, 3799.779
537.4899, 3893.722
537.9720, 3983.556
538.4542, 4062.464
538.9363, 4131.157
539.4184, 4189.844
539.9005, 4239.405
540.3826, 4277.497
540.8647, 4300.116
541.3469, 4306.558
541.8290, 4291.075
542.3111, 4246.609
542.7932, 4179.333
543.2753, 4097.113
543.7574, 4000.516
544.2396, 3892.833
544.7217, 3776.798
545.2038, 3651.538
545.6859, 3515.236
546.1680, 3362.744
546.6501, 3208.393
547.1323, 3054.247
547.6144, 2903.403
548.0965, 2758.399
548.5786, 2620.663
549.0607, 2487.893
549.5428, 2359.143
550.0250, 2234.688
550.5071, 2117.066
550.9892, 2005.150
551.4713, 1901.838
551.9534, 1808.385
552.4355, 1725.258
552.9177, 1647.687
553.3998, 1576.094
553.8819, 1508.577
554.3640, 1442.537
554.8461, 1378.402
555.3282, 1318.268
555.8104, 1262.980
556.2925, 1212.551
556.7746, 1168.351
557.2567, 1129.505
557.7388, 1093.140
558.2209, 1057.981
558.7031, 1024.858
559.1852, 995.4087
559.6673, 969.4196
560.1494, 944.3748
560.6315, 919.3779
561.1136, 895.1915
561.5958, 872.2208
562.0779, 849.3860
562.5600, 829.9136
563.0421, 815.2496
563.5242, 803.1986
564.0063, 791.1819
564.4885, 779.2623
564.9706, 767.5929
565.4527, 756.6285
565.9348, 745.7872
566.4169, 731.8361
566.8990, 714.2997
567.3812, 698.2362
567.8633, 686.6234
568.3454, 678.6208
568.8275, 671.1444
569.3096, 664.2532
569.7917, 657.0380
570.2739, 648.0677
570.7560, 638.5557
571.2381, 630.5335
571.7202, 624.7504
572.2023, 619.3021
572.6844, 612.1827
573.1666, 604.7767
573.6487, 599.0248
574.1308, 596.6091
574.6129, 594.8871
575.0950, 594.2264
575.5771, 594.0635
576.0593, 590.8733
576.5414, 581.4242
577.0235, 572.9806
577.5056, 568.6420
577.9877, 568.9943
578.4698, 567.5762
578.9520, 563.5758
579.4341, 559.7990
579.9162, 559.6443
580.3983, 562.7585
580.8804, 563.3969
581.3625, 560.2010
581.8447, 556.0321
582.3268, 554.6583
582.8089, 555.5334
583.2910, 557.1198
583.7731, 560.1305
584.2552, 562.3750
584.7373, 560.3431
585.2194, 555.4557
