##NAMES=Tantalite-(Fe)
##RRUFFID=R070548
##IDEAL CHEMISTRY=Fe^2+^Ta^5+^_2_O_6_
##LOCALITY=Grizzly Bear Gulch, Black Hills, Custer County, South Dakota, USA
##OWNER=RRUFF
##SOURCE=James Shigley
##DESCRIPTION=Submetallic dark grey fragments with parallel cleavage planes
##STATUS=The identification of this mineral has been made only by X-ray diffraction.
##URL=rruff.info/R070548
153.0481, 1268.605
153.5302, 1280.293
154.0123, 1297.733
154.4944, 1314.826
154.9765, 1325.805
155.4586, 1319.150
155.9408, 1316.399
156.4229, 1324.339
156.9050, 1340.460
157.3871, 1349.898
157.8692, 1355.106
158.3513, 1358.557
158.8335, 1362.666
159.3156, 1369.465
159.7977, 1376.020
160.2798, 1381.116
160.7619, 1384.414
161.2440, 1387.015
161.7262, 1390.093
162.2083, 1392.826
162.6904, 1393.379
163.1725, 1389.307
163.6546, 1383.989
164.1367, 1379.424
164.6189, 1375.438
165.1010, 1372.917
165.5831, 1371.559
166.0652, 1371.672
166.5473, 1374.668
167.0294, 1382.443
167.5116, 1392.718
167.9937, 1403.540
168.4758, 1416.631
168.9579, 1427.865
169.4400, 1434.306
169.9221, 1436.205
170.4043, 1435.863
170.8864, 1429.361
171.3685, 1422.670
171.8506, 1423.725
172.3327, 1444.490
172.8148, 1468.731
173.2970, 1481.793
173.7791, 1483.439
174.2612, 1480.795
174.7433, 1475.299
175.2254, 1469.702
175.7076, 1469.319
176.1897, 1481.853
176.6718, 1498.748
177.1539, 1510.705
177.6360, 1517.635
178.1181, 1517.733
178.6003, 1504.885
179.0824, 1482.551
179.5645, 1462.621
180.0466, 1449.273
180.5287, 1442.343
181.0108, 1444.919
181.4930, 1460.655
181.9751, 1474.979
182.4572, 1463.410
182.9393, 1430.182
183.4214, 1400.759
183.9035, 1396.020
184.3857, 1407.386
184.8678, 1411.106
185.3499, 1401.560
185.8320, 1387.017
186.3141, 1380.751
186.7962, 1382.459
187.2784, 1387.903
187.7605, 1395.555
188.2426, 1404.760
188.7247, 1412.760
189.2068, 1418.677
189.6889, 1423.286
190.1711, 1429.021
190.6532, 1435.985
191.1353, 1441.497
191.6174, 1441.134
192.0995, 1435.792
192.5816, 1434.440
193.0638, 1441.052
193.5459, 1452.636
194.0280, 1458.687
194.5101, 1458.673
194.9922, 1456.670
195.4743, 1456.233
195.9565, 1457.365
196.4386, 1459.657
196.9207, 1462.136
197.4028, 1465.480
197.8849, 1474.646
198.3671, 1490.733
198.8492, 1509.593
199.3313, 1527.876
199.8134, 1546.070
200.2955, 1559.154
200.7776, 1562.972
201.2598, 1558.140
201.7419, 1560.771
202.2240, 1572.777
202.7061, 1588.435
203.1882, 1599.757
203.6703, 1606.278
204.1525, 1610.843
204.6346, 1614.446
205.1167, 1617.093
205.5988, 1618.495
206.0809, 1618.877
206.5630, 1617.695
207.0452, 1613.168
207.5273, 1604.011
208.0094, 1595.987
208.4915, 1592.890
208.9736, 1596.521
209.4557, 1593.802
209.9379, 1582.043
210.4200, 1566.237
210.9021, 1558.562
211.3842, 1563.127
211.8663, 1564.911
212.3484, 1554.469
212.8306, 1527.333
213.3127, 1508.087
213.7948, 1499.519
214.2769, 1498.251
214.7590, 1494.622
215.2411, 1486.806
215.7233, 1480.586
216.2054, 1480.498
216.6875, 1489.926
217.1696, 1493.422
217.6517, 1487.843
218.1338, 1476.058
218.6160, 1468.870
219.0981, 1467.927
219.5802, 1468.483
220.0623, 1467.915
220.5444, 1466.283
221.0265, 1462.808
221.5087, 1454.886
221.9908, 1444.797
222.4729, 1445.920
222.9550, 1466.593
223.4371, 1485.991
223.9192, 1488.143
224.4014, 1462.430
224.8835, 1446.242
225.3656, 1446.901
225.8477, 1461.666
226.3298, 1470.269
226.8119, 1471.219
227.2941, 1468.079
227.7762, 1461.836
228.2583, 1447.201
228.7404, 1442.010
229.2225, 1453.250
229.7046, 1478.532
230.1868, 1490.004
230.6689, 1477.659
231.1510, 1463.219
231.6331, 1465.412
232.1152, 1496.520
232.5974, 1519.097
233.0795, 1525.063
233.5616, 1515.253
234.0437, 1512.992
234.5258, 1522.347
235.0079, 1534.955
235.4901, 1543.105
235.9722, 1542.544
236.4543, 1546.174
236.9364, 1557.575
237.4185, 1576.798
237.9006, 1593.601
238.3828, 1610.762
238.8649, 1622.661
239.3470, 1621.844
239.8291, 1594.808
240.3112, 1580.300
240.7933, 1589.288
241.2755, 1622.643
241.7576, 1647.808
242.2397, 1662.083
242.7218, 1670.724
243.2039, 1679.070
243.6860, 1689.131
244.1682, 1695.014
244.6503, 1695.151
245.1324, 1689.423
245.6145, 1680.789
246.0966, 1665.517
246.5787, 1651.020
247.0609, 1646.420
247.5430, 1659.946
248.0251, 1667.356
248.5072, 1660.866
248.9893, 1639.319
249.4714, 1626.649
249.9536, 1627.155
250.4357, 1632.312
250.9178, 1632.806
251.3999, 1626.492
251.8820, 1619.729
252.3641, 1613.068
252.8463, 1606.337
253.3284, 1603.734
253.8105, 1606.715
254.2926, 1612.345
254.7747, 1618.162
255.2568, 1626.584
255.7390, 1629.933
256.2211, 1624.296
256.7032, 1608.806
257.1853, 1600.836
257.6674, 1603.866
258.1495, 1610.611
258.6317, 1611.848
259.1138, 1602.870
259.5959, 1599.531
260.0780, 1607.458
260.5601, 1627.472
261.0422, 1642.178
261.5244, 1649.863
262.0065, 1654.380
262.4886, 1660.404
262.9707, 1669.834
263.4528, 1675.581
263.9349, 1673.686
264.4171, 1663.629
264.8992, 1665.179
265.3813, 1686.102
265.8634, 1707.426
266.3455, 1704.080
266.8276, 1664.549
267.3098, 1636.820
267.7919, 1635.954
268.2740, 1661.563
268.7561, 1678.448
269.2382, 1685.083
269.7203, 1685.070
270.2025, 1680.809
270.6846, 1670.765
271.1667, 1662.501
271.6488, 1657.618
272.1309, 1656.087
272.6130, 1658.465
273.0952, 1667.714
273.5773, 1674.640
274.0594, 1667.109
274.5415, 1641.990
275.0236, 1620.686
275.5057, 1608.635
275.9879, 1605.168
276.4700, 1605.079
276.9521, 1609.156
277.4342, 1614.519
277.9163, 1619.199
278.3984, 1623.513
278.8806, 1624.172
279.3627, 1619.529
279.8448, 1610.557
280.3269, 1602.008
280.8090, 1593.611
281.2911, 1586.638
281.7733, 1581.728
282.2554, 1578.809
282.7375, 1579.843
283.2196, 1587.761
283.7017, 1599.315
284.1838, 1600.325
284.6660, 1589.266
285.1481, 1576.077
285.6302, 1570.361
286.1123, 1571.663
286.5944, 1570.842
287.0765, 1566.215
287.5587, 1557.997
288.0408, 1543.421
288.5229, 1521.406
289.0050, 1504.663
289.4871, 1509.039
289.9692, 1530.801
290.4514, 1544.924
290.9335, 1544.437
291.4156, 1535.143
291.8977, 1530.032
292.3798, 1529.040
292.8619, 1527.326
293.3441, 1519.267
293.8262, 1506.827
294.3083, 1497.982
294.7904, 1494.507
295.2726, 1494.649
295.7547, 1496.827
296.2368, 1500.762
296.7189, 1503.488
297.2010, 1501.214
297.6831, 1496.130
298.1653, 1493.917
298.6474, 1496.403
299.1295, 1500.368
299.6116, 1501.637
300.0937, 1500.521
300.5758, 1498.726
301.0580, 1496.871
301.5401, 1495.182
302.0222, 1493.928
302.5043, 1493.037
302.9864, 1492.944
303.4685, 1494.003
303.9507, 1496.242
304.4328, 1499.728
304.9149, 1505.178
305.3970, 1511.618
305.8791, 1518.837
306.3612, 1527.688
306.8434, 1533.715
307.3255, 1526.562
307.8076, 1513.049
308.2897, 1508.834
308.7718, 1533.476
309.2539, 1564.973
309.7361, 1581.284
310.2182, 1578.078
310.7003, 1572.480
311.1824, 1575.174
311.6645, 1583.581
312.1466, 1593.239
312.6288, 1606.196
313.1109, 1616.998
313.5930, 1620.467
314.0751, 1615.581
314.5572, 1611.783
315.0393, 1615.359
315.5215, 1622.608
316.0036, 1628.787
316.4857, 1636.049
316.9678, 1638.735
317.4499, 1631.714
317.9320, 1614.524
318.4142, 1599.499
318.8963, 1591.012
319.3784, 1587.018
319.8605, 1585.477
320.3426, 1593.128
320.8247, 1596.164
321.3069, 1584.957
321.7890, 1560.672
322.2711, 1545.988
322.7532, 1557.140
323.2353, 1573.767
323.7174, 1581.157
324.1996, 1566.602
324.6817, 1553.678
325.1638, 1546.450
325.6459, 1544.433
326.1280, 1544.300
326.6101, 1550.698
327.0923, 1555.502
327.5744, 1554.292
328.0565, 1539.203
328.5386, 1527.515
329.0207, 1521.422
329.5028, 1519.451
329.9850, 1515.914
330.4671, 1507.954
330.9492, 1501.298
331.4313, 1498.538
331.9134, 1502.538
332.3955, 1505.114
332.8777, 1505.123
333.3598, 1503.997
333.8419, 1505.119
334.3240, 1510.051
334.8061, 1514.724
335.2882, 1517.611
335.7704, 1518.261
336.2525, 1518.764
336.7346, 1519.475
337.2167, 1519.643
337.6988, 1517.529
338.1809, 1511.755
338.6631, 1507.645
339.1452, 1507.391
339.6273, 1511.128
340.1094, 1514.607
340.5915, 1518.578
341.0736, 1520.874
341.5558, 1517.252
342.0379, 1506.676
342.5200, 1499.322
343.0021, 1497.616
343.4842, 1501.352
343.9663, 1511.822
344.4485, 1530.554
344.9306, 1547.627
345.4127, 1551.568
345.8948, 1543.696
346.3769, 1536.406
346.8590, 1532.753
347.3412, 1531.150
347.8233, 1527.571
348.3054, 1522.094
348.7875, 1517.531
349.2696, 1515.046
349.7517, 1515.103
350.2339, 1519.666
350.7160, 1530.221
351.1981, 1542.888
351.6802, 1552.734
352.1623, 1560.063
352.6444, 1566.842
353.1266, 1574.778
353.6087, 1582.645
354.0908, 1588.388
354.5729, 1591.597
355.0550, 1593.206
355.5371, 1592.646
356.0193, 1591.086
356.5014, 1591.180
356.9835, 1598.789
357.4656, 1605.887
357.9477, 1603.629
358.4298, 1590.679
358.9120, 1579.248
359.3941, 1579.701
359.8762, 1585.296
360.3583, 1587.454
360.8404, 1575.695
361.3225, 1565.973
361.8047, 1569.458
362.2868, 1585.546
362.7689, 1596.793
363.2510, 1590.392
363.7331, 1579.507
364.2152, 1574.730
364.6974, 1587.777
365.1795, 1597.310
365.6616, 1595.939
366.1437, 1586.069
366.6258, 1579.513
367.1079, 1580.277
367.5901, 1583.334
368.0722, 1586.369
368.5543, 1590.846
369.0364, 1592.958
369.5185, 1590.209
370.0006, 1585.228
370.4828, 1584.088
370.9649, 1592.195
371.4470, 1598.058
371.9291, 1596.493
372.4112, 1582.872
372.8933, 1578.250
373.3755, 1587.176
373.8576, 1601.535
374.3397, 1609.955
374.8218, 1609.369
375.3039, 1609.835
375.7861, 1614.866
376.2682, 1624.199
376.7503, 1628.735
377.2324, 1626.740
377.7145, 1623.552
378.1967, 1623.994
378.6788, 1628.252
379.1609, 1634.405
379.6430, 1642.329
380.1251, 1651.821
380.6072, 1663.032
381.0894, 1676.166
381.5715, 1689.065
382.0536, 1700.898
382.5357, 1711.547
383.0178, 1718.871
383.4999, 1721.822
383.9821, 1723.395
384.4642, 1726.839
384.9463, 1732.497
385.4284, 1742.056
385.9105, 1761.605
386.3926, 1784.459
386.8748, 1796.180
387.3569, 1794.488
387.8390, 1793.417
388.3211, 1810.452
388.8032, 1837.725
389.2853, 1858.855
389.7675, 1860.220
390.2496, 1857.498
390.7317, 1865.398
391.2138, 1883.413
391.6959, 1899.961
392.1780, 1908.844
392.6602, 1912.868
393.1423, 1914.549
393.6244, 1909.439
394.1065, 1908.510
394.5886, 1920.321
395.0707, 1941.005
395.5529, 1956.784
396.0350, 1956.639
396.5171, 1955.199
396.9992, 1962.064
397.4813, 1989.092
397.9634, 2002.390
398.4456, 1989.923
398.9277, 1962.002
399.4098, 1936.632
399.8919, 1913.663
400.3740, 1894.802
400.8561, 1882.418
401.3383, 1878.695
401.8204, 1868.177
402.3025, 1845.297
402.7846, 1820.325
403.2667, 1804.026
403.7488, 1802.707
404.2310, 1795.891
404.7131, 1777.396
405.1952, 1750.427
405.6773, 1733.656
406.1594, 1730.240
406.6415, 1728.734
407.1237, 1720.132
407.6058, 1703.590
408.0879, 1693.418
408.5700, 1693.409
409.0521, 1696.179
409.5342, 1684.496
410.0164, 1658.541
410.4985, 1636.042
410.9806, 1627.603
411.4627, 1630.017
411.9448, 1631.671
412.4269, 1632.207
412.9091, 1633.034
413.3912, 1637.177
413.8733, 1642.969
414.3554, 1645.841
414.8375, 1643.570
415.3196, 1638.008
415.8018, 1629.928
416.2839, 1619.833
416.7660, 1610.845
417.2481, 1606.237
417.7302, 1603.551
418.2123, 1599.586
418.6945, 1591.182
419.1766, 1586.326
419.6587, 1594.027
420.1408, 1608.850
420.6229, 1618.455
421.1050, 1611.080
421.5872, 1602.993
422.0693, 1604.269
422.5514, 1619.349
423.0335, 1627.491
423.5156, 1619.483
423.9977, 1604.350
424.4799, 1591.553
424.9620, 1580.821
425.4441, 1574.326
425.9262, 1574.633
426.4083, 1581.102
426.8904, 1582.731
427.3726, 1574.238
427.8547, 1566.502
428.3368, 1567.159
428.8189, 1583.221
429.3010, 1589.419
429.7831, 1579.568
430.2653, 1563.013
430.7474, 1562.035
431.2295, 1581.100
431.7116, 1599.148
432.1937, 1607.145
432.6758, 1605.509
433.1580, 1602.663
433.6401, 1597.980
434.1222, 1594.525
434.6043, 1597.536
435.0864, 1605.910
435.5685, 1611.694
436.0507, 1612.830
436.5328, 1609.725
437.0149, 1599.824
437.4970, 1584.318
437.9791, 1573.098
438.4612, 1576.416
438.9434, 1587.696
439.4255, 1596.856
439.9076, 1601.795
440.3897, 1606.124
440.8718, 1615.494
441.3539, 1626.258
441.8361, 1631.305
442.3182, 1621.218
442.8003, 1609.588
443.2824, 1603.938
443.7645, 1604.784
444.2466, 1609.451
444.7288, 1624.596
445.2109, 1639.189
445.6930, 1643.888
446.1751, 1625.862
446.6572, 1610.573
447.1393, 1601.339
447.6215, 1597.754
448.1036, 1598.249
448.5857, 1607.478
449.0678, 1615.779
449.5499, 1619.168
450.0320, 1615.665
450.5142, 1613.707
450.9963, 1613.818
451.4784, 1615.046
451.9605, 1615.526
452.4426, 1614.162
452.9247, 1616.627
453.4069, 1626.951
453.8890, 1642.388
454.3711, 1645.695
454.8532, 1635.231
455.3353, 1622.748
455.8174, 1616.950
456.2996, 1617.209
456.7817, 1620.809
457.2638, 1628.397
457.7459, 1636.351
458.2281, 1638.293
458.7102, 1635.752
459.1923, 1634.956
459.6744, 1644.693
460.1565, 1655.364
460.6386, 1651.010
461.1208, 1631.156
461.6029, 1614.404
462.0850, 1617.118
462.5671, 1628.871
463.0492, 1637.656
463.5313, 1638.677
464.0135, 1637.793
464.4956, 1636.498
464.9777, 1635.245
465.4598, 1635.442
465.9419, 1638.817
466.4240, 1642.627
466.9062, 1645.406
467.3883, 1646.279
467.8704, 1648.167
468.3525, 1652.838
468.8346, 1657.681
469.3167, 1659.661
469.7989, 1655.264
470.2810, 1654.070
470.7631, 1660.016
471.2452, 1671.257
471.7273, 1673.082
472.2094, 1661.630
472.6916, 1650.267
473.1737, 1647.873
473.6558, 1654.887
474.1379, 1663.185
474.6200, 1673.990
475.1021, 1682.424
475.5843, 1675.784
476.0664, 1656.406
476.5485, 1646.439
477.0306, 1660.387
477.5127, 1687.265
477.9948, 1706.491
478.4770, 1718.313
478.9591, 1727.221
479.4412, 1738.402
479.9233, 1748.198
480.4054, 1749.900
480.8875, 1737.594
481.3697, 1726.973
481.8518, 1731.937
482.3339, 1745.850
482.8160, 1755.300
483.2981, 1751.462
483.7802, 1744.992
484.2624, 1740.718
484.7445, 1739.038
485.2266, 1737.551
485.7087, 1736.610
486.1908, 1735.242
486.6729, 1732.597
487.1551, 1724.655
487.6372, 1721.385
488.1193, 1726.013
488.6014, 1735.206
489.0835, 1740.241
489.5656, 1740.620
490.0478, 1737.968
490.5299, 1732.315
491.0120, 1723.540
491.4941, 1714.849
491.9762, 1705.749
492.4583, 1698.130
492.9405, 1692.376
493.4226, 1688.936
493.9047, 1694.171
494.3868, 1713.587
494.8689, 1736.567
495.3510, 1745.499
495.8332, 1741.659
496.3153, 1732.746
496.7974, 1717.399
497.2795, 1702.272
497.7616, 1697.020
498.2437, 1702.950
498.7259, 1710.900
499.2080, 1717.761
499.6901, 1722.218
500.1722, 1722.779
500.6543, 1716.857
501.1364, 1709.248
501.6186, 1698.218
502.1007, 1685.935
502.5828, 1680.775
503.0649, 1693.123
503.5470, 1705.204
504.0291, 1709.295
504.5113, 1702.823
504.9934, 1696.823
505.4755, 1688.023
505.9576, 1682.633
506.4397, 1689.881
506.9218, 1716.696
507.4040, 1733.516
507.8861, 1731.863
508.3682, 1717.923
508.8503, 1712.816
509.3324, 1717.222
509.8145, 1723.536
510.2967, 1727.527
510.7788, 1729.621
511.2609, 1731.546
511.7430, 1733.338
512.2252, 1735.102
512.7073, 1733.636
513.1894, 1732.364
513.6715, 1739.418
514.1536, 1765.871
514.6357, 1792.296
515.1179, 1798.063
515.6000, 1788.811
516.0821, 1784.827
516.5642, 1800.547
517.0463, 1820.709
517.5284, 1836.011
518.0106, 1844.143
518.4927, 1853.049
518.9748, 1867.895
519.4569, 1882.681
519.9390, 1890.872
520.4211, 1885.590
520.9033, 1883.366
521.3854, 1884.843
521.8675, 1890.618
522.3496, 1904.477
522.8317, 1931.180
523.3138, 1954.682
523.7960, 1964.419
524.2781, 1960.035
524.7602, 1968.152
525.2423, 1991.549
525.7244, 2016.427
526.2065, 2026.105
526.6887, 2023.182
527.1708, 2020.975
527.6529, 2022.439
528.1350, 2026.645
528.6171, 2032.567
529.0992, 2040.250
529.5814, 2049.686
530.0635, 2067.257
530.5456, 2082.430
531.0277, 2084.159
531.5098, 2070.918
531.9919, 2057.260
532.4741, 2046.053
532.9562, 2039.152
533.4383, 2038.011
533.9204, 2058.602
534.4025, 2066.457
534.8846, 2048.395
535.3668, 2014.455
535.8489, 1990.197
536.3310, 1981.918
536.8131, 1973.329
537.2952, 1957.768
537.7773, 1935.089
538.2595, 1923.755
538.7416, 1928.387
539.2237, 1932.302
539.7058, 1918.812
540.1879, 1888.733
540.6700, 1863.667
541.1522, 1846.692
541.6343, 1834.766
542.1164, 1823.356
542.5985, 1813.161
543.0806, 1807.027
543.5627, 1810.594
544.0449, 1816.187
544.5270, 1815.234
545.0091, 1808.168
545.4912, 1798.820
545.9733, 1788.636
546.4554, 1777.542
546.9376, 1765.155
547.4197, 1750.744
547.9018, 1737.197
548.3839, 1723.915
548.8660, 1712.491
549.3481, 1705.123
549.8303, 1702.368
550.3124, 1703.416
550.7945, 1710.793
551.2766, 1722.541
551.7587, 1727.103
552.2408, 1721.902
552.7230, 1715.717
553.2051, 1712.829
553.6872, 1713.294
554.1693, 1715.197
554.6514, 1718.865
555.1335, 1722.552
555.6157, 1726.288
556.0978, 1728.798
556.5799, 1724.157
557.0620, 1707.617
557.5441, 1688.507
558.0262, 1676.224
558.5084, 1670.469
558.9905, 1670.103
559.4726, 1682.702
559.9547, 1694.216
560.4368, 1691.647
560.9189, 1673.947
561.4011, 1662.451
561.8832, 1672.304
562.3653, 1685.766
562.8474, 1690.338
563.3295, 1674.703
563.8116, 1663.863
564.2938, 1660.397
564.7759, 1660.540
565.2580, 1657.258
565.7401, 1647.732
566.2222, 1642.763
566.7043, 1647.673
567.1865, 1659.250
567.6686, 1658.733
568.1507, 1644.786
568.6328, 1633.271
569.1149, 1638.976
569.5970, 1655.803
570.0792, 1664.801
570.5613, 1664.097
571.0434, 1658.685
571.5255, 1647.213
572.0076, 1635.488
572.4897, 1633.104
572.9719, 1651.244
573.4540, 1669.660
573.9361, 1676.932
574.4182, 1675.749
574.9003, 1673.360
575.3824, 1669.678
575.8646, 1667.122
576.3467, 1667.568
576.8288, 1671.621
577.3109, 1672.607
577.7930, 1669.055
578.2751, 1664.163
578.7573, 1659.954
579.2394, 1656.446
579.7215, 1653.501
580.2036, 1650.768
580.6857, 1649.208
581.1678, 1650.601
581.6500, 1654.796
582.1321, 1660.126
582.6142, 1666.814
583.0963, 1673.608
583.5784, 1678.651
584.0605, 1682.025
584.5427, 1684.167
585.0248, 1685.902
585.5069, 1686.151
585.9890, 1682.700
586.4711, 1674.708
586.9532, 1669.229
587.4354, 1671.806
587.9175, 1676.745
588.3996, 1679.135
588.8817, 1671.741
589.3638, 1670.205
589.8459, 1680.297
590.3281, 1695.044
590.8102, 1699.859
591.2923, 1689.208
591.7744, 1682.617
592.2565, 1688.122
592.7386, 1702.495
593.2208, 1705.555
593.7029, 1696.189
594.1850, 1686.695
594.6671, 1687.131
595.1492, 1694.288
595.6313, 1699.462
596.1135, 1701.872
596.5956, 1703.260
597.0777, 1705.614
597.5598, 1707.925
598.0419, 1708.513
598.5240, 1704.881
599.0062, 1702.286
599.4883, 1702.984
599.9704, 1706.472
600.4525, 1711.617
600.9346, 1722.398
601.4167, 1730.274
601.8989, 1730.511
602.3810, 1723.348
602.8631, 1724.185
603.3452, 1737.818
603.8273, 1751.083
604.3094, 1755.599
604.7916, 1750.706
605.2737, 1744.151
605.7558, 1735.183
606.2379, 1727.769
606.7200, 1727.322
607.2021, 1732.513
607.6843, 1738.729
608.1664, 1746.513
608.6485, 1751.887
609.1306, 1747.845
609.6127, 1737.897
610.0948, 1730.741
610.5770, 1732.700
611.0591, 1736.651
611.5412, 1739.856
612.0233, 1742.071
612.5054, 1741.526
612.9875, 1739.100
613.4697, 1732.575
613.9518, 1719.349
614.4339, 1693.607
614.9160, 1679.919
615.3981, 1681.735
615.8802, 1690.913
616.3624, 1700.177
616.8445, 1709.769
617.3266, 1713.717
617.8087, 1709.210
618.2908, 1701.581
618.7729, 1700.705
619.2551, 1705.220
619.7372, 1709.154
620.2193, 1709.407
620.7014, 1707.788
621.1835, 1705.018
621.6656, 1701.561
622.1478, 1700.196
622.6299, 1706.467
623.1120, 1712.165
623.5941, 1711.501
624.0762, 1701.707
624.5583, 1693.052
625.0405, 1685.262
625.5226, 1679.932
626.0047, 1678.664
626.4868, 1682.877
626.9689, 1687.372
627.4510, 1692.234
627.9332, 1696.425
628.4153, 1696.753
628.8974, 1693.277
629.3795, 1692.450
629.8616, 1698.131
630.3438, 1706.545
630.8259, 1710.246
631.3080, 1710.062
631.7901, 1710.544
632.2722, 1718.218
632.7543, 1725.321
633.2365, 1724.660
633.7186, 1715.401
634.2007, 1704.168
634.6828, 1687.062
635.1649, 1672.866
635.6470, 1668.718
636.1292, 1682.921
636.6113, 1693.718
637.0934, 1699.761
637.5755, 1703.450
638.0576, 1708.587
638.5397, 1716.025
639.0219, 1720.243
639.5040, 1719.432
639.9861, 1715.470
640.4682, 1712.659
640.9503, 1710.752
641.4324, 1707.831
641.9146, 1700.766
642.3967, 1693.232
642.8788, 1689.673
643.3609, 1690.042
643.8430, 1692.849
644.3251, 1698.721
644.8073, 1705.699
645.2894, 1713.793
645.7715, 1725.857
646.2536, 1729.466
646.7357, 1710.906
647.2178, 1691.208
647.7000, 1688.853
648.1821, 1713.981
648.6642, 1729.554
649.1463, 1730.314
649.6284, 1723.167
650.1105, 1721.906
