##NAMES=Tantalite-(Mn)
##RRUFFID=R050600
##IDEAL CHEMISTRY=Mn^2+^Ta^5+^_2_O_6_
##LOCALITY=Shengus, Pakistan
##OWNER=RRUFF
##SOURCE=Wayne Thompson
##DESCRIPTION=Black tabular crystal associated with white albite and colorless quartz
##STATUS=The identification of this mineral has been made only by X-ray diffraction.
##URL=rruff.info/R050600
92.06543, 543.6437
92.54755, 537.4284
93.02966, 538.5349
93.51178, 545.9769
93.99390, 551.8533
94.47601, 555.8867
94.95813, 558.9879
95.44025, 562.4473
95.92236, 567.3015
96.40448, 573.4633
96.88660, 579.5714
97.36871, 586.3665
97.85082, 593.0673
98.33294, 599.1769
98.81506, 604.3151
99.29717, 607.7508
99.77929, 610.8852
100.2614, 613.9088
100.7435, 618.6815
101.2256, 625.3895
101.7078, 633.9496
102.1899, 644.6264
102.6720, 658.4216
103.1541, 673.1202
103.6362, 686.0205
104.1183, 697.1409
104.6005, 708.9178
105.0826, 723.4229
105.5647, 740.9244
106.0468, 759.1263
106.5289, 776.6564
107.0110, 795.0319
107.4931, 815.0635
107.9753, 837.0812
108.4574, 861.0233
108.9395, 886.9232
109.4216, 915.3890
109.9037, 945.1712
110.3858, 976.3527
110.8680, 1008.516
111.3501, 1041.041
111.8322, 1073.682
112.3143, 1106.402
112.7964, 1139.920
113.2785, 1174.763
113.7607, 1209.808
114.2428, 1245.516
114.7249, 1281.256
115.2070, 1316.177
115.6891, 1349.646
116.1712, 1381.524
116.6534, 1410.185
117.1355, 1435.856
117.6176, 1458.564
118.0997, 1477.442
118.5818, 1492.310
119.0639, 1506.197
119.5461, 1522.023
120.0282, 1539.119
120.5103, 1555.371
120.9924, 1569.488
121.4745, 1582.315
121.9566, 1595.793
122.4388, 1609.734
122.9209, 1624.975
123.4030, 1641.936
123.8851, 1660.373
124.3672, 1679.729
124.8493, 1700.183
125.3315, 1722.002
125.8136, 1741.596
126.2957, 1758.986
126.7778, 1773.506
127.2599, 1785.873
127.7420, 1795.496
128.2242, 1800.327
128.7063, 1797.699
129.1884, 1787.172
129.6705, 1768.462
130.1526, 1743.105
130.6347, 1710.586
131.1169, 1669.115
131.5990, 1618.454
132.0811, 1561.755
132.5632, 1505.973
133.0453, 1451.989
133.5274, 1397.482
134.0096, 1340.679
134.4917, 1283.648
134.9738, 1229.443
135.4559, 1179.238
135.9380, 1132.880
136.4201, 1090.534
136.9023, 1052.226
137.3844, 1016.634
137.8665, 983.7971
138.3486, 953.5314
138.8307, 924.9014
139.3128, 897.7811
139.7950, 872.3126
140.2771, 848.5917
140.7592, 826.8989
141.2413, 806.5641
141.7234, 786.6652
142.2055, 767.0508
142.6877, 749.0837
143.1698, 733.7605
143.6519, 720.5117
144.1340, 709.0652
144.6161, 699.6320
145.0982, 691.7592
145.5803, 684.0998
146.0625, 675.9191
146.5446, 669.3458
147.0267, 665.4454
147.5088, 663.2979
147.9909, 661.4153
148.4730, 658.6320
148.9552, 655.0744
149.4373, 653.3943
149.9194, 654.3666
150.4015, 656.7324
150.8836, 660.8137
151.3657, 666.1487
151.8479, 671.9318
152.3300, 677.4224
152.8121, 682.6149
153.2942, 687.8015
153.7763, 691.3930
154.2584, 696.2665
154.7406, 704.8680
155.2227, 716.8125
155.7048, 729.1174
156.1869, 738.2800
156.6690, 742.7471
157.1511, 749.7258
157.6333, 761.2856
158.1154, 774.1370
158.5975, 784.9028
159.0796, 792.8127
159.5617, 800.3596
160.0438, 811.1437
160.5260, 825.2377
161.0081, 839.3075
161.4902, 851.6012
161.9723, 863.5010
162.4544, 877.6432
162.9365, 894.8015
163.4187, 913.9098
163.9008, 933.7434
164.3829, 954.1737
164.8650, 974.9945
165.3471, 996.8493
165.8292, 1019.369
166.3113, 1039.676
166.7935, 1056.056
167.2756, 1070.912
167.7577, 1086.527
168.2398, 1102.959
168.7219, 1118.363
169.2040, 1131.158
169.6862, 1141.317
170.1683, 1148.864
170.6504, 1153.765
171.1325, 1155.893
171.6146, 1154.889
172.0967, 1150.691
172.5789, 1143.589
173.0610, 1133.894
173.5431, 1121.286
174.0252, 1106.442
174.5073, 1088.122
174.9894, 1068.753
175.4716, 1049.569
175.9537, 1031.179
176.4358, 1013.876
176.9179, 998.4112
177.4000, 986.5197
177.8821, 974.2444
178.3643, 959.7760
178.8464, 945.6240
179.3285, 934.0528
179.8106, 925.9449
180.2927, 921.2783
180.7748, 920.2612
181.2570, 923.9681
181.7391, 929.9504
182.2212, 937.8876
182.7033, 947.9866
183.1854, 960.5656
183.6675, 975.8271
184.1497, 993.5642
184.6318, 1013.392
185.1139, 1034.538
185.5960, 1058.055
186.0781, 1085.419
186.5602, 1115.590
187.0423, 1145.567
187.5245, 1173.521
188.0066, 1200.559
188.4887, 1229.347
188.9708, 1259.608
189.4529, 1291.447
189.9350, 1325.286
190.4172, 1360.888
190.8993, 1397.247
191.3814, 1434.014
191.8635, 1471.258
192.3456, 1509.156
192.8277, 1547.406
193.3099, 1586.634
193.7920, 1627.968
194.2741, 1671.737
194.7562, 1715.742
195.2383, 1758.683
195.7204, 1801.680
196.2026, 1845.652
196.6847, 1891.152
197.1668, 1937.474
197.6489, 1984.249
198.1310, 2032.523
198.6131, 2078.116
199.0953, 2119.926
199.5774, 2158.993
200.0595, 2196.165
200.5416, 2232.173
201.0237, 2265.238
201.5058, 2291.745
201.9880, 2313.590
202.4701, 2323.945
202.9522, 2323.243
203.4343, 2312.062
203.9164, 2290.308
204.3985, 2257.932
204.8807, 2216.178
205.3628, 2168.555
205.8449, 2111.802
206.3270, 2052.862
206.8091, 1991.271
207.2912, 1928.778
207.7733, 1866.363
208.2555, 1804.704
208.7376, 1744.395
209.2197, 1687.724
209.7018, 1634.286
210.1839, 1585.354
210.6660, 1541.974
211.1482, 1503.189
211.6303, 1467.792
212.1124, 1435.139
212.5945, 1405.435
213.0766, 1378.965
213.5587, 1355.202
214.0409, 1334.867
214.5230, 1318.388
215.0051, 1305.401
215.4872, 1294.921
215.9693, 1286.293
216.4514, 1280.155
216.9336, 1279.449
217.4157, 1285.326
217.8978, 1293.512
218.3799, 1302.385
218.8620, 1312.473
219.3441, 1325.027
219.8263, 1340.243
220.3084, 1358.933
220.7905, 1382.566
221.2726, 1411.690
221.7547, 1443.975
222.2368, 1478.390
222.7190, 1515.047
223.2011, 1554.450
223.6832, 1596.984
224.1653, 1642.609
224.6474, 1690.292
225.1295, 1739.894
225.6117, 1791.758
226.0938, 1846.500
226.5759, 1903.955
227.0580, 1961.869
227.5401, 2019.564
228.0222, 2077.244
228.5043, 2135.428
228.9865, 2193.710
229.4686, 2252.927
229.9507, 2312.886
230.4328, 2373.472
230.9149, 2435.721
231.3970, 2498.304
231.8792, 2563.867
232.3613, 2635.196
232.8434, 2712.661
233.3255, 2793.447
233.8076, 2874.735
234.2897, 2956.342
234.7719, 3040.521
235.2540, 3129.174
235.7361, 3220.386
236.2182, 3313.433
236.7003, 3408.360
237.1824, 3504.345
237.6646, 3602.467
238.1467, 3704.716
238.6288, 3800.913
239.1109, 3893.856
239.5930, 3977.296
240.0751, 4048.628
240.5573, 4107.081
241.0394, 4152.183
241.5215, 4184.603
242.0036, 4206.583
242.4857, 4205.994
242.9678, 4180.987
243.4500, 4134.777
243.9321, 4064.730
244.4142, 3972.314
244.8963, 3863.579
245.3784, 3742.789
245.8605, 3605.925
246.3427, 3472.412
246.8248, 3342.051
247.3069, 3215.245
247.7890, 3091.115
248.2711, 2970.155
248.7532, 2855.321
249.2354, 2748.086
249.7175, 2648.471
250.1996, 2558.521
250.6817, 2478.562
251.1638, 2406.690
251.6459, 2342.804
252.1281, 2286.437
252.6102, 2237.153
253.0923, 2194.332
253.5744, 2158.482
254.0565, 2127.692
254.5386, 2100.818
255.0208, 2078.824
255.5029, 2062.629
255.9850, 2051.814
256.4671, 2044.915
256.9492, 2040.654
257.4313, 2038.967
257.9135, 2041.323
258.3956, 2047.577
258.8777, 2056.897
259.3598, 2069.362
259.8419, 2084.690
260.3240, 2102.383
260.8062, 2122.178
261.2883, 2144.117
261.7704, 2167.228
262.2525, 2190.987
262.7346, 2216.345
263.2167, 2244.405
263.6989, 2274.510
264.1810, 2304.889
264.6631, 2334.898
265.1452, 2364.212
265.6273, 2389.974
266.1094, 2411.867
266.5916, 2431.388
267.0737, 2450.640
267.5558, 2467.956
268.0379, 2479.316
268.5200, 2482.155
269.0021, 2477.688
269.4843, 2470.832
269.9664, 2463.009
270.4485, 2451.830
270.9306, 2436.503
271.4127, 2417.293
271.8948, 2393.854
272.3770, 2364.978
272.8591, 2333.703
273.3412, 2307.909
273.8233, 2290.059
274.3054, 2271.251
274.7875, 2246.108
275.2697, 2218.485
275.7518, 2195.625
276.2339, 2180.084
276.7160, 2170.200
277.1981, 2163.644
277.6802, 2159.675
278.1623, 2159.397
278.6444, 2163.522
279.1266, 2171.459
279.6087, 2182.802
280.0908, 2197.932
280.5729, 2214.660
281.0550, 2231.211
281.5371, 2248.032
282.0193, 2260.963
282.5014, 2272.004
282.9835, 2277.555
283.4656, 2272.191
283.9477, 2254.771
284.4298, 2227.948
284.9120, 2192.860
285.3941, 2150.205
285.8762, 2102.335
286.3583, 2047.393
286.8404, 1988.509
287.3225, 1928.186
287.8047, 1866.141
288.2868, 1806.244
288.7689, 1750.638
289.2510, 1699.742
289.7331, 1653.916
290.2152, 1614.145
290.6974, 1579.330
291.1795, 1548.603
291.6616, 1521.935
292.1437, 1499.827
292.6258, 1482.689
293.1079, 1470.666
293.5901, 1463.266
294.0722, 1461.757
294.5543, 1463.448
295.0364, 1466.015
295.5185, 1469.553
296.0006, 1475.857
296.4828, 1487.505
296.9649, 1501.479
297.4470, 1512.393
297.9291, 1519.422
298.4112, 1524.927
298.8933, 1530.638
299.3755, 1536.316
299.8576, 1540.715
300.3397, 1543.668
300.8218, 1544.678
301.3039, 1543.249
301.7860, 1539.165
302.2682, 1534.456
302.7503, 1530.111
303.2324, 1526.005
303.7145, 1521.589
304.1966, 1516.529
304.6787, 1511.464
305.1609, 1506.810
305.6430, 1502.551
306.1251, 1499.194
306.6072, 1496.745
307.0893, 1495.375
307.5714, 1495.169
308.0536, 1495.719
308.5357, 1498.633
309.0178, 1505.406
309.4999, 1515.486
309.9820, 1528.465
310.4641, 1543.274
310.9463, 1561.235
311.4284, 1584.313
311.9105, 1612.625
312.3926, 1645.102
312.8747, 1681.189
313.3568, 1721.035
313.8390, 1765.122
314.3211, 1813.514
314.8032, 1866.266
315.2853, 1924.298
315.7674, 1987.546
316.2495, 2054.114
316.7317, 2125.676
317.2138, 2199.219
317.6959, 2270.344
318.1780, 2339.473
318.6601, 2404.259
319.1422, 2465.380
319.6243, 2522.015
320.1064, 2567.617
320.5886, 2603.619
321.0707, 2621.972
321.5528, 2618.370
322.0349, 2593.484
322.5170, 2546.415
322.9991, 2472.520
323.4813, 2375.993
323.9634, 2265.351
324.4455, 2139.024
324.9276, 2006.652
325.4097, 1876.487
325.8918, 1748.350
326.3740, 1626.807
326.8561, 1511.329
327.3382, 1403.774
327.8203, 1306.400
328.3024, 1219.517
328.7845, 1141.378
329.2667, 1072.349
329.7488, 1011.352
330.2309, 956.2591
330.7130, 907.5078
331.1951, 864.2036
331.6772, 826.0755
332.1594, 793.0883
332.6415, 763.5428
333.1236, 737.0569
333.6057, 713.4064
334.0878, 691.2454
334.5699, 670.5455
335.0521, 651.5596
335.5342, 634.8728
336.0163, 620.2063
336.4984, 605.8126
336.9805, 590.9807
337.4626, 576.4868
337.9448, 563.7893
338.4269, 552.9335
338.9090, 542.2934
339.3911, 530.7892
339.8732, 519.1075
340.3553, 508.7838
340.8375, 500.2807
341.3196, 492.5452
341.8017, 484.2331
342.2838, 475.4507
342.7659, 467.8740
343.2480, 462.6299
343.7302, 458.2809
344.2123, 453.2142
344.6944, 447.3387
345.1765, 441.7365
345.6586, 437.2709
346.1407, 433.8467
346.6229, 430.3127
347.1050, 426.5459
347.5871, 422.8047
348.0692, 419.0095
348.5513, 415.3210
349.0334, 412.3650
349.5156, 410.7104
349.9977, 409.7453
350.4798, 407.6975
350.9619, 403.7694
351.4440, 400.5500
351.9261, 399.4317
352.4083, 399.4471
352.8904, 398.9168
353.3725, 397.2908
353.8546, 395.3766
354.3367, 394.4129
354.8188, 394.7053
355.3010, 394.6450
355.7831, 393.8163
356.2652, 392.7474
356.7473, 391.8279
357.2294, 391.1273
357.7115, 390.6717
358.1937, 390.5454
358.6758, 390.7660
359.1579, 390.6934
359.6400, 390.1305
360.1221, 389.4974
360.6042, 388.7237
361.0863, 388.0209
361.5685, 388.0052
362.0506, 389.1248
362.5327, 391.0066
363.0148, 392.1009
363.4969, 392.1437
363.9790, 391.7977
364.4612, 390.6724
364.9433, 389.3874
365.4254, 388.9685
365.9075, 389.7112
366.3896, 390.6056
366.8717, 389.9674
367.3539, 386.7817
367.8360, 384.3057
368.3181, 382.5146
368.8002, 381.3943
369.2823, 381.3776
369.7644, 382.1992
370.2466, 382.7670
370.7287, 381.9773
371.2108, 379.7017
371.6929, 378.3121
372.1750, 379.2273
372.6571, 379.4423
373.1393, 377.6456
373.6214, 374.5897
374.1035, 371.4688
374.5856, 368.9082
375.0677, 366.9859
375.5498, 365.9597
376.0320, 366.1519
376.5141, 366.8785
376.9962, 368.6392
377.4783, 370.5299
377.9604, 371.7333
378.4425, 372.0683
378.9247, 371.9538
379.4068, 371.6884
379.8889, 370.7729
380.3710, 371.5000
380.8531, 375.3571
381.3352, 379.5269
381.8174, 382.8524
382.2995, 385.4217
382.7816, 387.8593
383.2637, 390.5539
383.7458, 393.5123
384.2279, 396.7655
384.7101, 400.4264
385.1922, 404.2406
385.6743, 407.8834
386.1564, 411.6927
386.6385, 416.3286
387.1206, 422.1444
387.6028, 428.1812
388.0849, 433.0783
388.5670, 436.8171
389.0491, 439.4186
389.5312, 440.0679
390.0133, 440.0982
390.4955, 440.3624
390.9776, 440.9124
391.4597, 441.2593
391.9418, 441.0922
392.4239, 440.4161
392.9060, 439.1633
393.3882, 436.9784
393.8703, 434.8361
394.3524, 433.4165
394.8345, 432.4967
395.3166, 431.6365
395.7987, 430.8093
396.2809, 429.8580
396.7630, 428.7386
397.2451, 427.4800
397.7272, 425.4466
398.2093, 422.1346
398.6914, 417.9266
399.1736, 413.4327
399.6557, 408.4797
400.1378, 403.7515
400.6199, 399.8629
401.1020, 396.5072
401.5841, 392.9207
402.0662, 388.9927
402.5483, 384.6066
403.0305, 379.1420
403.5126, 372.6796
403.9947, 367.4731
404.4768, 364.9965
404.9589, 363.2309
405.4410, 359.8926
405.9232, 355.1064
406.4053, 351.2315
406.8874, 350.2233
407.3695, 351.2941
407.8516, 350.2521
408.3337, 345.1860
408.8159, 340.5454
409.2980, 337.7938
409.7801, 336.3213
410.2622, 335.1891
410.7443, 334.0677
411.2264, 333.1291
411.7086, 332.6845
412.1907, 333.0960
412.6728, 333.1014
413.1549, 332.7513
413.6370, 331.9741
414.1191, 329.9864
414.6013, 327.3024
415.0834, 325.8853
415.5655, 327.5345
416.0476, 331.9909
416.5297, 334.6204
417.0118, 333.6335
417.4940, 332.7906
417.9761, 332.7695
418.4582, 333.2121
418.9403, 333.4329
419.4224, 333.2004
419.9045, 333.2286
420.3867, 334.9984
420.8688, 339.4882
421.3509, 343.0854
421.8330, 345.3437
422.3151, 346.9712
422.7972, 347.8907
423.2794, 348.4022
423.7615, 349.3285
424.2436, 351.5894
424.7257, 354.8611
425.2078, 356.8265
425.6899, 356.4383
426.1721, 356.5772
426.6542, 358.4503
427.1363, 361.2838
427.6184, 364.3383
428.1005, 367.4766
428.5826, 370.3059
429.0648, 371.9467
429.5469, 372.3791
430.0290, 373.8438
430.5111, 377.5864
430.9932, 381.6653
431.4753, 384.1738
431.9575, 385.3086
432.4396, 386.6932
432.9217, 389.4453
433.4038, 392.8089
433.8859, 395.4995
434.3680, 397.4046
434.8502, 399.0269
435.3323, 400.4737
435.8144, 401.9151
436.2965, 403.7527
436.7786, 405.9226
437.2607, 408.6028
437.7429, 412.2874
438.2250, 416.5269
438.7071, 420.2998
439.1892, 423.2845
439.6713, 425.7372
440.1534, 427.8646
440.6356, 429.5062
441.1177, 431.6171
441.5998, 434.6400
442.0819, 437.8281
442.5640, 440.6647
443.0461, 443.1451
443.5282, 445.5580
444.0103, 448.1207
444.4925, 450.7260
444.9746, 452.7271
445.4567, 453.6935
445.9388, 454.5689
446.4209, 455.3120
446.9030, 456.0728
447.3852, 456.9911
447.8673, 458.1031
448.3494, 459.3840
448.8315, 460.8335
449.3136, 462.5045
449.7957, 464.0641
450.2779, 465.3853
450.7600, 466.7243
451.2421, 468.0855
451.7242, 469.5378
452.2063, 471.2473
452.6884, 473.3519
453.1706, 475.6046
453.6527, 477.3896
454.1348, 478.6140
454.6169, 479.6420
455.0990, 479.5051
455.5811, 479.9318
456.0633, 482.5732
456.5454, 487.4489
457.0275, 492.4966
457.5096, 495.8820
457.9917, 498.1920
458.4738, 501.6562
458.9560, 506.6543
459.4381, 512.1378
459.9202, 517.4007
460.4023, 522.6654
460.8844, 528.4785
461.3665, 535.3934
461.8487, 542.1791
462.3308, 547.6272
462.8129, 552.1219
463.2950, 556.9446
463.7771, 562.4763
464.2592, 568.6512
464.7414, 575.6594
465.2235, 583.6913
465.7056, 591.2267
466.1877, 597.3918
466.6698, 603.6093
467.1519, 610.9972
467.6341, 619.5297
468.1162, 628.4504
468.5983, 637.1701
469.0804, 646.0497
469.5625, 656.4149
470.0446, 670.2994
470.5268, 683.1225
471.0089, 693.2405
471.4910, 702.8810
471.9731, 713.8135
472.4552, 726.5038
472.9373, 740.7588
473.4195, 756.6944
473.9016, 774.4922
474.3837, 791.0911
474.8658, 805.0900
475.3479, 819.3058
475.8300, 834.9315
476.3122, 851.0644
476.7943, 866.4039
477.2764, 880.2635
477.7585, 893.8255
478.2406, 908.9080
478.7227, 925.4813
479.2049, 943.4005
479.6870, 964.1184
480.1691, 984.6957
480.6512, 1002.367
481.1333, 1017.722
481.6154, 1033.861
482.0976, 1052.322
482.5797, 1072.433
483.0618, 1093.760
483.5439, 1116.353
484.0260, 1138.068
484.5081, 1157.724
484.9902, 1176.021
485.4724, 1194.634
485.9545, 1213.635
486.4366, 1232.645
486.9187, 1251.277
487.4008, 1270.070
487.8829, 1289.638
488.3651, 1310.123
488.8472, 1331.444
489.3293, 1353.610
489.8114, 1376.726
490.2935, 1398.446
490.7756, 1417.607
491.2578, 1436.937
491.7399, 1456.890
492.2220, 1477.489
492.7041, 1498.924
493.1862, 1521.146
493.6683, 1543.539
494.1505, 1565.179
494.6326, 1585.793
495.1147, 1606.507
495.5968, 1627.006
496.0789, 1647.801
496.5610, 1670.327
497.0432, 1693.093
497.5253, 1713.393
498.0074, 1729.411
498.4895, 1742.929
498.9716, 1756.919
499.4537, 1771.396
499.9359, 1786.403
500.4180, 1802.785
500.9001, 1819.119
501.3822, 1833.700
501.8643, 1846.814
502.3464, 1860.715
502.8286, 1877.434
503.3107, 1895.256
503.7928, 1912.672
504.2749, 1929.574
504.7570, 1943.152
505.2391, 1951.253
505.7213, 1955.438
506.2034, 1959.681
506.6855, 1964.070
507.1676, 1968.309
507.6497, 1971.936
508.1318, 1975.577
508.6140, 1980.912
509.0961, 1987.682
509.5782, 1992.474
510.0603, 1992.064
510.5424, 1986.725
511.0245, 1981.873
511.5067, 1978.313
511.9888, 1974.275
512.4709, 1969.480
512.9530, 1964.040
513.4351, 1957.890
513.9172, 1951.090
514.3994, 1944.204
514.8815, 1938.158
515.3636, 1933.093
515.8457, 1926.703
516.3278, 1917.912
516.8099, 1909.175
517.2921, 1900.663
517.7742, 1893.097
518.2563, 1887.526
518.7384, 1884.259
519.2205, 1883.091
519.7026, 1883.643
520.1848, 1885.993
520.6669, 1890.942
521.1490, 1898.975
521.6311, 1908.967
522.1132, 1919.607
522.5953, 1931.026
523.0775, 1944.645
523.5596, 1961.418
524.0417, 1979.742
524.5238, 1997.725
525.0059, 2016.181
525.4880, 2037.348
525.9702, 2061.945
526.4523, 2090.461
526.9344, 2124.634
527.4165, 2167.394
527.8986, 2207.836
528.3807, 2242.340
528.8629, 2278.282
529.3450, 2320.627
529.8271, 2367.593
530.3092, 2414.522
530.7913, 2458.797
531.2734, 2501.371
531.7556, 2545.141
532.2377, 2590.957
532.7198, 2635.237
533.2019, 2678.656
533.6840, 2719.290
534.1661, 2757.157
534.6483, 2791.689
535.1304, 2821.251
535.6125, 2846.541
536.0946, 2865.441
536.5767, 2874.520
537.0588, 2873.743
537.5410, 2863.637
538.0231, 2844.199
538.5052, 2815.305
538.9873, 2777.697
539.4694, 2731.692
539.9515, 2677.332
540.4337, 2612.441
540.9158, 2540.395
541.3979, 2463.254
541.8800, 2381.891
542.3621, 2297.304
542.8442, 2209.973
543.3264, 2121.055
543.8085, 2034.283
544.2906, 1948.820
544.7726, 1867.786
545.2548, 1793.223
545.7369, 1721.651
546.2190, 1650.311
546.7011, 1579.659
547.1832, 1512.147
547.6653, 1450.316
548.1475, 1393.414
548.6296, 1339.477
549.1117, 1288.375
549.5938, 1240.818
550.0759, 1198.098
550.5580, 1158.475
551.0402, 1120.526
551.5223, 1084.252
552.0044, 1050.546
552.4865, 1020.349
552.9686, 992.7550
553.4507, 965.9701
553.9329, 939.9174
554.4150, 915.6292
554.8971, 893.9037
555.3792, 874.1052
555.8613, 854.9741
556.3434, 836.6525
556.8256, 818.4542
557.3077, 799.1729
557.7898, 780.5823
558.2719, 764.6358
558.7540, 751.1935
559.2361, 739.1504
559.7183, 727.7677
560.2004, 716.9354
560.6825, 705.8236
561.1646, 694.2358
561.6467, 682.8435
562.1288, 671.1375
562.6110, 660.0395
563.0931, 650.2642
563.5752, 641.7449
564.0573, 633.7640
564.5394, 625.9364
565.0215, 618.2322
565.5037, 610.4929
565.9858, 602.6111
566.4679, 595.2042
566.9500, 588.5501
567.4321, 582.4719
567.9142, 576.7174
568.3964, 571.3024
568.8785, 565.9828
569.3606, 560.5901
569.8427, 555.3141
570.3248, 550.2720
570.8069, 545.5080
571.2891, 541.0443
571.7712, 536.9702
572.2533, 533.1238
572.7354, 529.1648
573.2175, 525.0629
573.6996, 520.8563
574.1818, 516.0766
574.6639, 511.5912
575.1460, 508.0418
575.6281, 505.2305
576.1102, 502.6237
576.5923, 499.9391
577.0745, 497.1586
577.5566, 494.1986
578.0387, 491.0133
578.5208, 487.9253
579.0029, 485.0565
579.4850, 482.2813
579.9672, 479.4495
580.4493, 476.6111
580.9314, 473.9816
581.4135, 471.7310
581.8956, 469.6483
582.3777, 467.7185
582.8599, 465.8162
583.3420, 463.2141
583.8241, 459.4995
584.3062, 455.7962
584.7883, 453.7490
585.2704, 453.8614
585.7526, 453.1418
586.2347, 451.1259
586.7168, 448.8341
587.1989, 446.1673
587.6810, 443.6774
588.1631, 442.3924
588.6453, 442.6354
589.1274, 443.2905
589.6095, 442.6318
590.0916, 440.4579
