##NAMES=Tantalite-(Mn)
##RRUFFID=R050600
##IDEAL CHEMISTRY=Mn^2+^Ta^5+^_2_O_6_
##LOCALITY=Shengus, Pakistan
##OWNER=RRUFF
##SOURCE=Wayne Thompson
##DESCRIPTION=Black tabular crystal associated with white albite and colorless quartz
##STATUS=The identification of this mineral has been made only by X-ray diffraction.
##URL=rruff.info/R050600
91.11523, 10.12616
91.59735, 10.22494
92.07947, 10.08517
92.56158, 9.802800
93.04370, 9.681554
93.52582, 10.10851
94.00793, 10.80384
94.49006, 11.02562
94.97218, 10.51335
95.45429, 9.937277
95.93641, 10.61054
96.41853, 12.50024
96.90064, 14.26144
97.38276, 14.74723
97.86488, 14.08213
98.34699, 13.30531
98.82911, 11.65678
99.31123, 10.46897
99.79334, 16.39028
100.2755, 31.80671
100.7576, 45.87516
101.2397, 46.19235
101.7218, 28.70193
102.2039, 17.33682
102.6861, 19.82841
103.1682, 35.97333
103.6503, 41.95536
104.1324, 33.47743
104.6145, 19.65746
105.0966, 11.35756
105.5788, 11.24903
106.0609, 12.18751
106.5430, 12.37177
107.0251, 11.40407
107.5072, 11.15104
107.9893, 12.35683
108.4715, 14.09254
108.9536, 14.68412
109.4357, 12.65381
109.9178, 10.80232
110.3999, 9.983134
110.8820, 10.55256
111.3642, 11.57254
111.8463, 13.48594
112.3284, 15.89194
112.8105, 17.69756
113.2926, 18.26329
113.7747, 18.55796
114.2569, 19.08312
114.7390, 20.72018
115.2211, 21.68210
115.7032, 20.86224
116.1853, 18.70853
116.6674, 17.49916
117.1496, 18.46033
117.6317, 20.46586
118.1138, 22.56641
118.5959, 24.53450
119.0780, 26.50472
119.5602, 28.53617
120.0423, 30.64414
120.5244, 32.76550
121.0065, 35.24848
121.4886, 37.64647
121.9707, 39.37674
122.4529, 39.30657
122.9350, 38.98314
123.4171, 39.93171
123.8992, 42.31572
124.3813, 44.68499
124.8634, 45.62434
125.3456, 45.62830
125.8277, 45.82128
126.3098, 46.88453
126.7919, 48.43867
127.2740, 49.88052
127.7561, 51.10624
128.2383, 52.44510
128.7204, 54.41389
129.2025, 56.90987
129.6846, 59.39357
130.1667, 61.57126
130.6488, 63.46510
131.1310, 65.31219
131.6131, 67.19820
132.0952, 68.93816
132.5773, 70.23855
133.0594, 71.10160
133.5415, 71.53709
134.0237, 71.32495
134.5058, 70.52181
134.9879, 70.09428
135.4700, 70.37926
135.9521, 71.02506
136.4343, 70.77158
136.9164, 69.40906
137.3985, 68.00050
137.8806, 67.36091
138.3627, 67.52757
138.8448, 68.34170
139.3270, 70.21557
139.8091, 72.89324
140.2912, 73.71809
140.7733, 72.13062
141.2554, 69.69078
141.7375, 68.01248
142.2197, 67.34280
142.7018, 66.71012
143.1839, 65.73988
143.6660, 64.35184
144.1481, 63.90010
144.6302, 64.65133
145.1124, 66.12085
145.5945, 67.73377
146.0766, 69.66359
146.5587, 71.50002
147.0408, 73.12962
147.5230, 74.50201
148.0051, 75.81453
148.4872, 76.62283
148.9693, 76.95000
149.4514, 77.47976
149.9335, 78.56124
150.4157, 79.48775
150.8978, 80.02177
151.3799, 79.92693
151.8620, 79.98605
152.3441, 80.10368
152.8262, 80.37574
153.3084, 80.98817
153.7905, 82.49049
154.2726, 83.87383
154.7547, 84.76994
155.2368, 84.80692
155.7189, 84.91776
156.2011, 85.24297
156.6832, 85.71755
157.1653, 86.17698
157.6474, 86.48361
158.1295, 86.83810
158.6116, 87.35075
159.0938, 88.18679
159.5759, 88.97094
160.0580, 89.56236
160.5401, 90.01470
161.0222, 90.51276
161.5044, 90.68324
161.9865, 91.16242
162.4686, 92.40681
162.9507, 95.19657
163.4328, 98.00368
163.9149, 100.4361
164.3971, 102.4871
164.8792, 103.9756
165.3613, 104.2150
165.8434, 104.1260
166.3255, 104.5551
166.8076, 106.2409
167.2898, 108.0901
167.7719, 109.2140
168.2540, 109.7489
168.7361, 110.9074
169.2182, 114.5817
169.7003, 118.9416
170.1825, 121.7989
170.6646, 121.4344
171.1467, 119.9028
171.6288, 118.7306
172.1109, 117.9147
172.5931, 117.0353
173.0752, 115.5388
173.5573, 113.8083
174.0394, 112.4608
174.5215, 112.4546
175.0036, 112.6021
175.4858, 111.4574
175.9679, 108.9755
176.4500, 106.1774
176.9321, 103.7301
177.4142, 101.5847
177.8963, 99.67115
178.3785, 98.10384
178.8606, 96.66960
179.3427, 94.99590
179.8248, 93.02733
180.3069, 91.17886
180.7890, 89.82967
181.2712, 88.94691
181.7533, 88.45735
182.2354, 88.49982
182.7175, 88.89162
183.1996, 89.11684
183.6818, 89.08035
184.1639, 89.33689
184.6460, 91.07594
185.1281, 93.93802
185.6102, 96.10998
186.0923, 96.02686
186.5745, 94.47985
187.0566, 94.09919
187.5387, 95.15834
188.0208, 96.75809
188.5029, 97.68690
188.9850, 97.99797
189.4672, 98.37086
189.9493, 99.15453
190.4314, 100.2933
190.9135, 101.6157
191.3956, 103.1961
191.8777, 104.7361
192.3599, 105.5988
192.8420, 105.7755
193.3241, 106.2815
193.8062, 107.7277
194.2883, 110.0580
194.7704, 112.5053
195.2526, 115.0208
195.7347, 117.6518
196.2168, 120.5357
196.6989, 123.6894
197.1810, 126.8598
197.6632, 129.9814
198.1453, 133.0784
198.6274, 135.7398
199.1095, 137.7448
199.5916, 139.5914
200.0737, 142.5165
200.5559, 146.7487
201.0380, 150.6916
201.5201, 153.4572
202.0022, 155.0209
202.4843, 156.1628
202.9664, 156.9316
203.4486, 157.3101
203.9307, 157.4014
204.4128, 157.3674
204.8949, 156.4229
205.3770, 153.9398
205.8591, 149.7204
206.3413, 145.3452
206.8234, 140.7844
207.3055, 136.1933
207.7876, 131.9500
208.2697, 128.0933
208.7519, 124.5466
209.2340, 121.3313
209.7161, 118.5457
210.1982, 115.5126
210.6803, 111.9544
211.1624, 108.2628
211.6446, 105.6046
212.1267, 104.2989
212.6088, 103.2963
213.0909, 102.0563
213.5730, 100.5135
214.0551, 98.93513
214.5373, 97.12318
215.0194, 95.37846
215.5015, 94.64556
215.9836, 95.36349
216.4657, 96.19717
216.9478, 96.46837
217.4300, 96.03405
217.9121, 95.43526
218.3942, 94.47432
218.8763, 93.43785
219.3584, 93.28568
219.8405, 94.44465
220.3227, 95.69971
220.8048, 96.36545
221.2869, 96.09090
221.7690, 96.24670
222.2511, 96.93791
222.7333, 98.06956
223.2154, 99.41500
223.6975, 101.2465
224.1796, 102.8591
224.6617, 103.7906
225.1438, 103.5318
225.6260, 103.9642
226.1081, 105.3186
226.5902, 107.3454
227.0723, 109.3262
227.5544, 111.3669
228.0365, 113.2346
228.5187, 114.7743
229.0008, 115.7550
229.4829, 116.9909
229.9650, 118.6763
230.4471, 120.5760
230.9292, 122.0131
231.4114, 122.5645
231.8935, 123.3234
232.3756, 124.8570
232.8577, 127.7944
233.3398, 130.0119
233.8220, 131.1008
234.3041, 131.6040
234.7862, 132.8491
235.2683, 135.1500
235.7504, 137.6982
236.2325, 140.2628
236.7147, 142.9604
237.1968, 145.2425
237.6789, 146.8714
238.1610, 148.1873
238.6431, 149.9223
239.1252, 152.1998
239.6074, 154.7517
240.0895, 157.5804
240.5716, 160.9168
241.0537, 163.8029
241.5358, 166.2326
242.0179, 168.2172
242.5001, 169.7300
242.9822, 170.5350
243.4643, 171.2539
243.9464, 172.2754
244.4285, 174.0965
244.9106, 174.4582
245.3928, 172.6939
245.8749, 169.8660
246.3570, 167.8639
246.8391, 167.1911
247.3212, 166.4718
247.8034, 165.2063
248.2855, 163.1979
248.7676, 161.4376
249.2497, 159.8828
249.7318, 158.5959
250.2139, 157.7085
250.6961, 157.4088
251.1782, 157.1732
251.6603, 156.8585
252.1424, 156.4523
252.6245, 155.9854
253.1066, 155.1553
253.5888, 154.5322
254.0709, 154.9547
254.5530, 156.9527
255.0351, 158.9207
255.5172, 160.3980
255.9993, 161.3380
256.4815, 162.3335
256.9636, 163.2579
257.4457, 164.3579
257.9278, 165.8994
258.4099, 167.8537
258.8921, 170.3619
259.3742, 173.7285
259.8563, 177.9486
260.3384, 181.3856
260.8205, 183.7134
261.3026, 185.6455
261.7848, 187.9085
262.2669, 190.5758
262.7490, 193.2878
263.2311, 195.7791
263.7132, 198.1235
264.1953, 201.5295
264.6775, 206.4663
265.1596, 211.6683
265.6417, 215.9536
266.1238, 218.9982
266.6059, 222.2686
267.0880, 226.2573
267.5702, 230.7400
268.0523, 233.8289
268.5344, 235.2081
269.0165, 235.9132
269.4986, 236.6472
269.9807, 237.3762
270.4629, 238.4203
270.9450, 240.1664
271.4271, 242.1818
271.9092, 242.5378
272.3913, 240.8960
272.8734, 238.5545
273.3556, 236.2658
273.8377, 234.0204
274.3198, 231.9470
274.8019, 230.1832
275.2840, 228.4831
275.7661, 226.0880
276.2483, 222.8981
276.7304, 219.4546
277.2125, 216.0502
277.6946, 212.6566
278.1768, 209.5374
278.6589, 206.7986
279.1410, 204.2258
279.6231, 201.4322
280.1052, 198.3953
280.5873, 195.1107
281.0695, 191.5006
281.5516, 187.5570
282.0337, 183.6512
282.5158, 179.6078
282.9979, 175.9986
283.4800, 174.3056
283.9622, 174.6558
284.4443, 174.1811
284.9264, 171.0853
285.4085, 165.7552
285.8906, 161.4882
286.3727, 158.4401
286.8549, 155.8884
287.3370, 152.7714
287.8191, 149.1372
288.3012, 146.0020
288.7833, 143.9984
289.2654, 142.8040
289.7476, 141.0106
290.2297, 138.5085
290.7118, 136.2695
291.1939, 135.5573
291.6760, 136.1507
292.1581, 136.6514
292.6403, 136.5421
293.1224, 136.1247
293.6045, 135.9682
294.0866, 136.0721
294.5687, 136.6466
295.0508, 138.3837
295.5330, 140.8512
296.0151, 142.4421
296.4972, 142.4824
296.9793, 141.8478
297.4614, 142.0200
297.9435, 142.9220
298.4257, 143.9393
298.9078, 144.7858
299.3899, 145.4095
299.8720, 145.6207
300.3541, 145.2785
300.8362, 144.7589
301.3184, 144.6623
301.8005, 144.8461
302.2826, 144.7289
302.7647, 143.7866
303.2469, 142.3833
303.7290, 140.9429
304.2111, 139.4667
304.6932, 138.2196
305.1753, 137.8578
305.6574, 137.9770
306.1396, 137.6355
306.6217, 135.7197
307.1038, 133.4337
307.5859, 132.1740
308.0680, 132.1068
308.5501, 132.1382
309.0323, 131.4249
309.5144, 130.2642
309.9965, 129.1339
310.4786, 127.8968
310.9607, 126.9890
311.4428, 126.9348
311.9250, 127.7073
312.4071, 128.4178
312.8892, 128.3962
313.3713, 128.0836
313.8534, 127.9392
314.3355, 127.8471
314.8177, 128.2101
315.2998, 129.2433
315.7819, 130.9093
316.2640, 133.0578
316.7461, 136.2046
317.2282, 139.4595
317.7104, 142.1408
318.1925, 143.6501
318.6746, 145.2306
319.1567, 147.0259
319.6388, 149.1857
320.1209, 152.0695
320.6031, 158.2283
321.0852, 163.3199
321.5673, 164.8788
322.0494, 161.1218
322.5315, 157.2585
323.0136, 154.5195
323.4958, 152.3132
323.9779, 149.6778
324.4600, 146.7191
324.9421, 143.0530
325.4242, 138.2533
325.9064, 131.8234
326.3885, 126.3340
326.8706, 121.4403
327.3527, 117.8173
327.8348, 116.1009
328.3170, 120.6814
328.7991, 122.4526
329.2812, 118.7993
329.7633, 109.5193
330.2454, 102.4369
330.7275, 98.51336
331.2097, 96.07716
331.6918, 94.03819
332.1739, 92.62739
332.6560, 91.21013
333.1381, 89.63443
333.6202, 87.99625
334.1024, 86.89757
334.5845, 86.75832
335.0666, 86.55045
335.5487, 85.58336
336.0308, 83.29127
336.5129, 82.00085
336.9951, 82.20335
337.4772, 83.13674
337.9593, 83.08058
338.4414, 81.57686
338.9235, 80.43177
339.4056, 80.70132
339.8878, 82.58081
340.3699, 82.99329
340.8520, 81.50890
341.3341, 79.37463
341.8162, 78.27824
342.2983, 78.34810
342.7805, 78.13551
343.2626, 76.94736
343.7447, 75.09054
344.2268, 74.44048
344.7089, 75.16454
345.1910, 76.05240
345.6732, 75.82478
346.1553, 74.62879
346.6374, 73.71105
347.1195, 73.40015
347.6016, 73.40158
348.0837, 72.99968
348.5659, 72.22810
349.0480, 71.70293
349.5301, 72.20493
350.0122, 73.27518
350.4944, 73.49033
350.9765, 72.39116
351.4586, 71.38638
351.9407, 72.93882
352.4228, 76.23068
352.9049, 78.54772
353.3871, 77.65768
353.8692, 75.36184
354.3513, 73.98373
354.8334, 73.66304
355.3155, 73.66889
355.7976, 73.52278
356.2798, 73.29542
356.7619, 73.09901
357.2440, 72.91650
357.7261, 72.82787
358.2082, 72.98655
358.6903, 73.34543
359.1725, 73.58401
359.6546, 73.29988
360.1367, 72.93026
360.6188, 72.88567
361.1009, 73.47420
361.5830, 74.07115
362.0652, 74.40866
362.5473, 74.55425
363.0294, 74.67408
363.5115, 74.81974
363.9936, 74.95921
364.4757, 75.07655
364.9579, 75.17139
365.4400, 75.24719
365.9221, 75.45606
366.4042, 75.60269
366.8863, 75.43916
367.3684, 74.28078
367.8506, 73.46864
368.3327, 73.54561
368.8148, 74.63161
369.2969, 75.15120
369.7790, 74.42258
370.2611, 73.59995
370.7433, 73.53428
371.2254, 75.16476
371.7075, 76.05385
372.1896, 75.72501
372.6717, 74.48241
373.1538, 73.58772
373.6360, 73.11387
374.1181, 72.86707
374.6002, 72.80506
375.0823, 73.01277
375.5645, 73.04986
376.0466, 72.76086
376.5287, 72.47243
377.0108, 72.92397
377.4929, 74.36047
377.9750, 75.29507
378.4572, 74.95437
378.9393, 73.53481
379.4214, 73.00469
379.9035, 73.50910
380.3856, 74.31468
380.8677, 74.70885
381.3499, 74.71987
381.8320, 74.69001
382.3141, 74.61872
382.7962, 74.62922
383.2783, 75.10306
383.7604, 76.00744
384.2426, 76.83522
384.7247, 77.28163
385.2068, 77.40060
385.6889, 77.32471
386.1710, 77.05791
386.6531, 76.63949
387.1353, 75.94510
387.6174, 75.11325
388.0995, 74.49679
388.5816, 74.35484
389.0637, 74.44969
389.5458, 74.60092
390.0280, 74.80078
390.5101, 74.91438
390.9922, 74.86449
391.4743, 74.67757
391.9564, 74.36912
392.4385, 73.80804
392.9207, 73.29545
393.4028, 73.04882
393.8849, 72.98840
394.3670, 72.87473
394.8491, 72.41596
395.3312, 72.02641
395.8134, 71.98153
396.2955, 72.46534
396.7776, 72.87238
397.2597, 73.16898
397.7418, 73.28537
398.2239, 73.12798
398.7061, 72.10588
399.1882, 71.39868
399.6703, 71.52318
400.1524, 72.54077
400.6346, 72.90414
401.1167, 72.22282
401.5988, 71.22493
402.0809, 70.35786
402.5630, 69.51444
403.0451, 69.03159
403.5273, 69.07645
404.0094, 69.45470
404.4915, 69.57068
404.9736, 69.25492
405.4557, 69.09212
405.9378, 69.51546
406.4200, 70.64026
406.9021, 70.86146
407.3842, 69.91738
407.8663, 68.67780
408.3484, 68.38123
408.8305, 69.04977
409.3127, 69.39324
409.7948, 68.85603
410.2769, 67.86667
410.7590, 67.73837
411.2411, 68.47694
411.7232, 69.23129
412.2054, 69.34958
412.6875, 68.98447
413.1696, 68.49069
413.6517, 67.83415
414.1338, 67.31498
414.6159, 67.50076
415.0981, 68.13893
415.5802, 68.54163
416.0623, 68.17578
416.5444, 67.50559
417.0265, 66.86967
417.5086, 66.27976
417.9908, 66.04160
418.4729, 66.46878
418.9550, 67.30373
419.4371, 68.29114
419.9192, 69.75317
420.4013, 70.88294
420.8835, 71.28993
421.3656, 71.09134
421.8477, 70.63960
422.3298, 69.29556
422.8119, 68.32919
423.2940, 68.51932
423.7762, 70.51732
424.2583, 71.88125
424.7404, 71.79603
425.2225, 71.15210
425.7047, 70.97346
426.1868, 71.59811
426.6689, 72.25256
427.1510, 72.90237
427.6331, 73.52246
428.1152, 73.81603
428.5974, 73.55331
429.0795, 73.31266
429.5616, 73.53355
430.0437, 74.43176
430.5258, 74.79092
431.0079, 74.32881
431.4901, 73.59093
431.9722, 73.64259
432.4543, 74.56226
432.9364, 75.45903
433.4185, 75.99622
433.9006, 76.22339
434.3828, 76.34157
434.8649, 76.35157
435.3470, 76.24583
435.8291, 75.86401
436.3112, 75.34075
436.7933, 75.13612
437.2755, 75.39706
437.7576, 75.88315
438.2397, 76.33483
438.7218, 76.76419
439.2039, 77.20936
439.6860, 77.72251
440.1682, 78.24895
440.6503, 78.74206
441.1324, 79.20552
441.6145, 79.57114
442.0966, 79.64531
442.5787, 79.65798
443.0609, 79.85979
443.5430, 80.69338
444.0251, 81.33513
444.5072, 81.35448
444.9893, 80.91275
445.4714, 80.60001
445.9536, 80.60905
446.4357, 80.72256
446.9178, 80.85384
447.3999, 80.99714
447.8820, 81.16624
448.3641, 81.39101
448.8463, 81.62884
449.3284, 81.83289
449.8105, 81.96133
450.2926, 82.13082
450.7747, 82.35033
451.2569, 82.62635
451.7390, 83.07844
452.2211, 83.90601
452.7032, 84.41138
453.1853, 83.88818
453.6674, 82.22037
454.1496, 81.62526
454.6317, 82.40723
455.1138, 83.69520
455.5959, 84.09956
456.0780, 83.72198
456.5602, 83.68806
457.0423, 84.58046
457.5244, 85.94287
458.0065, 86.94807
458.4886, 87.59802
458.9707, 88.00047
459.4529, 87.95443
459.9350, 87.79330
460.4171, 88.11679
460.8992, 89.17801
461.3813, 90.15860
461.8634, 90.19804
462.3456, 89.76334
462.8277, 89.64063
463.3098, 90.21963
463.7919, 91.12612
464.2740, 92.45628
464.7561, 94.13297
465.2383, 95.22123
465.7204, 94.93275
466.2025, 94.31310
466.6846, 93.98661
467.1667, 93.99314
467.6488, 94.34578
468.1310, 95.12648
468.6131, 96.22827
469.0952, 97.53188
469.5773, 99.23685
470.0594, 100.8323
470.5415, 102.3107
471.0237, 103.6479
471.5058, 104.2088
471.9879, 103.6084
472.4700, 103.0943
472.9521, 103.6932
473.4342, 105.4611
473.9164, 107.2930
474.3985, 109.2193
474.8806, 110.9383
475.3627, 111.7329
475.8448, 111.7031
476.3270, 111.8886
476.8091, 112.8445
477.2912, 114.2633
477.7733, 115.6254
478.2554, 116.9254
478.7375, 118.0793
479.2197, 118.8700
479.7018, 119.5318
480.1839, 120.3488
480.6660, 121.3354
481.1481, 122.5916
481.6302, 124.4271
482.1124, 126.5394
482.5945, 128.4164
483.0766, 129.5207
483.5587, 130.6769
484.0408, 132.2735
484.5229, 134.3025
485.0051, 136.3345
485.4872, 138.8692
485.9693, 140.9777
486.4514, 141.9949
486.9335, 140.5716
487.4156, 140.4524
487.8978, 142.2796
488.3799, 145.0674
488.8620, 147.3064
489.3441, 148.7598
489.8262, 150.2943
490.3083, 152.2861
490.7905, 154.6046
491.2726, 156.0946
491.7547, 156.6257
492.2368, 157.0258
492.7189, 157.8686
493.2010, 159.1177
493.6832, 160.4004
494.1653, 161.6403
494.6474, 163.1162
495.1295, 165.6770
495.6116, 168.8564
496.0938, 171.2171
496.5759, 171.4817
497.0580, 171.2453
497.5401, 172.5434
498.0222, 175.0362
498.5044, 176.9285
498.9865, 176.3335
499.4686, 175.2873
499.9507, 175.5521
500.4328, 177.7496
500.9149, 179.8311
501.3971, 180.8979
501.8792, 181.5755
502.3613, 182.5888
502.8434, 184.5902
503.3255, 186.3442
503.8076, 187.6164
504.2898, 188.4712
504.7719, 189.2293
505.2540, 190.1346
505.7361, 190.5733
506.2182, 190.1427
506.7003, 188.6447
507.1825, 187.5370
507.6646, 186.8016
508.1467, 186.4960
508.6288, 186.9220
509.1109, 188.0769
509.5930, 188.8034
510.0752, 188.8238
510.5573, 188.3737
511.0394, 187.6536
511.5215, 186.7523
512.0037, 186.2222
512.4858, 187.1321
512.9679, 188.2666
513.4500, 187.6105
513.9321, 185.1223
514.4142, 182.5453
514.8964, 181.1243
515.3785, 180.2314
515.8606, 179.2345
516.3427, 178.0193
516.8248, 176.5949
517.3069, 174.7324
517.7891, 172.6900
518.2712, 170.9404
518.7533, 169.7098
519.2354, 168.6768
519.7175, 167.9131
520.1996, 167.4045
520.6818, 166.4862
521.1639, 164.8102
521.6460, 163.1491
522.1281, 161.9755
522.6102, 161.3846
523.0923, 160.9339
523.5745, 160.7219
524.0566, 160.4677
524.5387, 159.6381
525.0208, 158.2306
525.5029, 157.0091
525.9850, 156.0874
526.4672, 155.5851
526.9493, 155.8438
527.4314, 156.8222
527.9135, 158.0869
528.3956, 159.5706
528.8777, 161.1148
529.3599, 162.5300
529.8420, 163.8215
530.3241, 164.8614
530.8062, 165.3898
531.2883, 165.7112
531.7704, 166.1516
532.2526, 166.8538
532.7347, 167.6284
533.2168, 168.4459
533.6989, 169.2955
534.1810, 170.1732
534.6631, 170.9600
535.1453, 171.9083
535.6274, 173.2820
536.1095, 175.1342
536.5916, 176.0783
537.0737, 175.9706
537.5558, 175.1896
538.0380, 173.7664
538.5201, 171.4957
539.0022, 170.0147
539.4843, 169.6348
539.9664, 169.5891
540.4485, 168.8132
540.9307, 167.3597
541.4128, 165.6067
541.8949, 163.6364
542.3770, 161.4993
542.8591, 159.2408
543.3412, 156.8783
543.8234, 154.3605
544.3055, 151.5571
544.7876, 148.6420
545.2697, 145.7985
545.7518, 143.0428
546.2339, 140.3648
546.7161, 137.8208
547.1982, 135.3381
547.6803, 132.7883
548.1624, 129.8228
548.6445, 127.2359
549.1266, 125.2308
549.6088, 123.6671
550.0909, 122.3085
550.5730, 121.5191
551.0551, 120.3256
551.5372, 118.2810
552.0193, 115.5223
552.5015, 113.5385
552.9836, 112.4486
553.4657, 111.7105
553.9478, 111.0627
554.4299, 110.4866
554.9120, 109.7764
555.3942, 108.9113
555.8763, 107.9875
556.3584, 106.9984
556.8405, 106.0351
557.3226, 105.3745
557.8047, 105.3132
558.2869, 105.2586
558.7690, 104.3734
559.2511, 103.0379
559.7332, 102.2264
560.2154, 103.0895
560.6975, 103.9809
561.1796, 103.9689
561.6617, 102.9898
562.1439, 102.0574
562.6260, 101.2978
563.1081, 100.7047
563.5902, 100.2543
564.0723, 99.96563
564.5544, 99.77951
565.0366, 99.68688
565.5187, 99.70249
566.0008, 99.97803
566.4829, 100.6582
566.9650, 100.7163
567.4471, 99.68388
567.9293, 98.12995
568.4114, 97.60559
568.8935, 98.04198
569.3756, 98.54500
569.8577, 98.70015
570.3398, 98.55556
570.8220, 97.97117
571.3041, 96.97659
571.7862, 96.36103
572.2683, 97.20772
572.7504, 98.42734
573.2325, 98.89388
573.7147, 98.14236
574.1968, 97.26797
574.6789, 96.45642
575.1610, 95.83001
575.6431, 95.53857
576.1252, 95.98193
576.6074, 96.32290
577.0895, 96.37624
577.5716, 96.24181
578.0537, 96.33015
578.5358, 96.77038
579.0179, 97.13650
579.5001, 97.27702
579.9822, 97.19519
580.4643, 96.88728
580.9464, 96.32749
581.4285, 95.71762
581.9106, 95.12673
582.3928, 94.61271
582.8749, 94.42826
583.3570, 94.66348
583.8391, 94.93734
584.3212, 94.76879
584.8033, 94.40057
585.2855, 94.25057
585.7676, 94.71204
586.2497, 95.16805
586.7318, 95.33349
587.2139, 95.25603
587.6960, 95.07217
588.1782, 94.35558
588.6603, 93.98479
589.1424, 94.54611
