##NAMES=Tapiolite-(Fe)
##RRUFFID=R050358
##IDEAL CHEMISTRY=Fe^2+^Ta^5+^_2_O_6_
##LOCALITY=Musgrave Ranges, South Australia, Australia
##OWNER=RRUFF
##SOURCE=University of Arizona Mineral Museum
##DESCRIPTION=Brown fragments
##STATUS=The identification of this mineral is confirmed by single-crystal X-ray diffraction and chemical analysis.
##URL=rruff.info/R050358
##MEASURED CHEMISTRY=(Fe^2+^_0.79_Mn^2+^_0.18_Fe^3+^_0.03_)_Σ=1_(Ta_1.89_Nb_0.08_Ti_0.03_)_Σ=2_O_6_ ; Fe^2+^ and Fe^3+^ estimated by charge balance
93.48767, 302.6707
93.96979, 310.8200
94.45190, 319.2519
94.93402, 327.2534
95.41614, 330.1268
95.89825, 328.9189
96.38037, 326.1565
96.86249, 322.2764
97.34460, 318.8121
97.82672, 316.5466
98.30884, 314.2923
98.79095, 312.2019
99.27307, 309.6332
99.75519, 305.8388
100.2373, 301.1741
100.7194, 296.1431
101.2015, 292.0410
101.6837, 288.9548
102.1658, 286.4262
102.6479, 284.1121
103.1300, 281.9604
103.6121, 280.1339
104.0942, 278.8651
104.5764, 277.9453
105.0585, 277.1824
105.5406, 276.6814
106.0227, 276.2767
106.5048, 275.5150
106.9869, 274.4491
107.4691, 272.6925
107.9512, 269.6004
108.4333, 265.6666
108.9154, 262.1129
109.3975, 260.0777
109.8796, 259.8021
110.3617, 259.3958
110.8439, 259.0096
111.3260, 258.3667
111.8081, 257.2573
112.2902, 255.7001
112.7723, 253.8974
113.2544, 252.1068
113.7366, 250.1595
114.2187, 248.5948
114.7008, 247.8448
115.1829, 247.2242
115.6650, 246.0162
116.1471, 243.9529
116.6293, 241.4845
117.1114, 239.7293
117.5935, 239.1977
118.0756, 238.3242
118.5577, 236.5132
119.0398, 234.0657
119.5220, 231.6557
120.0041, 229.5537
120.4862, 227.7338
120.9683, 226.0608
121.4504, 224.5415
121.9325, 223.1455
122.4147, 222.0285
122.8968, 221.2425
123.3789, 220.0897
123.8610, 217.9412
124.3431, 215.3116
124.8252, 212.5847
125.3074, 209.7833
125.7895, 207.0613
126.2716, 204.7365
126.7537, 202.8896
127.2358, 201.3847
127.7179, 200.3671
128.2001, 199.5521
128.6822, 198.5363
129.1643, 197.0422
129.6464, 195.1144
130.1285, 193.4036
130.6106, 191.8677
131.0928, 190.6071
131.5749, 189.8150
132.0570, 189.3521
132.5391, 188.9068
133.0212, 188.1868
133.5033, 187.1046
133.9855, 186.3796
134.4676, 186.2221
134.9497, 186.1737
135.4318, 186.0017
135.9139, 185.6774
136.3960, 185.2821
136.8782, 184.8919
137.3603, 184.5001
137.8424, 184.1782
138.3245, 183.8153
138.8066, 183.5688
139.2887, 183.7460
139.7709, 184.5096
140.2530, 185.3188
140.7351, 185.3935
141.2172, 184.8140
141.6993, 184.2303
142.1814, 183.8149
142.6636, 183.5921
143.1457, 183.6751
143.6278, 184.2113
144.1099, 184.9531
144.5920, 185.7564
145.0741, 186.6053
145.5563, 187.3197
146.0384, 187.6370
146.5205, 187.4859
147.0026, 187.5489
147.4847, 187.9942
147.9668, 188.6683
148.4490, 189.6184
148.9311, 190.8202
149.4132, 192.0466
149.8953, 192.8387
150.3774, 192.6060
150.8595, 193.2191
151.3417, 195.3559
151.8238, 197.9212
152.3059, 199.9708
152.7880, 201.1529
153.2701, 201.9080
153.7522, 203.3334
154.2344, 206.5174
154.7165, 209.1552
155.1986, 210.5675
155.6807, 211.5522
156.1628, 213.1342
156.6449, 215.8388
157.1271, 219.4244
157.6092, 222.9436
158.0913, 226.0249
158.5734, 229.4739
159.0555, 233.8422
159.5376, 238.7996
160.0198, 243.4287
160.5019, 247.0838
160.9840, 250.1039
161.4661, 253.7503
161.9482, 258.5748
162.4303, 263.4254
162.9125, 267.2922
163.3946, 270.2248
163.8767, 273.4511
164.3588, 277.9365
164.8409, 283.1105
165.3230, 288.0432
165.8052, 292.4868
166.2873, 296.6958
166.7694, 300.8957
167.2515, 305.0912
167.7336, 309.3188
168.2157, 313.6914
168.6979, 318.0942
169.1800, 322.3882
169.6621, 326.4287
170.1442, 330.3882
170.6263, 334.8176
171.1084, 340.0475
171.5906, 345.2362
172.0727, 350.2070
172.5548, 354.9689
173.0369, 359.5524
173.5190, 363.9709
174.0011, 368.2272
174.4833, 372.3398
174.9654, 376.5078
175.4475, 380.3094
175.9296, 383.6110
176.4117, 386.4693
176.8938, 389.1047
177.3760, 391.7538
177.8581, 394.4515
178.3402, 395.7075
178.8223, 395.0273
179.3044, 393.6003
179.7865, 392.2680
180.2687, 390.6504
180.7508, 387.5176
181.2329, 381.6934
181.7150, 372.8538
182.1971, 364.3075
182.6792, 356.5859
183.1614, 348.7021
183.6435, 339.9059
184.1256, 330.2571
184.6077, 320.4974
185.0898, 311.1880
185.5719, 302.4160
186.0540, 294.1802
186.5362, 286.5685
187.0183, 279.4570
187.5004, 272.7748
187.9825, 266.4951
188.4646, 260.6713
188.9467, 255.4657
189.4289, 250.7990
189.9110, 246.3143
190.3931, 241.5981
190.8752, 237.1286
191.3573, 233.7962
191.8394, 231.9950
192.3216, 230.4097
192.8037, 227.9489
193.2858, 224.9278
193.7679, 222.0168
194.2500, 219.4121
194.7321, 217.1441
195.2143, 215.3212
195.6964, 214.1772
196.1785, 213.1595
196.6606, 211.7317
197.1427, 210.1529
197.6248, 209.0161
198.1070, 208.8095
198.5891, 209.4489
199.0712, 210.1239
199.5533, 211.2073
200.0354, 211.8669
200.5175, 211.3976
200.9997, 210.2384
201.4818, 209.3604
201.9639, 209.6129
202.4460, 211.0284
202.9281, 212.1855
203.4102, 212.8542
203.8924, 213.4462
204.3745, 213.9930
204.8566, 214.5531
205.3387, 215.2410
205.8208, 216.2231
206.3029, 217.6017
206.7851, 218.3238
207.2672, 217.7233
207.7493, 217.1670
208.2314, 217.1313
208.7135, 217.6246
209.1956, 218.4736
209.6778, 219.5737
210.1599, 220.9936
210.6420, 222.0658
211.1241, 222.4648
211.6062, 222.8647
212.0883, 223.5386
212.5705, 224.5219
213.0526, 225.7814
213.5347, 227.3082
214.0168, 229.1356
214.4989, 231.1152
214.9810, 233.5590
215.4632, 235.9084
215.9453, 237.7964
216.4274, 239.2096
216.9095, 240.3322
217.3916, 241.2289
217.8737, 241.9130
218.3559, 242.8498
218.8380, 244.2511
219.3201, 245.7877
219.8022, 247.2013
220.2843, 248.4735
220.7664, 249.6904
221.2486, 251.0046
221.7307, 252.3352
222.2128, 253.2968
222.6949, 253.4871
223.1770, 253.4628
223.6591, 253.9744
224.1413, 255.1410
224.6234, 256.1524
225.1055, 256.5133
225.5876, 256.2857
226.0697, 255.4228
226.5518, 253.3026
227.0340, 250.8536
227.5161, 249.6027
227.9982, 249.8760
228.4803, 250.2143
228.9624, 249.7474
229.4445, 248.8325
229.9267, 247.9078
230.4088, 247.2442
230.8909, 246.5707
231.3730, 245.2821
231.8551, 243.0979
232.3372, 241.0147
232.8194, 239.6204
233.3015, 238.4851
233.7836, 237.1222
234.2657, 235.3431
234.7478, 233.2067
235.2299, 230.7646
235.7121, 227.7141
236.1942, 224.9620
236.6763, 223.1594
237.1584, 221.5946
237.6405, 219.4131
238.1227, 216.1688
238.6048, 212.3608
239.0869, 209.2531
239.5690, 207.0208
240.0511, 205.2516
240.5332, 204.1039
241.0154, 203.1890
241.4975, 202.1308
241.9796, 200.7671
242.4617, 199.2309
242.9438, 197.8593
243.4259, 196.6315
243.9081, 195.6299
244.3902, 195.0300
244.8723, 194.5555
245.3544, 193.8961
245.8365, 192.9351
246.3186, 191.8777
246.8007, 191.2063
247.2829, 191.4068
247.7650, 191.2959
248.2471, 190.3565
248.7292, 189.3365
249.2113, 189.1254
249.6934, 189.9781
250.1756, 191.1806
250.6577, 191.3002
251.1398, 189.0126
251.6219, 187.5287
252.1040, 187.3814
252.5861, 187.7206
253.0683, 187.8327
253.5504, 187.5030
254.0325, 186.9290
254.5146, 186.4137
254.9967, 185.8601
255.4788, 185.6036
255.9610, 185.9059
256.4431, 186.3530
256.9252, 186.5468
257.4073, 186.4055
257.8894, 186.1906
258.3716, 186.2674
258.8537, 186.8183
259.3358, 187.1953
259.8179, 187.1792
260.3000, 187.1223
260.7821, 187.3993
261.2643, 188.0590
261.7464, 188.7506
262.2285, 189.0503
262.7106, 188.8237
263.1927, 188.8950
263.6748, 189.7303
264.1570, 190.5773
264.6391, 190.6238
265.1212, 189.8291
265.6033, 189.0418
266.0854, 189.1119
266.5675, 190.0957
267.0497, 190.8210
267.5318, 191.0299
268.0139, 191.1303
268.4960, 191.4821
268.9781, 192.0924
269.4602, 192.6770
269.9424, 193.0212
270.4245, 193.1366
270.9066, 193.2397
271.3887, 193.4719
271.8708, 193.5902
272.3529, 193.1751
272.8351, 192.2987
273.3172, 191.8496
273.7993, 192.5851
274.2814, 194.1269
274.7635, 195.1548
275.2456, 195.5447
275.7278, 195.5249
276.2099, 195.0428
276.6920, 194.1681
277.1741, 193.4847
277.6562, 193.3383
278.1383, 193.5261
278.6204, 193.6003
279.1025, 193.5799
279.5847, 193.4067
280.0668, 192.7896
280.5489, 191.8637
281.0310, 191.4915
281.5131, 192.1633
281.9952, 193.3721
282.4774, 194.4562
282.9595, 195.4710
283.4416, 196.0649
283.9237, 195.8285
284.4058, 194.9376
284.8879, 194.1166
285.3701, 193.5345
285.8522, 193.0896
286.3343, 192.7097
286.8164, 192.3903
287.2985, 191.9902
287.7806, 191.2422
288.2628, 190.3291
288.7449, 189.9762
289.2270, 190.6501
289.7091, 191.2152
290.1912, 190.6675
290.6733, 189.2334
291.1555, 187.6388
291.6376, 186.0077
292.1197, 184.4810
292.6018, 183.4721
293.0839, 183.2341
293.5660, 182.9748
294.0482, 182.0181
294.5303, 180.6861
295.0124, 179.5532
295.4945, 178.9631
295.9766, 178.6461
296.4587, 178.0730
296.9409, 177.1347
297.4230, 176.3155
297.9051, 176.0638
298.3872, 176.0128
298.8693, 175.7048
299.3514, 174.9187
299.8336, 173.9850
300.3157, 173.4011
300.7978, 173.2482
301.2799, 172.9285
301.7620, 171.9785
302.2441, 170.8722
302.7263, 170.0252
303.2084, 169.5280
303.6905, 169.1871
304.1726, 168.7731
304.6547, 168.2766
305.1368, 167.9787
305.6190, 168.1920
306.1011, 168.4297
306.5832, 168.2777
307.0653, 167.7199
307.5474, 167.1072
308.0295, 166.7318
308.5117, 166.5735
308.9938, 166.3744
309.4759, 166.0717
309.9580, 165.7594
310.4401, 165.6164
310.9222, 165.5576
311.4044, 165.2599
311.8865, 164.2946
312.3686, 162.8698
312.8507, 161.9433
313.3328, 161.8331
313.8149, 161.6971
314.2971, 160.9845
314.7792, 159.9362
315.2613, 158.9963
315.7434, 158.4275
316.2255, 158.0462
316.7076, 157.4235
317.1898, 156.4461
317.6719, 155.5266
318.1540, 154.8441
318.6361, 154.3132
319.1182, 153.9094
319.6003, 153.6902
320.0825, 153.4075
320.5646, 152.6699
321.0467, 151.4072
321.5288, 150.1295
322.0109, 148.7253
322.4930, 147.5523
322.9752, 146.9870
323.4573, 147.0998
323.9394, 147.4537
324.4215, 147.6815
324.9036, 147.7847
325.3857, 147.9137
325.8679, 148.2414
326.3500, 148.4340
326.8321, 148.1413
327.3142, 147.4454
327.7963, 146.8591
328.2784, 146.9068
328.7606, 147.4080
329.2427, 147.4005
329.7248, 146.4767
330.2069, 145.6679
330.6890, 145.7841
331.1711, 146.4576
331.6533, 146.9145
332.1354, 146.7468
332.6175, 146.1753
333.0996, 145.5430
333.5817, 144.7251
334.0638, 144.2467
334.5460, 144.5884
335.0281, 145.3456
335.5102, 146.1654
335.9923, 147.0594
336.4744, 147.7660
336.9565, 147.8731
337.4387, 147.3405
337.9208, 146.8799
338.4029, 146.6798
338.8850, 146.6984
339.3671, 146.9129
339.8492, 147.3312
340.3314, 147.8300
340.8135, 148.4835
341.2956, 149.2141
341.7777, 149.4412
342.2598, 148.7976
342.7419, 147.9971
343.2241, 147.5469
343.7062, 147.4345
344.1883, 147.6710
344.6704, 148.5313
345.1525, 149.7013
345.6346, 150.4555
346.1168, 150.6556
346.5989, 150.7649
347.0810, 151.2326
347.5631, 151.8308
348.0452, 152.1199
348.5273, 151.7486
349.0095, 151.2369
349.4916, 151.1194
349.9737, 151.3982
350.4558, 152.0160
350.9379, 153.2173
351.4200, 154.5874
351.9022, 155.4271
352.3843, 155.5375
352.8664, 155.5757
353.3485, 156.0253
353.8306, 156.7769
354.3127, 157.3893
354.7949, 157.7158
355.2770, 157.9053
355.7591, 158.0998
356.2412, 158.2921
356.7233, 158.6188
357.2054, 159.1463
357.6876, 159.8322
358.1697, 160.6282
358.6518, 161.5356
359.1339, 162.5110
359.6160, 163.6391
360.0981, 164.8385
360.5803, 165.6377
361.0624, 165.6519
361.5445, 165.4892
362.0266, 165.5679
362.5087, 165.8961
362.9908, 166.4771
363.4730, 167.4199
363.9551, 168.5561
364.4372, 169.3778
364.9193, 169.7293
365.4014, 170.0531
365.8835, 170.5580
366.3657, 171.1575
366.8478, 171.6809
367.3299, 172.0675
367.8120, 172.3627
368.2941, 172.5654
368.7762, 172.5570
369.2584, 172.9636
369.7405, 174.1376
370.2226, 175.6082
370.7047, 176.9534
371.1868, 178.1182
371.6689, 179.1974
372.1511, 180.2918
372.6332, 181.4031
373.1153, 182.3685
373.5974, 183.0250
374.0795, 183.7200
374.5616, 184.6458
375.0438, 185.7488
375.5259, 186.8702
376.0080, 187.9043
376.4901, 188.9213
376.9722, 190.1725
377.4543, 191.9030
377.9365, 193.5421
378.4186, 194.9632
378.9007, 196.2961
379.3828, 197.6038
379.8649, 198.9237
380.3470, 200.3976
380.8292, 202.2417
381.3113, 204.6187
381.7934, 206.9250
382.2755, 209.2003
382.7576, 211.3857
383.2397, 213.4662
383.7219, 215.4312
384.2040, 217.1683
384.6861, 218.5126
385.1682, 219.5305
385.6503, 221.2533
386.1324, 224.6089
386.6146, 227.6637
387.0967, 229.9164
387.5788, 231.7188
388.0609, 233.5065
388.5430, 235.4598
389.0251, 237.5550
389.5073, 239.7690
389.9894, 242.1683
390.4715, 244.5578
390.9536, 247.0870
391.4357, 249.4801
391.9178, 251.4087
392.4000, 252.9447
392.8821, 254.6001
393.3642, 257.0450
393.8463, 260.3300
394.3284, 262.7385
394.8105, 263.5379
395.2927, 264.2755
395.7748, 265.3722
396.2569, 266.7835
396.7390, 268.5056
397.2211, 270.6737
397.7032, 272.8554
398.1854, 273.9554
398.6675, 273.6143
399.1496, 273.2937
399.6317, 273.5114
400.1138, 273.8414
400.5959, 274.0349
401.0780, 274.0426
401.5602, 273.7834
402.0423, 273.1586
402.5244, 272.1840
403.0065, 270.9680
403.4886, 269.3510
403.9707, 267.7476
404.4529, 266.5544
404.9350, 265.6182
405.4171, 264.4905
405.8992, 262.9449
406.3813, 261.1210
406.8634, 259.1911
407.3456, 257.1425
407.8277, 255.0826
408.3098, 253.1285
408.7919, 251.1303
409.2740, 248.8444
409.7561, 246.1663
410.2383, 243.4229
410.7204, 240.6323
411.2025, 237.9060
411.6846, 235.5949
412.1667, 233.8529
412.6488, 232.3279
413.1310, 230.5871
413.6131, 228.6302
414.0952, 226.7500
414.5773, 224.9732
415.0594, 223.3087
415.5415, 221.7912
416.0237, 220.4140
416.5058, 219.1100
416.9879, 217.8155
417.4700, 216.5667
417.9521, 215.5561
418.4342, 214.6491
418.9164, 214.0863
419.3985, 214.0608
419.8806, 214.3807
420.3627, 214.7747
420.8448, 215.1557
421.3269, 215.5861
421.8091, 216.1586
422.2912, 216.8925
422.7733, 217.7339
423.2554, 218.5799
423.7375, 219.6051
424.2196, 220.9928
424.7018, 222.6621
425.1839, 224.3202
425.6660, 225.7216
426.1481, 226.9560
426.6302, 228.7050
427.1123, 231.2294
427.5945, 233.9918
428.0766, 237.0446
428.5587, 240.2308
429.0408, 243.4514
429.5229, 246.6606
430.0050, 249.8627
430.4872, 252.9753
430.9693, 255.8304
431.4514, 259.2375
431.9335, 263.5185
432.4156, 268.1531
432.8977, 273.1839
433.3799, 278.4285
433.8620, 283.5334
434.3441, 288.1160
434.8262, 292.4967
435.3083, 297.6732
435.7904, 303.9249
436.2726, 310.1526
436.7547, 315.5951
437.2368, 321.0711
437.7189, 327.4656
438.2010, 335.0002
438.6831, 342.6241
439.1653, 349.3563
439.6474, 355.3517
440.1295, 361.5909
440.6116, 368.3609
441.0937, 375.0905
441.5758, 380.9196
442.0580, 386.2112
442.5401, 392.1966
443.0222, 399.9425
443.5043, 408.0025
443.9864, 414.9633
444.4685, 420.8763
444.9507, 426.4900
445.4328, 432.0696
445.9149, 437.6434
446.3970, 443.3549
446.8791, 449.4982
447.3612, 454.9455
447.8434, 459.0907
448.3255, 462.5138
448.8076, 466.0564
449.2897, 469.8406
449.7718, 473.1368
450.2539, 475.1978
450.7361, 475.9627
451.2182, 476.7134
451.7003, 477.8805
452.1824, 478.5773
452.6645, 478.7444
453.1466, 478.1744
453.6288, 476.4627
454.1109, 473.4250
454.5930, 469.4643
455.0751, 465.3503
455.5572, 461.2171
456.0393, 456.6252
456.5215, 451.1981
457.0036, 445.7117
457.4857, 440.7235
457.9678, 436.1204
458.4499, 431.3539
458.9320, 426.0697
459.4142, 420.2480
459.8963, 413.6146
460.3784, 405.4933
460.8605, 397.7957
461.3426, 391.3659
461.8247, 385.2995
462.3069, 378.5631
462.7890, 370.9022
463.2711, 363.1995
463.7532, 356.4054
464.2353, 350.4414
464.7174, 344.8377
465.1996, 339.8424
465.6817, 334.7205
466.1638, 328.7051
466.6459, 322.1549
467.1280, 315.9546
467.6101, 310.3410
468.0923, 305.2748
468.5744, 301.0015
469.0565, 297.4039
469.5386, 293.6365
470.0207, 289.3248
470.5028, 284.7191
470.9850, 280.1982
471.4671, 275.6480
471.9492, 271.5844
472.4313, 268.6231
472.9134, 265.9099
473.3955, 262.4813
473.8777, 258.2924
474.3598, 253.7855
474.8419, 249.1220
475.3240, 244.4419
475.8061, 241.2730
476.2882, 241.3427
476.7704, 240.5756
477.2525, 237.4843
477.7346, 233.4174
478.2167, 229.9782
478.6988, 227.5917
479.1809, 225.6895
479.6631, 223.5083
480.1452, 220.9672
480.6273, 218.6296
481.1094, 216.6369
481.5915, 214.7141
482.0736, 212.7820
482.5558, 210.8567
483.0379, 208.9747
483.5200, 207.1444
484.0021, 205.3612
484.4842, 203.5787
484.9663, 201.7428
485.4485, 200.1341
485.9306, 199.1534
486.4127, 198.1175
486.8948, 196.3840
487.3769, 194.0871
487.8590, 192.0824
488.3412, 191.2128
488.8233, 190.8578
489.3054, 189.6668
489.7875, 187.5350
490.2696, 185.5935
490.7517, 184.4798
491.2339, 183.9121
491.7160, 183.2378
492.1981, 182.4116
492.6802, 181.6223
493.1623, 181.1326
493.6444, 180.6669
494.1266, 179.6659
494.6087, 178.0503
495.0908, 176.5213
495.5729, 175.7184
496.0550, 175.6387
496.5371, 175.4704
497.0193, 175.2511
497.5014, 174.9174
497.9835, 174.4228
498.4656, 173.8099
498.9477, 173.0910
499.4298, 172.2823
499.9120, 171.4967
500.3941, 170.9131
500.8762, 170.5808
501.3583, 170.2386
501.8404, 169.6949
502.3225, 169.3374
502.8047, 169.5373
503.2868, 169.9903
503.7689, 170.1565
504.2510, 169.7677
504.7331, 168.9894
505.2152, 167.9790
505.6974, 166.6198
506.1795, 165.7595
506.6616, 165.9958
507.1437, 166.3955
507.6258, 166.1922
508.1079, 165.4858
508.5901, 164.9105
509.0722, 165.0173
509.5543, 165.3120
510.0364, 164.9597
510.5185, 163.9689
511.0006, 163.0893
511.4828, 162.6900
511.9649, 162.6013
512.4470, 162.4732
512.9291, 162.2928
513.4112, 162.1222
513.8933, 162.0294
514.3754, 161.9230
514.8575, 161.7065
515.3397, 161.3740
515.8218, 160.9635
516.3039, 160.4785
516.7860, 159.9487
517.2681, 159.5959
517.7502, 159.5652
518.2324, 159.5365
518.7145, 159.5276
519.1966, 159.4796
519.6787, 159.2516
520.1608, 158.8726
520.6429, 158.6260
521.1251, 158.9031
521.6072, 159.6760
522.0893, 159.8961
522.5714, 159.2680
523.0535, 158.5389
523.5356, 157.7179
524.0178, 157.0587
524.4999, 156.9813
524.9820, 157.6439
525.4641, 158.3265
525.9462, 158.3134
526.4283, 157.7425
526.9105, 157.1884
527.3926, 156.6779
527.8747, 156.3580
528.3568, 156.5298
528.8389, 157.0041
529.3210, 157.1158
529.8032, 156.4618
530.2853, 155.8181
530.7674, 155.7203
531.2495, 155.9134
531.7316, 155.8341
532.2137, 155.3133
532.6959, 154.7464
533.1780, 154.6217
533.6601, 155.0005
534.1422, 155.4595
534.6243, 156.1699
535.1064, 156.7647
535.5886, 157.1334
536.0707, 157.2870
536.5528, 157.1712
537.0349, 156.7770
537.5170, 156.3612
537.9991, 156.4122
538.4813, 157.0752
538.9634, 157.4638
539.4455, 157.5436
539.9276, 157.3170
540.4097, 156.5568
540.8918, 155.5338
541.3740, 154.7419
541.8561, 154.3242
542.3382, 154.3184
542.8203, 155.0090
543.3024, 156.2978
543.7845, 157.2500
544.2667, 157.6476
544.7488, 157.6197
545.2309, 157.1230
545.7130, 156.2203
546.1951, 155.4903
546.6772, 155.0025
547.1594, 154.7314
547.6415, 154.7802
548.1236, 155.0300
548.6057, 155.2282
549.0878, 155.2777
549.5699, 155.1540
550.0521, 154.7551
550.5342, 153.7932
551.0163, 153.4724
551.4984, 154.4514
551.9805, 155.3003
552.4626, 155.2748
552.9448, 154.6789
553.4269, 154.1532
553.9090, 154.0025
554.3911, 154.0415
554.8732, 153.9470
555.3553, 153.6931
555.8375, 153.4760
556.3196, 153.3420
556.8017, 153.2250
557.2838, 153.0656
557.7659, 152.8857
558.2480, 152.7633
558.7302, 152.8479
559.2123, 152.8565
559.6944, 152.3190
560.1765, 151.4006
560.6586, 150.8770
561.1407, 151.0266
561.6229, 151.5174
562.1050, 152.0585
562.5871, 152.7067
563.0692, 152.7870
563.5513, 151.6810
564.0334, 150.6196
564.5156, 150.2074
564.9977, 150.2930
565.4798, 150.6128
565.9619, 151.0533
566.4440, 151.4913
566.9261, 151.7351
567.4083, 151.7658
567.8904, 151.6747
568.3725, 151.2414
568.8546, 150.9139
569.3367, 150.9914
569.8188, 151.2396
570.3010, 151.2253
570.7831, 150.7413
571.2652, 150.2030
571.7473, 150.1543
572.2294, 150.5306
572.7115, 150.7935
573.1937, 150.8273
573.6758, 150.8112
574.1579, 150.9096
574.6400, 151.0845
575.1221, 151.1833
575.6042, 151.0561
576.0864, 151.0046
576.5685, 151.3424
577.0506, 151.8067
577.5327, 151.9076
578.0148, 151.5383
578.4969, 151.0352
578.9791, 150.7442
579.4612, 150.6699
579.9433, 150.7015
580.4254, 150.8382
580.9075, 151.0894
581.3896, 151.8420
581.8718, 152.5114
582.3539, 152.2978
582.8360, 151.0992
583.3181, 149.7832
583.8002, 149.1375
584.2823, 149.1195
584.7645, 149.5435
585.2466, 150.6674
585.7287, 151.4872
586.2108, 151.2944
586.6929, 150.5915
587.1750, 150.0581
