##NAMES=Tapiolite-(Fe)
##RRUFFID=R110014
##IDEAL CHEMISTRY=Fe^2+^Ta^5+^_2_O_6_
##LOCALITY=Sapucaia do Norte district, Galileia, Minas Gerais, Brazil
##OWNER=RRUFF
##SOURCE=Luiz Menezes
##DESCRIPTION=Black to dark red on thin fragments, euhedral prismatic crystal
##STATUS=The identification of this mineral has been confirmed only by single crystal X-ray diffraction.
##URL=rruff.info/R110014
179.2626, 166.4763
179.7447, 167.2099
180.2268, 167.2593
180.7090, 167.2173
181.1911, 167.0673
181.6732, 166.7499
182.1553, 166.2801
182.6374, 165.6230
183.1195, 164.5759
183.6017, 163.0393
184.0838, 161.5898
184.5659, 160.9615
185.0480, 161.0299
185.5301, 161.1461
186.0123, 161.0627
186.4944, 160.7900
186.9765, 160.3890
187.4586, 159.8802
187.9407, 159.1613
188.4228, 158.2144
188.9050, 157.0196
189.3871, 155.2432
189.8692, 152.0462
190.3513, 147.9118
190.8334, 145.4214
191.3155, 144.9766
191.7977, 145.4897
192.2798, 145.5881
192.7619, 145.2791
193.2440, 144.1605
193.7261, 141.0551
194.2082, 136.3168
194.6904, 134.3323
195.1725, 135.9283
195.6546, 139.1526
196.1367, 140.2996
196.6188, 139.2540
197.1009, 137.8821
197.5831, 137.0898
198.0652, 136.8663
198.5473, 136.9167
199.0294, 137.3099
199.5115, 137.8428
199.9937, 137.8693
200.4758, 137.2125
200.9579, 137.1265
201.4400, 138.8374
201.9221, 142.5804
202.4042, 144.6084
202.8864, 144.1740
203.3685, 142.4575
203.8506, 142.5155
204.3327, 144.8523
204.8148, 146.9102
205.2969, 146.9520
205.7791, 144.5724
206.2612, 143.2089
206.7433, 143.3179
207.2254, 144.3515
207.7075, 144.9291
208.1896, 144.9574
208.6718, 144.8092
209.1539, 144.5981
209.6360, 144.2436
210.1181, 144.2581
210.6002, 144.7370
211.0823, 145.5640
211.5645, 146.3748
212.0466, 147.0652
212.5287, 148.0047
213.0108, 149.5721
213.4929, 152.1329
213.9750, 153.9372
214.4572, 154.8299
214.9393, 154.9351
215.4214, 154.4043
215.9035, 152.6596
216.3856, 151.4495
216.8678, 151.9922
217.3499, 155.0965
217.8320, 157.2101
218.3141, 157.6586
218.7962, 157.1425
219.2783, 158.0693
219.7605, 161.3487
220.2426, 164.3907
220.7247, 165.5419
221.2068, 163.7249
221.6889, 163.1790
222.1710, 164.6574
222.6532, 167.3882
223.1353, 168.8500
223.6174, 168.5294
224.0995, 167.8311
224.5816, 167.3697
225.0637, 166.9905
225.5459, 167.2705
226.0280, 168.4209
226.5101, 170.2004
226.9922, 171.8948
227.4743, 173.7040
227.9564, 175.1416
228.4386, 175.8577
228.9207, 175.2494
229.4028, 175.4115
229.8849, 176.8499
230.3670, 178.9599
230.8492, 180.1047
231.3313, 180.1436
231.8134, 179.4210
232.2955, 177.8291
232.7776, 174.3430
233.2597, 172.5460
233.7419, 173.2855
234.2240, 175.4980
234.7061, 176.3002
235.1882, 174.8422
235.6703, 173.2824
236.1524, 172.6293
236.6346, 173.6498
237.1167, 173.7958
237.5988, 172.7517
238.0809, 170.9579
238.5630, 169.3292
239.0451, 167.5691
239.5273, 166.4422
240.0094, 166.5002
240.4915, 168.7478
240.9736, 169.4609
241.4557, 167.9407
241.9378, 165.1997
242.4200, 163.3609
242.9021, 162.8271
243.3842, 162.5371
243.8663, 162.1172
244.3484, 161.5394
244.8306, 160.8951
245.3127, 160.0988
245.7948, 159.2867
246.2769, 158.7487
246.7590, 158.6994
247.2411, 158.5685
247.7233, 158.0934
248.2054, 157.0814
248.6875, 156.4905
249.1696, 156.6064
249.6517, 156.9596
250.1338, 156.7289
250.6160, 155.5109
251.0981, 154.4444
251.5802, 154.0302
252.0623, 154.5298
252.5444, 154.2540
253.0265, 152.7700
253.5087, 150.8695
253.9908, 149.6629
254.4729, 149.1962
254.9550, 149.3300
255.4371, 150.2831
255.9192, 152.2569
256.4014, 153.2999
256.8835, 153.0836
257.3656, 152.2609
257.8477, 151.5237
258.3298, 150.6877
258.8120, 150.3783
259.2941, 150.9775
259.7762, 152.5849
260.2583, 153.3166
260.7404, 152.7188
261.2225, 151.8125
261.7047, 151.8159
262.1868, 153.2689
262.6689, 154.1622
263.1510, 153.7545
263.6331, 152.1108
264.1152, 151.8024
264.5974, 153.5662
265.0795, 155.5297
265.5616, 155.6240
266.0437, 153.0768
266.5258, 151.2796
267.0079, 151.1322
267.4901, 152.3813
267.9722, 152.6433
268.4543, 151.5052
268.9364, 150.2208
269.4185, 149.9377
269.9006, 150.9675
270.3828, 151.6196
270.8649, 151.5086
271.3470, 150.8393
271.8291, 150.5590
272.3112, 150.6894
272.7933, 151.1376
273.2755, 151.9896
273.7576, 153.3685
274.2397, 154.2741
274.7218, 154.5021
275.2039, 154.2208
275.6860, 154.0079
276.1682, 153.9646
276.6503, 153.6025
277.1324, 152.2271
277.6145, 149.6852
278.0966, 148.4783
278.5787, 149.1058
279.0609, 150.8096
279.5430, 152.0561
280.0251, 152.8298
280.5072, 153.2263
280.9893, 153.2717
281.4715, 152.9689
281.9536, 152.2622
282.4357, 150.9350
282.9178, 149.6160
283.3999, 149.5994
283.8820, 150.9581
284.3642, 152.2534
284.8463, 152.9716
285.3284, 153.0962
285.8105, 152.2176
286.2926, 150.0515
286.7747, 147.7680
287.2569, 147.0950
287.7390, 147.9808
288.2211, 149.1134
288.7032, 150.3127
289.1853, 151.3789
289.6674, 151.2231
290.1496, 149.7041
290.6317, 147.9068
291.1138, 147.0999
291.5959, 147.1549
292.0780, 147.1641
292.5602, 146.6012
293.0423, 145.8745
293.5244, 146.3344
294.0065, 148.0374
294.4886, 149.5907
294.9707, 149.3891
295.4529, 147.9089
295.9350, 146.9048
296.4171, 147.0173
296.8992, 147.6690
297.3813, 147.9253
297.8634, 147.7997
298.3456, 147.4345
298.8277, 146.9241
299.3098, 146.2564
299.7919, 145.3468
300.2740, 144.0535
300.7561, 142.7459
301.2383, 141.8705
301.7204, 141.4007
302.2025, 141.2833
302.6846, 141.4954
303.1667, 142.0295
303.6488, 143.0152
304.1310, 144.6397
304.6131, 146.1620
305.0952, 147.0426
305.5773, 147.2482
306.0594, 146.6915
306.5415, 144.6765
307.0237, 142.1973
307.5058, 140.3158
307.9879, 139.2012
308.4700, 138.2775
308.9521, 137.1830
309.4343, 135.9652
309.9164, 134.6863
310.3985, 133.2709
310.8806, 131.8603
311.3627, 130.6424
311.8448, 129.6182
312.3270, 128.4310
312.8091, 126.4993
313.2912, 124.3989
313.7733, 122.8103
314.2554, 122.3841
314.7375, 122.1765
315.2197, 121.7372
315.7018, 121.0801
316.1839, 120.3941
316.6660, 119.8596
317.1481, 119.2792
317.6302, 118.4783
318.1124, 117.0015
318.5945, 115.8072
319.0766, 115.3744
319.5587, 115.5170
320.0408, 115.5780
320.5229, 115.2137
321.0051, 114.8078
321.4872, 114.5850
321.9693, 114.6970
322.4514, 114.7764
322.9335, 114.6010
323.4156, 114.3548
323.8978, 114.3922
324.3799, 115.0827
324.8620, 115.7985
325.3441, 116.4081
325.8262, 117.0456
326.3083, 117.1029
326.7905, 115.9506
327.2726, 114.3787
327.7547, 113.3744
328.2368, 113.6098
328.7189, 113.7393
329.2010, 113.4226
329.6832, 112.5975
330.1653, 112.0743
330.6474, 112.3700
331.1295, 112.5958
331.6116, 111.9652
332.0938, 109.5795
332.5759, 107.7482
333.0580, 106.7146
333.5401, 106.4576
334.0222, 107.0089
334.5043, 109.0708
334.9865, 110.9788
335.4686, 111.7022
335.9507, 110.8419
336.4328, 109.7873
336.9149, 108.2830
337.3970, 106.7761
337.8792, 106.7215
338.3613, 108.7100
338.8434, 110.4782
339.3255, 110.8627
339.8076, 109.6291
340.2898, 108.8121
340.7719, 108.4412
341.2540, 108.4243
341.7361, 108.6491
342.2182, 109.1180
342.7003, 109.7841
343.1825, 110.7459
343.6646, 111.9259
344.1467, 112.7428
344.6288, 113.1848
345.1109, 113.3571
345.5930, 113.2811
346.0752, 112.9824
346.5573, 112.7131
347.0394, 112.5160
347.5215, 112.3966
348.0036, 112.2966
348.4857, 112.2222
348.9679, 112.3945
349.4500, 113.1592
349.9321, 114.3165
350.4142, 115.3398
350.8963, 116.2237
351.3784, 116.7731
351.8606, 116.2599
352.3427, 115.0391
352.8248, 114.4199
353.3069, 115.9414
353.7890, 118.2003
354.2711, 119.1465
354.7533, 118.5057
355.2354, 117.6311
355.7175, 117.5765
356.1996, 118.0938
356.6817, 118.7500
357.1638, 119.7508
357.6460, 120.5391
358.1281, 120.2984
358.6102, 119.1517
359.0923, 118.6493
359.5744, 120.7611
360.0565, 123.4654
360.5387, 124.7192
361.0208, 122.5382
361.5029, 120.5818
361.9850, 120.7130
362.4671, 122.4030
362.9492, 124.0374
363.4314, 125.4477
363.9135, 126.3675
364.3956, 126.5144
364.8777, 125.3770
365.3598, 124.6124
365.8419, 124.6415
366.3241, 125.2342
366.8062, 126.0499
367.2883, 127.9420
367.7704, 129.1844
368.2526, 128.8482
368.7347, 126.3982
369.2168, 125.4552
369.6989, 127.7671
370.1810, 130.5474
370.6631, 131.4320
371.1453, 128.2831
371.6274, 126.4440
372.1095, 126.9931
372.5916, 129.5269
373.0737, 131.3680
373.5558, 132.4811
374.0380, 132.9794
374.5201, 132.6982
375.0022, 131.0875
375.4843, 130.6226
375.9664, 131.7740
376.4485, 133.7659
376.9307, 135.1201
377.4128, 135.7491
377.8949, 136.0514
378.3770, 136.0150
378.8591, 135.6757
379.3412, 135.8952
379.8234, 136.8027
380.3055, 137.8067
380.7876, 138.0087
381.2697, 137.4827
381.7518, 137.5784
382.2339, 138.9751
382.7161, 140.9657
383.1982, 141.7450
383.6803, 141.3468
384.1624, 140.9346
384.6445, 141.4621
385.1266, 142.6323
385.6088, 143.7136
386.0909, 144.5803
386.5730, 145.3816
387.0551, 146.4882
387.5372, 147.6936
388.0193, 148.4191
388.5015, 147.7172
388.9836, 146.7145
389.4657, 146.9185
389.9478, 148.4552
390.4299, 149.6007
390.9120, 148.3544
391.3942, 146.2895
391.8763, 145.3693
392.3584, 147.1325
392.8405, 149.3774
393.3226, 151.1774
393.8047, 152.5650
394.2869, 153.6867
394.7690, 154.0728
395.2511, 154.5703
395.7332, 155.8703
396.2154, 158.9303
396.6975, 161.0063
397.1796, 160.7982
397.6617, 159.3719
398.1438, 158.5633
398.6259, 158.8797
399.1081, 159.5708
399.5902, 160.7074
400.0723, 162.4830
400.5544, 163.2963
401.0365, 162.4240
401.5186, 161.1208
402.0008, 160.3798
402.4829, 160.1998
402.9650, 160.5987
403.4471, 161.8046
403.9292, 163.5936
404.4113, 164.9834
404.8935, 165.8710
405.3756, 166.6184
405.8577, 167.5571
406.3398, 168.8166
406.8219, 169.1590
407.3040, 168.3657
407.7862, 167.0527
408.2683, 165.9617
408.7504, 165.0891
409.2325, 164.6131
409.7146, 164.6393
410.1967, 165.1022
410.6789, 166.1029
411.1610, 167.6855
411.6431, 168.7343
412.1252, 167.4786
412.6073, 164.8606
413.0894, 163.7975
413.5716, 165.3677
414.0537, 167.5782
414.5358, 167.9384
415.0179, 166.8678
415.5000, 165.7498
415.9821, 165.0367
416.4643, 164.8247
416.9464, 165.3154
417.4285, 166.5469
417.9106, 168.0671
418.3927, 170.0496
418.8748, 172.0002
419.3570, 173.2988
419.8391, 173.4113
420.3212, 173.1643
420.8033, 172.7202
421.2854, 172.1505
421.7675, 171.7696
422.2497, 171.5407
422.7318, 171.6279
423.2139, 172.2282
423.6960, 173.8519
424.1781, 174.9184
424.6602, 174.6118
425.1424, 173.8242
425.6245, 173.8582
426.1066, 175.0487
426.5887, 176.6519
427.0709, 178.7023
427.5530, 181.1985
428.0351, 183.1435
428.5172, 184.1794
428.9993, 185.1802
429.4814, 186.8194
429.9636, 189.2738
430.4457, 191.7625
430.9278, 194.4363
431.4099, 196.8969
431.8920, 197.8977
432.3741, 197.1895
432.8563, 197.0347
433.3384, 198.8175
433.8205, 202.1983
434.3026, 204.7271
434.7847, 206.3410
435.2668, 207.7142
435.7490, 209.2629
436.2311, 211.0987
436.7132, 213.6159
437.1953, 217.1168
437.6774, 221.0737
438.1595, 224.8329
438.6417, 228.4666
439.1238, 232.2737
439.6059, 236.8669
440.0880, 241.5060
440.5701, 245.2673
441.0522, 247.9495
441.5344, 250.5948
442.0165, 253.7139
442.4986, 257.2242
442.9807, 261.0116
443.4628, 265.4510
443.9449, 269.7559
444.4271, 273.4651
444.9092, 276.7007
445.3913, 280.2092
445.8734, 284.3346
446.3555, 288.5694
446.8376, 292.6190
447.3198, 296.2097
447.8019, 300.1447
448.2840, 304.9032
448.7661, 309.7845
449.2482, 313.7498
449.7303, 316.1509
450.2125, 318.7133
450.6946, 322.0936
451.1767, 326.1719
451.6588, 328.9240
452.1409, 330.1494
452.6230, 330.5749
453.1052, 330.4873
453.5873, 329.8199
454.0694, 329.5787
454.5515, 329.9345
455.0337, 330.5497
455.5158, 331.3684
455.9979, 332.2885
456.4800, 331.6730
456.9621, 327.7715
457.4442, 322.1515
457.9264, 318.7027
458.4085, 317.3650
458.8906, 316.1893
459.3727, 313.7596
459.8548, 310.4281
460.3369, 306.7326
460.8191, 302.6023
461.3012, 298.4865
461.7833, 294.6475
462.2654, 291.0842
462.7475, 287.8061
463.2296, 284.9017
463.7118, 282.1705
464.1939, 279.6548
464.6760, 277.3376
465.1581, 274.6236
465.6402, 270.7046
466.1223, 266.7097
466.6045, 263.4845
467.0866, 262.0855
467.5687, 260.2912
468.0508, 257.5079
468.5329, 254.2806
469.0150, 251.8664
469.4972, 251.1633
469.9793, 249.9207
470.4614, 247.0298
470.9435, 242.3174
471.4256, 239.7314
471.9077, 240.0440
472.3899, 240.9496
472.8720, 240.4529
473.3541, 238.4616
473.8362, 235.8935
474.3183, 232.5592
474.8004, 229.1824
475.2826, 227.3634
475.7647, 227.0117
476.2468, 226.8560
476.7289, 226.4138
477.2110, 225.6722
477.6931, 224.5811
478.1753, 223.1372
478.6574, 221.4767
479.1395, 219.4483
479.6216, 217.3481
480.1037, 215.6644
480.5858, 214.7418
481.0680, 213.8406
481.5501, 212.2300
482.0322, 210.2743
482.5143, 208.7471
482.9964, 208.3379
483.4786, 208.0964
483.9607, 207.5932
484.4428, 206.7908
484.9249, 205.9248
485.4070, 205.1283
485.8892, 204.2397
486.3713, 203.1063
486.8534, 200.6951
487.3355, 199.6391
487.8176, 200.9316
488.2997, 203.3029
488.7819, 203.8974
489.2640, 201.7786
489.7461, 200.0186
490.2282, 199.8363
490.7103, 201.0927
491.1924, 201.3035
491.6746, 200.2541
492.1567, 199.0429
492.6388, 198.9037
493.1209, 199.6389
493.6030, 199.3156
494.0851, 197.3226
494.5673, 195.1630
495.0494, 195.5835
495.5315, 197.8565
496.0136, 199.3430
496.4957, 198.0091
496.9778, 195.7330
497.4600, 194.6653
497.9421, 194.7062
498.4242, 194.6860
498.9063, 193.6138
499.3884, 192.3371
499.8705, 191.5715
500.3527, 191.5330
500.8348, 191.8414
501.3169, 192.7928
501.7990, 193.8954
502.2811, 194.4591
502.7632, 194.1273
503.2454, 193.4872
503.7275, 192.2774
504.2096, 190.6358
504.6917, 190.1358
505.1738, 191.6729
505.6559, 193.1447
506.1381, 193.2946
506.6202, 191.6276
507.1023, 190.7381
507.5844, 190.8723
508.0665, 191.3452
508.5486, 191.0950
509.0308, 190.0942
509.5129, 189.5889
509.9950, 190.1517
510.4771, 191.1465
510.9592, 191.0602
511.4413, 189.9931
511.9235, 188.9456
512.4056, 188.6952
512.8877, 188.8054
513.3698, 188.7262
513.8519, 188.4309
514.3340, 187.6884
514.8162, 185.3237
515.2983, 182.7824
515.7804, 181.8692
516.2625, 184.5804
516.7446, 187.1560
517.2267, 188.0924
517.7089, 187.7754
518.1910, 187.1250
518.6731, 186.0333
519.1552, 184.9279
519.6373, 183.9663
520.1194, 183.1538
520.6016, 182.3442
521.0837, 181.3337
521.5658, 180.5589
522.0479, 180.4658
522.5300, 181.3856
523.0121, 181.7135
523.4943, 181.1520
523.9764, 180.2068
524.4585, 179.7773
524.9406, 179.8786
525.4227, 180.0949
525.9048, 180.2829
526.3870, 180.4826
526.8691, 181.0017
527.3513, 181.7937
527.8334, 182.1400
528.3155, 181.0588
528.7976, 179.3820
529.2797, 178.3780
529.7618, 178.2819
530.2440, 178.3243
530.7261, 177.7580
531.2082, 177.0718
531.6903, 176.9006
532.1724, 178.2569
532.6545, 179.3011
533.1367, 178.9942
533.6188, 177.8161
534.1009, 177.4767
534.5830, 179.6721
535.0651, 181.3402
535.5472, 181.2004
536.0294, 178.8638
536.5115, 177.6218
536.9936, 178.1282
537.4757, 178.8178
537.9578, 178.1419
538.4399, 175.7241
538.9221, 174.3140
539.4042, 174.2587
539.8863, 175.1810
540.3684, 177.0783
540.8505, 179.7713
541.3326, 181.0454
541.8148, 179.0370
542.2969, 175.6391
542.7790, 174.2531
543.2611, 174.7036
543.7432, 175.5144
544.2253, 175.9820
544.7075, 176.1460
545.1896, 175.9356
545.6717, 175.2468
546.1538, 174.7319
546.6359, 174.9209
547.1180, 175.3621
547.6002, 175.5731
548.0823, 175.8101
548.5644, 175.3839
549.0465, 173.2798
549.5286, 170.3771
550.0107, 169.3088
550.4929, 171.4020
550.9750, 173.3280
551.4571, 173.9203
551.9392, 173.1700
552.4213, 172.9711
552.9034, 173.5374
553.3856, 173.9819
553.8677, 173.1737
554.3498, 171.2989
554.8319, 170.8195
555.3140, 172.2119
555.7961, 174.1748
556.2783, 175.1992
556.7604, 175.4295
557.2425, 175.2120
557.7246, 174.2744
558.2067, 173.3651
558.6888, 173.4444
559.1710, 174.2253
559.6531, 174.7313
560.1352, 174.1946
560.6173, 173.4707
561.0994, 173.1280
561.5815, 173.2812
562.0637, 173.1970
562.5458, 172.2112
563.0279, 171.2807
563.5100, 171.1392
563.9921, 172.7371
564.4742, 173.3786
564.9564, 172.5163
565.4385, 171.0516
565.9206, 170.6794
566.4027, 171.7122
566.8848, 172.2178
567.3669, 171.3856
567.8491, 169.7666
568.3312, 169.2888
568.8133, 169.9105
569.2954, 170.5176
569.7775, 170.2638
570.2596, 169.5442
570.7418, 168.9639
571.2239, 168.5459
571.7060, 168.5461
572.1881, 169.8431
572.6702, 171.3589
573.1523, 171.8426
573.6345, 170.4549
574.1166, 168.9511
574.5987, 167.6860
575.0808, 166.7935
575.5629, 166.4825
576.0450, 167.4396
576.5272, 168.2766
577.0093, 168.9011
577.4914, 169.2468
577.9735, 168.6455
578.4556, 166.3397
578.9377, 164.6739
579.4199, 165.2482
579.9020, 168.1206
580.3841, 169.4088
580.8662, 168.9272
581.3483, 167.8699
581.8304, 167.3604
582.3126, 167.2598
582.7947, 167.0680
583.2768, 166.6584
583.7589, 166.2389
584.2410, 166.0493
584.7231, 166.0091
585.2053, 165.9594
585.6874, 165.6494
586.1696, 165.4769
586.6517, 165.7705
587.1338, 166.4178
587.6159, 166.9250
588.0980, 167.1016
588.5801, 167.1596
589.0623, 167.0347
589.5444, 166.5885
590.0265, 166.9659
590.5086, 168.8477
590.9907, 170.6848
591.4728, 171.1291
591.9550, 169.9123
592.4371, 168.9500
592.9192, 168.2932
593.4013, 168.1613
593.8834, 169.5756
594.3655, 172.1378
594.8477, 173.1316
595.3298, 170.7303
595.8119, 167.5433
596.2940, 167.4321
596.7761, 169.6230
597.2582, 171.5121
597.7404, 171.3609
598.2225, 170.6917
598.7046, 170.5585
599.1867, 171.0179
599.6688, 171.4046
600.1509, 171.4072
600.6331, 171.3539
601.1152, 171.4375
601.5973, 171.6623
602.0794, 172.0398
602.5615, 172.6756
603.0436, 173.3595
603.5258, 173.9058
604.0079, 174.3632
604.4900, 174.3195
604.9721, 173.4514
605.4542, 172.4324
605.9363, 172.8747
606.4185, 174.6087
606.9006, 176.1500
607.3827, 176.6164
607.8648, 176.6086
608.3469, 176.9062
608.8290, 177.4873
609.3112, 178.2114
609.7933, 179.1637
610.2754, 180.1121
610.7575, 180.9058
611.2396, 181.5080
611.7217, 181.9792
612.2039, 181.9854
612.6860, 182.0742
613.1681, 182.6826
613.6502, 184.1043
614.1323, 185.5381
614.6144, 187.0408
615.0966, 188.4771
615.5787, 189.7573
616.0608, 190.9212
616.5429, 191.5452
617.0250, 191.2882
617.5071, 190.7166
617.9893, 191.0509
618.4714, 192.2573
618.9535, 194.0083
619.4356, 197.0061
619.9177, 200.0068
620.3998, 201.2354
620.8820, 200.8235
621.3641, 200.1208
621.8462, 199.4039
622.3283, 199.0053
622.8104, 199.1182
623.2925, 199.7125
623.7747, 201.0157
624.2568, 203.4786
624.7389, 206.4167
625.2210, 209.4595
625.7031, 213.6212
626.1852, 215.4244
626.6674, 213.7742
627.1495, 210.7168
627.6316, 209.4223
628.1137, 209.9137
628.5958, 211.7828
629.0779, 215.5969
629.5601, 219.9372
630.0422, 221.8283
630.5243, 221.6321
631.0064, 221.1315
631.4885, 221.0718
631.9706, 221.3328
632.4528, 221.6680
632.9349, 222.1222
633.4170, 223.2422
633.8991, 226.3662
634.3812, 229.4006
634.8633, 231.0403
635.3455, 230.6987
635.8276, 230.2879
636.3097, 229.4680
636.7918, 228.9624
637.2739, 229.5538
637.7560, 231.6560
638.2382, 233.0487
638.7203, 233.2891
639.2024, 233.2475
639.6845, 234.4337
640.1666, 236.6861
640.6487, 238.6767
641.1309, 240.0772
641.6130, 240.9442
642.0951, 241.0410
642.5772, 240.6159
643.0594, 240.3692
643.5415, 240.7876
644.0236, 241.3587
644.5057, 241.5806
644.9879, 241.5497
645.4700, 242.1917
645.9521, 244.6974
646.4342, 247.0440
646.9163, 248.2036
647.3984, 247.9008
647.8806, 248.4411
648.3627, 250.1369
648.8448, 252.1128
649.3269, 253.4781
649.8090, 254.2420
650.2911, 256.0747
650.7733, 259.2528
651.2554, 262.9487
651.7375, 266.3307
652.2196, 269.4918
652.7017, 272.6830
653.1838, 275.9537
653.6660, 279.3093
654.1481, 282.3807
654.6302, 285.5786
655.1123, 289.6867
655.5944, 295.9851
656.0765, 302.1015
656.5587, 307.3724
657.0408, 311.8310
657.5229, 315.7944
658.0050, 318.5635
658.4871, 321.8939
658.9692, 326.3771
659.4514, 331.9651
659.9335, 338.3863
660.4156, 345.7274
660.8977, 352.9818
661.3798, 359.3599
661.8619, 365.0141
662.3441, 370.4271
662.8262, 375.6204
663.3083, 380.8220
663.7904, 386.4029
664.2725, 392.0040
664.7546, 397.1448
665.2368, 401.4811
665.7189, 406.0942
666.2010, 411.0192
666.6831, 416.5974
667.1652, 423.3041
667.6473, 432.1769
668.1295, 440.5684
668.6116, 448.7777
669.0937, 456.1578
669.5758, 461.0348
670.0579, 463.2084
670.5400, 465.0975
671.0222, 467.4818
671.5043, 469.9267
671.9864, 471.6257
672.4685, 472.6153
672.9506, 473.1028
673.4327, 473.5021
673.9149, 473.2115
674.3970, 471.3916
674.8791, 468.1996
675.3612, 464.9396
675.8433, 462.4152
