##NAMES=Taramite
##RRUFFID=R070238
##IDEAL CHEMISTRY=Na(NaCa)(Mg_3_Al_2_)(Si_6_Al_2_)O_22_(OH)_2_
##LOCALITY=Ilmen Mts, Chelyabinsk Oblast', Urals Region, Russia
##OWNER=RRUFF
##SOURCE=Michael Scott
##DESCRIPTION=Lustrous black crystals in matrix
##STATUS=The identification of this mineral has been confirmed only by single crystal X-ray diffraction.
##URL=rruff.info/R070238
163.1611, 1035.293
163.6432, 1046.867
164.1253, 1056.297
164.6075, 1058.002
165.0896, 1051.714
165.5717, 1046.956
166.0538, 1050.499
166.5359, 1058.676
167.0180, 1066.222
167.5002, 1069.530
167.9823, 1072.332
168.4644, 1078.078
168.9465, 1087.501
169.4286, 1096.510
169.9107, 1102.324
170.3929, 1105.496
170.8750, 1107.343
171.3571, 1109.496
171.8392, 1110.218
172.3213, 1106.477
172.8034, 1096.467
173.2856, 1086.837
173.7677, 1085.418
174.2498, 1090.104
174.7319, 1093.681
175.2140, 1087.336
175.6961, 1078.124
176.1783, 1078.674
176.6604, 1095.793
177.1425, 1115.152
177.6246, 1115.517
178.1067, 1099.722
178.5888, 1086.202
179.0710, 1093.332
179.5531, 1112.663
180.0352, 1125.220
180.5173, 1124.565
180.9994, 1116.861
181.4815, 1110.164
181.9637, 1104.488
182.4458, 1102.058
182.9279, 1107.851
183.4100, 1119.305
183.8921, 1126.635
184.3742, 1125.056
184.8564, 1118.447
185.3385, 1115.339
185.8206, 1115.769
186.3027, 1118.932
186.7848, 1125.896
187.2669, 1135.921
187.7491, 1143.620
188.2312, 1146.346
188.7133, 1145.251
189.1954, 1144.585
189.6775, 1144.470
190.1596, 1144.253
190.6418, 1142.747
191.1239, 1140.007
191.6060, 1137.855
192.0881, 1136.318
192.5702, 1135.647
193.0524, 1138.790
193.5345, 1146.628
194.0166, 1155.966
194.4987, 1161.784
194.9808, 1163.916
195.4629, 1165.036
195.9451, 1165.899
196.4272, 1166.536
196.9093, 1167.921
197.3914, 1169.827
197.8735, 1172.884
198.3556, 1179.514
198.8378, 1190.547
199.3199, 1199.765
199.8020, 1202.653
200.2841, 1198.641
200.7662, 1196.984
201.2483, 1199.518
201.7305, 1203.496
202.2126, 1200.813
202.6947, 1189.429
203.1768, 1179.001
203.6589, 1177.319
204.1410, 1186.470
204.6232, 1188.916
205.1053, 1180.635
205.5874, 1165.740
206.0695, 1158.328
206.5516, 1160.169
207.0337, 1164.853
207.5159, 1168.122
207.9980, 1169.444
208.4801, 1171.718
208.9622, 1175.789
209.4443, 1181.070
209.9264, 1185.166
210.4086, 1188.934
210.8907, 1189.778
211.3728, 1184.562
211.8549, 1170.746
212.3370, 1159.371
212.8191, 1152.013
213.3013, 1148.476
213.7834, 1146.560
214.2655, 1146.029
214.7476, 1147.518
215.2297, 1152.320
215.7118, 1162.506
216.1940, 1170.373
216.6761, 1174.346
217.1582, 1174.575
217.6403, 1173.298
218.1224, 1169.018
218.6045, 1165.250
219.0867, 1166.239
219.5688, 1175.243
220.0509, 1181.128
220.5330, 1180.350
221.0151, 1172.694
221.4972, 1168.458
221.9794, 1168.540
222.4615, 1170.991
222.9436, 1174.767
223.4257, 1183.404
223.9078, 1185.729
224.3899, 1176.874
224.8721, 1155.325
225.3542, 1141.346
225.8363, 1137.780
226.3184, 1138.959
226.8005, 1137.894
227.2827, 1132.376
227.7648, 1128.792
228.2469, 1128.258
228.7290, 1130.537
229.2111, 1138.392
229.6932, 1156.572
230.1754, 1176.388
230.6575, 1185.939
231.1396, 1179.559
231.6217, 1172.751
232.1038, 1169.603
232.5859, 1170.678
233.0681, 1172.733
233.5502, 1177.496
234.0323, 1182.000
234.5144, 1180.889
234.9965, 1167.961
235.4786, 1160.017
235.9608, 1163.393
236.4429, 1181.040
236.9250, 1196.270
237.4071, 1209.959
237.8892, 1220.552
238.3713, 1225.120
238.8535, 1220.831
239.3356, 1215.208
239.8177, 1210.215
240.2998, 1205.512
240.7819, 1202.366
241.2640, 1198.786
241.7462, 1197.862
242.2283, 1206.577
242.7104, 1234.546
243.1925, 1256.213
243.6746, 1260.786
244.1567, 1240.372
244.6389, 1230.413
245.1210, 1235.783
245.6031, 1248.677
246.0852, 1255.033
246.5673, 1251.182
247.0494, 1247.061
247.5316, 1246.628
248.0137, 1251.902
248.4958, 1253.761
248.9779, 1250.386
249.4600, 1244.604
249.9421, 1241.687
250.4243, 1242.321
250.9064, 1244.574
251.3885, 1248.520
251.8706, 1255.942
252.3527, 1258.840
252.8348, 1255.626
253.3170, 1248.897
253.7991, 1243.698
254.2812, 1241.309
254.7633, 1238.094
255.2454, 1232.315
255.7275, 1222.963
256.2097, 1214.620
256.6918, 1206.082
257.1739, 1199.466
257.6560, 1200.273
258.1381, 1214.138
258.6202, 1223.709
259.1024, 1220.117
259.5845, 1197.891
260.0666, 1186.065
260.5487, 1188.632
261.0308, 1198.603
261.5129, 1202.466
261.9951, 1196.684
262.4772, 1193.229
262.9593, 1198.847
263.4414, 1217.495
263.9235, 1225.533
264.4056, 1218.898
264.8878, 1205.506
265.3699, 1200.294
265.8520, 1206.984
266.3341, 1211.003
266.8162, 1203.614
267.2983, 1181.012
267.7805, 1173.486
268.2626, 1186.577
268.7447, 1208.696
269.2268, 1219.120
269.7089, 1214.701
270.1910, 1209.875
270.6732, 1210.509
271.1553, 1217.285
271.6374, 1222.933
272.1195, 1227.349
272.6016, 1230.800
273.0837, 1232.998
273.5659, 1233.428
274.0480, 1235.304
274.5301, 1241.097
275.0122, 1251.044
275.4943, 1257.094
275.9764, 1259.064
276.4586, 1257.481
276.9407, 1251.079
277.4228, 1238.944
277.9049, 1230.529
278.3870, 1230.999
278.8691, 1239.894
279.3513, 1246.783
279.8334, 1251.527
280.3155, 1254.616
280.7976, 1256.318
281.2798, 1256.564
281.7619, 1256.669
282.2440, 1256.730
282.7261, 1256.916
283.2082, 1258.418
283.6903, 1261.199
284.1725, 1265.430
284.6546, 1272.784
285.1367, 1282.993
285.6188, 1290.640
286.1009, 1294.089
286.5830, 1293.443
287.0652, 1287.840
287.5473, 1276.628
288.0294, 1264.655
288.5115, 1257.316
288.9936, 1254.202
289.4757, 1252.231
289.9579, 1250.994
290.4400, 1249.987
290.9221, 1245.696
291.4042, 1237.538
291.8863, 1233.359
292.3684, 1247.009
292.8506, 1273.425
293.3327, 1290.552
293.8148, 1287.524
294.2969, 1273.327
294.7790, 1265.520
295.2611, 1264.091
295.7433, 1263.194
296.2254, 1256.424
296.7075, 1245.910
297.1896, 1237.950
297.6717, 1235.007
298.1538, 1234.770
298.6360, 1235.525
299.1181, 1236.955
299.6002, 1235.220
300.0823, 1222.687
300.5644, 1205.396
301.0465, 1195.205
301.5287, 1198.385
302.0108, 1205.926
302.4929, 1207.051
302.9750, 1202.946
303.4571, 1200.347
303.9392, 1209.320
304.4214, 1220.887
304.9035, 1221.898
305.3856, 1204.064
305.8677, 1183.173
306.3498, 1173.940
306.8319, 1173.719
307.3141, 1172.996
307.7962, 1163.827
308.2783, 1152.580
308.7604, 1145.538
309.2425, 1145.019
309.7246, 1146.883
310.2068, 1151.784
310.6889, 1157.420
311.1710, 1157.921
311.6531, 1144.058
312.1352, 1127.879
312.6173, 1119.191
313.0995, 1122.235
313.5816, 1125.219
314.0637, 1122.116
314.5458, 1115.147
315.0279, 1108.490
315.5100, 1102.245
315.9922, 1097.862
316.4743, 1097.708
316.9564, 1104.213
317.4385, 1105.949
317.9206, 1091.725
318.4027, 1072.157
318.8849, 1062.081
319.3670, 1076.979
319.8491, 1091.928
320.3312, 1094.599
320.8133, 1080.514
321.2954, 1076.354
321.7776, 1099.365
322.2597, 1130.161
322.7418, 1148.080
323.2239, 1137.756
323.7060, 1126.662
324.1881, 1121.630
324.6703, 1123.497
325.1524, 1123.502
325.6345, 1119.465
326.1166, 1114.183
326.5987, 1109.799
327.0808, 1101.792
327.5630, 1100.088
328.0451, 1108.863
328.5272, 1127.444
329.0093, 1141.602
329.4914, 1153.617
329.9735, 1158.902
330.4557, 1153.172
330.9378, 1125.399
331.4199, 1105.956
331.9020, 1099.349
332.3841, 1103.161
332.8662, 1105.875
333.3484, 1107.473
333.8305, 1107.956
334.3126, 1106.692
334.7947, 1102.051
335.2768, 1101.017
335.7589, 1105.281
336.2411, 1112.601
336.7232, 1117.263
337.2053, 1118.437
337.6874, 1119.280
338.1695, 1121.248
338.6516, 1124.420
339.1338, 1128.085
339.6159, 1132.567
340.0980, 1136.959
340.5801, 1139.780
341.0622, 1141.036
341.5443, 1140.840
342.0265, 1138.971
342.5086, 1135.568
342.9907, 1130.260
343.4728, 1121.842
343.9549, 1116.427
344.4370, 1127.407
344.9192, 1152.245
345.4013, 1166.304
345.8834, 1153.510
346.3655, 1125.627
346.8476, 1115.170
347.3297, 1122.560
347.8119, 1135.262
348.2940, 1144.142
348.7761, 1149.254
349.2582, 1150.375
349.7403, 1145.904
350.2225, 1139.064
350.7046, 1133.342
351.1867, 1128.856
351.6688, 1126.926
352.1509, 1131.960
352.6331, 1139.262
353.1152, 1141.608
353.5973, 1136.458
354.0794, 1127.749
354.5615, 1116.114
355.0436, 1103.195
355.5258, 1093.982
356.0079, 1094.811
356.4900, 1098.555
356.9721, 1098.709
357.4542, 1093.297
357.9363, 1087.612
358.4185, 1083.580
358.9006, 1081.391
359.3827, 1081.372
359.8648, 1087.972
360.3469, 1093.350
360.8290, 1091.759
361.3112, 1081.331
361.7933, 1074.215
362.2754, 1080.561
362.7575, 1089.810
363.2396, 1090.485
363.7217, 1070.909
364.2039, 1051.584
364.6860, 1037.189
365.1681, 1027.864
365.6502, 1021.667
366.1323, 1018.575
366.6144, 1018.332
367.0966, 1020.845
367.5787, 1032.328
368.0608, 1038.888
368.5429, 1039.149
369.0250, 1033.612
369.5071, 1024.370
369.9893, 1005.640
370.4714, 989.9432
370.9535, 983.7804
371.4356, 991.2606
371.9177, 999.5209
372.3998, 1010.439
372.8820, 1021.042
373.3641, 1024.274
373.8462, 1018.519
374.3283, 1009.505
374.8104, 997.4633
375.2925, 981.3257
375.7747, 975.4476
376.2568, 983.3726
376.7389, 994.4352
377.2210, 990.8274
377.7031, 970.9721
378.1852, 959.9481
378.6674, 970.8707
379.1495, 996.4630
379.6316, 1004.190
380.1137, 992.6403
380.5958, 975.4185
381.0779, 962.9114
381.5601, 954.9083
382.0422, 951.8937
382.5243, 956.1959
383.0064, 962.4917
383.4885, 960.0489
383.9706, 950.1354
384.4528, 942.2676
384.9349, 945.6000
385.4170, 954.4905
385.8991, 959.0874
386.3812, 956.8483
386.8633, 953.8768
387.3455, 957.6465
387.8276, 965.1353
388.3097, 969.4684
388.7918, 963.5278
389.2739, 955.3203
389.7560, 952.6998
390.2382, 956.9809
390.7203, 958.1565
391.2024, 946.8773
391.6845, 930.8927
392.1666, 918.9896
392.6487, 917.1183
393.1309, 917.1188
393.6130, 915.3189
394.0951, 912.0068
394.5772, 911.3514
395.0593, 917.1431
395.5414, 924.1981
396.0236, 929.2261
396.5057, 931.4387
396.9878, 932.0150
397.4699, 930.3396
397.9520, 926.9839
398.4341, 923.6005
398.9163, 915.6311
399.3984, 912.4327
399.8805, 919.0917
400.3626, 941.9788
400.8447, 955.8586
401.3268, 959.6878
401.8090, 955.2466
402.2911, 942.1852
402.7732, 913.3361
403.2553, 895.5284
403.7374, 900.3744
404.2195, 926.0134
404.7017, 936.8311
405.1838, 928.9338
405.6659, 916.7189
406.1480, 914.4218
406.6301, 922.2255
407.1122, 925.9931
407.5944, 921.6803
408.0765, 913.4296
408.5586, 910.6595
409.0407, 913.2981
409.5228, 919.3011
410.0049, 927.8611
410.4871, 938.6850
410.9692, 953.0458
411.4513, 972.8734
411.9334, 989.0272
412.4155, 989.6078
412.8976, 977.8833
413.3798, 963.5306
413.8619, 943.9424
414.3440, 927.8199
414.8261, 927.7241
415.3082, 943.7751
415.7903, 958.2380
416.2725, 956.5479
416.7546, 948.0401
417.2367, 943.2723
417.7188, 948.8641
418.2009, 955.3144
418.6830, 957.9734
419.1652, 957.8364
419.6473, 958.4490
420.1294, 962.9735
420.6115, 967.1180
421.0937, 967.7466
421.5758, 960.2371
422.0579, 958.3344
422.5400, 968.3159
423.0221, 984.0160
423.5042, 995.5602
423.9864, 1001.259
424.4685, 1004.203
424.9506, 1004.697
425.4327, 1002.609
425.9148, 999.2580
426.3969, 992.3928
426.8791, 986.8234
427.3612, 987.9560
427.8433, 999.3313
428.3254, 1005.891
428.8075, 1003.834
429.2896, 996.1813
429.7718, 993.7623
430.2539, 997.5152
430.7360, 1001.449
431.2181, 1001.736
431.7002, 998.6442
432.1823, 996.8427
432.6645, 997.3947
433.1466, 996.4390
433.6287, 983.8503
434.1108, 963.0557
434.5929, 951.6332
435.0750, 965.2741
435.5572, 989.2842
436.0393, 996.7892
436.5214, 988.3983
437.0035, 977.0267
437.4856, 967.9374
437.9677, 963.6266
438.4499, 969.8429
438.9320, 997.6353
439.4141, 1019.925
439.8962, 1010.180
440.3783, 979.2014
440.8604, 954.5417
441.3426, 952.5458
441.8247, 957.4478
442.3068, 961.4682
442.7889, 964.0368
443.2710, 964.2833
443.7531, 959.5304
444.2353, 953.2905
444.7174, 949.3653
445.1995, 948.1904
445.6816, 949.5568
446.1637, 956.2353
446.6458, 967.1581
447.1280, 970.9125
447.6101, 962.3945
448.0922, 952.3107
448.5743, 946.5993
449.0564, 946.7305
449.5385, 947.3945
450.0207, 948.9658
450.5028, 950.5369
450.9849, 951.0497
451.4670, 951.0513
451.9491, 946.9611
452.4312, 934.2419
452.9134, 915.0591
453.3955, 907.0448
453.8776, 911.1755
454.3597, 919.5019
454.8418, 925.9785
455.3239, 930.4908
455.8061, 931.6650
456.2882, 927.3291
456.7703, 922.4756
457.2524, 926.1849
457.7345, 936.3088
458.2166, 944.1551
458.6988, 944.6089
459.1809, 939.9724
459.6630, 931.3566
460.1451, 918.1055
460.6272, 906.1092
461.1093, 897.5076
461.5915, 892.8386
462.0736, 893.0043
462.5557, 903.8835
463.0378, 914.1548
463.5199, 917.4557
464.0020, 915.1135
464.4842, 917.5647
464.9663, 935.4103
465.4484, 952.3260
465.9305, 959.1710
466.4126, 946.3017
466.8947, 940.0380
467.3769, 944.1935
467.8590, 953.2743
468.3411, 957.9576
468.8232, 954.8527
469.3053, 954.4387
469.7874, 962.1543
470.2696, 976.9827
470.7517, 978.1488
471.2338, 962.2441
471.7159, 943.2226
472.1980, 932.6862
472.6801, 930.4890
473.1623, 930.5353
473.6444, 931.2623
474.1265, 935.1700
474.6086, 951.7059
475.0907, 978.1074
475.5728, 996.5076
476.0550, 990.5599
476.5371, 972.9644
477.0192, 964.8112
477.5013, 966.8569
477.9834, 970.2536
478.4655, 969.1776
478.9477, 965.0297
479.4298, 959.3019
479.9119, 947.9355
480.3940, 940.7009
480.8761, 944.8555
481.3582, 957.4777
481.8404, 970.1859
482.3225, 982.5446
482.8046, 992.4714
483.2867, 998.2384
483.7688, 997.7853
484.2509, 999.8364
484.7331, 1008.220
485.2152, 1017.816
485.6973, 1023.894
486.1794, 1024.141
486.6615, 1024.758
487.1436, 1026.326
487.6258, 1028.913
488.1079, 1034.113
488.5900, 1044.331
489.0721, 1050.364
489.5542, 1043.161
490.0363, 1022.481
490.5185, 1015.447
491.0006, 1025.084
491.4827, 1040.788
491.9648, 1048.124
492.4470, 1048.851
492.9291, 1052.748
493.4112, 1065.422
493.8933, 1080.988
494.3754, 1090.576
494.8575, 1094.678
495.3397, 1095.831
495.8218, 1093.260
496.3039, 1089.834
496.7860, 1088.927
497.2681, 1091.552
497.7502, 1094.570
498.2324, 1097.504
498.7145, 1099.503
499.1966, 1099.464
499.6787, 1093.609
500.1608, 1089.129
500.6429, 1087.818
501.1251, 1089.713
501.6072, 1094.549
502.0893, 1108.460
502.5714, 1119.907
503.0535, 1122.427
503.5356, 1108.819
504.0178, 1103.736
504.4999, 1109.598
504.9820, 1121.881
505.4641, 1136.293
505.9462, 1154.922
506.4283, 1163.710
506.9105, 1153.329
507.3926, 1131.137
507.8747, 1129.886
508.3568, 1150.730
508.8389, 1171.429
509.3210, 1172.074
509.8032, 1160.003
510.2853, 1156.118
510.7674, 1164.114
511.2495, 1175.668
511.7316, 1185.029
512.2137, 1191.526
512.6959, 1193.708
513.1780, 1183.274
513.6601, 1174.793
514.1422, 1180.168
514.6243, 1197.492
515.1064, 1213.172
515.5886, 1219.712
516.0707, 1224.528
516.5528, 1232.149
517.0349, 1244.733
517.5170, 1256.937
517.9991, 1267.403
518.4813, 1277.476
518.9634, 1288.868
519.4455, 1302.490
519.9276, 1316.212
520.4097, 1331.927
520.8918, 1347.803
521.3740, 1350.437
521.8561, 1334.976
522.3382, 1322.345
522.8203, 1329.445
523.3024, 1354.753
523.7845, 1372.389
524.2667, 1380.000
524.7488, 1383.802
525.2309, 1392.761
525.7130, 1404.845
526.1951, 1412.569
526.6772, 1410.178
527.1594, 1405.302
527.6415, 1407.356
528.1236, 1415.010
528.6057, 1422.497
529.0878, 1424.608
529.5699, 1426.500
530.0521, 1433.363
530.5342, 1447.982
531.0163, 1458.123
531.4984, 1455.091
531.9805, 1447.742
532.4626, 1445.490
532.9448, 1465.746
533.4269, 1471.212
533.9090, 1448.629
534.3911, 1407.243
534.8732, 1385.153
535.3553, 1391.721
535.8375, 1399.654
536.3196, 1395.879
536.8017, 1379.493
537.2838, 1370.269
537.7659, 1369.410
538.2480, 1371.481
538.7302, 1371.366
539.2123, 1369.174
539.6944, 1364.892
540.1765, 1356.677
540.6586, 1349.752
541.1407, 1354.895
541.6229, 1368.454
542.1050, 1377.395
542.5871, 1373.003
543.0692, 1361.998
543.5513, 1347.574
544.0334, 1330.162
544.5156, 1317.817
544.9977, 1318.037
545.4798, 1322.743
545.9619, 1325.495
546.4440, 1322.030
546.9261, 1321.118
547.4083, 1333.822
547.8904, 1347.737
548.3725, 1338.600
548.8546, 1283.797
549.3367, 1243.427
549.8188, 1236.472
550.3010, 1259.527
550.7831, 1272.569
551.2652, 1273.725
551.7473, 1271.117
552.2294, 1271.632
552.7115, 1274.425
553.1937, 1269.235
553.6758, 1253.638
554.1579, 1236.759
554.6400, 1230.374
555.1221, 1231.923
555.6042, 1234.450
556.0864, 1238.801
556.5685, 1239.684
557.0506, 1227.667
557.5327, 1206.630
558.0148, 1191.204
558.4969, 1194.234
558.9791, 1200.762
559.4612, 1201.419
559.9433, 1193.999
560.4254, 1187.131
560.9075, 1184.531
561.3896, 1181.905
561.8718, 1175.005
562.3539, 1156.782
562.8360, 1146.707
563.3181, 1149.453
563.8002, 1159.729
564.2823, 1165.385
564.7645, 1166.150
565.2466, 1163.297
565.7287, 1157.334
566.2108, 1148.181
566.6929, 1132.152
567.1750, 1108.841
567.6572, 1090.848
568.1393, 1095.173
568.6214, 1111.615
569.1035, 1118.923
569.5856, 1112.252
570.0677, 1102.792
570.5499, 1100.278
571.0320, 1100.972
571.5141, 1098.945
571.9962, 1088.461
572.4783, 1078.392
572.9604, 1073.257
573.4426, 1072.044
573.9247, 1069.163
574.4068, 1060.677
574.8889, 1053.214
575.3710, 1049.752
575.8531, 1051.370
576.3353, 1051.405
576.8174, 1049.116
577.2995, 1046.344
577.7816, 1045.586
578.2637, 1047.323
578.7458, 1045.535
579.2280, 1038.659
579.7101, 1029.160
580.1922, 1018.441
580.6743, 1007.769
581.1564, 1004.305
581.6385, 1021.572
582.1207, 1042.466
582.6028, 1040.633
583.0849, 1018.869
583.5670, 998.9915
584.0491, 999.9244
584.5313, 1004.026
585.0134, 995.0081
585.4955, 963.4866
585.9776, 941.7993
586.4597, 948.8805
586.9418, 965.6292
587.4240, 970.0086
587.9061, 950.1672
588.3882, 935.5513
588.8703, 930.6422
589.3524, 932.6016
589.8345, 933.0978
590.3167, 931.5800
590.7988, 930.7402
591.2809, 932.0610
591.7630, 935.0717
592.2451, 937.6725
592.7272, 939.8952
593.2094, 940.9246
593.6915, 938.8993
594.1736, 935.4373
594.6557, 934.2870
595.1378, 936.9204
595.6199, 938.2323
596.1021, 931.5989
596.5842, 921.9653
597.0663, 916.3638
597.5485, 922.3554
598.0306, 927.3196
598.5127, 925.2091
598.9948, 918.1979
599.4769, 916.0629
599.9590, 926.5375
600.4412, 933.1724
600.9233, 928.4554
601.4054, 911.0999
601.8875, 903.0892
602.3696, 906.6836
602.8517, 914.2575
603.3339, 920.9212
603.8160, 926.5234
604.2981, 926.8803
604.7802, 920.3339
605.2623, 912.6834
605.7444, 912.8254
606.2266, 918.0132
606.7087, 920.8810
607.1908, 917.8881
607.6729, 912.4551
608.1550, 905.0019
608.6371, 896.9536
609.1193, 892.6832
609.6014, 899.1466
610.0835, 905.3883
610.5656, 905.2625
611.0477, 897.2795
611.5298, 891.6694
612.0120, 887.5533
612.4941, 887.1108
612.9762, 893.5817
613.4583, 911.3905
613.9404, 919.0819
614.4225, 913.0255
614.9047, 901.4566
615.3868, 893.9618
615.8689, 890.6833
616.3510, 895.3980
616.8331, 913.6398
617.3152, 934.5801
617.7974, 939.5277
618.2795, 931.9916
618.7616, 925.9409
619.2437, 932.5008
619.7258, 940.9078
620.2079, 942.4477
620.6901, 936.6989
621.1722, 931.5134
621.6543, 931.4333
622.1364, 931.5157
622.6185, 927.7410
623.1006, 914.1623
623.5828, 909.8857
624.0649, 919.5359
624.5470, 934.2469
625.0291, 943.6182
625.5112, 946.9332
625.9933, 948.7136
626.4755, 949.7178
626.9576, 949.6672
627.4397, 947.0021
627.9218, 942.1750
628.4039, 938.6395
628.8860, 938.7065
629.3682, 940.7275
629.8503, 942.8383
630.3324, 944.9964
630.8145, 946.9429
631.2966, 947.7397
631.7787, 948.7955
632.2609, 951.8481
632.7430, 958.4410
633.2251, 961.7453
633.7072, 957.2705
634.1893, 950.8698
634.6714, 947.2666
635.1536, 947.1206
635.6357, 948.6237
636.1178, 952.6195
636.5999, 957.1690
637.0820, 957.7962
637.5641, 954.2635
638.0463, 952.9174
638.5284, 957.4447
639.0105, 963.9887
639.4926, 963.2363
639.9747, 956.6104
640.4568, 952.3585
640.9390, 957.2493
641.4211, 965.6357
641.9032, 973.0671
642.3853, 979.1887
642.8674, 983.4083
643.3495, 986.8643
643.8317, 987.3865
644.3138, 982.8742
644.7959, 967.2960
645.2780, 958.0525
645.7601, 957.4787
646.2422, 961.1876
646.7244, 964.2794
647.2065, 966.5411
647.6886, 969.1741
648.1707, 972.4244
648.6528, 976.0513
649.1349, 979.7722
649.6171, 983.5330
650.0992, 987.0829
650.5813, 993.0485
651.0634, 997.0353
651.5455, 990.2891
652.0276, 975.1404
652.5098, 964.4454
652.9919, 967.7825
653.4740, 975.5742
653.9561, 983.4691
654.4382, 991.9679
654.9203, 994.5136
655.4025, 983.7964
655.8846, 972.2084
656.3667, 968.8427
656.8488, 978.1360
657.3309, 981.8024
657.8130, 977.7040
658.2952, 970.6447
658.7773, 967.9728
659.2594, 969.1643
659.7415, 967.4933
660.2236, 958.9307
