##NAMES=Taramite
##RRUFFID=R061101
##IDEAL CHEMISTRY=Na(NaCa)(Mg_3_Al_2_)(Si_6_Al_2_)O_22_(OH)_2_
##LOCALITY=Monte Beigua, 11 km north of Varazze, Savona, Liguria, Italy
##OWNER=RRUFF
##SOURCE=Michael Scott
##DESCRIPTION=Dark green radiating prismatic crystals
##STATUS=The identification of this mineral is confirmed by single-crystal X-ray diffraction and chemical analysis.
##URL=rruff.info/R061101
##MEASURED CHEMISTRY=(Na_0.68_K_0.20_[box]_12_)_Σ=1_(Ca_1.03_Na_0.97_)_Σ=2_(Fe^2+^_2.21_Mg_0.79_)_Σ=3_(Al_0.87_Fe^3+^_0.13_)_Σ=1_(Fe^3+^_0.62_Mg_0.32_Ti_0.05_Mn_0.01_)_Σ=1_(Si_6.37_Al_1.63_)O_22_(OH)_2_
142.9489, 1627.267
143.4310, 1652.909
143.9131, 1687.070
144.3952, 1722.482
144.8773, 1762.293
145.3595, 1798.172
145.8416, 1824.852
146.3237, 1826.765
146.8058, 1847.804
147.2879, 1905.395
147.7700, 1985.446
148.2522, 2035.237
148.7343, 2026.060
149.2164, 2007.643
149.6985, 2004.215
150.1806, 2027.672
150.6627, 2052.742
151.1449, 2047.914
151.6270, 2092.594
152.1091, 2119.461
152.5912, 2129.472
153.0733, 2072.142
153.5554, 2101.769
154.0376, 2096.548
154.5197, 2089.897
155.0018, 2131.763
155.4839, 2084.228
155.9660, 2125.324
156.4481, 2131.041
156.9303, 2152.950
157.4124, 2139.795
157.8945, 2148.713
158.3766, 2171.188
158.8587, 2180.429
159.3409, 2172.287
159.8230, 2159.651
160.3051, 2136.485
160.7872, 2112.425
161.2693, 2104.266
161.7514, 2135.990
162.2336, 2173.435
162.7157, 2195.947
163.1978, 2195.611
163.6799, 2189.822
164.1620, 2180.298
164.6441, 2170.703
165.1263, 2171.243
165.6084, 2196.889
166.0905, 2229.946
166.5726, 2254.461
167.0547, 2259.367
167.5368, 2264.150
168.0190, 2283.464
168.5011, 2315.329
168.9832, 2348.280
169.4653, 2380.994
169.9474, 2409.127
170.4295, 2427.007
170.9117, 2429.028
171.3938, 2422.897
171.8759, 2413.264
172.3580, 2400.340
172.8401, 2388.616
173.3222, 2381.939
173.8044, 2378.928
174.2865, 2377.224
174.7686, 2376.351
175.2507, 2376.046
175.7328, 2375.687
176.2149, 2375.187
176.6971, 2375.676
177.1792, 2378.214
177.6613, 2382.595
178.1434, 2388.313
178.6255, 2396.729
179.1076, 2405.991
179.5898, 2412.554
180.0719, 2415.784
180.5540, 2417.910
181.0361, 2422.636
181.5182, 2429.162
182.0003, 2418.348
182.4825, 2433.524
182.9646, 2439.794
183.4467, 2437.636
183.9288, 2401.808
184.4109, 2409.458
184.8930, 2399.685
185.3752, 2389.196
185.8573, 2402.966
186.3394, 2372.035
186.8215, 2385.421
187.3036, 2366.206
187.7857, 2359.659
188.2679, 2358.548
188.7500, 2358.587
189.2321, 2360.070
189.7142, 2356.581
190.1963, 2335.751
190.6784, 2300.290
191.1606, 2281.456
191.6427, 2288.430
192.1248, 2314.555
192.6069, 2343.344
193.0890, 2376.333
193.5712, 2402.550
194.0533, 2405.967
194.5354, 2386.522
195.0175, 2376.672
195.4996, 2389.874
195.9817, 2419.609
196.4639, 2426.134
196.9460, 2403.512
197.4281, 2377.201
197.9102, 2378.994
198.3923, 2411.368
198.8744, 2440.276
199.3566, 2453.314
199.8387, 2451.844
200.3208, 2457.731
200.8029, 2472.611
201.2850, 2491.383
201.7671, 2509.750
202.2493, 2528.934
202.7314, 2539.773
203.2135, 2534.244
203.6956, 2511.057
204.1777, 2505.553
204.6598, 2524.281
205.1420, 2551.359
205.6241, 2559.521
206.1062, 2543.162
206.5883, 2527.993
207.0704, 2523.646
207.5525, 2531.080
208.0347, 2544.272
208.5168, 2565.747
208.9989, 2590.705
209.4810, 2611.164
209.9631, 2628.856
210.4452, 2637.058
210.9274, 2627.659
211.4095, 2591.036
211.8916, 2577.239
212.3737, 2597.295
212.8558, 2635.227
213.3379, 2647.848
213.8201, 2623.569
214.3022, 2597.640
214.7843, 2590.155
215.2664, 2610.422
215.7485, 2618.661
216.2306, 2609.694
216.7128, 2588.238
217.1949, 2570.617
217.6770, 2560.206
218.1591, 2548.058
218.6412, 2526.900
219.1233, 2489.719
219.6055, 2463.417
220.0876, 2452.525
220.5697, 2454.230
221.0518, 2455.917
221.5339, 2459.039
222.0160, 2459.967
222.4982, 2456.554
222.9803, 2448.812
223.4624, 2435.777
223.9445, 2412.061
224.4266, 2381.384
224.9087, 2370.376
225.3909, 2394.631
225.8730, 2418.733
226.3551, 2413.469
226.8372, 2357.180
227.3193, 2318.531
227.8015, 2312.666
228.2836, 2335.881
228.7657, 2342.478
229.2478, 2321.452
229.7299, 2296.317
230.2120, 2286.750
230.6942, 2303.904
231.1763, 2314.395
231.6584, 2310.901
232.1405, 2293.854
232.6226, 2283.922
233.1047, 2289.095
233.5869, 2293.112
234.0690, 2278.524
234.5511, 2225.442
235.0332, 2192.405
235.5153, 2197.180
235.9974, 2240.284
236.4796, 2261.787
236.9617, 2247.243
237.4438, 2224.553
237.9259, 2222.209
238.4080, 2256.974
238.8901, 2280.672
239.3723, 2281.959
239.8544, 2259.552
240.3365, 2239.365
240.8186, 2213.901
241.3007, 2197.474
241.7828, 2209.526
242.2650, 2280.794
242.7471, 2325.110
243.2292, 2316.240
243.7113, 2248.370
244.1934, 2204.573
244.6755, 2193.060
245.1577, 2198.319
245.6398, 2204.703
246.1219, 2213.900
246.6040, 2221.180
247.0861, 2225.295
247.5682, 2225.997
248.0504, 2226.941
248.5325, 2231.574
249.0146, 2233.346
249.4967, 2223.135
249.9788, 2191.670
250.4609, 2165.419
250.9431, 2151.061
251.4252, 2149.429
251.9073, 2151.504
252.3894, 2160.429
252.8715, 2170.183
253.3536, 2173.578
253.8358, 2169.410
254.3179, 2161.004
254.8000, 2146.216
255.2821, 2123.347
255.7642, 2113.949
256.2463, 2123.284
256.7285, 2140.927
257.2106, 2155.574
257.6927, 2168.857
258.1748, 2175.334
258.6569, 2170.970
259.1390, 2153.980
259.6212, 2146.713
260.1033, 2154.651
260.5854, 2166.191
261.0675, 2165.310
261.5496, 2144.923
262.0317, 2129.659
262.5139, 2126.635
262.9960, 2136.499
263.4781, 2150.297
263.9602, 2172.492
264.4423, 2192.816
264.9244, 2197.412
265.4066, 2181.343
265.8887, 2163.383
266.3708, 2146.746
266.8529, 2131.170
267.3350, 2125.971
267.8171, 2135.054
268.2993, 2148.588
268.7814, 2153.542
269.2635, 2146.981
269.7456, 2142.338
270.2277, 2144.461
270.7098, 2153.461
271.1920, 2158.128
271.6741, 2158.037
272.1562, 2154.534
272.6383, 2147.088
273.1204, 2133.636
273.6025, 2126.322
274.0847, 2130.013
274.5668, 2144.247
275.0489, 2157.317
275.5310, 2170.085
276.0131, 2179.870
276.4952, 2182.562
276.9774, 2177.242
277.4595, 2171.686
277.9416, 2168.558
278.4237, 2167.331
278.9058, 2162.445
279.3879, 2152.841
279.8701, 2142.912
280.3522, 2135.901
280.8343, 2131.607
281.3164, 2134.772
281.7986, 2150.611
282.2807, 2175.310
282.7628, 2188.221
283.2449, 2188.113
283.7270, 2181.454
284.2091, 2171.853
284.6913, 2159.513
285.1734, 2152.617
285.6555, 2157.405
286.1376, 2168.369
286.6197, 2161.058
287.1018, 2132.998
287.5840, 2106.785
288.0661, 2113.754
288.5482, 2148.478
289.0303, 2160.897
289.5124, 2127.865
289.9945, 2070.098
290.4767, 2040.460
290.9588, 2039.782
291.4409, 2051.885
291.9230, 2066.741
292.4051, 2083.435
292.8872, 2098.172
293.3694, 2111.768
293.8515, 2121.310
294.3336, 2120.481
294.8157, 2109.303
295.2978, 2092.979
295.7799, 2068.138
296.2621, 2040.374
296.7442, 2027.250
297.2263, 2037.174
297.7084, 2057.626
298.1905, 2074.837
298.6726, 2087.803
299.1548, 2088.900
299.6369, 2056.997
300.1190, 2010.885
300.6011, 1991.241
301.0832, 2017.324
301.5653, 2053.060
302.0475, 2053.629
302.5296, 2024.757
303.0117, 1994.417
303.4938, 1977.337
303.9759, 1970.662
304.4580, 1971.656
304.9402, 1981.523
305.4223, 1995.033
305.9044, 2013.135
306.3865, 2032.399
306.8686, 2041.127
307.3507, 2016.272
307.8329, 1985.620
308.3150, 1983.903
308.7971, 2028.546
309.2792, 2065.887
309.7613, 2040.512
310.2434, 1977.856
310.7256, 1934.632
311.2077, 1955.381
311.6898, 1996.461
312.1719, 2028.523
312.6540, 2049.295
313.1361, 2054.703
313.6183, 2023.758
314.1004, 1978.133
314.5825, 1954.096
315.0646, 1992.763
315.5467, 2037.124
316.0288, 2052.938
316.5110, 2032.389
316.9931, 2013.423
317.4752, 2017.091
317.9573, 2029.150
318.4394, 2031.455
318.9215, 2001.123
319.4037, 1975.595
319.8858, 1975.063
320.3679, 2003.838
320.8500, 2019.946
321.3321, 1998.003
321.8142, 1965.084
322.2964, 1947.319
322.7785, 1971.726
323.2606, 1989.390
323.7427, 1982.317
324.2248, 1949.475
324.7069, 1930.301
325.1891, 1932.885
325.6712, 1948.468
326.1533, 1970.604
326.6354, 2026.158
327.1175, 2057.719
327.5996, 2041.802
328.0818, 1984.859
328.5639, 1961.765
329.0460, 2008.315
329.5281, 2060.024
330.0102, 2077.943
330.4923, 2032.823
330.9745, 1999.099
331.4566, 1982.181
331.9387, 1980.188
332.4208, 1986.983
332.9029, 2011.134
333.3850, 2032.442
333.8672, 2038.983
334.3493, 2021.928
334.8314, 2012.770
335.3135, 2015.858
335.7956, 2025.832
336.2777, 2029.895
336.7599, 2027.438
337.2420, 2020.467
337.7241, 2005.751
338.2062, 1978.870
338.6883, 1973.096
339.1704, 1997.004
339.6526, 2030.593
340.1347, 2038.027
340.6168, 2014.973
341.0989, 1992.292
341.5810, 1982.207
342.0631, 1984.170
342.5453, 1990.320
343.0274, 2002.008
343.5095, 2013.895
343.9916, 2019.272
344.4737, 2018.303
344.9558, 2016.376
345.4380, 2015.309
345.9201, 2014.660
346.4022, 2011.512
346.8843, 2005.406
347.3664, 2002.057
347.8485, 2008.631
348.3307, 2022.934
348.8128, 2037.416
349.2949, 2053.703
349.7770, 2065.797
350.2591, 2056.270
350.7413, 2027.687
351.2234, 2007.156
351.7055, 2026.121
352.1876, 2064.998
352.6697, 2087.760
353.1519, 2080.139
353.6340, 2066.191
354.1161, 2074.183
354.5982, 2098.131
355.0803, 2116.147
355.5624, 2109.072
356.0446, 2093.211
356.5267, 2084.723
357.0088, 2087.011
357.4909, 2094.181
357.9730, 2108.009
358.4551, 2123.850
358.9373, 2132.339
359.4194, 2120.489
359.9015, 2106.854
360.3836, 2103.495
360.8657, 2113.219
361.3478, 2089.468
361.8300, 2134.508
362.3121, 2161.734
362.7942, 2172.104
363.2763, 2115.134
363.7584, 2145.119
364.2405, 2140.257
364.7227, 2133.967
365.2048, 2176.192
365.6869, 2129.016
366.1690, 2170.471
366.6511, 2176.547
367.1332, 2198.815
367.6154, 2184.979
368.0975, 2186.262
368.5796, 2153.874
369.0617, 2164.965
369.5438, 2158.631
370.0259, 2151.583
370.5081, 2168.793
370.9902, 2141.302
371.4723, 2158.128
371.9544, 2157.263
372.4365, 2164.495
372.9186, 2154.195
373.4008, 2149.309
373.8829, 2161.961
374.3650, 2164.903
374.8471, 2152.584
375.3292, 2160.331
375.8113, 2132.228
376.2935, 2135.582
376.7756, 2152.510
377.2577, 2127.067
377.7398, 2119.463
378.2219, 2111.519
378.7040, 2103.656
379.1862, 2100.988
379.6683, 2104.360
380.1504, 2108.641
380.6325, 2108.964
381.1146, 2105.502
381.5967, 2099.402
382.0789, 2089.502
382.5610, 2078.389
383.0431, 2071.846
383.5252, 2069.805
384.0073, 2068.648
384.4894, 2067.593
384.9716, 2065.303
385.4537, 2057.779
385.9358, 2042.069
386.4179, 2026.009
386.9000, 2020.425
387.3821, 2022.456
387.8643, 2023.461
388.3464, 2015.131
388.8285, 2005.197
389.3106, 2002.507
389.7927, 2009.246
390.2748, 2015.997
390.7570, 2014.578
391.2391, 2009.668
391.7212, 2008.134
392.2033, 2025.600
392.6854, 2036.184
393.1675, 2016.261
393.6497, 1964.938
394.1318, 1935.718
394.6139, 1971.917
395.0960, 2024.371
395.5781, 2052.754
396.0602, 2024.163
396.5424, 1998.402
397.0245, 1989.271
397.5066, 1993.429
397.9887, 1992.111
398.4708, 1971.148
398.9529, 1954.678
399.4351, 1954.724
399.9172, 1990.794
400.3993, 2007.949
400.8814, 2000.386
401.3635, 1975.894
401.8456, 1948.021
402.3278, 1910.195
402.8099, 1880.968
403.2920, 1869.180
403.7741, 1876.840
404.2562, 1878.319
404.7383, 1871.187
405.2205, 1862.105
405.7026, 1859.816
406.1847, 1865.638
406.6668, 1868.047
407.1489, 1862.957
407.6310, 1852.764
408.1132, 1844.623
408.5953, 1838.193
409.0774, 1837.334
409.5595, 1851.914
410.0416, 1876.880
410.5237, 1885.254
411.0059, 1867.032
411.4880, 1843.137
411.9701, 1849.672
412.4522, 1879.954
412.9343, 1901.844
413.4164, 1888.025
413.8986, 1858.488
414.3807, 1842.869
414.8628, 1844.451
415.3449, 1849.831
415.8270, 1849.230
416.3091, 1845.275
416.7913, 1842.172
417.2734, 1842.166
417.7555, 1843.018
418.2376, 1844.781
418.7197, 1847.001
419.2018, 1845.794
419.6840, 1833.700
420.1661, 1820.822
420.6482, 1814.969
421.1303, 1822.005
421.6125, 1830.279
422.0946, 1805.369
422.5767, 1842.772
423.0588, 1862.362
423.5409, 1865.096
424.0230, 1800.489
424.5052, 1822.839
424.9873, 1810.340
425.4694, 1796.413
425.9515, 1831.002
426.4336, 1740.107
426.9157, 1784.261
427.3979, 1810.603
427.8800, 1820.089
428.3621, 1762.233
428.8442, 1791.334
429.3263, 1785.587
429.8084, 1778.411
430.2906, 1819.752
430.7727, 1771.691
431.2548, 1812.261
431.7369, 1817.452
432.2190, 1838.835
432.7011, 1831.523
433.1833, 1838.594
433.6654, 1839.180
434.1475, 1835.089
434.6296, 1821.973
435.1117, 1805.245
435.5938, 1801.300
436.0760, 1811.872
436.5581, 1824.058
437.0402, 1825.831
437.5223, 1819.717
438.0044, 1810.848
438.4865, 1798.746
438.9687, 1786.836
439.4508, 1773.923
439.9329, 1761.959
440.4150, 1728.614
440.8971, 1765.105
441.3792, 1783.783
441.8614, 1785.604
442.3435, 1720.085
442.8256, 1741.523
443.3077, 1728.112
443.7898, 1713.273
444.2719, 1746.949
444.7541, 1691.224
445.2362, 1724.131
445.7183, 1721.659
446.2004, 1735.379
446.6825, 1714.035
447.1646, 1703.521
447.6468, 1728.081
448.1289, 1733.221
448.6110, 1740.338
449.0931, 1766.750
449.5752, 1755.802
450.0573, 1718.577
450.5395, 1703.022
451.0216, 1716.723
451.5037, 1732.946
451.9858, 1737.466
452.4679, 1729.594
452.9500, 1717.515
453.4322, 1698.181
453.9143, 1682.921
454.3964, 1695.877
454.8785, 1733.918
455.3606, 1760.311
455.8427, 1754.698
456.3249, 1731.369
456.8070, 1722.685
457.2891, 1728.018
457.7712, 1734.838
458.2533, 1730.934
458.7354, 1722.562
459.2176, 1720.643
459.6997, 1730.655
460.1818, 1740.682
460.6639, 1738.970
461.1460, 1729.829
461.6281, 1722.825
462.1103, 1724.598
462.5924, 1728.142
463.0745, 1731.847
463.5566, 1736.424
464.0387, 1731.773
464.5208, 1695.415
465.0030, 1657.941
465.4851, 1646.908
465.9672, 1699.658
466.4493, 1740.686
466.9314, 1758.621
467.4135, 1757.056
467.8957, 1748.392
468.3778, 1717.984
468.8599, 1699.302
469.3420, 1712.928
469.8241, 1775.124
470.3062, 1803.170
470.7884, 1786.812
471.2705, 1750.389
471.7526, 1722.891
472.2347, 1703.665
472.7168, 1699.805
473.1989, 1718.186
473.6811, 1751.698
474.1632, 1778.284
474.6453, 1797.777
475.1274, 1808.471
475.6095, 1801.258
476.0916, 1784.276
476.5738, 1781.096
477.0559, 1798.614
477.5380, 1818.074
478.0201, 1819.625
478.5022, 1807.634
478.9843, 1791.830
479.4665, 1766.126
479.9486, 1746.099
480.4307, 1749.406
480.9128, 1775.393
481.3949, 1795.199
481.8770, 1791.626
482.3592, 1778.825
482.8413, 1767.681
483.3234, 1757.516
483.8055, 1753.085
484.2876, 1756.785
484.7697, 1766.861
485.2519, 1779.264
485.7340, 1798.612
486.2161, 1814.796
486.6982, 1823.622
487.1803, 1823.502
487.6624, 1830.292
488.1446, 1847.663
488.6267, 1866.694
489.1088, 1879.326
489.5909, 1884.906
490.0730, 1886.686
490.5551, 1883.919
491.0373, 1878.848
491.5194, 1877.799
492.0015, 1880.828
492.4836, 1881.992
492.9658, 1868.779
493.4479, 1851.313
493.9300, 1865.338
494.4121, 1914.385
494.8942, 1964.603
495.3763, 1980.862
495.8585, 1975.830
496.3406, 1971.725
496.8227, 1975.692
497.3048, 1983.046
497.7869, 1988.831
498.2690, 1994.770
498.7512, 2006.305
499.2333, 2038.680
499.7154, 2067.597
500.1975, 2074.282
500.6796, 2047.212
501.1617, 2034.904
501.6439, 2061.082
502.1260, 2100.211
502.6081, 2124.394
503.0902, 2120.427
503.5723, 2119.195
504.0544, 2124.296
504.5366, 2135.125
505.0187, 2149.908
505.5008, 2171.802
505.9829, 2190.721
506.4650, 2200.920
506.9471, 2201.855
507.4293, 2199.381
507.9114, 2191.309
508.3935, 2186.606
508.8756, 2205.360
509.3577, 2242.709
509.8398, 2259.695
510.3220, 2229.625
510.8041, 2187.631
511.2862, 2201.759
511.7683, 2261.789
512.2504, 2310.464
512.7325, 2296.401
513.2147, 2259.491
513.6968, 2242.024
514.1789, 2250.640
514.6610, 2269.408
515.1431, 2305.090
515.6252, 2340.722
516.1074, 2356.162
516.5895, 2316.377
517.0716, 2286.811
517.5537, 2293.197
518.0358, 2328.938
518.5179, 2351.847
519.0001, 2352.434
519.4822, 2347.528
519.9643, 2342.558
520.4464, 2335.981
520.9285, 2335.255
521.4106, 2342.032
521.8928, 2352.602
522.3749, 2364.254
522.8570, 2377.961
523.3391, 2384.894
523.8212, 2381.908
524.3033, 2371.826
524.7855, 2357.009
525.2676, 2337.903
525.7497, 2329.631
526.2318, 2349.679
526.7139, 2384.970
527.1960, 2409.330
527.6782, 2420.451
528.1603, 2428.117
528.6424, 2441.572
529.1245, 2456.371
529.6066, 2466.136
530.0887, 2469.455
530.5709, 2466.523
531.0530, 2450.875
531.5351, 2427.799
532.0172, 2414.712
532.4993, 2424.381
532.9814, 2437.696
533.4636, 2447.429
533.9457, 2452.977
534.4278, 2455.914
534.9099, 2455.588
535.3920, 2453.193
535.8741, 2449.009
536.3563, 2441.151
536.8384, 2437.709
537.3205, 2440.996
537.8026, 2448.262
538.2847, 2452.618
538.7668, 2453.892
539.2490, 2454.979
539.7311, 2457.635
540.2132, 2461.205
540.6953, 2464.827
541.1774, 2468.561
541.6595, 2468.339
542.1417, 2459.091
542.6238, 2443.927
543.1059, 2426.663
543.5880, 2404.564
544.0701, 2388.324
544.5522, 2389.696
545.0344, 2401.805
545.5165, 2411.355
545.9986, 2417.400
546.4807, 2416.419
546.9628, 2402.727
547.4449, 2375.807
547.9271, 2357.533
548.4092, 2358.833
548.8913, 2361.747
549.3734, 2355.346
549.8555, 2329.629
550.3376, 2319.576
550.8198, 2333.202
551.3019, 2354.208
551.7840, 2355.905
552.2661, 2336.136
552.7482, 2314.350
553.2303, 2294.816
553.7125, 2278.165
554.1946, 2267.419
554.6767, 2262.433
555.1588, 2258.951
555.6409, 2253.872
556.1230, 2248.472
556.6052, 2246.142
557.0873, 2247.861
557.5694, 2246.899
558.0515, 2237.553
558.5336, 2222.879
559.0157, 2206.585
559.4979, 2189.383
559.9800, 2171.255
560.4621, 2146.718
560.9442, 2120.528
561.4263, 2107.015
561.9084, 2123.784
562.3906, 2137.984
562.8727, 2136.787
563.3548, 2116.710
563.8369, 2113.858
564.3190, 2140.829
564.8011, 2164.992
565.2833, 2152.755
565.7654, 2099.971
566.2475, 2061.378
566.7296, 2044.683
567.2117, 2042.893
567.6938, 2049.190
568.1760, 2062.046
568.6581, 2072.423
569.1402, 2072.729
569.6223, 2070.147
570.1044, 2076.821
570.5865, 2091.207
571.0687, 2101.459
571.5508, 2099.203
572.0329, 2090.457
572.5150, 2079.917
572.9971, 2068.157
573.4792, 2055.211
573.9614, 2038.295
574.4435, 2021.269
574.9256, 2008.316
575.4077, 2000.322
575.8898, 1996.535
576.3719, 2002.785
576.8541, 2012.775
577.3362, 2000.809
577.8183, 1955.193
578.3004, 1919.682
578.7825, 1918.442
579.2646, 1947.990
579.7468, 1964.958
580.2289, 1968.771
580.7110, 1963.001
581.1931, 1944.517
581.6752, 1918.992
582.1573, 1902.176
582.6395, 1897.648
583.1216, 1900.486
583.6037, 1910.342
584.0858, 1923.653
584.5679, 1934.134
585.0500, 1934.072
585.5322, 1935.190
586.0143, 1947.083
586.4964, 1967.411
586.9785, 1978.336
587.4606, 1967.999
587.9427, 1954.565
588.4249, 1947.699
588.9070, 1952.192
589.3891, 1942.586
589.8712, 1910.287
590.3533, 1875.297
590.8354, 1859.206
591.3176, 1863.948
591.7997, 1870.783
592.2818, 1877.852
592.7639, 1883.641
593.2460, 1885.596
593.7281, 1883.762
594.2103, 1878.535
594.6924, 1869.495
595.1745, 1857.432
595.6566, 1840.793
596.1387, 1820.473
596.6208, 1805.156
597.1030, 1800.520
597.5851, 1802.255
598.0673, 1807.525
598.5494, 1816.426
599.0315, 1827.016
599.5136, 1848.238
599.9957, 1866.525
600.4778, 1866.482
600.9600, 1835.095
601.4421, 1806.689
601.9242, 1782.045
602.4063, 1764.078
602.8884, 1765.809
603.3705, 1792.376
603.8527, 1811.908
604.3348, 1805.370
604.8169, 1781.225
605.2990, 1774.378
605.7811, 1784.843
606.2632, 1799.861
606.7454, 1817.376
607.2275, 1830.233
607.7096, 1823.644
608.1917, 1791.826
608.6738, 1758.874
609.1559, 1735.439
609.6381, 1721.365
610.1202, 1716.058
610.6023, 1725.707
611.0844, 1737.176
611.5665, 1747.711
612.0486, 1757.849
612.5308, 1770.455
613.0129, 1794.009
613.4950, 1806.233
613.9771, 1796.826
614.4592, 1766.915
614.9413, 1742.169
615.4235, 1721.152
615.9056, 1711.609
616.3877, 1730.628
616.8698, 1768.722
617.3519, 1778.091
617.8340, 1749.204
618.3162, 1719.427
618.7983, 1735.479
619.2804, 1775.981
619.7625, 1804.693
620.2446, 1801.912
620.7267, 1794.174
621.2089, 1793.279
621.6910, 1798.377
622.1731, 1807.388
622.6552, 1827.362
623.1373, 1843.402
623.6194, 1847.930
624.1016, 1841.312
624.5837, 1845.609
625.0658, 1869.421
625.5479, 1889.589
626.0300, 1886.753
626.5121, 1857.719
626.9943, 1855.639
627.4764, 1853.195
627.9585, 1899.701
628.4406, 1928.394
628.9227, 1940.231
629.4048, 1884.726
629.8870, 1916.181
630.3691, 1912.785
630.8512, 1907.960
631.3333, 1951.652
631.8154, 1905.942
632.2975, 1948.864
632.7797, 1956.408
633.2618, 1980.142
633.7439, 1968.813
634.2260, 1968.314
