##NAMES=Taramellite
##RRUFFID=R110043
##IDEAL CHEMISTRY=Ba_4_(Fe^3+^,Ti^4+^)_4_O_2_[B_2_Si_8_O_27_]Cl_0-1_
##LOCALITY=Big Creek, Fresno County, California, USA
##OWNER=RRUFF
##SOURCE=William W Pinch
##DESCRIPTION=Reddish brown blocky crystals frozen in quartz
##STATUS=The identification of this mineral has been confirmed by single-crystal X-ray diffraction.
##URL=rruff.info/R110043
177.2732, 136.5496
177.7553, 136.7574
178.2374, 134.6861
178.7195, 133.5398
179.2017, 135.3819
179.6838, 138.6462
180.1659, 141.3058
180.6480, 143.4323
181.1301, 144.3904
181.6122, 142.9017
182.0944, 139.5928
182.5765, 136.5476
183.0586, 134.0833
183.5407, 132.5615
184.0228, 133.1304
184.5049, 136.0502
184.9871, 139.4621
185.4692, 141.0489
185.9513, 141.0966
186.4334, 141.0265
186.9155, 141.9004
187.3976, 143.2320
187.8798, 143.1891
188.3619, 141.4965
188.8440, 139.2799
189.3261, 138.2091
189.8082, 138.1874
190.2903, 138.1198
190.7725, 136.7669
191.2546, 134.5948
191.7367, 134.8551
192.2188, 138.2235
192.7009, 142.6243
193.1830, 144.4514
193.6652, 143.7021
194.1473, 142.5877
194.6294, 142.0548
195.1115, 142.1029
195.5936, 143.0824
196.0757, 145.4236
196.5579, 147.9931
197.0400, 147.9849
197.5221, 145.0865
198.0042, 142.9443
198.4863, 144.6742
198.9684, 150.3475
199.4506, 152.7067
199.9327, 150.4308
200.4148, 145.6739
200.8969, 143.1246
201.3790, 143.0464
201.8611, 143.5903
202.3433, 143.7042
202.8254, 143.3329
203.3075, 143.1922
203.7896, 143.3227
204.2717, 143.7185
204.7538, 144.4697
205.2360, 145.6902
205.7181, 146.8365
206.2002, 147.5228
206.6823, 147.6590
207.1644, 147.9926
207.6465, 148.8348
208.1287, 149.7726
208.6108, 149.5164
209.0929, 147.8448
209.5750, 145.5937
210.0571, 142.8112
210.5392, 138.9098
211.0214, 137.3150
211.5035, 139.0790
211.9856, 143.0938
212.4677, 145.5422
212.9498, 146.0499
213.4319, 145.8596
213.9141, 145.5926
214.3962, 145.1137
214.8783, 145.1959
215.3604, 146.4983
215.8425, 148.3344
216.3246, 147.2999
216.8067, 141.4667
217.2889, 136.4471
217.7710, 136.3200
218.2531, 143.5200
218.7352, 148.2980
219.2173, 149.2273
219.6994, 147.1246
220.1816, 145.8209
220.6637, 145.5863
221.1458, 145.6314
221.6279, 145.4556
222.1100, 144.9189
222.5921, 144.4966
223.0743, 144.0927
223.5564, 143.8211
224.0385, 144.3459
224.5206, 146.1955
225.0027, 147.9938
225.4848, 148.9761
225.9670, 149.2082
226.4491, 148.3541
226.9312, 145.7321
227.4133, 141.9446
227.8954, 139.8070
228.3775, 139.7511
228.8597, 140.7608
229.3418, 142.6084
229.8239, 146.6538
230.3060, 148.2128
230.7881, 145.7221
231.2702, 140.3206
231.7524, 137.6557
232.2345, 139.0055
232.7166, 141.2941
233.1987, 142.8406
233.6808, 143.6474
234.1629, 143.6396
234.6451, 142.3732
235.1272, 140.2515
235.6093, 139.0382
236.0914, 139.0072
236.5735, 139.5038
237.0556, 140.1479
237.5378, 140.7559
238.0199, 142.0131
238.5020, 144.6140
238.9841, 147.9256
239.4662, 149.0523
239.9483, 146.3771
240.4305, 143.7391
240.9126, 143.2366
241.3947, 145.8948
241.8768, 148.4610
242.3589, 150.8905
242.8410, 153.1208
243.3232, 154.9119
243.8053, 155.9243
244.2874, 156.9527
244.7695, 158.5413
245.2516, 161.5586
245.7337, 163.1073
246.2159, 162.2992
246.6980, 160.0618
247.1801, 159.4836
247.6622, 161.4633
248.1443, 163.7269
248.6264, 165.1948
249.1086, 165.6121
249.5907, 165.8201
250.0728, 165.5604
250.5549, 165.1763
251.0370, 165.6983
251.5191, 167.7955
252.0013, 169.7464
252.4834, 170.8085
252.9655, 170.7491
253.4476, 170.3405
253.9297, 169.2965
254.4118, 168.0350
254.8940, 167.4537
255.3761, 167.6195
255.8582, 168.3508
256.3403, 169.7044
256.8224, 171.9958
257.3046, 173.8020
257.7867, 174.8723
258.2688, 175.5953
258.7509, 176.8635
259.2330, 179.2242
259.7151, 180.9663
260.1973, 181.0754
260.6794, 178.8285
261.1615, 178.3544
261.6436, 180.5259
262.1257, 183.7179
262.6078, 184.9356
263.0900, 183.1352
263.5721, 181.8535
264.0542, 182.5301
264.5363, 185.5771
265.0184, 187.9268
265.5005, 189.5097
265.9827, 190.5430
266.4648, 191.3141
266.9469, 191.7569
267.4290, 192.0895
267.9111, 192.1531
268.3932, 191.8626
268.8754, 192.9193
269.3575, 195.8461
269.8396, 199.3017
270.3217, 201.5168
270.8038, 202.2390
271.2859, 202.6266
271.7681, 202.7272
272.2502, 202.5750
272.7323, 203.6033
273.2144, 206.1777
273.6965, 209.1523
274.1786, 211.3419
274.6608, 212.7016
275.1429, 213.6180
275.6250, 214.1517
276.1071, 214.3165
276.5892, 213.9731
277.0714, 212.8161
277.5535, 212.0426
278.0356, 213.6184
278.5177, 218.0068
278.9998, 219.6910
279.4819, 216.5698
279.9641, 210.0776
280.4462, 206.8396
280.9283, 207.3962
281.4104, 208.8504
281.8925, 209.0776
282.3746, 208.0748
282.8568, 206.1729
283.3389, 202.9714
283.8210, 199.2717
284.3031, 197.6160
284.7852, 198.2205
285.2673, 199.0301
285.7495, 198.7701
286.2316, 197.4695
286.7137, 195.2539
287.1958, 191.8036
287.6779, 187.9487
288.1600, 185.5976
288.6422, 184.7719
289.1243, 183.9756
289.6064, 182.0056
290.0885, 179.1561
290.5706, 177.0109
291.0527, 175.6888
291.5349, 175.1607
292.0170, 176.1127
292.4991, 178.3286
292.9812, 179.4998
293.4633, 177.4772
293.9454, 173.3332
294.4276, 170.4928
294.9097, 169.2557
295.3918, 168.9213
295.8739, 169.2512
296.3560, 169.9750
296.8381, 169.8175
297.3203, 167.0303
297.8024, 163.1588
298.2845, 161.4315
298.7666, 162.0005
299.2487, 163.7841
299.7308, 166.7400
300.2130, 170.2027
300.6951, 172.1908
301.1772, 170.5038
301.6593, 167.5889
302.1414, 167.1622
302.6235, 169.1808
303.1057, 171.6995
303.5878, 173.6757
304.0699, 174.9510
304.5520, 175.1263
305.0341, 173.3896
305.5162, 171.1416
305.9984, 169.5708
306.4805, 168.6998
306.9626, 168.5838
307.4447, 169.9114
307.9268, 171.8258
308.4089, 173.0420
308.8911, 172.4366
309.3732, 172.2780
309.8553, 175.7296
310.3374, 181.5078
310.8195, 185.3240
311.3016, 182.7876
311.7838, 178.1658
312.2659, 175.1201
312.7480, 174.4178
313.2301, 175.2666
313.7122, 178.9975
314.1943, 183.9584
314.6765, 186.5821
315.1586, 182.2860
315.6407, 177.2512
316.1228, 175.7320
316.6049, 179.1138
317.0870, 182.4128
317.5692, 183.5407
318.0513, 183.2140
318.5334, 182.4174
319.0155, 179.9433
319.4976, 178.3749
319.9797, 179.5329
320.4619, 183.8282
320.9440, 187.0297
321.4261, 187.3593
321.9082, 186.2131
322.3903, 184.9043
322.8724, 182.9091
323.3546, 181.5845
323.8367, 181.8373
324.3188, 183.5774
324.8009, 184.2848
325.2830, 182.2066
325.7651, 179.8002
326.2473, 178.6612
326.7294, 179.1440
327.2115, 180.6619
327.6936, 184.1006
328.1757, 188.8668
328.6578, 192.1494
329.1400, 193.4086
329.6221, 193.6238
330.1042, 193.1271
330.5863, 190.9949
331.0684, 189.6702
331.5505, 189.2411
332.0327, 189.6034
332.5148, 190.6173
332.9969, 192.9586
333.4790, 195.0350
333.9611, 196.2690
334.4432, 196.4129
334.9254, 196.6824
335.4075, 197.1658
335.8896, 197.6862
336.3717, 197.9161
336.8538, 197.5659
337.3359, 197.6496
337.8180, 198.7095
338.3001, 200.7132
338.7823, 201.4528
339.2644, 200.3059
339.7465, 199.1152
340.2286, 200.1350
340.7107, 203.9422
341.1928, 206.3680
341.6750, 206.0587
342.1571, 203.9367
342.6392, 203.7311
343.1213, 205.7021
343.6034, 208.1956
344.0855, 210.4471
344.5677, 212.4042
345.0498, 212.9542
345.5319, 211.6017
346.0140, 209.3695
346.4961, 207.8797
346.9782, 207.1426
347.4604, 207.4613
347.9425, 210.1614
348.4246, 214.2444
348.9067, 215.5091
349.3888, 213.3208
349.8709, 210.3837
350.3531, 209.7752
350.8352, 211.1547
351.3173, 213.2491
351.7994, 216.2884
352.2815, 219.4543
352.7636, 221.1557
353.2458, 221.3919
353.7279, 221.4553
354.2100, 222.9595
354.6921, 224.9573
355.1742, 225.6875
355.6563, 223.4229
356.1385, 220.9443
356.6206, 221.5450
357.1027, 224.5833
357.5848, 226.8521
358.0669, 225.4316
358.5490, 222.8528
359.0312, 221.5855
359.5133, 222.5034
359.9954, 223.8798
360.4775, 225.2274
360.9596, 226.3142
361.4417, 226.6315
361.9239, 224.8146
362.4060, 223.0765
362.8881, 222.9429
363.3702, 224.9788
363.8523, 226.4124
364.3344, 226.6208
364.8166, 225.6593
365.2987, 223.5722
365.7808, 217.7268
366.2629, 213.4558
366.7450, 213.1470
367.2271, 216.7881
367.7093, 218.9777
368.1914, 218.7148
368.6735, 217.0453
369.1556, 214.6051
369.6377, 209.8774
370.1198, 206.3997
370.6020, 204.8714
371.0841, 204.7659
371.5662, 204.2016
372.0483, 203.1355
372.5304, 201.6724
373.0125, 199.8787
373.4947, 197.8787
373.9768, 195.0605
374.4589, 190.6025
374.9410, 185.9519
375.4231, 183.7641
375.9052, 185.0154
376.3874, 185.9389
376.8695, 185.2583
377.3516, 183.0151
377.8337, 181.3154
378.3158, 180.1684
378.7979, 179.4737
379.2801, 179.4259
379.7622, 180.0856
380.2443, 180.0207
380.7264, 178.7542
381.2085, 176.7501
381.6906, 175.0441
382.1728, 173.6315
382.6549, 172.8058
383.1370, 173.6150
383.6191, 175.3603
384.1012, 174.8616
384.5833, 171.3027
385.0655, 167.1128
385.5476, 165.7630
386.0297, 166.6102
386.5118, 167.4032
386.9939, 166.9086
387.4760, 165.7755
387.9582, 164.9783
388.4403, 164.5361
388.9224, 164.0167
389.4045, 162.6577
389.8866, 161.1145
390.3687, 160.3253
390.8509, 160.9099
391.3330, 162.0241
391.8151, 163.6885
392.2972, 165.5776
392.7793, 166.4047
393.2614, 164.9382
393.7436, 162.5536
394.2257, 160.0804
394.7078, 157.4645
395.1899, 155.3035
395.6720, 153.6564
396.1541, 152.6210
396.6363, 152.3548
397.1184, 154.0104
397.6005, 155.4022
398.0826, 155.6832
398.5647, 154.6795
399.0468, 153.7052
399.5290, 153.4582
400.0111, 152.9649
400.4932, 151.4024
400.9753, 146.8963
401.4574, 143.8581
401.9395, 143.2145
402.4217, 144.4553
402.9038, 145.2190
403.3859, 145.3362
403.8680, 145.2280
404.3501, 145.2418
404.8322, 145.7654
405.3144, 144.7758
405.7965, 141.4094
406.2786, 137.5693
406.7607, 136.7714
407.2428, 139.6733
407.7249, 142.0045
408.2071, 142.0982
408.6892, 140.3550
409.1713, 139.3475
409.6534, 139.1744
410.1355, 139.1431
410.6176, 138.1311
411.0998, 136.4811
411.5819, 136.5722
412.0640, 139.6252
412.5461, 143.3357
413.0282, 143.4640
413.5103, 140.5599
413.9925, 137.8964
414.4746, 137.5836
414.9567, 138.6404
415.4388, 139.5413
415.9209, 140.1370
416.4030, 140.9101
416.8852, 143.0772
417.3673, 145.5680
417.8494, 146.6566
418.3315, 143.6266
418.8136, 140.6897
419.2957, 140.9599
419.7779, 144.0029
420.2600, 146.8934
420.7421, 148.0937
421.2242, 148.7579
421.7063, 149.7702
422.1884, 151.8988
422.6706, 153.2734
423.1527, 152.8434
423.6348, 151.4311
424.1169, 150.5855
424.5990, 150.2712
425.0811, 150.7919
425.5633, 152.7351
426.0454, 156.5023
426.5275, 158.7284
427.0096, 158.0718
427.4917, 156.9507
427.9738, 157.4972
428.4560, 160.9805
428.9381, 163.3305
429.4202, 163.2869
429.9023, 161.9428
430.3844, 163.5934
430.8665, 169.4650
431.3487, 174.8145
431.8308, 176.7366
432.3129, 174.9970
432.7950, 174.9282
433.2771, 177.1110
433.7592, 179.5426
434.2414, 179.0169
434.7235, 175.8482
435.2056, 173.9201
435.6877, 175.1051
436.1698, 177.8477
436.6519, 178.5945
437.1341, 177.4587
437.6162, 176.4964
438.0983, 178.0621
438.5804, 180.6321
439.0625, 181.2485
439.5446, 178.8933
440.0268, 176.3549
440.5089, 176.1318
440.9910, 177.5614
441.4731, 179.2798
441.9552, 181.7564
442.4373, 183.4791
442.9195, 182.9087
443.4016, 180.0889
443.8837, 177.8888
444.3658, 177.5412
444.8479, 178.2587
445.3300, 179.4684
445.8122, 182.1234
446.2943, 183.8687
446.7764, 183.7406
447.2585, 182.4063
447.7406, 181.5746
448.2227, 181.6044
448.7049, 181.9113
449.1870, 182.3465
449.6691, 182.8964
450.1512, 183.7177
450.6333, 185.2768
451.1154, 186.5973
451.5976, 186.5162
452.0797, 184.3971
452.5618, 183.0495
453.0439, 183.0631
453.5260, 184.0480
454.0081, 184.9041
454.4903, 185.6541
454.9724, 186.1454
455.4545, 185.8142
455.9366, 184.9367
456.4187, 185.8187
456.9008, 188.7726
457.3830, 192.1123
457.8651, 193.5342
458.3472, 193.6241
458.8293, 194.2039
459.3114, 195.9693
459.7935, 198.4118
460.2757, 201.0026
460.7578, 203.7444
461.2399, 206.7097
461.7220, 210.5849
462.2041, 214.3583
462.6862, 216.9960
463.1684, 218.2491
463.6505, 218.8233
464.1326, 218.4644
464.6147, 217.8123
465.0968, 217.6930
465.5789, 217.8106
466.0611, 219.0517
466.5432, 222.7419
467.0253, 228.4934
467.5074, 232.1998
467.9895, 231.0229
468.4716, 229.6113
468.9538, 230.3657
469.4359, 235.2545
469.9180, 237.8705
470.4001, 237.1301
470.8822, 234.8812
471.3643, 233.8172
471.8465, 234.0961
472.3286, 235.2457
472.8107, 237.9338
473.2928, 241.4502
473.7749, 241.0983
474.2570, 236.1878
474.7392, 231.0164
475.2213, 228.9676
475.7034, 229.6245
476.1855, 230.4588
476.6676, 231.5035
477.1497, 231.6723
477.6319, 228.5128
478.1140, 223.0551
478.5961, 218.6985
479.0782, 217.9790
479.5603, 218.4796
480.0424, 217.1231
480.5246, 214.1637
481.0067, 211.7182
481.4888, 211.4793
481.9709, 212.1364
482.4530, 212.5603
482.9352, 212.4738
483.4173, 212.2850
483.8994, 212.2415
484.3815, 212.1737
484.8636, 211.8257
485.3457, 211.1096
485.8279, 210.1415
486.3100, 208.7076
486.7921, 206.8153
487.2742, 205.5809
487.7563, 205.1490
488.2384, 205.2217
488.7206, 205.7671
489.2027, 207.2484
489.6848, 207.9272
490.1669, 207.5945
490.6490, 206.6618
491.1311, 205.5799
491.6133, 204.2538
492.0954, 203.5081
492.5775, 203.6871
493.0596, 204.6190
493.5417, 205.8623
494.0238, 207.4195
494.5060, 208.7103
494.9881, 209.3493
495.4702, 209.3769
495.9523, 208.5906
496.4344, 206.6842
496.9165, 205.2692
497.3987, 206.3294
497.8808, 208.9982
498.3629, 211.6248
498.8450, 213.9780
499.3271, 215.6891
499.8092, 216.1546
500.2914, 215.6007
500.7735, 215.2181
501.2556, 215.8413
501.7377, 216.5072
502.2198, 216.6950
502.7019, 216.3688
503.1841, 215.5132
503.6662, 213.1123
504.1483, 210.6100
504.6304, 209.7988
505.1125, 212.2821
505.5946, 213.8513
506.0768, 213.6199
506.5589, 211.9494
507.0410, 210.5799
507.5231, 209.4564
508.0052, 208.7819
508.4873, 209.0826
508.9695, 210.3705
509.4516, 209.9810
509.9337, 207.6002
510.4158, 204.7804
510.8979, 203.5557
511.3800, 203.5188
511.8622, 202.7866
512.3443, 200.4146
512.8264, 197.7709
513.3085, 196.6774
513.7906, 196.8720
514.2728, 197.4144
514.7549, 198.4193
515.2370, 199.1270
515.7191, 198.8527
516.2012, 197.5214
516.6833, 195.6527
517.1655, 192.8398
517.6476, 189.9335
518.1297, 187.6653
518.6118, 186.6834
519.0939, 185.7299
519.5760, 184.5699
520.0582, 183.3182
520.5403, 182.2078
521.0224, 181.2412
521.5045, 180.4269
521.9866, 179.7628
522.4688, 179.2460
522.9509, 178.8687
523.4330, 178.5468
523.9151, 178.5440
524.3972, 179.6477
524.8793, 181.9103
525.3615, 181.6198
525.8436, 177.7616
526.3257, 173.1587
526.8078, 172.3869
527.2899, 174.7613
527.7720, 177.1054
528.2542, 178.2947
528.7363, 178.6578
529.2184, 178.4207
529.7005, 177.6686
530.1826, 176.8537
530.6647, 175.9492
531.1469, 175.2922
531.6290, 175.2862
532.1111, 176.1426
532.5932, 176.8883
533.0753, 176.9862
533.5574, 176.8517
534.0396, 176.9141
534.5217, 177.3492
535.0038, 177.8735
535.4859, 178.5747
535.9680, 179.3482
536.4501, 179.9206
536.9323, 180.5568
537.4144, 180.5237
537.8965, 179.2847
538.3786, 176.7979
538.8607, 175.2094
539.3428, 174.7053
539.8250, 174.5584
540.3071, 174.0702
540.7892, 173.3020
541.2713, 172.7781
541.7534, 172.5635
542.2355, 172.6641
542.7177, 173.5418
543.1998, 174.8308
543.6819, 175.3382
544.1640, 173.7034
544.6461, 171.6091
545.1282, 170.5718
545.6104, 170.4987
546.0925, 170.7415
546.5746, 171.6306
547.0567, 172.2538
547.5388, 171.5009
548.0209, 168.1652
548.5031, 167.1080
548.9852, 172.3458
549.4673, 178.9129
549.9494, 181.4400
550.4315, 176.0714
550.9136, 172.6382
551.3958, 172.9875
551.8779, 175.7073
552.3600, 176.2984
552.8421, 173.9635
553.3242, 172.3376
553.8063, 173.5181
554.2885, 176.9691
554.7706, 178.3311
555.2527, 177.5005
555.7348, 175.6953
556.2169, 173.2807
556.6990, 170.7448
557.1812, 169.5575
557.6633, 170.2882
558.1454, 171.0773
558.6275, 169.7947
559.1096, 167.3682
559.5917, 165.4029
560.0739, 165.1259
560.5560, 164.9442
561.0381, 163.8339
561.5202, 162.0733
562.0023, 160.8664
562.4844, 161.1869
562.9666, 161.5476
563.4487, 161.2153
563.9308, 159.9902
564.4129, 159.0564
564.8950, 158.6737
565.3771, 158.2952
565.8593, 157.5300
566.3414, 156.4224
566.8235, 154.6050
567.3056, 151.7819
567.7877, 148.6004
568.2698, 146.2637
568.7520, 144.7135
569.2341, 143.2403
569.7162, 141.0158
570.1983, 139.0593
570.6804, 140.1984
571.1625, 143.8833
571.6447, 146.3172
572.1268, 144.0391
572.6089, 139.8848
573.0910, 136.3822
573.5731, 133.7635
574.0552, 132.0320
574.5374, 131.5855
575.0195, 131.8028
575.5016, 132.0975
575.9837, 132.6184
576.4658, 132.8884
576.9479, 133.0163
577.4301, 132.8321
577.9122, 131.8523
578.3943, 129.2720
578.8764, 127.5201
579.3585, 127.5629
579.8406, 129.0601
580.3228, 129.3976
580.8049, 128.3512
581.2870, 127.5884
581.7691, 128.9668
582.2512, 131.6829
582.7333, 132.2142
583.2155, 130.2029
583.6976, 127.5913
584.1797, 125.8791
584.6617, 124.8557
585.1439, 124.1364
585.6260, 123.5127
586.1081, 123.3610
586.5902, 124.5545
587.0723, 126.3202
587.5544, 127.1510
588.0366, 125.0343
588.5187, 123.5365
589.0008, 124.0556
589.4829, 126.5231
589.9650, 128.7627
590.4471, 130.6728
590.9293, 132.4920
591.4114, 134.4498
591.8935, 136.7083
592.3756, 137.7158
592.8577, 136.9709
593.3398, 136.3334
593.8220, 138.3523
594.3041, 142.5835
594.7862, 145.3491
595.2683, 145.6165
595.7504, 145.1981
596.2325, 146.3145
596.7147, 148.6470
597.1968, 151.3306
597.6789, 154.7004
598.1610, 157.7113
598.6431, 159.4589
599.1252, 160.1287
599.6074, 160.6383
600.0895, 160.9373
600.5716, 161.4833
601.0537, 162.6728
601.5358, 164.7852
602.0179, 166.1903
602.5001, 166.1523
602.9822, 166.1214
603.4643, 167.4406
603.9464, 170.8511
604.4285, 172.4465
604.9106, 171.3217
605.3928, 169.5696
605.8749, 170.8333
606.3570, 174.8601
606.8391, 178.2628
607.3212, 179.9938
607.8033, 180.5850
608.2855, 179.8364
608.7676, 178.3940
609.2497, 178.6193
609.7318, 183.7913
610.2139, 189.7018
610.6960, 192.7994
611.1782, 193.0009
611.6603, 193.2128
612.1424, 194.0749
612.6245, 195.5514
613.1066, 197.8699
613.5887, 202.3681
614.0709, 204.5501
614.5530, 203.1745
615.0351, 200.6225
615.5172, 199.4416
615.9993, 199.9954
616.4814, 200.1049
616.9636, 199.1342
617.4457, 198.0591
617.9278, 199.4704
618.4099, 203.0308
618.8920, 205.2729
619.3741, 204.0973
619.8563, 201.2886
620.3384, 199.3075
620.8205, 198.0242
621.3026, 196.7962
621.7847, 195.0776
622.2668, 193.3901
622.7490, 192.3639
623.2311, 192.1490
623.7132, 191.3404
624.1953, 189.8914
624.6774, 187.4934
625.1595, 183.7328
625.6417, 176.4392
626.1238, 172.2198
626.6059, 172.2538
627.0880, 174.1163
627.5701, 175.0527
628.0522, 175.1572
628.5344, 173.0634
629.0165, 167.5178
629.4986, 161.0640
629.9807, 159.6701
630.4628, 162.3281
630.9449, 163.6469
631.4271, 159.2030
631.9092, 153.1986
632.3913, 150.2762
632.8734, 150.0685
633.3555, 150.1506
633.8376, 149.0731
634.3198, 148.0813
634.8019, 148.2172
635.2840, 150.0063
635.7661, 150.6087
636.2482, 148.3936
636.7303, 146.0263
637.2125, 145.3139
637.6946, 146.6535
638.1767, 148.7648
638.6588, 152.1374
639.1409, 155.3386
639.6230, 155.6261
640.1052, 153.2555
640.5873, 152.1458
641.0694, 153.5511
641.5515, 156.2439
642.0336, 158.8856
642.5157, 161.3265
642.9979, 163.1689
643.4800, 163.5650
643.9621, 163.8083
644.4442, 165.2540
644.9263, 167.5656
645.4084, 168.6843
645.8906, 166.5040
646.3727, 164.2301
646.8548, 163.4406
647.3369, 164.3327
647.8190, 165.3057
648.3011, 166.7596
648.7833, 167.6818
649.2654, 167.2782
649.7475, 165.4776
650.2296, 162.7224
650.7117, 158.6889
651.1938, 155.0283
651.6760, 154.2001
652.1581, 155.5004
652.6402, 156.9431
653.1223, 158.4019
653.6044, 159.0064
654.0865, 156.9178
654.5687, 153.5456
655.0508, 151.5901
655.5329, 152.7078
656.0150, 154.7302
656.4971, 157.7575
656.9792, 161.2957
657.4614, 162.8355
657.9435, 160.3734
658.4256, 158.6473
658.9077, 159.6006
659.3898, 163.0696
659.8719, 164.9049
660.3541, 164.8894
660.8362, 164.2583
661.3183, 163.5386
661.8004, 162.8833
662.2825, 163.0411
662.7646, 164.0993
663.2468, 165.1483
663.7289, 164.7782
664.2110, 164.1545
664.6931, 164.9964
665.1752, 168.3459
665.6573, 171.4164
666.1395, 172.8538
666.6216, 173.4084
667.1037, 174.0025
667.5858, 175.5406
668.0679, 176.0134
668.5500, 174.3356
669.0322, 171.9178
669.5143, 172.0887
669.9964, 175.3446
670.4785, 178.8057
670.9606, 181.8491
671.4427, 184.3338
671.9249, 185.8653
672.4070, 186.4587
672.8891, 186.1499
673.3712, 183.8278
673.8533, 181.2822
674.3354, 180.7598
