##NAMES=Taramite
##RRUFFID=R061101
##IDEAL CHEMISTRY=Na(NaCa)(Mg_3_Al_2_)(Si_6_Al_2_)O_22_(OH)_2_
##LOCALITY=Monte Beigua, 11 km north of Varazze, Savona, Liguria, Italy
##OWNER=RRUFF
##SOURCE=Michael Scott
##DESCRIPTION=Dark green radiating prismatic crystals
##STATUS=The identification of this mineral is confirmed by single-crystal X-ray diffraction and chemical analysis.
##URL=rruff.info/R061101
##MEASURED CHEMISTRY=(Na_0.68_K_0.20_[box]_12_)_Σ=1_(Ca_1.03_Na_0.97_)_Σ=2_(Fe^2+^_2.21_Mg_0.79_)_Σ=3_(Al_0.87_Fe^3+^_0.13_)_Σ=1_(Fe^3+^_0.62_Mg_0.32_Ti_0.05_Mn_0.01_)_Σ=1_(Si_6.37_Al_1.63_)O_22_(OH)_2_
157.9509, 1670.075
158.4330, 1678.546
158.9152, 1686.738
159.3973, 1697.911
159.8794, 1716.716
160.3615, 1743.421
160.8436, 1769.465
161.3257, 1783.790
161.8079, 1783.630
162.2900, 1787.905
162.7721, 1801.834
163.2542, 1819.820
163.7363, 1840.896
164.2184, 1864.426
164.7006, 1886.800
165.1827, 1903.081
165.6648, 1911.734
166.1469, 1920.832
166.6290, 1930.983
167.1111, 1941.993
167.5933, 1955.063
168.0754, 1969.918
168.5575, 1983.356
169.0396, 1989.553
169.5217, 1983.823
170.0038, 1986.030
170.4860, 2002.941
170.9681, 2023.364
171.4502, 2042.614
171.9323, 2059.224
172.4144, 2072.677
172.8965, 2081.896
173.3787, 2085.831
173.8608, 2088.290
174.3429, 2085.354
174.8250, 2084.058
175.3071, 2091.863
175.7892, 2108.140
176.2714, 2123.375
176.7535, 2123.642
177.2356, 2100.517
177.7177, 2084.391
178.1998, 2080.357
178.6819, 2078.231
179.1641, 2069.917
179.6462, 2055.631
180.1283, 2043.529
180.6104, 2045.070
181.0925, 2068.060
181.5746, 2082.296
182.0567, 2082.056
182.5389, 2079.391
183.0210, 2081.513
183.5031, 2088.923
183.9852, 2097.099
184.4673, 2100.109
184.9494, 2093.983
185.4316, 2096.086
185.9137, 2116.025
186.3958, 2134.668
186.8779, 2138.278
187.3600, 2127.849
187.8421, 2116.113
188.3243, 2117.580
188.8064, 2137.113
189.2885, 2150.218
189.7706, 2155.122
190.2527, 2156.652
190.7348, 2155.558
191.2170, 2152.972
191.6991, 2151.745
192.1812, 2155.426
192.6633, 2166.202
193.1454, 2168.942
193.6275, 2160.406
194.1097, 2148.538
194.5918, 2134.505
195.0739, 2120.073
195.5560, 2108.869
196.0381, 2104.282
196.5202, 2106.796
197.0024, 2112.304
197.4845, 2121.100
197.9666, 2131.854
198.4487, 2149.063
198.9308, 2168.863
199.4129, 2179.630
199.8951, 2170.420
200.3772, 2140.326
200.8593, 2122.582
201.3414, 2122.783
201.8235, 2126.642
202.3056, 2131.041
202.7878, 2134.646
203.2699, 2135.611
203.7520, 2132.565
204.2341, 2125.622
204.7162, 2117.195
205.1983, 2106.166
205.6805, 2095.159
206.1626, 2081.139
206.6447, 2067.655
207.1268, 2063.625
207.6089, 2075.995
208.0910, 2100.998
208.5732, 2112.257
209.0553, 2100.008
209.5374, 2087.265
210.0195, 2079.990
210.5016, 2076.165
210.9837, 2070.918
211.4659, 2061.208
211.9480, 2049.674
212.4301, 2047.130
212.9122, 2065.488
213.3943, 2077.905
213.8764, 2078.151
214.3586, 2070.094
214.8407, 2057.672
215.3228, 2042.153
215.8049, 2026.497
216.2870, 2018.835
216.7691, 2022.112
217.2513, 2029.305
217.7334, 2047.500
218.2155, 2066.569
218.6976, 2073.018
219.1797, 2062.157
219.6618, 2041.469
220.1440, 2024.744
220.6261, 2013.156
221.1082, 2004.089
221.5903, 1995.794
222.0724, 1990.846
222.5546, 1994.606
223.0367, 2007.922
223.5188, 2022.113
224.0009, 2024.060
224.4830, 2004.017
224.9651, 1995.088
225.4473, 2008.143
225.9294, 2025.143
226.4115, 2030.868
226.8936, 2023.515
227.3757, 2012.345
227.8578, 2008.104
228.3400, 2014.012
228.8221, 2013.524
229.3042, 2000.461
229.7863, 1986.661
230.2684, 1979.200
230.7505, 1978.321
231.2327, 1980.306
231.7148, 1982.237
232.1969, 1984.286
232.6790, 1983.938
233.1611, 1977.681
233.6432, 1972.782
234.1254, 1973.331
234.6075, 1978.290
235.0896, 1984.677
235.5717, 1991.083
236.0538, 1997.175
236.5359, 1995.126
237.0181, 1971.366
237.5002, 1955.196
237.9823, 1963.124
238.4644, 1984.319
238.9465, 1997.810
239.4286, 1991.036
239.9108, 1968.728
240.3929, 1952.849
240.8750, 1945.167
241.3571, 1941.873
241.8392, 1945.531
242.3213, 1952.470
242.8035, 1958.535
243.2856, 1961.955
243.7677, 1962.922
244.2498, 1961.907
244.7319, 1959.233
245.2140, 1953.696
245.6962, 1941.575
246.1783, 1928.627
246.6604, 1920.251
247.1425, 1917.991
247.6246, 1919.229
248.1067, 1919.864
248.5889, 1918.753
249.0710, 1919.564
249.5531, 1923.792
250.0352, 1928.560
250.5173, 1933.031
250.9994, 1936.502
251.4816, 1937.431
251.9637, 1933.741
252.4458, 1924.171
252.9279, 1915.347
253.4100, 1902.757
253.8921, 1894.823
254.3743, 1899.984
254.8564, 1914.107
255.3385, 1924.959
255.8206, 1921.755
256.3027, 1904.481
256.7849, 1890.750
257.2670, 1883.398
257.7491, 1876.945
258.2312, 1869.599
258.7133, 1862.382
259.1954, 1856.890
259.6776, 1853.922
260.1597, 1853.765
260.6418, 1858.345
261.1239, 1874.653
261.6060, 1885.783
262.0881, 1888.898
262.5703, 1885.854
263.0524, 1876.285
263.5345, 1859.786
264.0166, 1842.819
264.4987, 1839.875
264.9808, 1858.787
265.4630, 1874.400
265.9451, 1882.870
266.4272, 1887.584
266.9093, 1890.801
267.3914, 1893.045
267.8735, 1893.562
268.3557, 1890.984
268.8378, 1884.725
269.3199, 1878.447
269.8020, 1871.741
270.2841, 1865.654
270.7662, 1858.886
271.2484, 1852.531
271.7305, 1850.729
272.2126, 1861.567
272.6947, 1883.986
273.1768, 1892.352
273.6589, 1873.842
274.1411, 1857.431
274.6232, 1855.337
275.1053, 1865.084
275.5874, 1882.061
276.0695, 1911.094
276.5516, 1942.471
277.0338, 1943.451
277.5159, 1896.761
277.9980, 1862.557
278.4801, 1882.777
278.9622, 1925.306
279.4443, 1952.194
279.9265, 1949.121
280.4086, 1932.175
280.8907, 1917.375
281.3728, 1903.901
281.8549, 1902.633
282.3370, 1928.104
282.8192, 1961.027
283.3013, 1980.924
283.7834, 1985.001
284.2655, 1983.356
284.7476, 1983.112
285.2297, 1983.478
285.7119, 1978.992
286.1940, 1964.311
286.6761, 1950.994
287.1582, 1952.515
287.6403, 1967.784
288.1224, 1984.322
288.6046, 2001.025
289.0867, 2014.710
289.5688, 2018.505
290.0509, 2010.519
290.5330, 1999.047
291.0151, 1989.625
291.4973, 1982.318
291.9794, 1977.577
292.4615, 1978.681
292.9436, 1980.026
293.4257, 1975.923
293.9078, 1966.906
294.3900, 1958.076
294.8721, 1951.569
295.3542, 1948.014
295.8363, 1949.090
296.3184, 1960.784
296.8005, 1969.263
297.2827, 1965.182
297.7648, 1954.318
298.2469, 1949.069
298.7290, 1954.670
299.2111, 1965.869
299.6932, 1972.431
300.1754, 1972.225
300.6575, 1972.166
301.1396, 1974.611
301.6217, 1976.547
302.1038, 1974.603
302.5859, 1968.325
303.0681, 1960.040
303.5501, 1951.867
304.0323, 1943.295
304.5144, 1938.046
304.9965, 1937.888
305.4786, 1938.938
305.9607, 1939.864
306.4428, 1940.382
306.9250, 1940.830
307.4071, 1941.848
307.8892, 1942.809
308.3713, 1938.038
308.8534, 1916.938
309.3355, 1901.856
309.8177, 1901.574
310.2998, 1907.249
310.7819, 1905.836
311.2640, 1891.908
311.7461, 1874.458
312.2282, 1873.794
312.7104, 1902.912
313.1925, 1921.232
313.6746, 1923.767
314.1567, 1917.881
314.6388, 1904.570
315.1209, 1886.005
315.6031, 1869.399
316.0852, 1865.325
316.5673, 1875.662
317.0494, 1874.587
317.5315, 1849.613
318.0136, 1826.283
318.4958, 1814.517
318.9779, 1812.487
319.4600, 1815.844
319.9421, 1824.807
320.4242, 1835.760
320.9063, 1837.312
321.3885, 1824.733
321.8706, 1815.977
322.3527, 1823.070
322.8348, 1836.247
323.3169, 1846.240
323.7990, 1851.202
324.2812, 1851.454
324.7633, 1846.186
325.2454, 1835.677
325.7275, 1823.345
326.2096, 1807.408
326.6917, 1793.302
327.1739, 1787.166
327.6560, 1789.002
328.1381, 1792.845
328.6202, 1796.220
329.1023, 1799.902
329.5844, 1807.028
330.0666, 1818.893
330.5487, 1826.930
331.0308, 1819.938
331.5129, 1800.533
331.9950, 1792.143
332.4771, 1808.740
332.9593, 1826.131
333.4414, 1826.656
333.9235, 1813.362
334.4056, 1798.030
334.8877, 1785.555
335.3698, 1777.005
335.8520, 1776.948
336.3341, 1794.702
336.8162, 1806.095
337.2983, 1799.935
337.7804, 1788.459
338.2625, 1788.840
338.7447, 1804.741
339.2268, 1821.666
339.7089, 1818.351
340.1910, 1782.190
340.6731, 1769.975
341.1552, 1807.155
341.6374, 1841.511
342.1195, 1840.994
342.6016, 1813.424
343.0837, 1787.073
343.5658, 1782.619
344.0479, 1796.466
344.5301, 1802.491
345.0122, 1790.631
345.4943, 1784.485
345.9764, 1794.605
346.4585, 1809.289
346.9406, 1814.047
347.4228, 1803.998
347.9049, 1790.116
348.3870, 1790.622
348.8691, 1809.612
349.3512, 1822.193
349.8333, 1822.962
350.3155, 1817.900
350.7976, 1806.093
351.2797, 1789.876
351.7618, 1778.718
352.2439, 1781.386
352.7260, 1794.236
353.2082, 1805.945
353.6903, 1817.061
354.1724, 1825.233
354.6545, 1830.586
355.1366, 1831.636
355.6187, 1823.404
356.1009, 1796.249
356.5830, 1772.123
357.0651, 1773.624
357.5472, 1796.795
358.0293, 1819.320
358.5114, 1834.646
358.9936, 1844.167
359.4757, 1848.112
359.9578, 1844.899
360.4399, 1846.022
360.9220, 1859.955
361.4041, 1876.847
361.8863, 1885.775
362.3684, 1885.255
362.8505, 1878.514
363.3326, 1867.131
363.8147, 1851.036
364.2968, 1838.819
364.7790, 1827.337
365.2611, 1822.435
365.7432, 1831.288
366.2253, 1847.357
366.7074, 1859.676
367.1895, 1863.337
367.6717, 1860.462
368.1538, 1855.262
368.6359, 1841.975
369.1180, 1836.920
369.6001, 1845.506
370.0822, 1857.453
370.5644, 1865.509
371.0465, 1869.464
371.5286, 1874.507
372.0107, 1887.743
372.4928, 1908.517
372.9749, 1915.191
373.4571, 1895.990
373.9392, 1878.742
374.4213, 1875.118
374.9034, 1878.687
375.3855, 1879.646
375.8676, 1873.070
376.3498, 1866.070
376.8319, 1871.423
377.3140, 1890.110
377.7961, 1901.341
378.2782, 1896.576
378.7603, 1884.561
379.2425, 1872.935
379.7246, 1861.758
380.2067, 1855.227
380.6888, 1858.689
381.1709, 1866.896
381.6530, 1871.354
382.1352, 1871.198
382.6173, 1869.191
383.0994, 1867.632
383.5815, 1865.814
384.0636, 1860.445
384.5457, 1844.806
385.0279, 1832.910
385.5100, 1832.142
385.9921, 1839.044
386.4742, 1848.636
386.9563, 1859.370
387.4384, 1867.784
387.9206, 1867.114
388.4027, 1848.686
388.8848, 1842.016
389.3669, 1860.734
389.8490, 1878.826
390.3311, 1877.861
390.8133, 1861.024
391.2954, 1843.450
391.7775, 1836.262
392.2596, 1838.084
392.7417, 1840.594
393.2238, 1844.785
393.7060, 1848.085
394.1881, 1853.541
394.6702, 1856.110
395.1523, 1848.406
395.6344, 1828.840
396.1165, 1808.197
396.5987, 1800.192
397.0808, 1804.580
397.5629, 1805.513
398.0450, 1800.052
398.5271, 1792.658
399.0092, 1783.721
399.4914, 1775.030
399.9735, 1772.282
400.4556, 1783.132
400.9377, 1796.999
401.4198, 1799.912
401.9019, 1792.688
402.3841, 1787.009
402.8662, 1789.668
403.3483, 1795.029
403.8304, 1789.994
404.3125, 1770.174
404.7946, 1754.757
405.2768, 1752.470
405.7589, 1754.899
406.2410, 1752.779
406.7231, 1744.861
407.2052, 1734.837
407.6873, 1725.546
408.1695, 1716.984
408.6516, 1710.961
409.1337, 1702.477
409.6158, 1701.936
410.0979, 1722.435
410.5800, 1748.817
411.0622, 1759.355
411.5443, 1746.138
412.0264, 1722.142
412.5085, 1708.411
412.9906, 1707.788
413.4727, 1706.943
413.9549, 1703.583
414.4370, 1701.351
414.9191, 1702.392
415.4012, 1706.052
415.8833, 1710.050
416.3654, 1712.422
416.8476, 1714.841
417.3297, 1722.739
417.8118, 1737.647
418.2939, 1747.073
418.7760, 1744.126
419.2581, 1733.783
419.7403, 1721.873
420.2224, 1706.916
420.7045, 1698.179
421.1866, 1703.966
421.6687, 1717.338
422.1508, 1728.010
422.6330, 1734.494
423.1151, 1737.712
423.5972, 1737.679
424.0793, 1734.574
424.5614, 1733.707
425.0435, 1735.370
425.5257, 1738.606
426.0078, 1744.407
426.4899, 1751.177
426.9720, 1757.694
427.4541, 1763.345
427.9362, 1765.676
428.4184, 1758.793
428.9005, 1735.394
429.3826, 1726.378
429.8647, 1748.863
430.3468, 1769.090
430.8289, 1770.536
431.3111, 1758.893
431.7932, 1748.698
432.2753, 1748.245
432.7574, 1753.127
433.2395, 1754.686
433.7216, 1752.579
434.2038, 1748.661
434.6859, 1739.096
435.1680, 1731.714
435.6501, 1735.564
436.1322, 1751.008
436.6143, 1766.044
437.0965, 1777.233
437.5786, 1783.662
438.0607, 1782.004
438.5428, 1772.204
439.0249, 1762.007
439.5070, 1756.303
439.9892, 1754.266
440.4713, 1751.890
440.9534, 1744.035
441.4355, 1742.329
441.9176, 1756.766
442.3997, 1774.906
442.8819, 1780.459
443.3640, 1771.241
443.8461, 1759.926
444.3282, 1761.366
444.8103, 1777.137
445.2924, 1784.404
445.7746, 1774.585
446.2567, 1765.291
446.7388, 1763.083
447.2209, 1763.166
447.7030, 1756.524
448.1852, 1739.048
448.6673, 1723.372
449.1494, 1730.619
449.6315, 1760.796
450.1136, 1780.193
450.5957, 1781.357
451.0779, 1773.948
451.5600, 1761.619
452.0421, 1746.558
452.5242, 1737.275
453.0063, 1739.765
453.4884, 1746.192
453.9706, 1751.552
454.4527, 1755.287
454.9348, 1753.524
455.4169, 1742.935
455.8990, 1731.824
456.3811, 1736.839
456.8633, 1773.256
457.3454, 1787.742
457.8275, 1753.913
458.3096, 1719.874
458.7917, 1722.219
459.2738, 1752.714
459.7560, 1780.152
460.2381, 1784.432
460.7202, 1771.835
461.2023, 1762.349
461.6844, 1755.541
462.1665, 1752.909
462.6487, 1763.379
463.1308, 1771.387
463.6129, 1760.674
464.0950, 1733.565
464.5771, 1713.170
465.0592, 1722.494
465.5414, 1748.860
466.0235, 1760.214
466.5056, 1754.661
466.9877, 1746.405
467.4698, 1741.183
467.9519, 1738.610
468.4341, 1737.698
468.9162, 1739.186
469.3983, 1740.269
469.8804, 1740.347
470.3625, 1739.325
470.8446, 1736.784
471.3268, 1732.825
471.8089, 1728.027
472.2910, 1722.300
472.7731, 1716.108
473.2552, 1715.118
473.7373, 1723.015
474.2195, 1732.090
474.7016, 1743.668
475.1837, 1754.824
475.6658, 1763.523
476.1479, 1769.037
476.6300, 1770.601
477.1122, 1766.719
477.5943, 1757.682
478.0764, 1746.423
478.5585, 1729.774
479.0406, 1717.595
479.5227, 1719.892
480.0049, 1728.312
480.4870, 1731.551
480.9691, 1726.808
481.4512, 1719.576
481.9333, 1710.974
482.4154, 1702.840
482.8976, 1699.863
483.3797, 1703.084
483.8618, 1707.095
484.3439, 1706.704
484.8260, 1701.955
485.3081, 1700.386
485.7903, 1701.647
486.2724, 1705.956
486.7545, 1717.376
487.2366, 1730.047
487.7187, 1735.915
488.2008, 1733.302
488.6830, 1728.685
489.1651, 1730.771
489.6472, 1740.115
490.1293, 1743.825
490.6114, 1733.902
491.0935, 1730.355
491.5757, 1749.293
492.0578, 1776.253
492.5399, 1789.652
493.0220, 1781.002
493.5041, 1768.774
493.9862, 1768.073
494.4684, 1775.932
494.9505, 1784.149
495.4326, 1791.438
495.9147, 1797.652
496.3968, 1801.800
496.8789, 1804.180
497.3611, 1810.432
497.8432, 1824.812
498.3253, 1837.845
498.8074, 1844.246
499.2895, 1848.407
499.7716, 1857.217
500.2538, 1871.944
500.7359, 1886.742
501.2180, 1893.193
501.7001, 1890.354
502.1822, 1897.175
502.6643, 1922.681
503.1465, 1945.395
503.6286, 1959.320
504.1107, 1966.135
504.5928, 1965.853
505.0749, 1957.271
505.5570, 1950.738
506.0392, 1956.082
506.5213, 1970.504
507.0034, 1985.991
507.4855, 2001.542
507.9676, 2017.726
508.4497, 2037.140
508.9319, 2057.938
509.4140, 2068.962
509.8961, 2053.732
510.3782, 2049.739
510.8603, 2079.052
511.3424, 2118.711
511.8246, 2142.831
512.3067, 2146.544
512.7888, 2139.134
513.2709, 2126.654
513.7531, 2110.070
514.2352, 2111.219
514.7173, 2139.687
515.1994, 2170.447
515.6815, 2197.948
516.1636, 2223.350
516.6458, 2249.481
517.1279, 2276.713
517.6100, 2297.463
518.0921, 2299.697
518.5742, 2293.121
519.0563, 2300.500
519.5385, 2324.012
520.0206, 2346.611
520.5027, 2358.060
520.9848, 2361.302
521.4669, 2365.770
521.9490, 2367.493
522.4312, 2376.923
522.9133, 2406.910
523.3954, 2437.037
523.8775, 2446.748
524.3596, 2438.238
524.8417, 2429.340
525.3239, 2432.537
525.8060, 2445.616
526.2881, 2461.728
526.7702, 2483.817
527.2523, 2500.984
527.7344, 2507.453
528.2166, 2510.573
528.6987, 2513.413
529.1808, 2516.825
529.6629, 2524.276
530.1450, 2544.067
530.6271, 2564.561
531.1093, 2565.951
531.5914, 2552.434
532.0735, 2528.556
532.5556, 2543.096
533.0377, 2550.459
533.5198, 2551.031
534.0020, 2524.470
534.4841, 2532.946
534.9662, 2527.380
535.4483, 2521.239
535.9304, 2534.645
536.4125, 2512.031
536.8947, 2525.126
537.3768, 2523.968
537.8589, 2550.170
538.3410, 2553.076
538.8231, 2540.091
539.3052, 2529.087
539.7874, 2521.748
540.2695, 2516.771
540.7516, 2518.992
541.2337, 2522.601
541.7158, 2512.258
542.1979, 2472.972
542.6801, 2437.785
543.1622, 2433.299
543.6443, 2444.187
544.1264, 2440.967
544.6085, 2418.388
545.0906, 2397.229
545.5728, 2398.976
546.0549, 2422.191
546.5370, 2430.772
547.0191, 2418.240
547.5012, 2398.294
547.9833, 2364.376
548.4655, 2329.643
548.9476, 2307.463
549.4297, 2298.654
549.9117, 2291.831
550.3939, 2276.909
550.8760, 2257.554
551.3581, 2242.739
551.8402, 2232.554
552.3223, 2227.164
552.8044, 2229.136
553.2866, 2233.526
553.7687, 2231.102
554.2508, 2221.431
554.7329, 2209.365
555.2150, 2193.421
555.6971, 2177.249
556.1793, 2160.055
556.6614, 2144.927
557.1435, 2141.113
557.6256, 2153.611
558.1077, 2169.879
558.5898, 2165.611
559.0720, 2136.822
559.5541, 2107.228
560.0362, 2073.686
560.5183, 2045.297
561.0004, 2026.158
561.4825, 2015.102
561.9647, 2011.002
562.4468, 2018.307
562.9289, 2022.164
563.4110, 2004.360
563.8931, 1976.993
564.3752, 1968.419
564.8574, 1983.049
565.3395, 1996.340
565.8216, 1986.476
566.3037, 1956.771
566.7858, 1936.335
567.2679, 1931.999
567.7501, 1928.485
568.2322, 1925.665
568.7143, 1922.385
569.1964, 1918.246
569.6785, 1912.917
570.1606, 1905.494
570.6428, 1894.828
571.1249, 1882.115
571.6070, 1869.301
572.0891, 1856.416
572.5712, 1844.710
573.0533, 1834.829
573.5355, 1825.783
574.0176, 1816.516
574.4997, 1807.024
574.9818, 1782.457
575.4639, 1793.833
575.9460, 1798.032
576.4282, 1795.438
576.9103, 1765.714
577.3924, 1771.024
577.8745, 1762.295
578.3566, 1752.989
578.8387, 1763.231
579.3209, 1737.451
579.8030, 1747.384
580.2851, 1743.060
580.7672, 1745.261
581.2493, 1733.335
581.7314, 1725.772
582.2136, 1732.340
582.6957, 1731.084
583.1778, 1717.532
583.6599, 1720.147
584.1420, 1693.875
584.6241, 1692.953
585.1063, 1702.966
585.5884, 1675.504
586.0705, 1688.508
586.5526, 1694.336
587.0347, 1693.372
587.5168, 1665.276
587.9990, 1672.215
588.4811, 1665.114
588.9632, 1657.438
589.4453, 1669.308
589.9274, 1645.159
590.4095, 1656.719
590.8917, 1654.024
591.3738, 1657.854
591.8559, 1647.557
592.3380, 1641.623
592.8201, 1649.821
593.3022, 1650.194
593.7844, 1638.270
594.2665, 1642.515
594.7486, 1617.872
595.2307, 1618.578
595.7128, 1630.221
596.1949, 1619.008
596.6771, 1623.510
597.1592, 1622.028
597.6413, 1593.343
598.1234, 1611.965
598.6055, 1583.891
599.0876, 1598.319
599.5698, 1605.569
600.0519, 1606.029
600.5340, 1579.357
601.0161, 1587.720
601.4982, 1582.043
601.9803, 1575.790
602.4625, 1589.084
602.9446, 1566.358
603.4267, 1579.343
603.9088, 1578.072
604.3909, 1583.325
604.8730, 1574.452
605.3552, 1569.941
605.8373, 1579.563
606.3194, 1581.359
606.8015, 1554.408
607.2836, 1547.854
607.7657, 1547.637
608.2479, 1552.040
608.7300, 1562.084
609.2121, 1569.687
609.6942, 1571.539
610.1763, 1572.205
610.6584, 1580.556
611.1406, 1593.827
611.6227, 1592.937
612.1048, 1557.522
612.5869, 1526.723
613.0690, 1523.589
613.5511, 1535.084
614.0333, 1543.677
614.5154, 1545.282
614.9975, 1543.620
615.4796, 1541.318
615.9617, 1539.053
616.4438, 1541.808
616.9260, 1552.768
617.4081, 1559.166
617.8902, 1552.750
618.3723, 1544.761
618.8544, 1545.876
619.3365, 1555.299
619.8187, 1564.386
620.3008, 1574.887
620.7829, 1580.070
621.2650, 1571.331
621.7471, 1554.736
622.2292, 1540.456
622.7114, 1531.667
623.1935, 1529.738
623.6756, 1537.996
624.1577, 1555.166
624.6398, 1561.438
625.1219, 1550.448
625.6041, 1541.345
626.0862, 1538.302
626.5683, 1539.748
627.0504, 1547.117
627.5325, 1559.434
628.0146, 1567.885
628.4968, 1564.653
628.9789, 1560.021
629.4610, 1565.878
629.9431, 1577.135
630.4252, 1579.873
630.9073, 1570.384
631.3895, 1558.569
631.8716, 1556.126
632.3537, 1562.755
632.8358, 1563.560
633.3179, 1552.064
633.8000, 1545.997
634.2822, 1553.589
634.7643, 1565.164
635.2464, 1574.436
635.7285, 1580.521
636.2106, 1582.273
636.6927, 1573.053
637.1749, 1564.313
637.6570, 1570.154
638.1391, 1585.194
638.6212, 1594.872
639.1033, 1594.963
639.5854, 1591.018
640.0676, 1588.638
640.5497, 1587.833
641.0318, 1589.884
641.5139, 1599.676
641.9960, 1604.069
642.4781, 1593.725
642.9603, 1582.054
643.4424, 1582.706
643.9245, 1594.284
644.4066, 1600.445
644.8887, 1585.845
645.3708, 1569.540
645.8530, 1570.898
646.3351, 1584.514
646.8172, 1598.005
647.2993, 1607.895
647.7814, 1614.726
648.2635, 1618.686
648.7457, 1620.032
649.2278, 1622.807
