##NAMES=Taramite
##RRUFFID=R070238
##IDEAL CHEMISTRY=Na(NaCa)(Mg_3_Al_2_)(Si_6_Al_2_)O_22_(OH)_2_
##LOCALITY=Ilmen Mts, Chelyabinsk Oblast', Urals Region, Russia
##OWNER=RRUFF
##SOURCE=Michael Scott
##DESCRIPTION=Lustrous black crystals in matrix
##STATUS=The identification of this mineral has been confirmed only by single crystal X-ray diffraction.
##URL=rruff.info/R070238
169.7132, 1333.219
170.1953, 1336.744
170.6774, 1340.789
171.1595, 1345.908
171.6417, 1354.643
172.1238, 1363.665
172.6059, 1362.919
173.0880, 1346.053
173.5701, 1332.211
174.0522, 1331.747
174.5344, 1338.901
175.0165, 1345.891
175.4986, 1349.558
175.9807, 1350.273
176.4628, 1348.281
176.9449, 1340.502
177.4271, 1335.908
177.9092, 1339.538
178.3913, 1347.518
178.8734, 1354.079
179.3555, 1355.084
179.8376, 1354.167
180.3197, 1363.889
180.8019, 1394.529
181.2840, 1417.271
181.7661, 1419.127
182.2482, 1410.470
182.7303, 1403.485
183.2124, 1403.726
183.6946, 1409.923
184.1767, 1420.020
184.6588, 1441.260
185.1409, 1452.860
185.6230, 1441.843
186.1051, 1422.482
186.5873, 1411.562
187.0694, 1417.599
187.5515, 1434.470
188.0336, 1446.243
188.5157, 1450.616
188.9978, 1453.226
189.4800, 1455.677
189.9621, 1457.201
190.4442, 1456.504
190.9263, 1452.819
191.4084, 1447.800
191.8905, 1444.833
192.3727, 1441.312
192.8548, 1445.349
193.3369, 1465.727
193.8190, 1489.515
194.3011, 1503.705
194.7832, 1503.052
195.2654, 1493.435
195.7475, 1487.084
196.2296, 1484.376
196.7117, 1484.613
197.1938, 1488.660
197.6759, 1494.490
198.1581, 1500.402
198.6402, 1505.830
199.1223, 1511.253
199.6044, 1518.129
200.0865, 1529.542
200.5686, 1535.875
201.0508, 1534.120
201.5329, 1529.369
202.0150, 1525.729
202.4971, 1524.246
202.9792, 1522.744
203.4613, 1516.636
203.9435, 1500.558
204.4256, 1492.380
204.9077, 1500.316
205.3898, 1510.007
205.8719, 1510.303
206.3540, 1499.676
206.8362, 1486.176
207.3183, 1480.890
207.8004, 1486.880
208.2825, 1493.799
208.7646, 1506.548
209.2467, 1516.377
209.7289, 1516.828
210.2110, 1507.931
210.6931, 1495.194
211.1752, 1483.761
211.6573, 1471.890
212.1395, 1468.424
212.6216, 1482.272
213.1037, 1496.325
213.5858, 1502.618
214.0679, 1500.949
214.5500, 1495.340
215.0322, 1489.085
215.5143, 1481.785
215.9964, 1476.715
216.4785, 1477.656
216.9606, 1477.279
217.4427, 1470.489
217.9249, 1459.486
218.4070, 1450.726
218.8891, 1449.965
219.3712, 1457.441
219.8533, 1464.313
220.3354, 1471.370
220.8176, 1476.973
221.2997, 1479.996
221.7818, 1481.191
222.2639, 1482.154
222.7460, 1484.150
223.2281, 1486.925
223.7103, 1487.549
224.1924, 1483.906
224.6745, 1480.240
225.1566, 1476.620
225.6387, 1473.677
226.1208, 1472.743
226.6030, 1474.962
227.0851, 1478.909
227.5672, 1478.407
228.0493, 1469.231
228.5314, 1461.041
229.0135, 1453.158
229.4957, 1447.905
229.9778, 1449.210
230.4599, 1459.094
230.9420, 1473.071
231.4241, 1480.171
231.9062, 1478.178
232.3884, 1472.226
232.8705, 1456.777
233.3526, 1441.640
233.8347, 1436.958
234.3168, 1445.787
234.7989, 1460.238
235.2811, 1465.739
235.7632, 1455.824
236.2453, 1452.479
236.7274, 1461.913
237.2095, 1474.593
237.6916, 1485.131
238.1738, 1492.139
238.6559, 1496.519
239.1380, 1499.219
239.6201, 1500.073
240.1022, 1499.798
240.5843, 1498.790
241.0665, 1496.360
241.5486, 1490.323
242.0307, 1481.700
242.5128, 1474.889
242.9949, 1475.449
243.4770, 1484.352
243.9592, 1488.848
244.4413, 1483.193
244.9234, 1478.412
245.4055, 1478.893
245.8876, 1483.691
246.3697, 1489.663
246.8519, 1494.740
247.3340, 1499.059
247.8161, 1503.955
248.2982, 1512.837
248.7803, 1517.354
249.2624, 1513.381
249.7446, 1503.840
250.2267, 1493.110
250.7088, 1482.800
251.1909, 1473.544
251.6730, 1467.097
252.1551, 1463.643
252.6373, 1462.850
253.1194, 1466.703
253.6015, 1471.968
254.0836, 1475.381
254.5657, 1475.848
255.0478, 1473.754
255.5300, 1468.522
256.0121, 1458.534
256.4942, 1451.667
256.9763, 1454.356
257.4584, 1458.669
257.9406, 1458.724
258.4227, 1453.220
258.9048, 1445.459
259.3869, 1436.795
259.8690, 1426.910
260.3511, 1423.950
260.8333, 1436.353
261.3154, 1450.217
261.7975, 1455.128
262.2796, 1451.057
262.7617, 1445.281
263.2438, 1443.492
263.7260, 1444.708
264.2081, 1442.599
264.6902, 1433.727
265.1723, 1425.855
265.6544, 1424.459
266.1365, 1428.458
266.6187, 1434.688
267.1008, 1445.211
267.5829, 1456.323
268.0650, 1458.988
268.5471, 1450.867
269.0292, 1441.289
269.5114, 1436.480
269.9935, 1434.635
270.4756, 1432.712
270.9577, 1426.187
271.4398, 1422.335
271.9219, 1433.080
272.4041, 1458.991
272.8862, 1480.322
273.3683, 1484.962
273.8504, 1479.583
274.3325, 1478.147
274.8146, 1483.689
275.2968, 1488.798
275.7789, 1487.744
276.2610, 1481.845
276.7431, 1475.682
277.2252, 1469.068
277.7073, 1465.546
278.1895, 1472.467
278.6716, 1491.984
279.1537, 1509.331
279.6358, 1519.903
280.1179, 1524.670
280.6000, 1523.834
281.0822, 1516.741
281.5643, 1508.421
282.0464, 1505.124
282.5285, 1507.315
283.0106, 1508.788
283.4927, 1509.473
283.9749, 1508.761
284.4570, 1503.840
284.9391, 1495.248
285.4212, 1490.255
285.9033, 1495.554
286.3854, 1511.127
286.8676, 1524.460
287.3497, 1539.706
287.8318, 1549.023
288.3139, 1543.146
288.7960, 1527.698
289.2781, 1518.751
289.7603, 1526.528
290.2424, 1545.332
290.7245, 1550.812
291.2066, 1528.359
291.6887, 1511.598
292.1708, 1509.503
292.6530, 1514.411
293.1351, 1517.054
293.6172, 1514.154
294.0993, 1507.974
294.5814, 1502.288
295.0635, 1495.678
295.5457, 1492.628
296.0278, 1497.028
296.5099, 1501.928
296.9920, 1501.222
297.4741, 1495.030
297.9562, 1488.837
298.4384, 1488.616
298.9205, 1495.487
299.4026, 1500.603
299.8847, 1506.466
300.3668, 1508.172
300.8489, 1501.085
301.3310, 1488.469
301.8131, 1476.905
302.2953, 1470.612
302.7774, 1468.958
303.2595, 1468.929
303.7416, 1472.274
304.2237, 1474.676
304.7058, 1476.489
305.1880, 1476.502
305.6701, 1473.282
306.1522, 1466.266
306.6343, 1456.497
307.1164, 1443.826
307.5985, 1425.458
308.0807, 1414.863
308.5628, 1426.654
309.0449, 1438.484
309.5270, 1434.243
310.0091, 1413.606
310.4912, 1392.197
310.9734, 1384.256
311.4555, 1388.550
311.9376, 1391.602
312.4197, 1390.907
312.9018, 1391.324
313.3839, 1399.879
313.8661, 1412.235
314.3482, 1416.551
314.8303, 1401.532
315.3124, 1377.840
315.7945, 1365.010
316.2766, 1364.689
316.7588, 1365.618
317.2409, 1361.110
317.7230, 1354.359
318.2051, 1350.977
318.6872, 1353.500
319.1693, 1356.189
319.6515, 1354.907
320.1336, 1350.168
320.6157, 1343.696
321.0978, 1334.979
321.5799, 1326.559
322.0620, 1322.408
322.5442, 1322.389
323.0263, 1325.144
323.5084, 1333.198
323.9905, 1342.596
324.4726, 1348.071
324.9547, 1348.764
325.4369, 1347.123
325.9190, 1344.836
326.4011, 1341.782
326.8832, 1341.396
327.3653, 1344.390
327.8474, 1349.259
328.3296, 1358.147
328.8117, 1368.629
329.2938, 1373.167
329.7759, 1366.451
330.2580, 1351.994
330.7401, 1345.958
331.2223, 1353.818
331.7044, 1363.391
332.1865, 1379.782
332.6686, 1394.421
333.1507, 1396.155
333.6328, 1382.245
334.1150, 1361.726
334.5971, 1347.276
335.0792, 1338.881
335.5613, 1337.373
336.0434, 1345.995
336.5255, 1357.716
337.0077, 1372.395
337.4898, 1387.506
337.9719, 1397.461
338.4540, 1396.785
338.9361, 1386.782
339.4182, 1379.201
339.9004, 1375.577
340.3825, 1372.303
340.8646, 1365.657
341.3467, 1359.587
341.8288, 1360.555
342.3109, 1372.149
342.7931, 1385.934
343.2752, 1387.659
343.7573, 1375.166
344.2394, 1365.843
344.7215, 1363.158
345.2036, 1366.028
345.6858, 1376.254
346.1679, 1393.486
346.6500, 1407.335
347.1321, 1409.622
347.6142, 1403.566
348.0963, 1396.845
348.5785, 1388.844
349.0606, 1384.418
349.5427, 1389.589
350.0248, 1401.721
350.5069, 1413.385
350.9890, 1426.923
351.4712, 1436.700
351.9533, 1436.308
352.4354, 1427.306
352.9175, 1417.389
353.3996, 1409.323
353.8817, 1403.550
354.3639, 1401.911
354.8460, 1406.113
355.3281, 1409.831
355.8102, 1411.711
356.2923, 1412.357
356.7744, 1411.863
357.2566, 1410.406
357.7387, 1409.366
358.2208, 1410.092
358.7029, 1412.429
359.1850, 1417.928
359.6671, 1432.932
360.1493, 1444.375
360.6314, 1443.160
361.1135, 1433.905
361.5956, 1427.997
362.0777, 1432.768
362.5598, 1443.602
363.0420, 1442.786
363.5241, 1418.299
364.0062, 1401.458
364.4883, 1400.012
364.9704, 1404.268
365.4525, 1407.424
365.9347, 1407.540
366.4168, 1404.701
366.8989, 1396.714
367.3810, 1382.778
367.8631, 1376.650
368.3452, 1384.840
368.8274, 1393.981
369.3095, 1397.697
369.7916, 1397.073
370.2737, 1394.811
370.7558, 1390.998
371.2379, 1387.229
371.7201, 1386.255
372.2022, 1388.204
372.6843, 1391.743
373.1664, 1396.761
373.6485, 1402.901
374.1306, 1410.934
374.6128, 1423.119
375.0949, 1429.111
375.5770, 1419.104
376.0591, 1399.813
376.5412, 1383.941
377.0233, 1373.944
377.5055, 1368.391
377.9876, 1366.524
378.4697, 1368.813
378.9518, 1371.202
379.4339, 1374.170
379.9160, 1376.756
380.3982, 1379.086
380.8803, 1380.602
381.3624, 1380.218
381.8445, 1377.491
382.3266, 1372.012
382.8087, 1362.190
383.2909, 1335.559
383.7730, 1321.649
384.2551, 1334.004
384.7372, 1350.741
385.2193, 1351.049
385.7014, 1333.566
386.1836, 1314.957
386.6657, 1314.007
387.1478, 1331.964
387.6299, 1343.645
388.1120, 1346.584
388.5941, 1345.534
389.0763, 1340.512
389.5584, 1333.061
390.0405, 1324.994
390.5226, 1316.500
391.0047, 1309.227
391.4868, 1307.237
391.9690, 1311.488
392.4511, 1311.405
392.9332, 1298.533
393.4153, 1285.540
393.8974, 1285.971
394.3795, 1299.791
394.8617, 1312.659
395.3438, 1317.398
395.8259, 1316.778
396.3080, 1314.620
396.7901, 1311.136
397.2722, 1308.197
397.7544, 1308.033
398.2365, 1309.489
398.7186, 1306.897
399.2007, 1296.671
399.6828, 1286.553
400.1649, 1279.700
400.6471, 1274.896
401.1292, 1269.867
401.6113, 1263.833
402.0934, 1258.025
402.5755, 1253.857
403.0576, 1250.217
403.5398, 1252.320
404.0219, 1269.160
404.5040, 1282.639
404.9861, 1279.058
405.4682, 1264.158
405.9503, 1253.735
406.4325, 1258.453
406.9146, 1273.484
407.3967, 1282.077
407.8788, 1283.685
408.3609, 1279.565
408.8430, 1260.435
409.3252, 1242.360
409.8073, 1240.488
410.2894, 1256.285
410.7715, 1274.878
411.2536, 1282.561
411.7357, 1281.737
412.2179, 1285.340
412.7000, 1296.537
413.1821, 1306.482
413.6642, 1306.327
414.1463, 1300.705
414.6284, 1298.763
415.1106, 1303.986
415.5927, 1311.132
416.0748, 1316.531
416.5569, 1320.744
417.0390, 1326.259
417.5211, 1334.581
418.0033, 1341.917
418.4854, 1341.766
418.9675, 1330.680
419.4496, 1323.846
419.9317, 1323.358
420.4138, 1326.019
420.8960, 1332.640
421.3781, 1340.890
421.8602, 1343.579
422.3423, 1334.949
422.8244, 1319.626
423.3065, 1318.391
423.7887, 1346.812
424.2708, 1365.036
424.7529, 1362.672
425.2350, 1353.704
425.7171, 1348.726
426.1992, 1349.560
426.6814, 1352.384
427.1635, 1354.181
427.6456, 1354.956
428.1277, 1353.847
428.6098, 1348.078
429.0919, 1345.855
429.5741, 1355.269
430.0562, 1369.801
430.5383, 1379.631
431.0204, 1381.367
431.5025, 1380.338
431.9846, 1381.928
432.4668, 1384.586
432.9489, 1381.279
433.4310, 1368.524
433.9131, 1355.230
434.3952, 1353.480
434.8773, 1364.930
435.3595, 1370.145
435.8416, 1364.546
436.3237, 1355.627
436.8058, 1346.169
437.2879, 1337.164
437.7701, 1329.520
438.2522, 1323.558
438.7343, 1320.284
439.2164, 1322.626
439.6985, 1334.993
440.1806, 1345.229
440.6628, 1355.805
441.1449, 1362.361
441.6270, 1360.130
442.1091, 1350.733
442.5912, 1340.687
443.0733, 1334.841
443.5555, 1332.213
444.0376, 1328.572
444.5197, 1322.639
445.0018, 1319.321
445.4839, 1325.338
445.9660, 1332.354
446.4482, 1330.764
446.9303, 1318.269
447.4124, 1306.234
447.8945, 1300.021
448.3766, 1299.508
448.8587, 1307.472
449.3409, 1325.165
449.8230, 1339.220
450.3051, 1337.789
450.7872, 1322.473
451.2693, 1312.051
451.7514, 1310.253
452.2336, 1308.605
452.7157, 1303.995
453.1978, 1298.008
453.6799, 1292.769
454.1620, 1288.938
454.6441, 1286.040
455.1263, 1282.940
455.6084, 1278.611
456.0905, 1279.924
456.5726, 1296.957
457.0547, 1309.335
457.5368, 1307.729
458.0190, 1298.089
458.5011, 1290.790
458.9832, 1290.734
459.4653, 1291.869
459.9474, 1283.614
460.4295, 1265.789
460.9117, 1252.599
461.3938, 1245.693
461.8759, 1245.887
462.3580, 1259.282
462.8401, 1282.346
463.3222, 1295.517
463.8044, 1284.735
464.2865, 1268.775
464.7686, 1263.448
465.2507, 1267.445
465.7328, 1274.572
466.2149, 1282.444
466.6971, 1291.049
467.1792, 1300.666
467.6613, 1315.138
468.1434, 1321.860
468.6255, 1315.980
469.1076, 1306.748
469.5898, 1298.475
470.0719, 1291.869
470.5540, 1286.925
471.0361, 1283.725
471.5182, 1281.863
472.0003, 1279.974
472.4825, 1277.586
472.9646, 1276.505
473.4467, 1280.369
473.9288, 1283.288
474.4109, 1279.480
474.8930, 1269.677
475.3752, 1262.345
475.8573, 1264.115
476.3394, 1270.732
476.8215, 1276.080
477.3036, 1280.006
477.7857, 1279.540
478.2679, 1270.167
478.7500, 1257.948
479.2321, 1259.015
479.7142, 1279.316
480.1963, 1295.677
480.6784, 1306.468
481.1606, 1309.593
481.6427, 1296.408
482.1248, 1271.109
482.6069, 1254.145
483.0890, 1262.557
483.5711, 1290.058
484.0533, 1301.124
484.5354, 1283.380
485.0175, 1269.114
485.4996, 1260.972
485.9817, 1258.996
486.4638, 1264.798
486.9460, 1277.756
487.4281, 1293.130
487.9102, 1309.701
488.3923, 1325.747
488.8744, 1335.745
489.3565, 1339.210
489.8387, 1338.828
490.3208, 1333.336
490.8029, 1326.111
491.2850, 1323.469
491.7671, 1325.017
492.2492, 1332.002
492.7314, 1350.959
493.2135, 1372.128
493.6956, 1383.200
494.1777, 1383.833
494.6598, 1383.719
495.1419, 1391.317
495.6241, 1403.743
496.1062, 1401.727
496.5883, 1364.594
497.0704, 1342.240
497.5525, 1342.621
498.0346, 1356.703
498.5168, 1383.027
498.9989, 1417.823
499.4810, 1447.740
499.9631, 1460.999
500.4452, 1460.635
500.9273, 1455.857
501.4095, 1444.571
501.8916, 1437.854
502.3737, 1442.302
502.8558, 1453.306
503.3379, 1464.340
503.8200, 1476.471
504.3022, 1483.410
504.7843, 1475.943
505.2664, 1465.943
505.7485, 1468.241
506.2306, 1482.935
506.7127, 1501.178
507.1949, 1518.159
507.6770, 1532.572
508.1591, 1538.202
508.6412, 1522.304
509.1233, 1516.457
509.6054, 1529.353
510.0876, 1546.952
510.5697, 1559.530
511.0518, 1566.597
511.5339, 1572.530
512.0161, 1579.330
512.4982, 1587.958
512.9803, 1604.295
513.4624, 1631.149
513.9445, 1647.008
514.4266, 1636.139
514.9088, 1617.628
515.3909, 1617.228
515.8730, 1636.214
516.3551, 1655.400
516.8372, 1668.615
517.3193, 1679.794
517.8015, 1693.370
518.2836, 1708.568
518.7657, 1721.432
519.2478, 1729.615
519.7299, 1735.092
520.2120, 1742.423
520.6942, 1751.435
521.1763, 1762.854
521.6584, 1778.792
522.1405, 1794.830
522.6226, 1810.435
523.1047, 1824.192
523.5869, 1832.168
524.0690, 1830.209
524.5511, 1826.266
525.0332, 1835.888
525.5153, 1858.955
525.9974, 1875.576
526.4796, 1878.373
526.9617, 1877.679
527.4438, 1884.787
527.9259, 1898.722
528.4080, 1911.750
528.8901, 1926.723
529.3723, 1936.644
529.8544, 1933.152
530.3365, 1922.438
530.8186, 1916.467
531.3007, 1919.287
531.7828, 1926.706
532.2650, 1933.963
532.7471, 1942.203
533.2292, 1943.229
533.7113, 1933.040
534.1934, 1919.757
534.6755, 1903.368
535.1577, 1886.380
535.6398, 1871.588
536.1219, 1859.657
536.6040, 1850.722
537.0861, 1845.788
537.5682, 1843.985
538.0504, 1843.411
538.5325, 1844.314
539.0146, 1843.104
539.4967, 1837.780
539.9788, 1828.134
540.4609, 1813.630
540.9431, 1788.019
541.4252, 1766.467
541.9073, 1752.960
542.3894, 1744.266
542.8715, 1739.038
543.3536, 1735.916
543.8358, 1731.857
544.3179, 1724.746
544.8000, 1714.434
545.2821, 1698.617
545.7642, 1672.544
546.2463, 1654.134
546.7285, 1656.237
547.2106, 1661.659
547.6926, 1656.589
548.1747, 1641.309
548.6569, 1625.923
549.1390, 1612.462
549.6211, 1602.830
550.1032, 1603.127
550.5853, 1610.247
551.0674, 1609.849
551.5496, 1595.288
552.0317, 1575.329
552.5138, 1564.488
552.9959, 1566.799
553.4780, 1564.502
553.9601, 1555.045
554.4423, 1544.405
554.9244, 1534.673
555.4065, 1525.435
555.8886, 1515.299
556.3707, 1503.646
556.8528, 1492.869
557.3350, 1486.723
557.8171, 1484.524
558.2992, 1480.248
558.7813, 1472.458
559.2634, 1465.547
559.7455, 1464.007
560.2277, 1465.318
560.7098, 1461.391
561.1919, 1448.347
561.6740, 1436.747
562.1561, 1430.018
562.6382, 1426.287
563.1204, 1424.335
563.6025, 1423.521
564.0846, 1422.800
564.5667, 1421.645
565.0488, 1419.521
565.5309, 1413.421
566.0131, 1399.777
566.4952, 1391.219
566.9773, 1399.266
567.4594, 1405.398
567.9415, 1393.368
568.4236, 1367.393
568.9058, 1348.703
569.3879, 1350.797
569.8700, 1359.896
570.3521, 1364.537
570.8342, 1364.656
571.3163, 1359.078
571.7985, 1347.094
572.2806, 1332.478
572.7627, 1318.816
573.2448, 1305.279
573.7269, 1300.414
574.2090, 1308.463
574.6912, 1319.602
575.1733, 1336.052
575.6554, 1351.890
576.1375, 1360.604
576.6196, 1360.899
577.1017, 1356.747
577.5839, 1349.601
578.0660, 1340.915
578.5481, 1336.454
579.0302, 1336.912
579.5123, 1336.160
579.9944, 1331.204
580.4766, 1323.609
580.9587, 1316.380
581.4408, 1309.842
581.9229, 1302.280
582.4050, 1292.592
582.8871, 1282.666
583.3693, 1271.314
583.8514, 1261.061
584.3335, 1258.035
584.8156, 1265.164
585.2977, 1275.472
585.7798, 1277.079
586.2620, 1269.012
586.7441, 1263.760
587.2262, 1263.294
587.7083, 1263.356
588.1904, 1263.071
588.6725, 1261.309
589.1547, 1255.431
589.6368, 1243.295
590.1189, 1231.757
590.6010, 1224.600
591.0831, 1219.610
591.5652, 1213.142
592.0474, 1205.561
592.5295, 1201.227
593.0116, 1203.439
593.4937, 1209.836
593.9758, 1213.309
594.4579, 1213.605
594.9401, 1211.540
595.4222, 1204.390
595.9043, 1197.407
596.3864, 1194.851
596.8685, 1194.527
597.3506, 1190.008
597.8328, 1175.814
598.3149, 1162.848
598.7970, 1163.552
599.2791, 1172.937
599.7612, 1177.865
600.2433, 1175.811
600.7255, 1171.979
601.2076, 1170.707
601.6897, 1171.598
602.1718, 1171.340
602.6539, 1164.985
603.1360, 1164.479
603.6182, 1177.344
604.1003, 1191.053
604.5824, 1196.156
605.0645, 1193.045
605.5466, 1187.524
606.0287, 1182.061
606.5109, 1177.148
606.9930, 1173.412
607.4751, 1170.842
607.9572, 1170.145
608.4393, 1172.367
608.9214, 1172.816
609.4036, 1165.225
609.8857, 1149.560
610.3678, 1142.020
610.8499, 1147.560
611.3320, 1154.119
611.8141, 1159.987
612.2963, 1164.894
612.7784, 1170.655
613.2605, 1176.065
613.7426, 1174.350
614.2247, 1155.237
614.7068, 1129.637
615.1890, 1128.649
615.6711, 1153.662
616.1532, 1171.774
616.6353, 1172.458
617.1174, 1164.667
617.5995, 1155.358
618.0817, 1144.480
618.5638, 1142.546
619.0459, 1158.776
619.5280, 1173.815
620.0101, 1182.354
620.4922, 1184.422
620.9744, 1177.998
621.4565, 1164.216
621.9386, 1150.369
622.4207, 1142.260
622.9028, 1139.641
623.3849, 1142.604
623.8671, 1152.055
624.3492, 1162.060
624.8313, 1172.127
625.3134, 1180.537
625.7955, 1184.749
626.2776, 1185.036
626.7598, 1184.011
627.2419, 1181.543
627.7240, 1178.365
628.2061, 1172.987
628.6882, 1167.900
629.1703, 1167.514
629.6525, 1172.349
630.1346, 1178.037
630.6167, 1179.853
631.0988, 1178.920
631.5809, 1183.166
632.0630, 1195.720
632.5452, 1201.011
633.0273, 1191.376
633.5094, 1175.204
633.9915, 1159.444
634.4736, 1144.302
634.9557, 1136.081
635.4379, 1140.582
635.9200, 1147.637
636.4021, 1151.538
636.8842, 1154.264
637.3663, 1159.957
637.8484, 1169.178
638.3306, 1177.849
638.8127, 1181.540
639.2948, 1181.191
639.7769, 1182.923
640.2590, 1188.031
640.7411, 1190.820
641.2233, 1191.174
641.7054, 1186.935
642.1875, 1170.165
642.6696, 1142.838
643.1517, 1131.900
643.6339, 1160.218
644.1160, 1187.780
644.5981, 1191.932
645.0802, 1181.404
645.5623, 1166.185
646.0444, 1150.448
646.5266, 1140.781
647.0087, 1144.623
647.4908, 1158.894
647.9729, 1169.471
648.4550, 1175.990
648.9371, 1179.910
649.4193, 1181.014
649.9014, 1180.202
650.3835, 1178.109
650.8656, 1174.840
651.3477, 1170.925
651.8298, 1166.362
652.3120, 1161.262
652.7941, 1154.228
653.2762, 1147.365
653.7583, 1144.412
654.2404, 1145.288
654.7225, 1145.274
655.2047, 1139.443
655.6868, 1131.332
656.1689, 1135.254
656.6510, 1154.462
657.1331, 1164.923
657.6152, 1157.411
658.0974, 1145.865
658.5795, 1142.256
659.0616, 1145.226
659.5437, 1149.270
660.0258, 1155.682
660.5079, 1160.882
660.9901, 1163.240
661.4722, 1164.049
661.9543, 1164.696
662.4364, 1165.234
662.9185, 1164.489
663.4006, 1161.105
663.8828, 1157.627
664.3649, 1161.120
664.8470, 1171.932
665.3291, 1177.433
665.8112, 1173.485
666.2933, 1169.396
666.7755, 1173.916
