##NAMES=Taramellite
##RRUFFID=R110043
##IDEAL CHEMISTRY=Ba_4_(Fe^3+^,Ti^4+^)_4_O_2_[B_2_Si_8_O_27_]Cl_0-1_
##LOCALITY=Big Creek, Fresno County, California, USA
##OWNER=RRUFF
##SOURCE=William W Pinch
##DESCRIPTION=Reddish brown blocky crystals frozen in quartz
##STATUS=The identification of this mineral has been confirmed by single-crystal X-ray diffraction.
##URL=rruff.info/R110043
184.1699, 1686.628
184.6520, 1679.422
185.1342, 1674.892
185.6163, 1674.962
186.0984, 1677.053
186.5805, 1678.590
187.0626, 1678.825
187.5447, 1678.301
188.0269, 1677.894
188.5090, 1677.760
188.9911, 1677.172
189.4732, 1675.293
189.9553, 1672.948
190.4374, 1671.897
190.9196, 1673.104
191.4017, 1674.671
191.8838, 1673.420
192.3659, 1669.163
192.8480, 1665.433
193.3301, 1664.796
193.8123, 1666.219
194.2944, 1665.668
194.7765, 1660.979
195.2586, 1655.335
195.7407, 1652.292
196.2228, 1651.896
196.7050, 1651.739
197.1871, 1649.902
197.6692, 1646.480
198.1513, 1643.609
198.6334, 1642.750
199.1155, 1641.650
199.5977, 1638.409
200.0798, 1633.032
200.5619, 1627.535
201.0440, 1624.115
201.5261, 1623.165
202.0082, 1621.601
202.4904, 1618.629
202.9725, 1615.225
203.4546, 1611.553
203.9367, 1607.758
204.4188, 1604.250
204.9009, 1601.807
205.3831, 1601.155
205.8652, 1599.300
206.3473, 1595.426
206.8294, 1590.982
207.3115, 1586.848
207.7936, 1583.139
208.2758, 1579.310
208.7579, 1574.531
209.2400, 1568.060
209.7221, 1562.274
210.2042, 1557.490
210.6863, 1553.054
211.1685, 1548.613
211.6506, 1544.051
212.1327, 1539.326
212.6148, 1534.262
213.0969, 1528.282
213.5790, 1523.392
214.0612, 1520.706
214.5433, 1518.353
215.0254, 1514.491
215.5075, 1508.810
215.9896, 1502.777
216.4718, 1498.653
216.9539, 1497.894
217.4360, 1495.441
217.9181, 1489.623
218.4002, 1482.860
218.8823, 1477.504
219.3645, 1474.144
219.8466, 1471.750
220.3287, 1468.997
220.8108, 1465.756
221.2929, 1462.832
221.7750, 1460.962
222.2572, 1459.231
222.7393, 1456.156
223.2214, 1451.237
223.7035, 1446.169
224.1856, 1443.519
224.6677, 1443.089
225.1499, 1442.135
225.6320, 1439.909
226.1141, 1436.745
226.5962, 1432.998
227.0783, 1428.507
227.5604, 1424.063
228.0426, 1420.480
228.5247, 1417.613
229.0068, 1414.940
229.4889, 1412.177
229.9710, 1409.499
230.4531, 1407.442
230.9353, 1406.440
231.4174, 1405.253
231.8995, 1402.356
232.3816, 1398.431
232.8637, 1395.426
233.3458, 1394.953
233.8280, 1396.188
234.3101, 1396.370
234.7922, 1394.972
235.2743, 1393.260
235.7564, 1391.714
236.2385, 1390.423
236.7207, 1389.607
237.2028, 1389.706
237.6849, 1390.408
238.1670, 1390.360
238.6491, 1389.269
239.1312, 1387.786
239.6134, 1385.968
240.0955, 1384.030
240.5776, 1382.277
241.0597, 1380.866
241.5418, 1379.797
242.0239, 1379.129
242.5061, 1379.169
242.9882, 1379.213
243.4703, 1379.061
243.9524, 1378.775
244.4345, 1378.344
244.9166, 1377.641
245.3988, 1376.919
245.8809, 1377.463
246.3630, 1380.533
246.8451, 1383.310
247.3272, 1385.736
247.8093, 1387.418
248.2915, 1387.688
248.7736, 1386.101
249.2557, 1383.181
249.7378, 1381.076
250.2199, 1380.313
250.7020, 1379.799
251.1842, 1379.705
251.6663, 1379.677
252.1484, 1379.351
252.6305, 1378.551
253.1126, 1377.319
253.5947, 1375.736
254.0769, 1373.355
254.5590, 1371.169
255.0411, 1369.046
255.5232, 1367.221
256.0053, 1365.994
256.4874, 1365.496
256.9695, 1365.506
257.4517, 1365.496
257.9338, 1365.181
258.4159, 1365.208
258.8980, 1365.348
259.3801, 1365.924
259.8622, 1367.600
260.3444, 1370.565
260.8265, 1373.887
261.3086, 1375.801
261.7907, 1375.288
262.2728, 1374.821
262.7549, 1374.306
263.2371, 1373.900
263.7192, 1373.877
264.2013, 1374.292
264.6834, 1374.751
265.1655, 1374.640
265.6476, 1373.615
266.1298, 1372.833
266.6119, 1372.355
267.0940, 1372.113
267.5761, 1371.895
268.0582, 1371.692
268.5403, 1372.029
269.0225, 1373.778
269.5046, 1377.519
269.9867, 1379.845
270.4688, 1379.413
270.9509, 1378.331
271.4330, 1378.532
271.9152, 1380.207
272.3973, 1382.086
272.8794, 1382.941
273.3615, 1382.670
273.8436, 1382.600
274.3257, 1382.609
274.8079, 1382.918
275.2900, 1384.182
275.7721, 1386.293
276.2542, 1387.561
276.7363, 1386.204
277.2184, 1382.657
277.7006, 1380.990
278.1827, 1382.544
278.6648, 1384.927
279.1469, 1387.043
279.6290, 1388.750
280.1111, 1389.157
280.5933, 1387.092
281.0754, 1383.481
281.5575, 1381.620
282.0396, 1382.758
282.5217, 1384.114
283.0038, 1383.935
283.4860, 1382.456
283.9681, 1380.918
284.4502, 1379.971
284.9323, 1379.210
285.4144, 1377.714
285.8965, 1375.079
286.3787, 1372.717
286.8608, 1372.113
287.3429, 1372.594
287.8250, 1371.406
288.3071, 1366.814
288.7892, 1361.315
289.2714, 1358.666
289.7535, 1359.103
290.2356, 1359.795
290.7177, 1359.898
291.1998, 1359.272
291.6819, 1357.188
292.1641, 1352.754
292.6462, 1348.267
293.1283, 1346.857
293.6104, 1348.111
294.0925, 1348.550
294.5746, 1346.509
295.0568, 1342.774
295.5389, 1338.536
296.0210, 1333.515
296.5031, 1329.260
296.9852, 1327.821
297.4673, 1328.308
297.9495, 1328.417
298.4316, 1326.916
298.9137, 1324.803
299.3958, 1323.592
299.8779, 1323.426
300.3600, 1323.636
300.8422, 1324.247
301.3243, 1324.868
301.8064, 1324.669
302.2885, 1322.616
302.7706, 1320.495
303.2527, 1321.079
303.7349, 1324.655
304.2170, 1326.801
304.6991, 1324.045
305.1812, 1319.278
305.6633, 1316.547
306.1454, 1316.913
306.6276, 1317.946
307.1097, 1317.296
307.5918, 1315.094
308.0739, 1313.634
308.5560, 1313.926
309.0381, 1315.125
309.5203, 1316.382
310.0024, 1317.730
310.4845, 1318.611
310.9666, 1318.492
311.4487, 1317.524
311.9308, 1316.371
312.4130, 1314.836
312.8951, 1313.639
313.3772, 1313.508
313.8593, 1314.311
314.3414, 1315.274
314.8235, 1316.267
315.3057, 1317.126
315.7878, 1317.353
316.2699, 1316.709
316.7520, 1315.896
317.2341, 1315.413
317.7162, 1315.158
318.1984, 1314.941
318.6805, 1315.089
319.1626, 1315.063
319.6447, 1313.557
320.1268, 1310.125
320.6089, 1307.500
321.0911, 1308.101
321.5732, 1310.264
322.0553, 1311.871
322.5374, 1312.735
323.0195, 1312.561
323.5016, 1310.356
323.9838, 1306.082
324.4659, 1302.896
324.9480, 1302.884
325.4301, 1303.978
325.9122, 1303.322
326.3943, 1300.341
326.8765, 1297.836
327.3586, 1298.350
327.8407, 1301.319
328.3228, 1303.539
328.8049, 1304.019
329.2870, 1303.875
329.7692, 1304.674
330.2513, 1306.273
330.7334, 1306.721
331.2155, 1303.748
331.6976, 1299.065
332.1797, 1296.963
332.6619, 1298.554
333.1440, 1300.853
333.6261, 1300.851
334.1082, 1299.594
334.5903, 1299.724
335.0724, 1303.841
335.5546, 1308.857
336.0367, 1310.437
336.5188, 1308.289
337.0009, 1305.617
337.4830, 1304.124
337.9651, 1303.343
338.4473, 1302.307
338.9294, 1300.488
339.4115, 1299.085
339.8936, 1299.419
340.3758, 1301.253
340.8579, 1302.782
341.3400, 1303.268
341.8221, 1303.192
342.3042, 1303.298
342.7863, 1303.586
343.2685, 1304.010
343.7506, 1304.615
344.2327, 1305.335
344.7148, 1306.214
345.1969, 1307.526
345.6790, 1308.279
346.1612, 1306.531
346.6433, 1302.731
347.1254, 1299.959
347.6075, 1298.820
348.0896, 1299.230
348.5717, 1302.013
349.0539, 1307.372
349.5360, 1311.752
350.0181, 1311.944
350.5002, 1308.828
350.9823, 1306.925
351.4644, 1307.371
351.9466, 1308.336
352.4287, 1308.675
352.9108, 1308.482
353.3929, 1308.142
353.8750, 1307.687
354.3571, 1307.361
354.8393, 1307.933
355.3214, 1310.235
355.8035, 1311.500
356.2856, 1309.906
356.7677, 1306.758
357.2498, 1304.513
357.7320, 1303.965
358.2141, 1303.905
358.6962, 1302.523
359.1783, 1299.522
359.6604, 1297.136
360.1425, 1295.844
360.6247, 1295.129
361.1068, 1294.876
361.5889, 1294.959
362.0710, 1294.492
362.5531, 1292.620
363.0352, 1289.338
363.5174, 1286.412
363.9995, 1283.952
364.4816, 1281.682
364.9637, 1279.711
365.4458, 1277.848
365.9279, 1275.602
366.4101, 1272.686
366.8922, 1269.294
367.3743, 1266.082
367.8564, 1262.765
368.3385, 1259.994
368.8206, 1258.405
369.3028, 1257.164
369.7849, 1255.412
370.2670, 1252.898
370.7491, 1249.724
371.2312, 1246.021
371.7133, 1241.777
372.1955, 1236.964
372.6776, 1230.473
373.1597, 1224.396
373.6418, 1220.469
374.1239, 1218.318
374.6060, 1215.986
375.0882, 1211.733
375.5703, 1205.676
376.0524, 1201.322
376.5345, 1199.752
377.0166, 1198.573
377.4987, 1198.034
377.9809, 1197.351
378.4630, 1195.141
378.9451, 1190.752
379.4272, 1185.410
379.9093, 1182.147
380.3914, 1182.919
380.8736, 1182.518
381.3557, 1180.122
381.8378, 1177.068
382.3199, 1174.164
382.8020, 1171.601
383.2841, 1169.307
383.7663, 1167.289
384.2484, 1165.626
384.7305, 1163.580
385.2126, 1160.294
385.6947, 1157.426
386.1768, 1155.992
386.6590, 1155.349
387.1411, 1154.103
387.6232, 1151.275
388.1053, 1147.435
388.5874, 1144.718
389.0695, 1143.766
389.5517, 1142.763
390.0338, 1141.199
390.5159, 1139.445
390.9980, 1137.827
391.4801, 1136.434
391.9622, 1135.195
392.4444, 1134.122
392.9265, 1133.277
393.4086, 1132.063
393.8907, 1130.259
394.3728, 1128.186
394.8549, 1126.127
395.3371, 1124.006
395.8192, 1121.493
396.3013, 1117.772
396.7834, 1113.507
397.2655, 1111.094
397.7477, 1111.086
398.2298, 1111.505
398.7119, 1111.531
399.1940, 1111.292
399.6761, 1110.975
400.1582, 1110.756
400.6404, 1110.179
401.1225, 1108.437
401.6046, 1105.609
402.0867, 1103.333
402.5688, 1101.965
403.0509, 1101.554
403.5331, 1102.470
404.0152, 1104.763
404.4973, 1106.281
404.9794, 1105.632
405.4615, 1103.726
405.9436, 1101.966
406.4258, 1100.480
406.9079, 1099.501
407.3900, 1099.469
407.8721, 1100.199
408.3542, 1100.625
408.8363, 1100.344
409.3185, 1100.046
409.8006, 1100.075
410.2827, 1100.444
410.7648, 1101.318
411.2469, 1102.946
411.7290, 1104.775
412.2112, 1105.433
412.6933, 1104.514
413.1754, 1103.657
413.6575, 1102.358
414.1396, 1101.663
414.6217, 1103.242
415.1039, 1107.165
415.5860, 1111.253
416.0681, 1113.328
416.5502, 1113.181
417.0323, 1113.041
417.5144, 1112.844
417.9966, 1112.711
418.4787, 1111.977
418.9608, 1111.419
419.4429, 1112.905
419.9250, 1117.521
420.4071, 1123.691
420.8893, 1126.964
421.3714, 1124.599
421.8535, 1123.361
422.3356, 1124.956
422.8177, 1126.641
423.2998, 1125.924
423.7820, 1122.739
424.2641, 1119.115
424.7462, 1117.020
425.2283, 1116.482
425.7104, 1117.001
426.1925, 1120.558
426.6747, 1123.005
427.1568, 1122.474
427.6389, 1120.225
428.1210, 1118.210
428.6031, 1117.355
429.0852, 1117.211
429.5674, 1116.734
430.0495, 1115.561
430.5316, 1115.359
431.0137, 1117.470
431.4958, 1120.068
431.9779, 1122.310
432.4601, 1124.037
432.9422, 1124.978
433.4243, 1124.653
433.9064, 1123.312
434.3885, 1122.047
434.8706, 1120.982
435.3528, 1119.809
435.8349, 1118.296
436.3170, 1116.541
436.7991, 1114.603
437.2812, 1112.225
437.7633, 1110.056
438.2455, 1108.656
438.7276, 1107.988
439.2097, 1108.021
439.6918, 1109.138
440.1739, 1110.364
440.6560, 1109.912
441.1382, 1107.625
441.6203, 1106.021
442.1024, 1106.755
442.5845, 1108.015
443.0666, 1107.421
443.5487, 1104.871
444.0309, 1102.325
444.5130, 1101.180
444.9951, 1101.369
445.4772, 1102.018
445.9593, 1103.186
446.4414, 1104.666
446.9236, 1107.122
447.4057, 1109.646
447.8878, 1110.702
448.3699, 1109.793
448.8520, 1107.951
449.3341, 1106.669
449.8163, 1105.897
450.2984, 1105.952
450.7805, 1107.392
451.2626, 1109.012
451.7447, 1110.232
452.2268, 1111.095
452.7090, 1111.849
453.1911, 1112.601
453.6732, 1113.465
454.1553, 1115.024
454.6374, 1118.235
455.1195, 1120.466
455.6017, 1120.232
456.0838, 1119.658
456.5659, 1120.626
457.0480, 1123.436
457.5301, 1126.884
458.0122, 1129.667
458.4944, 1131.817
458.9765, 1134.578
459.4586, 1138.405
459.9407, 1142.220
460.4228, 1144.982
460.9049, 1147.409
461.3871, 1150.968
461.8692, 1156.785
462.3513, 1162.914
462.8334, 1166.906
463.3155, 1168.821
463.7976, 1170.031
464.2798, 1170.289
464.7619, 1170.832
465.2440, 1173.211
465.7261, 1177.401
466.2082, 1182.296
466.6903, 1188.851
467.1725, 1195.227
467.6546, 1198.690
468.1367, 1199.181
468.6188, 1199.486
469.1009, 1201.551
469.5830, 1204.895
470.0652, 1207.122
470.5473, 1207.082
471.0294, 1207.521
471.5115, 1209.846
471.9936, 1212.730
472.4757, 1214.747
472.9579, 1215.457
473.4400, 1214.756
473.9221, 1212.302
474.4042, 1207.610
474.8863, 1203.966
475.3684, 1201.808
475.8506, 1200.058
476.3327, 1198.674
476.8148, 1197.360
477.2969, 1195.687
477.7790, 1193.452
478.2611, 1190.849
478.7433, 1188.316
479.2254, 1185.939
479.7075, 1183.416
480.1896, 1180.000
480.6717, 1177.039
481.1538, 1175.648
481.6360, 1175.538
482.1181, 1175.341
482.6002, 1174.202
483.0823, 1172.293
483.5644, 1169.941
484.0465, 1167.018
484.5287, 1164.155
485.0108, 1161.331
485.4929, 1158.896
485.9750, 1157.419
486.4571, 1157.152
486.9392, 1156.891
487.4214, 1155.802
487.9035, 1154.208
488.3856, 1152.867
488.8677, 1151.915
489.3498, 1151.013
489.8319, 1150.064
490.3141, 1148.948
490.7962, 1146.941
491.2783, 1142.538
491.7604, 1138.826
492.2425, 1137.896
492.7246, 1138.509
493.2068, 1138.195
493.6889, 1136.089
494.1710, 1133.403
494.6531, 1132.125
495.1352, 1133.102
495.6173, 1132.792
496.0995, 1130.041
496.5816, 1127.318
497.0637, 1125.908
497.5458, 1125.467
498.0279, 1125.166
498.5100, 1124.582
498.9922, 1123.591
499.4743, 1121.678
499.9564, 1118.189
500.4385, 1115.446
500.9206, 1113.787
501.4027, 1112.933
501.8849, 1113.442
502.3670, 1114.893
502.8491, 1115.489
503.3312, 1113.650
503.8133, 1110.148
504.2954, 1107.046
504.7776, 1104.444
505.2597, 1101.813
505.7418, 1098.610
506.2239, 1095.453
506.7060, 1093.113
507.1881, 1091.637
507.6703, 1090.999
508.1524, 1092.487
508.6345, 1094.386
509.1166, 1093.347
509.5987, 1088.858
510.0808, 1083.874
510.5630, 1080.663
511.0451, 1079.146
511.5272, 1077.931
512.0093, 1077.110
512.4914, 1076.426
512.9735, 1075.536
513.4556, 1074.840
513.9377, 1075.035
514.4199, 1076.237
514.9020, 1077.777
515.3841, 1079.016
515.8662, 1080.207
516.3483, 1079.364
516.8304, 1074.523
517.3126, 1069.681
517.7947, 1065.590
518.2768, 1062.314
518.7589, 1059.967
519.2410, 1058.631
519.7231, 1057.697
520.2053, 1055.998
520.6874, 1053.399
521.1695, 1052.244
521.6516, 1054.171
522.1337, 1055.884
522.6158, 1054.692
523.0980, 1051.502
523.5801, 1048.953
524.0622, 1048.727
524.5443, 1048.799
525.0264, 1046.401
525.5085, 1042.087
525.9907, 1039.432
526.4728, 1040.016
526.9549, 1042.031
527.4370, 1042.947
527.9191, 1042.714
528.4012, 1041.904
528.8834, 1040.033
529.3655, 1038.066
529.8476, 1036.968
530.3297, 1036.367
530.8118, 1034.883
531.2939, 1031.659
531.7761, 1027.791
532.2582, 1026.177
532.7403, 1028.460
533.2224, 1030.006
533.7045, 1030.845
534.1866, 1030.917
534.6688, 1029.936
535.1509, 1028.127
535.6330, 1026.052
536.1151, 1023.974
536.5972, 1022.006
537.0793, 1020.452
537.5615, 1019.384
538.0436, 1018.497
538.5257, 1018.171
539.0078, 1017.636
539.4899, 1016.070
539.9720, 1013.511
540.4542, 1011.008
540.9363, 1008.954
541.4184, 1007.330
541.9005, 1006.321
542.3826, 1005.885
542.8647, 1005.158
543.3469, 1003.530
543.8290, 1001.480
544.3111, 1000.283
544.7932, 1000.206
545.2753, 1000.191
545.7574, 1000.332
546.2396, 1000.297
546.7217, 999.5116
547.2038, 998.1819
547.6859, 997.3353
548.1680, 997.7986
548.6501, 999.1042
549.1323, 999.0836
549.6144, 996.4828
550.0965, 994.7321
550.5786, 994.9374
551.0607, 995.4495
551.5428, 994.6730
552.0250, 992.8260
552.5071, 991.7980
552.9892, 993.7612
553.4713, 997.2940
553.9534, 997.9811
554.4355, 995.2849
554.9177, 992.3563
555.3998, 989.8573
555.8819, 988.2256
556.3640, 988.5205
556.8461, 991.1899
557.3282, 992.1705
557.8104, 988.2952
558.2925, 982.8290
558.7746, 979.7998
559.2567, 979.2136
559.7388, 978.8270
560.2209, 977.3284
560.7031, 974.9915
561.1852, 972.6878
561.6673, 970.2543
562.1494, 968.0641
562.6315, 966.4565
563.1136, 964.8339
563.5958, 962.5375
564.0779, 959.7573
564.5600, 957.3597
565.0421, 956.0025
565.5242, 955.3774
566.0063, 954.5800
566.4885, 953.8340
566.9706, 952.2686
567.4527, 948.8986
567.9348, 945.2009
568.4169, 942.0002
568.8990, 939.3884
569.3812, 937.3151
569.8633, 936.1467
570.3454, 935.3271
570.8275, 934.0208
571.3096, 932.2578
571.7917, 930.5474
572.2739, 929.1439
572.7560, 927.8125
573.2381, 926.0136
573.7202, 923.4643
574.2023, 921.5693
574.6844, 920.8423
575.1666, 920.4720
575.6487, 920.3291
576.1308, 920.0689
576.6129, 918.8277
577.0950, 916.0969
577.5771, 912.7236
578.0593, 910.6123
578.5414, 910.1978
579.0235, 909.8507
579.5056, 909.1211
579.9877, 908.8002
580.4698, 909.9171
580.9520, 911.6897
581.4341, 912.2458
581.9162, 910.3719
582.3983, 907.7108
582.8804, 906.7764
583.3625, 907.3328
583.8447, 906.6102
584.3268, 903.3438
584.8089, 900.0770
585.2910, 899.9715
585.7732, 902.6509
586.2553, 904.1368
586.7374, 903.2385
587.2195, 901.9651
587.7017, 901.1417
588.1838, 900.7107
588.6659, 900.5314
589.1480, 900.5590
589.6301, 900.8189
590.1122, 901.3755
590.5944, 902.2673
591.0765, 903.0787
591.5586, 903.8582
592.0407, 904.4841
592.5228, 904.9958
593.0049, 905.3018
593.4871, 905.0433
593.9692, 904.1667
594.4513, 903.6925
594.9334, 905.0343
595.4155, 907.6778
595.8976, 909.2782
596.3798, 909.5309
596.8619, 909.5317
597.3440, 909.8842
597.8261, 910.4246
598.3082, 910.6149
598.7903, 909.9460
599.2725, 910.2205
599.7546, 913.0859
600.2367, 916.5259
600.7188, 918.1041
601.2009, 917.8970
601.6830, 917.8737
602.1652, 919.4760
602.6473, 922.0102
603.1294, 922.7491
603.6115, 919.8281
604.0936, 918.5654
604.5757, 920.4649
605.0579, 922.9256
605.5400, 924.7284
606.0221, 925.7006
606.5042, 925.8004
606.9863, 924.5447
607.4684, 923.0939
607.9506, 923.6624
608.4327, 926.1916
608.9148, 928.2950
609.3969, 929.5279
609.8790, 929.8176
610.3611, 928.5562
610.8433, 925.9171
611.3254, 924.2018
611.8075, 924.3577
612.2896, 924.7570
612.7717, 924.5150
613.2538, 923.9423
613.7360, 923.6710
614.2181, 923.8634
614.7002, 924.0827
615.1823, 923.8196
615.6644, 923.0576
616.1465, 922.0859
616.6287, 920.5569
617.1108, 919.3070
617.5929, 919.0173
618.0750, 918.8287
618.5571, 917.6208
619.0392, 915.2416
619.5214, 913.0666
620.0035, 912.4747
620.4856, 912.7525
620.9677, 912.2204
621.4498, 910.7901
621.9319, 909.3755
622.4141, 908.5452
622.8962, 907.8840
623.3783, 906.3261
623.8604, 903.3442
624.3425, 901.2538
624.8246, 901.3138
625.3068, 901.4703
625.7889, 900.4026
626.2710, 898.2687
626.7531, 895.5567
627.2352, 892.4971
627.7173, 889.5206
628.1995, 887.6644
628.6816, 887.2822
629.1637, 885.9543
629.6458, 882.7776
630.1279, 879.6355
630.6100, 877.2670
631.0922, 875.5963
631.5743, 874.5045
632.0564, 873.9617
632.5385, 873.9918
633.0206, 874.9473
633.5027, 876.4047
633.9849, 877.8068
634.4670, 879.0378
634.9491, 879.1154
635.4312, 876.9348
635.9133, 873.2701
636.3954, 871.7818
636.8776, 874.8970
637.3597, 877.0027
637.8418, 877.4837
638.3239, 877.2608
638.8060, 876.4562
639.2881, 875.5071
639.7703, 875.4518
640.2524, 877.0965
640.7345, 879.4875
641.2166, 880.6049
641.6987, 880.3724
642.1808, 880.7148
642.6630, 882.2475
643.1451, 884.0564
643.6272, 885.4744
644.1093, 886.5238
644.5914, 887.1639
645.0735, 886.8936
645.5557, 886.7778
646.0378, 887.4598
646.5199, 888.5413
647.0020, 889.8177
647.4841, 891.0612
647.9662, 891.1414
648.4484, 888.6623
648.9305, 884.3215
649.4126, 883.3279
649.8947, 888.4241
650.3768, 891.7126
650.8589, 890.8306
651.3411, 888.5672
651.8232, 886.3028
652.3053, 884.3291
652.7874, 883.0179
653.2695, 882.5170
653.7516, 882.8004
654.2338, 884.6153
654.7159, 887.4047
655.1980, 888.2950
655.6801, 886.2427
656.1622, 883.4207
656.6443, 882.2188
657.1265, 882.7462
657.6086, 882.8909
658.0907, 881.9822
658.5728, 881.5868
659.0549, 882.4649
659.5370, 883.8052
660.0192, 884.9142
660.5013, 885.6049
660.9834, 885.7861
661.4655, 884.9370
661.9476, 883.7737
662.4297, 884.9662
662.9119, 888.8945
663.3940, 892.1696
663.8761, 893.6786
664.3582, 894.1774
664.8403, 894.3360
665.3224, 894.1858
665.8046, 894.1245
666.2867, 894.4003
666.7688, 894.5855
667.2509, 894.0245
667.7330, 893.3522
668.2151, 893.7790
668.6973, 895.5371
669.1794, 897.6517
669.6615, 899.2708
670.1436, 900.3499
670.6257, 900.1381
671.1078, 897.6940
671.5900, 895.9051
672.0721, 896.6835
672.5542, 897.6299
673.0363, 896.4100
673.5184, 893.1682
674.0005, 890.6324
674.4827, 890.6442
674.9648, 891.3186
675.4469, 891.0591
675.9290, 889.8966
676.4111, 887.5104
676.8932, 883.7608
677.3754, 880.6456
677.8575, 880.8782
678.3396, 884.6786
678.8217, 886.1240
679.3038, 882.5389
679.7859, 879.9821
680.2681, 880.7761
680.7502, 882.1537
681.2323, 881.3808
