##NAMES=Tarbuttite
##RRUFFID=R050621
##IDEAL CHEMISTRY=Zn^2+^_2_(P^5+^O_4_)(OH)
##LOCALITY=Broken Hill, Rhodesia
##OWNER=RRUFF
##SOURCE=University of Arizona Mineral Museum
##DESCRIPTION=Colorless prismatic crystals
##STATUS=The identification of this mineral has been confirmed by X-ray diffraction and chemical analysis
##URL=rruff.info/R050621
##MEASURED CHEMISTRY=Zn_2.00_(P_1.00_O_4_)(OH)
92.06543, 850.6041
92.54755, 822.2273
93.02966, 819.4191
93.51178, 870.3902
93.99390, 903.5059
94.47601, 907.9017
94.95813, 887.6808
95.44025, 850.7959
95.92236, 801.7566
96.40448, 739.0856
96.88660, 685.1351
97.36871, 638.6697
97.85082, 599.8204
98.33294, 569.4115
98.81506, 546.8823
99.29717, 528.5416
99.77929, 513.7026
100.2614, 502.0260
100.7435, 492.5758
101.2256, 484.5327
101.7078, 478.2979
102.1899, 475.2821
102.6720, 476.4417
103.1541, 480.1038
103.6362, 483.7685
104.1183, 487.4225
104.6005, 492.6870
105.0826, 500.6454
105.5647, 511.2531
106.0468, 524.7093
106.5289, 540.2194
107.0110, 558.9073
107.4931, 580.7612
107.9753, 605.9539
108.4574, 643.7636
108.9395, 676.4042
109.4216, 735.7581
109.9037, 790.5417
110.3858, 854.2100
110.8680, 907.6212
111.3501, 928.6766
111.8322, 904.7411
112.3143, 841.7136
112.7964, 774.4656
113.2785, 688.0528
113.7607, 613.0870
114.2428, 557.9330
114.7249, 520.8841
115.2070, 496.1419
115.6891, 481.0432
116.1712, 476.0700
116.6534, 473.6371
117.1355, 474.5940
117.6176, 477.2920
118.0997, 480.4888
118.5818, 484.0645
119.0639, 488.5493
119.5461, 493.8589
120.0282, 500.2811
120.5103, 509.6252
120.9924, 521.9136
121.4745, 537.4842
121.9566, 556.6100
122.4388, 576.9608
122.9209, 605.6722
123.4030, 641.9028
123.8851, 687.0203
124.3672, 746.9152
124.8493, 831.4159
125.3315, 942.7986
125.8136, 1047.790
126.2957, 1186.868
126.7778, 1284.284
127.2599, 1297.348
127.7420, 1225.545
128.2242, 1104.100
128.7063, 973.1197
129.1884, 809.8691
129.6705, 686.7167
130.1526, 608.5817
130.6347, 558.7382
131.1169, 528.5272
131.5990, 514.1759
132.0811, 513.0369
132.5632, 519.6032
133.0453, 532.3174
133.5274, 555.8086
134.0096, 591.5455
134.4917, 638.0703
134.9738, 698.3839
135.4559, 777.9329
135.9380, 863.9366
136.4201, 912.2919
136.9023, 929.3480
137.3844, 912.8076
137.8665, 844.8154
138.3486, 735.3082
138.8307, 627.7037
139.3128, 542.6101
139.7950, 479.4078
140.2771, 431.0647
140.7592, 400.8252
141.2413, 381.4248
141.7234, 366.8311
142.2055, 357.4674
142.6877, 351.0924
143.1698, 348.1971
143.6519, 347.1596
144.1340, 346.2733
144.6161, 344.6529
145.0982, 342.9029
145.5803, 342.7373
146.0625, 345.1458
146.5446, 347.6542
147.0267, 348.8829
147.5088, 349.6530
147.9909, 351.2244
148.4730, 354.4638
148.9552, 359.3215
149.4373, 364.5634
149.9194, 369.4389
150.4015, 375.5538
150.8836, 383.3068
151.3657, 392.6652
151.8479, 403.8420
152.3300, 417.4446
152.8121, 434.7902
153.2942, 446.5833
153.7763, 455.2357
154.2584, 458.0187
154.7406, 451.6912
155.2227, 437.0464
155.7048, 418.6919
156.1869, 401.0874
156.6690, 383.9243
157.1511, 370.3369
157.6333, 361.2592
158.1154, 355.0963
158.5975, 350.8648
159.0796, 348.3829
159.5617, 347.1397
160.0438, 346.8047
160.5260, 347.3928
161.0081, 348.0551
161.4902, 348.3294
161.9723, 348.5963
162.4544, 349.6188
162.9365, 351.7134
163.4187, 354.3305
163.9008, 356.8050
164.3829, 359.1324
164.8650, 361.5952
165.3471, 364.3252
165.8292, 367.3156
166.3113, 370.4827
166.7935, 373.7882
167.2756, 377.3334
167.7577, 380.9248
168.2398, 384.6003
168.7219, 388.9907
169.2040, 394.8329
169.6862, 402.2811
170.1683, 410.0429
170.6504, 417.4814
171.1325, 425.4475
171.6146, 434.4382
172.0967, 444.5448
172.5789, 455.4186
173.0610, 467.5832
173.5431, 480.2318
174.0252, 494.0941
174.5073, 508.9806
174.9894, 525.0353
175.4716, 542.8367
175.9537, 562.3740
176.4358, 582.7810
176.9179, 602.3314
177.4000, 621.9808
177.8821, 639.1130
178.3643, 655.6242
178.8464, 668.9565
179.3285, 676.3671
179.8106, 676.7842
180.2927, 671.1438
180.7748, 661.6893
181.2570, 645.8746
181.7391, 629.4348
182.2212, 612.1414
182.7033, 594.7189
183.1854, 578.0884
183.6675, 562.4432
184.1497, 548.3331
184.6318, 537.7215
185.1139, 529.5771
185.5960, 525.1058
186.0781, 525.6401
186.5602, 530.3620
187.0423, 537.0815
187.5245, 545.0105
188.0066, 554.2083
188.4887, 564.3349
188.9708, 574.6808
189.4529, 586.8349
189.9350, 602.3600
190.4172, 620.9733
190.8993, 640.3461
191.3814, 659.6319
191.8635, 679.0236
192.3456, 699.2247
192.8277, 720.9763
193.3099, 742.0034
193.7920, 760.9011
194.2741, 777.9658
194.7562, 790.8526
195.2383, 798.6088
195.7204, 801.3766
196.2026, 798.3502
196.6847, 789.0878
197.1668, 774.6572
197.6489, 756.2019
198.1310, 733.0179
198.6131, 707.6055
199.0953, 678.7140
199.5774, 648.9691
200.0595, 620.5794
200.5416, 594.1408
201.0237, 569.9796
201.5058, 549.2374
201.9880, 533.3768
202.4701, 518.5180
202.9522, 503.6503
203.4343, 489.4151
203.9164, 476.5201
204.3985, 465.2914
204.8807, 455.5653
205.3628, 446.9137
205.8449, 439.3276
206.3270, 433.1344
206.8091, 428.6938
207.2912, 425.4882
207.7733, 423.0149
208.2555, 421.0473
208.7376, 419.5306
209.2197, 418.2691
209.7018, 417.6931
210.1839, 416.8969
210.6660, 417.1948
211.1482, 416.9200
211.6303, 413.5497
212.1124, 405.6495
212.5945, 394.2585
213.0766, 383.2477
213.5587, 372.0241
214.0409, 361.8214
214.5230, 352.8905
215.0051, 345.1366
215.4872, 338.3175
215.9693, 332.3317
216.4514, 327.1876
216.9336, 323.0774
217.4157, 320.4086
217.8978, 317.9409
218.3799, 315.0351
218.8620, 311.9957
219.3441, 309.5987
219.8263, 308.3260
220.3084, 307.8595
220.7905, 307.2479
221.2726, 306.2782
221.7547, 305.5237
222.2368, 305.1538
222.7190, 305.1984
223.2011, 305.9544
223.6832, 308.1449
224.1653, 310.5721
224.6474, 310.9834
225.1295, 308.6851
225.6117, 306.0838
226.0938, 304.6333
226.5759, 304.2600
227.0580, 304.4419
227.5401, 305.3318
228.0222, 306.4525
228.5043, 307.1626
228.9865, 307.3371
229.4686, 307.4648
229.9507, 307.8720
230.4328, 308.5571
230.9149, 309.5784
231.3970, 311.3396
231.8792, 313.1682
232.3613, 314.3996
232.8434, 314.9149
233.3255, 315.3749
233.8076, 316.4450
234.2897, 318.1714
234.7719, 319.9763
235.2540, 321.8565
235.7361, 323.7026
236.2182, 325.2811
236.7003, 326.5933
237.1824, 328.1508
237.6646, 330.6311
238.1467, 334.2295
238.6288, 337.7364
239.1109, 340.8925
239.5930, 343.9897
240.0751, 346.9017
240.5573, 349.7343
241.0394, 353.1211
241.5215, 357.9696
242.0036, 364.7253
242.4857, 371.2194
242.9678, 376.1186
243.4500, 381.6778
243.9321, 389.0806
244.4142, 398.4041
244.8963, 408.9958
245.3784, 420.1831
245.8605, 431.9488
246.3427, 444.3572
246.8248, 457.3113
247.3069, 470.8972
247.7890, 485.1831
248.2711, 500.2027
248.7532, 515.8495
249.2354, 532.2800
249.7175, 549.6682
250.1996, 566.9899
250.6817, 583.4814
251.1638, 600.5016
251.6459, 619.1139
252.1281, 639.0593
252.6102, 658.9760
253.0923, 677.6389
253.5744, 694.7119
254.0565, 712.0784
254.5386, 730.3033
255.0208, 748.2609
255.5029, 765.1030
255.9850, 781.1453
256.4671, 797.4164
256.9492, 814.7065
257.4313, 832.8288
257.9135, 854.0825
258.3956, 877.1304
258.8777, 903.6660
259.3598, 933.3562
259.8419, 967.0035
260.3240, 1006.593
260.8062, 1053.614
261.2883, 1108.189
261.7704, 1169.478
262.2525, 1235.712
262.7346, 1309.113
263.2167, 1390.515
263.6989, 1479.860
264.1810, 1577.031
264.6631, 1683.892
265.1452, 1798.535
265.6273, 1904.303
266.1094, 2011.710
266.5916, 2101.410
267.0737, 2171.197
267.5558, 2217.979
268.0379, 2235.594
268.5200, 2220.449
269.0021, 2173.133
269.4843, 2093.794
269.9664, 1969.557
270.4485, 1837.239
270.9306, 1702.298
271.4127, 1567.863
271.8948, 1439.709
272.3770, 1319.301
272.8591, 1208.774
273.3412, 1112.871
273.8233, 1032.264
274.3054, 960.0222
274.7875, 894.6693
275.2697, 836.3771
275.7518, 786.4597
276.2339, 746.0604
276.7160, 712.3745
277.1981, 681.1134
277.6802, 651.4211
278.1623, 625.1954
278.6444, 603.6106
279.1266, 585.5646
279.6087, 569.5264
280.0908, 555.2313
280.5729, 542.3859
281.0550, 530.6374
281.5371, 519.7701
282.0193, 510.4572
282.5014, 503.5095
282.9835, 498.0009
283.4656, 492.6614
283.9477, 487.2879
284.4298, 482.0676
284.9120, 477.1313
285.3941, 472.4784
285.8762, 468.6104
286.3583, 465.7855
286.8404, 463.7280
287.3225, 462.1977
287.8047, 461.1969
288.2868, 460.4760
288.7689, 459.7246
289.2510, 459.0856
289.7331, 459.0789
290.2152, 459.7618
290.6974, 461.1397
291.1795, 463.3004
291.6616, 466.2547
292.1437, 469.6574
292.6258, 473.2949
293.1079, 477.3147
293.5901, 481.9918
294.0722, 487.3400
294.5543, 493.3758
295.0364, 500.3842
295.5185, 508.3366
296.0006, 516.1644
296.4828, 523.1219
296.9649, 529.8388
297.4470, 537.4564
297.9291, 546.3763
298.4112, 555.3311
298.8933, 563.5406
299.3755, 571.0208
299.8576, 578.2908
300.3397, 586.3282
300.8218, 593.1717
301.3039, 596.6046
301.7860, 596.4637
302.2682, 594.4145
302.7503, 591.2645
303.2324, 586.9184
303.7145, 581.1096
304.1966, 573.9013
304.6787, 564.8166
305.1609, 552.8048
305.6430, 538.1757
306.1251, 523.6876
306.6072, 510.3087
307.0893, 497.9281
307.5714, 486.3991
308.0536, 475.8524
308.5357, 465.8013
309.0178, 455.7734
309.4999, 445.9073
309.9820, 436.7337
310.4641, 428.2095
310.9463, 420.5834
311.4284, 414.3895
311.9105, 409.7446
312.3926, 406.0850
312.8747, 403.6563
313.3568, 401.9132
313.8390, 399.8842
314.3211, 397.0007
314.8032, 394.1664
315.2853, 392.1844
315.7674, 391.0617
316.2495, 390.8022
316.7317, 391.9607
317.2138, 393.7242
317.6959, 394.6483
318.1780, 394.1407
318.6601, 394.0799
319.1422, 396.2679
319.6243, 400.3847
320.1064, 404.1137
320.5886, 406.5324
321.0707, 408.5035
321.5528, 410.8742
322.0349, 413.5846
322.5170, 417.2923
322.9991, 423.0036
323.4813, 430.0100
323.9634, 436.1256
324.4455, 440.3688
324.9276, 444.8838
325.4097, 452.1735
325.8918, 461.7294
326.3740, 471.1274
326.8561, 478.9170
327.3382, 486.2563
327.8203, 495.2962
328.3024, 506.4853
328.7845, 517.9445
329.2667, 527.6417
329.7488, 536.5292
330.2309, 547.1454
330.7130, 560.8561
331.1951, 575.8221
331.6772, 590.0256
332.1594, 603.4919
332.6415, 617.9846
333.1236, 635.4009
333.6057, 654.0791
334.0878, 670.5170
334.5699, 683.6938
335.0521, 696.1280
335.5342, 710.7634
336.0163, 726.4211
336.4984, 738.6259
336.9805, 746.0991
337.4626, 748.7300
337.9448, 746.4033
338.4269, 739.1953
338.9090, 728.9084
339.3911, 715.2811
339.8732, 699.2193
340.3553, 682.4964
340.8375, 665.4963
341.3196, 647.8464
341.8017, 628.4891
342.2838, 607.6571
342.7659, 588.0615
343.2480, 570.8187
343.7302, 554.6993
344.2123, 538.2739
344.6944, 521.5140
345.1765, 505.6624
345.6586, 491.7112
346.1407, 479.6631
346.6229, 468.1362
347.1050, 457.1234
347.5871, 446.7398
348.0692, 437.0662
348.5513, 428.1328
349.0334, 419.7978
349.5156, 412.1035
349.9977, 404.9935
350.4798, 398.4976
350.9619, 393.1527
351.4440, 387.2870
351.9261, 379.7386
352.4083, 371.5229
352.8904, 364.3135
353.3725, 358.6742
353.8546, 353.8949
354.3367, 348.9099
354.8188, 343.5280
355.3010, 338.8326
355.7831, 335.3531
356.2652, 332.3395
356.7473, 329.0663
357.2294, 325.4713
357.7115, 321.9754
358.1937, 318.8705
358.6758, 316.1869
359.1579, 314.1259
359.6400, 312.7216
360.1221, 311.8237
360.6042, 311.5278
361.0863, 311.6961
361.5685, 312.0713
362.0506, 312.5591
362.5327, 313.0563
363.0148, 313.1174
363.4969, 312.0792
363.9790, 311.4651
364.4612, 311.7279
364.9433, 312.4400
365.4254, 313.0935
365.9075, 313.5214
366.3896, 313.8601
366.8717, 314.2794
367.3539, 314.4949
367.8360, 315.5523
368.3181, 317.7470
368.8002, 320.4794
369.2823, 323.6258
369.7644, 326.9954
370.2466, 330.0929
370.7287, 332.3407
371.2108, 333.6199
371.6929, 336.2084
372.1750, 341.2005
372.6571, 346.2361
373.1393, 350.3200
373.6214, 354.0321
374.1035, 358.4915
374.5856, 364.3090
375.0677, 371.1940
375.5498, 378.2542
376.0320, 385.2670
376.5141, 392.8718
376.9962, 400.8384
377.4783, 409.5196
377.9604, 419.5395
378.4425, 430.9404
378.9247, 442.5983
379.4068, 453.1875
379.8889, 462.8252
380.3710, 470.9232
380.8531, 478.0725
381.3352, 483.1533
381.8174, 486.0094
382.2995, 486.3507
382.7816, 483.5506
383.2637, 476.8981
383.7458, 466.7052
384.2279, 455.0131
384.7101, 440.9458
385.1922, 426.6095
385.6743, 412.2973
386.1564, 398.2586
386.6385, 384.4254
387.1206, 370.7810
387.6028, 357.8975
388.0849, 346.6566
388.5670, 337.2370
389.0491, 328.7639
389.5312, 321.3306
390.0133, 314.6152
390.4955, 308.4034
390.9776, 302.6931
391.4597, 297.6873
391.9418, 293.8560
392.4239, 290.9766
392.9060, 287.7919
393.3882, 284.0086
393.8703, 280.2879
394.3524, 276.7837
394.8345, 273.6422
395.3166, 271.2789
395.7987, 270.2264
396.2809, 269.7382
396.7630, 268.8570
397.2451, 267.5610
397.7272, 266.0923
398.2093, 264.4450
398.6914, 262.7390
399.1736, 261.1126
399.6557, 259.4919
400.1378, 258.1633
400.6199, 257.4335
401.1020, 257.1263
401.5841, 256.7083
402.0662, 255.9797
402.5483, 255.3597
403.0305, 255.6601
403.5126, 256.8089
403.9947, 257.1549
404.4768, 255.9845
404.9589, 254.1644
405.4410, 252.2869
405.9232, 250.4514
406.4053, 248.9201
406.8874, 247.8648
407.3695, 247.2724
407.8516, 246.9858
408.3337, 247.6015
408.8159, 247.7944
409.2980, 246.6388
409.7801, 244.9173
410.2622, 244.0418
410.7443, 244.5111
411.2264, 245.4331
411.7086, 245.3595
412.1907, 243.7531
412.6728, 242.4114
413.1549, 241.1700
413.6370, 240.3076
414.1191, 240.1792
414.6013, 240.6635
415.0834, 241.2760
415.5655, 241.6574
416.0476, 241.8095
416.5297, 241.7382
417.0118, 241.1008
417.4940, 240.6283
417.9761, 240.6557
418.4582, 240.8361
418.9403, 240.6574
419.4224, 239.9363
419.9045, 239.0635
420.3867, 238.7273
420.8688, 239.0890
421.3509, 239.5777
421.8330, 240.7564
422.3151, 241.5556
422.7972, 241.1209
423.2794, 239.6888
423.7615, 238.2385
424.2436, 237.4927
424.7257, 237.3896
425.2078, 237.5389
425.6899, 238.1179
426.1721, 238.6394
426.6542, 238.8053
427.1363, 238.8721
427.6184, 239.1442
428.1005, 239.7228
428.5826, 240.4948
429.0648, 241.5533
429.5469, 242.9188
430.0290, 243.4932
430.5111, 242.5612
430.9932, 241.2667
431.4753, 240.5045
431.9575, 240.2641
432.4396, 240.4468
432.9217, 241.3382
433.4038, 242.5112
433.8859, 243.2332
434.3680, 243.4428
434.8502, 243.4367
435.3323, 243.3280
435.8144, 243.1443
436.2965, 242.9410
436.7786, 242.4844
437.2607, 242.3638
437.7429, 243.2749
438.2250, 244.7398
438.7071, 245.4884
439.1892, 245.0179
439.6713, 244.3384
440.1534, 244.9503
440.6356, 247.2299
441.1177, 249.1343
441.5998, 250.2798
442.0819, 251.2322
442.5640, 252.3428
443.0461, 253.6229
443.5282, 255.0133
444.0103, 256.5094
444.4925, 258.0332
444.9746, 259.1170
445.4567, 258.3785
445.9388, 258.9279
446.4209, 262.3242
446.9030, 266.5190
447.3852, 269.4173
447.8673, 270.5000
448.3494, 270.8150
448.8315, 271.6192
449.3136, 272.9367
449.7957, 274.6226
450.2779, 276.7641
450.7600, 279.2133
451.2421, 281.9562
451.7242, 284.9741
452.2063, 288.2500
452.6884, 291.7534
453.1706, 295.5026
453.6527, 299.5724
454.1348, 304.1046
454.6169, 308.4525
455.0990, 312.1686
455.5811, 315.8370
456.0633, 319.7408
456.5454, 323.9382
457.0275, 328.6161
457.5096, 334.3089
457.9917, 340.6386
458.4738, 346.3489
458.9560, 351.3394
459.4381, 355.8070
459.9202, 359.7787
460.4023, 363.3205
460.8844, 366.5746
461.3665, 369.9205
461.8487, 372.4429
462.3308, 373.4924
462.8129, 373.1523
463.2950, 371.6497
463.7771, 368.9540
464.2592, 365.3486
464.7414, 361.0696
465.2235, 356.0487
465.7056, 350.8532
466.1877, 345.2433
466.6698, 339.6559
467.1519, 334.5099
467.6341, 329.7380
468.1162, 325.1035
468.5983, 320.5441
469.0804, 315.8754
469.5625, 310.4136
470.0446, 302.8792
470.5268, 296.1763
471.0089, 290.8048
471.4910, 286.2133
471.9731, 281.9551
472.4552, 277.9232
472.9373, 274.2345
473.4195, 271.0107
473.9016, 268.2584
474.3837, 265.9378
474.8658, 264.6710
475.3479, 263.1598
475.8300, 261.0705
476.3122, 258.5141
476.7943, 255.3975
477.2764, 251.5666
477.7585, 247.9988
478.2406, 246.5538
478.7227, 247.5562
479.2049, 247.7705
479.6870, 246.1698
480.1691, 244.0519
480.6512, 242.2064
481.1333, 240.6641
481.6154, 239.4346
482.0976, 238.6265
482.5797, 238.0927
483.0618, 237.6734
483.5439, 237.3736
484.0260, 236.9623
484.5081, 236.3028
484.9902, 235.4699
485.4724, 234.6150
485.9545, 233.7021
486.4366, 232.8721
486.9187, 232.0194
487.4008, 231.3395
487.8829, 231.2209
488.3651, 231.6856
488.8472, 232.2011
489.3293, 232.2886
489.8114, 231.9521
490.2935, 231.7266
490.7756, 231.2280
491.2578, 231.2589
491.7399, 232.8095
492.2220, 234.7388
492.7041, 235.1763
493.1862, 233.5996
493.6683, 231.6743
494.1505, 232.0140
494.6326, 235.4124
495.1147, 237.9223
495.5968, 238.7131
496.0789, 239.3905
496.5610, 240.4425
497.0432, 241.8189
497.5253, 243.3869
498.0074, 245.1178
498.4895, 246.8520
498.9716, 248.2683
499.4537, 249.3304
499.9359, 250.2836
500.4180, 250.8391
500.9001, 251.6520
501.3822, 253.3781
501.8643, 255.9433
502.3464, 258.4957
502.8286, 260.4724
503.3107, 262.2859
503.7928, 264.6929
504.2749, 267.7114
504.7570, 270.6076
505.2391, 272.8398
505.7213, 274.8063
506.2034, 277.5044
506.6855, 281.0877
507.1676, 284.9119
507.6497, 288.8519
508.1318, 292.9230
508.6140, 297.2027
509.0961, 301.6616
509.5782, 306.0659
510.0603, 310.2032
510.5424, 314.0765
511.0245, 317.7294
511.5067, 320.8020
511.9888, 324.0808
512.4709, 328.1380
512.9530, 332.2576
513.4351, 335.6867
513.9172, 338.2307
514.3994, 340.1837
514.8815, 342.1252
515.3636, 344.1877
515.8457, 344.5087
516.3278, 342.2784
516.8099, 339.2813
517.2921, 336.1606
517.7742, 332.8710
518.2563, 329.4229
518.7384, 325.9203
519.2205, 321.8597
519.7026, 316.3261
520.1848, 309.5355
520.6669, 303.1582
521.1490, 297.5368
521.6311, 292.4150
522.1132, 287.7979
522.5953, 283.5777
523.0775, 279.2681
523.5596, 274.5044
524.0417, 269.9001
524.5238, 265.9946
525.0059, 262.6378
525.4880, 259.3252
525.9702, 255.8582
526.4523, 252.4036
526.9344, 249.1974
527.4165, 246.3018
527.8986, 243.5907
528.3807, 240.7851
528.8629, 238.3947
529.3450, 237.0581
529.8271, 236.3586
530.3092, 235.3094
530.7913, 233.3256
531.2734, 230.8300
531.7556, 228.8612
532.2377, 227.6156
532.7198, 226.3573
533.2019, 224.6576
533.6840, 223.1950
534.1661, 222.6495
534.6483, 222.7715
535.1304, 222.4765
535.6125, 220.8509
536.0946, 218.6108
536.5767, 216.9580
537.0588, 215.8976
537.5410, 215.3613
538.0231, 215.5819
538.5052, 216.0732
538.9873, 216.1247
539.4694, 215.7476
539.9515, 215.0206
540.4337, 213.5679
540.9158, 212.0399
541.3979, 211.1964
541.8800, 210.9623
542.3621, 210.6300
542.8442, 209.7221
543.3264, 208.4937
543.8085, 207.8169
544.2906, 208.2346
544.7726, 208.4790
545.2548, 208.5343
545.7369, 208.4140
546.2190, 208.0221
546.7011, 207.4421
547.1832, 206.9418
547.6653, 206.7590
548.1475, 206.7876
548.6296, 206.5884
549.1117, 206.0653
549.5938, 205.5693
550.0759, 205.1881
550.5580, 204.8818
551.0402, 204.5944
551.5223, 204.3310
552.0044, 204.2115
552.4865, 204.6269
552.9686, 205.1128
553.4507, 204.5370
553.9329, 202.8486
554.4150, 201.7501
554.8971, 202.3627
555.3792, 203.9692
555.8613, 204.7224
556.3434, 204.3928
556.8256, 203.9842
557.3077, 203.5858
557.7898, 203.2597
558.2719, 203.1259
558.7540, 203.1431
559.2361, 203.1168
559.7183, 202.9055
560.2004, 202.5555
560.6825, 202.2549
561.1646, 202.0368
561.6467, 201.8176
562.1288, 201.3343
562.6110, 201.0423
563.0931, 201.4737
563.5752, 202.4861
564.0573, 203.3037
564.5394, 203.2750
565.0215, 202.7278
565.5037, 202.4426
565.9858, 202.4089
566.4679, 202.7352
566.9500, 203.7066
567.4321, 204.8596
567.9142, 205.5731
568.3964, 205.8235
568.8785, 205.9987
569.3606, 206.1042
569.8427, 206.2789
570.3248, 206.7710
570.8069, 207.5031
571.2891, 208.0300
571.7712, 208.0466
572.2533, 207.8822
572.7354, 208.3649
573.2175, 209.9535
573.6996, 211.4124
574.1818, 212.6599
574.6639, 213.8640
575.1460, 215.0504
575.6281, 216.2845
576.1102, 217.6374
576.5923, 219.1214
577.0745, 220.8526
577.5566, 223.2094
578.0387, 226.3461
578.5208, 229.2135
579.0029, 231.0726
579.4850, 233.1608
579.9672, 236.5329
580.4493, 240.9478
580.9314, 245.3432
581.4135, 249.3022
581.8956, 253.1004
582.3777, 256.9935
582.8599, 260.9608
583.3420, 264.9182
583.8241, 268.7928
584.3062, 272.8944
584.7883, 277.6867
585.2704, 283.3583
585.7526, 288.9348
586.2347, 293.5861
586.7168, 299.0542
587.1989, 305.9823
587.6810, 314.2605
588.1631, 323.7479
588.6453, 334.3474
