##NAMES=Tarbuttite
##RRUFFID=R050621
##IDEAL CHEMISTRY=Zn^2+^_2_(P^5+^O_4_)(OH)
##LOCALITY=Broken Hill, Rhodesia
##OWNER=RRUFF
##SOURCE=University of Arizona Mineral Museum
##DESCRIPTION=Colorless prismatic crystals
##STATUS=The identification of this mineral has been confirmed by X-ray diffraction and chemical analysis
##URL=rruff.info/R050621
##MEASURED CHEMISTRY=Zn_2.00_(P_1.00_O_4_)(OH)
91.11523, 27.46917
91.59735, 27.63242
92.07947, 27.56002
92.56158, 27.29547
93.04370, 26.97367
93.52582, 26.57206
94.00793, 26.17437
94.49006, 25.96917
94.97218, 25.97874
95.45429, 26.17948
95.93641, 26.63711
96.41853, 27.34403
96.90064, 27.99133
97.38276, 28.23057
97.86488, 28.11623
98.34699, 28.36278
98.82911, 29.31191
99.31123, 30.57643
99.79334, 30.62890
100.2755, 29.16143
100.7576, 27.54771
101.2397, 27.21306
101.7218, 28.51424
102.2039, 29.34550
102.6861, 29.08935
103.1682, 27.75925
103.6503, 27.02143
104.1324, 27.09472
104.6145, 27.51032
105.0966, 27.63619
105.5788, 27.01871
106.0609, 26.91181
106.5430, 27.80898
107.0251, 30.18596
107.5072, 31.86037
107.9893, 32.17963
108.4715, 31.96741
108.9536, 32.70630
109.4357, 35.28203
109.9178, 38.02708
110.3999, 40.43188
110.8820, 42.05115
111.3642, 44.02827
111.8463, 46.40615
112.3284, 49.17666
112.8105, 52.32257
113.2926, 55.62360
113.7747, 59.49728
114.2569, 64.11047
114.7390, 69.32048
115.2211, 75.49535
115.7032, 81.95345
116.1853, 89.09325
116.6674, 98.89159
117.1496, 111.8518
117.6317, 127.9862
118.1138, 147.1408
118.5959, 171.4117
119.0780, 197.0404
119.5602, 222.7405
120.0423, 248.6697
120.5244, 273.8578
121.0065, 296.3953
121.4886, 318.2057
121.9707, 341.9308
122.4529, 368.6635
122.9350, 397.4813
123.4171, 426.9511
123.8992, 456.8338
124.3813, 489.7049
124.8634, 527.6193
125.3456, 570.1160
125.8277, 616.3529
126.3098, 673.1765
126.7919, 730.9976
127.2740, 777.9487
127.7561, 814.6603
128.2383, 834.0282
128.7204, 817.1248
129.2025, 770.0906
129.6846, 725.1653
130.1667, 696.6155
130.6488, 685.0094
131.1310, 690.5840
131.6131, 713.8405
132.0952, 753.5193
132.5773, 805.9767
133.0594, 871.4606
133.5415, 955.1135
134.0237, 1060.363
134.5058, 1187.848
134.9879, 1339.193
135.4700, 1522.371
135.9521, 1725.880
136.4343, 1947.845
136.9164, 2211.884
137.3985, 2398.566
137.8806, 2389.914
138.3627, 2161.059
138.8448, 1893.512
139.3270, 1595.359
139.8091, 1275.670
140.2912, 1035.287
140.7733, 885.5467
141.2554, 791.1328
141.7375, 721.6923
142.2197, 681.5830
142.7018, 653.3450
143.1839, 634.6479
143.6660, 625.9442
144.1481, 620.5065
144.6302, 618.6293
145.1124, 619.8279
145.5945, 623.5852
146.0766, 630.4019
146.5587, 639.0800
147.0408, 649.0464
147.5230, 659.6388
148.0051, 673.6608
148.4872, 687.9628
148.9693, 701.5005
149.4514, 718.3297
149.9335, 738.7491
150.4157, 762.0411
150.8978, 787.2514
151.3799, 813.3275
151.8620, 844.2131
152.3441, 884.0032
152.8262, 928.3023
153.3084, 967.9835
153.7905, 1020.949
154.2726, 1054.609
154.7547, 1056.780
155.2368, 1013.387
155.7189, 961.5029
156.2011, 896.4005
156.6832, 824.8868
157.1653, 765.6619
157.6474, 723.0763
158.1295, 692.5303
158.6116, 672.0023
159.0938, 664.8254
159.5759, 662.0893
160.0580, 662.3013
160.5401, 665.2795
161.0222, 670.5071
161.5044, 679.3917
161.9865, 689.4990
162.4686, 699.1649
162.9507, 707.3948
163.4328, 715.7861
163.9149, 724.9141
164.3971, 734.8086
164.8792, 745.2187
165.3613, 755.6497
165.8434, 766.7153
166.3255, 779.0303
166.8076, 792.8852
167.2898, 807.7764
167.7719, 823.6152
168.2540, 840.3822
168.7361, 857.9026
169.2182, 875.4037
169.7003, 893.7904
170.1825, 914.1435
170.6646, 936.2570
171.1467, 960.8298
171.6288, 989.0428
172.1109, 1020.592
172.5931, 1054.348
173.0752, 1088.650
173.5573, 1124.617
174.0394, 1164.260
174.5215, 1208.016
175.0036, 1255.758
175.4858, 1307.215
175.9679, 1362.853
176.4500, 1420.045
176.9321, 1479.825
177.4142, 1540.421
177.8963, 1596.718
178.3785, 1652.556
178.8606, 1701.841
179.3427, 1735.740
179.8248, 1755.057
180.3069, 1755.935
180.7890, 1731.644
181.2712, 1685.113
181.7533, 1625.181
182.2354, 1550.166
182.7175, 1465.468
183.1996, 1382.756
183.6818, 1300.552
184.1639, 1224.756
184.6460, 1159.548
185.1281, 1104.964
185.6102, 1058.014
186.0923, 1017.480
186.5745, 983.5716
187.0566, 959.4913
187.5387, 946.0328
188.0208, 938.8311
188.5029, 931.9395
188.9850, 925.5354
189.4672, 921.3123
189.9493, 919.4002
190.4314, 920.1223
190.9135, 925.7185
191.3956, 937.0187
191.8777, 951.3492
192.3599, 965.3758
192.8420, 979.0394
193.3241, 992.6925
193.8062, 1007.658
194.2883, 1023.628
194.7704, 1035.552
195.2526, 1043.018
195.7347, 1046.625
196.2168, 1048.097
196.6989, 1047.670
197.1810, 1042.181
197.6632, 1028.815
198.1453, 1007.473
198.6274, 984.8512
199.1095, 960.9017
199.5916, 936.2803
200.0737, 912.5655
200.5559, 889.6266
201.0380, 867.7083
201.5201, 846.8782
202.0022, 826.9201
202.4843, 808.6786
202.9664, 792.2010
203.4486, 777.4723
203.9307, 764.4366
204.4128, 753.2382
204.8949, 743.6365
205.3770, 735.5641
205.8591, 729.0330
206.3413, 723.9103
206.8234, 720.2498
207.3055, 717.9180
207.7876, 716.6394
208.2697, 716.4665
208.7519, 717.1627
209.2340, 718.7916
209.7161, 721.5621
210.1982, 724.4205
210.6803, 728.1021
211.1624, 731.3919
211.6446, 730.9713
212.1267, 726.5954
212.6088, 719.1608
213.0909, 708.3849
213.5730, 693.0876
214.0551, 679.0175
214.5373, 666.3625
215.0194, 655.1959
215.5015, 645.4571
215.9836, 637.3238
216.4657, 630.1984
216.9478, 623.6319
217.4300, 617.5453
217.9121, 612.2028
218.3942, 607.5802
218.8763, 603.7324
219.3584, 600.9365
219.8405, 599.3425
220.3227, 598.5275
220.8048, 598.1764
221.2869, 597.9485
221.7690, 599.3632
222.2511, 603.6453
222.7333, 609.2588
223.2154, 611.2953
223.6975, 607.9982
224.1796, 604.1520
224.6617, 602.0469
225.1438, 602.1840
225.6260, 602.7835
226.1081, 603.8242
226.5902, 605.3211
227.0723, 607.3231
227.5544, 610.1449
228.0365, 613.0318
228.5187, 615.4796
229.0008, 616.7654
229.4829, 619.4212
229.9650, 624.0007
230.4471, 629.8229
230.9292, 635.0091
231.4114, 638.7924
231.8935, 643.1868
232.3756, 649.1464
232.8577, 657.6669
233.3398, 665.4352
233.8220, 671.4831
234.3041, 677.0949
234.7862, 685.3561
235.2683, 697.1657
235.7504, 710.1761
236.2325, 723.6212
236.7147, 737.0755
237.1968, 751.6003
237.6789, 767.5443
238.1610, 784.4567
238.6431, 801.1669
239.1252, 817.1984
239.6074, 834.1245
240.0895, 852.8616
240.5716, 874.0615
241.0537, 894.6490
241.5358, 914.1334
242.0179, 933.2522
242.5001, 953.2122
242.9822, 973.0805
243.4643, 995.2698
243.9464, 1020.622
244.4285, 1049.473
244.9106, 1080.555
245.3928, 1113.722
245.8749, 1149.341
246.3570, 1187.897
246.8391, 1228.681
247.3212, 1273.514
247.8034, 1322.675
248.2855, 1375.967
248.7676, 1435.276
249.2497, 1501.551
249.7318, 1573.526
250.2139, 1649.628
250.6961, 1731.381
251.1782, 1814.897
251.6603, 1900.449
252.1424, 1989.291
252.6245, 2075.536
253.1066, 2163.741
253.5888, 2246.067
254.0709, 2314.485
254.5530, 2370.829
255.0351, 2409.658
255.5172, 2428.490
255.9993, 2426.878
256.4815, 2410.505
256.9636, 2373.822
257.4457, 2328.548
257.9278, 2286.145
258.4099, 2243.711
258.8921, 2210.434
259.3742, 2187.180
259.8563, 2174.046
260.3384, 2174.569
260.8205, 2188.486
261.3026, 2216.373
261.7848, 2259.381
262.2669, 2317.550
262.7490, 2389.985
263.2311, 2477.219
263.7132, 2579.062
264.1953, 2688.659
264.6775, 2807.488
265.1596, 2930.494
265.6417, 3057.093
266.1238, 3193.286
266.6059, 3312.372
267.0880, 3413.401
267.5702, 3494.332
268.0523, 3536.608
268.5344, 3542.137
269.0165, 3505.423
269.4986, 3417.741
269.9807, 3270.585
270.4629, 3104.121
270.9450, 2917.893
271.4271, 2716.844
271.9092, 2526.021
272.3913, 2344.258
272.8734, 2175.965
273.3556, 2023.921
273.8377, 1888.268
274.3198, 1768.496
274.8019, 1664.171
275.2840, 1574.718
275.7661, 1498.598
276.2483, 1437.391
276.7304, 1383.488
277.2125, 1333.777
277.6946, 1287.877
278.1768, 1248.514
278.6589, 1216.673
279.1410, 1190.370
279.6231, 1165.706
280.1052, 1142.286
280.5873, 1121.636
281.0695, 1105.246
281.5516, 1092.994
282.0337, 1081.234
282.5158, 1069.381
282.9979, 1059.059
283.4800, 1053.334
283.9622, 1052.343
284.4443, 1052.781
284.9264, 1053.486
285.4085, 1054.441
285.8906, 1055.354
286.3727, 1055.950
286.8549, 1057.436
287.3370, 1061.990
287.8191, 1069.455
288.3012, 1076.626
288.7833, 1081.672
289.2654, 1085.464
289.7476, 1091.212
290.2297, 1098.960
290.7118, 1108.376
291.1939, 1119.353
291.6760, 1131.743
292.1581, 1145.243
292.6403, 1159.988
293.1224, 1175.641
293.6045, 1191.598
294.0866, 1207.723
294.5687, 1224.991
295.0508, 1243.710
295.5330, 1264.212
296.0151, 1287.413
296.4972, 1314.530
296.9793, 1343.740
297.4614, 1371.481
297.9435, 1398.037
298.4257, 1423.833
298.9078, 1449.699
299.3899, 1474.906
299.8720, 1497.482
300.3541, 1517.712
300.8362, 1534.406
301.3184, 1546.930
301.8005, 1555.091
302.2826, 1557.560
302.7647, 1553.700
303.2469, 1543.701
303.7290, 1527.332
304.2111, 1504.357
304.6932, 1476.308
305.1753, 1443.924
305.6574, 1407.777
306.1396, 1370.460
306.6217, 1331.042
307.1038, 1291.776
307.5859, 1254.755
308.0680, 1219.775
308.5501, 1187.141
309.0323, 1156.553
309.5144, 1128.444
309.9965, 1103.600
310.4786, 1083.161
310.9607, 1065.231
311.4428, 1048.418
311.9250, 1032.769
312.4071, 1018.570
312.8892, 1005.393
313.3713, 994.3242
313.8534, 986.4575
314.3355, 983.7521
314.8177, 983.0085
315.2998, 982.8827
315.7819, 983.4100
316.2640, 984.8079
316.7461, 986.2104
317.2282, 989.0526
317.7104, 994.4980
318.1925, 1003.578
318.6746, 1014.114
319.1567, 1025.453
319.6388, 1037.737
320.1209, 1051.064
320.6031, 1064.205
321.0852, 1079.331
321.5673, 1098.120
322.0494, 1122.604
322.5315, 1146.483
323.0136, 1167.004
323.4958, 1186.375
323.9779, 1208.181
324.4600, 1233.973
324.9421, 1261.575
325.4242, 1289.766
325.9064, 1318.144
326.3885, 1349.358
326.8706, 1385.374
327.3527, 1423.556
327.8348, 1461.581
328.3170, 1496.316
328.7991, 1534.363
329.2812, 1576.586
329.7633, 1623.201
330.2454, 1672.012
330.7275, 1722.090
331.2097, 1774.505
331.6918, 1829.998
332.1739, 1890.228
332.6560, 1951.301
333.1381, 2012.218
333.6202, 2073.170
334.1024, 2133.255
334.5845, 2193.101
335.0666, 2250.069
335.5487, 2304.112
336.0308, 2358.236
336.5129, 2399.525
336.9951, 2428.206
337.4772, 2443.534
337.9593, 2444.488
338.4414, 2429.938
338.9235, 2404.406
339.4056, 2368.880
339.8878, 2323.576
340.3699, 2269.886
340.8520, 2205.915
341.3341, 2136.694
341.8162, 2065.197
342.2983, 1991.658
342.7805, 1919.324
343.2626, 1849.509
343.7447, 1781.778
344.2268, 1717.465
344.7089, 1655.913
345.1910, 1597.699
345.6732, 1544.395
346.1553, 1495.088
346.6374, 1448.509
347.1195, 1403.866
347.6016, 1361.648
348.0837, 1322.891
348.5659, 1287.214
349.0480, 1253.472
349.5301, 1221.638
350.0122, 1191.157
350.4944, 1161.795
350.9765, 1133.665
351.4586, 1106.461
351.9407, 1080.203
352.4228, 1054.919
352.9049, 1030.691
353.3871, 1007.003
353.8692, 984.6257
354.3513, 964.9374
354.8334, 948.0707
355.3155, 932.2687
355.7976, 915.6742
356.2798, 899.1288
356.7619, 883.8149
357.2440, 870.7631
357.7261, 858.8167
358.2082, 846.9608
358.6903, 835.3438
359.1725, 825.0479
359.6546, 817.0261
360.1367, 810.3779
360.6188, 804.4680
361.1009, 799.6041
361.5830, 794.8288
362.0652, 789.2635
362.5473, 783.4597
363.0294, 778.7719
363.5115, 776.2924
363.9936, 774.5573
364.4757, 772.7433
364.9579, 770.3977
365.4400, 769.1276
365.9221, 769.5919
366.4042, 771.2018
366.8863, 773.2092
367.3684, 776.3312
367.8506, 779.0361
368.3327, 780.7119
368.8148, 781.2167
369.2969, 782.3631
369.7790, 784.1504
370.2611, 786.5984
370.7433, 789.7121
371.2254, 793.1815
371.7075, 797.7209
372.1896, 803.3229
372.6717, 810.0505
373.1538, 818.1992
373.6360, 828.5422
374.1181, 839.0018
374.6002, 848.3229
375.0823, 856.0007
375.5645, 864.4370
376.0466, 873.3253
376.5287, 883.1865
377.0108, 895.0609
377.4929, 908.9489
377.9750, 923.9294
378.4572, 940.0613
378.9393, 957.1530
379.4214, 973.0683
379.9035, 987.9248
380.3856, 1000.596
380.8677, 1010.112
381.3499, 1016.434
381.8320, 1019.149
382.3141, 1018.555
382.7962, 1013.911
383.2783, 1002.662
383.7604, 985.0475
384.2426, 964.8495
384.7247, 943.9083
385.2068, 922.3110
385.6889, 898.5632
386.1710, 872.0645
386.6531, 846.0502
387.1353, 823.4670
387.6174, 803.9288
388.0995, 786.2157
388.5816, 769.7921
389.0637, 754.7447
389.5458, 740.7977
390.0280, 727.8504
390.5101, 716.4905
390.9922, 707.4990
391.4743, 700.1534
391.9564, 693.6030
392.4385, 688.2070
392.9207, 682.8719
393.4028, 676.3938
393.8849, 669.4474
394.3670, 664.0501
394.8491, 662.2594
395.3312, 661.3419
395.8134, 659.7735
396.2955, 657.1108
396.7776, 654.4592
397.2597, 652.1229
397.7418, 649.9384
398.2239, 647.6743
398.7061, 645.2783
399.1882, 642.8506
399.6703, 640.3076
400.1524, 637.6284
400.6346, 635.3383
401.1167, 633.3268
401.5988, 631.8254
402.0809, 631.1071
402.5630, 631.9704
403.0451, 631.9757
403.5273, 630.5002
404.0094, 628.1904
404.4915, 627.0430
404.9736, 627.5699
405.4557, 627.9880
405.9378, 627.4784
406.4200, 625.9603
406.9021, 624.3253
407.3842, 622.4677
407.8663, 620.7831
408.3484, 620.0391
408.8305, 620.2644
409.3127, 619.9541
409.7948, 618.3735
410.2769, 616.1790
410.7590, 615.4637
411.2411, 616.2439
411.7232, 616.9200
412.2054, 615.6995
412.6875, 613.4131
413.1696, 612.6776
413.6517, 614.2556
414.1338, 616.1090
414.6159, 615.5183
415.0981, 613.2198
415.5802, 611.2238
416.0623, 610.9081
416.5444, 611.1690
417.0265, 610.7224
417.5086, 609.5275
417.9908, 608.7758
418.4729, 610.0908
418.9550, 611.8900
419.4371, 612.4025
419.9192, 609.5910
420.4013, 607.2838
420.8835, 607.7479
421.3656, 610.0919
421.8477, 611.6422
422.3298, 610.2965
422.8119, 609.0332
423.2940, 609.4756
423.7762, 612.6292
424.2583, 614.8607
424.7404, 615.3121
425.2225, 614.8118
425.7047, 614.3275
426.1868, 613.9575
426.6689, 613.4647
427.1510, 612.5068
427.6331, 611.2152
428.1152, 611.2238
428.5974, 613.5246
429.0795, 615.6412
429.5616, 615.8604
430.0437, 613.5214
430.5258, 612.0530
431.0079, 611.6026
431.4901, 612.0850
431.9722, 613.8192
432.4543, 617.0002
432.9364, 619.3492
433.4185, 619.7518
433.9006, 618.5655
434.3828, 617.0624
434.8649, 615.1719
435.3470, 613.8438
435.8291, 614.4122
436.3112, 616.3200
436.7933, 617.6328
437.2755, 617.6976
437.7576, 617.6497
438.2397, 619.2304
438.7218, 621.9949
439.2039, 624.4382
439.6860, 625.1750
440.1682, 625.5085
440.6503, 626.8576
441.1324, 629.3503
441.6145, 631.9139
442.0966, 634.2852
442.5787, 636.2188
443.0609, 637.4364
443.5430, 636.3883
444.0251, 636.1376
444.5072, 638.0957
444.9893, 641.7906
445.4714, 645.5286
445.9536, 649.1146
446.4357, 652.5416
446.9178, 655.7452
447.3999, 658.5348
447.8820, 661.6758
448.3641, 665.1371
448.8463, 669.0175
449.3284, 673.5853
449.8105, 679.4900
450.2926, 684.8065
450.7747, 688.8961
451.2569, 692.0844
451.7390, 696.1087
452.2211, 700.8804
452.7032, 706.7906
453.1853, 714.6249
453.6674, 724.6288
454.1496, 732.7934
454.6317, 738.5139
455.1138, 743.6348
455.5959, 750.8225
456.0780, 759.9781
456.5602, 769.3364
457.0423, 778.0408
457.5244, 786.6865
458.0065, 797.2894
458.4886, 809.5417
458.9707, 820.9787
459.4529, 829.5263
459.9350, 836.1420
460.4171, 842.1238
460.8992, 848.0349
461.3813, 852.5105
461.8634, 854.9172
462.3456, 855.1556
462.8277, 853.0039
463.3098, 847.6796
463.7919, 840.5227
464.2740, 831.7112
464.7561, 821.3627
465.2383, 810.8424
465.7204, 800.7576
466.2025, 790.4521
466.6846, 779.5750
467.1667, 767.5461
467.6488, 755.8347
468.1310, 744.0364
468.6131, 732.6775
469.0952, 722.3175
469.5773, 713.0492
470.0594, 704.6901
470.5415, 697.3203
471.0237, 690.9378
471.5058, 684.3067
471.9879, 677.0880
472.4700, 670.3694
472.9521, 665.0909
473.4342, 661.2712
473.9164, 658.1135
474.3985, 655.6472
474.8806, 653.5395
475.3627, 651.4570
475.8448, 649.3453
476.3270, 646.5841
476.8091, 642.0922
477.2912, 637.1302
477.7733, 634.4844
478.2554, 634.0392
478.7375, 634.0534
479.2197, 633.5176
479.7018, 632.5252
480.1839, 631.0888
480.6660, 628.9799
481.1481, 627.1044
481.6302, 626.2917
482.1124, 626.0833
482.5945, 625.7036
483.0766, 624.5725
483.5587, 623.4778
484.0408, 622.7587
484.5229, 622.4233
485.0051, 622.2327
485.4872, 622.1714
485.9693, 622.2228
486.4514, 622.3612
486.9335, 622.3559
487.4156, 622.8607
487.8978, 624.2705
488.3799, 625.9837
488.8620, 627.0582
489.3441, 627.2637
489.8262, 627.3986
490.3083, 627.5602
490.7905, 627.8100
491.2726, 628.6207
491.7547, 630.0604
492.2368, 631.7582
492.7189, 633.2899
493.2010, 634.7618
493.6832, 636.9211
494.1653, 639.9957
494.6474, 643.1884
495.1295, 645.2090
495.6116, 646.4883
496.0938, 648.4016
496.5759, 651.6059
497.0580, 655.5909
497.5401, 660.1943
498.0222, 665.2557
498.5044, 669.7316
498.9865, 672.2501
499.4686, 674.4962
499.9507, 677.8120
500.4328, 682.5090
500.9149, 687.8260
501.3971, 694.0502
501.8792, 700.5997
502.3613, 706.8033
502.8434, 712.3514
503.3255, 717.8541
503.8076, 723.1837
504.2898, 728.4809
504.7719, 734.4576
505.2540, 741.2963
505.7361, 748.4985
506.2182, 756.0129
506.7003, 763.8803
507.1825, 771.3942
507.6646, 778.2740
508.1467, 785.4021
508.6288, 793.8427
509.1109, 803.5976
509.5930, 813.9392
510.0752, 825.3089
510.5573, 836.3493
511.0394, 843.7487
511.5215, 848.0526
512.0037, 852.6581
512.4858, 860.8751
512.9679, 869.9118
513.4500, 875.7267
513.9321, 878.1995
514.4142, 879.1369
514.8964, 879.7991
515.3785, 879.5713
515.8606, 877.7546
516.3427, 873.8132
516.8248, 868.9007
517.3069, 863.3410
517.7891, 857.1237
518.2712, 850.2039
518.7533, 842.8654
519.2354, 834.5837
519.7175, 825.0282
520.1996, 814.2083
520.6818, 803.3430
521.1639, 792.0410
521.6460, 781.1400
522.1281, 771.4498
522.6102, 763.4665
523.0923, 754.3767
523.5745, 743.5590
524.0566, 732.4893
524.5387, 723.3047
525.0208, 715.9594
525.5029, 709.2440
525.9850, 702.7436
526.4672, 696.7142
526.9493, 691.9131
527.4314, 688.1572
527.9135, 684.2489
528.3956, 679.2263
528.8777, 673.5798
529.3599, 667.7524
529.8420, 661.6658
530.3241, 656.4388
530.8062, 653.1959
531.2883, 650.9818
531.7704, 648.8030
532.2526, 646.1693
532.7347, 643.7630
533.2168, 641.9233
533.6989, 640.4576
534.1810, 638.8597
534.6631, 637.4373
535.1453, 635.4675
535.6274, 632.4111
536.1095, 628.1667
536.5916, 625.4295
537.0737, 624.7706
537.5558, 624.6949
538.0380, 624.2470
538.5201, 623.3788
539.0022, 622.3965
539.4843, 621.3125
539.9664, 620.1473
540.4485, 618.8220
540.9307, 617.3901
541.4128, 616.3317
541.8949, 616.0485
542.3770, 615.9851
542.8591, 614.9951
543.3412, 613.2861
543.8234, 611.9138
544.3055, 611.6520
544.7876, 611.9484
545.2697, 612.4527
545.7518, 613.1678
546.2339, 613.5121
546.7161, 613.1805
547.1982, 612.3680
547.6803, 611.2306
548.1624, 609.2228
548.6445, 607.6548
549.1266, 607.0026
549.6088, 606.8856
550.0909, 606.5008
550.5730, 605.4626
551.0551, 604.8470
551.5372, 605.1703
552.0193, 606.2845
552.5015, 606.6193
552.9836, 606.1006
553.4657, 605.0774
553.9478, 603.2612
554.4299, 600.8441
554.9120, 600.2110
555.3942, 601.7444
555.8763, 603.6635
556.3584, 603.6304
556.8405, 602.3724
557.3226, 601.7862
557.8047, 602.6663
558.2869, 604.0759
558.7690, 605.6688
559.2511, 607.1396
559.7332, 607.6924
560.2154, 606.4169
560.6975, 604.6149
561.1796, 602.6193
561.6617, 600.4547
562.1439, 599.2051
562.6260, 599.5418
563.1081, 600.5499
563.5902, 601.7346
564.0723, 603.3943
564.5544, 604.6097
565.0366, 605.3527
565.5187, 605.6879
566.0008, 605.4830
566.4829, 604.5078
566.9650, 604.2990
567.4471, 605.4030
567.9293, 607.2516
568.4114, 608.3564
568.8935, 608.7668
569.3756, 609.1771
569.8577, 610.1050
570.3398, 611.2420
570.8220, 612.1090
571.3041, 612.6996
571.7862, 612.8772
572.2683, 611.6335
572.7504, 610.4146
573.2325, 610.8788
573.7147, 614.1003
574.1968, 617.0264
574.6789, 618.0809
575.1610, 618.3528
575.6431, 619.2628
576.1252, 621.6998
576.6074, 623.9890
577.0895, 625.9228
577.5716, 627.5586
578.0537, 628.9131
578.5358, 629.3131
579.0179, 631.0381
579.5001, 635.4009
579.9822, 642.2346
580.4643, 648.0891
580.9464, 652.8102
581.4285, 657.5696
581.9106, 663.3483
582.3928, 670.0372
582.8749, 677.3309
583.3570, 685.3253
583.8391, 693.4014
584.3212, 700.8854
584.8033, 708.1133
585.2855, 715.6945
585.7676, 723.3605
586.2497, 731.9723
586.7318, 742.1160
587.2139, 753.6063
587.6960, 765.9128
