##NAMES=Tavorite
##RRUFFID=R070523
##IDEAL CHEMISTRY=LiFe^3+^PO_4_(OH)
##LOCALITY=Bull Moose mine, Custer District, Custer County, South Dakota, USA
##OWNER=RRUFF
##SOURCE=James Shigley
##DESCRIPTION=Bright greenish-yellow vitreous crystals, associated with colorless triphylite, pale yellow hureaulite, and dark blue barbosalite.
##STATUS=The identification of this mineral has been confirmed by single-crystal X-ray diffraction.
##URL=rruff.info/R070523
125.7391, 2141.921
126.2212, 2210.673
126.7033, 2259.868
127.1854, 2301.904
127.6675, 2342.217
128.1496, 2378.851
128.6318, 2405.066
129.1139, 2413.270
129.5960, 2416.100
130.0781, 2436.637
130.5602, 2479.799
131.0423, 2525.212
131.5244, 2562.276
132.0066, 2591.755
132.4887, 2618.698
132.9708, 2643.511
133.4529, 2667.776
133.9350, 2693.294
134.4171, 2719.656
134.8993, 2748.606
135.3814, 2787.057
135.8635, 2835.146
136.3456, 2870.322
136.8277, 2870.544
137.3098, 2858.790
137.7920, 2860.627
138.2741, 2881.614
138.7562, 2914.325
139.2383, 2953.059
139.7204, 2998.867
140.2025, 3043.645
140.6847, 3077.659
141.1668, 3111.008
141.6489, 3154.566
142.1310, 3213.658
142.6131, 3279.910
143.0952, 3338.979
143.5774, 3386.128
144.0595, 3440.063
144.5416, 3505.958
145.0237, 3581.982
145.5058, 3668.429
145.9879, 3766.335
146.4701, 3872.891
146.9522, 3983.436
147.4343, 4106.127
147.9164, 4215.976
148.3985, 4302.308
148.8806, 4375.230
149.3628, 4444.206
149.8449, 4511.617
150.3270, 4581.560
150.8091, 4670.533
151.2912, 4803.923
151.7733, 4917.147
152.2555, 4994.607
152.7376, 5044.253
153.2197, 5077.089
153.7018, 5098.700
154.1839, 5108.599
154.6660, 5103.349
155.1482, 5063.032
155.6303, 5032.339
156.1124, 5026.069
156.5945, 5035.061
157.0766, 5045.461
157.5587, 5048.846
158.0408, 5046.125
158.5230, 5044.356
159.0051, 5046.876
159.4872, 5046.677
159.9693, 5035.825
160.4514, 5000.824
160.9335, 4954.453
161.4157, 4915.050
161.8978, 4882.402
162.3799, 4854.637
162.8620, 4842.909
163.3441, 4825.106
163.8262, 4790.499
164.3084, 4747.307
164.7905, 4710.711
165.2726, 4692.374
165.7547, 4691.324
166.2368, 4683.171
166.7189, 4664.588
167.2011, 4643.977
167.6832, 4623.381
168.1653, 4602.785
168.6474, 4580.890
169.1295, 4555.957
169.6116, 4528.278
170.0938, 4511.305
170.5759, 4513.096
171.0580, 4516.042
171.5401, 4515.869
172.0222, 4512.641
172.5043, 4507.452
172.9865, 4500.659
173.4686, 4492.145
173.9507, 4486.598
174.4328, 4487.961
174.9149, 4487.359
175.3970, 4475.872
175.8792, 4458.924
176.3613, 4451.286
176.8434, 4465.647
177.3255, 4502.068
177.8076, 4521.561
178.2897, 4521.869
178.7719, 4511.552
179.2540, 4486.622
179.7361, 4452.604
180.2182, 4423.148
180.7003, 4409.459
181.1824, 4411.482
181.6646, 4400.371
182.1467, 4368.496
182.6288, 4334.672
183.1109, 4307.025
183.5930, 4283.877
184.0751, 4259.420
184.5573, 4230.042
185.0394, 4195.878
185.5215, 4154.786
186.0036, 4102.935
186.4857, 4049.654
186.9678, 3991.949
187.4500, 3934.485
187.9321, 3891.021
188.4142, 3873.398
188.8963, 3879.656
189.3784, 3867.161
189.8605, 3817.072
190.3427, 3771.587
190.8248, 3748.458
191.3069, 3743.652
191.7890, 3745.361
192.2711, 3747.941
192.7532, 3750.265
193.2354, 3738.570
193.7175, 3698.073
194.1996, 3662.069
194.6817, 3645.371
195.1638, 3643.662
195.6459, 3644.063
196.1281, 3638.055
196.6102, 3627.701
197.0923, 3629.815
197.5744, 3660.543
198.0565, 3683.877
198.5386, 3683.331
199.0208, 3665.632
199.5029, 3645.780
199.9850, 3630.532
200.4671, 3620.960
200.9492, 3624.391
201.4313, 3653.429
201.9135, 3678.246
202.3956, 3691.260
202.8777, 3693.406
203.3598, 3685.320
203.8419, 3665.552
204.3240, 3638.145
204.8062, 3620.904
205.2883, 3620.413
205.7704, 3619.969
206.2525, 3614.961
206.7346, 3607.028
207.2167, 3598.306
207.6988, 3589.182
208.1810, 3581.386
208.6631, 3581.595
209.1452, 3600.573
209.6273, 3612.691
210.1094, 3607.129
210.5915, 3592.382
211.0737, 3581.545
211.5558, 3580.065
212.0379, 3585.691
212.5200, 3593.524
213.0021, 3608.396
213.4842, 3618.023
213.9664, 3617.042
214.4485, 3610.769
214.9306, 3606.008
215.4127, 3605.204
215.8948, 3607.346
216.3769, 3610.637
216.8591, 3615.790
217.3412, 3620.885
217.8233, 3625.456
218.3054, 3630.026
218.7875, 3635.691
219.2696, 3642.827
219.7518, 3649.786
220.2339, 3653.674
220.7160, 3651.964
221.1981, 3652.258
221.6802, 3658.348
222.1623, 3664.729
222.6445, 3664.389
223.1266, 3656.120
223.6087, 3646.385
224.0908, 3642.853
224.5729, 3643.813
225.0550, 3659.033
225.5372, 3701.945
226.0193, 3749.850
226.5014, 3785.942
226.9835, 3807.372
227.4656, 3820.933
227.9477, 3832.594
228.4299, 3839.279
228.9120, 3858.938
229.3941, 3894.359
229.8762, 3939.067
230.3583, 3993.249
230.8404, 4054.527
231.3225, 4114.225
231.8047, 4162.458
232.2868, 4195.668
232.7689, 4246.824
233.2510, 4333.816
233.7331, 4418.859
234.2152, 4481.590
234.6974, 4525.602
235.1795, 4565.153
235.6616, 4610.209
236.1437, 4660.735
236.6258, 4725.988
237.1079, 4824.090
237.5901, 4916.232
238.0722, 4982.604
238.5543, 5032.910
239.0364, 5088.768
239.5185, 5164.399
240.0006, 5257.707
240.4828, 5354.651
240.9649, 5461.141
241.4470, 5564.508
241.9291, 5650.970
242.4112, 5735.438
242.8933, 5838.327
243.3755, 5971.245
243.8576, 6129.124
244.3397, 6296.875
244.8218, 6472.026
245.3039, 6661.912
245.7860, 6877.105
246.2682, 7103.865
246.7503, 7326.981
247.2324, 7541.207
247.7145, 7750.502
248.1966, 7966.914
248.6787, 8244.521
249.1609, 8434.989
249.6430, 8511.599
250.1251, 8523.319
250.6072, 8505.441
251.0893, 8468.369
251.5714, 8405.596
252.0536, 8298.568
252.5357, 8109.597
253.0178, 7969.822
253.4999, 7905.754
253.9820, 7865.541
254.4641, 7816.774
254.9462, 7758.511
255.4284, 7714.229
255.9105, 7709.214
256.3926, 7746.589
256.8747, 7804.925
257.3568, 7886.575
257.8390, 7988.548
258.3211, 8118.146
258.8032, 8269.524
259.2853, 8426.584
259.7674, 8571.660
260.2495, 8706.959
260.7317, 8874.563
261.2138, 9086.563
261.6959, 9321.315
262.1780, 9581.058
262.6601, 9855.306
263.1422, 10125.72
263.6244, 10385.02
264.1065, 10631.05
264.5886, 10856.58
265.0707, 11066.70
265.5528, 11242.45
266.0349, 11413.30
266.5170, 11540.00
266.9991, 11568.52
267.4813, 11468.45
267.9634, 11283.28
268.4455, 11078.04
268.9276, 10851.54
269.4097, 10610.15
269.8918, 10332.70
270.3740, 10051.19
270.8561, 9793.923
271.3382, 9569.504
271.8203, 9350.283
272.3024, 9097.410
272.7845, 8811.070
273.2667, 8550.837
273.7488, 8325.032
274.2309, 8142.131
274.7130, 8011.193
275.1951, 7932.922
275.6772, 7876.222
276.1594, 7819.959
276.6415, 7769.125
277.1236, 7743.593
277.6057, 7751.119
278.0878, 7776.597
278.5699, 7802.625
279.0521, 7830.736
279.5342, 7877.981
280.0163, 7965.294
280.4984, 8070.330
280.9805, 8159.038
281.4626, 8227.632
281.9448, 8288.229
282.4269, 8361.490
282.9090, 8436.674
283.3911, 8465.695
283.8732, 8438.247
284.3553, 8365.584
284.8375, 8247.323
285.3196, 8087.197
285.8017, 7907.561
286.2838, 7717.961
286.7659, 7519.689
287.2480, 7315.866
287.7302, 7085.915
288.2123, 6874.834
288.6944, 6692.601
289.1765, 6541.747
289.6586, 6433.725
290.1407, 6376.901
290.6229, 6354.121
291.1050, 6326.322
291.5871, 6277.088
292.0692, 6252.146
292.5513, 6271.433
293.0334, 6311.909
293.5156, 6348.197
293.9977, 6373.838
294.4798, 6399.116
294.9619, 6440.082
295.4440, 6512.621
295.9261, 6552.490
296.4083, 6558.136
296.8904, 6535.558
297.3725, 6483.746
297.8546, 6405.813
298.3367, 6309.477
298.8188, 6201.736
299.3010, 6081.616
299.7831, 5951.071
300.2652, 5806.595
300.7473, 5655.721
301.2294, 5491.342
301.7115, 5323.187
302.1937, 5168.604
302.6758, 5039.426
303.1579, 4928.829
303.6400, 4808.764
304.1221, 4664.125
304.6042, 4535.233
305.0864, 4429.158
305.5685, 4340.021
306.0506, 4264.875
306.5327, 4202.865
307.0148, 4147.014
307.4969, 4085.749
307.9791, 4016.902
308.4612, 3952.339
308.9433, 3894.149
309.4254, 3840.825
309.9075, 3789.908
310.3896, 3742.303
310.8718, 3703.455
311.3539, 3683.378
311.8360, 3679.827
312.3181, 3667.813
312.8002, 3643.387
313.2823, 3613.585
313.7645, 3579.574
314.2466, 3543.799
314.7287, 3512.875
315.2108, 3492.771
315.6929, 3477.973
316.1750, 3456.070
316.6571, 3424.488
317.1393, 3400.185
317.6214, 3399.883
318.1035, 3410.801
318.5856, 3410.087
319.0677, 3391.205
319.5498, 3365.869
320.0320, 3337.554
320.5141, 3308.520
320.9962, 3290.396
321.4783, 3289.669
321.9604, 3298.878
322.4425, 3305.477
322.9247, 3309.722
323.4068, 3311.431
323.8889, 3313.215
324.3710, 3311.396
324.8531, 3298.577
325.3352, 3273.247
325.8174, 3245.198
326.2995, 3223.611
326.7816, 3208.893
327.2637, 3203.884
327.7458, 3219.850
328.2279, 3235.443
328.7101, 3235.247
329.1922, 3222.540
329.6743, 3211.764
330.1564, 3213.272
330.6385, 3225.151
331.1206, 3231.264
331.6028, 3233.825
332.0849, 3228.102
332.5670, 3202.858
333.0491, 3172.688
333.5312, 3157.198
334.0133, 3163.898
334.4955, 3181.081
334.9776, 3186.574
335.4597, 3175.386
335.9418, 3163.052
336.4239, 3142.575
336.9060, 3127.080
337.3882, 3128.083
337.8703, 3144.374
338.3524, 3163.323
338.8345, 3174.790
339.3166, 3178.783
339.7987, 3174.002
340.2809, 3147.974
340.7630, 3129.825
341.2451, 3136.107
341.7272, 3157.919
342.2093, 3178.301
342.6914, 3189.535
343.1736, 3195.002
343.6557, 3200.050
344.1378, 3204.545
344.6199, 3209.361
345.1020, 3214.950
345.5841, 3221.026
346.0663, 3225.923
346.5484, 3227.746
347.0305, 3235.053
347.5126, 3258.895
347.9947, 3293.427
348.4768, 3319.946
348.9590, 3333.490
349.4411, 3339.971
349.9232, 3344.431
350.4053, 3346.775
350.8874, 3352.188
351.3695, 3358.911
351.8517, 3370.879
352.3338, 3393.278
352.8159, 3425.623
353.2980, 3462.385
353.7801, 3500.553
354.2622, 3539.699
354.7444, 3573.771
355.2265, 3594.724
355.7086, 3620.855
356.1907, 3660.779
356.6728, 3708.239
357.1549, 3753.122
357.6371, 3791.551
358.1192, 3827.279
358.6013, 3867.323
359.0834, 3912.779
359.5655, 3960.814
360.0476, 4010.531
360.5298, 4062.895
361.0119, 4119.667
361.4940, 4179.995
361.9761, 4240.118
362.4582, 4295.474
362.9403, 4346.358
363.4225, 4404.385
363.9046, 4471.502
364.3867, 4543.755
364.8688, 4618.251
365.3509, 4696.317
365.8330, 4782.210
366.3151, 4879.835
366.7972, 4978.784
367.2794, 5062.064
367.7615, 5129.004
368.2436, 5190.774
368.7257, 5257.076
369.2078, 5313.776
369.6899, 5354.702
370.1721, 5380.628
370.6542, 5371.726
371.1363, 5305.203
371.6184, 5198.569
372.1005, 5086.081
372.5826, 4972.043
373.0648, 4854.254
373.5469, 4729.063
374.0290, 4596.960
374.5111, 4465.524
374.9932, 4333.090
375.4753, 4203.486
375.9575, 4072.895
376.4396, 3945.655
376.9217, 3832.200
377.4038, 3738.161
377.8859, 3660.907
378.3680, 3594.483
378.8502, 3547.812
379.3323, 3500.395
379.8144, 3442.302
380.2965, 3389.607
380.7786, 3359.816
381.2607, 3352.981
381.7429, 3353.463
382.2250, 3346.478
382.7071, 3332.138
383.1892, 3308.473
383.6713, 3253.755
384.1534, 3212.847
384.6356, 3204.736
385.1177, 3217.693
385.5998, 3233.838
386.0819, 3246.109
386.5640, 3253.291
387.0461, 3247.276
387.5283, 3221.534
388.0104, 3217.098
388.4925, 3266.968
388.9746, 3325.880
389.4567, 3354.847
389.9388, 3351.264
390.4210, 3343.791
390.9031, 3346.283
391.3852, 3357.509
391.8673, 3375.833
392.3494, 3401.760
392.8315, 3431.446
393.3137, 3466.359
393.7958, 3503.263
394.2779, 3525.903
394.7600, 3519.593
395.2421, 3512.977
395.7242, 3523.220
396.2064, 3545.038
396.6885, 3564.330
397.1706, 3574.741
397.6527, 3584.457
398.1348, 3609.074
398.6169, 3656.027
399.0991, 3705.584
399.5812, 3757.930
400.0633, 3812.813
400.5454, 3874.487
401.0275, 3939.486
401.5096, 3995.287
401.9918, 4027.699
402.4739, 4041.203
402.9560, 4085.911
403.4381, 4193.709
403.9202, 4286.674
404.4023, 4351.500
404.8845, 4391.362
405.3666, 4411.539
405.8487, 4413.791
406.3308, 4392.432
406.8129, 4337.666
407.2950, 4250.039
407.7772, 4144.923
408.2593, 4009.659
408.7414, 3878.685
409.2235, 3782.776
409.7056, 3716.042
410.1877, 3651.805
410.6699, 3579.688
411.1520, 3506.859
411.6341, 3438.617
412.1162, 3375.592
412.5983, 3321.559
413.0804, 3278.211
413.5626, 3245.364
414.0447, 3224.398
414.5268, 3219.839
415.0089, 3216.285
415.4910, 3210.680
415.9731, 3204.741
416.4552, 3201.281
416.9373, 3200.271
417.4195, 3197.714
417.9016, 3188.541
418.3837, 3171.649
418.8658, 3162.881
419.3479, 3166.807
419.8300, 3174.210
420.3122, 3187.726
420.7943, 3201.947
421.2764, 3209.517
421.7585, 3207.278
422.2406, 3198.472
422.7227, 3184.388
423.2049, 3162.154
423.6870, 3155.331
424.1691, 3182.176
424.6512, 3211.784
425.1333, 3217.350
425.6154, 3203.327
426.0976, 3198.368
426.5797, 3224.239
427.0618, 3263.594
427.5439, 3288.938
428.0260, 3299.707
428.5081, 3312.466
428.9903, 3338.052
429.4724, 3370.546
429.9545, 3392.293
430.4366, 3395.715
430.9187, 3403.836
431.4008, 3425.617
431.8830, 3453.997
432.3651, 3480.780
432.8472, 3504.468
433.3293, 3527.857
433.8114, 3553.339
434.2935, 3580.748
434.7757, 3614.216
435.2578, 3658.322
435.7399, 3703.262
436.2220, 3744.529
436.7041, 3785.896
437.1862, 3833.487
437.6684, 3889.644
438.1505, 3949.856
438.6326, 4006.374
439.1147, 4058.270
439.5968, 4112.820
440.0789, 4165.375
440.5611, 4227.337
441.0432, 4307.695
441.5253, 4403.521
442.0074, 4502.829
442.4895, 4604.313
442.9716, 4704.036
443.4538, 4790.839
443.9359, 4866.557
444.4180, 4957.809
444.9001, 5080.402
445.3822, 5221.031
445.8643, 5350.973
446.3465, 5464.493
446.8286, 5583.912
447.3107, 5722.893
447.7928, 5862.060
448.2749, 5973.707
448.7570, 6062.371
449.2392, 6161.099
449.7213, 6298.671
450.2034, 6471.310
450.6855, 6647.373
451.1676, 6837.698
451.6497, 7015.211
452.1319, 7165.459
452.6140, 7307.993
453.0961, 7463.124
453.5782, 7635.321
454.0603, 7809.846
454.5424, 7980.926
455.0246, 8146.305
455.5067, 8273.824
455.9888, 8358.423
456.4709, 8410.928
456.9530, 8435.404
457.4352, 8433.742
457.9173, 8403.823
458.3994, 8342.032
458.8815, 8256.089
459.3636, 8145.146
459.8457, 8014.590
460.3279, 7875.333
460.8100, 7731.722
461.2921, 7580.505
461.7742, 7418.020
462.2563, 7242.993
462.7384, 7062.712
463.2206, 6876.329
463.7027, 6687.538
464.1848, 6487.863
464.6669, 6289.306
465.1490, 6112.819
465.6311, 5971.399
466.1132, 5851.179
466.5953, 5722.152
467.0775, 5580.902
467.5596, 5444.883
468.0417, 5315.299
468.5238, 5192.259
469.0059, 5078.437
469.4880, 4972.324
469.9702, 4866.091
470.4523, 4747.524
470.9344, 4630.357
471.4165, 4538.475
471.8986, 4471.640
472.3807, 4404.413
472.8629, 4323.902
473.3450, 4239.193
473.8271, 4170.658
474.3092, 4119.017
474.7913, 4075.990
475.2734, 4050.929
475.7556, 4026.023
476.2377, 3981.298
476.7198, 3919.609
477.2019, 3862.021
477.6840, 3825.001
478.1661, 3802.449
478.6483, 3761.732
479.1304, 3681.258
479.6125, 3618.054
480.0946, 3588.412
480.5767, 3570.928
481.0588, 3552.312
481.5410, 3529.514
482.0231, 3501.459
482.5052, 3459.515
482.9873, 3411.552
483.4694, 3387.208
483.9515, 3392.421
484.4337, 3396.104
484.9158, 3379.310
485.3979, 3351.402
485.8800, 3332.765
486.3621, 3325.661
486.8442, 3322.966
487.3264, 3325.155
487.8085, 3328.697
488.2906, 3328.667
488.7727, 3324.609
489.2548, 3319.828
489.7369, 3317.018
490.2191, 3316.115
490.7012, 3316.050
491.1833, 3313.239
491.6654, 3316.015
492.1475, 3329.026
492.6296, 3346.131
493.1118, 3360.622
493.5939, 3371.497
494.0760, 3383.572
494.5581, 3400.676
495.0402, 3422.805
495.5223, 3451.433
496.0045, 3488.679
496.4866, 3526.257
496.9687, 3559.589
497.4508, 3589.769
497.9329, 3618.465
498.4150, 3645.155
498.8972, 3671.990
499.3793, 3698.400
499.8614, 3726.083
500.3435, 3758.426
500.8256, 3795.763
501.3077, 3834.400
501.7899, 3871.332
502.2720, 3906.392
502.7541, 3941.895
503.2362, 3981.332
503.7183, 4016.891
504.2004, 4042.812
504.6826, 4066.704
505.1647, 4099.390
505.6468, 4142.058
506.1289, 4180.701
506.6110, 4195.660
507.0931, 4191.487
507.5753, 4207.900
508.0574, 4258.083
508.5395, 4294.560
509.0216, 4284.825
509.5037, 4245.832
509.9858, 4209.166
510.4680, 4183.756
510.9501, 4145.702
511.4322, 4071.189
511.9143, 3982.732
512.3964, 3916.689
512.8785, 3876.866
513.3607, 3836.881
513.8428, 3773.825
514.3249, 3690.056
514.8070, 3613.257
515.2891, 3545.980
515.7712, 3483.410
516.2534, 3422.832
516.7355, 3367.727
517.2176, 3324.167
517.6997, 3291.781
518.1818, 3259.611
518.6639, 3213.105
519.1461, 3158.561
519.6282, 3123.423
520.1103, 3112.518
520.5924, 3100.940
521.0745, 3075.554
521.5566, 3042.460
522.0388, 3013.303
522.5209, 2988.447
523.0030, 2966.902
523.4851, 2951.391
523.9672, 2937.171
524.4493, 2917.104
524.9315, 2892.147
525.4136, 2870.696
525.8957, 2859.048
526.3778, 2854.854
526.8599, 2848.077
527.3420, 2839.364
527.8242, 2826.564
528.3063, 2803.323
528.7884, 2781.211
529.2705, 2771.080
529.7526, 2771.035
530.2347, 2767.730
530.7169, 2748.790
531.1990, 2723.414
531.6811, 2709.667
532.1632, 2707.469
532.6453, 2706.225
533.1274, 2703.160
533.6096, 2697.272
534.0917, 2685.314
534.5738, 2664.962
535.0559, 2650.175
535.5380, 2647.435
536.0201, 2646.173
536.5023, 2641.172
536.9844, 2631.834
537.4665, 2616.675
537.9486, 2594.479
538.4307, 2571.511
538.9128, 2562.897
539.3949, 2574.591
539.8770, 2574.273
540.3591, 2545.162
540.8412, 2519.479
541.3234, 2519.769
541.8055, 2536.495
542.2876, 2545.392
542.7697, 2535.752
543.2518, 2520.177
543.7339, 2505.944
544.2161, 2494.646
544.6982, 2491.780
545.1803, 2498.985
545.6624, 2511.373
546.1445, 2525.569
546.6266, 2542.353
547.1088, 2547.004
547.5909, 2525.540
548.0730, 2509.888
548.5551, 2511.090
549.0372, 2520.679
549.5193, 2531.243
550.0015, 2540.027
550.4836, 2543.076
550.9657, 2530.125
551.4478, 2505.780
551.9299, 2501.728
552.4120, 2524.311
552.8942, 2545.101
553.3763, 2548.307
553.8584, 2541.467
554.3405, 2539.762
554.8226, 2544.303
555.3047, 2550.598
555.7869, 2562.375
556.2690, 2571.794
556.7511, 2565.100
557.2332, 2546.933
557.7153, 2539.615
558.1974, 2558.390
558.6796, 2592.811
559.1617, 2610.678
559.6438, 2602.808
560.1259, 2601.236
560.6080, 2610.980
561.0901, 2626.628
561.5723, 2649.732
562.0544, 2676.945
562.5365, 2698.794
563.0186, 2708.798
563.5007, 2714.761
563.9828, 2722.931
564.4650, 2733.854
564.9471, 2749.636
565.4292, 2770.714
565.9113, 2797.520
566.3934, 2831.952
566.8755, 2875.330
567.3577, 2911.097
567.8398, 2938.642
568.3219, 2960.386
568.8040, 2966.301
569.2861, 2971.925
569.7682, 2999.168
570.2504, 3051.096
570.7325, 3105.788
571.2146, 3137.531
571.6967, 3152.281
572.1788, 3182.169
572.6609, 3230.802
573.1431, 3278.586
573.6252, 3315.198
574.1073, 3346.689
574.5894, 3386.968
575.0715, 3441.553
575.5536, 3484.741
576.0358, 3505.009
576.5179, 3516.637
577.0000, 3529.249
577.4821, 3543.446
577.9642, 3559.517
578.4464, 3578.269
578.9285, 3592.443
579.4106, 3585.658
579.8927, 3554.470
580.3748, 3518.396
580.8569, 3479.645
581.3391, 3435.217
581.8212, 3382.212
582.3033, 3323.117
582.7854, 3263.409
583.2675, 3201.994
583.7496, 3144.321
584.2318, 3093.526
584.7139, 3049.572
585.1960, 3013.185
585.6781, 2984.444
586.1602, 2961.991
586.6423, 2945.199
587.1245, 2933.862
587.6066, 2926.908
588.0887, 2931.540
588.5708, 2929.035
589.0529, 2907.218
589.5350, 2885.802
590.0172, 2883.153
590.4993, 2896.761
590.9814, 2906.644
591.4635, 2894.683
591.9456, 2878.023
592.4277, 2883.413
592.9099, 2907.744
593.3920, 2931.621
593.8741, 2949.387
594.3562, 2962.595
594.8383, 2971.702
595.3204, 2975.168
595.8026, 2986.591
596.2847, 3012.203
596.7668, 3037.415
597.2489, 3052.021
597.7310, 3066.657
598.2131, 3095.531
598.6953, 3141.340
599.1774, 3192.785
599.6595, 3245.639
600.1416, 3295.920
600.6237, 3325.789
601.1058, 3332.670
601.5880, 3339.576
602.0701, 3353.318
602.5522, 3376.015
603.0343, 3416.236
603.5164, 3481.589
603.9985, 3530.508
604.4807, 3545.531
604.9628, 3555.236
605.4449, 3577.074
605.9270, 3606.165
606.4091, 3631.698
606.8912, 3649.055
607.3734, 3661.287
607.8555, 3669.060
608.3376, 3672.751
608.8197, 3687.529
609.3018, 3714.079
609.7839, 3752.095
610.2661, 3806.507
610.7482, 3870.800
611.2303, 3931.353
611.7124, 3986.891
612.1945, 4041.976
612.6766, 4087.870
613.1588, 4141.274
613.6409, 4222.521
614.1230, 4325.729
614.6051, 4427.817
615.0872, 4516.161
615.5693, 4598.250
616.0515, 4687.711
616.5336, 4782.869
617.0157, 4892.818
617.4978, 5017.287
617.9799, 5158.277
618.4620, 5336.239
618.9442, 5528.325
619.4263, 5685.188
619.9084, 5780.317
620.3905, 5878.206
620.8726, 6014.448
