##NAMES=Teallite
##RRUFFID=R050434
##IDEAL CHEMISTRY=PbSnS_2_
##LOCALITY=Carhuaycollo, Carguaicollo District, Potosi, Bolivia
##OWNER=RRUFF
##SOURCE=University of Arizona Mineral Museum
##DESCRIPTION=Grayish black massive aggregate of thin folia with warped and bent crystals
##STATUS=The identification of this mineral has been confirmed by X-ray diffraction.
##URL=rruff.info/R050434
##MEASURED CHEMISTRY=(Pb_0.71_Sn_1.29_)_Î£=2_S_2.00_
118.003, 1353.604
118.485, 1408.937
118.967, 1515.892
119.449, 1638.489
119.931, 1738.115
120.413, 1816.868
120.896, 1907.164
121.378, 2024.384
121.860, 2169.102
122.342, 2353.406
122.824, 2585.184
123.306, 2858.807
123.788, 3169.676
124.270, 3518.200
124.752, 3895.427
125.234, 4306.817
125.717, 4761.248
126.199, 5193.565
126.681, 5621.923
127.163, 6003.082
127.645, 6329.387
128.127, 6597.099
128.609, 6759.858
129.091, 6722.392
129.574, 6405.080
130.056, 6099.730
130.538, 5863.235
131.020, 5654.201
131.502, 5440.196
131.984, 5210.210
132.466, 4974.944
132.948, 4756.410
133.430, 4560.125
133.913, 4373.402
134.395, 4172.991
134.877, 3987.047
135.359, 3844.926
135.841, 3760.868
136.323, 3722.653
136.805, 3692.139
137.287, 3660.093
137.770, 3650.419
138.252, 3667.259
138.734, 3706.632
139.216, 3765.686
139.698, 3843.933
140.180, 3938.201
140.662, 4031.605
141.144, 4128.452
141.626, 4219.208
142.109, 4306.032
142.591, 4385.242
143.073, 4451.222
143.555, 4501.062
144.037, 4534.626
144.519, 4550.724
145.001, 4561.795
145.483, 4543.842
145.965, 4473.567
146.448, 4368.083
146.930, 4263.079
147.412, 4185.260
147.894, 4134.553
148.376, 4062.396
148.858, 3954.884
149.340, 3843.932
149.822, 3733.219
150.305, 3627.951
150.787, 3536.904
151.269, 3467.150
151.751, 3419.663
152.233, 3387.561
152.715, 3378.699
153.197, 3374.928
153.679, 3369.291
154.161, 3360.917
154.644, 3349.001
155.126, 3329.800
155.608, 3301.850
156.090, 3299.273
156.572, 3342.922
157.054, 3392.676
157.536, 3429.015
158.018, 3449.144
158.501, 3452.010
158.983, 3432.337
159.465, 3385.885
159.947, 3355.865
160.429, 3346.468
160.911, 3349.974
161.393, 3366.209
161.875, 3393.823
162.357, 3419.507
162.840, 3427.584
163.322, 3415.197
163.804, 3418.641
164.286, 3457.198
164.768, 3501.135
165.250, 3522.362
165.732, 3517.327
166.214, 3504.893
166.697, 3507.813
167.179, 3527.096
167.661, 3520.623
168.143, 3463.999
168.625, 3390.136
169.107, 3331.566
169.589, 3293.001
170.071, 3264.987
170.553, 3241.485
171.036, 3222.339
171.518, 3200.143
172.000, 3171.914
172.482, 3140.781
172.964, 3108.759
173.446, 3075.284
173.928, 3046.710
174.410, 3034.726
174.893, 3037.582
175.375, 3031.859
175.857, 3008.726
176.339, 2975.949
176.821, 2942.605
177.303, 2909.635
177.785, 2877.965
178.267, 2846.533
178.749, 2815.751
179.232, 2792.358
179.714, 2779.629
180.196, 2774.683
180.678, 2773.282
181.160, 2774.743
181.642, 2780.342
182.124, 2796.788
182.606, 2821.334
183.089, 2837.157
183.571, 2836.719
184.053, 2825.572
184.535, 2810.658
185.017, 2791.336
185.499, 2773.314
185.981, 2763.075
186.463, 2759.032
186.945, 2757.336
187.428, 2756.194
187.910, 2756.839
188.392, 2761.912
188.874, 2772.473
189.356, 2784.866
189.838, 2796.288
190.320, 2806.872
190.802, 2817.017
191.285, 2826.399
191.767, 2835.483
192.249, 2847.221
192.731, 2864.419
193.213, 2876.008
193.695, 2864.083
194.177, 2836.288
194.659, 2817.418
195.141, 2819.274
195.624, 2833.825
196.106, 2849.096
196.588, 2864.732
197.070, 2879.313
197.552, 2888.711
198.034, 2895.389
198.516, 2907.325
198.998, 2935.906
199.480, 2968.249
199.963, 2980.581
200.445, 2966.555
200.927, 2951.922
201.409, 2962.418
201.891, 2988.910
202.373, 3010.537
202.855, 3018.923
203.337, 3019.914
203.820, 3021.518
204.302, 3024.217
204.784, 3026.501
205.266, 3024.301
205.748, 3020.599
206.230, 3023.168
206.712, 3040.586
207.194, 3062.329
207.676, 3074.424
208.159, 3075.712
208.641, 3073.132
209.123, 3069.883
209.605, 3066.225
210.087, 3062.753
210.569, 3059.526
211.051, 3056.564
211.533, 3053.523
212.016, 3050.270
212.498, 3048.524
212.980, 3053.891
213.462, 3060.824
213.944, 3056.686
214.426, 3029.709
214.908, 2998.282
215.390, 2981.036
215.872, 2978.219
216.355, 2979.686
216.837, 2983.228
217.319, 2986.261
217.801, 2983.451
218.283, 2972.339
218.765, 2957.247
219.247, 2939.847
219.729, 2920.388
220.212, 2904.425
220.694, 2898.925
221.176, 2896.807
221.658, 2882.366
222.140, 2847.248
222.622, 2810.611
223.104, 2786.057
223.586, 2772.359
224.068, 2760.871
224.551, 2748.781
225.033, 2735.942
225.515, 2722.405
225.997, 2709.282
226.479, 2693.614
226.961, 2671.429
227.443, 2644.588
227.925, 2620.106
228.408, 2600.716
228.890, 2584.954
229.372, 2568.802
229.854, 2549.630
230.336, 2536.352
230.818, 2541.505
231.300, 2555.782
231.782, 2553.688
232.264, 2522.927
232.747, 2480.531
233.229, 2457.407
233.711, 2456.875
234.193, 2455.092
234.675, 2444.294
235.157, 2427.394
235.639, 2398.976
236.121, 2382.189
236.604, 2413.888
237.086, 2385.683
237.568, 2421.353
238.050, 2382.139
238.532, 2351.055
239.014, 2320.840
239.496, 2288.565
239.978, 2273.329
240.460, 2280.974
240.943, 2269.781
241.425, 2300.801
241.907, 2280.598
242.389, 2289.971
242.871, 2304.200
243.353, 2298.867
243.835, 2271.545
244.317, 2238.306
244.799, 2212.928
245.282, 2196.473
245.764, 2186.778
246.246, 2192.059
246.728, 2197.441
247.210, 2192.000
247.692, 2176.418
248.174, 2158.499
248.656, 2143.485
249.139, 2131.542
249.621, 2125.176
250.103, 2132.572
250.585, 2136.723
251.067, 2126.207
251.549, 2105.539
252.031, 2088.294
252.513, 2083.565
252.995, 2089.512
253.478, 2090.604
253.960, 2083.660
254.442, 2076.165
254.924, 2070.725
255.406, 2065.878
255.888, 2058.267
256.370, 2045.928
256.852, 2031.197
257.335, 2022.279
257.817, 2028.091
258.299, 2029.351
258.781, 2019.465
259.263, 2006.404
259.745, 1987.734
260.227, 1995.331
260.709, 2010.317
261.191, 1984.357
261.674, 2011.974
262.156, 1955.018
262.638, 1932.805
263.120, 1935.179
263.602, 1947.276
264.084, 1956.173
264.566, 1939.055
265.048, 1930.797
265.530, 1935.159
266.013, 1938.488
266.495, 1946.336
266.977, 1925.181
267.459, 1936.357
267.941, 1911.297
268.423, 1910.326
268.905, 1909.306
269.387, 1902.697
269.870, 1897.333
270.352, 1890.950
270.834, 1883.007
271.316, 1877.721
271.798, 1874.367
272.280, 1873.021
272.762, 1870.860
273.244, 1861.256
273.727, 1855.703
274.209, 1847.933
274.691, 1838.953
275.173, 1831.599
275.655, 1839.943
276.137, 1818.120
276.619, 1817.382
277.101, 1819.123
277.583, 1802.714
278.065, 1864.763
278.548, 1906.669
279.030, 1889.436
279.512, 1849.849
279.994, 1821.966
280.476, 1816.412
280.958, 1818.854
281.440, 1810.168
281.922, 1788.928
282.405, 1775.517
282.887, 1784.766
283.369, 1797.278
283.851, 1793.554
284.333, 1770.942
284.815, 1748.154
285.297, 1739.521
285.779, 1742.623
286.262, 1745.079
286.744, 1743.642
287.226, 1742.601
287.708, 1747.319
288.190, 1757.100
288.672, 1765.162
289.154, 1766.123
289.636, 1764.360
290.118, 1769.493
290.601, 1784.162
291.083, 1796.329
291.565, 1791.490
292.047, 1773.504
292.529, 1764.991
293.011, 1775.220
293.493, 1791.676
293.975, 1805.086
294.457, 1815.200
294.940, 1822.906
295.422, 1828.598
295.904, 1832.217
296.386, 1834.243
296.868, 1833.119
297.350, 1832.213
297.832, 1832.762
298.314, 1834.534
298.797, 1836.212
299.279, 1836.694
299.761, 1838.513
300.243, 1848.834
300.725, 1881.907
301.207, 1901.232
301.689, 1894.839
302.171, 1877.052
302.654, 1860.517
303.136, 1849.185
303.618, 1844.618
304.100, 1850.902
304.582, 1878.660
305.064, 1886.578
305.546, 1857.785
306.028, 1825.635
306.510, 1812.665
306.992, 1816.748
307.475, 1819.445
307.957, 1803.276
308.439, 1767.455
308.921, 1740.066
309.403, 1721.754
309.885, 1712.191
310.367, 1717.170
310.849, 1730.239
311.332, 1741.414
311.814, 1745.241
312.296, 1743.034
312.778, 1738.899
313.260, 1733.432
313.742, 1724.546
314.224, 1709.318
314.706, 1692.271
315.189, 1677.786
315.671, 1667.131
316.153, 1657.888
316.635, 1643.786
317.117, 1622.759
317.599, 1615.613
318.081, 1641.376
318.563, 1669.458
319.045, 1677.888
319.528, 1666.672
320.010, 1651.154
320.492, 1642.202
320.974, 1637.294
321.456, 1625.130
321.938, 1599.990
322.420, 1578.419
322.902, 1578.977
323.384, 1593.903
323.867, 1602.844
324.349, 1594.476
324.831, 1580.495
325.313, 1572.888
325.795, 1571.780
326.277, 1576.004
326.759, 1589.320
327.241, 1605.808
327.724, 1607.438
328.206, 1581.363
328.688, 1558.530
329.170, 1556.325
329.652, 1567.054
330.134, 1573.694
330.616, 1569.817
331.098, 1561.333
331.581, 1559.191
332.063, 1568.085
332.545, 1572.473
333.027, 1571.564
333.509, 1565.602
333.991, 1550.257
334.473, 1527.246
334.955, 1508.583
335.437, 1507.565
335.919, 1527.109
336.402, 1540.772
336.884, 1548.339
337.366, 1551.305
337.848, 1548.514
338.330, 1541.635
338.812, 1532.803
339.294, 1522.802
339.776, 1513.098
340.259, 1509.925
340.741, 1517.857
341.223, 1525.271
341.705, 1529.286
342.187, 1532.551
342.669, 1538.343
343.151, 1547.443
343.633, 1556.082
344.116, 1558.575
344.598, 1554.069
345.080, 1550.969
345.562, 1552.302
346.044, 1553.318
346.526, 1549.536
347.008, 1542.174
347.490, 1537.528
347.973, 1542.779
348.455, 1553.409
348.937, 1556.469
349.419, 1549.891
349.901, 1541.656
350.383, 1536.058
350.865, 1532.432
351.347, 1529.558
351.829, 1526.419
352.311, 1524.893
352.794, 1528.787
353.276, 1536.468
353.758, 1539.965
354.240, 1535.673
354.722, 1526.067
355.204, 1514.888
355.686, 1499.765
356.168, 1489.562
356.651, 1489.943
357.133, 1494.434
357.615, 1495.364
358.097, 1491.464
358.579, 1486.544
359.061, 1484.554
359.543, 1485.901
360.025, 1487.719
360.508, 1488.592
360.990, 1491.227
361.472, 1518.348
361.954, 1510.170
362.436, 1516.698
362.918, 1514.582
363.400, 1506.925
363.882, 1505.641
364.364, 1520.630
364.847, 1507.965
365.329, 1503.907
365.811, 1511.470
366.293, 1484.655
366.775, 1485.711
367.257, 1507.206
367.739, 1531.325
368.221, 1517.136
368.703, 1497.564
369.186, 1492.534
369.668, 1501.851
370.150, 1499.937
370.632, 1494.542
371.114, 1490.164
371.596, 1487.282
372.078, 1499.139
372.560, 1491.009
373.043, 1490.469
373.525, 1488.438
374.007, 1478.438
374.489, 1480.478
374.971, 1480.849
375.453, 1479.530
375.935, 1476.858
376.417, 1474.927
376.900, 1474.779
377.382, 1475.236
377.864, 1474.466
378.346, 1473.180
378.828, 1468.578
379.310, 1468.461
379.792, 1471.985
380.274, 1467.505
380.756, 1462.448
381.238, 1461.935
381.721, 1453.837
382.203, 1455.782
382.685, 1443.357
383.167, 1438.694
383.649, 1441.167
384.131, 1457.069
384.613, 1472.878
385.095, 1491.813
385.578, 1507.546
386.060, 1512.301
386.542, 1504.266
387.024, 1490.595
387.506, 1479.335
387.988, 1470.083
388.470, 1466.265
388.952, 1474.682
389.435, 1481.976
389.917, 1480.326
390.399, 1471.783
390.881, 1463.024
391.363, 1456.111
391.845, 1452.065
392.327, 1454.157
392.809, 1463.257
393.291, 1472.301
393.774, 1478.888
394.256, 1482.759
394.738, 1483.675
395.220, 1480.609
395.702, 1477.089
396.184, 1474.864
396.666, 1473.428
397.148, 1471.238
397.630, 1467.777
398.113, 1465.572
398.595, 1467.754
399.077, 1475.281
399.559, 1482.232
400.041, 1492.598
400.523, 1498.683
401.005, 1492.073
401.487, 1477.671
401.970, 1468.205
402.452, 1471.310
402.934, 1482.236
403.416, 1485.445
403.898, 1473.975
404.380, 1465.873
404.862, 1462.554
405.344, 1462.809
405.827, 1467.831
406.309, 1476.672
406.791, 1483.940
407.273, 1482.299
407.755, 1472.398
408.237, 1469.579
408.719, 1481.271
409.201, 1487.660
409.683, 1471.399
410.165, 1444.621
410.648, 1428.773
411.130, 1434.129
411.612, 1446.623
412.094, 1452.009
412.576, 1451.367
413.058, 1452.147
413.540, 1457.141
414.022, 1463.959
414.505, 1468.231
414.987, 1469.190
415.469, 1473.179
415.951, 1485.372
416.433, 1498.394
416.915, 1506.478
417.397, 1508.968
417.879, 1505.919
418.362, 1496.132
418.844, 1481.302
419.326, 1475.120
419.808, 1486.894
420.290, 1496.396
420.772, 1500.927
421.254, 1502.102
421.736, 1499.784
422.218, 1494.661
422.701, 1491.529
423.183, 1500.500
423.665, 1525.007
424.147, 1531.630
424.629, 1502.400
425.111, 1475.339
425.593, 1469.578
426.075, 1479.083
426.557, 1490.862
427.040, 1500.954
427.522, 1508.956
428.004, 1514.995
428.486, 1518.986
428.968, 1517.914
429.450, 1507.784
429.932, 1495.393
430.414, 1492.150
430.897, 1499.336
431.379, 1505.322
431.861, 1506.396
432.343, 1505.232
432.825, 1505.639
433.307, 1507.320
433.789, 1504.653
434.271, 1491.617
434.754, 1470.780
435.236, 1465.983
435.718, 1497.586
436.200, 1520.306
436.682, 1524.540
437.164, 1518.745
437.646, 1509.774
438.128, 1500.222
438.610, 1492.532
439.092, 1489.903
439.575, 1492.658
440.057, 1497.254
440.539, 1507.133
441.021, 1514.272
441.503, 1511.797
441.985, 1504.701
442.467, 1503.450
442.949, 1516.223
443.432, 1529.205
443.914, 1522.357
444.396, 1498.417
444.878, 1481.474
445.360, 1478.712
445.842, 1485.976
446.324, 1502.397
446.806, 1530.054
447.289, 1544.620
447.771, 1530.774
448.253, 1511.047
448.735, 1504.583
449.217, 1509.504
449.699, 1512.209
450.181, 1503.719
450.663, 1488.295
451.145, 1482.288
451.628, 1495.698
452.110, 1504.147
452.592, 1502.190
453.074, 1497.865
453.556, 1498.631
454.038, 1504.486
454.520, 1508.591
455.002, 1501.850
455.484, 1487.148
455.967, 1485.281
456.449, 1501.908
456.931, 1518.751
457.413, 1529.566
457.895, 1534.569
458.377, 1531.607
458.859, 1516.604
459.341, 1504.643
459.823, 1509.988
460.306, 1525.234
460.788, 1532.864
461.270, 1528.832
461.752, 1521.919
462.234, 1520.840
462.716, 1526.032
463.198, 1527.757
463.681, 1523.824
464.163, 1519.103
464.645, 1516.384
465.127, 1513.853
465.609, 1506.937
466.091, 1494.093
466.573, 1481.308
467.055, 1479.297
467.537, 1491.652
468.020, 1501.489
468.502, 1510.641
468.984, 1514.765
469.466, 1506.076
469.948, 1491.077
470.430, 1485.302
470.912, 1500.041
471.394, 1521.162
471.876, 1526.167
472.359, 1515.964
472.841, 1512.499
473.323, 1526.977
473.805, 1544.621
474.287, 1541.169
474.769, 1515.687
475.251, 1496.054
475.733, 1486.224
476.216, 1484.941
476.698, 1497.550
477.180, 1518.943
477.662, 1533.402
478.144, 1531.784
478.626, 1518.381
479.108, 1504.388
479.590, 1481.015
480.072, 1473.450
480.555, 1497.177
481.037, 1523.188
481.519, 1532.273
482.001, 1525.251
482.483, 1514.725
482.965, 1507.085
483.447, 1503.460
483.929, 1509.517
484.411, 1528.046
484.894, 1540.910
485.376, 1536.397
485.858, 1525.480
486.340, 1525.910
486.822, 1541.031
487.304, 1549.853
487.786, 1537.488
488.268, 1518.647
488.750, 1509.853
489.233, 1512.241
489.715, 1520.788
490.197, 1533.366
490.679, 1548.033
491.161, 1554.942
491.643, 1544.000
492.125, 1538.275
492.608, 1543.906
493.090, 1552.077
493.572, 1556.960
494.054, 1557.080
494.536, 1552.268
495.018, 1540.788
495.500, 1524.192
495.982, 1509.761
496.464, 1496.820
496.947, 1487.838
497.429, 1481.817
497.911, 1481.740
498.393, 1494.858
498.875, 1526.557
499.357, 1549.594
499.839, 1542.831
500.321, 1523.550
500.803, 1517.791
501.286, 1527.559
501.768, 1536.939
502.250, 1533.707
502.732, 1520.171
503.214, 1512.120
503.696, 1513.001
504.178, 1515.220
504.660, 1520.954
505.142, 1525.964
505.625, 1523.174
506.107, 1513.832
506.589, 1510.052
507.071, 1528.933
507.553, 1563.180
508.035, 1567.819
508.517, 1530.085
509.000, 1501.628
509.482, 1517.128
509.964, 1547.661
510.446, 1551.980
510.928, 1520.359
511.410, 1495.458
511.892, 1504.835
512.374, 1527.875
512.856, 1536.566
513.339, 1529.034
513.821, 1519.830
514.303, 1519.526
514.785, 1525.609
515.267, 1525.312
515.749, 1506.340
516.231, 1497.602
516.713, 1509.236
517.195, 1525.456
517.678, 1534.622
518.160, 1535.497
518.642, 1532.698
519.124, 1528.885
519.606, 1524.483
520.088, 1520.892
520.570, 1518.126
521.052, 1515.780
521.534, 1511.472
522.017, 1509.327
522.499, 1516.869
522.981, 1536.632
523.463, 1550.372
523.945, 1544.927
524.427, 1535.741
524.909, 1542.329
525.391, 1561.255
525.873, 1572.551
526.356, 1563.923
526.838, 1540.875
527.320, 1518.242
527.802, 1484.310
528.284, 1473.729
528.766, 1509.789
529.248, 1547.862
529.731, 1559.126
530.213, 1548.262
530.695, 1538.227
531.177, 1544.020
531.659, 1555.744
532.141, 1556.076
532.623, 1545.243
533.105, 1534.139
533.587, 1526.063
534.070, 1518.847
534.552, 1506.652
535.034, 1488.033
535.516, 1483.973
535.998, 1510.682
536.480, 1539.060
536.962, 1553.256
537.444, 1555.843
537.927, 1553.527
538.409, 1549.145
538.891, 1542.379
539.373, 1530.198
539.855, 1508.464
540.337, 1501.278
540.819, 1521.718
541.301, 1541.810
541.783, 1548.886
542.266, 1547.037
542.748, 1543.673
543.230, 1540.184
543.712, 1537.600
544.194, 1537.828
544.676, 1539.575
545.158, 1538.057
545.640, 1532.036
546.122, 1528.974
546.605, 1537.483
547.087, 1539.867
547.569, 1533.952
548.051, 1548.832
548.533, 1536.784
549.015, 1538.114
549.497, 1542.286
549.979, 1532.581
550.461, 1532.827
550.944, 1540.379
551.426, 1546.973
551.908, 1552.562
552.390, 1561.799
552.872, 1548.567
553.354, 1522.948
553.836, 1510.044
554.318, 1516.321
554.800, 1524.540
555.283, 1530.057
555.765, 1532.732
556.247, 1534.240
556.729, 1533.065
557.211, 1518.477
557.693, 1518.140
558.175, 1518.233
558.657, 1520.654
559.140, 1525.234
559.622, 1532.778
560.104, 1531.493
560.586, 1525.631
561.068, 1537.412
561.550, 1522.225
562.032, 1521.873
562.514, 1530.910
562.997, 1535.024
563.479, 1525.772
563.961, 1515.330
564.443, 1521.274
564.925, 1537.221
565.407, 1537.318
565.889, 1513.893
566.371, 1489.755
566.854, 1487.874
567.336, 1508.290
567.818, 1519.578
568.300, 1510.060
568.782, 1507.151
569.264, 1526.960
569.746, 1550.457
570.228, 1555.297
570.710, 1539.322
571.193, 1520.207
571.675, 1513.513
572.157, 1516.420
572.639, 1517.574
573.121, 1516.486
573.603, 1516.231
574.085, 1518.146
574.567, 1521.418
575.049, 1525.578
575.532, 1531.246
576.014, 1533.570
576.496, 1526.190
576.978, 1519.625
577.460, 1524.251
577.942, 1536.311
578.424, 1545.939
578.906, 1548.638
579.388, 1545.834
579.871, 1538.945
580.353, 1526.714
580.835, 1516.522
581.317, 1507.082
581.799, 1501.850
582.281, 1502.373
582.763, 1507.731
583.245, 1517.543
583.727, 1534.303
584.210, 1547.995
584.692, 1549.121
585.174, 1543.683
585.656, 1542.164
586.138, 1545.776
586.620, 1550.127
587.102, 1552.689
587.584, 1552.689
588.067, 1545.725
588.549, 1520.300
589.031, 1507.120
589.513, 1514.150
589.995, 1527.830
590.477, 1543.553
590.959, 1558.304
591.442, 1565.558
591.924, 1558.665
592.406, 1546.930
592.888, 1543.908
593.370, 1547.924
593.852, 1548.297
594.334, 1541.207
594.816, 1535.344
595.298, 1542.612
595.781, 1564.166
596.263, 1568.687
596.745, 1536.216
597.227, 1513.320
597.709, 1518.240
598.191, 1534.908
598.673, 1546.727
599.155, 1550.472
599.638, 1551.837
600.120, 1557.677
600.602, 1564.464
601.084, 1557.089
601.566, 1533.224
602.048, 1519.592
602.530, 1531.200
603.012, 1551.514
603.494, 1554.355
603.977, 1537.111
604.459, 1526.647
604.941, 1533.298
605.423, 1539.461
605.905, 1528.622
606.387, 1512.482
606.869, 1515.203
607.351, 1543.773
607.833, 1577.043
608.316, 1587.943
608.798, 1577.179
609.280, 1562.643
609.762, 1540.016
610.244, 1525.794
610.726, 1533.646
611.208, 1551.809
611.690, 1561.233
612.172, 1560.560
612.655, 1555.779
613.137, 1543.168
613.619, 1531.477
614.101, 1529.947
614.583, 1535.831
615.065, 1540.976
615.547, 1541.567
616.029, 1538.591
616.511, 1532.764
616.994, 1523.258
617.476, 1516.605
617.958, 1511.776
618.440, 1511.755
618.922, 1521.349
619.404, 1535.671
619.886, 1547.802
620.369, 1557.819
620.851, 1562.915
621.333, 1556.230
621.815, 1547.473
622.297, 1549.399
622.779, 1560.703
623.261, 1572.217
623.743, 1579.114
624.225, 1579.871
624.708, 1567.817
625.190, 1535.090
625.672, 1518.901
626.154, 1535.757
626.636, 1552.606
627.118, 1548.472
627.600, 1533.033
628.082, 1525.607
628.565, 1532.055
629.047, 1542.771
629.529, 1554.367
630.011, 1565.794
630.493, 1577.112
630.975, 1587.385
631.457, 1591.908
631.939, 1587.178
632.421, 1576.007
632.904, 1566.244
633.386, 1557.655
633.868, 1551.164
634.350, 1545.817
634.832, 1543.839
635.314, 1550.208
635.796, 1560.320
636.278, 1563.020
636.760, 1551.390
637.243, 1540.432
637.725, 1543.143
638.207, 1551.611
638.689, 1551.296
639.171, 1541.625
639.653, 1533.436
640.135, 1533.784
640.617, 1541.990
641.099, 1558.193
