##NAMES=Teallite
##RRUFFID=R060487
##IDEAL CHEMISTRY=PbSnS_2_
##LOCALITY=Porvenir mine, Huanuni, Department of Oruro, Bolivia
##OWNER=RRUFF
##SOURCE=Michael Scott
##DESCRIPTION=Grayish black platy metallic mass
##STATUS=The identification of this mineral has been confirmed by X-ray diffraction and chemical analysis
##URL=rruff.info/R060487
##MEASURED CHEMISTRY=(Pb_0.62_Sn_1.38_)_Î£=2_S_2.00_
115.1836, 87.32832
115.6658, 87.29933
116.1479, 87.12153
116.6300, 86.72049
117.1121, 86.05811
117.5942, 85.26182
118.0763, 84.62050
118.5584, 84.06611
119.0406, 83.72883
119.5227, 83.74890
120.0048, 84.03249
120.4869, 84.33447
120.9690, 84.57661
121.4511, 84.73994
121.9333, 84.81081
122.4154, 84.73869
122.8975, 84.65888
123.3796, 84.69321
123.8617, 84.85133
124.3438, 85.03620
124.8260, 85.31104
125.3081, 85.54842
125.7902, 85.59348
126.2723, 85.33803
126.7544, 84.92701
127.2365, 84.68252
127.7187, 84.64212
128.2008, 84.73094
128.6829, 84.84227
129.1650, 85.05691
129.6471, 85.53548
130.1292, 86.45169
130.6114, 87.74520
131.0935, 88.51180
131.5756, 88.36977
132.0577, 88.03480
132.5398, 87.40874
133.0219, 86.69048
133.5041, 86.28459
133.9862, 86.59371
134.4683, 87.79136
134.9504, 88.57442
135.4325, 88.64604
135.9146, 88.62781
136.3968, 88.90363
136.8789, 89.49690
137.3610, 90.14891
137.8431, 90.56120
138.3252, 90.68263
138.8073, 90.77753
139.2895, 90.77285
139.7716, 90.78210
140.2537, 91.00492
140.7358, 91.53823
141.2179, 92.07244
141.7000, 92.12978
142.1821, 91.75805
142.6643, 91.40310
143.1464, 91.35126
143.6285, 91.48741
144.1106, 91.35024
144.5927, 90.60428
145.0748, 89.82899
145.5570, 89.60225
146.0391, 89.92547
146.5212, 90.27528
147.0033, 90.21020
147.4854, 89.69872
147.9675, 89.07298
148.4497, 88.13000
148.9318, 87.25112
149.4139, 86.72974
149.8960, 86.61099
150.3781, 86.59862
150.8602, 86.23543
151.3424, 85.32058
151.8245, 84.47066
152.3066, 83.81524
152.7887, 83.19582
153.2708, 82.43668
153.7529, 81.48399
154.2351, 80.47025
154.7172, 79.73530
155.1993, 79.66634
155.6814, 79.43351
156.1635, 78.99350
156.6456, 78.37260
157.1278, 77.57243
157.6099, 76.58293
158.0920, 75.46397
158.5741, 74.47444
159.0562, 73.59863
159.5383, 72.84177
160.0205, 72.20745
160.5026, 71.69634
160.9847, 71.32402
161.4668, 71.12550
161.9489, 71.06611
162.4310, 70.97194
162.9131, 71.00220
163.3953, 70.86079
163.8774, 70.25357
164.3595, 69.22796
164.8416, 68.25599
165.3237, 67.59461
165.8058, 67.21773
166.2880, 67.02790
166.7701, 67.17565
167.2522, 67.37994
167.7343, 67.27727
168.2164, 66.79921
168.6985, 66.34037
169.1807, 66.15402
169.6628, 66.11988
170.1449, 66.10449
170.6270, 66.04263
171.1091, 65.97879
171.5912, 66.05053
172.0734, 66.40461
172.5555, 66.61409
173.0376, 66.53083
173.5197, 66.22648
174.0018, 65.75485
174.4839, 65.05447
174.9661, 64.22431
175.4482, 63.90444
175.9303, 64.66948
176.4124, 65.33309
176.8945, 65.64047
177.3766, 65.62095
177.8588, 65.34595
178.3409, 64.84055
178.8230, 64.10125
179.3051, 63.41973
179.7872, 62.87811
180.2693, 62.31216
180.7515, 61.55448
181.2336, 60.71108
181.7157, 60.09765
182.1978, 60.05712
182.6799, 60.72468
183.1620, 60.54558
183.6441, 58.80936
184.1263, 57.05717
184.6084, 56.07956
185.0905, 55.85461
185.5726, 55.85184
186.0547, 55.56538
186.5368, 54.93222
187.0190, 54.69041
187.5011, 55.31023
187.9832, 55.97643
188.4653, 56.06170
188.9474, 55.50693
189.4296, 54.69117
189.9117, 53.86650
190.3938, 53.05221
190.8759, 52.52087
191.3580, 52.42617
191.8401, 52.57595
192.3223, 52.82340
192.8044, 53.18631
193.2865, 53.46743
193.7686, 53.36290
194.2507, 52.99044
194.7328, 52.69867
195.2150, 52.66467
195.6971, 52.77043
196.1792, 52.75320
196.6613, 52.51241
197.1434, 52.32885
197.6255, 52.50719
198.1077, 52.91608
198.5898, 53.21358
199.0719, 53.09583
199.5540, 52.68960
200.0361, 52.55457
200.5182, 52.83427
201.0004, 53.22478
201.4825, 53.56525
201.9646, 53.87181
202.4467, 54.18883
202.9288, 54.58410
203.4109, 55.04655
203.8930, 55.36543
204.3752, 55.46789
204.8573, 55.48207
205.3394, 55.36287
205.8215, 55.18624
206.3036, 55.11635
206.7857, 55.32633
207.2679, 55.83762
207.7500, 56.20924
208.2321, 56.37514
208.7142, 56.45118
209.1963, 56.41146
209.6784, 56.29916
210.1606, 56.20115
210.6427, 56.19461
211.1248, 56.28680
211.6069, 56.40742
212.0890, 56.54063
212.5711, 56.71213
213.0533, 57.02405
213.5354, 57.40755
214.0175, 57.67639
214.4996, 57.65574
214.9817, 57.31366
215.4638, 56.86473
215.9460, 56.13621
216.4281, 55.47502
216.9102, 55.16737
217.3923, 55.14001
217.8744, 55.00908
218.3565, 54.38307
218.8387, 53.17269
219.3208, 52.31350
219.8029, 52.10971
220.2850, 51.96185
220.7671, 51.52601
221.2492, 50.78662
221.7314, 49.87527
222.2135, 48.82256
222.6956, 47.63418
223.1777, 46.85850
223.6598, 47.08410
224.1419, 47.28930
224.6240, 46.49646
225.1062, 44.70814
225.5883, 43.00673
226.0704, 42.37390
226.5525, 42.68681
227.0346, 42.68520
227.5167, 42.13058
227.9989, 41.33368
228.4810, 40.52202
228.9631, 39.70464
229.4452, 38.95010
229.9273, 38.26108
230.4094, 37.68745
230.8916, 37.36241
231.3737, 37.52584
231.8558, 37.83068
232.3379, 37.89767
232.8200, 37.71069
233.3021, 37.39749
233.7843, 36.91578
234.2664, 36.37817
234.7485, 35.96785
235.2306, 35.78720
235.7127, 35.70588
236.1948, 35.47112
236.6770, 34.98557
237.1591, 34.75245
237.6412, 35.38843
238.1233, 36.31312
238.6054, 36.89230
239.0875, 36.89784
239.5697, 36.52294
240.0518, 35.99066
240.5339, 35.19608
241.0160, 34.58017
241.4981, 34.35755
241.9802, 34.36769
242.4624, 34.50962
242.9445, 34.77279
243.4266, 35.08033
243.9087, 35.30207
244.3908, 35.42060
244.8729, 35.49538
245.3550, 35.55465
245.8372, 35.57602
246.3193, 35.53340
246.8014, 35.41657
247.2835, 35.24738
247.7656, 35.03751
248.2477, 34.72014
248.7299, 34.53249
249.2120, 34.57488
249.6941, 34.70948
250.1762, 34.83671
250.6583, 34.92611
251.1404, 35.00969
251.6226, 35.19428
252.1047, 35.69155
252.5868, 35.77878
253.0689, 35.06697
253.5510, 34.20543
254.0331, 33.66931
254.5153, 33.57048
254.9974, 33.66363
255.4795, 33.53870
255.9616, 32.93482
256.4437, 32.69908
256.9258, 33.13271
257.4080, 33.66024
257.8901, 33.91698
258.3722, 33.83324
258.8543, 33.56883
259.3364, 33.32284
259.8185, 33.07061
260.3007, 32.90891
260.7828, 32.85944
261.2649, 32.86094
261.7470, 32.89165
262.2291, 32.94053
262.7112, 32.99850
263.1934, 33.07247
263.6755, 33.22195
264.1576, 33.14510
264.6397, 32.68362
265.1218, 32.17598
265.6039, 31.80043
266.0861, 31.56567
266.5682, 31.38117
267.0503, 31.15404
267.5324, 30.86402
268.0145, 30.67698
268.4966, 30.69174
268.9788, 30.69797
269.4609, 30.63533
269.9430, 30.48040
270.4251, 30.17450
270.9072, 29.62498
271.3893, 28.81537
271.8715, 28.39422
272.3536, 28.79060
272.8357, 29.06963
273.3178, 28.67881
273.7999, 27.81616
274.2820, 27.08026
274.7642, 26.89528
275.2463, 27.20633
275.7284, 27.34225
276.2105, 27.28444
276.6926, 27.12209
277.1747, 26.79872
277.6568, 26.39051
278.1389, 26.06295
278.6211, 25.91175
279.1032, 25.89992
279.5853, 25.87316
280.0674, 25.90222
280.5495, 25.84038
281.0316, 25.56765
281.5138, 25.18892
281.9959, 24.91286
282.4780, 24.84644
282.9601, 24.87716
283.4422, 24.69354
283.9243, 24.10557
284.4065, 23.68950
284.8886, 23.69931
285.3707, 23.91558
285.8528, 23.99831
286.3349, 23.82503
286.8170, 23.56032
287.2992, 23.51333
287.7813, 23.79492
288.2634, 23.90258
288.7455, 23.68793
289.2276, 23.28544
289.7097, 22.77774
290.1919, 22.17276
290.6740, 21.67914
291.1561, 21.60615
291.6382, 22.01928
292.1203, 22.35587
292.6024, 22.53162
293.0846, 22.62383
293.5667, 22.75142
294.0488, 22.92573
294.5309, 22.95513
295.0130, 22.57053
295.4951, 21.77345
295.9773, 21.30227
296.4594, 21.36495
296.9415, 21.63028
297.4236, 21.96031
297.9057, 22.31497
298.3878, 22.45582
298.8700, 22.12693
299.3521, 21.42013
299.8342, 20.98783
300.3163, 21.01510
300.7984, 21.14382
301.2805, 21.19187
301.7627, 21.16860
302.2448, 21.11541
302.7269, 21.02296
303.2090, 20.94110
303.6911, 21.02204
304.1732, 21.42791
304.6554, 21.72304
305.1375, 21.64358
305.6196, 21.30082
306.1017, 20.99985
306.5838, 20.88497
307.0659, 20.80861
307.5481, 20.40707
308.0302, 19.53809
308.5123, 18.93472
308.9944, 18.98455
309.4765, 19.42247
309.9586, 19.85029
310.4408, 20.19497
310.9229, 20.38755
311.4050, 20.24431
311.8871, 19.75320
312.3692, 19.37247
312.8513, 19.17701
313.3335, 19.14531
313.8156, 19.32513
314.2977, 19.73342
314.7798, 20.11074
315.2619, 20.19541
315.7440, 20.00048
316.2262, 19.82789
316.7083, 19.72232
317.1904, 19.63279
317.6725, 19.53923
318.1546, 19.43501
318.6367, 19.26326
319.1188, 18.94183
319.6010, 18.52694
320.0831, 18.26932
320.5652, 18.20617
321.0473, 18.25450
321.5294, 18.44479
322.0115, 18.72786
322.4937, 18.92492
322.9758, 18.93603
323.4579, 18.82773
323.9400, 18.76944
324.4221, 18.77476
324.9042, 18.78878
325.3864, 18.84562
325.8685, 18.89102
326.3506, 18.79041
326.8327, 18.47478
327.3148, 18.09967
327.7969, 17.89606
328.2791, 17.85638
328.7612, 17.95358
329.2433, 18.40585
329.7254, 18.89049
330.2075, 18.98061
330.6896, 18.60257
331.1718, 18.08415
331.6539, 17.72315
332.1360, 17.53666
332.6181, 17.41028
333.1002, 17.40471
333.5823, 17.41056
334.0645, 17.31636
334.5466, 17.13762
335.0287, 17.01016
335.5108, 17.03902
335.9929, 17.20391
336.4750, 17.33062
336.9572, 17.45187
337.4393, 17.50854
337.9214, 17.41750
338.4035, 17.24071
338.8856, 17.14026
339.3677, 17.20616
339.8499, 17.35888
340.3320, 17.37845
340.8141, 17.22534
341.2962, 17.03671
341.7783, 16.65458
342.2604, 16.31609
342.7426, 16.47629
343.2247, 17.26612
343.7068, 18.11909
344.1889, 18.20019
344.6710, 17.09236
345.1531, 16.39259
345.6353, 16.34557
346.1174, 16.54996
346.5995, 16.78179
347.0816, 16.98433
347.5637, 17.09910
348.0458, 17.05947
348.5280, 16.85541
349.0101, 16.68603
349.4922, 16.55783
349.9743, 16.45098
350.4564, 16.34782
350.9385, 16.26013
351.4207, 16.21749
351.9028, 16.23979
352.3849, 16.31521
352.8670, 16.39503
353.3491, 16.45919
353.8312, 16.55221
354.3134, 16.81470
354.7955, 17.05585
355.2776, 16.97696
355.7597, 16.48632
356.2418, 15.87416
356.7239, 15.64934
357.2061, 16.14381
357.6882, 16.35234
358.1703, 15.96155
358.6524, 15.54601
359.1345, 15.65140
359.6166, 16.21958
360.0987, 16.63881
360.5808, 16.22586
361.0630, 14.82016
361.5451, 14.15604
362.0272, 14.88726
362.5093, 15.62873
362.9914, 15.98175
363.4735, 16.00130
363.9557, 15.82136
364.4378, 15.50048
364.9199, 15.11371
365.4020, 14.99807
365.8841, 15.52176
366.3662, 15.80977
366.8484, 15.51174
367.3305, 15.06740
367.8126, 14.96783
368.2947, 15.35149
368.7768, 15.88647
369.2589, 15.99373
369.7411, 15.37446
370.2232, 15.15195
370.7053, 15.84684
371.1874, 16.51705
371.6695, 16.61638
372.1516, 16.18398
372.6338, 15.63380
373.1159, 15.31336
373.5980, 15.21680
374.0801, 15.13593
374.5622, 15.04040
375.0443, 15.00442
375.5265, 15.16126
376.0086, 15.36631
376.4907, 15.36069
376.9728, 14.96693
377.4549, 14.41599
377.9370, 14.25001
378.4192, 14.60388
378.9013, 14.96389
379.3834, 15.29714
379.8655, 15.51709
380.3476, 15.49072
380.8297, 15.19617
381.3119, 14.86797
381.7940, 14.74124
382.2761, 14.81232
382.7582, 14.93827
383.2403, 15.21873
383.7224, 15.40176
384.2046, 15.22977
384.6867, 14.80647
385.1688, 14.50412
385.6509, 14.66689
386.1330, 15.06616
386.6151, 15.14786
387.0973, 14.83149
387.5794, 14.48507
388.0615, 14.28339
388.5436, 14.19248
389.0257, 14.19457
389.5078, 14.34797
389.9900, 14.48117
390.4721, 14.41277
390.9542, 14.16769
391.4363, 13.93943
391.9184, 13.77848
392.4005, 13.67909
392.8827, 13.62556
393.3648, 13.61419
393.8469, 13.65695
394.3290, 13.73727
394.8111, 13.88156
395.2932, 14.19961
395.7754, 14.73407
396.2575, 15.17467
396.7396, 15.18093
397.2217, 14.79516
397.7038, 14.59838
398.1859, 14.76921
398.6681, 14.99926
399.1501, 15.12978
399.6323, 15.15606
400.1144, 15.07726
400.5965, 14.88324
401.0786, 14.59928
401.5607, 14.28252
402.0428, 13.79924
402.5250, 13.51509
403.0071, 13.59201
403.4892, 13.85578
403.9713, 14.17283
404.4534, 14.49449
404.9355, 14.70037
405.4177, 14.60938
405.8998, 14.10806
406.3819, 13.89885
406.8640, 14.22646
407.3461, 14.57415
407.8282, 14.68117
408.3104, 14.59608
408.7925, 14.48348
409.2746, 14.43984
409.7567, 14.46332
410.2388, 14.55005
410.7209, 14.94067
411.2031, 15.06745
411.6852, 14.72442
412.1673, 14.19056
412.6494, 13.62310
413.1315, 13.10706
413.6136, 12.82211
414.0958, 13.14351
414.5779, 14.38180
415.0600, 14.97787
415.5421, 14.24903
416.0242, 13.49427
416.5063, 13.20218
416.9885, 13.29268
417.4706, 13.47793
417.9527, 13.58139
418.4348, 13.63746
418.9169, 13.78871
419.3990, 14.12505
419.8812, 14.35197
420.3633, 14.35810
420.8454, 14.23268
421.3275, 13.97113
421.8096, 13.56235
422.2917, 13.28590
422.7739, 13.61213
423.2560, 14.49278
423.7381, 14.88435
424.2202, 14.33295
424.7023, 13.66581
425.1844, 13.59658
425.6666, 13.96815
426.1487, 14.20822
426.6308, 13.92911
427.1129, 13.44795
427.5950, 13.24871
428.0771, 13.34566
428.5593, 13.50189
429.0414, 13.63904
429.5235, 13.73018
430.0056, 13.71413
430.4877, 13.50856
430.9698, 13.38303
431.4520, 13.53381
431.9341, 13.84910
432.4162, 14.13936
432.8983, 14.36917
433.3804, 14.46927
433.8625, 14.27512
434.3447, 13.71748
434.8268, 13.52549
435.3089, 14.19824
435.7910, 14.83915
436.2731, 14.67933
436.7552, 13.92844
437.2374, 13.41209
437.7195, 13.64639
438.2016, 14.40079
438.6837, 14.79286
439.1658, 14.59504
439.6479, 14.31677
440.1301, 13.80467
440.6122, 13.33212
441.0943, 13.25264
441.5764, 13.58691
442.0585, 13.95878
442.5406, 13.89972
443.0227, 13.31094
443.5049, 13.01469
443.9870, 13.30336
444.4691, 13.58644
444.9512, 13.68716
445.4333, 13.65951
445.9154, 13.61813
446.3976, 13.62349
446.8797, 13.63421
447.3618, 13.55062
447.8439, 13.34120
448.3260, 13.13102
448.8081, 12.88740
449.2903, 12.69036
449.7724, 12.55044
450.2545, 12.48875
450.7366, 12.59902
451.2187, 13.12588
451.7008, 13.91871
452.1830, 14.28097
452.6651, 14.07400
453.1472, 13.74815
453.6293, 13.44450
454.1114, 13.21920
454.5935, 13.20444
455.0757, 13.54093
455.5578, 13.87279
456.0399, 13.83178
456.5220, 13.51195
457.0041, 13.33777
457.4862, 13.45956
457.9684, 13.70216
458.4505, 13.84973
458.9326, 13.90567
459.4147, 13.94632
459.8968, 14.02260
460.3789, 14.06162
460.8611, 13.95153
461.3432, 13.72246
461.8253, 13.55163
462.3074, 13.55589
462.7895, 13.69238
463.2716, 13.78383
463.7538, 13.92328
464.2359, 13.90143
464.7180, 13.51594
465.2001, 13.05386
465.6822, 12.78381
466.1643, 12.76765
466.6465, 12.96012
467.1286, 13.36110
467.6107, 14.03058
468.0928, 14.35014
468.5749, 13.88165
469.0570, 13.52729
469.5392, 13.57510
470.0213, 13.87770
470.5034, 14.26893
470.9855, 14.68915
471.4676, 14.97013
471.9497, 14.71602
472.4319, 13.75049
472.9140, 13.02442
473.3961, 12.65258
473.8782, 12.59975
474.3603, 13.04254
474.8424, 13.84273
475.3246, 14.50020
475.8067, 14.70393
476.2888, 14.56738
476.7709, 14.29318
477.2530, 13.85911
477.7351, 13.42925
478.2173, 13.02944
478.6994, 12.71285
479.1815, 12.56783
479.6636, 12.63735
480.1457, 12.73374
480.6278, 12.76168
481.1100, 12.75369
481.5920, 12.79502
482.0742, 12.90533
482.5563, 12.94972
483.0384, 12.75900
483.5205, 12.34463
484.0026, 12.16604
484.4847, 12.38999
484.9669, 12.65259
485.4490, 12.84196
485.9311, 12.96249
486.4132, 13.03025
486.8953, 13.05181
487.3774, 13.02689
487.8596, 12.94735
488.3417, 12.76859
488.8238, 12.65785
489.3059, 12.65960
489.7880, 12.67510
490.2701, 12.61301
490.7523, 12.52718
491.2344, 12.56484
491.7165, 12.83763
492.1986, 13.22554
492.6807, 13.40634
493.1628, 13.36139
493.6450, 13.15944
494.1271, 12.45366
494.6092, 11.85866
495.0913, 11.89952
495.5734, 12.54711
496.0555, 13.22646
496.5377, 13.56221
497.0198, 13.62418
497.5019, 13.57176
497.9840, 13.38789
498.4661, 13.18135
498.9482, 12.96359
499.4304, 12.78062
499.9125, 12.72324
500.3946, 12.84099
500.8767, 12.97312
501.3588, 13.03840
501.8409, 13.06529
502.3231, 13.10804
502.8052, 13.17780
503.2873, 13.24805
503.7694, 13.29994
504.2515, 13.33313
504.7336, 13.31198
505.2158, 13.22055
505.6979, 13.09972
506.1800, 12.91814
506.6621, 12.72998
507.1442, 12.62086
507.6263, 12.61998
508.1085, 12.68110
508.5906, 12.73734
509.0727, 12.79000
509.5548, 12.83299
510.0369, 12.86096
510.5190, 12.88438
511.0012, 12.86396
511.4833, 12.84799
511.9654, 12.93738
512.4475, 13.20052
512.9296, 13.53373
513.4117, 13.80127
513.8939, 14.02869
514.3760, 13.97078
514.8581, 13.25617
515.3402, 12.56174
515.8223, 12.54230
516.3044, 13.09888
516.7866, 13.54352
517.2687, 13.50600
517.7508, 13.24853
518.2329, 13.07733
518.7150, 12.99556
519.1971, 12.95210
519.6793, 12.90857
520.1614, 12.90632
520.6435, 13.09787
521.1256, 13.64841
521.6077, 13.88694
522.0898, 13.39343
522.5720, 12.75692
523.0541, 12.49193
523.5362, 12.61016
524.0183, 12.87270
524.5004, 13.13352
524.9825, 13.36116
525.4647, 13.38034
525.9468, 12.88381
526.4289, 12.62226
526.9110, 12.91513
527.3931, 13.27909
527.8752, 13.28685
528.3574, 12.91714
528.8395, 12.46787
529.3216, 12.14639
529.8037, 11.96402
530.2858, 12.03139
530.7679, 12.47539
531.2501, 12.87421
531.7322, 13.07557
532.2143, 13.12312
532.6964, 12.97207
533.1785, 12.56457
533.6606, 12.32020
534.1428, 12.70771
534.6249, 13.41586
535.1070, 13.76815
535.5891, 13.66622
536.0712, 13.36809
536.5533, 13.01527
537.0355, 12.62608
537.5176, 12.31667
537.9997, 11.82555
538.4818, 11.72012
538.9639, 12.62367
539.4460, 13.78865
539.9282, 14.21067
540.4103, 13.72365
540.8924, 12.94488
541.3745, 12.50285
541.8566, 12.40570
542.3387, 12.36329
542.8209, 12.49903
543.3029, 12.53987
543.7850, 12.35540
544.2672, 12.08492
544.7493, 11.87595
545.2314, 11.76955
545.7135, 11.72942
546.1956, 11.74350
546.6777, 11.80419
547.1599, 11.81584
547.6420, 11.75672
548.1241, 11.68430
548.6062, 11.58320
549.0883, 11.50357
549.5704, 11.56415
550.0526, 11.89343
550.5347, 12.13125
551.0168, 11.91667
551.4989, 11.47210
551.9810, 11.28883
552.4631, 11.47346
552.9453, 11.76142
553.4274, 11.92860
553.9095, 11.97402
554.3916, 11.90783
554.8737, 11.68047
555.3558, 11.41927
555.8380, 11.02577
556.3201, 10.67650
556.8022, 10.64113
557.2843, 10.96167
557.7664, 11.38248
558.2485, 11.61848
558.7307, 11.66359
559.2128, 11.65586
559.6949, 11.45998
560.1770, 11.41462
560.6591, 11.89742
561.1412, 12.45824
561.6234, 12.45574
562.1055, 11.68090
562.5876, 10.87048
563.0697, 10.70024
563.5518, 11.01478
564.0339, 11.31281
564.5161, 11.54228
564.9982, 11.73844
565.4803, 11.97103
565.9624, 12.18336
566.4445, 12.16409
566.9266, 11.67347
567.4088, 11.29380
567.8909, 11.33091
568.3730, 11.53770
568.8551, 11.56229
569.3372, 11.36696
569.8193, 11.23270
570.3015, 11.46351
570.7836, 12.02392
571.2657, 12.20696
571.7478, 11.67784
572.2299, 11.20628
572.7120, 10.89819
573.1942, 10.70398
573.6763, 10.57795
574.1584, 10.51042
574.6405, 10.51366
575.1226, 10.62891
575.6047, 10.82754
576.0869, 11.00417
576.5690, 11.17102
577.0511, 11.25812
577.5332, 11.16225
578.0153, 11.00558
578.4974, 11.03900
578.9796, 11.35795
579.4617, 11.45103
579.9438, 10.89736
580.4259, 10.15268
580.9080, 9.700304
581.3901, 9.577618
581.8723, 9.676250
582.3544, 9.963253
582.8365, 10.35432
583.3186, 10.55698
583.8007, 10.30929
584.2828, 10.27580
584.7650, 10.66115
585.2471, 11.08803
585.7292, 11.38289
586.2113, 11.49866
586.6934, 11.37702
587.1755, 10.92614
587.6577, 10.32054
588.1398, 9.961002
588.6219, 9.868910
589.1040, 9.874599
589.5861, 9.927926
590.0682, 10.08407
590.5504, 10.52740
591.0325, 11.17772
591.5146, 11.48621
591.9967, 11.01468
592.4788, 10.36409
592.9609, 9.960902
593.4431, 9.798690
593.9252, 9.902362
594.4073, 10.30470
594.8894, 10.72891
595.3715, 10.75499
595.8536, 10.23434
596.3358, 9.992219
596.8179, 10.23790
597.3000, 10.48644
597.7821, 10.55727
598.2642, 10.52821
598.7463, 10.52211
599.2285, 10.58125
599.7106, 10.66580
600.1927, 10.80010
600.6748, 10.97264
601.1569, 10.77866
601.6390, 9.966483
602.1212, 9.288032
602.6033, 9.253656
603.0854, 9.607733
603.5675, 10.03793
604.0496, 10.59748
604.5317, 10.96838
605.0139, 10.86697
605.4960, 10.53449
605.9781, 10.31415
606.4602, 10.24489
606.9423, 10.19055
607.4244, 10.03169
607.9066, 9.833437
608.3887, 9.899367
608.8708, 10.60126
609.3529, 11.03464
609.8350, 10.98336
610.3171, 10.81073
610.7993, 10.77338
611.2814, 10.85604
611.7635, 10.91257
