##NAMES=Teallite
##RRUFFID=R050434
##IDEAL CHEMISTRY=PbSnS_2_
##LOCALITY=Carhuaycollo, Carguaicollo District, Potosi, Bolivia
##OWNER=RRUFF
##SOURCE=University of Arizona Mineral Museum
##DESCRIPTION=Grayish black massive aggregate of thin folia with warped and bent crystals
##STATUS=The identification of this mineral has been confirmed by X-ray diffraction.
##URL=rruff.info/R050434
##MEASURED CHEMISTRY=(Pb_0.71_Sn_1.29_)_Î£=2_S_2.00_
93.41840, 10.35822
93.90051, 10.15945
94.38263, 9.832046
94.86475, 9.723375
95.34686, 9.831827
95.82898, 10.00247
96.31110, 9.917677
96.79321, 9.646754
97.27533, 10.04153
97.75745, 11.61973
98.23956, 13.96215
98.72168, 15.10168
99.20380, 14.77684
99.68591, 14.03483
100.1680, 13.89956
100.6501, 14.38631
101.1323, 15.43137
101.6144, 17.19533
102.0965, 19.77135
102.5786, 21.88484
103.0607, 23.37518
103.5428, 24.56121
104.0250, 26.00729
104.5071, 27.80559
104.9892, 29.68784
105.4713, 31.51773
105.9534, 33.14010
106.4355, 35.03551
106.9177, 37.19798
107.3998, 39.62982
107.8819, 42.43896
108.3640, 46.10495
108.8461, 49.73127
109.3282, 52.94759
109.8104, 55.18736
110.2925, 57.59520
110.7746, 60.37361
111.2567, 63.43483
111.7388, 66.20303
112.2209, 67.85096
112.7031, 69.56721
113.1852, 72.19615
113.6673, 77.07658
114.1494, 81.74002
114.6315, 85.29929
115.1136, 87.71571
115.5958, 90.52852
116.0779, 94.52287
116.5600, 99.08244
117.0421, 103.4971
117.5242, 107.6179
118.0063, 111.5120
118.4885, 115.1007
118.9706, 118.2575
119.4527, 121.7771
119.9348, 126.1273
120.4169, 131.1220
120.8990, 136.4997
121.3812, 142.7281
121.8633, 148.9742
122.3454, 154.6512
122.8275, 160.1217
123.3096, 163.9816
123.7917, 163.9728
124.2739, 160.9443
124.7560, 158.0115
125.2381, 157.0560
125.7202, 157.5368
126.2023, 158.5552
126.6844, 159.9390
127.1666, 161.7484
127.6487, 164.3367
128.1308, 167.6639
128.6129, 170.8746
129.0950, 173.2197
129.5771, 174.8770
130.0593, 176.5108
130.5414, 178.4281
131.0235, 180.3880
131.5056, 181.1664
131.9877, 179.9328
132.4698, 178.3344
132.9520, 179.6538
133.4341, 183.7001
133.9162, 187.0341
134.3983, 188.2366
134.8804, 187.6230
135.3625, 187.3217
135.8447, 187.2364
136.3268, 187.6679
136.8089, 189.2919
137.2910, 192.3344
137.7731, 195.2341
138.2552, 197.6283
138.7374, 199.6121
139.2195, 200.3063
139.7016, 199.6231
140.1837, 197.7869
140.6658, 194.9754
141.1479, 190.4898
141.6301, 186.5576
142.1122, 184.3784
142.5943, 184.8391
143.0764, 184.4717
143.5585, 182.6088
144.0406, 179.9064
144.5228, 178.7724
145.0049, 180.3097
145.4870, 182.0323
145.9691, 182.5606
146.4512, 181.2428
146.9333, 179.8130
147.4155, 178.2483
147.8976, 176.5812
148.3797, 175.2435
148.8618, 174.0474
149.3439, 173.2929
149.8260, 173.1685
150.3082, 174.7561
150.7903, 175.7649
151.2724, 175.7631
151.7545, 174.7176
152.2366, 173.9689
152.7188, 173.8218
153.2009, 173.8536
153.6830, 173.7267
154.1651, 173.9239
154.6472, 173.4559
155.1293, 171.7053
155.6115, 168.4147
156.0936, 165.9225
156.5757, 165.2218
157.0578, 165.3019
157.5399, 165.0706
158.0220, 163.9530
158.5042, 162.7688
158.9863, 161.9043
159.4684, 161.5004
159.9505, 160.8760
160.4326, 159.4743
160.9147, 157.7899
161.3969, 156.5578
161.8790, 156.5019
162.3611, 156.6232
162.8432, 156.3997
163.3253, 155.7242
163.8074, 154.8260
164.2896, 153.6485
164.7717, 152.3179
165.2538, 151.0883
165.7359, 149.8871
166.2180, 148.9294
166.7001, 148.4570
167.1823, 148.7360
167.6644, 149.0016
168.1465, 148.5293
168.6286, 147.6092
169.1107, 147.0603
169.5928, 148.2914
170.0750, 149.7251
170.5571, 149.5569
171.0392, 146.5966
171.5213, 143.2625
172.0034, 141.7106
172.4855, 141.6131
172.9677, 141.5537
173.4498, 140.3825
173.9319, 138.7406
174.4140, 137.5400
174.8961, 137.0856
175.3782, 137.0890
175.8604, 137.4295
176.3425, 138.0535
176.8246, 138.5022
177.3067, 138.4364
177.7888, 137.9514
178.2709, 137.2089
178.7531, 135.9919
179.2352, 134.7395
179.7173, 134.3020
180.1994, 134.6421
180.6815, 134.8875
181.1636, 133.8569
181.6458, 132.0346
182.1279, 130.9226
182.6100, 131.3552
183.0921, 132.6435
183.5742, 133.4201
184.0563, 133.6579
184.5385, 133.6758
185.0206, 133.7571
185.5027, 133.8787
185.9848, 133.9356
186.4669, 133.9902
186.9490, 133.9433
187.4312, 133.3100
187.9133, 132.0051
188.3954, 130.7504
188.8775, 130.7258
189.3596, 131.7677
189.8417, 132.2882
190.3239, 131.2060
190.8060, 128.9679
191.2881, 127.9812
191.7702, 128.4061
192.2523, 129.4810
192.7344, 130.4268
193.2166, 131.2397
193.6987, 131.7851
194.1808, 132.0439
194.6629, 132.0082
195.1450, 131.4656
195.6271, 130.2516
196.1093, 128.9495
196.5914, 128.5394
197.0735, 129.0959
197.5556, 129.6045
198.0377, 129.4751
198.5198, 128.6981
199.0020, 128.6470
199.4841, 129.6589
199.9662, 130.7983
200.4483, 130.1670
200.9304, 127.3839
201.4125, 125.1424
201.8947, 125.0174
202.3768, 127.2503
202.8589, 128.4772
203.3410, 128.5044
203.8231, 127.7572
204.3052, 126.9189
204.7874, 125.9262
205.2695, 125.0891
205.7516, 124.6101
206.2337, 124.5605
206.7158, 124.3731
207.1979, 123.9962
207.6801, 123.5240
208.1622, 123.1963
208.6443, 123.0949
209.1264, 122.8824
209.6085, 122.3119
210.0906, 121.2253
210.5728, 120.5494
211.0549, 120.4735
211.5370, 120.6923
212.0191, 120.4898
212.5012, 119.7284
212.9833, 118.8856
213.4655, 118.2032
213.9476, 117.7418
214.4297, 117.1793
214.9118, 116.4009
215.3939, 115.5762
215.8760, 115.1720
216.3582, 115.4160
216.8403, 115.6168
217.3224, 115.4455
217.8045, 114.8303
218.2866, 114.0185
218.7687, 112.8652
219.2509, 111.5734
219.7330, 110.7989
220.2151, 110.8713
220.6972, 110.8479
221.1793, 110.1865
221.6614, 108.4638
222.1436, 107.2558
222.6257, 106.7785
223.1078, 106.7702
223.5899, 106.4676
224.0720, 105.6727
224.5541, 104.9015
225.0363, 104.4272
225.5184, 104.4972
226.0005, 104.2372
226.4826, 103.4396
226.9647, 102.3562
227.4468, 101.7039
227.9290, 101.7567
228.4111, 101.8319
228.8932, 101.6102
229.3753, 100.9690
229.8574, 100.3395
230.3395, 99.79735
230.8217, 99.26164
231.3038, 98.45097
231.7859, 97.11598
232.2680, 95.87975
232.7501, 95.06103
233.2322, 94.93434
233.7144, 94.58006
234.1965, 93.78521
234.6786, 92.79955
235.1607, 92.37396
235.6428, 92.95730
236.1249, 93.44463
236.6071, 93.27960
237.0892, 91.95427
237.5713, 91.12471
238.0534, 91.05300
238.5355, 91.40785
239.0176, 91.30177
239.4998, 90.37874
239.9819, 89.50232
240.4640, 89.09126
240.9461, 89.46209
241.4282, 89.52809
241.9103, 89.14891
242.3925, 88.51050
242.8746, 88.08294
243.3567, 88.07365
243.8388, 87.96123
244.3209, 87.48553
244.8030, 86.41238
245.2852, 85.63036
245.7673, 85.26530
246.2494, 85.14106
246.7315, 84.84200
247.2136, 84.12924
247.6957, 83.62492
248.1779, 83.66853
248.6600, 84.61356
249.1421, 85.02682
249.6242, 84.79660
250.1063, 84.09995
250.5884, 83.21529
251.0706, 81.90476
251.5527, 80.80904
252.0348, 80.22502
252.5169, 80.32806
252.9990, 80.28835
253.4811, 80.08302
253.9633, 79.74791
254.4454, 79.33219
254.9275, 78.76799
255.4096, 78.24663
255.8917, 77.83734
256.3738, 77.56548
256.8560, 77.32078
257.3381, 77.18088
257.8202, 77.00219
258.3023, 76.45845
258.7844, 75.19885
259.2665, 74.36415
259.7487, 74.48222
260.2308, 75.77647
260.7129, 76.49088
261.1950, 76.62212
261.6771, 76.18425
262.1592, 74.98158
262.6414, 72.50172
263.1235, 70.60057
263.6056, 70.01505
264.0877, 70.86253
264.5698, 71.12701
265.0519, 70.56453
265.5341, 69.75430
266.0162, 69.39964
266.4983, 69.65748
266.9804, 69.91284
267.4625, 70.11024
267.9446, 70.24273
268.4268, 69.74117
268.9089, 68.29532
269.3910, 66.78114
269.8731, 66.21499
270.3552, 66.88457
270.8373, 67.35197
271.3195, 67.26685
271.8016, 66.67918
272.2837, 66.07643
272.7658, 65.38222
273.2479, 64.82914
273.7300, 64.68340
274.2122, 65.01667
274.6943, 65.34392
275.1764, 65.69107
275.6585, 65.95618
276.1406, 65.42982
276.6227, 63.88047
277.1049, 62.30682
277.5870, 61.64417
278.0691, 61.99066
278.5512, 62.09551
279.0333, 61.68989
279.5154, 60.94300
279.9976, 60.39428
280.4797, 60.05043
280.9618, 59.86497
281.4439, 59.82311
281.9260, 59.92601
282.4081, 60.14442
282.8903, 60.59487
283.3724, 61.02626
283.8545, 60.65497
284.3366, 59.39555
284.8187, 58.23580
285.3008, 57.92021
285.7830, 58.37328
286.2651, 58.74949
286.7472, 58.98190
287.2293, 59.09602
287.7114, 59.12837
288.1935, 59.07889
288.6757, 58.96130
289.1578, 58.70109
289.6399, 58.35092
290.1220, 58.24744
290.6041, 58.46840
291.0862, 58.73975
291.5684, 58.56690
292.0505, 58.00584
292.5326, 57.59143
293.0147, 57.77502
293.4968, 58.31190
293.9789, 58.44738
294.4611, 58.13231
294.9432, 57.59407
295.4253, 56.85851
295.9074, 56.04153
296.3895, 55.65427
296.8716, 56.19662
297.3538, 57.24564
297.8359, 57.99708
298.3180, 58.45643
298.8001, 58.65400
299.2822, 58.52747
299.7643, 58.15680
300.2465, 57.74916
300.7286, 57.33245
301.2107, 56.94984
301.6928, 56.71400
302.1749, 56.61367
302.6570, 56.44209
303.1392, 55.84614
303.6213, 55.09597
304.1034, 54.69731
304.5855, 54.99788
305.0676, 55.46001
305.5497, 55.58006
306.0319, 55.38786
306.5140, 55.04353
306.9961, 54.38002
307.4782, 53.72551
307.9603, 53.55164
308.4424, 54.26899
308.9246, 54.92098
309.4067, 54.62266
309.8888, 53.63287
310.3709, 52.68192
310.8530, 52.12549
311.3351, 51.80807
311.8173, 51.64214
312.2994, 51.67487
312.7815, 51.65997
313.2636, 51.37078
313.7457, 50.94005
314.2278, 50.60392
314.7100, 50.55575
315.1921, 50.57015
315.6742, 50.56616
316.1563, 50.56644
316.6384, 50.35484
317.1205, 49.58497
317.6027, 48.62156
318.0848, 47.93100
318.5669, 47.88752
319.0490, 47.93990
319.5311, 47.88804
320.0132, 47.71807
320.4954, 47.50854
320.9775, 47.24192
321.4596, 46.96494
321.9417, 46.72141
322.4238, 46.48256
322.9059, 46.31617
323.3881, 46.24134
323.8702, 46.25681
324.3523, 46.33360
324.8344, 46.79218
325.3165, 47.09859
325.7986, 46.94265
326.2808, 45.56334
326.7629, 44.59005
327.2450, 44.21518
327.7271, 44.34761
328.2092, 44.62933
328.6913, 45.52918
329.1735, 46.16053
329.6556, 46.12433
330.1377, 44.81038
330.6198, 43.99490
331.1019, 43.91831
331.5840, 44.26891
332.0662, 44.46458
332.5483, 44.45536
333.0304, 44.35799
333.5125, 44.18381
333.9946, 43.89805
334.4767, 43.72507
334.9589, 43.76591
335.4410, 43.82277
335.9231, 43.60752
336.4052, 42.98326
336.8873, 42.44960
337.3694, 42.11921
337.8516, 41.98891
338.3337, 42.04642
338.8158, 42.39198
339.2979, 42.71482
339.7800, 42.66621
340.2621, 42.16931
340.7443, 41.85484
341.2264, 41.88397
341.7085, 42.14807
342.1906, 42.28407
342.6727, 42.27820
343.1548, 42.23853
343.6370, 42.27341
344.1191, 42.37048
344.6012, 42.30043
345.0833, 41.98539
345.5654, 41.59657
346.0475, 41.48911
346.5297, 41.64297
347.0118, 41.73846
347.4939, 41.50199
347.9760, 41.06444
348.4581, 40.91249
348.9402, 41.12312
349.4224, 41.30812
349.9045, 40.89677
350.3866, 40.06170
350.8687, 39.39156
351.3508, 39.23582
351.8329, 39.33549
352.3151, 39.29221
352.7972, 39.10922
353.2793, 38.90974
353.7614, 38.81391
354.2435, 38.75853
354.7256, 38.62675
355.2078, 38.28913
355.6899, 37.98430
356.1720, 37.99271
356.6541, 38.24281
357.1362, 38.42619
357.6183, 38.22860
358.1005, 37.95843
358.5826, 37.90481
359.0647, 38.17551
359.5468, 38.52681
360.0289, 38.99330
360.5110, 39.43868
360.9932, 39.60367
361.4753, 39.06320
361.9574, 38.47339
362.4395, 38.21219
362.9216, 38.37700
363.4037, 38.46041
363.8859, 38.32382
364.3680, 38.02591
364.8501, 37.62681
365.3322, 36.74346
365.8143, 36.17043
366.2964, 36.36945
366.7786, 37.31300
367.2607, 37.69688
367.7428, 36.85556
368.2249, 35.78472
368.7070, 35.08350
369.1891, 35.04075
369.6713, 34.99200
370.1534, 34.74417
370.6355, 34.46946
371.1176, 34.77221
371.5997, 36.33963
372.0818, 37.59571
372.5640, 37.81869
373.0461, 36.56784
373.5282, 35.73207
374.0103, 35.45199
374.4924, 35.43688
374.9745, 35.21011
375.4567, 34.63942
375.9388, 34.28382
376.4209, 34.42135
376.9030, 35.00201
377.3851, 35.09891
377.8672, 34.57994
378.3494, 34.00417
378.8315, 33.97600
379.3136, 34.50733
379.7957, 34.92187
380.2778, 35.07071
380.7599, 35.05710
381.2421, 35.20257
381.7242, 35.50471
382.2063, 35.62885
382.6884, 35.16903
383.1705, 34.32359
383.6526, 33.78119
384.1348, 33.61227
384.6169, 33.72577
385.0990, 34.27160
385.5811, 35.06878
386.0632, 35.50389
386.5453, 35.00673
387.0275, 34.11294
387.5096, 33.48473
387.9917, 33.13482
388.4738, 32.98278
388.9559, 33.11072
389.4380, 33.36352
389.9202, 33.53851
390.4023, 33.55906
390.8844, 33.49662
391.3665, 33.31416
391.8486, 33.06368
392.3307, 32.94282
392.8129, 33.25940
393.2950, 33.59702
393.7771, 33.65679
394.2592, 33.30308
394.7413, 32.90810
395.2234, 32.45250
395.7056, 32.05786
396.1877, 31.91247
396.6698, 32.36691
397.1519, 32.78126
397.6340, 32.92208
398.1161, 32.74156
398.5983, 32.65329
399.0804, 32.84263
399.5625, 33.03827
400.0446, 33.04347
400.5267, 32.75764
401.0089, 32.42523
401.4910, 32.03719
401.9731, 31.61680
402.4552, 31.25364
402.9373, 30.91131
403.4194, 30.68552
403.9016, 30.63114
404.3837, 30.77512
404.8658, 31.02159
405.3479, 31.46556
405.8300, 31.87890
406.3121, 31.82229
406.7943, 31.20247
407.2764, 30.76669
407.7585, 30.79970
408.2406, 31.22154
408.7227, 31.70500
409.2048, 32.29337
409.6870, 32.57737
410.1691, 31.83731
410.6512, 30.35620
411.1333, 29.54150
411.6154, 29.81767
412.0975, 30.57828
412.5797, 30.99271
413.0618, 31.09758
413.5439, 31.08783
414.0260, 31.05111
414.5081, 30.97712
414.9902, 30.85057
415.4724, 30.66928
415.9545, 30.44604
416.4366, 30.11547
416.9187, 29.76711
417.4008, 29.53574
417.8829, 29.69278
418.3651, 29.78956
418.8472, 29.37757
419.3293, 28.58127
419.8114, 28.12124
420.2935, 28.66043
420.7756, 29.41979
421.2578, 29.85136
421.7399, 29.69121
422.2220, 29.55786
422.7041, 29.72679
423.1862, 29.98745
423.6683, 29.96334
424.1505, 29.23923
424.6326, 28.59162
425.1147, 28.21707
425.5968, 28.12394
426.0789, 28.19987
426.5610, 28.67920
427.0432, 29.11552
427.5253, 29.09274
428.0074, 28.31354
428.4895, 27.78757
428.9716, 27.73797
429.4537, 27.98040
429.9359, 27.86806
430.4180, 27.26570
430.9001, 26.78638
431.3822, 26.80754
431.8643, 27.33787
432.3464, 27.81834
432.8286, 28.28861
433.3107, 28.57664
433.7928, 28.27118
434.2749, 27.46769
434.7570, 27.00635
435.2391, 27.35606
435.7213, 28.03975
436.2034, 28.02403
436.6855, 27.37633
437.1676, 26.77207
437.6497, 26.81619
438.1318, 27.17696
438.6140, 27.34080
439.0961, 27.19883
439.5782, 26.95534
440.0603, 26.57791
440.5424, 26.23384
441.0245, 26.23838
441.5067, 27.29721
441.9888, 28.27163
442.4709, 28.31004
442.9530, 27.43287
443.4351, 26.77398
443.9172, 27.04232
444.3994, 27.53085
444.8815, 27.71698
445.3636, 27.17266
445.8457, 26.78164
446.3278, 26.87189
446.8099, 27.20077
447.2921, 27.15992
447.7742, 26.31933
448.2563, 25.57192
448.7384, 25.18815
449.2205, 25.19588
449.7026, 25.32835
450.1848, 25.69935
450.6669, 26.05121
451.1490, 26.09082
451.6311, 25.69099
452.1132, 25.48514
452.5953, 25.61028
453.0775, 25.95177
453.5596, 26.28679
454.0417, 26.64173
454.5238, 26.74331
455.0059, 26.10362
455.4880, 24.98194
455.9702, 24.93810
456.4523, 26.16432
456.9344, 27.49072
457.4165, 27.52382
457.8986, 26.63128
458.3807, 25.82682
458.8629, 25.39539
459.3450, 25.23252
459.8271, 25.36888
460.3092, 25.71917
460.7913, 25.92023
461.2734, 25.58620
461.7556, 25.11625
462.2377, 24.84099
462.7198, 24.82782
463.2019, 24.92063
463.6840, 25.10377
464.1661, 25.33411
464.6483, 25.55946
465.1304, 25.95641
465.6125, 26.14804
466.0946, 25.95509
466.5767, 25.41617
467.0588, 24.90855
467.5410, 24.13340
468.0231, 23.68452
468.5052, 23.94172
468.9873, 25.53431
469.4694, 26.20664
469.9515, 25.50035
470.4337, 24.27338
470.9158, 23.82012
471.3979, 24.45245
471.8800, 24.76480
472.3621, 24.21925
472.8442, 23.08900
473.3264, 22.79028
473.8085, 23.42660
474.2906, 24.08965
474.7727, 23.96507
475.2548, 23.25284
475.7369, 22.96275
476.2191, 23.25389
476.7012, 23.74414
477.1833, 24.07074
477.6654, 24.23508
478.1475, 24.23953
478.6296, 23.98431
479.1118, 23.64001
479.5939, 23.33174
480.0760, 23.06863
480.5581, 22.91904
481.0402, 22.91425
481.5223, 23.04061
482.0045, 23.35106
482.4866, 24.01081
482.9687, 24.42099
483.4508, 24.17582
483.9329, 23.61184
484.4150, 23.21271
484.8972, 23.16434
485.3793, 23.18014
485.8614, 23.21446
486.3435, 23.26490
486.8256, 23.31309
487.3077, 23.37405
487.7899, 23.41453
488.2720, 23.39417
488.7541, 23.24712
489.2362, 23.28970
489.7183, 23.64362
490.2004, 24.02834
490.6826, 23.96038
491.1647, 23.38729
491.6468, 22.88902
492.1289, 22.65610
492.6110, 22.60498
493.0931, 22.40984
493.5753, 22.07481
494.0574, 21.92634
494.5395, 22.51348
495.0216, 23.40244
495.5037, 23.58675
495.9858, 22.84130
496.4680, 21.98888
496.9501, 21.80124
497.4322, 22.01385
497.9143, 22.19209
498.3964, 22.16083
498.8785, 22.05087
499.3607, 21.89474
499.8428, 21.70759
500.3249, 21.56820
500.8070, 21.58654
501.2891, 21.59321
501.7712, 21.48659
502.2534, 21.20102
502.7355, 20.96274
503.2176, 20.84378
503.6997, 20.75239
504.1818, 20.56529
504.6639, 20.03986
505.1461, 19.90294
505.6282, 20.45995
506.1103, 21.45483
506.5924, 21.80606
507.0745, 21.35185
507.5566, 20.82419
508.0388, 20.58025
508.5209, 20.60909
509.0030, 20.75892
509.4851, 21.06880
509.9672, 21.27795
510.4493, 21.01193
510.9315, 20.39858
511.4136, 19.85100
511.8957, 19.43618
512.3778, 19.20371
512.8599, 19.32654
513.3420, 19.70062
513.8242, 20.01998
514.3063, 20.04902
514.7884, 20.02061
515.2705, 20.14639
515.7526, 20.44121
516.2347, 20.66185
516.7169, 20.75050
517.1990, 20.70354
517.6811, 20.50937
518.1632, 19.90956
518.6453, 19.51184
519.1274, 19.46800
519.6096, 19.64784
520.0917, 19.83334
520.5738, 20.10244
521.0559, 20.24443
521.5380, 20.17416
522.0201, 19.90536
522.5023, 19.66539
522.9844, 19.44034
523.4665, 19.28291
523.9486, 19.27403
524.4307, 19.40284
524.9128, 19.40984
525.3950, 19.23982
525.8771, 19.06929
526.3592, 19.21183
526.8413, 19.57151
527.3234, 19.79753
527.8055, 19.67174
528.2877, 19.43332
528.7698, 19.31491
529.2519, 19.31355
529.7340, 19.41169
530.2161, 19.83745
530.6982, 20.19796
531.1804, 20.10624
531.6625, 19.41620
532.1446, 18.90319
532.6267, 18.93451
533.1088, 19.20745
533.5909, 19.44234
534.0731, 19.67203
534.5552, 19.77584
535.0373, 19.68796
535.5194, 19.47977
536.0015, 19.33129
536.4836, 19.28562
536.9658, 19.21021
537.4479, 19.02464
537.9300, 18.74048
538.4121, 18.66004
538.8942, 18.83551
539.3763, 18.99618
539.8585, 18.83210
540.3406, 18.42005
540.8227, 18.22083
541.3048, 18.31901
541.7869, 18.53813
542.2690, 18.71275
542.7512, 18.83759
543.2333, 18.89948
543.7154, 18.89278
544.1975, 18.82122
544.6796, 18.60619
545.1617, 18.29928
545.6439, 18.13705
546.1260, 18.32562
546.6081, 18.61573
547.0902, 18.93521
547.5723, 19.36097
548.0544, 19.43657
548.5366, 18.62276
549.0187, 17.70338
549.5008, 17.40277
549.9829, 18.31203
550.4650, 18.73867
550.9471, 18.34518
551.4293, 17.49550
551.9114, 17.00016
552.3935, 16.87405
552.8756, 17.05067
553.3577, 17.68903
553.8398, 18.60936
554.3220, 18.88374
554.8041, 18.49375
555.2862, 18.01371
555.7683, 17.90383
556.2504, 18.02256
556.7325, 18.11745
557.2147, 18.17521
557.6968, 18.09688
558.1789, 17.57524
558.6610, 16.91723
559.1431, 16.58064
559.6252, 17.12282
560.1074, 17.61184
560.5895, 17.54432
561.0716, 17.10492
561.5537, 16.91335
562.0358, 17.44488
562.5179, 17.90001
563.0001, 17.94098
563.4822, 17.51277
563.9643, 17.27711
564.4464, 17.32207
564.9285, 17.43581
565.4106, 17.44948
565.8928, 17.33742
566.3749, 17.31175
566.8570, 17.41785
567.3391, 17.55028
567.8212, 17.51619
568.3033, 17.34189
568.7855, 17.23631
569.2676, 17.35566
569.7497, 17.49443
570.2318, 17.22312
570.7139, 16.65596
571.1960, 16.27069
571.6782, 16.68174
572.1603, 17.17051
572.6424, 16.99212
573.1245, 16.02378
573.6066, 15.39678
574.0887, 15.95100
574.5709, 16.77223
575.0530, 17.14829
575.5351, 16.68493
576.0172, 16.19968
576.4993, 15.56663
576.9814, 14.99371
577.4636, 14.85754
577.9457, 15.30278
578.4278, 15.82553
578.9099, 16.40286
579.3920, 16.93169
579.8741, 16.91209
580.3563, 16.30475
580.8384, 15.67472
581.3205, 15.34528
581.8026, 15.25180
582.2847, 15.21878
582.7668, 15.23907
583.2490, 15.36873
583.7311, 15.73210
584.2132, 16.20222
584.6953, 16.65304
585.1774, 17.13750
585.6595, 17.39203
586.1417, 17.07815
586.6238, 16.49713
587.1059, 16.10071
587.5880, 16.05572
588.0701, 16.13961
588.5522, 16.48469
589.0344, 16.96917
