##NAMES=Teallite
##RRUFFID=R060487
##IDEAL CHEMISTRY=PbSnS_2_
##LOCALITY=Porvenir mine, Huanuni, Department of Oruro, Bolivia
##OWNER=RRUFF
##SOURCE=Michael Scott
##DESCRIPTION=Grayish black platy metallic mass
##STATUS=The identification of this mineral has been confirmed by X-ray diffraction and chemical analysis
##URL=rruff.info/R060487
##MEASURED CHEMISTRY=(Pb_0.62_Sn_1.38_)_Î£=2_S_2.00_
113.4069, 445.2653
113.8890, 447.5004
114.3712, 450.7671
114.8533, 454.5946
115.3354, 459.8417
115.8175, 467.2896
116.2996, 477.2510
116.7817, 486.8920
117.2639, 495.8365
117.7460, 503.8481
118.2281, 510.6177
118.7102, 516.7692
119.1923, 521.1865
119.6744, 522.6212
120.1566, 520.4158
120.6387, 517.7338
121.1208, 515.8058
121.6029, 514.7827
122.0850, 515.0214
122.5671, 515.6132
123.0493, 518.0036
123.5314, 524.2274
124.0135, 535.6447
124.4956, 548.3509
124.9777, 561.1170
125.4598, 572.8474
125.9420, 579.1036
126.4241, 572.6584
126.9062, 559.2393
127.3883, 549.3525
127.8704, 545.6537
128.3525, 545.7746
128.8347, 546.3240
129.3168, 547.3668
129.7989, 549.8947
130.2810, 556.3389
130.7631, 565.4332
131.2452, 572.0905
131.7274, 574.2629
132.2095, 573.5360
132.6916, 574.6367
133.1737, 577.9406
133.6558, 580.5004
134.1379, 578.4485
134.6201, 571.8769
135.1022, 566.5777
135.5843, 564.5756
136.0664, 565.4503
136.5485, 566.1379
137.0306, 566.5315
137.5128, 567.0057
137.9949, 567.9144
138.4770, 569.1984
138.9591, 571.2182
139.4412, 573.9048
139.9233, 577.1432
140.4055, 582.9289
140.8876, 593.4131
141.3697, 604.2200
141.8518, 607.7761
142.3339, 601.8072
142.8160, 593.7000
143.2982, 585.6023
143.7803, 577.0513
144.2624, 570.2861
144.7445, 565.8439
145.2266, 563.0357
145.7087, 560.4345
146.1909, 557.6449
146.6730, 555.5159
147.1551, 554.3920
147.6372, 554.7048
148.1193, 555.3791
148.6014, 557.3565
149.0836, 559.8390
149.5657, 560.0648
150.0478, 556.2081
150.5299, 551.5729
151.0120, 547.5579
151.4941, 544.0092
151.9763, 541.2883
152.4584, 539.8210
152.9405, 539.3451
153.4226, 538.5085
153.9047, 536.9498
154.3868, 535.1677
154.8690, 533.4332
155.3511, 530.3798
155.8332, 528.8583
156.3153, 531.2048
156.7974, 536.6145
157.2795, 538.5914
157.7617, 532.6974
158.2438, 524.4844
158.7259, 517.9637
159.2080, 515.2527
159.6901, 513.2009
160.1722, 510.7579
160.6544, 507.9653
161.1365, 505.9329
161.6186, 505.6895
162.1007, 506.1285
162.5828, 506.2206
163.0649, 504.3375
163.5471, 503.1125
164.0292, 504.6468
164.5113, 509.0041
164.9934, 512.0421
165.4755, 510.7720
165.9576, 507.2216
166.4398, 503.9274
166.9219, 501.7219
167.4040, 500.1453
167.8861, 499.0910
168.3682, 498.5731
168.8503, 498.0431
169.3325, 496.8739
169.8146, 495.4894
170.2967, 494.5884
170.7788, 494.6959
171.2609, 495.2953
171.7430, 496.3502
172.2252, 498.0244
172.7073, 498.7163
173.1894, 496.5884
173.6715, 492.4479
174.1536, 488.2093
174.6357, 484.6615
175.1179, 481.5093
175.6000, 478.3954
176.0821, 475.3145
176.5642, 472.3105
177.0463, 469.7057
177.5284, 467.2756
178.0106, 464.3806
178.4927, 460.1109
178.9748, 455.2662
179.4569, 451.4381
179.9390, 448.9240
180.4211, 446.7340
180.9033, 443.7115
181.3854, 439.9471
181.8675, 435.9623
182.3496, 431.5024
182.8317, 427.0654
183.3138, 423.8396
183.7960, 422.2721
184.2781, 421.1114
184.7602, 418.2714
185.2423, 413.9516
185.7244, 410.0680
186.2065, 408.0449
186.6887, 407.4454
187.1708, 406.6737
187.6529, 405.6368
188.1350, 404.1985
188.6171, 401.9935
189.0992, 399.0185
189.5814, 395.9306
190.0635, 392.9780
190.5456, 390.1747
191.0277, 387.9750
191.5098, 386.5801
191.9919, 385.5482
192.4741, 383.8673
192.9562, 381.5058
193.4383, 379.3313
193.9204, 378.0580
194.4025, 377.6347
194.8846, 377.1905
195.3668, 376.6221
195.8489, 375.9795
196.3310, 375.4204
196.8131, 374.9673
197.2952, 374.4230
197.7773, 373.6032
198.2595, 372.5024
198.7416, 371.4242
199.2237, 370.4162
199.7058, 369.4583
200.1879, 368.4141
200.6700, 367.1927
201.1522, 366.2684
201.6343, 366.0728
202.1164, 366.6838
202.5985, 367.2855
203.0806, 367.8673
203.5627, 368.3264
204.0449, 368.2831
204.5270, 367.6653
205.0091, 366.7740
205.4912, 365.6508
205.9733, 364.1656
206.4554, 363.2836
206.9376, 363.3332
207.4197, 364.0034
207.9018, 364.0752
208.3839, 363.3979
208.8660, 362.5083
209.3481, 361.7877
209.8303, 361.2906
210.3124, 360.7169
210.7945, 360.0171
211.2766, 359.2278
211.7587, 358.4346
212.2408, 357.5854
212.7230, 356.8442
213.2051, 356.4487
213.6872, 356.6817
214.1693, 356.1903
214.6514, 354.5085
215.1335, 351.9831
215.6157, 350.4195
216.0978, 350.2165
216.5799, 350.1952
217.0620, 349.5532
217.5441, 348.0567
218.0262, 346.6077
218.5084, 345.3598
218.9905, 344.2100
219.4726, 342.7259
219.9547, 340.8186
220.4368, 338.6990
220.9189, 336.5055
221.4011, 334.1847
221.8832, 331.9068
222.3653, 329.7059
222.8474, 327.5651
223.3295, 325.2391
223.8116, 322.5951
224.2938, 320.0601
224.7759, 317.9323
225.2580, 316.4256
225.7401, 314.8331
226.2222, 313.0179
226.7043, 311.0741
227.1865, 309.3603
227.6686, 308.1208
228.1507, 306.7930
228.6328, 304.9882
229.1149, 302.2954
229.5970, 300.1228
230.0792, 298.7524
230.5613, 297.9680
231.0434, 296.9457
231.5255, 295.5175
232.0076, 294.1285
232.4897, 293.0672
232.9719, 292.5558
233.4540, 291.8726
233.9361, 290.8674
234.4182, 289.6798
234.9003, 288.7875
235.3824, 288.3048
235.8646, 287.9530
236.3467, 287.6217
236.8288, 287.3983
237.3109, 286.9813
237.7930, 286.2898
238.2751, 285.4023
238.7573, 284.5736
239.2394, 283.7731
239.7215, 283.0623
240.2036, 282.4709
240.6857, 282.0526
241.1678, 281.6190
241.6500, 281.1501
242.1321, 280.6694
242.6142, 280.2464
243.0963, 279.9735
243.5784, 279.6230
244.0605, 279.0812
244.5427, 278.2304
245.0248, 277.4972
245.5069, 276.9585
245.9890, 276.5083
246.4711, 275.8851
246.9532, 274.8733
247.4354, 274.0469
247.9175, 273.7263
248.3996, 274.2198
248.8817, 274.2080
249.3638, 273.5142
249.8459, 272.4230
250.3281, 271.4375
250.8102, 270.5504
251.2923, 269.7887
251.7744, 269.1829
252.2565, 268.7945
252.7386, 268.3311
253.2208, 267.7572
253.7029, 267.1356
254.1850, 266.5482
254.6671, 265.9835
255.1492, 265.4664
255.6313, 265.0087
256.1135, 264.6136
256.5956, 264.2520
257.0777, 263.9817
257.5598, 263.6840
258.0419, 263.1624
258.5240, 262.2763
259.0062, 261.4952
259.4883, 261.0143
259.9704, 260.8793
260.4525, 260.4257
260.9346, 259.5222
261.4167, 258.4722
261.8989, 257.6531
262.3810, 257.2013
262.8631, 256.6326
263.3452, 255.7551
263.8273, 254.5659
264.3094, 253.8319
264.7916, 253.7429
265.2737, 253.7972
265.7558, 253.4562
266.2379, 252.5603
266.7200, 251.8356
267.2021, 251.5457
267.6843, 251.6039
268.1664, 251.0567
268.6485, 249.6650
269.1306, 248.1624
269.6127, 247.1895
270.0948, 246.8352
270.5770, 246.6379
271.0591, 246.6544
271.5412, 246.7605
272.0233, 246.2607
272.5054, 244.9686
272.9875, 243.5880
273.4697, 242.6557
273.9518, 242.2333
274.4339, 241.8047
274.9160, 241.3318
275.3981, 240.8044
275.8802, 240.1383
276.3624, 239.3011
276.8445, 238.4998
277.3266, 237.8958
277.8087, 237.5065
278.2908, 237.0818
278.7729, 236.6122
279.2551, 236.0882
279.7372, 235.5067
280.2193, 234.8702
280.7014, 234.1497
281.1835, 233.3190
281.6656, 232.3788
282.1478, 231.3080
282.6299, 230.0189
283.1120, 228.7742
283.5941, 228.0906
284.0762, 227.9910
284.5583, 227.9516
285.0405, 227.7138
285.5226, 227.3052
286.0047, 227.0476
286.4868, 227.0104
286.9689, 226.8961
287.4510, 226.1491
287.9332, 224.8067
288.4153, 223.6416
288.8974, 223.0192
289.3795, 222.8262
289.8616, 222.7415
290.3438, 222.7886
290.8259, 222.7756
291.3080, 222.4283
291.7901, 221.8021
292.2722, 221.2128
292.7543, 220.7898
293.2365, 220.4636
293.7186, 220.0601
294.2007, 219.5812
294.6828, 219.1244
295.1649, 218.8071
295.6470, 218.5914
296.1292, 218.3604
296.6113, 218.1531
297.0934, 217.8434
297.5755, 217.0727
298.0576, 215.8901
298.5397, 214.8517
299.0219, 214.5117
299.5040, 214.5948
299.9861, 214.4650
300.4682, 213.8841
300.9503, 213.2961
301.4324, 213.4038
301.9146, 214.0384
302.3967, 214.4909
302.8788, 214.0605
303.3609, 213.2549
303.8430, 212.8670
304.3251, 213.0937
304.8073, 213.3995
305.2894, 213.4295
305.7715, 213.1638
306.2536, 212.5551
306.7357, 211.0788
307.2178, 209.5019
307.7000, 208.7086
308.1821, 208.8222
308.6642, 209.1387
309.1463, 209.3286
309.6284, 209.3494
310.1105, 209.1358
310.5927, 208.3883
311.0748, 207.5932
311.5569, 207.1080
312.0390, 206.9415
312.5211, 206.8369
313.0032, 206.7679
313.4854, 206.6413
313.9675, 206.3582
314.4496, 205.7418
314.9317, 205.0992
315.4138, 204.6044
315.8959, 204.2310
316.3781, 203.7907
316.8602, 203.1456
317.3423, 202.4437
317.8244, 201.7994
318.3065, 201.3072
318.7886, 200.7784
319.2708, 200.0665
319.7529, 199.2612
320.2350, 198.6127
320.7171, 198.3423
321.1992, 198.1406
321.6813, 197.8548
322.1635, 197.4287
322.6456, 196.9940
323.1277, 196.5698
323.6098, 196.1504
324.0919, 195.7250
324.5740, 195.1241
325.0562, 194.6736
325.5383, 194.5971
326.0204, 195.1061
326.5025, 195.1548
326.9846, 194.1454
327.4667, 192.8645
327.9489, 192.1391
328.4310, 192.6148
328.9131, 192.9359
329.3952, 192.8667
329.8773, 192.3997
330.3594, 191.9282
330.8416, 191.4170
331.3237, 190.9377
331.8058, 190.5562
332.2879, 190.4075
332.7700, 190.1046
333.2521, 189.4605
333.7343, 188.6082
334.2164, 188.2694
334.6985, 188.8463
335.1806, 189.3118
335.6627, 189.0224
336.1448, 187.5999
336.6270, 186.6009
337.1091, 186.1695
337.5912, 186.1120
338.0733, 186.0540
338.5554, 186.0015
339.0375, 185.9379
339.5197, 185.9169
340.0018, 185.9591
340.4839, 185.5830
340.9660, 184.6280
341.4481, 183.6205
341.9302, 183.4334
342.4124, 184.1499
342.8945, 184.4777
343.3766, 183.8108
343.8587, 182.4556
344.3408, 181.8913
344.8229, 182.2119
345.3051, 182.7046
345.7872, 182.7553
346.2693, 182.4078
346.7514, 181.9121
347.2335, 181.2499
347.7156, 180.5634
348.1978, 180.1934
348.6799, 180.1184
349.1620, 180.0517
349.6441, 179.8905
350.1262, 179.5925
350.6083, 178.9538
351.0905, 177.8381
351.5726, 176.7766
352.0547, 176.4944
352.5368, 176.7957
353.0189, 177.0882
353.5010, 177.1562
353.9832, 177.0114
354.4653, 176.5860
354.9474, 175.8625
355.4295, 175.1591
355.9116, 174.7345
356.3937, 174.4852
356.8759, 174.2628
357.3580, 174.0553
357.8401, 173.8174
358.3222, 173.5816
358.8043, 173.3186
359.2864, 172.8616
359.7686, 171.8001
360.2507, 170.6719
360.7328, 169.9463
361.2149, 169.7871
361.6970, 169.9253
362.1791, 170.6188
362.6613, 171.5407
363.1434, 171.9405
363.6255, 171.0479
364.1076, 170.0010
364.5897, 169.3453
365.0718, 169.2750
365.5540, 169.1695
366.0361, 168.8718
366.5182, 168.4992
367.0003, 168.1926
367.4824, 168.1915
367.9645, 168.0314
368.4467, 167.4699
368.9288, 166.4854
369.4109, 165.8990
369.8930, 166.2150
370.3751, 166.5464
370.8572, 166.2670
371.3394, 164.8729
371.8215, 163.7179
372.3036, 162.8522
372.7857, 162.2954
373.2678, 162.1678
373.7499, 162.7438
374.2321, 163.2566
374.7142, 163.3277
375.1963, 162.8582
375.6784, 162.3344
376.1605, 161.6985
376.6426, 161.0831
377.1248, 160.7740
377.6069, 160.8351
378.0890, 160.7857
378.5711, 160.4153
379.0532, 159.7809
379.5353, 159.3345
380.0175, 159.0941
380.4996, 158.9338
380.9817, 158.7696
381.4638, 158.5956
381.9459, 158.3433
382.4280, 157.9866
382.9102, 157.5631
383.3923, 157.1062
383.8744, 156.6223
384.3565, 156.2281
384.8386, 156.1077
385.3207, 156.1130
385.8029, 155.8940
386.2850, 155.3685
386.7671, 154.8622
387.2492, 154.8259
387.7313, 155.0675
388.2134, 155.1496
388.6956, 154.8263
389.1777, 154.2893
389.6598, 153.6076
390.1419, 152.8045
390.6240, 152.1410
391.1061, 151.9595
391.5883, 151.9198
392.0704, 151.6493
392.5525, 150.8533
393.0346, 150.0812
393.5167, 149.5182
393.9988, 149.1609
394.4810, 148.9880
394.9631, 149.2939
395.4452, 149.5481
395.9273, 149.4409
396.4094, 148.8019
396.8915, 148.2330
397.3737, 147.8115
397.8558, 147.5273
398.3379, 147.3675
398.8200, 147.6535
399.3021, 147.7154
399.7842, 147.3373
400.2664, 146.5201
400.7485, 145.8105
401.2306, 145.1226
401.7127, 144.6302
402.1948, 144.4731
402.6769, 144.8293
403.1591, 145.1537
403.6412, 145.5104
404.1233, 145.7734
404.6054, 145.5565
405.0875, 144.6828
405.5696, 143.8597
406.0518, 143.3947
406.5339, 143.2988
407.0160, 143.2477
407.4981, 143.2836
407.9802, 143.2553
408.4623, 142.8839
408.9445, 142.1799
409.4266, 141.7209
409.9087, 141.7940
410.3908, 142.0982
410.8729, 141.8838
411.3550, 141.1623
411.8372, 140.3198
412.3193, 139.3578
412.8014, 138.4949
413.2835, 138.3841
413.7656, 139.2733
414.2477, 140.2542
414.7299, 140.1980
415.2120, 139.4544
415.6941, 138.8678
416.1762, 139.0676
416.6583, 139.4387
417.1404, 139.3528
417.6226, 138.8146
418.1047, 138.3648
418.5868, 138.4752
419.0689, 138.7441
419.5510, 138.7791
420.0331, 138.2914
420.5153, 137.8006
420.9974, 137.4865
421.4795, 137.3196
421.9616, 137.2392
422.4437, 137.4335
422.9258, 137.5401
423.4080, 137.3654
423.8901, 136.7886
424.3722, 136.3330
424.8543, 136.1699
425.3364, 136.0876
425.8185, 135.8746
426.3007, 135.3773
426.7828, 134.9748
427.2649, 134.7565
427.7470, 134.6901
428.2291, 134.5598
428.7112, 134.3592
429.1934, 134.1040
429.6755, 133.7372
430.1576, 133.1805
430.6397, 132.9694
431.1218, 133.2402
431.6039, 133.6601
432.0861, 133.6715
432.5682, 133.2464
433.0503, 132.8032
433.5324, 132.4122
434.0145, 132.1261
434.4966, 132.2743
434.9788, 132.8768
435.4609, 133.3460
435.9430, 132.9355
436.4251, 131.9945
436.9072, 131.5838
437.3893, 132.0676
437.8715, 132.6776
438.3536, 132.4672
438.8357, 131.6579
439.3178, 130.8673
439.7999, 130.3035
440.2820, 129.9671
440.7642, 129.9598
441.2463, 130.2851
441.7284, 130.5468
442.2105, 130.4804
442.6926, 130.2661
443.1747, 130.0753
443.6569, 129.9337
444.1390, 129.8424
444.6211, 129.8648
445.1032, 129.9460
445.5853, 129.9261
446.0674, 129.7666
446.5496, 129.5126
447.0317, 129.1374
447.5138, 128.5452
447.9959, 128.1662
448.4780, 128.1242
448.9601, 128.2124
449.4423, 128.2091
449.9244, 127.9741
450.4065, 127.9683
450.8886, 128.3919
451.3707, 129.0873
451.8528, 129.3714
452.3350, 129.1574
452.8171, 128.7880
453.2992, 128.3780
453.7813, 127.9218
454.2634, 127.6840
454.7455, 127.7242
455.2277, 127.7914
455.7098, 127.4458
456.1919, 126.7704
456.6740, 126.3213
457.1561, 126.3121
457.6382, 126.6171
458.1204, 127.2308
458.6025, 128.0832
459.0846, 128.6234
459.5667, 128.2708
460.0488, 127.4750
460.5309, 126.7291
461.0131, 126.0414
461.4952, 125.7141
461.9773, 126.2774
462.4594, 127.2700
462.9415, 128.0249
463.4236, 128.3787
463.9058, 128.3507
464.3879, 127.7612
464.8700, 126.6877
465.3521, 125.7686
465.8342, 125.0177
466.3163, 124.5581
466.7985, 124.5017
467.2806, 125.2540
467.7627, 125.6694
468.2448, 125.4985
468.7269, 125.0763
469.2090, 124.8689
469.6912, 124.9365
470.1733, 125.1201
470.6554, 125.4688
471.1375, 125.9385
471.6196, 126.0777
472.1017, 125.8221
472.5839, 125.4152
473.0660, 124.9254
473.5481, 124.3526
474.0302, 124.0811
474.5123, 124.1882
474.9944, 124.4766
475.4766, 124.7333
475.9587, 124.9441
476.4408, 125.0034
476.9229, 124.7812
477.4050, 124.4383
477.8871, 124.2708
478.3693, 124.2579
478.8514, 124.2036
479.3335, 123.7504
479.8156, 123.2706
480.2977, 123.3217
480.7798, 124.2017
481.2620, 124.9150
481.7441, 124.7035
482.2262, 123.9942
482.7083, 123.4176
483.1904, 123.2034
483.6725, 123.1311
484.1547, 123.1620
484.6368, 123.2847
485.1189, 123.4065
485.6010, 123.6096
486.0831, 123.7307
486.5652, 123.6840
487.0474, 123.3977
487.5295, 123.0846
488.0116, 122.6885
488.4937, 122.3105
488.9758, 122.1149
489.4579, 122.1783
489.9401, 122.1907
490.4222, 122.0738
490.9043, 121.8491
491.3864, 121.5998
491.8685, 121.3211
492.3506, 121.0442
492.8328, 120.8255
493.3149, 120.6371
493.7970, 120.2601
494.2791, 119.6160
494.7612, 119.1057
495.2433, 119.3200
495.7255, 120.0320
496.2076, 120.6710
496.6897, 121.1120
497.1718, 121.3134
497.6539, 121.0965
498.1360, 120.5614
498.6182, 120.0874
499.1003, 119.9518
499.5824, 119.8971
500.0645, 119.7035
500.5466, 119.2686
501.0287, 119.0333
501.5109, 119.3952
501.9930, 119.8956
502.4751, 120.0720
502.9572, 119.4436
503.4393, 118.9956
503.9214, 118.9956
504.4036, 119.2654
504.8857, 119.1368
505.3678, 118.3030
505.8499, 117.6027
506.3320, 117.4424
506.8141, 117.8735
507.2963, 118.0528
507.7784, 117.9091
508.2605, 117.7099
508.7426, 117.7709
509.2247, 118.0696
509.7068, 118.2487
510.1890, 118.2108
510.6711, 118.0828
511.1532, 118.1329
511.6353, 118.3056
512.1174, 118.3382
512.5995, 117.8973
513.0817, 117.3464
513.5638, 117.2280
514.0459, 117.5261
514.5280, 117.6827
515.0101, 117.1113
515.4922, 116.3526
515.9744, 115.9256
516.4565, 116.0478
516.9386, 116.2879
517.4207, 116.6624
517.9028, 117.0369
518.3849, 117.1907
518.8671, 116.9202
519.3492, 116.6024
519.8313, 116.2761
520.3134, 115.9510
520.7955, 115.7558
521.2776, 115.7744
521.7598, 115.7958
522.2419, 115.6414
522.7240, 115.2124
523.2061, 115.1883
523.6882, 115.7130
524.1703, 116.3584
524.6525, 116.5383
525.1346, 116.2801
525.6167, 115.9701
526.0988, 115.6636
526.5809, 115.4286
527.0630, 115.4417
527.5452, 115.6686
528.0273, 115.9071
528.5094, 116.1114
528.9915, 116.2243
529.4736, 116.0664
529.9557, 115.6081
530.4379, 115.3816
530.9200, 116.0952
531.4021, 117.0070
531.8842, 117.3732
532.3663, 116.6513
532.8484, 115.8881
533.3306, 115.0248
533.8127, 114.3157
534.2948, 114.3399
534.7769, 116.3031
535.2590, 117.6517
535.7411, 117.6178
536.2233, 116.2536
536.7054, 115.2334
537.1875, 114.6231
537.6696, 114.2499
538.1517, 113.9796
538.6339, 113.8010
539.1160, 114.0130
539.5981, 114.7653
540.0802, 115.5331
540.5623, 115.5336
541.0444, 114.8897
541.5266, 114.2969
542.0087, 113.9532
542.4908, 113.7887
542.9729, 113.7942
543.4550, 113.9229
543.9371, 113.9898
544.4193, 113.7526
544.9014, 113.5002
545.3835, 113.5421
545.8656, 113.9231
546.3477, 114.1754
546.8298, 113.9715
547.3120, 113.6343
547.7941, 113.4314
548.2762, 113.5020
548.7583, 113.5717
549.2404, 113.5365
549.7225, 113.5115
550.2047, 113.7492
550.6868, 114.5822
551.1689, 115.0143
551.6510, 114.6633
552.1331, 113.6789
552.6152, 112.9997
553.0974, 112.6239
553.5795, 112.5684
554.0616, 113.0749
554.5437, 113.9940
555.0258, 114.3830
555.5079, 114.1440
555.9901, 113.7341
556.4722, 113.5729
556.9543, 113.6008
557.4364, 113.7089
557.9185, 113.9332
558.4006, 114.1166
558.8828, 114.0817
559.3649, 113.9089
559.8470, 113.7859
560.3291, 113.7695
560.8112, 113.8312
561.2933, 114.0689
561.7755, 114.4828
562.2576, 114.5678
562.7397, 113.7840
563.2218, 113.0340
563.7039, 112.7779
564.1860, 113.2445
564.6682, 113.6135
565.1503, 113.8545
565.6324, 114.0444
566.1145, 114.3711
566.5966, 114.8969
567.0787, 114.9613
567.5609, 114.2749
568.0430, 113.2402
568.5251, 112.7431
569.0072, 112.7315
569.4893, 112.8172
569.9714, 112.7142
570.4536, 112.6148
570.9357, 112.9459
571.4178, 113.6693
571.8999, 114.1459
572.3820, 113.6355
572.8641, 112.8717
573.3463, 112.5239
573.8284, 112.8337
574.3105, 113.2153
574.7926, 113.5721
575.2747, 113.8742
575.7568, 114.0827
576.2390, 114.1931
576.7211, 114.2112
577.2032, 114.1077
577.6853, 113.9143
578.1674, 113.7255
578.6495, 113.5132
579.1317, 113.3973
579.6138, 113.5147
580.0959, 113.8063
580.5780, 113.7058
581.0601, 113.1796
581.5422, 112.6301
582.0244, 112.3865
582.5065, 112.3798
582.9886, 112.4547
583.4707, 112.5989
583.9528, 112.7803
584.4349, 113.0197
584.9171, 113.2653
585.3992, 113.4395
585.8813, 113.5033
586.3634, 113.5022
586.8455, 113.3833
587.3276, 113.2061
587.8098, 113.1406
588.2919, 113.4811
588.7740, 113.6615
589.2561, 113.3967
589.7382, 112.6717
590.2203, 112.3831
590.7025, 112.6663
591.1846, 113.1457
591.6667, 113.7357
592.1488, 114.4883
592.6309, 114.4574
593.1130, 113.4553
593.5952, 112.2591
594.0773, 111.8419
594.5594, 112.0451
595.0415, 112.2536
595.5236, 112.2884
596.0057, 112.3149
596.4879, 112.5522
596.9700, 112.9250
597.4521, 113.2540
597.9342, 113.5156
598.4163, 113.6580
598.8984, 113.5856
599.3806, 113.3275
599.8627, 113.1459
600.3448, 113.1749
600.8269, 113.2303
601.3090, 113.2558
601.7911, 113.3000
602.2733, 113.0699
602.7554, 112.3603
603.2375, 111.6643
603.7196, 111.4844
604.2017, 111.8652
604.6838, 112.3345
605.1660, 112.9016
605.6481, 113.3975
606.1302, 113.4517
606.6123, 113.1566
607.0944, 112.9515
607.5765, 113.1239
608.0587, 113.3393
608.5408, 113.0217
609.0229, 112.3673
609.5050, 112.0689
609.9871, 112.8916
