##NAMES=Tellurium
##RRUFFID=R070376
##IDEAL CHEMISTRY=Te
##LOCALITY=North of Bennett Lake, Rainy River District, Ontario, Canada
##OWNER=RRUFF
##SOURCE=Royal Ontario Museum
##DESCRIPTION=Steel gray metallic fragment
##STATUS=The identification of this mineral has been confirmed by X-ray diffraction and chemical analysis
##URL=rruff.info/R070376
##MEASURED CHEMISTRY=Te
114.9494, 210.0078
115.4315, 219.3999
115.9136, 231.3489
116.3958, 248.6814
116.8779, 268.8899
117.3600, 289.4825
117.8421, 308.0460
118.3242, 327.8779
118.8063, 350.9097
119.2885, 377.3409
119.7706, 405.9434
120.2527, 434.4164
120.7348, 464.5525
121.2169, 499.7843
121.6990, 545.8473
122.1812, 595.6777
122.6633, 641.2667
123.1454, 680.2461
123.6275, 718.7017
124.1096, 762.0585
124.5917, 809.8267
125.0739, 860.0039
125.5560, 914.0289
126.0381, 969.1415
126.5202, 1020.791
127.0023, 1066.862
127.4844, 1110.198
127.9666, 1155.914
128.4487, 1203.965
128.9308, 1251.017
129.4129, 1295.697
129.8950, 1337.524
130.3772, 1370.981
130.8593, 1387.818
131.3414, 1395.614
131.8235, 1422.294
132.3056, 1469.352
132.7877, 1527.616
133.2699, 1584.981
133.7520, 1641.352
134.2341, 1705.776
134.7162, 1780.360
135.1983, 1865.356
135.6804, 1965.322
136.1626, 2081.943
136.6447, 2209.584
137.1268, 2340.373
137.6089, 2475.990
138.0910, 2605.346
138.5731, 2732.643
139.0553, 2874.978
139.5374, 2942.687
140.0195, 2925.001
140.5016, 2829.288
140.9837, 2677.974
141.4658, 2446.756
141.9480, 2195.841
142.4301, 1964.121
142.9122, 1748.203
143.3943, 1559.562
143.8764, 1399.298
144.3585, 1268.536
144.8407, 1158.072
145.3228, 1072.852
145.8049, 1004.997
146.2870, 948.7825
146.7691, 912.2360
147.2512, 877.6432
147.7334, 841.0413
148.2155, 799.7737
148.6976, 766.9956
149.1797, 745.2953
149.6618, 731.3259
150.1439, 720.7826
150.6261, 716.8955
151.1082, 713.6578
151.5903, 709.1542
152.0724, 701.1862
152.5545, 696.8204
153.0366, 698.3063
153.5188, 703.7058
154.0009, 709.1844
154.4830, 719.1633
154.9651, 725.4819
155.4472, 723.9435
155.9293, 706.0668
156.4115, 692.1240
156.8936, 689.1772
157.3757, 694.0480
157.8578, 695.6461
158.3399, 687.4416
158.8221, 676.8640
159.3042, 668.6818
159.7863, 665.7278
160.2684, 663.6782
160.7505, 660.3056
161.2326, 656.0305
161.7148, 654.3778
162.1969, 661.2265
162.6790, 669.7360
163.1611, 673.2376
163.6432, 665.4887
164.1253, 655.4611
164.6075, 646.7054
165.0896, 639.3067
165.5717, 634.8018
166.0538, 635.3165
166.5359, 639.0636
167.0180, 643.4537
167.5002, 648.3486
167.9823, 652.9316
168.4644, 656.2648
168.9465, 658.0724
169.4286, 660.0720
169.9107, 665.5079
170.3929, 672.1323
170.8750, 675.3442
171.3571, 669.6945
171.8392, 660.7383
172.3213, 654.1813
172.8034, 650.8524
173.2856, 649.7587
173.7677, 651.1247
174.2498, 654.3286
174.7319, 657.2085
175.2140, 660.1645
175.6961, 661.6071
176.1783, 658.2504
176.6604, 647.6260
177.1425, 635.4839
177.6246, 629.6997
178.1067, 629.4470
178.5888, 628.9711
179.0710, 623.6073
179.5531, 614.9991
180.0352, 606.9359
180.5173, 601.0170
180.9994, 595.4230
181.4815, 586.7239
181.9637, 574.9429
182.4458, 563.2167
182.9279, 553.7980
183.4100, 546.4973
183.8921, 540.4296
184.3742, 535.4423
184.8564, 531.4671
185.3385, 529.1828
185.8206, 528.7540
186.3027, 527.7795
186.7848, 523.2743
187.2669, 515.6594
187.7491, 508.1014
188.2312, 502.7944
188.7133, 498.4830
189.1954, 489.2744
189.6775, 474.3093
190.1596, 458.5421
190.6418, 448.3179
191.1239, 443.5620
191.6060, 439.0674
192.0881, 431.7586
192.5702, 422.2803
193.0524, 417.0783
193.5345, 417.2162
194.0166, 418.8907
194.4987, 415.6304
194.9808, 407.0733
195.4629, 399.0181
195.9451, 395.2124
196.4272, 395.4807
196.9093, 392.4270
197.3914, 384.5253
197.8735, 375.3350
198.3556, 372.0517
198.8378, 375.3901
199.3199, 380.0830
199.8020, 383.6947
200.2841, 386.1805
200.7662, 387.4824
201.2483, 386.8652
201.7305, 385.7283
202.2126, 388.5334
202.6947, 396.6942
203.1768, 403.5190
203.6589, 403.8658
204.1410, 396.4958
204.6232, 391.3945
205.1053, 389.5157
205.5874, 390.4320
206.0695, 393.2390
206.5516, 398.6810
207.0337, 404.0586
207.5159, 407.4959
207.9980, 408.6259
208.4801, 409.2809
208.9622, 409.7016
209.4443, 409.8145
209.9264, 408.9636
210.4086, 406.4686
210.8907, 404.3742
211.3728, 404.7092
211.8549, 408.5647
212.3370, 411.0019
212.8191, 410.6634
213.3013, 408.0577
213.7834, 407.6371
214.2655, 410.1914
214.7476, 413.6734
215.2297, 416.0099
215.7118, 416.2092
216.1940, 418.3223
216.6761, 424.3554
217.1582, 433.9633
217.6403, 438.2934
218.1224, 435.4524
218.6045, 429.8113
219.0867, 425.3514
219.5688, 422.3620
220.0509, 419.8719
220.5330, 417.1946
221.0151, 414.2173
221.4972, 415.2716
221.9794, 423.3250
222.4615, 432.1083
222.9436, 434.6617
223.4257, 428.3007
223.9078, 421.0976
224.3899, 414.6365
224.8721, 408.8142
225.3542, 404.1270
225.8363, 401.4203
226.3184, 399.0105
226.8005, 394.7243
227.2827, 387.7012
227.7648, 380.4525
228.2469, 373.3325
228.7290, 366.2085
229.2111, 360.4297
229.6932, 356.2790
230.1754, 353.3103
230.6575, 351.0602
231.1396, 350.1714
231.6217, 348.8686
232.1038, 346.4215
232.5859, 342.4149
233.0681, 339.6245
233.5502, 338.8917
234.0323, 338.7796
234.5144, 336.9455
234.9965, 331.7821
235.4786, 327.6600
235.9608, 326.2454
236.4429, 328.3847
236.9250, 329.3374
237.4071, 328.7096
237.8892, 327.1277
238.3713, 325.3880
238.8535, 322.7077
239.3356, 321.1966
239.8177, 321.7859
240.2998, 325.1779
240.7819, 327.9798
241.2640, 330.0297
241.7462, 331.6289
242.2283, 333.2638
242.7104, 334.7829
243.1925, 336.5578
243.6746, 338.2694
244.1567, 338.8929
244.6389, 343.4538
245.1210, 354.3139
245.6031, 367.6828
246.0852, 376.6035
246.5673, 379.0140
247.0494, 380.4460
247.5316, 382.2091
248.0137, 383.2277
248.4958, 388.6098
248.9779, 400.3802
249.4600, 415.3596
249.9421, 427.4619
250.4243, 436.1248
250.9064, 443.0246
251.3885, 447.5620
251.8706, 446.9045
252.3527, 454.2894
252.8348, 473.8135
253.3170, 498.7904
253.7991, 515.8637
254.2812, 520.8278
254.7633, 525.6266
255.2454, 535.3525
255.7275, 552.1867
256.2097, 565.4357
256.6918, 574.0915
257.1739, 579.7107
257.6560, 584.6313
258.1381, 587.3311
258.6202, 592.5815
259.1024, 603.9851
259.5845, 624.8895
260.0666, 636.9420
260.5487, 636.7173
261.0308, 630.2060
261.5129, 628.8767
261.9951, 635.2579
262.4772, 640.7866
262.9593, 641.3046
263.4414, 635.0609
263.9235, 632.7170
264.4056, 636.3643
264.8878, 641.9351
265.3699, 642.2802
265.8520, 636.4055
266.3341, 628.1082
266.8162, 617.6801
267.2983, 604.2924
267.7805, 595.2131
268.2626, 592.2246
268.7447, 591.6536
269.2268, 587.2799
269.7089, 578.5960
270.1910, 567.9352
270.6732, 555.1207
271.1553, 539.6931
271.6374, 527.5134
272.1195, 519.3047
272.6016, 513.2641
273.0837, 507.1433
273.5659, 501.0775
274.0480, 494.1464
274.5301, 486.0410
275.0122, 476.8006
275.4943, 465.3006
275.9764, 450.2703
276.4586, 435.3723
276.9407, 426.7122
277.4228, 425.0117
277.9049, 424.1186
278.3870, 421.8732
278.8691, 418.3301
279.3513, 415.2849
279.8334, 413.4413
280.3155, 410.2842
280.7976, 401.1505
281.2798, 385.8250
281.7619, 371.3881
282.2440, 360.3663
282.7261, 352.5296
283.2082, 346.5129
283.6903, 342.6076
284.1725, 339.4504
284.6546, 335.6138
285.1367, 331.1285
285.6188, 325.8774
286.1009, 319.3656
286.5830, 312.0145
287.0652, 305.3203
287.5473, 299.2285
288.0294, 294.4758
288.5115, 292.6313
288.9936, 293.3401
289.4757, 293.7310
289.9579, 292.7475
290.4400, 290.7821
290.9221, 288.8830
291.4042, 287.0677
291.8863, 285.0990
292.3684, 282.5160
292.8506, 279.5028
293.3327, 276.8195
293.8148, 274.7311
294.2969, 273.0862
294.7790, 271.9826
295.2611, 271.4147
295.7433, 270.0464
296.2254, 265.2067
296.7075, 258.4294
297.1896, 254.3541
297.6717, 255.6900
298.1538, 259.1020
298.6360, 259.2761
299.1181, 256.4646
299.6002, 253.6346
300.0823, 253.7406
300.5644, 255.3488
301.0465, 255.6454
301.5287, 253.2766
302.0108, 250.0778
302.4929, 248.1633
302.9750, 247.3299
303.4571, 246.5227
303.9392, 244.8391
304.4214, 242.7998
304.9035, 240.9962
305.3856, 239.3866
305.8677, 238.4141
306.3498, 239.1066
306.8319, 240.9700
307.3141, 242.2716
307.7962, 241.3565
308.2783, 239.6641
308.7604, 238.6278
309.2425, 238.7619
309.7246, 239.1351
310.2068, 239.3047
310.6889, 239.2681
311.1710, 239.0252
311.6531, 239.2103
312.1352, 238.8025
312.6173, 236.3773
313.0995, 230.3715
313.5816, 226.3616
314.0637, 229.8022
314.5458, 236.8806
315.0279, 240.4500
315.5100, 235.3329
315.9922, 227.8246
316.4743, 220.3352
316.9564, 212.3088
317.4385, 207.7932
317.9206, 211.0739
318.4027, 217.9972
318.8849, 222.7578
319.3670, 221.4442
319.8491, 219.7750
320.3312, 220.4296
320.8133, 224.3062
321.2954, 226.1788
321.7776, 223.0048
322.2597, 218.1278
322.7418, 215.1115
323.2239, 217.0730
323.7060, 218.3404
324.1881, 217.1974
324.6703, 213.3535
325.1524, 210.1899
325.6345, 208.0576
326.1166, 206.6644
326.5987, 205.7696
327.0808, 206.3998
327.5630, 206.2940
328.0451, 204.2998
328.5272, 200.6106
329.0093, 199.5949
329.4914, 203.5960
329.9735, 208.1588
330.4557, 210.2676
330.9378, 207.9468
331.4199, 206.6961
331.9020, 207.7629
332.3841, 210.3628
332.8662, 210.3042
333.3484, 205.5783
333.8305, 201.2416
334.3126, 200.4741
334.7947, 204.9912
335.2768, 207.7879
335.7589, 208.2696
336.2411, 206.9740
336.7232, 204.8292
337.2053, 201.2167
337.6874, 198.6131
338.1695, 198.5257
338.6516, 201.2910
339.1338, 203.8763
339.6159, 206.5884
340.0980, 208.5060
340.5801, 206.9109
341.0622, 201.1830
341.5443, 197.6189
342.0265, 200.6268
342.5086, 209.0811
342.9907, 211.7777
343.4728, 207.6917
343.9549, 201.7731
344.4370, 200.2789
344.9192, 202.7999
345.4013, 205.4706
345.8834, 207.0960
346.3655, 207.8378
346.8476, 207.8496
347.3297, 207.1128
347.8119, 206.2210
348.2940, 206.0190
348.7761, 206.1493
349.2582, 205.4408
349.7403, 202.8646
350.2225, 199.9962
350.7046, 199.3431
351.1867, 200.6699
351.6688, 202.2050
352.1509, 202.2678
352.6331, 201.8271
353.1152, 202.6600
353.5973, 206.1978
354.0794, 209.1423
354.5615, 207.4003
355.0436, 202.3953
355.5258, 198.4600
356.0079, 199.4055
356.4900, 201.6690
356.9721, 201.9270
357.4542, 199.0725
357.9363, 196.2386
358.4185, 195.9551
358.9006, 196.7997
359.3827, 196.3117
359.8648, 191.4039
360.3469, 186.6029
360.8290, 184.2683
361.3112, 184.7869
361.7933, 186.4365
362.2754, 190.3409
362.7575, 194.4714
363.2396, 196.6316
363.7217, 194.5584
364.2039, 192.2038
364.6860, 190.1077
365.1681, 188.2941
365.6502, 187.9606
366.1323, 193.2354
366.6144, 197.6236
367.0966, 196.5658
367.5787, 180.6246
368.0608, 170.7388
368.5429, 171.1552
369.0250, 179.6013
369.5071, 184.3579
369.9893, 183.2728
370.4714, 181.0058
370.9535, 179.6135
371.4356, 178.9333
371.9177, 179.6776
372.3998, 182.6817
372.8820, 186.7047
373.3641, 189.0968
373.8462, 189.8599
374.3283, 188.9333
374.8104, 185.1426
375.2925, 177.8319
375.7747, 175.9778
376.2568, 181.4411
376.7389, 188.6414
377.2210, 188.7761
377.7031, 181.1857
378.1852, 176.2316
378.6674, 178.5000
379.1495, 185.8586
379.6316, 188.8441
380.1137, 187.0743
380.5958, 184.1649
381.0779, 183.9768
381.5601, 185.7622
382.0422, 185.4867
382.5243, 180.9772
383.0064, 175.6099
383.4885, 175.7333
383.9706, 180.7114
384.4528, 185.8404
384.9349, 188.0692
385.4170, 188.3469
385.8991, 188.1068
386.3812, 187.3451
386.8633, 186.7876
387.3455, 187.6238
387.8276, 189.2064
388.3097, 190.0619
388.7918, 188.8849
389.2739, 187.0295
389.7560, 184.7328
390.2382, 181.7568
390.7203, 181.4829
391.2024, 190.2691
391.6845, 201.2147
392.1666, 206.4542
392.6487, 195.9298
393.1309, 186.1235
393.6130, 184.7477
394.0951, 191.1055
394.5772, 196.1022
395.0593, 195.6850
395.5414, 194.2829
396.0236, 194.6730
396.5057, 200.9181
396.9878, 204.6040
397.4699, 203.9036
397.9520, 199.9214
398.4341, 196.1222
398.9163, 191.7338
399.3984, 188.3344
399.8805, 186.5352
400.3626, 186.6385
400.8447, 187.6078
401.3268, 190.4343
401.8090, 193.3912
402.2911, 193.7584
402.7732, 190.3391
403.2553, 187.4500
403.7374, 186.2994
404.2195, 186.8024
404.7017, 187.4483
405.1838, 188.2408
405.6659, 189.1774
406.1480, 190.9263
406.6301, 193.5482
407.1122, 193.5087
407.5944, 189.2859
408.0765, 182.9414
408.5586, 179.7368
409.0407, 179.5987
409.5228, 179.5848
410.0049, 176.8483
410.4871, 172.7207
410.9692, 171.2543
411.4513, 173.2654
411.9334, 176.3001
412.4155, 178.6425
412.8976, 179.9104
413.3798, 178.9981
413.8619, 172.6281
414.3440, 165.4431
414.8261, 162.8322
415.3082, 164.8852
415.7903, 167.2174
416.2725, 166.7834
416.7546, 165.1099
417.2367, 163.8768
417.7188, 163.1110
418.2009, 163.4741
418.6830, 166.7867
419.1652, 171.9102
419.6473, 174.5357
420.1294, 169.7763
420.6115, 164.7085
421.0937, 163.5196
421.5758, 169.3423
422.0579, 173.5155
422.5400, 174.2694
423.0221, 172.8560
423.5042, 171.3086
423.9864, 168.8942
424.4685, 167.2676
424.9506, 166.8000
425.4327, 167.5331
425.9148, 169.3043
426.3969, 173.9116
426.8791, 177.5123
427.3612, 175.9379
427.8433, 166.7023
428.3254, 160.2842
428.8075, 158.9391
429.2896, 161.1081
429.7718, 161.0644
430.2539, 158.1747
430.7360, 156.3889
431.2181, 159.5322
431.7002, 167.0392
432.1823, 170.0309
432.6645, 167.3046
433.1466, 162.6015
433.6287, 161.0483
434.1108, 162.1107
434.5929, 163.1532
435.0750, 162.8225
435.5572, 161.9087
436.0393, 161.9662
436.5214, 162.9451
437.0035, 163.7865
437.4856, 163.4980
437.9677, 162.6008
438.4499, 161.9376
438.9320, 162.2891
439.4141, 161.9565
439.8962, 158.4436
440.3783, 153.1900
440.8604, 149.8040
441.3426, 150.8617
441.8247, 153.5406
442.3068, 156.8202
442.7889, 161.0616
443.2710, 163.5841
443.7531, 162.7770
444.2353, 160.2313
444.7174, 157.6908
445.1995, 154.1793
445.6816, 152.0565
446.1637, 152.1345
446.6458, 154.2122
447.1280, 156.4444
447.6101, 160.4747
448.0922, 162.8432
448.5743, 161.0078
449.0564, 152.0780
449.5385, 146.6835
450.0207, 145.7578
450.5028, 147.8760
450.9849, 151.3614
451.4670, 156.9564
451.9491, 159.8728
452.4312, 156.6022
452.9134, 148.4064
453.3955, 145.7484
453.8776, 149.2031
454.3597, 154.0826
454.8418, 156.1561
455.3239, 155.8250
455.8061, 154.5644
456.2882, 152.4134
456.7703, 149.9220
457.2524, 147.8536
457.7345, 146.1318
458.2166, 144.3960
458.6988, 140.2488
459.1809, 137.0958
459.6630, 140.3839
460.1451, 151.8514
460.6272, 161.0562
461.1093, 159.2346
461.5915, 151.9493
462.0736, 146.1253
462.5557, 143.6224
463.0378, 143.3852
463.5199, 146.8679
464.0020, 153.2501
464.4842, 156.7426
464.9663, 153.4468
465.4484, 148.9062
465.9305, 146.0281
466.4126, 145.8466
466.8947, 145.6490
467.3769, 145.2113
467.8590, 144.8543
468.3411, 145.1051
468.8232, 146.0625
469.3053, 147.4993
469.7874, 149.7421
470.2696, 152.6711
470.7517, 153.9704
471.2338, 153.4222
471.7159, 151.9206
472.1980, 149.6326
472.6801, 146.6053
473.1623, 145.3143
473.6444, 146.5164
474.1265, 148.7700
474.6086, 149.8333
475.0907, 149.7812
475.5728, 149.0998
476.0550, 147.3283
476.5371, 145.3357
477.0192, 144.7410
477.5013, 145.6073
477.9834, 146.6951
478.4655, 146.8623
478.9477, 146.7372
479.4298, 147.1872
479.9119, 149.2116
480.3940, 150.9406
480.8761, 151.2318
481.3582, 150.4314
481.8404, 149.5217
482.3225, 146.6316
482.8046, 145.5142
483.2867, 149.3115
483.7688, 161.4731
484.2509, 167.4421
484.7331, 161.0994
485.2152, 150.5164
485.6973, 142.8529
486.1794, 138.4188
486.6615, 136.5080
487.1436, 137.8032
487.6258, 141.5696
488.1079, 144.3815
488.5900, 146.0760
489.0721, 147.2109
489.5542, 148.0971
490.0363, 148.7428
490.5185, 148.8254
491.0006, 148.2859
491.4827, 147.3497
491.9648, 146.0570
492.4470, 144.5246
492.9291, 143.4386
493.4112, 143.2043
493.8933, 143.4175
494.3754, 143.7141
494.8575, 144.0217
495.3397, 143.8696
495.8218, 141.7277
496.3039, 139.5517
496.7860, 139.8080
497.2681, 143.4602
497.7502, 147.1370
498.2324, 150.2524
498.7145, 151.9951
499.1966, 151.3174
499.6787, 144.2510
500.1608, 138.3879
500.6429, 136.2308
501.1251, 137.6591
501.6072, 139.9011
502.0893, 145.1167
502.5714, 149.0452
503.0535, 149.3179
503.5356, 143.3804
504.0178, 140.0197
504.4999, 140.2282
504.9820, 142.1489
505.4641, 143.1823
505.9462, 143.3436
506.4283, 142.3493
506.9105, 139.1410
507.3926, 134.9381
507.8747, 135.6051
508.3568, 141.4266
508.8389, 146.9533
509.3210, 147.5955
509.8032, 144.8707
510.2853, 143.1146
510.7674, 143.0878
511.2495, 143.0929
511.7316, 140.5650
512.2137, 136.8163
512.6959, 134.5463
513.1780, 135.8206
513.6601, 138.1356
514.1422, 140.0872
514.6243, 141.6937
515.1064, 143.2346
515.5886, 146.3039
516.0707, 148.3020
516.5528, 147.2537
517.0349, 140.5639
517.5170, 135.7337
517.9991, 134.2349
518.4813, 134.7076
518.9634, 135.5999
519.4455, 137.2527
519.9276, 138.7254
520.4097, 139.7251
520.8918, 140.3514
521.3740, 141.8000
521.8561, 144.7230
522.3382, 146.3084
522.8203, 143.3946
523.3024, 136.4341
523.7845, 133.4266
524.2667, 135.4993
524.7488, 138.8713
525.2309, 138.5152
525.7130, 135.4756
526.1951, 133.3927
526.6772, 133.7408
527.1594, 135.4382
527.6415, 138.0146
528.1236, 141.0988
528.6057, 143.1044
529.0878, 142.8114
529.5699, 141.2708
530.0521, 138.9824
530.5342, 135.7021
531.0163, 133.0167
531.4984, 130.8564
531.9805, 129.7668
532.4626, 130.3081
532.9448, 136.4263
533.4269, 139.4103
533.9090, 135.8253
534.3911, 128.1311
534.8732, 126.5593
535.3553, 134.5415
535.8375, 142.2220
536.3196, 145.0351
536.8017, 142.7730
537.2838, 140.8203
537.7659, 139.1612
538.2480, 137.8053
538.7302, 137.0090
539.2123, 136.6349
539.6944, 135.5403
540.1765, 132.8752
540.6586, 130.4888
541.1407, 131.8923
541.6229, 136.0230
542.1050, 139.0792
542.5871, 137.7831
543.0692, 135.3118
543.5513, 134.2460
544.0334, 134.7412
544.5156, 136.3545
544.9977, 141.5307
545.4798, 146.2164
545.9619, 146.9881
546.4440, 139.7945
546.9261, 133.7508
547.4083, 130.1146
547.8904, 128.4007
548.3725, 127.7970
548.8546, 128.6006
549.3367, 130.0677
549.8188, 132.4023
550.3010, 135.4354
550.7831, 136.9696
551.2652, 136.6093
551.7473, 136.0702
552.2294, 137.1279
552.7115, 139.4720
553.1937, 139.3797
553.6758, 136.0239
554.1579, 132.4447
554.6400, 133.2661
555.1221, 137.0155
555.6042, 139.3671
556.0864, 137.2677
556.5685, 134.6659
557.0506, 136.4669
557.5327, 141.3185
558.0148, 144.1533
558.4969, 140.1101
558.9791, 135.0840
559.4612, 132.7672
559.9433, 134.0110
560.4254, 135.5470
560.9075, 138.0329
561.3896, 139.8344
561.8718, 139.4605
562.3539, 134.7067
562.8360, 131.5200
563.3181, 130.5501
563.8002, 131.3287
564.2823, 133.1024
564.7645, 136.2155
565.2466, 138.7266
565.7287, 139.9600
566.2108, 139.9614
566.6929, 138.2925
567.1750, 134.8700
567.6572, 131.9701
568.1393, 131.6361
568.6214, 133.2121
569.1035, 135.9019
569.5856, 140.1195
570.0677, 143.3001
570.5499, 141.9588
571.0320, 138.4862
571.5141, 136.6587
571.9962, 139.2427
572.4783, 142.3535
572.9604, 145.1240
573.4426, 147.3161
573.9247, 147.9155
574.4068, 144.9805
574.8889, 142.0328
575.3710, 140.7493
575.8531, 141.8459
576.3353, 140.6310
576.8174, 135.6756
577.2995, 130.5459
577.7816, 128.4323
578.2637, 129.4492
578.7458, 133.0965
579.2280, 140.4251
579.7101, 148.2958
580.1922, 150.4280
580.6743, 147.6762
581.1564, 144.8670
581.6385, 144.8603
582.1207, 145.7226
582.6028, 144.4979
583.0849, 141.5114
583.5670, 139.2251
584.0491, 139.1542
584.5313, 140.3288
585.0134, 142.6236
585.4955, 147.2119
585.9776, 148.9601
586.4597, 142.7587
586.9418, 134.6271
587.4240, 131.5966
587.9061, 138.0419
588.3882, 143.0515
588.8703, 145.6667
589.3524, 146.0478
589.8345, 143.7982
590.3167, 137.6863
590.7988, 133.7696
591.2809, 136.0391
591.7630, 142.8918
592.2451, 145.4196
592.7272, 143.4584
593.2094, 141.1860
593.6915, 143.4665
594.1736, 147.6276
594.6557, 147.9444
595.1378, 142.6225
595.6199, 137.1653
596.1021, 136.3555
596.5842, 137.8445
597.0663, 138.2837
597.5485, 135.0014
598.0306, 132.1299
598.5127, 130.7701
598.9948, 130.8569
599.4769, 132.0553
599.9590, 135.7176
600.4412, 138.8468
600.9233, 140.8307
601.4054, 141.7895
601.8875, 139.3373
602.3696, 132.1661
602.8517, 124.8336
603.3339, 121.4060
603.8160, 121.6182
604.2981, 122.7781
604.7802, 124.7074
605.2623, 127.0746
605.7444, 129.3552
606.2266, 131.7246
606.7087, 134.6476
607.1908, 140.4545
607.6729, 144.7085
608.1550, 142.4447
608.6371, 135.4749
609.1193, 129.6105
609.6014, 126.1741
610.0835, 125.3035
610.5656, 128.6995
611.0477, 137.5717
611.5298, 141.3535
612.0120, 136.1226
612.4941, 129.3215
