##NAMES=Tellurium
##RRUFFID=R060136
##IDEAL CHEMISTRY=Te
##LOCALITY=Good Hope mine, Vulcan District, Gunnison County, Colorado, USA
##OWNER=RRUFF
##SOURCE=University of Arizona Mineral Museum
##DESCRIPTION=Steel gray metallic fragment
##STATUS=The identification of this mineral has been confirmed by X-ray diffraction and chemical analysis
##URL=rruff.info/R060136
##MEASURED CHEMISTRY=(Te_0.99_Sb_0.01_)_Î£=1_
89.78156, 0.0000000E+00
90.26367, 15.07178
90.74579, 15.33911
91.22791, 15.27281
91.71002, 14.90082
92.19214, 14.46215
92.67426, 14.08148
93.15638, 13.77603
93.63850, 13.61476
94.12061, 13.78334
94.60273, 14.06785
95.08485, 13.84317
95.56696, 13.04004
96.04908, 12.20988
96.53120, 12.13346
97.01331, 12.77214
97.49543, 13.31954
97.97755, 13.34715
98.45966, 12.88942
98.94178, 12.59243
99.42390, 12.46738
99.90602, 12.49526
100.3881, 12.70563
100.8703, 13.17873
101.3524, 13.55112
101.8345, 13.60752
102.3166, 13.26877
102.7987, 12.94894
103.2808, 12.67725
103.7630, 12.44412
104.2451, 12.22701
104.7272, 12.05139
105.2093, 11.85526
105.6914, 11.56561
106.1735, 10.99930
106.6557, 10.66255
107.1378, 10.68631
107.6199, 11.08372
108.1020, 11.41170
108.5841, 11.65762
109.0662, 11.84260
109.5484, 11.98870
110.0305, 12.05730
110.5126, 12.12709
110.9947, 12.17670
111.4768, 12.16860
111.9590, 12.31810
112.4411, 12.87610
112.9232, 13.54858
113.4053, 13.94107
113.8874, 13.50568
114.3695, 13.17055
114.8517, 13.34918
115.3338, 14.31286
115.8159, 15.21773
116.2980, 15.65198
116.7801, 15.85282
117.2622, 16.33123
117.7444, 17.14393
118.2265, 18.38013
118.7086, 20.07687
119.1907, 22.19365
119.6728, 24.87833
120.1549, 28.42640
120.6371, 32.69512
121.1192, 37.12492
121.6013, 41.43796
122.0834, 45.68536
122.5655, 49.91262
123.0476, 54.25867
123.5298, 58.48048
124.0119, 62.43523
124.4940, 66.11393
124.9761, 69.40331
125.4582, 72.06324
125.9404, 74.24920
126.4225, 76.23933
126.9046, 78.11235
127.3867, 79.86446
127.8688, 81.45967
128.3509, 82.88819
128.8331, 84.25526
129.3152, 85.44602
129.7973, 86.57966
130.2794, 88.21080
130.7615, 90.78942
131.2436, 94.09705
131.7258, 97.18922
132.2079, 99.84525
132.6900, 102.8302
133.1721, 107.4136
133.6542, 113.5918
134.1364, 120.4927
134.6185, 127.4289
135.1006, 134.4925
135.5827, 143.0634
136.0648, 153.2886
136.5469, 165.0896
137.0291, 178.8047
137.5112, 194.8077
137.9933, 210.8132
138.4754, 226.8549
138.9575, 243.7784
139.4396, 254.8048
139.9218, 259.5478
140.4039, 257.7807
140.8860, 246.9016
141.3681, 224.0426
141.8502, 197.2248
142.3323, 172.6703
142.8145, 149.6022
143.2966, 129.9107
143.7787, 114.3566
144.2608, 102.7806
144.7429, 93.27181
145.2250, 86.20078
145.7072, 80.76099
146.1893, 76.21899
146.6714, 72.90090
147.1535, 69.99435
147.6356, 67.29189
148.1178, 64.71183
148.5999, 62.94162
149.0820, 62.37155
149.5641, 62.45756
150.0462, 62.57631
150.5283, 62.87892
151.0105, 63.06232
151.4926, 62.43673
151.9747, 61.35205
152.4568, 60.53603
152.9389, 60.30976
153.4210, 60.29018
153.9032, 59.93339
154.3853, 58.78670
154.8674, 57.66494
155.3495, 56.87347
155.8316, 56.64077
156.3137, 56.21941
156.7959, 55.31240
157.2780, 54.15374
157.7601, 53.18839
158.2422, 52.59559
158.7243, 52.14086
159.2065, 51.67766
159.6886, 51.02348
160.1707, 50.63338
160.6528, 50.93940
161.1349, 51.64502
161.6170, 51.96440
162.0992, 51.31844
162.5813, 50.38005
163.0634, 49.58966
163.5455, 49.11165
164.0276, 48.70225
164.5097, 48.20286
164.9919, 47.66224
165.4740, 47.27370
165.9561, 47.24788
166.4382, 47.36309
166.9203, 47.41454
167.4024, 47.24421
167.8846, 47.09816
168.3667, 47.18061
168.8488, 47.45506
169.3309, 47.68563
169.8130, 47.78993
170.2952, 47.75234
170.7773, 47.54895
171.2594, 46.99793
171.7415, 46.40976
172.2236, 46.04833
172.7057, 45.90267
173.1879, 45.82791
173.6700, 45.80936
174.1521, 45.77861
174.6342, 45.62167
175.1163, 45.10741
175.5984, 44.53360
176.0806, 44.29773
176.5627, 44.39940
177.0448, 44.56505
177.5269, 44.64793
178.0090, 44.61829
178.4911, 44.40493
178.9733, 43.85847
179.4554, 43.15084
179.9375, 42.56054
180.4196, 42.10743
180.9017, 41.66369
181.3838, 41.01210
181.8660, 40.23752
182.3481, 39.61802
182.8302, 39.41014
183.3123, 39.44146
183.7944, 39.32111
184.2766, 39.03011
184.7587, 38.63624
185.2408, 38.23897
185.7229, 37.82473
186.2050, 37.28133
186.6871, 36.43086
187.1693, 35.38046
187.6514, 34.60329
188.1335, 34.14361
188.6156, 33.82621
189.0977, 33.39501
189.5798, 32.85698
190.0620, 32.32324
190.5441, 31.83858
191.0262, 31.40021
191.5083, 30.97472
191.9904, 30.52770
192.4725, 30.14829
192.9547, 30.07163
193.4368, 30.30924
193.9189, 30.45975
194.4010, 30.22139
194.8831, 29.62671
195.3652, 29.19832
195.8474, 28.99997
196.3295, 28.93453
196.8116, 28.82338
197.2937, 28.66498
197.7758, 28.48278
198.2579, 28.26482
198.7401, 28.00839
199.2222, 27.84078
199.7043, 27.79137
200.1864, 27.81395
200.6685, 27.81887
201.1507, 27.81203
201.6328, 27.75774
202.1149, 27.59652
202.5970, 27.30737
203.0791, 27.13357
203.5612, 27.12238
204.0434, 27.21877
204.5255, 27.25338
205.0076, 27.18862
205.4897, 27.19109
205.9718, 27.42692
206.4539, 27.96864
206.9361, 28.28218
207.4182, 28.22356
207.9003, 27.95066
208.3824, 28.03289
208.8645, 28.62494
209.3466, 29.16962
209.8288, 29.27775
210.3109, 28.82508
210.7930, 28.47036
211.2751, 28.24538
211.7572, 28.16528
212.2393, 28.32334
212.7215, 28.81430
213.2036, 29.33064
213.6857, 29.69308
214.1678, 29.89916
214.6499, 29.94012
215.1320, 29.73215
215.6142, 29.36419
216.0963, 29.25366
216.5784, 29.50942
217.0605, 29.81434
217.5426, 29.95806
218.0247, 29.87852
218.5069, 29.81174
218.9890, 29.75352
219.4711, 29.72327
219.9532, 29.84063
220.4353, 30.22053
220.9175, 30.56178
221.3996, 30.65625
221.8817, 30.39256
222.3638, 30.17616
222.8459, 30.07464
223.3280, 30.05200
223.8102, 29.91718
224.2923, 29.57910
224.7744, 29.26421
225.2565, 29.15160
225.7386, 29.40313
226.2207, 29.44851
226.7029, 29.13144
227.1850, 28.55160
227.6671, 28.28753
228.1492, 28.60958
228.6313, 28.86377
229.1134, 28.60153
229.5956, 27.48500
230.0777, 26.60621
230.5598, 26.07232
231.0419, 25.84046
231.5240, 25.70558
232.0062, 25.74747
232.4883, 25.77850
232.9704, 25.67270
233.4525, 25.33806
233.9346, 25.07861
234.4167, 24.97832
234.8989, 24.97911
235.3810, 24.77465
235.8631, 24.13895
236.3452, 23.59153
236.8273, 23.47953
237.3094, 24.15433
237.7916, 24.47674
238.2737, 24.17389
238.7558, 23.45905
239.2379, 23.27694
239.7200, 24.03320
240.2021, 24.77354
240.6843, 24.93551
241.1664, 24.10279
241.6485, 23.61420
242.1306, 23.64860
242.6127, 24.06919
243.0948, 24.35474
243.5770, 24.43626
244.0591, 24.48034
244.5412, 24.57581
245.0233, 24.77044
245.5054, 24.89437
245.9876, 24.82192
246.4697, 24.69121
246.9518, 24.98557
247.4339, 25.98720
247.9160, 26.99564
248.3981, 27.65203
248.8803, 27.79768
249.3624, 27.97432
249.8445, 28.16546
250.3266, 28.39994
250.8087, 28.76019
251.2908, 29.25784
251.7730, 29.85645
252.2551, 30.55847
252.7372, 31.45840
253.2193, 32.21989
253.7014, 32.76577
254.1835, 33.20092
254.6657, 33.76066
255.1478, 34.48499
255.6299, 35.26630
256.1120, 36.08647
256.5941, 36.97714
257.0763, 37.79156
257.5584, 38.54144
258.0405, 39.21739
258.5226, 39.75985
259.0047, 40.07113
259.4868, 40.46162
259.9690, 41.07965
260.4511, 42.00047
260.9332, 42.80443
261.4153, 43.48592
261.8974, 44.06548
262.3795, 44.58811
262.8617, 45.11230
263.3438, 45.44873
263.8259, 45.51403
264.3080, 45.27761
264.7901, 44.96980
265.2722, 44.56990
265.7544, 44.12317
266.2365, 43.69709
266.7186, 43.29403
267.2007, 42.90924
267.6828, 42.56216
268.1649, 42.25425
268.6471, 41.87380
269.1292, 41.40201
269.6113, 40.87727
270.0934, 40.31176
270.5755, 39.65471
271.0576, 39.14772
271.5398, 38.95831
272.0219, 39.06562
272.5040, 38.72771
272.9861, 37.82924
273.4682, 36.74833
273.9503, 35.86780
274.4325, 35.22310
274.9146, 34.59882
275.3967, 33.90594
275.8788, 33.17326
276.3610, 32.75213
276.8431, 32.74900
277.3252, 32.74605
277.8073, 32.29677
278.2894, 31.35551
278.7715, 30.50075
279.2537, 29.85115
279.7358, 29.37009
280.2179, 28.90383
280.7000, 28.45498
281.1821, 28.00328
281.6642, 27.49032
282.1464, 26.91498
282.6285, 26.48132
283.1106, 26.28050
283.5927, 26.19353
284.0748, 25.86658
284.5569, 25.27388
285.0391, 24.65786
285.5212, 24.11987
286.0033, 23.67083
286.4854, 23.50521
286.9675, 23.75998
287.4496, 24.13526
287.9318, 23.94181
288.4139, 23.16808
288.8960, 22.40749
289.3781, 22.03645
289.8602, 21.98648
290.3423, 21.91919
290.8245, 21.80930
291.3066, 21.66592
291.7887, 21.47363
292.2708, 21.24146
292.7529, 21.06205
293.2350, 21.13087
293.7172, 21.30277
294.1993, 21.01688
294.6814, 20.15611
295.1635, 19.26735
295.6456, 19.17403
296.1277, 19.70406
296.6099, 20.12938
297.0920, 19.97252
297.5741, 19.50750
298.0562, 19.29896
298.5383, 19.37313
299.0204, 19.48298
299.5026, 19.37478
299.9847, 19.10818
300.4668, 18.83340
300.9489, 18.50948
301.4311, 18.26655
301.9132, 18.40634
302.3953, 18.91261
302.8774, 19.34743
303.3595, 19.27188
303.8416, 18.89733
304.3238, 18.59245
304.8059, 18.51352
305.2880, 18.52198
305.7701, 18.49094
306.2522, 18.42566
306.7343, 18.36022
307.2165, 18.33373
307.6986, 18.31378
308.1807, 18.25348
308.6628, 18.11051
309.1449, 17.97314
309.6270, 17.92124
310.1092, 17.93284
310.5913, 17.93949
311.0734, 17.94480
311.5555, 17.90629
312.0376, 17.76542
312.5197, 17.46354
313.0019, 17.18961
313.4840, 17.08565
313.9661, 17.08261
314.4482, 17.03817
314.9303, 16.76473
315.4124, 16.52163
315.8946, 16.50750
316.3767, 16.79600
316.8588, 17.05495
317.3409, 17.10356
317.8230, 17.05564
318.3051, 17.06104
318.7873, 17.40816
319.2694, 17.60596
319.7515, 17.30322
320.2336, 16.43143
320.7157, 15.85516
321.1978, 16.11577
321.6800, 16.64754
322.1621, 16.93977
322.6442, 16.70580
323.1263, 16.41409
323.6084, 16.13777
324.0905, 15.88225
324.5727, 15.68527
325.0548, 15.54499
325.5369, 15.47157
326.0190, 15.47188
326.5012, 15.62434
326.9833, 15.76017
327.4654, 15.85833
327.9475, 15.92792
328.4296, 16.00562
328.9117, 16.19902
329.3939, 16.30498
329.8760, 16.22830
330.3581, 15.81412
330.8402, 15.50089
331.3223, 15.32125
331.8044, 15.23109
332.2866, 15.13829
332.7687, 15.00767
333.2508, 14.92747
333.7329, 14.93846
334.2150, 15.06729
334.6971, 15.15925
335.1793, 15.21036
335.6614, 15.22957
336.1435, 15.22812
336.6256, 15.20730
337.1077, 15.16096
337.5898, 15.07485
338.0720, 14.95244
338.5541, 14.87561
339.0362, 14.83742
339.5183, 14.85933
340.0004, 14.99810
340.4825, 15.28565
340.9647, 15.47178
341.4468, 15.50037
341.9289, 15.40676
342.4110, 15.27255
342.8931, 15.08396
343.3752, 14.95092
343.8574, 15.02588
344.3395, 15.28539
344.8216, 15.32765
345.3037, 15.05988
345.7858, 14.66486
346.2679, 14.40726
346.7501, 14.28717
347.2322, 14.34133
347.7143, 14.74999
348.1964, 15.35974
348.6785, 15.64590
349.1607, 15.56057
349.6428, 15.33896
350.1249, 15.22663
350.6070, 15.19502
351.0891, 15.15049
351.5713, 14.99598
352.0534, 14.83621
352.5355, 14.85033
353.0176, 15.03325
353.4997, 15.24758
353.9818, 15.42684
354.4640, 15.55800
354.9461, 15.62922
355.4282, 15.67353
355.9103, 15.60744
356.3924, 15.25843
356.8745, 14.70064
357.3567, 14.23608
357.8388, 14.02795
358.3209, 13.98601
358.8030, 14.06470
359.2851, 14.31826
359.7672, 14.51716
360.2494, 14.51238
360.7315, 14.36912
361.2136, 14.20869
361.6957, 14.02486
362.1778, 13.87612
362.6599, 13.80120
363.1421, 13.81071
363.6242, 13.83160
364.1063, 13.84707
364.5884, 13.86106
365.0705, 13.87746
365.5526, 13.97478
366.0348, 13.99350
366.5169, 13.81545
366.9990, 13.46133
367.4811, 13.28259
367.9632, 13.36456
368.4453, 13.59537
368.9275, 13.92030
369.4096, 14.67072
369.8917, 15.04950
370.3738, 14.83046
370.8559, 14.23737
371.3380, 13.90616
371.8202, 14.01125
372.3023, 14.13794
372.7844, 14.12913
373.2665, 13.95552
373.7487, 13.76100
374.2308, 13.51675
374.7129, 13.28078
375.1950, 13.12012
375.6771, 13.02833
376.1592, 13.04645
376.6414, 13.26510
377.1235, 13.63744
377.6056, 13.62355
378.0877, 13.10660
378.5698, 12.58635
379.0519, 12.61475
379.5341, 13.19674
380.0162, 13.44922
380.4983, 13.10639
380.9804, 12.49092
381.4625, 12.40542
381.9446, 12.83720
382.4268, 13.27399
382.9089, 13.39247
383.3910, 13.26573
383.8731, 13.09985
384.3552, 12.89065
384.8373, 12.74402
385.3195, 12.84174
385.8016, 13.11309
386.2837, 13.35176
386.7658, 13.49751
387.2479, 13.54273
387.7300, 13.40683
388.2122, 13.10112
388.6943, 12.86782
389.1764, 12.98372
389.6585, 13.24629
390.1406, 13.38668
390.6227, 13.22943
391.1049, 13.07604
391.5870, 13.14773
392.0691, 13.38873
392.5512, 13.63108
393.0333, 13.84903
393.5154, 14.00807
393.9976, 14.09652
394.4797, 14.12771
394.9618, 14.03575
395.4439, 13.63313
395.9260, 13.14173
396.4081, 12.85765
396.8903, 13.03998
397.3724, 13.23793
397.8545, 13.31697
398.3366, 13.26779
398.8188, 13.25170
399.3009, 13.38220
399.7830, 13.48056
400.2651, 13.42362
400.7472, 12.97244
401.2293, 12.72992
401.7115, 12.80907
402.1936, 13.10719
402.6757, 13.31295
403.1578, 13.38614
403.6399, 13.43704
404.1220, 13.52925
404.6042, 13.69260
405.0863, 13.71514
405.5684, 13.56217
406.0505, 13.32425
406.5326, 13.11332
407.0147, 12.93182
407.4969, 12.74131
407.9790, 12.47375
408.4611, 12.20008
408.9432, 12.30136
409.4253, 12.81731
409.9074, 13.28782
410.3896, 13.25766
410.8717, 12.84813
411.3538, 12.61633
411.8359, 12.68068
412.3180, 12.86094
412.8001, 12.95866
413.2823, 12.96835
413.7644, 12.87561
414.2465, 12.55017
414.7286, 12.17102
415.2107, 11.98348
415.6928, 12.00363
416.1750, 12.09510
416.6571, 12.22898
417.1392, 12.34992
417.6213, 12.38436
418.1034, 12.23283
418.5855, 12.06761
419.0677, 11.99063
419.5498, 11.98410
420.0319, 11.98459
420.5140, 12.05097
420.9961, 12.05609
421.4782, 11.90023
421.9604, 11.49530
422.4425, 11.13342
422.9246, 10.76317
423.4067, 10.50646
423.8889, 10.52754
424.3710, 11.28216
424.8531, 11.86240
425.3352, 12.00756
425.8173, 11.71759
426.2994, 11.50589
426.7816, 11.38657
427.2637, 11.33340
427.7458, 11.33336
428.2279, 11.39979
428.7100, 11.49471
429.1921, 11.64146
429.6743, 11.79840
430.1564, 11.86654
430.6385, 11.84251
431.1206, 11.74037
431.6027, 11.51652
432.0848, 11.18035
432.5670, 11.01430
433.0491, 11.03865
433.5312, 11.14948
434.0133, 11.26973
434.4954, 11.39186
434.9775, 11.46233
435.4597, 11.46056
435.9418, 11.41014
436.4239, 11.33116
436.9060, 11.23107
437.3881, 11.15306
437.8702, 11.11812
438.3524, 11.12457
438.8345, 11.18433
439.3166, 11.30712
439.7987, 11.42428
440.2808, 11.50158
440.7629, 11.53368
441.2451, 11.51177
441.7272, 11.42280
442.2093, 11.28831
442.6914, 11.06529
443.1735, 10.77939
443.6556, 10.59600
444.1378, 10.65863
444.6199, 10.78650
445.1020, 10.85823
445.5841, 10.78379
446.0662, 10.79436
446.5483, 11.04748
447.0305, 11.37829
447.5126, 11.51022
447.9947, 11.30103
448.4768, 11.05694
448.9590, 10.79064
449.4411, 10.49903
449.9232, 10.45088
450.4053, 10.79995
450.8874, 11.16997
451.3695, 11.23220
451.8517, 10.87192
452.3338, 10.75673
452.8159, 11.07085
453.2980, 11.51531
453.7801, 11.36192
454.2622, 10.56091
454.7444, 9.919562
455.2265, 9.947793
455.7086, 10.45420
456.1907, 10.58180
456.6728, 10.30764
457.1549, 9.966231
457.6371, 9.822627
458.1192, 9.848318
458.6013, 9.992824
459.0834, 10.30202
459.5655, 10.61613
460.0476, 10.76977
460.5298, 10.78621
461.0119, 10.72835
461.4940, 10.51925
461.9761, 10.32383
462.4582, 10.30523
462.9403, 10.49028
463.4225, 10.64210
463.9046, 10.64616
464.3867, 10.56851
464.8688, 10.47172
465.3509, 10.27899
465.8330, 10.17032
466.3152, 10.24173
466.7973, 10.43868
467.2794, 10.56404
467.7615, 10.57942
468.2436, 10.54788
468.7257, 10.47055
469.2079, 10.31979
469.6900, 10.26355
470.1721, 10.36497
470.6542, 10.49229
471.1363, 10.50242
471.6184, 10.37023
472.1006, 10.20833
472.5827, 9.998806
473.0648, 9.795274
473.5469, 9.791439
474.0291, 10.00207
474.5112, 10.23843
474.9933, 10.46836
475.4754, 10.64921
475.9575, 10.49562
476.4396, 9.947898
476.9218, 9.451769
477.4039, 9.623432
477.8860, 10.21154
478.3681, 10.61937
478.8502, 10.54764
479.3323, 10.35424
479.8145, 10.43361
480.2966, 10.70503
480.7787, 10.86885
481.2608, 10.63992
481.7429, 10.34247
482.2250, 10.20507
482.7072, 10.27350
483.1893, 10.38571
483.6714, 10.59096
484.1535, 10.76617
484.6356, 10.78852
485.1177, 10.39773
485.5999, 10.12959
486.0820, 10.15133
486.5641, 10.37457
487.0462, 10.47109
487.5283, 10.35910
488.0104, 10.23043
488.4926, 10.16759
488.9747, 10.19118
489.4568, 10.13693
489.9389, 9.962917
490.4210, 9.787347
490.9031, 9.785902
491.3853, 9.975730
491.8674, 10.02825
492.3495, 9.814180
492.8316, 9.499898
493.3137, 9.524409
493.7958, 9.852027
494.2780, 10.08010
494.7601, 9.780893
495.2422, 9.269308
495.7243, 9.223158
496.2064, 9.689413
496.6885, 10.17282
497.1707, 10.32016
497.6528, 10.23095
498.1349, 10.02174
498.6170, 9.567594
499.0992, 9.232173
499.5813, 9.313798
500.0634, 9.667260
500.5455, 9.935418
501.0276, 9.870609
501.5097, 9.813968
501.9919, 9.969630
502.4740, 10.41306
502.9561, 10.60727
503.4382, 10.30840
503.9203, 9.894948
504.4024, 9.627700
504.8846, 9.620382
505.3667, 9.513814
505.8488, 9.189728
506.3309, 8.817128
506.8130, 8.819806
507.2951, 9.293897
507.7773, 9.711791
508.2594, 9.866557
508.7415, 9.796512
509.2236, 9.695234
509.7057, 9.556646
510.1878, 9.463621
510.6700, 9.554123
511.1521, 9.748102
511.6342, 9.793651
512.1163, 9.628016
512.5984, 9.393759
513.0806, 9.204672
513.5627, 9.059753
514.0448, 8.956962
514.5269, 8.828230
515.0090, 8.796447
515.4911, 9.043954
515.9733, 9.515784
516.4554, 9.840164
516.9375, 9.769650
517.4196, 9.587320
517.9017, 9.453809
518.3839, 9.400020
518.8660, 9.366178
519.3481, 9.400949
519.8302, 9.427154
520.3123, 9.344415
520.7944, 8.996339
521.2766, 8.831214
521.7587, 8.977658
522.2408, 9.348538
522.7229, 9.605729
523.2050, 9.725172
523.6871, 9.820993
524.1693, 9.967414
524.6514, 10.15352
525.1335, 10.27259
525.6156, 10.32529
526.0977, 10.30752
526.5798, 10.20478
527.0620, 10.02706
527.5441, 9.782531
528.0262, 9.413959
528.5083, 9.101989
528.9904, 9.142251
529.4725, 9.400094
529.9547, 9.547499
530.4368, 9.112132
530.9189, 8.759572
531.4010, 9.086254
531.8831, 10.09289
532.3652, 10.81468
532.8474, 10.80139
533.3295, 10.50731
533.8116, 10.20727
534.2937, 9.863796
534.7758, 9.638670
535.2579, 9.638612
535.7401, 9.707705
536.2222, 9.586348
536.7043, 9.087638
537.1864, 8.849086
537.6685, 9.099301
538.1506, 9.703160
538.6328, 10.02339
539.1149, 10.03782
539.5970, 9.925434
540.0791, 9.744561
540.5612, 9.517275
541.0433, 9.351651
541.5255, 9.250639
542.0076, 9.219881
542.4897, 9.315913
542.9718, 9.479970
543.4539, 9.587923
543.9360, 9.567658
544.4182, 9.546454
544.9003, 9.663932
545.3824, 9.855199
545.8645, 9.976165
546.3466, 9.909815
546.8287, 9.812819
547.3109, 9.800818
547.7930, 9.881000
548.2751, 9.793186
548.7572, 9.151373
549.2393, 8.604136
549.7214, 8.533983
550.2036, 9.274110
550.6857, 9.735472
551.1678, 9.852400
551.6499, 9.758033
552.1320, 9.608033
552.6141, 9.388948
553.0963, 9.181306
553.5784, 8.951902
554.0605, 8.790098
554.5426, 9.045156
555.0247, 9.689551
555.5068, 10.22495
555.9890, 10.29209
556.4711, 10.07018
556.9532, 9.801530
557.4353, 9.497723
557.9174, 9.323037
558.3995, 9.586019
558.8817, 9.963007
559.3638, 10.07145
559.8459, 9.663198
560.3281, 9.301434
560.8102, 9.229703
561.2923, 9.345049
561.7744, 9.487412
562.2565, 9.727884
562.7386, 9.880833
563.2208, 9.894449
563.7029, 9.783945
564.1850, 9.646699
564.6671, 9.464706
565.1492, 9.290311
565.6313, 9.141951
566.1135, 9.019015
566.5956, 8.941131
567.0777, 8.904301
567.5598, 8.928875
568.0419, 9.073575
568.5240, 9.310740
569.0062, 9.521074
569.4883, 9.704593
569.9704, 9.790298
570.4525, 9.566779
570.9346, 9.161361
571.4167, 8.911707
571.8989, 9.097318
572.3810, 9.383070
572.8631, 9.527257
573.3452, 9.551298
573.8273, 9.632697
574.3094, 10.04249
574.7916, 10.36581
575.2737, 10.32987
575.7558, 9.741686
576.2379, 9.334514
576.7200, 9.170869
577.2021, 9.158109
577.6843, 9.216514
578.1664, 9.337677
578.6485, 9.579447
579.1306, 10.02591
579.6127, 10.51148
580.0948, 10.70321
580.5770, 10.60098
581.0591, 10.38772
581.5412, 10.06742
582.0233, 9.722152
582.5054, 9.553408
582.9875, 9.545288
583.4697, 9.561381
583.9518, 9.500161
584.4339, 9.421096
584.9160, 9.408145
585.3981, 9.481814
585.8802, 9.508787
