##NAMES=Tellurium
##RRUFFID=R060136
##IDEAL CHEMISTRY=Te
##LOCALITY=Good Hope mine, Vulcan District, Gunnison County, Colorado, USA
##OWNER=RRUFF
##SOURCE=University of Arizona Mineral Museum
##DESCRIPTION=Steel gray metallic fragment
##STATUS=The identification of this mineral has been confirmed by X-ray diffraction and chemical analysis
##URL=rruff.info/R060136
##MEASURED CHEMISTRY=(Te_0.99_Sb_0.01_)_Î£=1_
92.02539, 200.3216
92.50751, 208.3166
92.98962, 213.5491
93.47174, 210.9063
93.95386, 204.6088
94.43597, 196.7788
94.91809, 188.2609
95.40021, 179.5381
95.88232, 171.4810
96.36444, 164.0361
96.84656, 157.3613
97.32867, 151.5799
97.81078, 146.5721
98.29290, 142.1674
98.77502, 138.1480
99.25713, 134.2773
99.73925, 130.8677
100.2214, 127.7460
100.7035, 125.0918
101.1856, 123.0023
101.6677, 121.4438
102.1498, 120.3048
102.6320, 119.4514
103.1141, 118.8535
103.5962, 118.7355
104.0783, 119.2542
104.5604, 120.1606
105.0425, 121.1356
105.5247, 122.0471
106.0068, 123.1383
106.4889, 124.8727
106.9710, 127.2684
107.4531, 129.7817
107.9352, 132.0308
108.4173, 134.1196
108.8995, 136.6625
109.3816, 139.9772
109.8637, 143.8257
110.3458, 147.9482
110.8279, 152.3791
111.3100, 156.9343
111.7922, 161.4349
112.2743, 165.8670
112.7564, 170.2180
113.2385, 174.7122
113.7206, 179.0474
114.2027, 182.9852
114.6849, 186.4127
115.1670, 189.3351
115.6491, 191.7345
116.1312, 194.1110
116.6133, 195.2118
117.0954, 194.8086
117.5776, 193.0541
118.0597, 190.1830
118.5418, 186.3322
119.0239, 181.4868
119.5060, 175.6786
119.9881, 168.6912
120.4703, 161.1721
120.9524, 153.0795
121.4345, 144.5873
121.9166, 136.1207
122.3987, 128.0490
122.8808, 120.4490
123.3630, 113.4726
123.8451, 107.0348
124.3272, 101.2418
124.8093, 96.36629
125.2914, 92.48652
125.7735, 89.19009
126.2557, 86.18239
126.7378, 83.41451
127.2199, 80.81847
127.7020, 78.37100
128.1841, 76.08387
128.6662, 74.03674
129.1483, 72.25635
129.6305, 70.73339
130.1126, 69.42430
130.5947, 68.31780
131.0768, 67.34572
131.5589, 66.42897
132.0410, 65.55119
132.5232, 64.86892
133.0053, 64.53211
133.4874, 64.31084
133.9695, 64.13232
134.4516, 63.96993
134.9337, 63.79879
135.4159, 63.59351
135.8980, 63.41304
136.3801, 63.06093
136.8622, 62.56453
137.3443, 61.90874
137.8264, 61.14500
138.3086, 60.28472
138.7907, 59.20992
139.2728, 57.60951
139.7549, 55.06909
140.2370, 52.43424
140.7191, 49.62376
141.2013, 46.77114
141.6834, 44.04605
142.1655, 41.54012
142.6476, 39.25121
143.1297, 37.20827
143.6118, 35.23966
144.0939, 33.61941
144.5761, 32.57495
145.0582, 32.02854
145.5403, 31.62523
146.0224, 31.21970
146.5045, 30.78824
146.9866, 30.27247
147.4688, 29.52127
147.9509, 28.80975
148.4330, 28.47666
148.9151, 28.58748
149.3972, 28.66362
149.8793, 28.28974
150.3615, 27.72610
150.8436, 27.28703
151.3257, 27.11745
151.8078, 27.12612
152.2899, 27.11996
152.7720, 27.11382
153.2542, 27.05977
153.7363, 26.91114
154.2184, 26.71514
154.7005, 26.53964
155.1826, 26.42376
155.6647, 26.36540
156.1469, 26.34780
156.6290, 26.40073
157.1111, 26.47067
157.5932, 26.61739
158.0753, 26.77584
158.5574, 26.80840
159.0396, 26.57111
159.5217, 26.01323
160.0038, 25.65770
160.4859, 25.70096
160.9680, 25.74021
161.4501, 25.56305
161.9323, 25.19699
162.4144, 24.83626
162.8965, 24.69183
163.3786, 24.83760
163.8607, 24.88859
164.3428, 24.78021
164.8250, 24.63105
165.3071, 24.53920
165.7892, 24.51702
166.2713, 24.48734
166.7534, 24.33826
167.2355, 24.04490
167.7177, 23.82422
168.1998, 23.69651
168.6819, 23.65387
169.1640, 23.72432
169.6461, 23.94398
170.1282, 24.16284
170.6104, 24.19554
171.0925, 24.06734
171.5746, 23.84940
172.0567, 23.47740
172.5388, 23.02633
173.0209, 22.73357
173.5031, 22.71728
173.9852, 22.77109
174.4673, 22.67225
174.9494, 22.44046
175.4315, 22.26583
175.9136, 22.37881
176.3958, 22.76334
176.8779, 22.90924
177.3600, 22.45577
177.8421, 21.98224
178.3242, 21.86161
178.8063, 22.08779
179.2885, 22.37812
179.7706, 22.45907
180.2527, 22.30967
180.7348, 22.03030
181.2169, 21.41465
181.6990, 20.83015
182.1812, 20.50903
182.6633, 20.46937
183.1454, 20.54104
183.6275, 20.47147
184.1096, 20.12876
184.5917, 19.92885
185.0738, 20.03283
185.5560, 20.14888
186.0381, 19.99185
186.5202, 19.52100
187.0023, 19.00327
187.4844, 18.91405
187.9665, 19.77619
188.4487, 20.23706
188.9308, 20.09778
189.4129, 19.67456
189.8950, 19.19092
190.3771, 18.72761
190.8592, 18.34099
191.3414, 18.16744
191.8235, 18.40019
192.3056, 18.47999
192.7877, 18.17858
193.2698, 17.73877
193.7519, 17.49969
194.2341, 17.59659
194.7162, 17.88056
195.1983, 18.06505
195.6804, 18.15201
196.1625, 18.18822
196.6446, 18.19129
197.1268, 18.15390
197.6089, 18.03891
198.0910, 17.79261
198.5731, 17.52978
199.0552, 17.43218
199.5373, 17.51181
200.0195, 17.64052
200.5016, 17.79753
200.9837, 17.96412
201.4658, 18.03450
201.9479, 17.92855
202.4300, 17.75681
202.9122, 17.64314
203.3943, 17.59259
203.8764, 17.57236
204.3585, 17.56313
204.8406, 17.56483
205.3227, 17.56922
205.8048, 17.57787
206.2870, 17.58604
206.7691, 17.57703
207.2512, 17.55026
207.7333, 17.54813
208.2154, 17.65310
208.6975, 17.90275
209.1797, 18.03456
209.6618, 17.81211
210.1439, 17.58777
210.6260, 17.60727
211.1081, 17.89392
211.5902, 18.22614
212.0724, 18.28649
212.5545, 17.94576
213.0366, 17.72475
213.5187, 17.75523
214.0008, 17.83802
214.4829, 17.81906
214.9651, 17.68360
215.4472, 17.56470
215.9293, 17.71863
216.4114, 18.51697
216.8935, 18.78306
217.3756, 18.11501
217.8578, 17.29248
218.3399, 16.83419
218.8220, 16.85922
219.3041, 17.15311
219.7862, 17.40532
220.2683, 17.65164
220.7505, 17.76450
221.2326, 17.61453
221.7147, 17.42686
222.1968, 17.40763
222.6789, 17.59391
223.1610, 17.83239
223.6432, 17.89086
224.1253, 17.63622
224.6074, 17.46348
225.0895, 17.44030
225.5716, 17.45996
226.0537, 17.42645
226.5358, 17.31730
227.0180, 17.17357
227.5001, 17.04626
227.9822, 16.93116
228.4643, 16.85527
228.9464, 16.78007
229.4285, 16.76375
229.9107, 16.95746
230.3928, 17.40599
230.8749, 17.79955
231.3570, 17.63791
231.8391, 16.85114
232.3212, 16.30177
232.8034, 16.24592
233.2855, 16.45336
233.7676, 16.68181
234.2497, 16.90533
234.7318, 17.04815
235.2139, 16.92980
235.6961, 16.58953
236.1782, 16.39586
236.6603, 16.57052
237.1424, 16.90847
237.6245, 17.04435
238.1066, 16.86083
238.5888, 16.72545
239.0709, 17.20995
239.5530, 18.09057
240.0351, 18.60885
240.5172, 18.13637
240.9993, 17.20758
241.4815, 16.94140
241.9636, 17.65006
242.4457, 18.37515
242.9278, 18.26075
243.4099, 17.63876
243.8920, 17.18320
244.3742, 17.28551
244.8563, 17.72997
245.3384, 18.02328
245.8205, 18.11761
246.3026, 18.16281
246.7847, 18.34172
247.2668, 18.52344
247.7490, 18.46106
248.2311, 17.91177
248.7132, 17.11178
249.1953, 16.64800
249.6774, 16.64506
250.1595, 16.74620
250.6417, 16.89599
251.1238, 17.02138
251.6059, 17.00375
252.0880, 16.74727
252.5701, 16.36782
253.0522, 16.15728
253.5344, 16.17869
254.0165, 16.25858
254.4986, 16.40186
254.9807, 16.54362
255.4628, 16.61714
255.9449, 16.59408
256.4271, 16.48421
256.9092, 16.28596
257.3913, 15.89547
257.8734, 15.62254
258.3555, 15.58113
258.8376, 15.63750
259.3198, 15.67104
259.8019, 15.63482
260.2840, 15.55940
260.7661, 15.50566
261.2482, 15.47230
261.7303, 15.46697
262.2125, 15.49100
262.6946, 15.53663
263.1767, 15.62026
263.6588, 15.74164
264.1409, 15.84653
264.6230, 15.82805
265.1052, 15.59327
265.5873, 15.41314
266.0694, 15.31276
266.5515, 15.25323
267.0336, 15.22339
267.5157, 15.21355
267.9979, 15.19776
268.4800, 15.12861
268.9621, 14.94627
269.4442, 14.84580
269.9263, 14.89869
270.4084, 14.96447
270.8906, 14.96359
271.3727, 14.88015
271.8548, 14.73016
272.3369, 14.50850
272.8190, 14.12610
273.3011, 13.99289
273.7833, 14.38025
274.2654, 14.74227
274.7475, 14.72907
275.2296, 14.36136
275.7117, 13.90768
276.1938, 13.63409
276.6760, 13.57579
277.1581, 13.48551
277.6402, 13.22658
278.1223, 13.06586
278.6044, 13.22794
279.0865, 13.62556
279.5686, 13.96907
280.0508, 14.02647
280.5329, 13.79386
281.0150, 13.47111
281.4971, 12.86987
281.9792, 12.38475
282.4613, 12.21832
282.9435, 12.28962
283.4256, 12.40249
283.9077, 12.43775
284.3898, 12.39934
284.8719, 12.31792
285.3540, 12.16416
285.8362, 12.00735
286.3183, 11.87859
286.8004, 11.75791
287.2825, 11.57118
287.7646, 11.25901
288.2467, 10.91818
288.7289, 10.90151
289.2110, 11.70034
289.6931, 12.19466
290.1752, 11.97731
290.6573, 11.41341
291.1394, 11.02171
291.6216, 11.00652
292.1037, 11.19995
292.5858, 11.25952
293.0679, 11.10642
293.5500, 10.97120
294.0321, 10.84483
294.5143, 10.76059
294.9964, 10.79403
295.4785, 10.96429
295.9606, 11.13827
296.4427, 11.09159
296.9248, 10.65603
297.4070, 10.54509
297.8891, 11.18518
298.3712, 11.92006
298.8533, 12.08260
299.3354, 11.60001
299.8175, 10.98969
300.2997, 10.77721
300.7818, 11.04497
301.2639, 11.23373
301.7460, 11.31731
302.2281, 11.34361
302.7102, 11.30950
303.1924, 11.23170
303.6745, 11.19591
304.1566, 11.28841
304.6387, 11.49620
305.1208, 11.58124
305.6029, 11.48120
306.0851, 11.33348
306.5672, 11.16963
307.0493, 11.00803
307.5314, 10.90270
308.0135, 10.89637
308.4956, 10.96017
308.9778, 10.96696
309.4599, 10.90772
309.9420, 10.81608
310.4241, 10.66166
310.9062, 10.48527
311.3883, 10.38502
311.8705, 10.41497
312.3526, 10.49853
312.8347, 10.44966
313.3168, 10.19119
313.7989, 10.00371
314.2810, 9.984011
314.7632, 10.05160
315.2453, 10.10387
315.7274, 10.11310
316.2095, 10.10276
316.6916, 10.09870
317.1737, 10.09552
317.6559, 10.12783
318.1380, 10.24160
318.6201, 10.36652
319.1022, 10.44413
319.5843, 10.46583
320.0664, 10.44567
320.5485, 10.40721
321.0306, 10.34719
321.5128, 10.17001
321.9949, 9.603032
322.4770, 9.148701
322.9591, 9.277238
323.4412, 9.877447
323.9233, 10.36032
324.4055, 10.30985
324.8876, 9.804058
325.3697, 9.451321
325.8518, 9.263730
326.3339, 9.184925
326.8160, 9.265330
327.2982, 9.437663
327.7803, 9.542312
328.2624, 9.489858
328.7445, 9.364857
329.2266, 9.408950
329.7087, 9.744658
330.1909, 10.00353
330.6730, 10.12176
331.1551, 10.12394
331.6372, 10.00136
332.1193, 9.749027
332.6014, 9.481091
333.0836, 9.367455
333.5657, 9.474401
334.0478, 9.552594
334.5299, 9.625077
335.0120, 9.646058
335.4941, 9.527577
335.9763, 9.281224
336.4584, 9.068273
336.9405, 9.059886
337.4226, 9.282363
337.9047, 9.366611
338.3868, 9.158091
338.8690, 8.973184
339.3511, 9.027607
339.8332, 9.254793
340.3153, 9.420342
340.7974, 9.362113
341.2795, 9.129224
341.7617, 9.040976
342.2438, 9.171492
342.7259, 9.334683
343.2080, 9.571850
343.6901, 9.796825
344.1722, 9.847210
344.6544, 9.651385
345.1365, 9.345246
345.6186, 9.215389
346.1007, 9.504208
346.5828, 9.598932
347.0649, 9.355941
347.5471, 8.998973
348.0292, 8.659267
348.5113, 8.389968
348.9934, 8.274858
349.4755, 8.447665
349.9576, 9.028916
350.4398, 9.396688
350.9219, 9.447041
351.4040, 9.415789
351.8861, 9.384859
352.3682, 9.374968
352.8503, 9.403245
353.3325, 9.490035
353.8146, 9.628048
354.2967, 9.702114
354.7788, 9.624496
355.2609, 9.583142
355.7430, 9.686283
356.2252, 9.831576
356.7073, 9.874893
357.1894, 9.747052
357.6715, 9.489293
358.1536, 9.197436
358.6357, 8.808805
359.1179, 8.484871
359.5999, 8.146739
360.0821, 7.920806
360.5642, 7.970885
361.0463, 8.298439
361.5284, 8.704886
362.0105, 8.951238
362.4926, 9.016320
362.9748, 8.995319
363.4569, 8.814542
363.9390, 8.622927
364.4211, 8.447721
364.9032, 8.312551
365.3853, 8.261086
365.8675, 8.336091
366.3496, 8.523576
366.8317, 8.696472
367.3138, 8.950143
367.7959, 9.053625
368.2780, 8.869464
368.7602, 8.546035
369.2423, 8.236841
369.7244, 8.004892
370.2065, 7.875722
370.6886, 7.937438
371.1707, 8.312832
371.6529, 8.566308
372.1350, 8.519398
372.6171, 8.423598
373.0992, 8.480311
373.5813, 8.697956
374.0634, 8.889640
374.5456, 8.813312
375.0277, 8.450591
375.5098, 8.230982
375.9919, 8.277167
376.4740, 8.352218
376.9561, 8.300887
377.4383, 8.190486
377.9204, 8.200293
378.4025, 8.530938
378.8846, 8.996570
379.3667, 9.001665
379.8488, 8.307924
380.3310, 7.773285
380.8131, 7.975293
381.2952, 8.406827
381.7773, 8.511950
382.2594, 8.094718
382.7415, 7.590759
383.2237, 7.523585
383.7058, 7.889676
384.1879, 8.170138
384.6700, 8.203379
385.1521, 8.145274
385.6342, 8.128898
386.1164, 8.154905
386.5985, 8.207102
387.0806, 8.282138
387.5627, 8.376165
388.0448, 8.517519
388.5269, 8.755091
389.0091, 8.879864
389.4912, 8.612982
389.9733, 8.116649
390.4554, 7.745043
390.9375, 7.613486
391.4196, 7.591658
391.9018, 7.547654
392.3839, 7.493426
392.8660, 7.554672
393.3481, 7.835372
393.8302, 8.218983
394.3123, 8.493505
394.7945, 8.675752
395.2766, 8.722808
395.7587, 8.556366
396.2408, 8.258336
396.7229, 7.932198
397.2050, 7.586596
397.6872, 7.321912
398.1693, 7.273862
398.6514, 7.466586
399.1335, 7.619032
399.6156, 7.711281
400.0977, 7.767421
400.5798, 7.815778
401.0620, 7.847901
401.5441, 7.813443
402.0262, 7.665547
402.5083, 7.438694
402.9904, 7.313139
403.4725, 7.340223
403.9547, 7.387717
404.4368, 7.393042
404.9189, 7.419646
405.4010, 7.619768
405.8831, 8.025401
406.3652, 8.394482
406.8474, 8.331845
407.3295, 7.561206
407.8116, 7.171406
408.2937, 7.507153
408.7758, 7.872324
409.2579, 7.805126
409.7401, 7.397305
410.2222, 7.055352
410.7043, 7.089034
411.1864, 7.449295
411.6685, 7.702225
412.1506, 7.804740
412.6328, 7.839980
413.1149, 7.751735
413.5970, 7.634489
414.0791, 7.625074
414.5612, 7.762765
415.0433, 7.904603
415.5255, 7.772031
416.0076, 7.210402
416.4897, 6.910021
416.9718, 7.152891
417.4539, 7.465263
417.9360, 7.675664
418.4182, 7.766561
418.9003, 7.755589
419.3824, 7.613896
419.8645, 7.385626
420.3466, 7.270540
420.8287, 7.302465
421.3109, 7.381625
421.7930, 7.565950
422.2751, 7.732440
422.7572, 7.717090
423.2393, 7.453658
423.7214, 7.106603
424.2036, 6.779151
424.6857, 6.479833
425.1678, 6.439872
425.6499, 6.880304
426.1320, 7.385022
426.6141, 7.555845
427.0963, 7.428528
427.5784, 7.271739
428.0605, 7.190317
428.5426, 7.150340
429.0247, 7.069538
429.5068, 6.934817
429.9890, 6.911312
430.4711, 7.182290
430.9532, 7.626126
431.4353, 7.847483
431.9174, 7.747056
432.3995, 7.569939
432.8817, 7.388760
433.3638, 7.224118
433.8459, 7.120061
434.3280, 7.091728
434.8101, 7.123191
435.2922, 7.214356
435.7744, 7.404353
436.2565, 7.475545
436.7386, 7.314614
437.2207, 7.117308
437.7028, 7.008536
438.1849, 6.990010
438.6671, 7.019549
439.1492, 7.074224
439.6313, 7.147611
440.1134, 7.200529
440.5955, 7.219928
441.0776, 7.234622
441.5598, 7.277534
442.0418, 7.302064
442.5240, 7.241825
443.0061, 7.088183
443.4882, 6.909680
443.9703, 6.788904
444.4524, 6.722817
444.9345, 6.728522
445.4167, 6.938521
445.8988, 7.089541
446.3809, 7.016401
446.8630, 6.820626
447.3451, 6.713144
447.8272, 6.829917
448.3094, 7.069360
448.7915, 7.177994
449.2736, 7.130814
449.7557, 7.022593
450.2378, 6.757971
450.7199, 6.519126
451.2021, 6.458291
451.6842, 6.585494
452.1663, 6.762636
452.6484, 6.872432
453.1305, 6.938710
453.6126, 7.114710
454.0948, 7.523560
454.5769, 7.765657
455.0590, 7.310250
455.5411, 6.531281
456.0232, 6.115621
456.5053, 6.436474
456.9875, 6.856059
457.4696, 6.764787
457.9517, 6.281270
458.4338, 5.955712
458.9159, 5.989814
459.3980, 6.218689
459.8802, 6.433621
460.3623, 6.645190
460.8444, 6.778021
461.3265, 6.761467
461.8086, 6.698658
462.2907, 6.667025
462.7729, 6.675733
463.2550, 6.721153
463.7371, 6.803280
464.2192, 6.918970
464.7013, 7.054332
465.1834, 7.390709
465.6656, 7.516488
466.1477, 7.151689
466.6298, 6.658936
467.1119, 6.460147
467.5940, 6.636765
468.0761, 6.934701
468.5583, 7.050906
469.0404, 6.955997
469.5225, 6.873341
470.0046, 6.740607
470.4867, 6.686771
470.9688, 6.844946
471.4510, 7.089763
471.9331, 7.222758
472.4152, 7.148519
472.8973, 6.929104
473.3794, 6.619625
473.8615, 6.140371
474.3437, 5.915039
474.8258, 6.265974
475.3079, 6.705007
475.7900, 6.991507
476.2721, 7.101891
476.7542, 7.046694
477.2364, 6.635781
477.7185, 6.102063
478.2006, 6.064545
478.6827, 6.620168
479.1648, 7.096908
479.6469, 7.071544
480.1291, 6.783001
480.6112, 6.687483
481.0933, 6.885495
481.5754, 7.047313
482.0575, 6.936643
482.5396, 6.692635
483.0217, 6.572762
483.5038, 6.629411
483.9860, 6.782564
484.4681, 6.999085
484.9502, 7.278603
485.4323, 7.357870
485.9144, 7.069168
486.3965, 6.771911
486.8787, 6.568908
487.3608, 6.472693
487.8429, 6.539305
488.3250, 6.790394
488.8071, 7.073429
489.2892, 7.100916
489.7714, 6.715551
490.2535, 6.458523
490.7356, 6.357277
491.2177, 6.335816
491.6998, 6.451212
492.1819, 6.615363
492.6641, 6.608180
493.1462, 6.245183
493.6283, 5.717215
494.1104, 5.651360
494.5925, 6.300530
495.0746, 6.724032
495.5568, 6.421255
496.0389, 6.008782
496.5210, 5.932104
497.0031, 6.212407
497.4852, 6.547015
497.9673, 6.780773
498.4495, 6.902947
498.9316, 6.832427
499.4137, 6.515112
499.8958, 6.248146
500.3779, 6.232477
500.8600, 6.373389
501.3422, 6.460727
501.8243, 6.442209
502.3064, 6.461281
502.7885, 6.681097
503.2706, 6.964282
503.7527, 7.050908
504.2349, 6.883105
504.7170, 6.598890
505.1991, 6.308990
505.6812, 6.008672
506.1633, 5.816960
506.6454, 5.714054
507.1276, 5.726812
507.6097, 5.966861
508.0918, 6.299913
508.5739, 6.531346
509.0560, 6.588101
509.5381, 6.517471
510.0203, 6.368509
510.5024, 6.074638
510.9845, 5.930996
511.4666, 6.050609
511.9487, 6.209478
512.4308, 6.417125
512.9130, 6.588523
513.3951, 6.554275
513.8772, 6.192421
514.3593, 5.691228
514.8414, 5.367035
515.3235, 5.220408
515.8057, 5.252298
516.2878, 5.610239
516.7699, 6.004437
517.2520, 6.203786
517.7341, 6.219551
518.2162, 6.155006
518.6984, 5.954870
519.1805, 5.754022
519.6626, 5.768712
520.1447, 5.984036
520.6268, 6.158838
521.1089, 6.170807
521.5911, 6.082584
522.0732, 6.028442
522.5553, 6.001168
523.0374, 6.016394
523.5195, 6.129090
524.0016, 6.248959
524.4838, 6.260161
524.9659, 6.185023
525.4480, 6.173976
525.9301, 6.348387
526.4122, 6.657802
526.8943, 6.846681
527.3765, 6.894073
527.8586, 6.834023
528.3407, 6.532532
528.8228, 6.226157
529.3049, 6.162886
529.7870, 6.330575
530.2692, 6.461236
530.7513, 6.238761
531.2334, 5.766300
531.7155, 5.706407
532.1976, 6.246982
532.6797, 6.762788
533.1619, 7.034356
533.6440, 7.124189
534.1261, 7.026917
534.6082, 6.710708
535.0903, 6.453969
535.5724, 6.477129
536.0546, 6.680062
536.5367, 6.853544
537.0188, 6.970674
537.5009, 7.084846
537.9830, 7.245138
538.4651, 7.434714
538.9473, 7.561147
539.4294, 7.700392
539.9115, 7.689453
540.3936, 7.322567
540.8757, 6.855582
541.3578, 6.626147
541.8400, 6.687559
542.3221, 6.831459
542.8042, 6.842277
543.2863, 6.716803
543.7684, 6.657875
544.2505, 6.705922
544.7326, 6.777091
545.2147, 6.882375
545.6968, 6.989381
546.1790, 7.072321
546.6611, 7.122576
547.1432, 7.127820
547.6253, 7.083258
548.1074, 6.986158
548.5895, 6.766910
549.0717, 6.305354
549.5538, 5.975569
550.0359, 6.136591
550.5180, 6.539863
551.0001, 6.837875
551.4822, 6.982408
551.9644, 6.996144
552.4465, 6.801629
552.9286, 6.503860
553.4107, 6.312634
553.8928, 6.268781
554.3749, 6.326830
554.8571, 6.474528
555.3392, 6.706646
555.8213, 6.818198
556.3034, 6.772995
556.7855, 6.671552
557.2676, 6.435156
557.7498, 6.206125
558.2319, 6.215384
558.7140, 6.483218
559.1961, 6.741556
559.6782, 6.660731
560.1603, 6.235303
560.6425, 6.005476
561.1246, 6.100082
561.6067, 6.211437
562.0888, 6.244841
562.5709, 6.241389
563.0530, 6.272695
563.5352, 6.359523
564.0173, 6.371715
564.4994, 6.114377
564.9815, 5.689447
565.4636, 5.438984
565.9457, 5.409679
566.4279, 5.475782
566.9100, 5.565160
567.3921, 5.687208
567.8742, 5.870462
568.3563, 6.214080
568.8384, 6.454208
569.3206, 6.508307
569.8027, 6.406671
570.2848, 6.079713
570.7669, 5.575289
571.2490, 5.208395
571.7311, 5.286393
572.2133, 5.756401
572.6954, 6.030609
573.1775, 5.903470
573.6596, 5.859427
574.1417, 6.067220
574.6238, 6.308478
575.1060, 6.383496
575.5881, 6.277048
576.0702, 6.121351
576.5523, 6.026226
577.0344, 5.969769
577.5165, 5.852255
577.9987, 5.646563
578.4808, 5.496327
578.9629, 5.439264
579.4450, 5.494195
579.9271, 5.730197
580.4092, 6.194808
580.8914, 6.506057
581.3735, 6.406988
581.8556, 6.152365
582.3377, 5.996495
582.8198, 5.957105
583.3019, 5.998476
583.7841, 6.115449
584.2662, 6.261817
584.7483, 6.314031
585.2304, 6.291614
585.7125, 6.128419
586.1946, 5.645978
586.6768, 5.188301
587.1589, 4.907619
587.6410, 4.834892
588.1231, 5.022380
