##NAMES=Tellurite
##RRUFFID=R050285
##IDEAL CHEMISTRY=Te^4+^O_2_
##LOCALITY=Mina Bambollita, Moctezuma, Sonora, Mexico
##OWNER=RRUFF
##SOURCE=Marcus Origlieri
##DESCRIPTION=Orange acicular crystals filling a fracture
##STATUS=The identification of this mineral is confirmed by single-crystal X-ray diffraction and chemical analysis.
##URL=rruff.info/R050285
##MEASURED CHEMISTRY=Te_1.00_O_2_ 
92.35352, 54.84963
92.83563, 52.48508
93.31775, 51.47905
93.79987, 52.24751
94.28198, 54.43017
94.76410, 56.98053
95.24622, 59.58311
95.72833, 62.54694
96.21045, 66.09536
96.69257, 70.17760
97.17468, 75.79800
97.65680, 83.54843
98.13892, 93.45469
98.62103, 105.7887
99.10315, 119.5915
99.58527, 135.5085
100.0674, 157.5187
100.5495, 185.5649
101.0316, 219.4423
101.5137, 258.6089
101.9958, 303.6032
102.4780, 352.9529
102.9601, 406.6715
103.4422, 465.4379
103.9243, 524.2092
104.4064, 584.8513
104.8885, 644.6477
105.3707, 700.0826
105.8528, 749.8547
106.3349, 796.3990
106.8170, 840.1403
107.2991, 880.7125
107.7813, 919.1095
108.2634, 953.9846
108.7455, 986.6686
109.2276, 1020.336
109.7097, 1054.364
110.1918, 1090.169
110.6740, 1128.399
111.1561, 1163.772
111.6382, 1207.524
112.1203, 1261.389
112.6024, 1325.101
113.0845, 1394.142
113.5667, 1459.677
114.0488, 1534.441
114.5309, 1627.894
115.0130, 1742.398
115.4951, 1874.889
115.9772, 2021.609
116.4594, 2184.087
116.9415, 2372.803
117.4236, 2592.516
117.9057, 2840.364
118.3878, 3112.083
118.8699, 3425.046
119.3521, 3750.618
119.8342, 4092.146
120.3163, 4454.688
120.7984, 4776.904
121.2805, 5040.285
121.7626, 5236.864
122.2448, 5353.031
122.7269, 5379.121
123.2090, 5323.281
123.6911, 5184.930
124.1732, 4956.699
124.6553, 4676.521
125.1375, 4348.255
125.6196, 3988.594
126.1017, 3650.362
126.5838, 3348.834
127.0659, 3092.231
127.5480, 2895.713
128.0302, 2764.866
128.5123, 2683.633
128.9944, 2635.670
129.4765, 2620.315
129.9586, 2631.364
130.4407, 2670.867
130.9229, 2734.972
131.4050, 2808.536
131.8871, 2886.652
132.3692, 2972.385
132.8513, 3070.261
133.3334, 3175.072
133.8156, 3279.147
134.2977, 3388.650
134.7798, 3514.354
135.2619, 3644.050
135.7440, 3775.016
136.2261, 3906.760
136.7083, 4049.794
137.1904, 4206.185
137.6725, 4368.716
138.1546, 4530.909
138.6367, 4691.966
139.1188, 4860.623
139.6010, 5038.851
140.0831, 5225.800
140.5652, 5430.503
141.0473, 5653.112
141.5294, 5895.503
142.0115, 6154.165
142.4937, 6424.455
142.9758, 6725.512
143.4579, 7066.078
143.9400, 7445.598
144.4221, 7857.831
144.9042, 8308.096
145.3864, 8787.838
145.8685, 9279.004
146.3506, 9837.209
146.8327, 10339.07
147.3148, 10762.33
147.7969, 11148.79
148.2791, 11360.89
148.7612, 11384.01
149.2433, 11239.24
149.7254, 10966.72
150.2075, 10478.04
150.6896, 9942.229
151.1718, 9420.518
151.6539, 8875.397
152.1360, 8396.564
152.6181, 8001.271
153.1002, 7674.772
153.5823, 7375.368
154.0645, 7147.259
154.5466, 6907.661
155.0287, 6619.165
155.5108, 6259.717
155.9929, 5867.535
156.4750, 5431.285
156.9572, 4961.767
157.4393, 4512.786
157.9214, 4075.121
158.4035, 3668.787
158.8856, 3304.819
159.3677, 2984.853
159.8499, 2706.257
160.3320, 2478.242
160.8141, 2296.568
161.2962, 2137.445
161.7783, 1997.347
162.2604, 1875.489
162.7426, 1771.204
163.2247, 1688.957
163.7068, 1619.898
164.1889, 1561.054
164.6710, 1512.721
165.1531, 1472.913
165.6353, 1441.827
166.1174, 1418.385
166.5995, 1401.428
167.0816, 1390.453
167.5637, 1385.800
168.0458, 1387.800
168.5280, 1396.409
169.0101, 1411.124
169.4922, 1432.732
169.9743, 1459.866
170.4564, 1490.539
170.9385, 1527.911
171.4207, 1566.095
171.9028, 1601.788
172.3849, 1634.886
172.8670, 1661.113
173.3491, 1680.240
173.8312, 1690.378
174.3134, 1687.832
174.7955, 1667.926
175.2776, 1635.906
175.7597, 1597.727
176.2418, 1553.383
176.7239, 1502.535
177.2061, 1442.154
177.6882, 1373.567
178.1703, 1301.692
178.6524, 1221.867
179.1345, 1141.073
179.6166, 1072.129
180.0988, 1015.455
180.5809, 968.3158
181.0630, 929.0394
181.5451, 896.6787
182.0272, 869.1543
182.5093, 844.4738
182.9915, 823.4979
183.4736, 808.8180
183.9557, 800.6405
184.4378, 797.9919
184.9199, 801.2017
185.4020, 809.5975
185.8842, 818.9155
186.3663, 826.3706
186.8484, 832.7472
187.3305, 841.1784
187.8126, 852.7142
188.2947, 864.4606
188.7769, 873.3615
189.2590, 879.3120
189.7411, 879.7293
190.2232, 871.1478
190.7053, 854.8431
191.1874, 838.7849
191.6696, 823.4656
192.1517, 808.5760
192.6338, 793.2880
193.1159, 777.5724
193.5980, 762.2257
194.0801, 747.6307
194.5623, 733.8403
195.0444, 720.9877
195.5265, 709.5824
196.0086, 698.5596
196.4907, 685.4730
196.9728, 670.1313
197.4550, 654.3102
197.9371, 638.5055
198.4192, 622.6832
198.9013, 608.4766
199.3834, 595.4316
199.8655, 584.6994
200.3477, 579.6836
200.8298, 581.2443
201.3119, 584.7733
201.7940, 587.7550
202.2761, 590.1402
202.7582, 592.5015
203.2404, 594.7151
203.7225, 597.0696
204.2046, 600.5608
204.6867, 605.5007
205.1688, 610.5422
205.6509, 614.9713
206.1331, 618.8750
206.6152, 621.8033
207.0973, 623.6968
207.5794, 624.6083
208.0615, 624.8121
208.5436, 624.5261
209.0258, 622.9529
209.5079, 619.2057
209.9900, 612.7094
210.4721, 606.7692
210.9542, 601.5236
211.4363, 597.0453
211.9185, 594.0640
212.4006, 593.6770
212.8827, 592.3671
213.3648, 587.5123
213.8469, 577.7122
214.3290, 569.4615
214.8112, 563.8249
215.2933, 559.9738
215.7754, 554.6991
216.2575, 547.5536
216.7396, 539.7925
217.2217, 531.9838
217.7038, 523.7650
218.1860, 516.6535
218.6681, 510.8212
219.1502, 506.1935
219.6323, 502.7629
220.1144, 501.0929
220.5965, 499.7128
221.0787, 497.7275
221.5608, 494.7138
222.0429, 492.2673
222.5250, 490.5003
223.0071, 489.3761
223.4892, 488.5794
223.9714, 487.1535
224.4535, 487.5465
224.9356, 491.3927
225.4177, 500.1487
225.8998, 508.8246
226.3819, 517.0892
226.8641, 525.1530
227.3462, 533.4904
227.8283, 542.2584
228.3104, 551.0360
228.7925, 559.8390
229.2746, 570.2206
229.7568, 577.1959
230.2389, 579.7669
230.7210, 579.0107
231.2031, 578.5858
231.6852, 580.4121
232.1673, 579.7404
232.6495, 574.0648
233.1316, 561.8102
233.6137, 548.0547
234.0958, 533.0280
234.5779, 516.6982
235.0600, 499.0023
235.5422, 478.6532
236.0243, 458.5115
236.5064, 439.9124
236.9885, 423.8358
237.4706, 407.0541
237.9527, 389.0578
238.4349, 370.6917
238.9170, 354.2700
239.3991, 340.2057
239.8812, 327.4627
240.3633, 315.5675
240.8454, 304.2684
241.3276, 294.5390
241.8097, 287.0766
242.2918, 281.0529
242.7739, 274.7234
243.2560, 267.7328
243.7381, 260.9841
244.2203, 254.7932
244.7024, 249.1727
245.1845, 244.0859
245.6666, 239.5784
246.1487, 235.5939
246.6308, 231.9677
247.1130, 228.8437
247.5951, 225.8260
248.0772, 222.7602
248.5593, 219.4995
249.0414, 216.7396
249.5235, 214.9544
250.0057, 213.3726
250.4878, 210.5033
250.9699, 205.2957
251.4520, 200.6640
251.9341, 197.7316
252.4162, 196.8975
252.8984, 195.6958
253.3805, 194.0176
253.8626, 192.0397
254.3447, 190.0481
254.8268, 187.9612
255.3089, 185.9561
255.7911, 184.0049
256.2732, 182.0243
256.7553, 180.7932
257.2374, 180.7251
257.7195, 180.9971
258.2017, 180.5213
258.6838, 178.8654
259.1659, 177.4610
259.6480, 176.8259
260.1301, 177.0220
260.6122, 176.3989
261.0944, 174.5115
261.5765, 172.3514
262.0586, 171.0177
262.5407, 170.8137
263.0228, 170.5874
263.5049, 169.9865
263.9871, 169.0434
264.4692, 168.7742
264.9513, 169.4604
265.4334, 170.3670
265.9155, 170.6950
266.3976, 170.0871
266.8798, 170.1050
267.3619, 171.1411
267.8440, 173.0847
268.3261, 174.9666
268.8082, 176.7315
269.2903, 178.5410
269.7725, 180.5399
270.2546, 182.7516
270.7367, 184.9402
271.2188, 187.1130
271.7009, 189.2080
272.1830, 190.9298
272.6652, 192.1192
273.1473, 193.3353
273.6294, 194.9977
274.1115, 197.1690
274.5936, 199.3947
275.0757, 201.6088
275.5579, 203.8808
276.0400, 206.3409
276.5221, 208.9902
277.0042, 211.8147
277.4863, 214.7651
277.9684, 217.8245
278.4506, 221.2515
278.9327, 225.1244
279.4148, 229.2957
279.8969, 233.3799
280.3790, 237.3173
280.8611, 241.5916
281.3433, 246.4674
281.8254, 251.9668
282.3075, 257.8076
282.7896, 264.0473
283.2717, 270.5620
283.7538, 277.5209
284.2360, 284.9796
284.7181, 291.5195
285.2002, 296.7582
285.6823, 300.6455
286.1644, 302.9583
286.6465, 303.8929
287.1287, 302.4866
287.6108, 297.0173
288.0929, 287.6160
288.5750, 276.6011
289.0571, 263.8442
289.5392, 250.0776
290.0214, 238.5450
290.5035, 229.3943
290.9856, 221.5625
291.4677, 213.6541
291.9498, 205.9197
292.4319, 200.2144
292.9141, 197.6541
293.3962, 197.1118
293.8783, 196.0340
294.3604, 194.4178
294.8425, 192.8453
295.3246, 191.9078
295.8068, 191.4303
296.2889, 190.8583
296.7710, 190.0885
297.2531, 189.1182
297.7352, 187.9475
298.2173, 186.5839
298.6995, 185.0271
299.1816, 183.1273
299.6637, 181.0502
300.1458, 179.1780
300.6279, 177.5496
301.1100, 176.1636
301.5922, 175.1342
302.0743, 174.3936
302.5564, 173.6767
303.0385, 172.8171
303.5206, 171.8799
304.0027, 170.9160
304.4849, 169.9178
304.9670, 168.9826
305.4491, 168.2771
305.9312, 167.7233
306.4133, 167.1341
306.8954, 166.4514
307.3776, 165.6720
307.8597, 164.7450
308.3418, 163.6424
308.8239, 162.6249
309.3060, 161.8726
309.7881, 161.3290
310.2703, 160.9271
310.7524, 160.7755
311.2345, 160.6497
311.7166, 160.1757
312.1987, 159.3839
312.6808, 159.1175
313.1630, 160.4374
313.6451, 162.3102
314.1272, 163.6317
314.6093, 163.4834
315.0914, 163.2077
315.5735, 163.2680
316.0557, 163.6867
316.5378, 164.5894
317.0199, 166.3629
317.5020, 168.4388
317.9841, 170.4082
318.4662, 171.8787
318.9484, 173.6275
319.4305, 176.2012
319.9126, 179.2760
320.3947, 182.0003
320.8768, 184.3236
321.3589, 186.0877
321.8411, 187.0391
322.3232, 186.5638
322.8053, 186.6927
323.2874, 188.3872
323.7695, 190.8147
324.2516, 192.6563
324.7338, 192.5452
325.2159, 192.8897
325.6980, 194.6526
326.1801, 198.2997
326.6622, 201.4745
327.1443, 203.1017
327.6265, 204.5951
328.1086, 207.4027
328.5907, 213.4164
329.0728, 218.6058
329.5549, 222.0245
330.0370, 223.6634
330.5192, 225.8712
331.0013, 228.7770
331.4834, 232.1564
331.9655, 235.8476
332.4476, 239.4864
332.9297, 244.1483
333.4119, 250.4414
333.8940, 257.8669
334.3761, 264.2500
334.8582, 269.6224
335.3403, 273.6976
335.8224, 276.0873
336.3046, 276.1439
336.7867, 276.6600
337.2688, 278.5635
337.7509, 280.2971
338.2330, 278.4597
338.7151, 272.3091
339.1973, 264.9328
339.6794, 257.2203
340.1615, 249.2188
340.6436, 241.2336
341.1257, 233.1863
341.6078, 225.5129
342.0899, 218.9054
342.5721, 213.5461
343.0542, 208.2786
343.5363, 202.5545
344.0184, 196.7340
344.5005, 192.4404
344.9826, 189.8349
345.4648, 187.8346
345.9469, 185.2934
346.4290, 182.3546
346.9111, 180.4610
347.3932, 180.0405
347.8753, 180.5525
348.3575, 181.2215
348.8396, 182.0124
349.3217, 182.5783
349.8038, 182.2828
350.2859, 181.5959
350.7680, 181.7294
351.2502, 182.9155
351.7323, 184.5741
352.2144, 185.9835
352.6965, 187.3101
353.1786, 189.0174
353.6607, 191.4332
354.1429, 194.3194
354.6250, 197.4885
355.1071, 200.9432
355.5892, 204.3871
356.0713, 207.4449
356.5534, 210.3802
357.0356, 213.5703
357.5177, 216.5511
357.9998, 220.3628
358.4819, 226.1173
358.9640, 233.5334
359.4461, 240.9212
359.9283, 247.2120
360.4104, 253.1924
360.8925, 259.4485
361.3746, 265.8264
361.8567, 272.9851
362.3388, 281.2512
362.8210, 290.4597
363.3031, 300.4239
363.7852, 311.0217
364.2673, 322.3963
364.7494, 334.7243
365.2315, 348.2162
365.7137, 361.9946
366.1958, 374.8395
366.6779, 388.1001
367.1600, 403.4813
367.6421, 423.3217
368.1242, 443.0645
368.6064, 460.9953
369.0885, 476.9809
369.5706, 495.8083
370.0527, 519.1394
370.5348, 544.1243
371.0169, 569.2076
371.4991, 593.2179
371.9812, 618.8397
372.4633, 646.2261
372.9454, 675.4747
373.4275, 706.3842
373.9096, 739.7498
374.3918, 774.0319
374.8739, 807.6461
375.3560, 840.4139
375.8381, 874.9920
376.3202, 911.1345
376.8023, 948.8781
377.2845, 988.5046
377.7666, 1029.924
378.2487, 1072.031
378.7308, 1113.401
379.2129, 1154.770
379.6950, 1197.424
380.1772, 1241.862
380.6593, 1286.811
381.1414, 1332.007
381.6235, 1377.043
382.1056, 1422.058
382.5877, 1466.795
383.0699, 1511.316
383.5520, 1555.579
384.0341, 1599.944
384.5162, 1643.909
384.9983, 1689.588
385.4804, 1734.751
385.9626, 1775.254
386.4447, 1810.738
386.9268, 1841.275
387.4089, 1865.777
387.8910, 1885.462
388.3731, 1902.494
388.8553, 1918.648
389.3374, 1932.156
389.8195, 1941.735
390.3016, 1947.179
390.7837, 1947.477
391.2658, 1940.892
391.7480, 1929.216
392.2301, 1914.259
392.7122, 1896.302
393.1943, 1875.550
393.6764, 1853.429
394.1585, 1828.801
394.6407, 1798.921
395.1228, 1760.367
395.6049, 1718.246
396.0870, 1674.196
396.5691, 1628.058
397.0512, 1582.060
397.5334, 1536.746
398.0155, 1491.554
398.4976, 1446.401
398.9797, 1400.420
399.4618, 1354.927
399.9439, 1309.696
400.4261, 1264.735
400.9082, 1221.750
401.3903, 1181.492
401.8724, 1142.460
402.3545, 1103.195
402.8366, 1061.957
403.3188, 1025.374
403.8009, 995.2916
404.2830, 969.4506
404.7651, 941.5886
405.2472, 910.5910
405.7293, 881.5472
406.2115, 856.7303
406.6936, 836.4355
407.1757, 817.4689
407.6578, 799.9911
408.1399, 783.2967
408.6220, 766.2922
409.1042, 748.9951
409.5863, 732.0450
410.0684, 715.2546
410.5505, 699.2294
411.0326, 684.8566
411.5147, 672.0439
411.9969, 659.7898
412.4790, 647.8676
412.9611, 635.7699
413.4432, 622.1110
413.9253, 606.1397
414.4074, 590.2799
414.8896, 577.4531
415.3717, 566.7183
415.8538, 555.9517
416.3359, 544.5663
416.8180, 532.5026
417.3001, 519.5201
417.7823, 505.5034
418.2644, 491.9981
418.7465, 479.7340
419.2286, 468.1415
419.7107, 456.7615
420.1928, 444.5882
420.6750, 433.5836
421.1571, 425.5778
421.6392, 419.3376
422.1213, 411.8752
422.6034, 400.8193
423.0855, 389.7631
423.5677, 379.8848
424.0498, 371.2353
424.5319, 364.2144
425.0140, 360.5446
425.4961, 357.6717
425.9782, 352.9280
426.4604, 344.1943
426.9425, 336.7184
427.4246, 331.5627
427.9067, 328.3740
428.3888, 325.0827
428.8709, 321.8743
429.3531, 318.2556
429.8352, 313.5579
430.3173, 307.3594
430.7994, 302.6518
431.2815, 299.7793
431.7636, 297.9856
432.2458, 296.4116
432.7279, 295.1032
433.2100, 293.1143
433.6921, 289.5861
434.1742, 285.1826
434.6563, 282.7864
435.1385, 282.4296
435.6206, 282.1181
436.1027, 279.8799
436.5848, 276.3399
437.0669, 273.2106
437.5490, 270.8712
438.0312, 268.8826
438.5133, 266.5027
438.9954, 264.0085
439.4775, 262.1655
439.9596, 262.2914
440.4417, 262.6647
440.9239, 261.5844
441.4060, 258.9540
441.8881, 256.1474
442.3702, 253.6512
442.8523, 251.5265
443.3344, 249.8376
443.8166, 249.5405
444.2987, 248.5767
444.7808, 245.6488
445.2629, 241.4809
445.7450, 238.1745
446.2271, 236.7197
446.7093, 235.7821
447.1914, 235.0402
447.6735, 234.7537
448.1556, 233.6950
448.6377, 231.4519
449.1198, 228.7252
449.6020, 226.1005
450.0841, 223.2350
450.5662, 221.3803
451.0483, 221.2105
451.5304, 222.1781
452.0125, 221.7286
452.4947, 219.5005
452.9768, 216.9588
453.4589, 214.7964
453.9410, 213.0005
454.4231, 211.5767
454.9052, 210.5476
455.3874, 209.7344
455.8695, 209.0345
456.3516, 208.3947
456.8337, 207.4161
457.3158, 205.6449
457.7979, 203.7182
458.2801, 203.1603
458.7622, 203.7455
459.2443, 203.8462
459.7264, 201.5081
460.2085, 198.3505
460.6906, 196.8045
461.1728, 197.5887
461.6549, 198.2511
462.1370, 196.5461
462.6191, 193.7057
463.1012, 191.5694
463.5833, 191.3495
464.0655, 191.4818
464.5476, 191.4270
465.0297, 191.1642
465.5118, 190.6712
465.9939, 189.7193
466.4760, 188.7002
466.9582, 187.8540
467.4403, 187.4538
467.9224, 186.7362
468.4045, 185.3615
468.8866, 183.8047
469.3687, 182.7195
469.8509, 182.2220
470.3330, 182.0325
470.8151, 182.1554
471.2972, 182.5639
471.7793, 183.0620
472.2614, 183.8183
472.7436, 184.2228
473.2257, 183.6103
473.7078, 181.9536
474.1899, 180.9318
474.6720, 180.8049
475.1541, 180.9510
475.6363, 180.2714
476.1184, 178.9301
476.6005, 177.9869
477.0826, 177.9882
477.5647, 178.5689
478.0468, 179.5436
478.5290, 180.7912
479.0111, 181.2088
479.4932, 179.1693
479.9753, 176.2289
480.4574, 174.3012
480.9395, 173.9720
481.4217, 173.8517
481.9038, 172.7549
482.3859, 171.4046
482.8680, 170.8833
483.3501, 172.9146
483.8322, 174.5033
484.3144, 174.2672
484.7965, 172.3154
485.2786, 170.6540
485.7607, 169.3803
486.2428, 168.6440
486.7249, 168.5972
487.2071, 169.8406
487.6892, 170.4809
488.1713, 170.3657
488.6534, 169.7565
489.1355, 168.9747
489.6176, 167.9306
490.0998, 166.9525
490.5819, 166.0049
491.0640, 165.1830
491.5461, 165.1878
492.0282, 166.1569
492.5103, 166.9568
492.9925, 166.6691
493.4746, 165.4854
493.9567, 164.4059
494.4388, 163.4899
494.9209, 162.6654
495.4030, 161.8312
495.8852, 161.0129
496.3673, 160.2377
496.8494, 159.2824
497.3315, 158.6031
497.8136, 159.0945
498.2957, 160.3947
498.7779, 161.0027
499.2600, 159.2441
499.7421, 157.1308
500.2242, 156.1690
500.7063, 156.7950
501.1884, 157.3865
501.6706, 157.6781
502.1527, 157.6018
502.6348, 157.0785
503.1169, 155.4397
503.5990, 154.1441
504.0811, 153.3935
504.5633, 153.1100
505.0454, 153.1044
505.5275, 153.8916
506.0096, 154.0463
506.4917, 152.6288
506.9738, 149.3736
507.4560, 147.9021
507.9381, 148.7243
508.4202, 149.9519
508.9023, 149.3631
509.3844, 147.0922
509.8665, 145.5059
510.3487, 145.1175
510.8308, 145.4691
511.3129, 146.1402
511.7950, 146.9979
512.2772, 147.4188
512.7593, 146.8424
513.2414, 145.7719
513.7235, 144.6773
514.2056, 143.5864
514.6877, 142.7162
515.1699, 142.3843
515.6520, 142.2424
516.1341, 141.9479
516.6162, 141.2820
517.0983, 140.7379
517.5804, 140.5130
518.0626, 140.4998
518.5447, 140.5228
519.0268, 140.6477
519.5089, 140.7049
519.9910, 140.7076
520.4731, 140.6446
520.9553, 140.2445
521.4374, 139.0725
521.9195, 138.2185
522.4016, 138.4754
522.8837, 140.1701
523.3658, 141.2101
523.8480, 141.4630
524.3301, 141.3105
524.8122, 141.1115
525.2943, 140.8868
525.7764, 140.9945
526.2585, 141.6393
526.7407, 142.5495
527.2228, 143.2748
527.7049, 143.8360
528.1870, 144.3329
528.6691, 144.9526
529.1512, 145.4821
529.6334, 145.4671
530.1155, 144.8474
530.5976, 144.6246
531.0797, 145.8564
531.5618, 147.5608
532.0439, 148.7483
532.5261, 148.9242
533.0082, 148.9380
533.4903, 148.6534
533.9724, 148.3828
534.4545, 148.8001
534.9366, 150.6388
535.4188, 152.3966
535.9009, 153.7014
536.3830, 154.5659
536.8651, 155.4733
537.3472, 156.3866
537.8293, 157.4173
538.3115, 158.6355
538.7936, 160.0422
539.2757, 161.7063
539.7578, 163.8010
540.2399, 165.6427
540.7220, 165.7600
541.2042, 164.5647
541.6863, 164.5467
542.1684, 167.1804
542.6505, 170.5279
543.1326, 171.4392
543.6147, 170.5207
544.0969, 170.1160
544.5790, 172.0471
545.0611, 174.7630
545.5432, 177.1210
546.0253, 179.0149
546.5074, 180.5360
546.9896, 181.2815
547.4717, 181.8992
547.9538, 182.9174
548.4359, 184.7774
548.9180, 186.5631
549.4001, 188.1250
549.8823, 189.6063
550.3644, 191.2453
550.8465, 193.1111
551.3286, 195.0596
551.8107, 197.1667
552.2928, 199.3640
552.7750, 200.9012
553.2571, 201.6013
553.7392, 202.5487
554.2213, 204.7083
554.7034, 207.8128
555.1855, 210.4558
555.6677, 212.5639
556.1498, 214.2572
556.6319, 215.2455
557.1140, 215.9385
557.5961, 217.1760
558.0782, 219.2560
558.5604, 221.8629
559.0425, 225.1861
559.5246, 228.8255
560.0067, 231.8685
560.4888, 232.8084
560.9709, 234.0691
561.4531, 237.0297
561.9352, 241.7345
562.4173, 245.9694
562.8994, 249.1964
563.3815, 252.0683
563.8636, 254.8355
564.3458, 257.1157
564.8279, 260.3505
565.3100, 264.9004
565.7921, 269.9962
566.2742, 274.5540
566.7563, 278.5230
567.2385, 282.5982
567.7206, 286.6575
568.2027, 291.2177
568.6848, 297.4210
569.1669, 305.1831
569.6490, 313.2746
570.1312, 320.9581
570.6133, 328.7206
571.0954, 337.2663
571.5775, 346.6740
572.0596, 356.1744
572.5417, 364.9702
573.0239, 373.9586
573.5060, 383.7578
573.9881, 394.5966
574.4702, 406.1739
574.9523, 418.9516
575.4344, 432.3802
575.9166, 445.5944
576.3987, 458.2424
576.8808, 471.3678
577.3629, 485.2726
577.8450, 499.7935
578.3271, 514.5969
578.8093, 529.6445
579.2914, 544.9305
579.7735, 560.1559
580.2556, 575.2894
580.7377, 591.8160
581.2198, 609.6864
581.7020, 628.6495
582.1841, 649.3061
582.6662, 670.7277
583.1483, 691.0038
583.6304, 709.4349
584.1125, 727.4258
584.5947, 746.7366
585.0768, 766.2103
585.5589, 784.1686
586.0410, 800.3670
586.5231, 814.6058
587.0052, 825.9689
587.4873, 835.2191
587.9694, 844.1766
588.4515, 856.3724
588.9337, 865.1183
