##NAMES=Tellurite
##RRUFFID=R070606
##IDEAL CHEMISTRY=Te^4+^O_2_
##LOCALITY=Moctezuma mine, Moctezuma, Sonora, Mexico
##OWNER=RRUFF
##SOURCE=James Shigley
##DESCRIPTION=Colorless massive crystalline, associated with quartz and tellurium
##STATUS=The identification of this mineral has been confirmed by single-crystal X-ray diffraction.
##URL=rruff.info/R070606
131.9271, 5813.669
132.4093, 5866.132
132.8914, 5923.721
133.3735, 5980.952
133.8556, 6036.908
134.3377, 6096.550
134.8198, 6159.238
135.3020, 6224.347
135.7841, 6303.342
136.2662, 6393.585
136.7483, 6500.318
137.2304, 6636.161
137.7125, 6808.652
138.1947, 6993.581
138.6768, 7195.459
139.1589, 7447.348
139.6410, 7611.167
140.1231, 7669.979
140.6052, 7628.555
141.0874, 7512.920
141.5695, 7293.429
142.0516, 7035.510
142.5337, 6795.666
143.0158, 6570.297
143.4979, 6360.643
143.9801, 6133.340
144.4622, 5921.700
144.9443, 5715.752
145.4264, 5492.904
145.9085, 5286.603
146.3906, 5145.155
146.8728, 5124.024
147.3549, 5104.438
147.8370, 5053.314
148.3191, 4944.155
148.8012, 4859.279
149.2833, 4802.795
149.7655, 4768.918
150.2476, 4747.410
150.7297, 4735.112
151.2118, 4736.440
151.6939, 4753.572
152.1760, 4804.587
152.6582, 4848.852
153.1403, 4879.351
153.6224, 4898.644
154.1045, 4920.933
154.5866, 4929.503
155.0687, 4952.306
155.5508, 5007.917
156.0330, 5118.506
156.5151, 5243.589
156.9972, 5363.288
157.4793, 5476.726
157.9614, 5629.001
158.4435, 5811.316
158.9257, 6047.046
159.4078, 6361.933
159.8899, 6730.507
160.3720, 7204.355
160.8541, 7830.409
161.3362, 8630.929
161.8184, 9476.467
162.3005, 10372.46
162.7826, 11269.94
163.2647, 12083.54
163.7468, 12706.63
164.2289, 13276.78
164.7111, 13888.59
165.1932, 14575.86
165.6753, 15274.41
166.1574, 15960.93
166.6395, 16633.58
167.1216, 17271.25
167.6038, 17854.54
168.0859, 18410.07
168.5680, 18961.38
169.0501, 19536.85
169.5322, 20090.97
170.0143, 20584.53
170.4965, 21017.48
170.9786, 21420.55
171.4607, 21762.41
171.9428, 22095.82
172.4249, 22501.70
172.9070, 23007.10
173.3892, 23597.07
173.8713, 24238.11
174.3534, 24922.71
174.8355, 25718.45
175.3176, 26590.14
175.7997, 27608.87
176.2818, 28942.67
176.7640, 30656.61
177.2461, 32737.67
177.7282, 35381.61
178.2103, 38779.05
178.6924, 41891.58
179.1745, 43731.43
179.6567, 44357.59
180.1388, 44015.68
180.6209, 42333.36
181.1030, 39798.80
181.5851, 37584.71
182.0672, 35912.30
182.5494, 34407.21
183.0315, 32562.65
183.5136, 30377.67
183.9957, 28058.39
184.4778, 25606.04
184.9599, 23083.61
185.4421, 20715.80
185.9242, 18520.90
186.4063, 16525.50
186.8884, 14751.47
187.3705, 13213.34
187.8526, 11886.88
188.3348, 10803.20
188.8169, 9950.100
189.2990, 9219.175
189.7811, 8602.182
190.2632, 8085.903
190.7453, 7618.726
191.2275, 7203.150
191.7096, 6836.544
192.1917, 6522.152
192.6738, 6256.261
193.1559, 6024.558
193.6380, 5819.626
194.1202, 5643.027
194.6023, 5502.638
195.0844, 5401.234
195.5665, 5330.903
196.0486, 5280.952
196.5307, 5250.653
197.0129, 5246.663
197.4950, 5276.473
197.9771, 5340.578
198.4592, 5409.574
198.9413, 5480.368
199.4234, 5560.696
199.9055, 5660.899
200.3877, 5779.007
200.8698, 5926.633
201.3519, 6112.870
201.8340, 6341.734
202.3161, 6576.273
202.7982, 6810.619
203.2804, 7053.314
203.7625, 7328.701
204.2446, 7643.030
204.7267, 7970.389
205.2088, 8290.604
205.6909, 8591.794
206.1731, 8929.801
206.6552, 9304.946
207.1373, 9720.934
207.6194, 10201.56
208.1015, 10757.25
208.5836, 11342.50
209.0658, 11927.19
209.5479, 12502.81
210.0300, 13091.09
210.5121, 13706.23
210.9942, 14336.74
211.4763, 14936.24
211.9585, 15501.21
212.4406, 16043.99
212.9227, 16564.39
213.4048, 17058.05
213.8869, 17555.15
214.3690, 18070.28
214.8512, 18598.63
215.3333, 19107.27
215.8154, 19580.48
216.2975, 20053.24
216.7796, 20574.79
217.2617, 21173.64
217.7439, 21763.63
218.2260, 22344.61
218.7081, 22916.50
219.1902, 23422.19
219.6723, 23850.76
220.1544, 24222.75
220.6366, 24564.82
221.1187, 24848.14
221.6008, 25153.69
222.0829, 25499.66
222.5650, 25887.15
223.0471, 26334.04
223.5293, 26894.03
224.0114, 27481.39
224.4935, 27986.28
224.9756, 28490.68
225.4577, 28765.98
225.9398, 28726.00
226.4220, 28355.52
226.9041, 27725.51
227.3862, 26819.53
227.8683, 25661.10
228.3504, 24302.01
228.8325, 22649.81
229.3147, 20935.92
229.7968, 19269.67
230.2789, 17594.62
230.7610, 16078.41
231.2431, 14721.04
231.7252, 13514.82
232.2074, 12422.17
232.6895, 11433.72
233.1716, 10554.89
233.6537, 9789.823
234.1358, 9176.178
234.6179, 8613.741
235.1001, 8093.963
235.5822, 7620.266
236.0643, 7197.973
236.5464, 6834.664
237.0285, 6513.079
237.5106, 6223.354
237.9928, 5972.540
238.4749, 5747.263
238.9570, 5557.555
239.4391, 5397.037
239.9212, 5221.013
240.4033, 5009.290
240.8855, 4806.242
241.3676, 4642.625
241.8497, 4533.800
242.3318, 4436.892
242.8139, 4350.414
243.2960, 4273.460
243.7781, 4195.738
244.2603, 4117.489
244.7424, 4038.235
245.2245, 3956.549
245.7066, 3866.543
246.1887, 3784.748
246.6708, 3710.259
247.1530, 3643.468
247.6351, 3596.726
248.1172, 3582.032
248.5993, 3574.004
249.0814, 3549.438
249.5635, 3500.597
250.0457, 3451.075
250.5278, 3401.799
251.0099, 3352.610
251.4920, 3317.921
251.9741, 3304.418
252.4562, 3298.331
252.9384, 3286.125
253.4205, 3264.679
253.9026, 3243.643
254.3847, 3225.790
254.8668, 3211.265
255.3489, 3192.425
255.8311, 3165.068
256.3132, 3137.888
256.7953, 3122.657
257.2774, 3126.584
257.7595, 3124.996
258.2416, 3108.796
258.7238, 3076.180
259.2059, 3056.785
259.6880, 3054.547
260.1701, 3060.670
260.6522, 3064.857
261.1343, 3066.668
261.6165, 3067.948
262.0986, 3072.175
262.5807, 3080.881
263.0628, 3069.683
263.5449, 3028.982
264.0270, 2980.404
264.5092, 2953.118
264.9913, 2953.343
265.4734, 2957.157
265.9555, 2957.466
266.4376, 2953.929
266.9197, 2954.302
267.4019, 2963.036
267.8840, 2969.591
268.3661, 2953.912
268.8482, 2907.515
269.3303, 2870.256
269.8124, 2860.698
270.2946, 2881.121
270.7767, 2887.140
271.2588, 2875.265
271.7409, 2854.320
272.2230, 2835.938
272.7051, 2819.873
273.1873, 2807.759
273.6694, 2802.825
274.1515, 2805.548
274.6336, 2799.900
275.1157, 2784.451
275.5978, 2763.501
276.0800, 2740.926
276.5620, 2715.365
277.0442, 2698.052
277.5263, 2699.440
278.0084, 2719.287
278.4905, 2720.215
278.9726, 2697.764
279.4547, 2666.773
279.9369, 2649.935
280.4190, 2648.097
280.9011, 2647.266
281.3832, 2641.891
281.8653, 2632.215
282.3474, 2620.459
282.8296, 2605.726
283.3117, 2591.703
283.7938, 2586.126
284.2759, 2588.907
284.7580, 2588.247
285.2401, 2576.357
285.7223, 2555.325
286.2044, 2537.731
286.6865, 2523.531
287.1686, 2513.864
287.6507, 2514.142
288.1328, 2523.209
288.6150, 2528.214
289.0971, 2520.256
289.5792, 2502.860
290.0613, 2489.167
290.5434, 2479.709
291.0255, 2473.292
291.5077, 2468.165
291.9898, 2464.533
292.4719, 2463.747
292.9540, 2470.252
293.4361, 2479.885
293.9182, 2480.956
294.4004, 2472.210
294.8825, 2459.967
295.3646, 2449.977
295.8467, 2442.179
296.3288, 2436.550
296.8109, 2436.529
297.2931, 2437.896
297.7752, 2430.463
298.2573, 2412.565
298.7394, 2396.771
299.2215, 2400.717
299.7036, 2417.629
300.1858, 2429.578
300.6679, 2425.217
301.1500, 2412.701
301.6321, 2399.899
302.1142, 2386.617
302.5963, 2379.641
303.0785, 2391.085
303.5606, 2412.965
304.0427, 2429.280
304.5248, 2427.993
305.0069, 2420.630
305.4890, 2417.875
305.9712, 2420.269
306.4533, 2424.720
306.9354, 2427.483
307.4175, 2431.082
307.8996, 2439.388
308.3817, 2455.557
308.8639, 2475.933
309.3460, 2500.483
309.8281, 2529.449
310.3102, 2553.318
310.7923, 2564.421
311.2744, 2567.869
311.7566, 2570.082
312.2387, 2571.189
312.7208, 2573.509
313.2029, 2577.684
313.6850, 2583.733
314.1671, 2593.221
314.6493, 2612.661
315.1314, 2633.575
315.6135, 2647.094
316.0956, 2641.977
316.5777, 2636.866
317.0598, 2639.854
317.5420, 2651.032
318.0241, 2660.647
318.5062, 2664.144
318.9883, 2665.594
319.4704, 2668.368
319.9525, 2670.517
320.4347, 2676.790
320.9168, 2691.025
321.3989, 2712.742
321.8810, 2730.539
322.3631, 2736.360
322.8452, 2741.289
323.3273, 2753.202
323.8094, 2782.814
324.2916, 2808.435
324.7737, 2831.120
325.2558, 2850.039
325.7379, 2853.588
326.2200, 2830.931
326.7021, 2800.324
327.1843, 2771.177
327.6664, 2729.836
328.1485, 2709.571
328.6306, 2731.234
329.1127, 2782.409
329.5948, 2789.191
330.0770, 2721.594
330.5591, 2641.735
331.0412, 2584.833
331.5233, 2555.415
332.0054, 2538.091
332.4875, 2535.843
332.9697, 2544.805
333.4518, 2550.590
333.9339, 2548.624
334.4160, 2551.811
334.8981, 2568.934
335.3802, 2604.988
335.8624, 2635.673
336.3445, 2657.698
336.8266, 2675.429
337.3087, 2700.527
337.7908, 2734.092
338.2729, 2769.802
338.7551, 2804.956
339.2372, 2838.884
339.7193, 2872.313
340.2014, 2903.972
340.6835, 2936.760
341.1656, 2975.019
341.6478, 3019.197
342.1299, 3067.191
342.6120, 3123.208
343.0941, 3184.606
343.5762, 3229.090
344.0583, 3253.066
344.5405, 3272.980
345.0226, 3315.250
345.5047, 3376.870
345.9868, 3431.925
346.4689, 3461.739
346.9510, 3477.322
347.4332, 3512.210
347.9153, 3568.677
348.3974, 3624.099
348.8795, 3652.781
349.3616, 3660.793
349.8438, 3665.048
350.3259, 3673.578
350.8080, 3681.571
351.2901, 3680.868
351.7722, 3671.600
352.2543, 3662.421
352.7365, 3664.469
353.2186, 3670.384
353.7007, 3668.756
354.1828, 3657.493
354.6649, 3635.635
355.1470, 3597.377
355.6292, 3544.545
356.1113, 3492.354
356.5934, 3440.645
357.0755, 3397.794
357.5576, 3373.044
358.0397, 3387.073
358.5219, 3398.877
359.0040, 3387.830
359.4861, 3357.828
359.9682, 3325.096
360.4503, 3290.884
360.9324, 3259.016
361.4146, 3232.382
361.8967, 3216.415
362.3788, 3198.322
362.8609, 3174.766
363.3430, 3146.927
363.8251, 3118.151
364.3073, 3083.881
364.7894, 3053.252
365.2715, 3031.278
365.7536, 3027.361
366.2357, 3015.151
366.7178, 2985.255
367.1999, 2947.981
367.6820, 2921.342
368.1642, 2913.633
368.6463, 2906.964
369.1284, 2895.470
369.6105, 2876.968
370.0926, 2862.641
370.5747, 2853.777
371.0569, 2848.142
371.5390, 2842.709
372.0211, 2837.537
372.5032, 2832.336
372.9853, 2826.680
373.4674, 2820.498
373.9496, 2816.625
374.4317, 2815.518
374.9138, 2815.748
375.3959, 2818.922
375.8780, 2826.846
376.3601, 2821.473
376.8423, 2792.865
377.3244, 2748.902
377.8065, 2724.516
378.2886, 2721.264
378.7707, 2725.180
379.2528, 2722.823
379.7350, 2716.118
380.2171, 2720.109
380.6992, 2743.159
381.1813, 2770.735
381.6634, 2775.151
382.1455, 2758.089
382.6277, 2736.602
383.1098, 2715.503
383.5919, 2699.516
384.0740, 2701.669
384.5561, 2729.639
385.0382, 2759.242
385.5204, 2758.963
386.0025, 2738.242
386.4846, 2723.759
386.9667, 2736.782
387.4488, 2758.829
387.9309, 2771.694
388.4131, 2772.603
388.8952, 2771.814
389.3773, 2775.741
389.8594, 2782.106
390.3415, 2787.622
390.8236, 2792.256
391.3058, 2794.497
391.7879, 2789.104
392.2700, 2775.308
392.7521, 2773.343
393.2342, 2805.936
393.7163, 2845.816
394.1985, 2868.181
394.6806, 2847.477
395.1627, 2830.273
395.6448, 2829.009
396.1269, 2842.248
396.6090, 2849.902
397.0912, 2844.875
397.5733, 2837.964
398.0554, 2834.521
398.5375, 2830.629
399.0196, 2836.585
399.5017, 2858.627
399.9839, 2890.231
400.4660, 2911.522
400.9481, 2919.968
401.4302, 2922.315
401.9123, 2919.731
402.3944, 2909.217
402.8766, 2906.998
403.3587, 2916.920
403.8408, 2930.373
404.3229, 2929.605
404.8050, 2911.021
405.2871, 2901.218
405.7693, 2913.204
406.2514, 2944.370
406.7335, 2974.552
407.2156, 3004.354
407.6977, 3029.081
408.1798, 3038.638
408.6620, 3036.020
409.1441, 3039.170
409.6262, 3057.989
410.1083, 3082.582
410.5904, 3091.253
411.0725, 3085.160
411.5546, 3081.076
412.0367, 3092.463
412.5189, 3114.359
413.0010, 3138.679
413.4831, 3165.266
413.9652, 3191.108
414.4473, 3212.834
414.9294, 3231.490
415.4116, 3251.520
415.8937, 3271.423
416.3758, 3295.943
416.8579, 3331.268
417.3400, 3381.880
417.8221, 3429.651
418.3043, 3461.094
418.7864, 3485.610
419.2685, 3517.259
419.7506, 3562.338
420.2327, 3612.925
420.7148, 3665.000
421.1970, 3718.092
421.6791, 3778.866
422.1612, 3856.076
422.6433, 3937.015
423.1254, 4010.560
423.6075, 4068.275
424.0897, 4130.798
424.5718, 4201.165
425.0539, 4278.276
425.5360, 4357.539
426.0181, 4439.557
426.5002, 4522.062
426.9824, 4602.552
427.4645, 4678.656
427.9466, 4762.762
428.4287, 4857.608
428.9108, 4958.291
429.3929, 5056.705
429.8751, 5152.256
430.3572, 5246.790
430.8393, 5341.128
431.3214, 5435.130
431.8035, 5522.756
432.2856, 5603.555
432.7678, 5683.922
433.2499, 5770.372
433.7320, 5862.830
434.2141, 5962.057
434.6962, 6076.140
435.1783, 6191.013
435.6605, 6284.022
436.1426, 6356.119
436.6247, 6418.773
437.1068, 6483.676
437.5889, 6542.952
438.0710, 6585.475
438.5532, 6601.694
439.0353, 6610.770
439.5174, 6637.313
439.9995, 6667.945
440.4816, 6665.814
440.9637, 6600.867
441.4459, 6509.606
441.9280, 6411.849
442.4101, 6313.778
442.8922, 6200.425
443.3743, 6062.469
443.8564, 5908.719
444.3386, 5752.923
444.8207, 5588.748
445.3028, 5429.562
445.7849, 5277.263
446.2670, 5132.584
446.7491, 4994.104
447.2313, 4861.199
447.7134, 4733.341
448.1955, 4612.628
448.6776, 4501.657
449.1597, 4387.212
449.6418, 4266.238
450.1240, 4142.057
450.6061, 4025.806
451.0882, 3916.249
451.5703, 3822.246
452.0524, 3758.442
452.5345, 3721.218
453.0167, 3666.999
453.4988, 3590.916
453.9809, 3509.808
454.4630, 3446.738
454.9451, 3399.366
455.4272, 3356.837
455.9094, 3317.297
456.3914, 3278.437
456.8736, 3235.116
457.3557, 3187.873
457.8378, 3140.032
458.3199, 3090.413
458.8020, 3044.110
459.2841, 3007.317
459.7663, 2984.431
460.2484, 2968.217
460.7305, 2960.848
461.2126, 2958.015
461.6947, 2947.105
462.1768, 2907.034
462.6590, 2870.446
463.1411, 2857.772
463.6232, 2884.708
464.1053, 2896.212
464.5874, 2869.417
465.0695, 2827.719
465.5517, 2802.295
466.0338, 2811.428
466.5159, 2813.586
466.9980, 2794.541
467.4801, 2755.786
467.9622, 2743.786
468.4444, 2771.280
468.9265, 2804.974
469.4086, 2820.538
469.8907, 2814.282
470.3728, 2808.469
470.8549, 2805.048
471.3371, 2803.429
471.8192, 2800.356
472.3013, 2795.619
472.7834, 2797.826
473.2655, 2819.117
473.7477, 2851.490
474.2298, 2867.510
474.7119, 2865.538
475.1940, 2854.443
475.6761, 2837.568
476.1582, 2818.319
476.6404, 2804.206
477.1225, 2801.914
477.6046, 2802.200
478.0867, 2797.846
478.5688, 2789.142
479.0509, 2777.536
479.5331, 2760.424
480.0152, 2742.795
480.4973, 2728.578
480.9794, 2720.570
481.4615, 2711.512
481.9436, 2700.296
482.4258, 2686.517
482.9079, 2669.508
483.3900, 2642.127
483.8721, 2618.506
484.3542, 2602.538
484.8363, 2594.952
485.3185, 2588.656
485.8006, 2584.751
486.2827, 2580.907
486.7648, 2576.083
487.2469, 2571.942
487.7290, 2559.401
488.2112, 2532.310
488.6933, 2499.690
489.1754, 2490.624
489.6575, 2507.612
490.1396, 2524.102
490.6217, 2525.354
491.1039, 2513.659
491.5860, 2497.261
492.0681, 2475.310
492.5502, 2455.255
493.0323, 2446.633
493.5144, 2446.173
493.9966, 2445.336
494.4787, 2437.768
494.9608, 2431.228
495.4429, 2436.433
495.9250, 2451.037
496.4071, 2461.417
496.8893, 2453.931
497.3714, 2443.057
497.8535, 2441.951
498.3356, 2461.027
498.8177, 2471.470
499.2998, 2456.181
499.7820, 2428.906
500.2641, 2412.366
500.7462, 2419.401
501.2283, 2427.000
501.7104, 2429.774
502.1925, 2427.501
502.6746, 2426.055
503.1567, 2426.879
503.6389, 2426.673
504.1210, 2421.432
504.6031, 2408.344
505.0852, 2403.146
505.5673, 2410.202
506.0494, 2422.979
506.5316, 2425.837
507.0137, 2418.582
507.4958, 2413.385
507.9779, 2418.067
508.4600, 2429.689
508.9421, 2441.307
509.4243, 2453.267
509.9064, 2459.400
510.3885, 2446.004
510.8706, 2424.237
511.3527, 2414.422
511.8348, 2430.584
512.3170, 2450.929
512.7991, 2459.437
513.2812, 2458.938
513.7633, 2458.799
514.2454, 2463.228
514.7275, 2468.971
515.2097, 2475.396
515.6918, 2484.427
516.1739, 2487.349
516.6560, 2471.218
517.1381, 2453.216
517.6202, 2453.546
518.1024, 2488.081
518.5845, 2516.407
519.0666, 2532.291
519.5487, 2536.953
520.0308, 2536.478
520.5129, 2527.781
520.9951, 2521.623
521.4772, 2526.687
521.9593, 2543.084
522.4414, 2552.742
522.9235, 2553.025
523.4056, 2551.661
523.8878, 2561.754
524.3699, 2580.478
524.8520, 2594.317
525.3341, 2592.349
525.8162, 2586.554
526.2983, 2597.386
526.7805, 2622.278
527.2626, 2640.797
527.7447, 2632.517
528.2268, 2615.814
528.7089, 2606.367
529.1910, 2605.073
529.6732, 2616.425
530.1553, 2655.239
530.6374, 2704.826
531.1195, 2739.724
531.6016, 2739.567
532.0837, 2739.532
532.5659, 2747.409
533.0480, 2763.254
533.5301, 2782.681
534.0122, 2809.304
534.4943, 2835.262
534.9764, 2855.549
535.4586, 2869.668
535.9407, 2880.191
536.4228, 2885.292
536.9049, 2890.110
537.3870, 2904.859
537.8691, 2929.372
538.3513, 2954.709
538.8334, 2978.921
539.3155, 3000.838
539.7976, 3016.835
540.2797, 3027.064
540.7618, 3036.949
541.2440, 3049.714
541.7261, 3064.975
542.2082, 3082.013
542.6903, 3100.026
543.1724, 3121.224
543.6545, 3147.573
544.1367, 3178.029
544.6188, 3210.997
545.1009, 3244.611
545.5830, 3281.524
546.0651, 3324.297
546.5472, 3373.448
547.0294, 3418.825
547.5115, 3456.069
547.9936, 3493.863
548.4757, 3538.322
548.9578, 3593.236
549.4399, 3644.200
549.9221, 3688.930
550.4042, 3731.706
550.8863, 3778.723
551.3684, 3829.640
551.8505, 3889.827
552.3326, 3965.098
552.8148, 4050.978
553.2969, 4130.086
553.7790, 4203.305
554.2611, 4276.865
554.7432, 4354.327
555.2253, 4435.697
555.7075, 4519.752
556.1896, 4603.823
556.6717, 4698.273
557.1538, 4814.791
557.6359, 4944.241
558.1180, 5070.063
558.6002, 5182.163
559.0823, 5294.117
559.5644, 5406.636
560.0465, 5519.968
560.5286, 5654.088
561.0107, 5822.987
561.4929, 5997.099
561.9750, 6159.212
562.4571, 6301.695
562.9392, 6454.584
563.4213, 6624.590
563.9034, 6798.931
564.3856, 6959.751
564.8677, 7105.403
565.3498, 7250.788
565.8319, 7401.411
566.3140, 7555.297
566.7961, 7712.531
567.2783, 7873.461
567.7604, 8033.105
568.2424, 8178.888
568.7245, 8325.705
569.2067, 8507.757
569.6888, 8737.566
570.1709, 8956.376
570.6530, 9124.420
571.1351, 9257.170
571.6172, 9376.954
572.0994, 9466.406
572.5815, 9567.710
573.0636, 9707.194
573.5457, 9876.805
574.0278, 10011.04
574.5099, 10090.44
574.9921, 10156.16
575.4742, 10226.73
575.9563, 10307.85
576.4384, 10365.51
576.9205, 10400.31
577.4026, 10408.29
577.8848, 10376.96
578.3669, 10307.02
578.8490, 10237.68
579.3311, 10184.12
579.8132, 10126.91
580.2953, 10029.84
580.7775, 9897.482
581.2596, 9751.816
581.7417, 9608.611
582.2238, 9456.566
582.7059, 9284.605
583.1880, 9092.709
583.6702, 8883.992
584.1523, 8645.383
584.6344, 8400.795
585.1165, 8168.393
585.5986, 7955.761
586.0807, 7750.818
586.5629, 7555.671
587.0450, 7366.659
587.5271, 7176.137
588.0092, 6979.683
588.4913, 6788.971
588.9734, 6604.156
589.4556, 6425.903
589.9377, 6264.594
590.4198, 6121.974
590.9019, 5987.847
591.3840, 5852.819
591.8661, 5719.142
592.3483, 5595.610
592.8304, 5483.791
593.3125, 5377.235
593.7946, 5268.754
594.2767, 5160.250
594.7589, 5055.196
595.2410, 4948.576
595.7231, 4852.453
596.2052, 4781.188
596.6873, 4729.777
597.1694, 4675.294
597.6516, 4600.497
598.1337, 4528.950
598.6158, 4473.635
599.0979, 4441.740
599.5800, 4405.005
600.0621, 4361.635
600.5443, 4315.747
601.0264, 4269.182
601.5085, 4219.562
601.9906, 4181.167
602.4727, 4158.268
602.9548, 4145.002
603.4370, 4128.405
603.9191, 4108.584
604.4012, 4089.517
604.8833, 4070.847
605.3654, 4054.810
605.8475, 4046.442
606.3297, 4045.579
606.8118, 4044.015
607.2939, 4029.564
607.7760, 4015.432
608.2581, 4015.709
608.7402, 4043.455
609.2224, 4064.604
609.7045, 4056.442
610.1866, 4039.583
610.6687, 4048.217
611.1508, 4102.332
611.6329, 4153.526
612.1151, 4191.930
612.5972, 4220.273
613.0793, 4251.589
613.5614, 4285.333
614.0435, 4323.833
614.5256, 4366.889
615.0078, 4415.293
615.4899, 4480.954
615.9720, 4565.495
616.4541, 4647.677
616.9362, 4697.433
617.4183, 4729.973
617.9005, 4772.037
618.3826, 4827.027
618.8647, 4901.188
619.3468, 5011.033
619.8289, 5142.279
620.3110, 5263.396
620.7932, 5349.339
621.2753, 5438.568
621.7574, 5541.590
622.2395, 5658.378
622.7216, 5793.101
623.2037, 5948.617
623.6859, 6117.567
624.1680, 6298.479
624.6501, 6492.544
625.1322, 6688.206
625.6143, 6880.927
626.0964, 7086.437
626.5786, 7327.265
627.0607, 7599.873
627.5428, 7889.975
628.0249, 8198.334
628.5070, 8518.729
628.9891, 8836.979
629.4713, 9159.731
