##NAMES=Tellurite
##RRUFFID=R070606
##IDEAL CHEMISTRY=Te^4+^O_2_
##LOCALITY=Moctezuma mine, Moctezuma, Sonora, Mexico
##OWNER=RRUFF
##SOURCE=James Shigley
##DESCRIPTION=Colorless massive crystalline, associated with quartz and tellurium
##STATUS=The identification of this mineral has been confirmed by single-crystal X-ray diffraction.
##URL=rruff.info/R070606
99.00116, 8340.695
99.48328, 8992.054
99.96539, 9605.080
100.4475, 10162.80
100.9296, 10579.83
101.4117, 10694.67
101.8939, 10600.19
102.3760, 10450.99
102.8581, 10228.27
103.3402, 9975.864
103.8223, 9717.725
104.3044, 9447.329
104.7866, 9202.557
105.2687, 8991.392
105.7508, 8814.982
106.2329, 8687.938
106.7150, 8617.186
107.1971, 8597.857
107.6793, 8619.229
108.1614, 8696.499
108.6435, 8797.333
109.1256, 8893.275
109.6077, 8993.535
110.0898, 9126.617
110.5720, 9316.705
111.0541, 9567.649
111.5362, 9865.960
112.0183, 10222.31
112.5004, 10613.23
112.9825, 11022.60
113.4647, 11449.33
113.9468, 11904.92
114.4289, 12412.93
114.9110, 13021.54
115.3931, 13619.84
115.8752, 14237.59
116.3574, 14833.29
116.8395, 15378.68
117.3216, 15863.44
117.8037, 16268.54
118.2858, 16482.65
118.7679, 16510.43
119.2501, 16396.03
119.7322, 16128.18
120.2143, 15721.08
120.6964, 15214.36
121.1785, 14621.48
121.6606, 13937.21
122.1428, 13221.55
122.6249, 12438.61
123.1070, 11645.55
123.5891, 10878.51
124.0712, 10133.06
124.5533, 9447.904
125.0355, 8870.614
125.5176, 8378.309
125.9997, 7926.070
126.4818, 7498.251
126.9639, 7099.262
127.4460, 6736.377
127.9282, 6410.681
128.4103, 6128.168
128.8924, 5886.100
129.3745, 5682.994
129.8566, 5505.466
130.3387, 5340.853
130.8209, 5185.569
131.3030, 5061.902
131.7851, 4989.624
132.2672, 4939.842
132.7493, 4901.336
133.2314, 4870.905
133.7136, 4849.846
134.1957, 4838.705
134.6778, 4830.781
135.1599, 4849.068
135.6420, 4893.496
136.1241, 4960.652
136.6063, 5052.441
137.0884, 5170.562
137.5705, 5306.334
138.0526, 5426.735
138.5347, 5592.043
139.0168, 5673.786
139.4990, 5635.938
139.9811, 5500.427
140.4632, 5301.754
140.9453, 5056.502
141.4274, 4766.157
141.9095, 4480.077
142.3917, 4177.430
142.8738, 3895.005
143.3559, 3651.190
143.8380, 3445.569
144.3201, 3266.984
144.8022, 3107.577
145.2844, 2970.338
145.7665, 2843.433
146.2486, 2723.984
146.7307, 2615.910
147.2128, 2524.727
147.6949, 2451.822
148.1771, 2391.046
148.6592, 2336.328
149.1413, 2286.918
149.6234, 2246.958
150.1055, 2220.443
150.5876, 2204.793
151.0698, 2192.376
151.5519, 2182.256
152.0340, 2174.841
152.5161, 2167.963
152.9982, 2161.434
153.4803, 2161.397
153.9625, 2174.614
154.4446, 2201.497
154.9267, 2229.235
155.4088, 2255.013
155.8909, 2280.560
156.3730, 2304.451
156.8552, 2325.901
157.3373, 2352.717
157.8194, 2397.759
158.3015, 2468.628
158.7836, 2538.977
159.2657, 2588.146
159.7479, 2641.484
160.2300, 2719.308
160.7121, 2829.890
161.1942, 2970.622
161.6763, 3132.418
162.1584, 3309.209
162.6406, 3519.785
163.1227, 3763.782
163.6048, 4040.608
164.0869, 4353.509
164.5690, 4704.896
165.0511, 5092.486
165.5333, 5476.316
166.0154, 5856.956
166.4975, 6236.062
166.9796, 6606.239
167.4617, 6972.820
167.9438, 7351.336
168.4260, 7754.522
168.9081, 8184.661
169.3902, 8594.783
169.8723, 8992.947
170.3544, 9367.998
170.8365, 9695.125
171.3187, 9982.666
171.8008, 10275.23
172.2829, 10612.97
172.7650, 11001.96
173.2471, 11446.59
173.7292, 11929.30
174.2114, 12473.78
174.6935, 13090.11
175.1756, 13779.26
175.6577, 14562.68
176.1398, 15482.98
176.6219, 16533.28
177.1041, 17677.63
177.5862, 19135.12
178.0683, 20641.60
178.5504, 21787.48
179.0325, 22501.04
179.5146, 22763.74
179.9968, 22478.03
180.4789, 21664.53
180.9610, 20696.36
181.4431, 19715.13
181.9252, 18710.40
182.4073, 17656.59
182.8895, 16539.95
183.3716, 15371.79
183.8537, 14159.58
184.3358, 12898.89
184.8179, 11671.72
185.3000, 10527.21
185.7822, 9467.027
186.2643, 8505.616
186.7464, 7682.430
187.2285, 6958.873
187.7106, 6311.729
188.1927, 5741.870
188.6749, 5240.124
189.1570, 4802.772
189.6391, 4435.519
190.1212, 4111.895
190.6033, 3826.909
191.0854, 3578.738
191.5676, 3370.308
192.0497, 3206.105
192.5318, 3072.277
193.0139, 2942.415
193.4960, 2811.188
193.9781, 2697.052
194.4603, 2599.902
194.9424, 2519.901
195.4245, 2459.742
195.9066, 2421.719
196.3887, 2399.925
196.8708, 2374.623
197.3530, 2335.063
197.8351, 2307.047
198.3172, 2297.127
198.7993, 2299.663
199.2814, 2306.594
199.7635, 2312.632
200.2457, 2319.933
200.7278, 2343.335
201.2099, 2389.642
201.6920, 2446.710
202.1741, 2513.587
202.6563, 2590.065
203.1384, 2675.755
203.6205, 2770.231
204.1026, 2873.894
204.5847, 2988.204
205.0668, 3113.223
205.5490, 3248.041
206.0311, 3391.718
206.5132, 3545.358
206.9953, 3709.859
207.4774, 3885.658
207.9595, 4073.668
208.4417, 4275.552
208.9238, 4491.758
209.4059, 4718.290
209.8880, 4945.916
210.3701, 5178.360
210.8522, 5433.487
211.3344, 5730.021
211.8165, 6072.298
212.2986, 6399.872
212.7807, 6704.557
213.2628, 7002.004
213.7449, 7297.330
214.2271, 7591.515
214.7092, 7896.102
215.1913, 8222.563
215.6734, 8575.611
216.1555, 8917.748
216.6376, 9230.320
217.1198, 9541.566
217.6019, 9884.556
218.0840, 10263.73
218.5661, 10636.25
219.0482, 10960.40
219.5303, 11235.67
220.0125, 11492.53
220.4946, 11747.32
220.9767, 11980.11
221.4588, 12155.65
221.9409, 12262.89
222.4230, 12355.69
222.9052, 12510.93
223.3873, 12717.54
223.8694, 12866.29
224.3515, 12940.58
224.8336, 12938.40
225.3158, 12861.08
225.7979, 12712.90
226.2800, 12474.10
226.7621, 12104.14
227.2442, 11623.32
227.7263, 11082.16
228.2085, 10477.56
228.6906, 9829.910
229.1727, 9169.729
229.6548, 8484.842
230.1369, 7828.057
230.6190, 7248.978
231.1012, 6739.160
231.5833, 6263.738
232.0654, 5804.355
232.5475, 5367.983
233.0296, 4976.377
233.5117, 4643.047
233.9939, 4345.369
234.4760, 4054.346
234.9581, 3773.526
235.4402, 3521.533
235.9223, 3318.790
236.4044, 3159.360
236.8866, 3005.891
237.3687, 2850.976
237.8508, 2707.700
238.3329, 2583.547
238.8150, 2477.608
239.2971, 2381.362
239.7793, 2291.778
240.2614, 2208.304
240.7435, 2126.373
241.2256, 2041.570
241.7077, 1964.014
242.1898, 1900.926
242.6720, 1850.953
243.1541, 1805.930
243.6362, 1759.397
244.1183, 1711.512
244.6004, 1669.208
245.0825, 1635.439
245.5647, 1605.566
246.0468, 1576.854
246.5289, 1549.483
247.0110, 1524.676
247.4931, 1504.720
247.9752, 1489.813
248.4574, 1472.798
248.9395, 1450.109
249.4216, 1427.996
249.9037, 1408.821
250.3858, 1392.715
250.8679, 1379.413
251.3501, 1369.335
251.8322, 1362.755
252.3143, 1355.794
252.7964, 1346.617
253.2785, 1338.737
253.7606, 1335.583
254.2428, 1335.763
254.7249, 1334.059
255.2070, 1323.228
255.6891, 1301.416
256.1712, 1288.794
256.6533, 1293.496
257.1354, 1301.360
257.6176, 1310.243
258.0997, 1318.389
258.5818, 1322.525
259.0639, 1317.856
259.5460, 1303.089
260.0281, 1293.580
260.5103, 1295.645
260.9924, 1297.964
261.4745, 1297.753
261.9566, 1294.480
262.4387, 1288.063
262.9208, 1277.038
263.4030, 1260.687
263.8851, 1249.263
264.3672, 1247.903
264.8493, 1247.311
265.3314, 1246.655
265.8135, 1244.521
266.2957, 1238.075
266.7778, 1223.235
267.2599, 1199.199
267.7420, 1182.552
268.2241, 1185.333
268.7062, 1184.708
269.1884, 1171.036
269.6705, 1147.695
270.1526, 1123.937
270.6347, 1106.831
271.1168, 1096.377
271.5989, 1088.662
272.0811, 1083.951
272.5632, 1082.083
273.0453, 1087.960
273.5274, 1096.955
274.0095, 1099.338
274.4916, 1086.668
274.9738, 1059.494
275.4559, 1037.114
275.9380, 1023.670
276.4201, 1011.362
276.9022, 996.0446
277.3843, 980.6528
277.8665, 971.6071
278.3486, 974.4221
278.8307, 987.6213
279.3128, 994.0482
279.7949, 991.5677
280.2770, 983.5256
280.7592, 965.0056
281.2413, 942.0890
281.7234, 924.5995
282.2055, 919.2686
282.6876, 923.8299
283.1697, 923.9407
283.6519, 913.1239
284.1340, 905.2490
284.6161, 905.7086
285.0982, 910.0246
285.5803, 911.2227
286.0624, 904.9408
286.5446, 894.1494
287.0267, 891.3677
287.5088, 909.3287
287.9909, 918.5677
288.4730, 910.7429
288.9551, 893.3928
289.4373, 873.6822
289.9194, 854.7623
290.4015, 838.5819
290.8836, 832.3054
291.3657, 848.7290
291.8478, 855.4565
292.3300, 840.5346
292.8121, 818.3698
293.2942, 802.1442
293.7763, 797.1590
294.2584, 801.9476
294.7405, 815.3413
295.2227, 849.6060
295.7048, 869.7695
296.1869, 869.3237
296.6690, 857.4854
297.1511, 837.9626
297.6332, 812.6968
298.1154, 789.1548
298.5975, 782.4850
299.0796, 805.1495
299.5617, 816.4963
300.0438, 806.3864
300.5259, 790.6143
301.0081, 779.4135
301.4902, 775.1902
301.9723, 774.1510
302.4544, 770.6938
302.9365, 762.6263
303.4186, 759.0479
303.9008, 762.8217
304.3829, 768.9813
304.8650, 775.1704
305.3471, 781.0242
305.8292, 787.3072
306.3113, 796.3046
306.7935, 809.9733
307.2756, 816.7988
307.7577, 806.1639
308.2398, 797.3810
308.7219, 800.2087
309.2040, 813.2414
309.6862, 827.8386
310.1683, 836.7101
310.6504, 839.6588
311.1325, 841.3387
311.6146, 839.4312
312.0967, 838.5512
312.5789, 841.0148
313.0610, 845.9131
313.5431, 850.8687
314.0252, 853.9418
314.5073, 855.4865
314.9894, 858.6586
315.4716, 866.2064
315.9537, 871.6146
316.4358, 869.8916
316.9179, 865.0350
317.4000, 864.5200
317.8821, 874.8637
318.3643, 890.7170
318.8464, 893.2302
319.3285, 873.3350
319.8106, 857.1259
320.2927, 854.7814
320.7748, 860.1710
321.2570, 866.3301
321.7391, 870.6973
322.2212, 874.0507
322.7033, 877.9917
323.1854, 882.9945
323.6675, 887.1510
324.1497, 892.1782
324.6318, 894.9881
325.1139, 892.1428
325.5960, 882.3217
326.0781, 868.7339
326.5602, 855.0032
327.0424, 841.3126
327.5245, 826.3708
328.0066, 808.3087
328.4887, 789.9017
328.9708, 773.2392
329.4529, 758.6189
329.9351, 745.4961
330.4172, 733.8321
330.8993, 723.5428
331.3814, 713.1668
331.8635, 699.9395
332.3456, 689.6024
332.8278, 686.1391
333.3099, 689.4818
333.7920, 697.1498
334.2741, 709.3890
334.7563, 725.0635
335.2384, 741.2334
335.7205, 760.6378
336.2026, 774.6561
336.6847, 771.5228
337.1668, 755.8574
337.6490, 745.6823
338.1311, 750.4377
338.6132, 764.3153
339.0953, 777.2576
339.5774, 788.1958
340.0595, 801.0167
340.5417, 821.1207
341.0238, 845.5620
341.5059, 866.1077
341.9880, 877.9687
342.4701, 887.3925
342.9522, 899.5923
343.4344, 914.5718
343.9165, 933.0773
344.3986, 958.4194
344.8807, 986.6747
345.3628, 1006.679
345.8449, 1013.684
346.3271, 1018.147
346.8092, 1023.950
347.2913, 1031.744
347.7734, 1044.910
348.2555, 1067.038
348.7376, 1092.685
349.2198, 1108.986
349.7019, 1113.514
350.1840, 1116.487
350.6661, 1120.882
351.1482, 1125.815
351.6303, 1130.730
352.1125, 1135.843
352.5946, 1138.371
353.0767, 1133.162
353.5588, 1117.052
354.0409, 1103.149
354.5230, 1094.263
355.0052, 1086.970
355.4873, 1078.603
355.9694, 1068.583
356.4515, 1056.456
356.9336, 1040.763
357.4157, 1019.766
357.8979, 1006.854
358.3800, 1009.799
358.8621, 1013.134
359.3442, 1007.838
359.8263, 995.0401
360.3084, 980.4834
360.7906, 968.1942
361.2727, 958.1564
361.7548, 951.2081
362.2369, 951.7981
362.7190, 950.2841
363.2011, 942.8633
363.6833, 932.0116
364.1654, 921.7418
364.6475, 914.1250
365.1296, 908.2769
365.6117, 901.6103
366.0938, 894.3896
366.5760, 885.7913
367.0581, 873.7179
367.5402, 861.4247
368.0223, 852.5064
368.5044, 847.8264
368.9865, 844.5972
369.4687, 837.9018
369.9508, 824.9069
370.4329, 816.5096
370.9150, 816.2667
371.3971, 817.9401
371.8792, 818.4949
372.3614, 817.6815
372.8435, 816.7860
373.3256, 817.6635
373.8077, 820.4061
374.2898, 819.8951
374.7719, 812.8124
375.2541, 806.2522
375.7362, 803.7571
376.2183, 803.9463
376.7004, 803.6147
377.1825, 800.3926
377.6646, 795.7378
378.1468, 793.5726
378.6289, 794.2123
379.1110, 796.5758
379.5931, 802.4307
380.0752, 808.8912
380.5573, 812.4316
381.0395, 811.5800
381.5216, 808.8168
382.0037, 806.9851
382.4858, 806.1028
382.9679, 804.1739
383.4500, 800.1376
383.9322, 795.0698
384.4143, 789.7054
384.8964, 783.6257
385.3785, 780.0674
385.8606, 782.2910
386.3427, 788.3662
386.8249, 793.0528
387.3070, 794.7767
387.7891, 796.5313
388.2712, 802.1874
388.7533, 811.3451
389.2354, 820.1846
389.7176, 829.7773
390.1997, 837.5737
390.6818, 840.2589
391.1639, 837.8375
391.6460, 833.8353
392.1281, 830.5502
392.6103, 827.9086
393.0924, 824.9001
393.5745, 819.7401
394.0566, 816.0852
394.5387, 815.0416
395.0208, 816.6832
395.5030, 822.4722
395.9851, 833.8587
396.4672, 846.8018
396.9493, 850.1532
397.4314, 830.7473
397.9135, 818.7939
398.3957, 819.9924
398.8778, 826.8201
399.3599, 832.4178
399.8420, 835.1286
400.3241, 837.3243
400.8062, 842.7755
401.2884, 854.4099
401.7705, 858.8155
402.2526, 847.4167
402.7347, 837.5920
403.2168, 840.0572
403.6989, 851.7497
404.1811, 862.0087
404.6632, 862.0328
405.1453, 853.5233
405.6274, 851.5093
406.1095, 862.1966
406.5916, 870.7975
407.0738, 871.4476
407.5559, 868.7485
408.0380, 868.3337
408.5201, 872.4933
409.0022, 879.4517
409.4843, 887.6193
409.9665, 898.1114
410.4486, 903.8352
410.9307, 895.7527
411.4128, 887.3055
411.8949, 890.1621
412.3770, 905.1201
412.8592, 920.1768
413.3413, 926.7905
413.8234, 926.2957
414.3055, 922.4254
414.7876, 912.3251
415.2697, 906.0768
415.7519, 914.4412
416.2340, 933.9335
416.7161, 954.5306
417.1982, 978.1531
417.6803, 998.8257
418.1624, 1006.928
418.6446, 1003.281
419.1267, 1002.151
419.6088, 1011.929
420.0909, 1030.091
420.5730, 1047.263
421.0551, 1062.192
421.5373, 1077.957
422.0194, 1095.082
422.5015, 1113.930
422.9836, 1136.195
423.4657, 1162.539
423.9478, 1189.385
424.4300, 1210.271
424.9121, 1218.948
425.3942, 1237.647
425.8763, 1272.778
426.3584, 1312.497
426.8405, 1351.725
427.3227, 1388.427
427.8048, 1418.660
428.2869, 1436.767
428.7690, 1443.590
429.2511, 1468.480
429.7332, 1536.165
430.2154, 1596.021
430.6975, 1633.992
431.1796, 1660.064
431.6617, 1687.943
432.1438, 1723.559
432.6259, 1763.504
433.1081, 1803.313
433.5902, 1845.438
434.0723, 1879.009
434.5544, 1889.822
435.0365, 1900.671
435.5186, 1929.611
436.0008, 1976.001
436.4829, 2019.156
436.9650, 2038.224
437.4471, 2038.980
437.9292, 2052.519
438.4113, 2089.113
438.8935, 2120.088
439.3756, 2126.140
439.8577, 2113.223
440.3398, 2089.914
440.8219, 2048.195
441.3040, 2006.498
441.7862, 1989.975
442.2683, 1994.501
442.7504, 1985.330
443.2325, 1944.806
443.7146, 1884.704
444.1967, 1829.452
444.6789, 1781.207
445.1610, 1731.079
445.6431, 1674.355
446.1252, 1615.561
446.6073, 1560.000
447.0894, 1508.826
447.5716, 1460.260
448.0537, 1412.051
448.5358, 1363.089
449.0179, 1324.075
449.5000, 1304.375
449.9821, 1283.534
450.4643, 1251.398
450.9464, 1211.690
451.4285, 1172.200
451.9106, 1137.182
452.3927, 1106.761
452.8748, 1082.123
453.3570, 1070.100
453.8391, 1051.927
454.3212, 1019.435
454.8033, 985.2081
455.2854, 959.8012
455.7675, 944.4504
456.2497, 931.6573
456.7318, 912.6411
457.2139, 887.5820
457.6960, 868.5488
458.1781, 858.4796
458.6602, 850.8727
459.1424, 843.2998
459.6245, 835.2207
460.1066, 825.0994
460.5887, 809.4305
461.0708, 794.3155
461.5529, 789.1671
462.0351, 793.6840
462.5172, 797.1314
462.9993, 796.0040
463.4814, 790.5802
463.9635, 780.3854
464.4456, 762.8927
464.9278, 749.8962
465.4099, 746.7066
465.8920, 749.6253
466.3741, 754.7386
466.8562, 761.2109
467.3383, 767.9077
467.8205, 773.9203
468.3026, 779.3005
468.7847, 782.8664
469.2668, 787.9567
469.7489, 788.0554
470.2310, 774.1301
470.7132, 754.7316
471.1953, 745.6206
471.6774, 754.5249
472.1595, 772.9412
472.6416, 780.9039
473.1237, 770.8907
473.6059, 766.3238
474.0880, 773.0389
474.5701, 781.5681
475.0522, 786.8462
475.5343, 788.2044
476.0164, 786.9603
476.4986, 783.4585
476.9807, 778.0847
477.4628, 773.1577
477.9449, 769.1014
478.4270, 764.6042
478.9091, 759.7422
479.3913, 753.8638
479.8734, 745.8736
480.3555, 735.3917
480.8376, 723.1068
481.3197, 707.0642
481.8018, 689.0526
482.2840, 677.4148
482.7661, 675.8854
483.2482, 678.0145
483.7303, 675.1564
484.2124, 666.6984
484.6945, 660.3398
485.1767, 659.1541
485.6588, 658.7770
486.1409, 655.1837
486.6230, 649.0353
487.1051, 643.9948
487.5872, 642.6293
488.0694, 644.0057
488.5515, 643.8493
489.0336, 640.4478
489.5157, 637.5521
489.9978, 636.6482
490.4799, 635.6153
490.9621, 631.7690
491.4442, 624.9598
491.9263, 618.2000
492.4084, 615.3387
492.8905, 616.7651
493.3727, 615.9901
493.8548, 612.9785
494.3369, 607.5756
494.8190, 596.3076
495.3011, 583.4626
495.7832, 577.1862
496.2654, 582.9378
496.7475, 592.0398
497.2296, 591.9263
497.7117, 583.3143
498.1938, 580.5076
498.6759, 590.9467
499.1581, 604.9020
499.6402, 608.9269
500.1223, 603.0233
500.6044, 595.5136
501.0865, 586.7283
501.5686, 578.4937
502.0508, 571.6128
502.5329, 566.6100
503.0150, 566.1648
503.4971, 573.3049
503.9792, 585.8426
504.4613, 590.8416
504.9435, 580.7165
505.4256, 572.6693
505.9077, 568.0601
506.3898, 566.7474
506.8719, 570.7525
507.3540, 579.4122
507.8362, 586.4802
508.3183, 583.2179
508.8004, 568.3039
509.2825, 559.9708
509.7646, 562.4692
510.2467, 566.5427
510.7289, 569.5900
511.2110, 571.4280
511.6931, 571.8696
512.1752, 570.6906
512.6573, 568.4344
513.1394, 564.2244
513.6215, 558.4532
514.1036, 558.0668
514.5858, 568.1003
515.0679, 579.3088
515.5500, 577.2572
516.0321, 562.2637
516.5142, 553.9502
516.9963, 562.9387
517.4785, 575.5477
517.9606, 579.9667
518.4427, 576.8691
518.9248, 572.4427
519.4069, 569.9189
519.8890, 569.4363
520.3712, 571.5303
520.8533, 580.8079
521.3354, 586.5238
521.8175, 585.7975
522.2996, 583.2327
522.7817, 582.5134
523.2639, 583.9749
523.7460, 585.6616
524.2281, 585.4899
524.7102, 583.7856
525.1923, 583.6359
525.6744, 584.3914
526.1566, 588.0278
526.6387, 599.0156
527.1208, 611.5947
527.6029, 618.4330
528.0850, 617.0671
528.5671, 613.6441
529.0493, 611.7111
529.5314, 611.6107
530.0135, 615.5773
530.4956, 625.0396
530.9777, 633.9407
531.4598, 636.0151
531.9420, 631.1148
532.4241, 628.3290
532.9062, 627.4530
533.3883, 629.0504
533.8704, 634.5902
534.3525, 642.5966
534.8347, 650.9644
535.3168, 658.8135
535.7989, 665.3722
536.2810, 668.7812
536.7631, 666.7910
537.2452, 667.8176
537.7274, 674.5688
538.2095, 681.6147
538.6916, 685.5704
539.1737, 687.8848
539.6558, 692.3549
540.1379, 701.5407
540.6201, 713.2157
541.1022, 724.0753
541.5843, 734.3706
542.0664, 740.7067
542.5485, 738.8798
543.0306, 735.7153
543.5128, 739.6951
543.9949, 750.9473
544.4770, 761.6546
544.9591, 765.5600
545.4412, 769.9348
545.9233, 785.5034
546.4055, 810.6953
546.8876, 831.9120
547.3697, 840.3898
547.8518, 840.4674
548.3339, 847.1307
548.8160, 868.5342
549.2982, 886.2366
549.7803, 897.5294
550.2624, 906.7899
550.7445, 917.0333
551.2266, 928.7684
551.7087, 940.9908
552.1909, 952.0463
552.6730, 962.9999
553.1551, 980.3036
553.6372, 1006.445
554.1193, 1033.268
554.6014, 1056.111
555.0836, 1079.178
555.5657, 1108.488
556.0478, 1145.962
556.5299, 1179.376
557.0120, 1198.390
557.4941, 1208.914
557.9763, 1219.378
558.4584, 1230.592
558.9405, 1251.621
559.4226, 1291.745
559.9047, 1347.800
560.3868, 1396.052
560.8690, 1435.541
561.3511, 1469.469
561.8332, 1490.259
562.3153, 1510.148
562.7974, 1543.127
563.2795, 1591.534
563.7617, 1647.356
564.2438, 1703.931
564.7259, 1761.179
565.2080, 1810.846
565.6901, 1848.451
566.1722, 1884.460
566.6544, 1921.440
567.1365, 1959.544
567.6186, 1998.784
568.1007, 2038.991
568.5828, 2081.305
569.0649, 2128.285
569.5471, 2178.046
570.0292, 2223.921
570.5113, 2264.856
570.9934, 2304.974
571.4755, 2349.064
571.9576, 2396.262
572.4398, 2434.995
572.9219, 2460.601
573.4040, 2484.113
573.8861, 2508.079
574.3682, 2532.436
574.8503, 2558.854
575.3325, 2586.928
575.8146, 2611.342
576.2967, 2626.108
576.7788, 2631.191
577.2609, 2626.970
577.7430, 2605.440
578.2252, 2585.498
578.7073, 2577.267
579.1894, 2573.198
579.6715, 2563.683
580.1536, 2546.271
580.6357, 2522.777
581.1179, 2495.390
581.6000, 2463.274
582.0822, 2422.477
582.5643, 2371.343
583.0464, 2318.866
583.5285, 2272.896
584.0106, 2232.879
584.4927, 2189.236
584.9749, 2142.503
585.4570, 2091.971
585.9391, 2031.778
586.4212, 1970.159
586.9033, 1918.709
587.3854, 1879.384
587.8676, 1843.251
588.3497, 1799.488
588.8318, 1747.730
589.3139, 1702.569
589.7960, 1670.148
590.2781, 1634.798
590.7603, 1583.740
591.2424, 1529.873
591.7245, 1490.245
592.2066, 1470.353
592.6887, 1454.515
593.1708, 1432.389
593.6530, 1405.787
594.1351, 1378.716
594.6172, 1351.827
595.0993, 1323.895
595.5814, 1293.468
596.0635, 1261.265
596.5457, 1232.515
