##NAMES=Tenorite
##RRUFFID=R060978
##IDEAL CHEMISTRY=Cu^2+^O
##LOCALITY=Algomah, Michigan, USA
##OWNER=RRUFF
##SOURCE=Michael Scott
##DESCRIPTION=Black massive with some prismatic faces, associated with malachite and chrysocolla. Sample is a pseudomorph.
##STATUS=The identification of this mineral has been confirmed by X-ray diffraction.
##URL=rruff.info/R060978
147.5623, 2804.289
148.0444, 2917.727
148.5266, 3014.834
149.0087, 3096.514
149.4908, 3161.837
149.9729, 3210.667
150.4550, 3244.635
150.9371, 3265.072
151.4193, 3270.909
151.9014, 3267.378
152.3835, 3249.321
152.8656, 3226.031
153.3477, 3202.056
153.8298, 3178.518
154.3120, 3156.312
154.7941, 3136.782
155.2762, 3120.271
155.7583, 3105.297
156.2404, 3091.916
156.7225, 3079.491
157.2047, 3066.241
157.6868, 3051.656
158.1689, 3039.523
158.6510, 3036.930
159.1331, 3047.777
159.6152, 3059.897
160.0974, 3070.290
160.5795, 3081.563
161.0616, 3095.623
161.5437, 3113.117
162.0258, 3133.727
162.5079, 3157.556
162.9901, 3187.969
163.4722, 3214.915
163.9543, 3234.774
164.4364, 3252.506
164.9185, 3272.862
165.4007, 3297.656
165.8828, 3323.619
166.3649, 3343.532
166.8470, 3351.806
167.3291, 3362.680
167.8112, 3379.119
168.2933, 3397.613
168.7755, 3414.778
169.2576, 3429.337
169.7397, 3442.511
170.2218, 3457.844
170.7039, 3484.685
171.1860, 3499.316
171.6682, 3492.703
172.1503, 3477.736
172.6324, 3466.104
173.1145, 3462.687
173.5966, 3465.163
174.0787, 3468.470
174.5609, 3482.793
175.0430, 3483.331
175.5251, 3458.297
176.0072, 3424.088
176.4893, 3395.880
176.9714, 3379.984
177.4536, 3374.265
177.9357, 3373.871
178.4178, 3385.932
178.8999, 3394.779
179.3820, 3399.160
179.8641, 3400.416
180.3463, 3399.964
180.8284, 3398.349
181.3105, 3395.096
181.7926, 3389.056
182.2747, 3367.469
182.7568, 3359.036
183.2390, 3377.682
183.7211, 3404.218
184.2032, 3416.364
184.6853, 3405.672
185.1674, 3382.473
185.6495, 3369.636
186.1317, 3370.890
186.6138, 3379.595
187.0959, 3407.030
187.5780, 3437.322
188.0601, 3451.482
188.5422, 3442.761
189.0244, 3421.807
189.5065, 3410.684
189.9886, 3421.732
190.4707, 3426.061
190.9528, 3414.666
191.4349, 3399.893
191.9170, 3396.913
192.3992, 3410.607
192.8813, 3431.281
193.3634, 3440.176
193.8455, 3418.313
194.3276, 3414.678
194.8097, 3445.981
195.2919, 3489.033
195.7740, 3521.926
196.2561, 3537.936
196.7382, 3541.095
197.2203, 3537.372
197.7024, 3520.296
198.1846, 3507.452
198.6667, 3499.294
199.1488, 3495.368
199.6309, 3495.321
200.1130, 3499.054
200.5951, 3506.394
201.0773, 3517.352
201.5594, 3533.937
202.0415, 3550.377
202.5236, 3573.785
203.0057, 3593.096
203.4878, 3594.260
203.9700, 3575.135
204.4521, 3551.287
204.9342, 3543.688
205.4163, 3562.861
205.8984, 3571.884
206.3805, 3561.934
206.8627, 3547.394
207.3448, 3539.303
207.8269, 3539.642
208.3090, 3545.054
208.7911, 3552.633
209.2732, 3564.512
209.7554, 3569.394
210.2375, 3559.270
210.7196, 3548.054
211.2017, 3548.282
211.6838, 3560.170
212.1659, 3572.168
212.6480, 3571.007
213.1302, 3551.726
213.6123, 3546.902
214.0944, 3569.766
214.5765, 3595.296
215.0586, 3606.342
215.5407, 3603.263
216.0229, 3598.506
216.5050, 3603.327
216.9871, 3619.138
217.4692, 3632.172
217.9513, 3643.335
218.4334, 3651.509
218.9156, 3654.570
219.3977, 3653.586
219.8798, 3652.206
220.3619, 3653.043
220.8440, 3656.146
221.3261, 3661.222
221.8083, 3670.083
222.2904, 3678.714
222.7725, 3686.520
223.2546, 3692.846
223.7367, 3695.709
224.2188, 3693.034
224.7010, 3685.599
225.1831, 3684.624
225.6652, 3693.431
226.1473, 3703.702
226.6294, 3715.089
227.1115, 3726.028
227.5937, 3733.424
228.0758, 3735.229
228.5579, 3732.648
229.0400, 3731.885
229.5221, 3730.512
230.0042, 3733.567
230.4864, 3748.757
230.9685, 3767.533
231.4506, 3775.580
231.9327, 3765.699
232.4148, 3745.184
232.8969, 3735.960
233.3791, 3746.591
233.8612, 3759.031
234.3433, 3774.745
234.8254, 3790.801
235.3075, 3803.546
235.7896, 3811.666
236.2717, 3817.208
236.7539, 3824.573
237.2360, 3839.288
237.7181, 3847.519
238.2002, 3844.748
238.6823, 3838.255
239.1644, 3833.547
239.6466, 3832.288
240.1287, 3833.866
240.6108, 3837.286
241.0929, 3841.814
241.5750, 3850.440
242.0571, 3870.651
242.5393, 3889.085
243.0214, 3893.918
243.5035, 3885.349
243.9856, 3874.587
244.4677, 3874.569
244.9498, 3887.976
245.4320, 3902.238
245.9141, 3920.059
246.3962, 3936.338
246.8783, 3949.225
247.3604, 3958.383
247.8425, 3963.634
248.3247, 3964.189
248.8068, 3959.505
249.2889, 3957.614
249.7710, 3955.427
250.2531, 3959.056
250.7352, 3974.121
251.2174, 3996.604
251.6995, 4018.484
252.1816, 4034.359
252.6637, 4044.614
253.1458, 4052.357
253.6279, 4052.929
254.1101, 4056.352
254.5922, 4066.861
255.0743, 4080.858
255.5564, 4092.981
256.0385, 4100.179
256.5206, 4104.627
257.0027, 4113.606
257.4849, 4132.954
257.9670, 4146.789
258.4491, 4147.529
258.9312, 4144.539
259.4133, 4146.496
259.8954, 4156.590
260.3776, 4172.725
260.8597, 4193.106
261.3418, 4221.269
261.8239, 4243.188
262.3060, 4255.134
262.7881, 4261.335
263.2703, 4260.717
263.7524, 4254.036
264.2345, 4250.544
264.7166, 4264.683
265.1987, 4299.857
265.6808, 4324.917
266.1630, 4328.630
266.6451, 4327.305
267.1272, 4327.173
267.6093, 4329.443
268.0914, 4335.947
268.5735, 4351.035
269.0557, 4373.414
269.5378, 4389.417
270.0199, 4391.348
270.5020, 4396.855
270.9841, 4418.051
271.4662, 4450.589
271.9484, 4482.715
272.4305, 4510.769
272.9126, 4533.692
273.3947, 4546.492
273.8768, 4543.580
274.3589, 4545.162
274.8411, 4571.224
275.3232, 4607.980
275.8053, 4633.116
276.2874, 4629.245
276.7695, 4621.026
277.2516, 4642.625
277.7338, 4696.356
278.2159, 4751.337
278.6980, 4798.099
279.1801, 4834.640
279.6622, 4856.132
280.1443, 4852.862
280.6265, 4853.843
281.1086, 4885.235
281.5907, 4941.502
282.0728, 4992.264
282.5549, 5023.751
283.0370, 5050.293
283.5192, 5094.993
284.0013, 5159.969
284.4834, 5227.688
284.9655, 5285.591
285.4476, 5342.605
285.9297, 5415.823
286.4119, 5510.433
286.8940, 5615.677
287.3761, 5716.827
287.8582, 5811.274
288.3403, 5928.432
288.8224, 6077.083
289.3046, 6246.987
289.7867, 6424.246
290.2688, 6608.819
290.7509, 6817.794
291.2330, 7072.834
291.7151, 7375.118
292.1972, 7657.215
292.6794, 7888.644
293.1615, 8130.034
293.6436, 8427.319
294.1257, 8761.882
294.6078, 9083.326
295.0899, 9360.310
295.5721, 9601.956
296.0542, 9851.126
296.5363, 10159.21
297.0184, 10415.86
297.5005, 10633.51
297.9826, 10779.30
298.4648, 10817.02
298.9469, 10732.06
299.4290, 10529.74
299.9111, 10214.91
300.3932, 9725.079
300.8753, 9212.868
301.3575, 8635.116
301.8396, 8066.374
302.3217, 7559.585
302.8038, 7125.748
303.2859, 6753.086
303.7680, 6431.188
304.2502, 6163.928
304.7323, 5931.098
305.2144, 5746.346
305.6965, 5584.329
306.1786, 5436.454
306.6607, 5303.628
307.1429, 5190.024
307.6250, 5102.077
308.1071, 5036.287
308.5892, 4973.350
309.0713, 4910.628
309.5534, 4855.299
310.0356, 4804.315
310.5177, 4762.486
310.9998, 4738.854
311.4819, 4740.738
311.9640, 4750.643
312.4461, 4736.825
312.9283, 4692.934
313.4104, 4654.025
313.8925, 4633.190
314.3746, 4619.774
314.8567, 4607.208
315.3388, 4594.761
315.8210, 4580.866
316.3031, 4563.281
316.7852, 4542.700
317.2673, 4522.768
317.7494, 4501.735
318.2315, 4485.240
318.7137, 4480.834
319.1958, 4486.445
319.6779, 4489.998
320.1600, 4484.708
320.6421, 4475.396
321.1242, 4467.490
321.6064, 4460.850
322.0885, 4460.899
322.5706, 4475.081
323.0527, 4499.944
323.5348, 4517.838
324.0169, 4528.780
324.4991, 4531.783
324.9812, 4520.608
325.4633, 4499.818
325.9454, 4483.749
326.4275, 4478.723
326.9096, 4483.311
327.3918, 4495.528
327.8739, 4526.125
328.3560, 4544.888
328.8381, 4536.629
329.3202, 4518.096
329.8023, 4509.231
330.2845, 4514.899
330.7666, 4526.085
331.2487, 4531.072
331.7308, 4526.504
332.2129, 4527.194
332.6950, 4535.876
333.1772, 4546.689
333.6593, 4557.823
334.1414, 4568.491
334.6235, 4577.845
335.1056, 4585.274
335.5877, 4590.874
336.0698, 4595.436
336.5519, 4592.089
337.0341, 4596.448
337.5162, 4616.816
337.9983, 4644.417
338.4804, 4668.609
338.9625, 4685.095
339.4446, 4696.997
339.9268, 4708.590
340.4089, 4717.469
340.8910, 4733.872
341.3731, 4768.974
341.8552, 4805.290
342.3373, 4831.642
342.8195, 4847.260
343.3016, 4859.354
343.7837, 4872.856
344.2658, 4887.686
344.7479, 4904.849
345.2300, 4928.887
345.7122, 4946.847
346.1943, 4950.302
346.6764, 4941.795
347.1585, 4925.646
347.6406, 4898.852
348.1227, 4868.302
348.6049, 4842.185
349.0870, 4820.591
349.5691, 4799.654
350.0512, 4776.691
350.5333, 4753.981
351.0154, 4736.525
351.4976, 4727.012
351.9797, 4717.085
352.4618, 4697.322
352.9439, 4675.733
353.4260, 4672.208
353.9081, 4693.865
354.3903, 4717.877
354.8724, 4712.790
355.3545, 4666.192
355.8366, 4630.854
356.3187, 4610.359
356.8008, 4598.658
357.2830, 4594.244
357.7651, 4595.508
358.2472, 4598.964
358.7293, 4602.320
359.2114, 4605.509
359.6935, 4607.732
360.1757, 4614.707
360.6578, 4613.892
361.1399, 4594.494
361.6220, 4569.710
362.1041, 4556.756
362.5862, 4561.710
363.0684, 4573.904
363.5505, 4574.823
364.0326, 4560.304
364.5147, 4547.462
364.9968, 4533.365
365.4789, 4524.692
365.9611, 4528.653
366.4432, 4542.917
366.9253, 4556.686
367.4074, 4559.204
367.8895, 4553.976
368.3716, 4558.806
368.8538, 4579.204
369.3359, 4597.436
369.8180, 4603.434
370.3001, 4601.644
370.7822, 4596.922
371.2643, 4588.044
371.7465, 4580.733
372.2286, 4583.369
372.7107, 4594.012
373.1928, 4598.684
373.6749, 4590.620
374.1570, 4577.683
374.6392, 4572.262
375.1213, 4574.919
375.6034, 4577.942
376.0855, 4578.672
376.5676, 4579.123
377.0497, 4583.640
377.5319, 4591.998
378.0140, 4595.785
378.4961, 4585.740
378.9782, 4561.907
379.4603, 4553.610
379.9424, 4571.341
380.4246, 4589.952
380.9066, 4610.886
381.3888, 4625.126
381.8709, 4613.704
382.3530, 4568.184
382.8351, 4510.321
383.3172, 4486.021
383.7993, 4516.309
384.2815, 4537.882
384.7636, 4550.053
385.2457, 4553.155
385.7278, 4538.653
386.2099, 4512.222
386.6920, 4496.081
387.1742, 4516.965
387.6563, 4567.006
388.1384, 4583.553
388.6205, 4544.724
389.1026, 4512.930
389.5847, 4519.286
390.0669, 4547.033
390.5490, 4575.905
391.0311, 4601.874
391.5132, 4623.447
391.9953, 4640.472
392.4774, 4652.402
392.9596, 4653.279
393.4417, 4636.033
393.9238, 4615.341
394.4059, 4612.173
394.8880, 4626.472
395.3701, 4637.842
395.8523, 4635.813
396.3344, 4631.653
396.8165, 4638.548
397.2986, 4656.277
397.7807, 4673.912
398.2628, 4683.571
398.7450, 4686.423
399.2271, 4691.990
399.7092, 4699.332
400.1913, 4710.102
400.6734, 4730.117
401.1555, 4751.433
401.6377, 4764.237
402.1198, 4765.637
402.6019, 4760.324
403.0840, 4754.913
403.5661, 4750.230
404.0482, 4742.561
404.5304, 4717.012
405.0125, 4702.768
405.4946, 4720.130
405.9767, 4758.706
406.4588, 4793.141
406.9409, 4807.816
407.4231, 4809.942
407.9052, 4816.692
408.3873, 4829.605
408.8694, 4841.167
409.3515, 4850.323
409.8336, 4855.776
410.3158, 4854.018
410.7979, 4843.491
411.2800, 4836.041
411.7621, 4841.798
412.2442, 4855.178
412.7263, 4862.950
413.2085, 4862.157
413.6906, 4862.624
414.1727, 4874.319
414.6548, 4896.711
415.1369, 4912.256
415.6190, 4915.050
416.1012, 4916.854
416.5833, 4925.711
417.0654, 4937.497
417.5475, 4941.858
418.0296, 4934.159
418.5117, 4922.472
418.9939, 4922.549
419.4760, 4939.997
419.9581, 4930.955
420.4402, 4964.487
420.9223, 4984.204
421.4044, 4990.847
421.8866, 4945.262
422.3687, 4967.119
422.8508, 4961.948
423.3329, 4955.669
423.8150, 4987.019
424.2971, 4949.029
424.7793, 4979.782
425.2614, 4983.094
425.7435, 4998.965
426.2256, 4987.641
426.7077, 4984.717
427.1898, 5008.996
427.6719, 5018.212
428.1541, 5003.758
428.6362, 5020.427
429.1183, 4981.488
429.6004, 4991.346
430.0825, 4962.967
430.5646, 4988.871
431.0468, 5004.839
431.5289, 4995.830
432.0110, 4985.817
432.4931, 4993.921
432.9752, 5011.105
433.4573, 5013.413
433.9395, 4989.882
434.4216, 4956.706
434.9037, 4944.736
435.3858, 4967.375
435.8679, 4983.951
436.3500, 4991.048
436.8322, 4995.826
437.3143, 5001.051
437.7964, 5007.559
438.2785, 5016.725
438.7606, 5030.855
439.2427, 5046.902
439.7249, 5052.497
440.2070, 5043.069
440.6891, 5034.449
441.1712, 5029.320
441.6533, 5028.204
442.1354, 5033.479
442.6176, 5045.628
443.0997, 5057.003
443.5818, 5059.071
444.0639, 5056.783
444.5460, 5064.994
445.0281, 5087.097
445.5103, 5107.318
445.9924, 5113.473
446.4745, 5106.781
446.9566, 5100.447
447.4387, 5092.146
447.9208, 5086.793
448.4030, 5089.606
448.8851, 5095.738
449.3672, 5095.076
449.8493, 5084.879
450.3314, 5075.762
450.8135, 5084.164
451.2957, 5118.188
451.7778, 5137.082
452.2599, 5129.103
452.7420, 5118.979
453.2241, 5117.741
453.7062, 5120.882
454.1884, 5117.122
454.6705, 5099.048
455.1526, 5078.037
455.6347, 5076.498
456.1168, 5096.984
456.5989, 5117.726
457.0811, 5136.468
457.5632, 5151.266
458.0453, 5160.293
458.5274, 5163.835
459.0095, 5165.178
459.4916, 5162.884
459.9738, 5160.601
460.4559, 5164.467
460.9380, 5173.721
461.4201, 5179.750
461.9022, 5177.041
462.3843, 5169.328
462.8665, 5167.706
463.3486, 5179.908
463.8307, 5185.308
464.3128, 5171.691
464.7949, 5157.814
465.2770, 5163.832
465.7592, 5188.060
466.2413, 5211.037
466.7234, 5216.078
467.2055, 5205.356
467.6876, 5196.231
468.1697, 5190.594
468.6519, 5183.362
469.1340, 5163.318
469.6161, 5146.718
470.0982, 5154.639
470.5803, 5191.527
471.0624, 5226.421
471.5445, 5227.553
472.0266, 5206.088
472.5088, 5199.617
472.9909, 5213.969
473.4730, 5233.073
473.9551, 5246.704
474.4372, 5255.563
474.9193, 5264.799
475.4015, 5286.614
475.8836, 5294.716
476.3657, 5264.033
476.8478, 5218.608
477.3299, 5195.418
477.8120, 5203.277
478.2942, 5223.134
478.7763, 5232.721
479.2584, 5230.525
479.7405, 5230.418
480.2226, 5240.911
480.7047, 5244.271
481.1869, 5227.088
481.6690, 5202.774
482.1511, 5189.856
482.6332, 5195.308
483.1153, 5211.430
483.5974, 5233.318
484.0796, 5260.285
484.5617, 5274.764
485.0438, 5269.474
485.5259, 5259.785
486.0080, 5258.489
486.4901, 5263.405
486.9723, 5267.943
487.4544, 5269.364
487.9365, 5271.375
488.4186, 5274.680
488.9007, 5280.460
489.3828, 5293.219
489.8650, 5314.813
490.3471, 5338.185
490.8292, 5353.651
491.3113, 5361.144
491.7934, 5359.938
492.2755, 5338.659
492.7577, 5321.607
493.2398, 5323.760
493.7219, 5336.287
494.2040, 5341.462
494.6861, 5330.385
495.1682, 5313.497
495.6504, 5306.469
496.1325, 5309.538
496.6146, 5321.627
497.0967, 5355.623
497.5788, 5381.104
498.0609, 5363.938
498.5431, 5314.657
499.0252, 5278.465
499.5073, 5277.146
499.9894, 5285.346
500.4715, 5282.872
500.9536, 5273.194
501.4358, 5267.183
501.9179, 5269.052
502.4000, 5275.761
502.8821, 5282.899
503.3642, 5291.240
503.8463, 5297.428
504.3285, 5299.352
504.8106, 5301.577
505.2927, 5305.368
505.7748, 5311.181
506.2569, 5320.185
506.7390, 5333.474
507.2212, 5347.330
507.7033, 5355.394
508.1854, 5357.312
508.6675, 5358.176
509.1496, 5360.571
509.6317, 5359.590
510.1139, 5346.103
510.5960, 5324.517
511.0781, 5313.615
511.5602, 5323.649
512.0423, 5341.350
512.5244, 5362.238
513.0065, 5382.785
513.4886, 5392.782
513.9708, 5388.253
514.4529, 5376.365
514.9350, 5366.653
515.4171, 5357.192
515.8992, 5357.549
516.3813, 5376.694
516.8635, 5395.018
517.3456, 5405.740
517.8277, 5410.181
518.3098, 5409.846
518.7919, 5404.684
519.2740, 5401.112
519.7562, 5412.154
520.2383, 5437.269
520.7204, 5450.137
521.2025, 5443.562
521.6846, 5430.743
522.1667, 5416.938
522.6489, 5404.749
523.1310, 5404.249
523.6131, 5432.338
524.0952, 5456.440
524.5773, 5449.510
525.0594, 5428.401
525.5416, 5427.091
526.0237, 5454.143
526.5058, 5486.900
526.9879, 5498.844
527.4700, 5488.107
527.9521, 5475.483
528.4343, 5452.066
528.9164, 5437.517
529.3985, 5441.876
529.8806, 5455.326
530.3627, 5466.480
530.8448, 5472.203
531.3270, 5475.328
531.8091, 5475.566
532.2912, 5475.060
532.7733, 5485.241
533.2554, 5510.116
533.7375, 5530.479
534.2197, 5529.591
534.7018, 5514.464
535.1839, 5513.504
535.6660, 5538.629
536.1481, 5559.485
536.6302, 5561.742
537.1124, 5559.091
537.5945, 5566.596
538.0766, 5585.521
538.5587, 5607.544
539.0408, 5626.578
539.5229, 5642.331
540.0051, 5652.193
540.4872, 5654.640
540.9693, 5654.252
541.4514, 5646.415
541.9335, 5640.179
542.4156, 5645.279
542.8978, 5661.708
543.3799, 5676.378
543.8620, 5674.247
544.3441, 5670.377
544.8262, 5696.094
545.3083, 5747.084
545.7905, 5774.610
546.2726, 5749.877
546.7547, 5702.042
547.2368, 5691.935
547.7189, 5749.893
548.2010, 5781.954
548.6832, 5769.018
549.1653, 5748.678
549.6474, 5734.937
550.1295, 5731.168
550.6116, 5740.770
551.0938, 5766.670
551.5759, 5800.122
552.0580, 5827.218
552.5401, 5848.039
553.0222, 5864.837
553.5043, 5876.715
553.9865, 5886.805
554.4686, 5897.079
554.9507, 5907.673
555.4328, 5919.034
555.9149, 5934.199
556.3970, 5947.083
556.8792, 5952.474
557.3613, 5954.206
557.8434, 5956.612
558.3255, 5961.380
558.8076, 5972.714
559.2897, 5997.127
559.7719, 6034.580
560.2540, 6060.042
560.7361, 6064.705
561.2182, 6069.721
561.7003, 6077.038
562.1824, 6089.043
562.6646, 6111.436
563.1467, 6144.723
563.6288, 6174.182
564.1109, 6186.440
564.5930, 6189.459
565.0751, 6197.419
565.5573, 6210.844
566.0394, 6223.490
566.5215, 6230.940
567.0036, 6237.542
567.4857, 6254.423
567.9678, 6298.343
568.4500, 6320.807
568.9321, 6297.046
569.4142, 6274.713
569.8963, 6287.508
570.3784, 6324.535
570.8605, 6354.235
571.3427, 6358.804
571.8248, 6356.198
572.3069, 6376.951
572.7890, 6420.983
573.2711, 6466.134
573.7532, 6513.782
574.2354, 6551.719
574.7175, 6562.243
575.1996, 6552.336
575.6817, 6554.120
576.1638, 6579.547
576.6459, 6606.166
577.1281, 6621.912
577.6102, 6634.955
578.0923, 6659.306
578.5744, 6695.603
579.0565, 6728.290
579.5386, 6741.264
580.0208, 6737.752
580.5029, 6743.419
580.9850, 6759.562
581.4671, 6782.007
581.9492, 6816.500
582.4313, 6852.318
582.9134, 6881.513
583.3955, 6903.580
583.8776, 6922.260
584.3597, 6935.074
584.8419, 6948.324
585.3240, 6969.781
585.8061, 6997.847
586.2882, 7026.509
586.7703, 7053.271
587.2524, 7079.375
587.7346, 7107.833
588.2167, 7142.613
588.6988, 7164.665
589.1809, 7153.979
589.6630, 7152.402
590.1451, 7183.492
590.6273, 7227.661
591.1094, 7256.051
591.5915, 7259.697
592.0736, 7256.653
592.5557, 7260.570
593.0378, 7269.863
593.5200, 7282.696
594.0021, 7299.012
594.4842, 7310.360
594.9663, 7309.467
595.4484, 7301.718
595.9305, 7303.670
596.4127, 7315.876
596.8948, 7337.696
597.3769, 7381.083
597.8590, 7423.483
598.3411, 7453.046
598.8232, 7469.156
599.3054, 7472.806
599.7875, 7462.044
600.2696, 7448.001
600.7517, 7448.061
601.2338, 7461.456
601.7159, 7478.949
602.1981, 7502.521
602.6802, 7519.435
603.1623, 7514.080
603.6444, 7490.845
604.1265, 7484.521
604.6086, 7509.113
605.0908, 7532.284
605.5729, 7550.892
606.0550, 7561.048
606.5371, 7549.677
607.0192, 7522.504
607.5013, 7508.793
607.9835, 7535.134
608.4656, 7585.384
608.9477, 7610.539
609.4298, 7606.693
609.9119, 7601.639
610.3940, 7601.583
610.8762, 7603.041
611.3583, 7603.024
611.8404, 7601.578
612.3225, 7598.517
612.8046, 7595.085
613.2867, 7588.706
613.7689, 7578.402
614.2510, 7564.235
614.7331, 7542.224
615.2152, 7513.527
615.6973, 7492.421
616.1794, 7497.263
616.6616, 7523.136
617.1437, 7526.811
617.6258, 7500.569
618.1079, 7473.516
618.5900, 7453.348
619.0721, 7437.423
619.5543, 7423.667
620.0364, 7412.010
620.5185, 7400.206
621.0006, 7384.789
621.4827, 7371.421
621.9648, 7366.503
622.4470, 7366.525
622.9291, 7365.297
623.4112, 7360.449
623.8933, 7349.245
624.3754, 7325.007
624.8575, 7287.063
625.3397, 7267.983
625.8218, 7275.815
626.3039, 7287.795
626.7860, 7304.660
627.2681, 7316.492
627.7502, 7309.553
628.2324, 7281.792
628.7145, 7255.907
629.1966, 7248.510
629.6787, 7241.617
630.1608, 7213.220
630.6429, 7170.364
631.1251, 7136.652
631.6072, 7121.524
632.0893, 7114.405
632.5714, 7101.840
633.0535, 7085.136
633.5356, 7049.884
634.0178, 6976.541
634.4999, 6914.226
634.9820, 6893.015
635.4641, 6886.367
635.9462, 6860.715
636.4283, 6809.236
636.9105, 6763.065
637.3926, 6743.841
637.8747, 6731.904
638.3568, 6702.266
638.8389, 6659.977
639.3210, 6628.942
639.8032, 6620.459
640.2853, 6618.425
640.7674, 6593.190
641.2495, 6536.664
641.7316, 6502.076
642.2137, 6502.112
642.6959, 6506.154
643.1780, 6509.467
643.6601, 6506.326
644.1422, 6484.615
644.6243, 6439.077
645.1064, 6402.341
