##NAMES=Tenorite
##RRUFFID=R060978
##IDEAL CHEMISTRY=Cu^2+^O
##LOCALITY=Algomah, Michigan, USA
##OWNER=RRUFF
##SOURCE=Michael Scott
##DESCRIPTION=Black massive with some prismatic faces, associated with malachite and chrysocolla. Sample is a pseudomorph.
##STATUS=The identification of this mineral has been confirmed by X-ray diffraction.
##URL=rruff.info/R060978
150.9315, 10096.44
151.4137, 10165.69
151.8958, 10207.35
152.3779, 10200.93
152.8600, 10148.67
153.3421, 10117.89
153.8242, 10128.10
154.3064, 10155.58
154.7885, 10181.77
155.2706, 10203.09
155.7527, 10223.92
156.2348, 10241.16
156.7169, 10251.94
157.1991, 10277.70
157.6812, 10330.71
158.1633, 10398.57
158.6454, 10465.88
159.1275, 10532.21
159.6096, 10592.10
160.0918, 10641.16
160.5739, 10673.21
161.0560, 10707.29
161.5381, 10754.09
162.0202, 10806.96
162.5023, 10852.78
162.9845, 10881.10
163.4666, 10903.47
163.9487, 10928.19
164.4308, 10960.11
164.9129, 10989.71
165.3950, 11012.87
165.8772, 11030.37
166.3593, 11044.37
166.8414, 11052.41
167.3235, 11059.64
167.8056, 11071.46
168.2877, 11097.21
168.7699, 11121.34
169.2520, 11133.03
169.7341, 11133.11
170.2162, 11128.25
170.6983, 11115.74
171.1804, 11102.55
171.6626, 11098.18
172.1447, 11109.36
172.6268, 11129.25
173.1089, 11154.23
173.5910, 11184.57
174.0731, 11211.54
174.5553, 11225.07
175.0374, 11229.41
175.5195, 11234.30
176.0016, 11243.36
176.4837, 11255.80
176.9658, 11270.04
177.4480, 11285.73
177.9301, 11304.70
178.4122, 11335.17
178.8943, 11372.70
179.3764, 11400.10
179.8585, 11394.19
180.3407, 11373.06
180.8228, 11373.61
181.3049, 11403.33
181.7870, 11448.50
182.2691, 11494.25
182.7512, 11540.39
183.2334, 11582.34
183.7155, 11617.06
184.1976, 11645.00
184.6797, 11669.58
185.1618, 11690.31
185.6439, 11708.62
186.1261, 11725.88
186.6082, 11742.14
187.0903, 11758.98
187.5724, 11779.75
188.0545, 11803.00
188.5366, 11822.99
189.0188, 11839.35
189.5009, 11850.94
189.9830, 11854.63
190.4651, 11850.30
190.9472, 11839.56
191.4293, 11816.25
191.9114, 11782.36
192.3936, 11764.68
192.8757, 11776.53
193.3578, 11811.88
193.8399, 11842.33
194.3220, 11868.80
194.8041, 11888.72
195.2863, 11899.13
195.7684, 11900.10
196.2505, 11892.92
196.7326, 11864.84
197.2147, 11819.83
197.6968, 11829.69
198.1790, 11909.18
198.6611, 12011.72
199.1432, 12069.99
199.6253, 12080.03
200.1074, 12069.28
200.5895, 12033.35
201.0717, 11968.05
201.5538, 11958.51
202.0359, 12024.25
202.5180, 12121.83
203.0001, 12156.61
203.4822, 12111.48
203.9644, 12072.15
204.4465, 12092.23
204.9286, 12182.76
205.4107, 12243.05
205.8928, 12262.66
206.3749, 12253.04
206.8571, 12243.74
207.3392, 12235.86
207.8213, 12225.56
208.3034, 12207.80
208.7855, 12178.69
209.2676, 12163.09
209.7498, 12166.43
210.2319, 12185.07
210.7140, 12204.62
211.1961, 12227.56
211.6782, 12247.82
212.1603, 12260.46
212.6425, 12263.94
213.1246, 12265.56
213.6067, 12261.91
214.0888, 12256.04
214.5709, 12271.79
215.0530, 12320.01
215.5352, 12371.56
216.0173, 12402.15
216.4994, 12404.08
216.9815, 12403.32
217.4636, 12401.00
217.9457, 12397.39
218.4279, 12404.80
218.9100, 12428.45
219.3921, 12455.96
219.8742, 12475.85
220.3563, 12487.26
220.8384, 12492.98
221.3206, 12489.56
221.8027, 12476.59
222.2848, 12482.85
222.7669, 12521.60
223.2490, 12566.20
223.7311, 12585.59
224.2132, 12564.07
224.6954, 12550.18
225.1775, 12558.52
225.6596, 12592.85
226.1417, 12615.11
226.6238, 12622.56
227.1059, 12620.15
227.5881, 12610.95
228.0702, 12581.64
228.5523, 12569.74
229.0344, 12591.68
229.5165, 12657.38
229.9986, 12699.46
230.4808, 12707.49
230.9629, 12698.59
231.4450, 12697.98
231.9271, 12711.21
232.4092, 12723.61
232.8913, 12730.23
233.3735, 12729.15
233.8556, 12730.36
234.3377, 12734.29
234.8198, 12740.57
235.3019, 12747.21
235.7840, 12747.88
236.2662, 12759.66
236.7483, 12793.65
237.2304, 12865.81
237.7125, 12909.57
238.1946, 12915.18
238.6767, 12896.87
239.1589, 12880.96
239.6410, 12861.11
240.1231, 12853.75
240.6052, 12869.70
241.0873, 12926.77
241.5694, 12957.96
242.0516, 12947.08
242.5337, 12915.51
243.0158, 12913.53
243.4979, 12956.54
243.9800, 13005.61
244.4621, 13046.33
244.9443, 13080.96
245.4264, 13097.91
245.9085, 13086.13
246.3906, 13058.66
246.8727, 13051.41
247.3548, 13073.88
247.8370, 13102.03
248.3191, 13127.22
248.8012, 13155.20
249.2833, 13166.59
249.7654, 13158.12
250.2475, 13134.43
250.7297, 13107.17
251.2118, 13072.35
251.6939, 13041.52
252.1760, 13019.82
252.6581, 13005.49
253.1402, 13007.03
253.6223, 13032.42
254.1045, 13073.16
254.5866, 13100.45
255.0687, 13109.89
255.5508, 13113.81
256.0329, 13116.06
256.5150, 13110.04
256.9972, 13120.36
257.4793, 13155.23
257.9614, 13205.13
258.4435, 13238.48
258.9256, 13250.30
259.4077, 13252.33
259.8899, 13244.97
260.3720, 13213.36
260.8541, 13217.29
261.3362, 13275.19
261.8183, 13367.14
262.3004, 13422.92
262.7826, 13430.63
263.2647, 13423.25
263.7468, 13418.27
264.2289, 13416.67
264.7110, 13413.72
265.1931, 13407.84
265.6753, 13400.93
266.1574, 13398.37
266.6395, 13399.11
267.1216, 13407.10
267.6037, 13429.89
268.0858, 13475.88
268.5680, 13500.92
269.0501, 13494.19
269.5322, 13467.48
270.0143, 13458.57
270.4964, 13473.77
270.9785, 13491.01
271.4607, 13494.00
271.9428, 13477.63
272.4249, 13476.41
272.9070, 13497.53
273.3891, 13533.18
273.8712, 13563.18
274.3534, 13588.46
274.8355, 13604.39
275.3176, 13604.34
275.7997, 13585.72
276.2818, 13570.62
276.7639, 13558.81
277.2461, 13552.86
277.7282, 13560.41
278.2103, 13582.31
278.6924, 13612.64
279.1745, 13655.38
279.6566, 13711.93
280.1388, 13740.94
280.6209, 13728.48
281.1030, 13697.37
281.5851, 13705.23
282.0672, 13757.31
282.5493, 13809.65
283.0315, 13836.90
283.5136, 13839.51
283.9957, 13825.54
284.4778, 13787.48
284.9599, 13745.46
285.4420, 13747.75
285.9242, 13795.99
286.4063, 13848.82
286.8884, 13882.62
287.3705, 13899.12
287.8526, 13910.42
288.3347, 13915.95
288.8169, 13920.02
289.2990, 13928.02
289.7811, 13940.02
290.2632, 13959.89
290.7453, 14001.63
291.2274, 14056.28
291.7096, 14080.37
292.1917, 14063.36
292.6738, 14032.30
293.1559, 14025.52
293.6380, 14041.70
294.1201, 14068.36
294.6023, 14109.77
295.0844, 14156.97
295.5665, 14181.56
296.0486, 14178.10
296.5307, 14164.37
297.0128, 14158.45
297.4950, 14160.97
297.9771, 14173.21
298.4592, 14201.95
298.9413, 14239.87
299.4234, 14277.11
299.9055, 14315.25
300.3876, 14340.69
300.8698, 14329.41
301.3519, 14290.85
301.8340, 14254.28
302.3161, 14230.32
302.7982, 14217.96
303.2803, 14219.61
303.7625, 14236.54
304.2446, 14254.92
304.7267, 14265.42
305.2088, 14267.78
305.6909, 14262.32
306.1730, 14237.35
306.6552, 14211.08
307.1373, 14207.38
307.6194, 14229.26
308.1015, 14249.84
308.5836, 14244.81
309.0657, 14226.13
309.5479, 14212.42
310.0300, 14215.79
310.5121, 14224.56
310.9942, 14230.21
311.4763, 14232.39
311.9584, 14235.68
312.4406, 14252.41
312.9227, 14269.21
313.4048, 14269.29
313.8869, 14227.53
314.3690, 14183.54
314.8511, 14156.74
315.3333, 14147.40
315.8154, 14150.13
316.2975, 14179.97
316.7796, 14213.67
317.2617, 14228.47
317.7438, 14195.70
318.2260, 14164.68
318.7081, 14151.41
319.1902, 14155.62
319.6723, 14171.41
320.1544, 14215.89
320.6365, 14260.68
321.1187, 14285.14
321.6008, 14254.23
322.0829, 14234.29
322.5650, 14244.98
323.0471, 14280.63
323.5292, 14311.15
324.0114, 14322.89
324.4935, 14333.39
324.9756, 14352.48
325.4577, 14406.53
325.9398, 14438.23
326.4219, 14424.68
326.9041, 14380.82
327.3862, 14362.02
327.8683, 14399.14
328.3504, 14439.07
328.8325, 14458.49
329.3146, 14431.50
329.7968, 14426.78
330.2789, 14461.38
330.7610, 14516.91
331.2431, 14547.52
331.7252, 14533.01
332.2073, 14518.67
332.6895, 14524.32
333.1716, 14566.48
333.6537, 14581.64
334.1358, 14553.74
334.6179, 14509.15
335.1000, 14497.01
335.5822, 14533.87
336.0643, 14568.66
336.5464, 14582.03
337.0285, 14570.00
337.5106, 14566.20
337.9927, 14572.92
338.4749, 14583.80
338.9570, 14589.74
339.4391, 14589.08
339.9212, 14589.59
340.4033, 14591.62
340.8854, 14595.83
341.3676, 14614.32
341.8497, 14651.63
342.3318, 14690.19
342.8139, 14712.37
343.2960, 14718.14
343.7781, 14716.76
344.2603, 14709.81
344.7424, 14698.40
345.2245, 14679.76
345.7066, 14652.52
346.1887, 14638.33
346.6708, 14671.01
347.1530, 14739.72
347.6351, 14781.16
348.1172, 14771.65
348.5993, 14738.77
349.0814, 14735.63
349.5635, 14759.52
350.0457, 14784.11
350.5278, 14784.67
351.0099, 14771.96
351.4920, 14771.38
351.9741, 14790.84
352.4562, 14814.44
352.9384, 14826.18
353.4205, 14827.02
353.9026, 14820.53
354.3847, 14802.28
354.8668, 14781.25
355.3489, 14767.61
355.8311, 14762.99
356.3132, 14766.24
356.7953, 14787.15
357.2774, 14815.19
357.7595, 14830.15
358.2416, 14805.51
358.7238, 14776.55
359.2059, 14768.58
359.6880, 14784.61
360.1701, 14807.85
360.6522, 14835.75
361.1343, 14864.11
361.6164, 14887.49
362.0985, 14913.05
362.5807, 14924.98
363.0628, 14907.69
363.5449, 14861.67
364.0270, 14828.31
364.5091, 14824.34
364.9912, 14834.84
365.4734, 14848.25
365.9555, 14862.70
366.4376, 14880.43
366.9197, 14910.10
367.4018, 14947.61
367.8839, 14965.78
368.3661, 14938.37
368.8482, 14909.63
369.3303, 14901.40
369.8124, 14937.49
370.2945, 14959.09
370.7766, 14953.66
371.2588, 14934.67
371.7409, 14939.99
372.2230, 14989.01
372.7051, 15033.82
373.1872, 15052.13
373.6693, 15031.23
374.1515, 15030.63
374.6336, 15059.57
375.1157, 15099.48
375.5978, 15120.59
376.0799, 15116.90
376.5620, 15114.18
377.0442, 15122.86
377.5263, 15142.14
378.0084, 15152.80
378.4905, 15154.88
378.9726, 15149.37
379.4547, 15131.71
379.9369, 15102.28
380.4190, 15086.34
380.9011, 15095.85
381.3832, 15121.52
381.8653, 15132.10
382.3474, 15127.43
382.8296, 15125.42
383.3117, 15144.98
383.7938, 15179.60
384.2759, 15205.90
384.7580, 15216.27
385.2401, 15222.13
385.7223, 15241.57
386.2044, 15271.43
386.6865, 15298.42
387.1686, 15314.90
387.6507, 15323.03
388.1328, 15323.71
388.6150, 15314.80
389.0971, 15307.62
389.5792, 15316.13
390.0613, 15332.84
390.5434, 15344.28
391.0255, 15337.08
391.5077, 15328.48
391.9898, 15333.49
392.4719, 15353.85
392.9540, 15369.99
393.4361, 15373.11
393.9182, 15367.66
394.4004, 15357.94
394.8825, 15345.56
395.3646, 15328.86
395.8467, 15296.19
396.3288, 15252.28
396.8109, 15234.75
397.2931, 15271.20
397.7752, 15322.09
398.2573, 15365.57
398.7394, 15405.44
399.2215, 15429.39
399.7036, 15426.77
400.1858, 15408.10
400.6679, 15400.42
401.1500, 15415.69
401.6321, 15427.62
402.1142, 15425.25
402.5963, 15402.60
403.0785, 15389.67
403.5606, 15388.35
404.0427, 15395.30
404.5248, 15407.12
405.0069, 15425.74
405.4890, 15443.50
405.9712, 15458.13
406.4533, 15469.94
406.9354, 15481.08
407.4175, 15490.77
407.8996, 15502.14
408.3817, 15517.76
408.8639, 15537.59
409.3460, 15561.59
409.8281, 15592.92
410.3102, 15624.55
410.7923, 15640.04
411.2744, 15640.15
411.7566, 15634.16
412.2387, 15623.28
412.7208, 15611.16
413.2029, 15605.95
413.6850, 15608.17
414.1671, 15618.08
414.6493, 15641.42
415.1314, 15672.83
415.6135, 15700.15
416.0956, 15713.37
416.5777, 15721.78
417.0598, 15735.02
417.5420, 15753.22
418.0241, 15767.36
418.5062, 15770.98
418.9883, 15768.02
419.4704, 15762.63
419.9525, 15749.25
420.4347, 15741.01
420.9168, 15752.10
421.3989, 15776.12
421.8810, 15783.45
422.3631, 15735.89
422.8452, 15692.32
423.3273, 15686.27
423.8094, 15756.26
424.2916, 15803.17
424.7737, 15799.10
425.2558, 15770.96
425.7379, 15766.13
426.2200, 15813.03
426.7021, 15846.69
427.1843, 15844.68
427.6664, 15800.45
428.1485, 15771.61
428.6306, 15761.52
429.1127, 15761.93
429.5948, 15763.21
430.0770, 15761.96
430.5591, 15776.83
431.0412, 15818.47
431.5233, 15876.17
432.0054, 15911.23
432.4875, 15922.56
432.9697, 15918.74
433.4518, 15893.56
433.9339, 15852.83
434.4160, 15843.81
434.8981, 15877.91
435.3802, 15924.60
435.8624, 15939.58
436.3445, 15928.67
436.8266, 15917.44
437.3087, 15916.93
437.7908, 15923.94
438.2729, 15935.12
438.7551, 15950.29
439.2372, 15966.58
439.7193, 15993.08
440.2014, 16015.79
440.6835, 16013.87
441.1656, 15947.17
441.6478, 15892.78
442.1299, 15910.29
442.6120, 15981.08
443.0941, 16038.90
443.5762, 16053.89
444.0583, 16049.96
444.5405, 16036.16
445.0226, 16002.75
445.5047, 15988.63
445.9868, 16023.65
446.4689, 16076.40
446.9510, 16101.84
447.4332, 16062.05
447.9153, 16033.30
448.3974, 16036.42
448.8795, 16072.82
449.3616, 16090.16
449.8438, 16074.82
450.3259, 16057.02
450.8080, 16061.83
451.2901, 16099.48
451.7722, 16123.02
452.2543, 16121.40
452.7365, 16107.42
453.2186, 16122.16
453.7007, 16171.24
454.1828, 16206.95
454.6649, 16194.01
455.1470, 16140.50
455.6292, 16108.73
456.1113, 16102.17
456.5934, 16103.98
457.0755, 16091.98
457.5576, 16071.83
458.0397, 16061.95
458.5219, 16072.49
459.0040, 16093.65
459.4861, 16119.96
459.9682, 16149.08
460.4503, 16164.53
460.9324, 16141.29
461.4146, 16106.09
461.8967, 16084.69
462.3788, 16080.70
462.8609, 16093.30
463.3430, 16136.53
463.8251, 16194.08
464.3073, 16237.97
464.7894, 16253.96
465.2715, 16259.60
465.7536, 16253.82
466.2357, 16234.60
466.7178, 16235.29
467.2000, 16282.75
467.6821, 16336.94
468.1642, 16370.03
468.6463, 16379.43
469.1284, 16369.26
469.6105, 16323.48
470.0927, 16261.02
470.5748, 16239.00
471.0569, 16266.30
471.5390, 16312.96
472.0211, 16377.30
472.5032, 16462.89
472.9854, 16501.44
473.4675, 16485.75
473.9496, 16446.57
474.4317, 16416.86
474.9138, 16396.26
475.3959, 16377.68
475.8781, 16358.30
476.3602, 16341.71
476.8423, 16337.44
477.3244, 16344.49
477.8065, 16351.29
478.2886, 16342.47
478.7708, 16331.78
479.2529, 16340.96
479.7350, 16376.83
480.2171, 16415.81
480.6992, 16438.25
481.1813, 16451.98
481.6635, 16468.95
482.1456, 16503.41
482.6277, 16531.95
483.1098, 16537.23
483.5919, 16520.46
484.0740, 16513.62
484.5562, 16530.57
485.0382, 16555.02
485.5204, 16577.90
486.0025, 16610.71
486.4846, 16623.11
486.9667, 16599.29
487.4488, 16560.59
487.9309, 16549.55
488.4131, 16588.61
488.8952, 16613.71
489.3773, 16602.12
489.8594, 16555.10
490.3415, 16517.65
490.8236, 16486.70
491.3058, 16475.04
491.7879, 16509.99
492.2700, 16588.48
492.7521, 16629.43
493.2342, 16611.47
493.7163, 16568.78
494.1985, 16555.29
494.6806, 16567.22
495.1627, 16584.48
495.6448, 16605.76
496.1269, 16621.54
496.6090, 16610.06
497.0912, 16569.91
497.5733, 16540.57
498.0554, 16562.42
498.5375, 16605.45
499.0196, 16635.05
499.5017, 16629.87
499.9839, 16623.38
500.4660, 16626.19
500.9481, 16638.14
501.4302, 16658.85
501.9123, 16714.90
502.3944, 16756.14
502.8766, 16755.18
503.3587, 16691.38
503.8408, 16658.53
504.3229, 16673.87
504.8050, 16705.71
505.2871, 16723.60
505.7693, 16719.33
506.2514, 16721.95
506.7335, 16737.44
507.2156, 16761.73
507.6977, 16784.72
508.1798, 16808.13
508.6620, 16820.89
509.1441, 16808.41
509.6262, 16777.36
510.1083, 16770.31
510.5904, 16791.28
511.0725, 16817.36
511.5547, 16823.44
512.0368, 16815.87
512.5189, 16809.10
513.0010, 16802.32
513.4832, 16804.73
513.9653, 16833.31
514.4474, 16880.48
514.9295, 16919.80
515.4116, 16933.12
515.8937, 16936.65
516.3758, 16939.23
516.8579, 16940.75
517.3400, 16945.90
517.8221, 16963.49
518.3043, 16981.79
518.7864, 16989.03
519.2685, 16963.65
519.7506, 16951.51
520.2327, 16961.06
520.7148, 16987.73
521.1970, 17015.29
521.6791, 17048.75
522.1612, 17074.00
522.6433, 17081.91
523.1254, 17070.61
523.6075, 17065.52
524.0897, 17067.08
524.5718, 17073.89
525.0539, 17086.67
525.5360, 17104.39
526.0181, 17118.49
526.5002, 17124.85
526.9824, 17128.84
527.4645, 17144.69
527.9466, 17168.23
528.4287, 17180.21
528.9108, 17149.33
529.3929, 17112.68
529.8751, 17118.49
530.3572, 17175.85
530.8393, 17213.91
531.3214, 17173.74
531.8035, 17105.16
532.2856, 17057.10
532.7678, 17060.90
533.2499, 17065.92
533.7320, 17062.36
534.2141, 17052.81
534.6962, 17045.43
535.1783, 17039.14
535.6605, 17036.95
536.1426, 17039.08
536.6247, 17045.02
537.1068, 17062.62
537.5889, 17097.66
538.0710, 17133.25
538.5532, 17151.04
539.0353, 17149.66
539.5174, 17155.79
539.9995, 17176.19
540.4816, 17200.44
540.9637, 17204.87
541.4459, 17193.08
541.9280, 17189.22
542.4101, 17210.58
542.8922, 17244.51
543.3743, 17277.91
543.8564, 17309.55
544.3386, 17332.37
544.8207, 17336.66
545.3028, 17332.21
545.7849, 17327.08
546.2670, 17317.22
546.7491, 17318.39
547.2313, 17352.95
547.7134, 17399.53
548.1955, 17421.15
548.6776, 17379.03
549.1597, 17348.34
549.6418, 17351.45
550.1240, 17386.76
550.6061, 17408.43
551.0882, 17415.20
551.5703, 17410.46
552.0524, 17390.71
552.5345, 17352.00
553.0167, 17334.17
553.4988, 17343.41
553.9809, 17362.77
554.4630, 17370.88
554.9451, 17368.26
555.4272, 17356.71
555.9094, 17326.13
556.3915, 17297.90
556.8736, 17312.46
557.3557, 17362.21
557.8378, 17408.72
558.3199, 17427.83
558.8021, 17433.79
559.2842, 17435.64
559.7663, 17432.51
560.2484, 17438.39
560.7305, 17464.00
561.2126, 17499.07
561.6948, 17532.93
562.1769, 17577.18
562.6590, 17603.19
563.1411, 17592.78
563.6232, 17562.50
564.1053, 17560.48
564.5875, 17605.86
565.0696, 17642.59
565.5517, 17650.08
566.0338, 17628.52
566.5159, 17594.46
566.9980, 17540.41
567.4802, 17504.16
567.9623, 17537.21
568.4444, 17622.79
568.9265, 17674.14
569.4086, 17674.69
569.8907, 17650.08
570.3729, 17618.62
570.8550, 17585.72
571.3371, 17564.15
571.8192, 17552.89
572.3013, 17560.32
572.7834, 17613.17
573.2656, 17700.85
573.7477, 17751.27
574.2298, 17696.99
574.7119, 17629.15
575.1940, 17601.57
575.6761, 17637.06
576.1583, 17666.67
576.6404, 17696.68
577.1225, 17714.80
577.6046, 17699.51
578.0867, 17624.21
578.5688, 17597.52
579.0510, 17655.44
579.5331, 17758.51
580.0152, 17792.69
580.4973, 17753.92
580.9794, 17727.08
581.4615, 17782.05
581.9437, 17877.73
582.4258, 17895.15
582.9079, 17833.45
583.3900, 17763.19
583.8721, 17730.22
584.3542, 17725.41
584.8364, 17741.74
585.3185, 17788.49
585.8006, 17828.20
586.2827, 17837.15
586.7648, 17827.59
587.2469, 17818.43
587.7291, 17803.70
588.2112, 17801.18
588.6933, 17822.18
589.1754, 17861.95
589.6575, 17891.65
590.1396, 17905.57
590.6218, 17918.71
591.1039, 17936.01
591.5860, 17957.06
592.0681, 17993.43
592.5502, 18049.92
593.0323, 18105.66
593.5145, 18145.33
593.9966, 18167.18
594.4787, 18156.42
594.9608, 18100.51
595.4429, 18034.28
595.9250, 17992.20
596.4072, 17972.87
596.8893, 17972.69
597.3714, 18007.42
597.8535, 18046.41
598.3356, 18073.74
598.8177, 18088.80
599.2999, 18089.98
599.7820, 18053.49
600.2641, 18020.79
600.7462, 18014.72
601.2283, 18042.40
601.7104, 18080.26
602.1926, 18141.90
602.6747, 18200.43
603.1568, 18225.11
603.6389, 18207.72
604.1210, 18196.21
604.6031, 18197.86
605.0853, 18209.52
605.5674, 18225.69
606.0495, 18246.39
606.5316, 18269.35
607.0137, 18294.80
607.4958, 18321.43
607.9780, 18351.68
608.4601, 18383.95
608.9422, 18406.11
609.4243, 18402.79
609.9064, 18390.07
610.3885, 18380.68
610.8707, 18375.89
611.3528, 18376.24
611.8349, 18381.36
612.3170, 18392.25
612.7991, 18410.64
613.2813, 18447.30
613.7634, 18475.62
614.2455, 18492.26
614.7276, 18499.67
615.2097, 18502.18
615.6918, 18499.07
616.1740, 18495.37
616.6561, 18489.67
617.1382, 18485.35
617.6203, 18500.58
618.1024, 18535.00
618.5845, 18566.71
619.0667, 18574.62
619.5488, 18570.43
620.0309, 18567.43
620.5130, 18564.67
620.9951, 18578.12
621.4772, 18642.07
621.9594, 18717.67
622.4415, 18762.00
622.9236, 18738.47
623.4057, 18712.27
623.8878, 18688.04
624.3699, 18669.64
624.8521, 18666.70
625.3342, 18688.55
625.8163, 18710.21
626.2984, 18726.81
626.7805, 18738.06
627.2626, 18741.74
627.7448, 18738.73
628.2269, 18723.93
628.7090, 18680.55
629.1911, 18621.73
629.6732, 18599.66
630.1553, 18621.04
630.6375, 18645.54
631.1196, 18631.48
631.6017, 18600.20
632.0838, 18582.02
632.5659, 18591.01
633.0480, 18604.53
633.5302, 18610.58
634.0123, 18614.28
634.4944, 18624.70
634.9765, 18671.34
635.4586, 18692.15
635.9407, 18665.08
636.4229, 18598.68
636.9050, 18545.76
637.3871, 18505.32
637.8692, 18479.75
638.3513, 18474.06
638.8334, 18486.58
639.3155, 18496.61
639.7976, 18505.21
640.2797, 18502.23
640.7618, 18462.19
641.2440, 18407.17
641.7261, 18383.70
642.2082, 18406.79
642.6903, 18440.33
643.1724, 18465.01
643.6545, 18481.50
644.1367, 18490.10
644.6188, 18481.21
645.1009, 18475.51
645.5830, 18481.48
646.0651, 18494.92
646.5472, 18500.75
647.0294, 18489.56
647.5115, 18484.33
647.9936, 18492.37
648.4757, 18512.51
