##NAMES=Tephroite
##RRUFFID=R070511
##IDEAL CHEMISTRY=Mn^2+^_2_SiO_4_
##LOCALITY=Langban, Filipstad, Varmland, Sweden
##OWNER=RRUFF
##SOURCE=Michael Scott
##DESCRIPTION=Light gray vitreous massive
##STATUS=The identification of this mineral is confirmed by single-crystal X-ray diffraction and chemical analysis.
##URL=rruff.info/R070511
##MEASURED CHEMISTRY=(Mn^2+^_1.47_Mg_0.49_Ca_0.04_)_Î£=2_Si_1.00_O_4_
160.5627, 4312.822
161.0449, 4374.439
161.5270, 4442.439
162.0091, 4519.597
162.4912, 4619.031
162.9733, 4728.651
163.4554, 4827.379
163.9376, 4906.083
164.4197, 4969.358
164.9018, 5024.702
165.3839, 5072.667
165.8660, 5110.409
166.3481, 5134.514
166.8303, 5148.000
167.3124, 5154.398
167.7945, 5154.051
168.2766, 5147.879
168.7587, 5137.672
169.2408, 5122.960
169.7230, 5104.853
170.2051, 5076.602
170.6872, 5046.456
171.1693, 5028.601
171.6514, 5033.775
172.1335, 5053.625
172.6157, 5066.770
173.0978, 5069.252
173.5799, 5072.948
174.0620, 5086.792
174.5441, 5104.502
175.0262, 5115.979
175.5084, 5113.137
175.9905, 5102.898
176.4726, 5104.163
176.9547, 5118.981
177.4368, 5142.850
177.9189, 5182.599
178.4010, 5226.816
178.8832, 5258.751
179.3653, 5267.554
179.8474, 5261.680
180.3295, 5266.666
180.8116, 5288.202
181.2937, 5311.142
181.7759, 5327.378
182.2580, 5342.830
182.7401, 5366.848
183.2222, 5406.887
183.7043, 5453.704
184.1864, 5478.433
184.6686, 5463.773
185.1507, 5456.695
185.6328, 5471.885
186.1149, 5499.342
186.5970, 5529.699
187.0791, 5559.965
187.5613, 5586.793
188.0434, 5599.468
188.5255, 5583.089
189.0076, 5578.572
189.4897, 5602.007
189.9718, 5636.645
190.4540, 5665.884
190.9361, 5682.193
191.4182, 5689.456
191.9003, 5696.621
192.3824, 5703.257
192.8645, 5710.694
193.3467, 5719.353
193.8288, 5728.692
194.3109, 5738.784
194.7930, 5749.702
195.2751, 5760.091
195.7572, 5765.901
196.2394, 5760.705
196.7215, 5763.575
197.2036, 5784.325
197.6857, 5808.799
198.1678, 5823.018
198.6499, 5822.570
199.1321, 5816.306
199.6142, 5820.624
200.0963, 5839.300
200.5784, 5862.067
201.0605, 5898.301
201.5426, 5931.389
202.0248, 5946.029
202.5069, 5938.803
202.9890, 5920.624
203.4711, 5908.824
203.9532, 5906.676
204.4353, 5903.833
204.9175, 5892.415
205.3996, 5885.119
205.8817, 5895.765
206.3638, 5924.753
206.8459, 5955.751
207.3280, 5964.172
207.8102, 5936.698
208.2923, 5920.319
208.7744, 5917.893
209.2565, 5922.984
209.7386, 5936.995
210.2207, 5957.313
210.7029, 5974.658
211.1850, 5975.325
211.6671, 5950.538
212.1492, 5941.769
212.6313, 5963.011
213.1134, 5987.124
213.5956, 6000.071
214.0777, 6002.487
214.5598, 6004.434
215.0419, 6017.338
215.5240, 6044.371
216.0061, 6060.756
216.4883, 6049.890
216.9704, 6043.956
217.4525, 6060.220
217.9346, 6093.214
218.4167, 6125.220
218.8988, 6141.246
219.3810, 6140.860
219.8631, 6140.074
220.3452, 6134.345
220.8273, 6132.771
221.3094, 6137.497
221.7915, 6148.388
222.2737, 6166.093
222.7558, 6192.794
223.2379, 6226.726
223.7200, 6246.463
224.2021, 6235.538
224.6842, 6227.504
225.1664, 6228.173
225.6485, 6236.300
226.1306, 6250.523
226.6127, 6270.850
227.0948, 6294.780
227.5770, 6311.197
228.0591, 6309.573
228.5412, 6314.812
229.0233, 6336.659
229.5054, 6365.087
229.9875, 6387.940
230.4697, 6399.580
230.9518, 6405.080
231.4339, 6418.412
231.9160, 6451.436
232.3981, 6470.976
232.8802, 6461.399
233.3624, 6444.823
233.8445, 6441.229
234.3266, 6457.047
234.8087, 6482.864
235.2908, 6501.644
235.7729, 6507.249
236.2551, 6520.811
236.7372, 6551.425
237.2193, 6584.586
237.7014, 6609.669
238.1835, 6625.145
238.6656, 6638.614
239.1478, 6660.596
239.6299, 6694.579
240.1120, 6724.269
240.5941, 6743.512
241.0762, 6762.903
241.5583, 6791.823
242.0405, 6827.941
242.5226, 6858.265
243.0047, 6865.302
243.4868, 6845.655
243.9689, 6844.228
244.4510, 6883.667
244.9332, 6920.806
245.4153, 6940.458
245.8974, 6944.596
246.3795, 6941.532
246.8616, 6937.422
247.3437, 6931.521
247.8259, 6917.338
248.3080, 6891.311
248.7901, 6860.790
249.2722, 6821.906
249.7543, 6781.623
250.2364, 6751.904
250.7186, 6741.058
251.2007, 6742.555
251.6828, 6736.753
252.1649, 6718.409
252.6470, 6703.445
253.1291, 6701.180
253.6113, 6702.866
254.0934, 6697.358
254.5755, 6678.977
255.0576, 6658.434
255.5397, 6656.210
256.0219, 6679.427
256.5040, 6693.835
256.9861, 6674.068
257.4682, 6650.698
257.9503, 6649.078
258.4324, 6675.114
258.9146, 6706.694
259.3967, 6722.023
259.8788, 6720.663
260.3609, 6712.442
260.8430, 6691.227
261.3251, 6670.537
261.8073, 6663.334
262.2894, 6668.861
262.7715, 6670.454
263.2536, 6650.762
263.7357, 6614.551
264.2178, 6589.920
264.7000, 6581.407
265.1821, 6583.076
265.6642, 6591.554
266.1463, 6605.781
266.6284, 6622.578
267.1105, 6642.379
267.5927, 6663.399
268.0748, 6684.403
268.5569, 6708.520
269.0390, 6722.252
269.5211, 6702.033
270.0032, 6665.971
270.4854, 6645.799
270.9675, 6659.655
271.4496, 6684.556
271.9317, 6693.298
272.4138, 6685.356
272.8959, 6679.642
273.3781, 6685.727
273.8602, 6700.212
274.3423, 6716.108
274.8244, 6735.489
275.3065, 6751.980
275.7886, 6760.021
276.2708, 6761.184
276.7529, 6762.032
277.2350, 6765.081
277.7171, 6768.488
278.1992, 6768.349
278.6813, 6763.392
279.1635, 6761.240
279.6456, 6766.080
280.1277, 6775.199
280.6098, 6784.029
281.0919, 6791.572
281.5740, 6798.816
282.0562, 6806.387
282.5383, 6814.013
283.0204, 6824.941
283.5025, 6848.742
283.9846, 6870.164
284.4667, 6869.513
284.9489, 6847.380
285.4310, 6829.186
285.9131, 6837.788
286.3952, 6872.732
286.8773, 6894.619
287.3594, 6893.386
287.8416, 6890.179
288.3237, 6895.091
288.8058, 6906.371
289.2879, 6918.705
289.7700, 6929.638
290.2521, 6938.615
290.7343, 6942.854
291.2164, 6935.491
291.6985, 6932.180
292.1806, 6941.987
292.6627, 6954.729
293.1448, 6955.654
293.6270, 6939.814
294.1091, 6916.988
294.5912, 6904.149
295.0733, 6902.961
295.5554, 6910.338
296.0375, 6938.604
296.5197, 6965.901
297.0018, 6971.471
297.4839, 6956.450
297.9660, 6941.882
298.4481, 6951.451
298.9302, 6990.609
299.4124, 6977.490
299.8945, 7035.828
300.3766, 7073.364
300.8587, 7091.218
301.3408, 7030.431
301.8229, 7071.191
302.3050, 7071.256
302.7871, 7069.652
303.2693, 7124.706
303.7514, 7075.358
304.2335, 7129.511
304.7156, 7142.349
305.1977, 7174.096
305.6798, 7164.896
306.1620, 7168.346
306.6441, 7212.753
307.1262, 7234.480
307.6083, 7220.567
308.0904, 7253.516
308.5725, 7202.738
309.0547, 7225.433
309.5368, 7279.826
310.0189, 7267.972
310.5010, 7301.669
310.9831, 7286.204
311.4652, 7301.780
311.9474, 7306.351
312.4295, 7289.057
312.9116, 7276.013
313.3937, 7289.688
313.8758, 7320.370
314.3579, 7342.327
314.8401, 7336.448
315.3222, 7318.084
315.8043, 7315.593
316.2864, 7331.493
316.7685, 7348.553
317.2506, 7357.717
317.7328, 7362.003
318.2149, 7366.328
318.6970, 7371.269
319.1791, 7376.233
319.6612, 7378.324
320.1433, 7379.221
320.6255, 7388.403
321.1076, 7413.036
321.5897, 7440.971
322.0718, 7451.433
322.5539, 7442.670
323.0360, 7433.431
323.5182, 7426.319
324.0003, 7422.774
324.4824, 7425.733
324.9645, 7435.666
325.4466, 7447.990
325.9287, 7458.101
326.4109, 7465.668
326.8930, 7476.895
327.3751, 7501.147
327.8572, 7520.458
328.3393, 7522.069
328.8214, 7509.805
329.3036, 7494.502
329.7857, 7481.227
330.2678, 7471.906
330.7499, 7475.812
331.2320, 7508.210
331.7141, 7535.023
332.1963, 7548.211
332.6784, 7556.251
333.1605, 7569.066
333.6426, 7589.394
334.1247, 7611.802
334.6068, 7628.168
335.0890, 7636.116
335.5711, 7644.076
336.0532, 7645.992
336.5353, 7653.129
337.0174, 7675.573
337.4995, 7709.361
337.9817, 7741.364
338.4638, 7760.178
338.9459, 7767.643
339.4280, 7781.744
339.9101, 7815.696
340.3922, 7835.711
340.8744, 7828.419
341.3565, 7804.734
341.8386, 7775.087
342.3207, 7741.152
342.8028, 7712.850
343.2849, 7713.179
343.7671, 7749.200
344.2492, 7762.625
344.7313, 7722.536
345.2134, 7667.553
345.6955, 7626.763
346.1776, 7601.613
346.6598, 7581.959
347.1419, 7559.296
347.6240, 7537.257
348.1061, 7526.157
348.5882, 7527.935
349.0703, 7537.950
349.5525, 7558.480
350.0346, 7585.154
350.5167, 7604.388
350.9988, 7616.134
351.4809, 7617.799
351.9630, 7602.474
352.4452, 7573.214
352.9273, 7544.602
353.4094, 7521.418
353.8915, 7505.500
354.3736, 7504.634
354.8557, 7528.236
355.3379, 7543.845
355.8200, 7534.527
356.3021, 7517.818
356.7842, 7519.089
357.2663, 7542.429
357.7484, 7564.984
358.2306, 7559.191
358.7127, 7517.016
359.1948, 7491.156
359.6769, 7493.148
360.1590, 7497.456
360.6411, 7491.613
361.1233, 7479.142
361.6054, 7470.582
362.0875, 7472.782
362.5696, 7481.113
363.0517, 7476.923
363.5338, 7439.777
364.0160, 7423.996
364.4981, 7453.271
364.9802, 7493.173
365.4623, 7514.412
365.9444, 7511.061
366.4265, 7498.527
366.9087, 7489.143
367.3908, 7481.989
367.8729, 7495.254
368.3550, 7558.662
368.8371, 7607.142
369.3192, 7595.593
369.8014, 7545.009
370.2835, 7506.316
370.7656, 7506.227
371.2477, 7529.186
371.7298, 7551.771
372.2119, 7574.146
372.6941, 7594.391
373.1762, 7612.532
373.6583, 7627.104
374.1404, 7635.604
374.6225, 7636.072
375.1046, 7637.228
375.5868, 7645.146
376.0689, 7656.648
376.5510, 7663.021
377.0331, 7661.344
377.5152, 7664.132
377.9973, 7689.142
378.4795, 7739.537
378.9616, 7766.482
379.4437, 7750.597
379.9258, 7727.947
380.4079, 7718.066
380.8900, 7719.131
381.3722, 7722.224
381.8543, 7722.282
382.3364, 7721.831
382.8185, 7728.632
383.3006, 7744.255
383.7827, 7766.109
384.2649, 7806.755
384.7470, 7845.276
385.2291, 7861.775
385.7112, 7854.979
386.1933, 7840.940
386.6754, 7836.328
387.1576, 7841.763
387.6397, 7844.792
388.1218, 7840.696
388.6039, 7839.818
389.0860, 7846.986
389.5681, 7859.087
390.0503, 7871.060
390.5324, 7880.725
391.0145, 7889.742
391.4966, 7902.001
391.9787, 7918.198
392.4608, 7930.742
392.9430, 7938.679
393.4251, 7940.694
393.9072, 7933.760
394.3893, 7918.057
394.8714, 7904.628
395.3535, 7895.187
395.8357, 7892.688
396.3178, 7906.445
396.7999, 7938.275
397.2820, 7968.296
397.7641, 7983.896
398.2462, 7985.473
398.7284, 7980.598
399.2105, 7959.203
399.6926, 7942.783
400.1747, 7945.937
400.6568, 7958.099
401.1389, 7961.097
401.6211, 7948.909
402.1032, 7928.775
402.5853, 7909.473
403.0674, 7885.125
403.5495, 7881.870
404.0316, 7921.988
404.5138, 7959.489
404.9959, 7970.506
405.4780, 7958.935
405.9601, 7938.020
406.4422, 7914.688
406.9243, 7891.565
407.4065, 7879.017
407.8886, 7881.847
408.3707, 7885.667
408.8528, 7892.191
409.3349, 7895.630
409.8170, 7887.714
410.2992, 7868.351
410.7813, 7851.967
411.2634, 7856.704
411.7455, 7876.878
412.2276, 7882.502
412.7097, 7869.028
413.1919, 7847.263
413.6740, 7820.678
414.1561, 7791.285
414.6382, 7763.001
415.1203, 7729.954
415.6024, 7706.064
416.0846, 7708.652
416.5667, 7729.545
417.0488, 7744.103
417.5309, 7744.287
418.0130, 7733.572
418.4951, 7714.799
418.9773, 7682.620
419.4594, 7661.655
419.9415, 7661.352
420.4236, 7665.627
420.9057, 7662.509
421.3878, 7653.922
421.8700, 7651.167
422.3521, 7663.277
422.8342, 7683.028
423.3163, 7677.769
423.7984, 7619.640
424.2805, 7579.958
424.7627, 7568.742
425.2448, 7575.126
425.7269, 7599.820
426.2090, 7638.042
426.6911, 7667.253
427.1732, 7661.250
427.6554, 7623.185
428.1375, 7590.632
428.6196, 7562.763
429.1017, 7542.298
429.5838, 7531.871
430.0659, 7528.993
430.5481, 7531.981
431.0302, 7544.037
431.5123, 7554.076
431.9944, 7551.353
432.4765, 7538.718
432.9586, 7523.817
433.4408, 7506.022
433.9229, 7495.626
434.4050, 7509.601
434.8871, 7551.468
435.3692, 7578.495
435.8513, 7579.333
436.3335, 7572.813
436.8156, 7565.936
437.2977, 7561.208
437.7798, 7563.900
438.2619, 7577.329
438.7440, 7595.744
439.2262, 7604.973
439.7083, 7606.000
440.1904, 7594.901
440.6725, 7554.442
441.1546, 7517.401
441.6367, 7510.052
442.1189, 7527.736
442.6010, 7544.006
443.0831, 7535.260
443.5652, 7511.063
444.0473, 7512.306
444.5294, 7550.757
445.0116, 7581.713
445.4937, 7586.207
445.9758, 7575.485
446.4579, 7555.553
446.9400, 7525.230
447.4221, 7501.427
447.9043, 7498.930
448.3864, 7509.443
448.8685, 7516.568
449.3506, 7518.185
449.8327, 7515.968
450.3148, 7509.327
450.7970, 7499.386
451.2791, 7496.480
451.7612, 7509.674
452.2433, 7518.826
452.7254, 7515.827
453.2076, 7505.350
453.6897, 7490.407
454.1718, 7472.963
454.6539, 7461.898
455.1360, 7471.927
455.6181, 7510.250
456.1003, 7528.756
456.5824, 7502.009
457.0645, 7480.762
457.5466, 7486.040
458.0287, 7505.613
458.5108, 7518.804
458.9930, 7516.534
459.4751, 7506.749
459.9572, 7499.124
460.4393, 7493.663
460.9214, 7492.529
461.4035, 7498.817
461.8857, 7505.931
462.3678, 7509.271
462.8499, 7508.859
463.3320, 7503.764
463.8141, 7487.931
464.2962, 7471.833
464.7784, 7462.667
465.2605, 7460.949
465.7426, 7469.998
466.2247, 7493.083
466.7068, 7521.102
467.1889, 7535.343
467.6711, 7523.942
468.1532, 7523.860
468.6353, 7553.077
469.1174, 7577.867
469.5995, 7574.881
470.0816, 7548.551
470.5638, 7513.797
471.0459, 7477.272
471.5280, 7445.813
472.0101, 7444.807
472.4922, 7493.211
472.9743, 7520.266
473.4565, 7490.242
473.9386, 7448.430
474.4207, 7420.938
474.9028, 7409.449
475.3849, 7405.195
475.8670, 7405.901
476.3492, 7409.563
476.8313, 7415.060
477.3134, 7422.386
477.7955, 7422.277
478.2776, 7407.331
478.7597, 7384.296
479.2419, 7368.864
479.7240, 7360.234
480.2061, 7359.376
480.6882, 7373.333
481.1703, 7390.557
481.6524, 7402.677
482.1346, 7407.932
482.6167, 7403.431
483.0988, 7384.037
483.5809, 7356.358
484.0630, 7359.611
484.5451, 7427.483
485.0273, 7470.581
485.5094, 7461.570
485.9915, 7436.353
486.4736, 7423.398
486.9557, 7425.378
487.4378, 7426.570
487.9200, 7411.985
488.4021, 7387.283
488.8842, 7368.783
489.3663, 7356.535
489.8484, 7351.462
490.3305, 7357.409
490.8127, 7369.439
491.2948, 7376.624
491.7769, 7376.972
492.2590, 7378.358
492.7411, 7388.772
493.2232, 7398.594
493.7054, 7392.784
494.1875, 7372.407
494.6696, 7355.263
495.1517, 7355.726
495.6338, 7370.525
496.1159, 7378.399
496.5981, 7373.933
497.0802, 7369.744
497.5623, 7365.078
498.0444, 7362.514
498.5265, 7366.975
499.0086, 7377.254
499.4908, 7384.028
499.9729, 7378.501
500.4550, 7363.359
500.9371, 7346.512
501.4192, 7325.438
501.9013, 7313.681
502.3835, 7321.616
502.8656, 7340.033
503.3477, 7354.898
503.8298, 7366.336
504.3119, 7372.391
504.7940, 7370.348
505.2762, 7363.625
505.7583, 7353.138
506.2404, 7340.553
506.7225, 7334.013
507.2046, 7339.833
507.6867, 7354.734
508.1689, 7364.367
508.6510, 7366.009
509.1331, 7366.036
509.6152, 7363.216
510.0973, 7360.210
510.5794, 7358.787
511.0616, 7359.084
511.5437, 7360.170
512.0258, 7360.173
512.5079, 7361.240
512.9901, 7370.635
513.4722, 7389.777
513.9543, 7409.552
514.4364, 7435.671
514.9185, 7452.571
515.4006, 7433.468
515.8828, 7374.149
516.3649, 7333.702
516.8470, 7345.337
517.3291, 7372.180
517.8112, 7383.570
518.2933, 7378.918
518.7755, 7364.220
519.2576, 7341.206
519.7397, 7316.709
520.2218, 7308.667
520.7039, 7335.939
521.1860, 7343.212
521.6682, 7314.606
522.1503, 7283.350
522.6324, 7267.778
523.1145, 7264.358
523.5966, 7261.396
524.0787, 7253.960
524.5609, 7241.137
525.0430, 7216.396
525.5251, 7179.896
526.0072, 7157.742
526.4893, 7160.725
526.9714, 7172.442
527.4536, 7178.049
527.9357, 7177.955
528.4178, 7172.035
528.8999, 7149.658
529.3820, 7131.908
529.8641, 7135.832
530.3463, 7152.504
530.8284, 7166.074
531.3105, 7170.923
531.7926, 7167.179
532.2747, 7154.086
532.7568, 7129.982
533.2390, 7106.284
533.7211, 7072.491
534.2032, 7051.812
534.6853, 7063.962
535.1674, 7088.280
535.6495, 7094.278
536.1317, 7071.590
536.6138, 7046.040
537.0959, 7046.348
537.5780, 7063.308
538.0601, 7064.145
538.5422, 7042.828
539.0244, 7022.681
539.5065, 7020.670
539.9886, 7033.561
540.4707, 7044.701
540.9528, 7058.673
541.4349, 7065.083
541.9171, 7055.730
542.3992, 7041.840
542.8813, 7034.693
543.3634, 7034.718
543.8455, 7034.451
544.3276, 7027.216
544.8098, 7015.589
545.2919, 7011.050
545.7740, 7015.132
546.2561, 7022.212
546.7382, 7037.038
547.2203, 7049.649
547.7025, 7049.749
548.1846, 7038.338
548.6666, 7029.788
549.1487, 7036.409
549.6309, 7044.765
550.1130, 7039.341
550.5951, 7022.141
551.0772, 7000.915
551.5593, 6977.167
552.0414, 6958.248
552.5236, 6957.089
553.0057, 6980.837
553.4878, 6998.388
553.9699, 7014.664
554.4520, 7020.596
554.9341, 7001.426
555.4163, 6972.958
555.8984, 6961.101
556.3805, 6975.666
556.8626, 6998.522
557.3447, 7007.415
557.8268, 7004.265
558.3090, 7005.053
558.7911, 7012.113
559.2732, 7020.624
559.7553, 7030.931
560.2374, 7039.550
560.7195, 7035.721
561.2017, 7006.210
561.6838, 6987.304
562.1659, 7003.640
562.6480, 7028.089
563.1301, 7026.766
563.6122, 7000.992
564.0944, 6980.411
564.5765, 6987.953
565.0586, 7014.995
565.5407, 7026.761
566.0228, 7016.551
566.5049, 7008.007
566.9871, 7007.989
567.4692, 7008.511
567.9513, 7005.562
568.4334, 6998.866
568.9155, 6988.420
569.3976, 6966.029
569.8798, 6947.191
570.3619, 6951.667
570.8440, 6973.358
571.3261, 6992.881
571.8082, 7004.627
572.2903, 7009.084
572.7725, 7004.880
573.2546, 6989.870
573.7367, 6986.667
574.2188, 7015.482
574.7009, 7031.341
575.1830, 7011.558
575.6652, 6979.000
576.1473, 6957.918
576.6294, 6954.060
577.1115, 6959.877
577.5936, 6972.664
578.0757, 6989.589
578.5579, 7001.462
579.0400, 7008.095
579.5221, 7010.235
580.0042, 7008.591
580.4863, 7002.257
580.9684, 6985.561
581.4506, 6915.214
581.9327, 6960.624
582.4148, 6985.232
582.8969, 6990.156
583.3790, 6916.440
583.8611, 6944.272
584.3433, 6931.407
584.8254, 6916.875
585.3075, 6958.998
585.7896, 6896.721
586.2717, 6937.946
586.7538, 6937.854
587.2360, 6956.672
587.7181, 6934.544
588.2002, 6925.062
588.6823, 6956.541
589.1644, 6965.339
589.6465, 6938.498
590.1287, 6958.517
590.6108, 6894.810
591.0929, 6904.574
591.5750, 6946.039
592.0571, 6921.256
592.5392, 6942.025
593.0214, 6945.444
593.5035, 6870.022
593.9856, 6931.715
594.4677, 6934.109
594.9498, 6875.618
595.4319, 6932.613
595.9141, 6882.515
596.3962, 6870.644
596.8783, 6887.539
597.3604, 6874.445
597.8425, 6908.631
598.3246, 6897.270
598.8068, 6881.838
599.2889, 6884.167
599.7710, 6836.169
600.2531, 6881.536
600.7352, 6863.127
601.2173, 6876.420
601.6995, 6896.898
602.1816, 6862.357
602.6637, 6886.064
603.1458, 6819.442
603.6279, 6828.401
604.1100, 6829.222
604.5922, 6878.353
605.0743, 6812.171
605.5564, 6819.030
606.0385, 6853.784
606.5206, 6862.639
607.0027, 6867.796
607.4849, 6869.405
607.9670, 6868.036
608.4491, 6863.124
608.9312, 6858.160
609.4133, 6857.634
609.8954, 6861.551
610.3776, 6859.158
610.8597, 6842.389
611.3418, 6830.150
611.8239, 6826.459
612.3060, 6829.581
612.7881, 6842.177
613.2703, 6861.382
613.7524, 6874.499
614.2345, 6868.900
614.7166, 6852.938
615.1987, 6846.886
615.6808, 6851.015
616.1630, 6861.146
616.6451, 6881.867
617.1272, 6897.594
617.6093, 6885.231
618.0914, 6844.047
618.5735, 6819.190
619.0557, 6820.748
619.5378, 6829.214
620.0199, 6844.401
620.5020, 6858.661
620.9841, 6862.532
621.4662, 6854.645
621.9484, 6840.418
622.4305, 6821.984
622.9126, 6802.255
623.3947, 6795.398
623.8768, 6804.459
624.3589, 6807.566
624.8411, 6791.888
625.3232, 6774.605
625.8053, 6783.104
626.2874, 6815.577
626.7695, 6828.999
627.2516, 6792.376
627.7338, 6762.483
628.2159, 6778.220
628.6980, 6814.727
629.1801, 6835.001
629.6622, 6830.698
630.1443, 6817.402
630.6265, 6809.152
631.1086, 6805.180
631.5907, 6801.422
632.0728, 6798.218
632.5549, 6794.202
633.0370, 6791.977
633.5192, 6785.668
634.0013, 6761.414
634.4834, 6720.885
634.9655, 6702.399
635.4476, 6738.216
635.9297, 6772.173
636.4119, 6767.303
636.8940, 6741.923
637.3761, 6727.255
637.8582, 6729.761
638.3403, 6730.708
638.8224, 6707.435
639.3046, 6667.074
639.7867, 6659.185
640.2688, 6697.211
640.7509, 6718.678
641.2330, 6691.138
641.7151, 6653.836
642.1973, 6648.706
642.6794, 6673.236
643.1615, 6697.816
643.6436, 6722.713
644.1257, 6739.385
644.6078, 6740.417
645.0900, 6731.277
645.5721, 6717.729
646.0542, 6702.341
646.5363, 6689.720
647.0184, 6684.985
647.5005, 6686.169
647.9827, 6683.501
648.4648, 6675.627
648.9469, 6669.611
649.4290, 6669.226
649.9111, 6669.164
650.3932, 6663.075
650.8754, 6652.054
651.3575, 6643.812
651.8396, 6636.440
652.3217, 6635.693
652.8038, 6650.822
653.2859, 6670.983
653.7681, 6685.608
654.2502, 6690.690
654.7323, 6678.139
655.2144, 6634.727
655.6965, 6577.764
656.1786, 6574.445
656.6608, 6637.579
657.1429, 6673.740
