##NAMES=Tephroite
##RRUFFID=R060141
##IDEAL CHEMISTRY=Mn^2+^_2_SiO_4_
##LOCALITY=Franklin, New Jersey, USA
##OWNER=RRUFF
##SOURCE=Marcus Origlieri
##DESCRIPTION=Tan colored massive, associated with reddish zincite and metallic franklinite.
##STATUS=The identification of this mineral has been confirmed by X-ray diffraction and chemical analysis
##URL=rruff.info/R060141
##MEASURED CHEMISTRY=(Mn^2+^_0.81_Zn_0.12_Mg_0.08_Ca_0.01_)_2_Si_1.00_O_4_
89.78156, 0.0000000E+00
90.26367, 13.95521
90.74579, 13.81923
91.22791, 13.87483
91.71002, 14.10149
92.19214, 14.31980
92.67426, 14.42390
93.15638, 14.41115
93.63850, 14.26271
94.12061, 13.84679
94.60273, 13.32263
95.08485, 13.08205
95.56696, 13.14818
96.04908, 13.35613
96.53120, 13.55716
97.01331, 13.74616
97.49543, 13.89034
97.97755, 13.99178
98.45966, 14.04667
98.94178, 13.95642
99.42390, 13.64867
99.90602, 13.30059
100.3881, 13.29834
100.8703, 13.73964
101.3524, 14.18210
101.8345, 14.40866
102.3166, 14.38717
102.7987, 14.25650
103.2808, 13.94253
103.7630, 13.52743
104.2451, 13.41560
104.7272, 13.78772
105.2093, 14.22302
105.6914, 14.44022
106.1735, 14.28780
106.6557, 14.17269
107.1378, 14.14513
107.6199, 14.20696
108.1020, 14.29254
108.5841, 14.43194
109.0662, 14.57993
109.5484, 14.69766
110.0305, 14.62207
110.5126, 14.67908
110.9947, 14.94179
111.4768, 15.44520
111.9590, 16.00552
112.4411, 16.62257
112.9232, 17.28853
113.4053, 17.97499
113.8874, 18.62114
114.3695, 19.33852
114.8517, 20.16553
115.3338, 21.11767
115.8159, 22.14815
116.2980, 23.13015
116.7801, 24.18638
117.2622, 25.56820
117.7444, 27.48505
118.2265, 29.70055
118.7086, 32.04362
119.1907, 34.45227
119.6728, 37.06579
120.1549, 39.83488
120.6371, 42.82894
121.1192, 46.34496
121.6013, 50.72510
122.0834, 55.62912
122.5655, 60.66669
123.0476, 65.74398
123.5298, 70.88692
124.0119, 76.21095
124.4940, 81.69585
124.9761, 87.07943
125.4582, 92.06189
125.9404, 96.75899
126.4225, 101.3538
126.9046, 106.0550
127.3867, 110.6554
127.8688, 114.6615
128.3509, 118.0124
128.8331, 121.3623
129.3152, 125.3830
129.7973, 130.0352
130.2794, 135.0053
130.7615, 139.9624
131.2436, 145.0993
131.7258, 151.0328
132.2079, 157.8239
132.6900, 165.3005
133.1721, 173.3881
133.6542, 182.0588
134.1364, 190.8505
134.6185, 199.7631
135.1006, 208.8092
135.5827, 217.2669
136.0648, 225.0814
136.5469, 232.3736
137.0291, 239.4216
137.5112, 246.1739
137.9933, 252.7051
138.4754, 259.3947
138.9575, 266.4153
139.4396, 272.0787
139.9218, 275.8244
140.4039, 278.0533
140.8860, 280.5748
141.3681, 283.3641
141.8502, 286.4674
142.3323, 289.8612
142.8145, 293.6454
143.2966, 297.5741
143.7787, 301.5518
144.2608, 305.6163
144.7429, 309.8182
145.2250, 313.6893
145.7072, 318.1739
146.1893, 324.2710
146.6714, 332.9644
147.1535, 341.7770
147.6356, 350.0546
148.1178, 357.5643
148.5999, 365.9036
149.0820, 375.1964
149.5641, 385.2417
150.0462, 395.7515
150.5283, 409.4164
151.0105, 420.7340
151.4926, 424.4852
151.9747, 423.2931
152.4568, 420.6953
152.9389, 416.7353
153.4210, 411.5443
153.9032, 405.1892
154.3853, 395.8530
154.8674, 387.0843
155.3495, 379.9759
155.8316, 374.6114
156.3137, 370.5607
156.7959, 368.2303
157.2780, 367.0833
157.7601, 366.1312
158.2422, 364.8714
158.7243, 363.9272
159.2065, 363.5622
159.6886, 363.7885
160.1707, 364.5993
160.6528, 366.1079
161.1349, 368.1953
161.6170, 370.5643
162.0992, 373.3272
162.5813, 376.1949
163.0634, 379.0458
163.5455, 382.4063
164.0276, 385.0023
164.5097, 386.5580
164.9919, 386.9915
165.4740, 385.9337
165.9561, 382.3414
166.4382, 377.5950
166.9203, 372.8927
167.4024, 368.6481
167.8846, 364.4688
168.3667, 359.6017
168.8488, 354.2692
169.3309, 349.9468
169.8130, 347.9499
170.2952, 347.3337
170.7773, 346.9601
171.2594, 346.6431
171.7415, 346.2527
172.2236, 345.5625
172.7057, 344.5956
173.1879, 343.7474
173.6700, 343.3510
174.1521, 343.2604
174.6342, 343.2276
175.1163, 343.1436
175.5984, 343.0666
176.0806, 343.0876
176.5627, 343.2052
177.0448, 343.3206
177.5269, 343.3989
178.0090, 343.4134
178.4911, 343.3016
178.9733, 342.9712
179.4554, 342.5241
179.9375, 342.0567
180.4196, 341.5607
180.9017, 341.2038
181.3838, 341.3642
181.8660, 341.8768
182.3481, 342.1489
182.8302, 341.7481
183.3123, 340.9370
183.7944, 340.2569
184.2766, 339.7034
184.7587, 339.3708
185.2408, 339.4855
185.7229, 339.9820
186.2050, 340.4590
186.6871, 340.7018
187.1693, 340.7629
187.6514, 340.8099
188.1335, 340.8421
188.6156, 340.8747
189.0977, 340.8575
189.5798, 340.7986
190.0620, 340.9240
190.5441, 341.5803
191.0262, 342.6246
191.5083, 343.0357
191.9904, 342.6157
192.4725, 341.8867
192.9547, 341.8667
193.4368, 342.5836
193.9189, 343.1235
194.4010, 342.7306
194.8831, 341.4985
195.3652, 340.9313
195.8474, 341.2397
196.3295, 342.0770
196.8116, 342.9237
197.2937, 343.8205
197.7758, 344.3529
198.2579, 344.1501
198.7401, 343.1948
199.2222, 342.2262
199.7043, 341.2079
200.1864, 340.3092
200.6685, 340.0262
201.1507, 340.4721
201.6328, 340.9932
202.1149, 341.1551
202.5970, 340.9071
203.0791, 340.8441
203.5612, 341.1235
204.0434, 341.5367
204.5255, 341.4029
205.0076, 340.5462
205.4897, 339.7579
205.9718, 339.6317
206.4539, 340.3264
206.9361, 340.7177
207.4182, 340.6018
207.9003, 340.1705
208.3824, 340.0687
208.8645, 340.4123
209.3466, 340.7884
209.8288, 340.9453
210.3109, 340.8443
210.7930, 340.6797
211.2751, 340.4064
211.7572, 340.0974
212.2393, 340.0563
212.7215, 340.4022
213.2036, 340.7507
213.6857, 340.7405
214.1678, 340.0895
214.6499, 340.0957
215.1320, 341.1640
215.6142, 342.9506
216.0963, 343.8833
216.5784, 343.6442
217.0605, 343.1531
217.5426, 342.9584
218.0247, 343.0848
218.5069, 343.4645
218.9890, 344.2341
219.4711, 345.2605
219.9532, 345.8803
220.4353, 345.8940
220.9175, 345.8443
221.3996, 346.0664
221.8817, 346.6096
222.3638, 347.3009
222.8459, 348.1421
223.3280, 349.1279
223.8102, 350.0936
224.2923, 350.7967
224.7744, 351.8655
225.2565, 353.8242
225.7386, 357.2543
226.2207, 360.1555
226.7029, 362.3633
227.1850, 363.9050
227.6671, 364.6931
228.1492, 364.1250
228.6313, 363.6571
229.1134, 364.2876
229.5956, 366.7647
230.0777, 368.6508
230.5598, 369.5563
231.0419, 369.7099
231.5240, 370.2621
232.0062, 371.3924
232.4883, 372.6853
232.9704, 373.8501
233.4525, 374.6192
233.9346, 375.8773
234.4167, 377.9006
234.8989, 380.4858
235.3810, 382.6290
235.8631, 384.0299
236.3452, 385.4124
236.8273, 387.2006
237.3094, 389.4865
237.7916, 391.9677
238.2737, 394.7595
238.7558, 397.7452
239.2379, 400.5057
239.7200, 403.0527
240.2021, 405.3532
240.6843, 407.4567
241.1664, 409.5753
241.6485, 411.0472
242.1306, 411.0820
242.6127, 412.6326
243.0948, 413.2868
243.5770, 413.0629
244.0591, 410.9900
244.5412, 410.0356
245.0233, 407.8572
245.5054, 405.0975
245.9876, 402.7163
246.4697, 398.0625
246.9518, 389.6039
247.4339, 384.2670
247.9160, 380.2888
248.3981, 376.5194
248.8803, 372.7113
249.3624, 369.6542
249.8445, 367.5603
250.3266, 366.1647
250.8087, 364.7531
251.2908, 363.2746
251.7730, 361.8659
252.2551, 360.5936
252.7372, 359.4314
253.2193, 358.4464
253.7014, 357.7120
254.1835, 357.1270
254.6657, 356.4674
255.1478, 355.6901
255.6299, 354.9133
256.1120, 354.1536
256.5941, 353.3639
257.0763, 352.7863
257.5584, 352.5055
258.0405, 352.3828
258.5226, 351.7458
259.0047, 351.8911
259.4868, 351.8174
259.9690, 351.5429
260.4511, 350.0969
260.9332, 350.4468
261.4153, 350.2500
261.8974, 350.1493
262.3795, 351.1050
262.8617, 350.4651
263.3438, 351.6532
263.8259, 352.2844
264.3080, 352.2686
264.7901, 353.0253
265.2722, 354.1990
265.7544, 355.4743
266.2365, 356.2895
266.7186, 356.4100
267.2007, 356.7968
267.6828, 357.9128
268.1649, 359.8520
268.6471, 360.9836
269.1292, 361.0119
269.6113, 360.7347
270.0934, 361.2144
270.5755, 362.6768
271.0576, 364.0343
271.5398, 364.8752
272.0219, 365.2347
272.5040, 366.1962
272.9861, 367.9542
273.4682, 369.8648
273.9503, 371.2762
274.4325, 372.1285
274.9146, 372.7248
275.3967, 372.9674
275.8788, 372.0315
276.3610, 373.0152
276.8431, 373.6562
277.3252, 373.9732
277.8073, 372.9950
278.2894, 373.6892
278.7715, 373.7132
279.2537, 373.7097
279.7358, 373.5556
280.2179, 373.0455
280.7000, 372.8533
281.1821, 372.8709
281.6642, 373.1426
282.1464, 373.6727
282.6285, 373.8652
283.1106, 373.5034
283.5927, 372.8416
284.0748, 372.6069
284.5569, 372.8344
285.0391, 373.1346
285.5212, 373.2206
286.0033, 373.1075
286.4854, 373.0954
286.9675, 373.3470
287.4496, 373.5114
287.9318, 372.7880
288.4139, 371.1551
288.8960, 369.3077
289.3781, 367.3983
289.8602, 365.5309
290.3423, 364.3381
290.8245, 364.0207
291.3066, 364.0232
291.7887, 363.3228
292.2708, 362.0163
292.7529, 361.0186
293.2350, 361.1644
293.7172, 362.0367
294.1993, 362.2538
294.6814, 361.6551
295.1635, 360.8613
295.6456, 360.5977
296.1277, 360.7968
296.6099, 361.1944
297.0920, 361.7856
297.5741, 362.4590
298.0562, 363.0211
298.5383, 363.4672
299.0204, 363.7502
299.5026, 363.6142
299.9847, 363.2528
300.4668, 363.1813
300.9489, 363.7388
301.4311, 364.6357
301.9132, 365.6137
302.3953, 366.6695
302.8774, 367.4380
303.3595, 367.5170
303.8416, 367.1331
304.3238, 366.6725
304.8059, 366.2173
305.2880, 365.7892
305.7701, 365.0176
306.2522, 364.9709
306.7343, 365.3588
307.2165, 365.4041
307.6986, 365.1253
308.1807, 363.5515
308.6628, 363.6499
309.1449, 363.0782
309.6270, 362.4791
310.1092, 359.3435
310.5913, 358.2655
311.0734, 358.4780
311.5555, 359.0206
312.0376, 358.9717
312.5197, 357.9122
313.0019, 356.9364
313.4840, 356.8809
313.9661, 357.3409
314.4482, 357.4889
314.9303, 356.7094
315.4124, 355.7008
315.8946, 354.9059
316.3767, 354.4214
316.8588, 353.9231
317.3409, 353.2618
317.8230, 352.5130
318.3051, 351.7778
318.7873, 351.1664
319.2694, 350.4995
319.7515, 349.7227
320.2336, 348.8348
320.7157, 347.7898
321.1978, 346.3531
321.6800, 344.8617
322.1621, 343.6249
322.6442, 343.2094
323.1263, 342.5288
323.6084, 341.0032
324.0905, 338.7234
324.5727, 337.1363
325.0548, 337.2448
325.5369, 337.6162
326.0190, 337.3871
326.5012, 335.4756
326.9833, 334.1505
327.4654, 334.0349
327.9475, 334.7651
328.4296, 334.8680
328.9117, 333.6348
329.3939, 332.3998
329.8760, 331.7264
330.3581, 332.1260
330.8402, 332.1196
331.3223, 331.4020
331.8044, 330.3534
332.2866, 329.7075
332.7687, 328.2715
333.2508, 328.9093
333.7329, 329.2045
334.2150, 329.1755
334.6971, 327.8515
335.1793, 328.1997
335.6614, 327.8778
336.1435, 327.5284
336.6256, 328.1121
337.1077, 326.9765
337.5898, 327.5453
338.0720, 327.4338
338.5541, 327.6337
339.0362, 327.4376
339.5183, 327.2764
340.0004, 327.0299
340.4825, 326.6916
340.9647, 326.3335
341.4468, 325.9750
341.9289, 325.6042
342.4110, 325.1058
342.8931, 324.4393
343.3752, 323.9118
343.8574, 323.7908
344.3395, 324.0462
344.8216, 324.3587
345.3037, 324.7753
345.7858, 325.0583
346.2679, 324.5246
346.7501, 323.2362
347.2322, 322.3307
347.7143, 322.7362
348.1964, 324.0172
348.6785, 324.6849
349.1607, 324.6105
349.6428, 324.4095
350.1249, 324.9897
350.6070, 326.0641
351.0891, 326.7268
351.5713, 326.3438
352.0534, 325.4631
352.5355, 324.8080
353.0176, 324.3886
353.4997, 324.1720
353.9818, 324.3039
354.4640, 324.5882
354.9461, 324.7075
355.4282, 324.4543
355.9103, 324.1581
356.3924, 324.0446
356.8745, 324.1189
357.3567, 324.3963
357.8388, 325.2599
358.3209, 326.1246
358.8030, 326.3783
359.2851, 325.6315
359.7672, 325.0351
360.2494, 325.2338
360.7315, 326.0117
361.2136, 326.9629
361.6957, 328.4435
362.1778, 329.6512
362.6599, 329.9695
363.1421, 329.1966
363.6242, 328.7833
364.1063, 329.4520
364.5884, 330.5746
365.0705, 331.5029
365.5526, 331.7512
366.0348, 332.1550
366.5169, 332.8802
366.9990, 333.9243
367.4811, 335.1954
367.9632, 337.2621
368.4453, 339.1603
368.9275, 340.3071
369.4096, 339.5400
369.8917, 339.6202
370.3738, 340.9841
370.8559, 343.2177
371.3380, 345.1443
371.8202, 346.6418
372.3023, 348.0226
372.7844, 349.3505
373.2665, 350.5488
373.7487, 352.0096
374.2308, 353.8749
374.7129, 355.8624
375.1950, 357.5832
375.6771, 358.9300
376.1592, 360.3780
376.6414, 362.1017
377.1235, 364.0648
377.6056, 365.9315
378.0877, 367.6885
378.5698, 369.4533
379.0519, 371.3449
379.5341, 373.3490
380.0162, 375.4874
380.4983, 377.7882
380.9804, 380.1816
381.4625, 382.4347
381.9446, 384.5761
382.4268, 386.5733
382.9089, 388.3871
383.3910, 390.0448
383.8731, 391.7042
384.3552, 393.3720
384.8373, 395.0113
385.3195, 396.6371
385.8016, 398.2022
386.2837, 399.5987
386.7658, 400.8215
387.2479, 401.8083
387.7300, 402.4741
388.2122, 402.8183
388.6943, 402.9345
389.1764, 402.9006
389.6585, 402.6761
390.1406, 402.1927
390.6227, 401.3302
391.1049, 400.3510
391.5870, 399.4953
392.0691, 398.6798
392.5512, 397.6541
393.0333, 396.3077
393.5154, 394.7116
393.9976, 392.8302
394.4797, 390.5267
394.9618, 388.4039
395.4439, 386.6680
395.9260, 385.2198
396.4081, 383.9336
396.8903, 382.8373
397.3724, 381.8316
397.8545, 381.0414
398.3366, 380.4913
398.8188, 379.4387
399.3009, 377.2220
399.7830, 374.8922
400.2651, 373.1203
400.7472, 372.2986
401.2293, 371.4596
401.7115, 370.6996
402.1936, 369.8716
402.6757, 368.4710
403.1578, 366.1595
403.6399, 363.8424
404.1220, 361.9095
404.6042, 360.3925
405.0863, 359.1027
405.5684, 358.2950
406.0505, 357.3275
406.5326, 355.1022
407.0147, 351.3831
407.4969, 348.1743
407.9790, 346.1224
408.4611, 344.9489
408.9432, 343.5539
409.4253, 341.9315
409.9074, 340.2399
410.3896, 338.5397
410.8717, 336.8518
411.3538, 335.2529
411.8359, 333.7599
412.3180, 332.3885
412.8001, 331.1747
413.2823, 330.1249
413.7644, 329.1739
414.2465, 328.2498
414.7286, 327.4268
415.2107, 326.9188
415.6928, 326.7528
416.1750, 326.3822
416.6571, 325.1619
417.1392, 323.5534
417.6213, 322.1290
418.1034, 320.9774
418.5855, 320.1899
419.0677, 320.2003
419.5498, 320.7355
420.0319, 320.7695
420.5140, 319.3765
420.9961, 317.7161
421.4782, 316.4896
421.9604, 315.9122
422.4425, 315.4590
422.9246, 314.9877
423.4067, 314.5910
423.8889, 314.3915
424.3710, 314.6395
424.8531, 314.8453
425.3352, 315.0040
425.8173, 315.1225
426.2994, 314.7612
426.7816, 313.4130
427.2637, 312.1024
427.7458, 311.5573
428.2279, 312.2013
428.7100, 312.5551
429.1921, 312.4312
429.6743, 312.0266
430.1564, 311.8539
430.6385, 312.0170
431.1206, 312.0060
431.6027, 311.5138
432.0848, 310.5665
432.5670, 309.8380
433.0491, 309.3038
433.5312, 309.0898
434.0133, 307.9016
434.4954, 308.4924
434.9775, 308.7406
435.4597, 308.6647
435.9418, 307.2937
436.4239, 307.5950
436.9060, 307.2262
437.3881, 306.8298
437.8702, 307.3665
438.3524, 306.1839
438.8345, 306.7058
439.3166, 306.5473
439.7987, 306.7002
440.2808, 306.8984
440.7629, 308.1131
441.2451, 308.8267
441.7272, 307.8831
442.2093, 306.7979
442.6914, 306.3842
443.1735, 306.5692
443.6556, 306.8030
444.1378, 307.2412
444.6199, 307.4269
445.1020, 306.9498
445.5841, 304.9783
446.0662, 303.8690
446.5483, 304.8196
447.0305, 306.6452
447.5126, 307.3506
447.9947, 305.6858
448.4768, 304.3813
448.9590, 304.2053
449.4411, 305.1905
449.9232, 305.6188
450.4053, 305.1833
450.8874, 304.6305
451.3695, 304.6198
451.8517, 305.3924
452.3338, 305.5072
452.8159, 304.5118
453.2980, 303.1631
453.7801, 303.3405
454.2622, 305.1817
454.7444, 306.4641
455.2265, 305.7250
455.7086, 303.5439
456.1907, 302.4900
456.6728, 302.6125
457.1549, 303.1095
457.6371, 303.2169
458.1192, 303.1239
458.6013, 303.3745
459.0834, 304.3477
459.5655, 305.2480
460.0476, 305.0782
460.5298, 304.0943
461.0119, 303.0690
461.4940, 302.2079
461.9761, 301.5791
462.4582, 301.3456
462.9403, 301.5518
463.4225, 301.6368
463.9046, 301.1919
464.3867, 300.5734
464.8688, 300.1293
465.3509, 300.0920
465.8330, 300.0614
466.3152, 299.9730
466.7973, 299.8346
467.2794, 299.6717
467.7615, 299.2500
468.2436, 299.0389
468.7257, 299.2948
469.2079, 300.2078
469.6900, 300.6859
470.1721, 300.6030
470.6542, 300.2136
471.1363, 299.6905
471.6184, 298.9077
472.1006, 298.5274
472.5827, 298.8112
473.0648, 299.4825
473.5469, 299.6700
474.0291, 299.3438
474.5112, 298.9028
474.9933, 298.4352
475.4754, 298.0171
475.9575, 298.0591
476.4396, 298.6208
476.9218, 299.2982
477.4039, 299.7429
477.8860, 299.9691
478.3681, 299.9815
478.8502, 299.6418
479.3323, 299.2575
479.8145, 299.1064
480.2966, 299.1599
480.7787, 299.3204
481.2608, 299.8484
481.7429, 300.2423
482.2250, 300.0432
482.7072, 299.0766
483.1893, 298.2411
483.6714, 297.7071
484.1535, 297.5205
484.6356, 297.7228
485.1177, 299.2631
485.5999, 300.1219
486.0820, 299.5719
486.5641, 298.0335
487.0462, 297.0046
487.5283, 296.5921
488.0104, 296.5653
488.4926, 296.9794
488.9747, 297.9891
489.4568, 298.3443
489.9389, 297.7684
490.4210, 297.0318
490.9031, 297.1461
491.3853, 298.1847
491.8674, 298.7549
492.3495, 298.3810
492.8316, 297.6021
493.3137, 297.7407
493.7958, 298.7088
494.2780, 299.5374
494.7601, 299.5318
495.2422, 299.0260
495.7243, 298.3843
496.2064, 297.5857
496.6885, 298.5304
497.1707, 299.7594
497.6528, 300.6459
498.1349, 301.2081
498.6170, 300.4754
499.0992, 301.4150
499.5813, 301.6843
500.0634, 301.9261
500.5455, 303.1010
501.0276, 302.5566
501.5097, 301.4069
501.9919, 301.9116
502.4740, 303.1865
502.9561, 304.0063
503.4382, 303.7099
503.9203, 303.3460
504.4024, 303.6890
504.8846, 305.3239
505.3667, 306.4272
505.8488, 306.6904
506.3309, 306.4869
506.8130, 306.5942
507.2951, 307.0327
507.7773, 307.6999
508.2594, 308.6616
508.7415, 309.8302
509.2236, 310.7301
509.7057, 311.3489
510.1878, 311.8631
510.6700, 312.3784
511.1521, 312.9083
511.6342, 313.5546
512.1163, 314.3930
512.5984, 315.1108
513.0806, 315.2137
513.5627, 314.9531
514.0448, 314.8549
514.5269, 315.4434
515.0090, 316.0269
515.4911, 316.2444
515.9733, 316.0773
516.4554, 315.4750
516.9375, 313.9783
517.4196, 312.3560
517.9017, 311.0961
518.3839, 310.4746
518.8660, 309.6650
519.3481, 308.6696
519.8302, 307.4012
520.3123, 305.7047
520.7944, 302.9648
521.2766, 300.9341
521.7587, 300.1074
522.2408, 300.1636
522.7229, 299.7940
523.2050, 298.9020
523.6871, 297.9636
524.1693, 297.1870
524.6514, 296.5840
525.1335, 296.1317
525.6156, 295.8442
526.0977, 295.6160
526.5798, 295.2599
527.0620, 294.8642
527.5441, 294.7358
528.0262, 295.0537
528.5083, 295.4326
528.9904, 295.4019
529.4725, 295.0991
529.9547, 294.8631
530.4368, 294.9471
530.9189, 293.7832
531.4010, 294.5905
531.8831, 295.0552
532.3652, 295.1958
532.8474, 294.0413
533.3295, 294.5591
533.8116, 294.4067
534.2937, 294.2268
534.7758, 294.9800
535.2579, 294.0138
535.7401, 294.7522
536.2222, 294.8102
536.7043, 295.7439
537.1864, 296.2364
537.6685, 296.9852
538.1506, 297.8460
538.6328, 297.9563
539.1149, 297.1851
539.5970, 296.5120
540.0791, 296.6647
540.5612, 297.4560
541.0433, 297.9820
541.5255, 298.1885
542.0076, 298.3282
542.4897, 298.6638
542.9718, 299.1114
543.4539, 299.4936
543.9360, 299.6847
544.4182, 299.9143
544.9003, 300.4958
545.3824, 301.2439
545.8645, 301.7503
546.3466, 301.4019
546.8287, 301.1720
547.3109, 301.6837
547.7930, 302.9709
548.2751, 303.8716
548.7572, 304.1088
549.2393, 303.9872
549.7214, 303.6262
550.2036, 302.7826
550.6857, 302.2783
551.1678, 302.2447
551.6499, 302.4235
552.1320, 302.4203
552.6141, 302.1817
553.0963, 302.1400
553.5784, 302.4409
554.0605, 302.9685
554.5426, 303.5045
555.0247, 304.0390
555.5068, 304.3759
555.9890, 304.1406
556.4711, 303.7093
556.9532, 303.8094
557.4353, 304.4653
557.9174, 305.2208
558.3995, 305.8109
558.8817, 306.2706
559.3638, 306.6346
559.8459, 306.9015
560.3281, 307.0809
560.8102, 307.1892
561.2923, 307.2085
561.7744, 307.1090
562.2565, 306.4781
562.7386, 306.1873
563.2208, 306.5425
563.7029, 307.4404
564.1850, 308.1651
564.6671, 308.5985
565.1492, 309.0602
565.6313, 309.7295
566.1135, 310.6205
566.5956, 311.4509
567.0777, 312.2056
567.5598, 312.9321
568.0419, 313.7114
568.5240, 314.5150
569.0062, 315.1823
569.4883, 315.5691
569.9704, 316.0649
570.4525, 317.4113
570.9346, 319.2855
571.4167, 320.7925
571.8989, 321.3260
572.3810, 321.5497
572.8631, 321.8146
573.3452, 322.1443
573.8273, 322.6406
574.3094, 323.6696
574.7916, 324.6168
575.2737, 325.2016
575.7558, 325.4540
576.2379, 325.1112
576.7200, 323.6948
577.2021, 322.0843
577.6843, 321.1375
578.1664, 321.2716
578.6485, 320.7945
579.1306, 319.3718
579.6127, 317.4124
580.0948, 315.6641
580.5770, 314.1325
581.0591, 312.6440
581.5412, 311.1537
582.0233, 309.6644
582.5054, 308.2238
582.9875, 306.8306
583.4697, 305.3171
583.9518, 303.2625
584.4339, 301.2162
584.9160, 299.9242
