##NAMES=Tephroite
##RRUFFID=R060141
##IDEAL CHEMISTRY=Mn^2+^_2_SiO_4_
##LOCALITY=Franklin, New Jersey, USA
##OWNER=RRUFF
##SOURCE=Marcus Origlieri
##DESCRIPTION=Tan colored massive, associated with reddish zincite and metallic franklinite.
##STATUS=The identification of this mineral has been confirmed by X-ray diffraction and chemical analysis
##URL=rruff.info/R060141
##MEASURED CHEMISTRY=(Mn^2+^_0.81_Zn_0.12_Mg_0.08_Ca_0.01_)_2_Si_1.00_O_4_
92.02539, 75.88942
92.50751, 76.77550
92.98962, 77.74428
93.47174, 77.56004
93.95386, 77.01100
94.43597, 76.30769
94.91809, 75.77200
95.40021, 75.26467
95.88232, 73.90891
96.36444, 70.87785
96.84656, 68.17236
97.32867, 66.45084
97.81078, 65.42586
98.29290, 64.59924
98.77502, 63.55449
99.25713, 62.17842
99.73925, 60.79646
100.2214, 59.31672
100.7035, 57.91877
101.1856, 56.62755
101.6677, 55.45905
102.1498, 54.47242
102.6320, 53.74709
103.1141, 53.35342
103.5962, 53.09807
104.0783, 53.05281
104.5604, 53.10606
105.0425, 53.14703
105.5247, 53.14601
106.0068, 53.10415
106.4889, 53.05323
106.9710, 53.04985
107.4531, 52.83578
107.9352, 52.17683
108.4173, 51.15053
108.8995, 50.16936
109.3816, 49.29441
109.8637, 48.60700
110.3458, 48.20568
110.8279, 48.14079
111.3100, 48.20412
111.7922, 48.12907
112.2743, 47.84673
112.7564, 47.65120
113.2385, 47.61749
113.7206, 47.70025
114.2027, 47.87270
114.6849, 48.12328
115.1670, 48.45129
115.6491, 48.84702
116.1312, 49.28073
116.6133, 49.84253
117.0954, 50.75088
117.5776, 51.77139
118.0597, 52.53644
118.5418, 52.76541
119.0239, 52.44712
119.5060, 52.38078
119.9881, 52.83862
120.4703, 53.24119
120.9524, 53.36847
121.4345, 53.21876
121.9166, 52.88600
122.3987, 52.41755
122.8808, 51.78374
123.3630, 51.28972
123.8451, 51.05532
124.3272, 50.89814
124.8093, 50.62013
125.2914, 50.17134
125.7735, 49.71261
126.2557, 49.42321
126.7378, 49.27279
127.2199, 49.22018
127.7020, 49.19830
128.1841, 49.25458
128.6662, 49.57526
129.1483, 50.37140
129.6305, 51.22754
130.1126, 51.81832
130.5947, 52.16051
131.0768, 52.43551
131.5589, 52.78120
132.0410, 53.20086
132.5232, 53.66553
133.0053, 54.16664
133.4874, 54.72124
133.9695, 55.36005
134.4516, 56.08388
134.9337, 56.84218
135.4159, 57.55541
135.8980, 58.16828
136.3801, 58.85133
136.8622, 59.72898
137.3443, 60.61024
137.8264, 61.32275
138.3086, 61.80362
138.7907, 62.12245
139.2728, 62.45821
139.7549, 62.92458
140.2370, 63.27605
140.7191, 63.42787
141.2013, 63.46486
141.6834, 63.53078
142.1655, 63.71626
142.6476, 63.95916
143.1297, 63.97766
143.6118, 63.49468
144.0939, 63.12212
144.5761, 63.12301
145.0582, 63.45570
145.5403, 63.92134
146.0224, 64.38477
146.5045, 64.92506
146.9866, 65.70027
147.4688, 66.75245
147.9509, 68.01104
148.4330, 69.46035
148.9151, 71.13002
149.3972, 72.81756
149.8793, 74.51949
150.3615, 76.15588
150.8436, 77.62759
151.3257, 78.99653
151.8078, 80.12644
152.2899, 80.79548
152.7720, 81.35788
153.2542, 80.66990
153.7363, 77.88124
154.2184, 73.85611
154.7005, 69.82514
155.1826, 66.48521
155.6647, 63.80865
156.1469, 61.59772
156.6290, 60.08878
157.1111, 58.89738
157.5932, 57.91138
158.0753, 57.15923
158.5574, 56.73387
159.0396, 56.72412
159.5217, 57.15493
160.0038, 57.80591
160.4859, 58.61983
160.9680, 59.66336
161.4501, 60.97043
161.9323, 62.53891
162.4144, 64.36375
162.8965, 66.45478
163.3786, 68.92278
163.8607, 71.24895
164.3428, 73.81319
164.8250, 75.99840
165.3071, 77.55986
165.7892, 78.42212
166.2713, 78.22021
166.7534, 76.24850
167.2355, 72.25751
167.7177, 68.20616
168.1998, 64.11407
168.6819, 60.11327
169.1640, 56.31429
169.6461, 52.68692
170.1282, 49.47815
170.6104, 47.14367
171.0925, 45.57119
171.5746, 44.28251
172.0567, 43.16465
172.5388, 42.20148
173.0209, 41.34044
173.5031, 40.54792
173.9852, 39.91356
174.4673, 39.51700
174.9494, 39.33917
175.4315, 39.19518
175.9136, 38.92796
176.3958, 38.54401
176.8779, 38.26111
177.3600, 38.17337
177.8421, 38.15031
178.3242, 38.16900
178.8063, 38.20831
179.2885, 38.17989
179.7706, 37.94611
180.2527, 37.43009
180.7348, 37.04476
181.2169, 36.89086
181.6990, 36.81624
182.1812, 36.74750
182.6633, 36.67262
183.1454, 36.62722
183.6275, 36.68932
184.1096, 37.00846
184.5917, 37.10240
185.0738, 36.82306
185.5560, 36.46058
186.0381, 36.21944
186.5202, 36.15013
187.0023, 36.15903
187.4844, 36.07975
187.9665, 35.72652
188.4487, 35.59758
188.9308, 35.98262
189.4129, 36.44092
189.8950, 36.52713
190.3771, 36.09752
190.8592, 35.38703
191.3414, 34.83345
191.8235, 34.43556
192.3056, 34.20438
192.7877, 34.25859
193.2698, 34.45055
193.7519, 34.58970
194.2341, 34.60937
194.7162, 34.55041
195.1983, 34.48416
195.6804, 34.40827
196.1625, 34.33499
196.6446, 34.24532
197.1268, 34.16042
197.6089, 34.13369
198.0910, 34.19610
198.5731, 34.30576
199.0552, 34.43996
199.5373, 34.64278
200.0195, 34.68020
200.5016, 34.30762
200.9837, 33.61168
201.4658, 33.04175
201.9479, 32.74947
202.4300, 32.62895
202.9122, 32.56425
203.3943, 32.55892
203.8764, 32.54307
204.3585, 32.43463
204.8406, 32.23429
205.3227, 32.09793
205.8048, 32.12626
206.2870, 32.18756
206.7691, 32.16109
207.2512, 32.03607
207.7333, 31.94197
208.2154, 32.07778
208.6975, 32.51250
209.1797, 32.76484
209.6618, 32.59446
210.1439, 32.32141
210.6260, 32.08015
211.1081, 31.90449
211.5902, 31.79572
212.0724, 31.77406
212.5545, 31.88222
213.0366, 31.94748
213.5187, 31.83274
214.0008, 31.76117
214.4829, 31.93522
214.9651, 32.36524
215.4472, 32.84235
215.9293, 33.02376
216.4114, 32.63037
216.8935, 32.52830
217.3756, 32.94913
217.8578, 33.44918
218.3399, 33.67583
218.8220, 33.57397
219.3041, 33.39490
219.7862, 33.53294
220.2683, 34.21812
220.7505, 34.79383
221.2326, 35.18605
221.7147, 35.52993
222.1968, 35.94948
222.6789, 36.46720
223.1610, 36.99120
223.6432, 37.38017
224.1253, 37.53271
224.6074, 37.75034
225.0895, 38.04932
225.5716, 38.40291
226.0537, 38.78810
226.5358, 39.19991
227.0180, 39.64408
227.5001, 40.14646
227.9822, 40.75615
228.4643, 41.24805
228.9464, 41.49784
229.4285, 41.67365
229.9107, 41.92067
230.3928, 42.26792
230.8749, 42.73926
231.3570, 43.41807
231.8391, 44.33022
232.3212, 45.15253
232.8034, 45.78746
233.2855, 46.32179
233.7676, 46.83796
234.2497, 47.33958
234.7318, 47.88711
235.2139, 48.55621
235.6961, 49.33311
236.1782, 50.20409
236.6603, 51.21441
237.1424, 52.30171
237.6245, 53.39266
238.1066, 54.49729
238.5888, 55.56106
239.0709, 56.44497
239.5530, 57.22120
240.0351, 58.17423
240.5172, 59.68401
240.9993, 61.37853
241.4815, 62.47239
241.9636, 62.75210
242.4457, 62.87099
242.9278, 63.52611
243.4099, 64.40233
243.8920, 64.78162
244.3742, 64.19028
244.8563, 62.92247
245.3384, 61.64808
245.8205, 60.42853
246.3026, 59.05784
246.7847, 57.30463
247.2668, 55.35847
247.7490, 53.52460
248.2311, 51.97982
248.7132, 50.62216
249.1953, 49.13163
249.6774, 47.35747
250.1595, 45.77903
250.6417, 44.67208
251.1238, 43.83341
251.6059, 43.01486
252.0880, 42.09428
252.5701, 41.13772
253.0522, 40.28660
253.5344, 39.52197
254.0165, 38.92775
254.4986, 38.61805
254.9807, 38.42754
255.4628, 38.15357
255.9449, 37.69299
256.4271, 37.16642
256.9092, 36.87665
257.3913, 36.99290
257.8734, 37.03059
258.3555, 36.86656
258.8376, 36.60606
259.3198, 36.30997
259.8019, 36.00093
260.2840, 35.74209
260.7661, 35.68099
261.2482, 35.93235
261.7303, 36.17332
262.2125, 36.39100
262.6946, 36.57115
263.1767, 36.69130
263.6588, 36.74757
264.1409, 36.76899
264.6230, 36.80452
265.1052, 36.84997
265.5873, 36.92073
266.0694, 36.93910
266.5515, 37.02609
267.0336, 37.34029
267.5157, 37.88568
267.9979, 38.46029
268.4800, 38.73170
268.9621, 38.43618
269.4442, 38.41567
269.9263, 38.80082
270.4084, 39.30666
270.8906, 39.80402
271.3727, 40.24680
271.8548, 40.60373
272.3369, 40.82343
272.8190, 40.84283
273.3011, 40.93018
273.7833, 41.02591
274.2654, 41.22132
274.7475, 41.61652
275.2296, 42.18275
275.7117, 42.78685
276.1938, 43.30456
276.6760, 43.73604
277.1581, 44.07038
277.6402, 44.37396
278.1223, 44.54852
278.6044, 44.51096
279.0865, 44.29419
279.5686, 44.01037
280.0508, 43.75317
280.5329, 43.52600
281.0150, 43.18012
281.4971, 42.53265
281.9792, 41.97367
282.4613, 41.71056
282.9435, 41.65636
283.4256, 41.58451
283.9077, 41.34111
284.3898, 40.95449
284.8719, 40.69715
285.3540, 40.67105
285.8362, 40.63588
286.3183, 40.50960
286.8004, 40.33271
287.2825, 40.18708
287.7646, 40.11818
288.2467, 40.09871
288.7289, 40.03066
289.2110, 39.90344
289.6931, 39.74677
290.1752, 39.52321
290.6573, 39.28408
291.1394, 39.12093
291.6216, 39.07356
292.1037, 39.06797
292.5858, 38.92513
293.0679, 38.39229
293.5500, 38.21589
294.0321, 38.73784
294.5143, 39.53688
294.9964, 40.17145
295.4785, 40.52406
295.9606, 40.68527
296.4427, 40.75560
296.9248, 40.66954
297.4070, 40.70353
297.8891, 40.88133
298.3712, 41.17436
298.8533, 41.61581
299.3354, 42.19256
299.8175, 42.74540
300.2997, 43.07948
300.7818, 43.13877
301.2639, 43.42376
301.7460, 44.25149
302.2281, 45.05041
302.7102, 45.38952
303.1924, 45.28632
303.6745, 45.09546
304.1566, 45.09593
304.6387, 45.26819
305.1208, 45.25304
305.6029, 44.80301
306.0851, 44.42179
306.5672, 44.53249
307.0493, 44.96025
307.5314, 45.12062
308.0135, 44.65175
308.4956, 43.68580
308.9778, 42.81300
309.4599, 41.94841
309.9420, 41.25316
310.4241, 40.86897
310.9062, 40.68385
311.3883, 40.50436
311.8705, 40.26273
312.3526, 39.95420
312.8347, 39.55117
313.3168, 38.99747
313.7989, 38.49421
314.2810, 38.06473
314.7632, 37.71371
315.2453, 37.45869
315.7274, 37.30824
316.2095, 37.21642
316.6916, 37.14995
317.1737, 37.14939
317.6559, 36.97112
318.1380, 36.46619
318.6201, 35.85181
319.1022, 35.30919
319.5843, 34.86364
320.0664, 34.48581
320.5485, 34.16346
321.0306, 33.90353
321.5128, 33.59140
321.9949, 33.12917
322.4770, 32.69661
322.9591, 32.46058
323.4412, 32.38270
323.9233, 32.24007
324.4055, 31.85498
324.8876, 31.28266
325.3697, 30.93873
325.8518, 31.02863
326.3339, 31.08520
326.8160, 30.93993
327.2982, 30.63311
327.7803, 30.22289
328.2624, 29.70819
328.7445, 29.17355
329.2266, 28.86139
329.7087, 28.86862
330.1909, 28.88480
330.6730, 28.89683
331.1551, 28.87205
331.6372, 28.75123
332.1193, 28.51606
332.6014, 28.22814
333.0836, 27.94595
333.5657, 27.59706
334.0478, 27.52453
334.5299, 28.09940
335.0120, 28.72046
335.4941, 28.81775
335.9763, 28.36093
336.4584, 27.80615
336.9405, 27.58747
337.4226, 27.74374
337.9047, 27.77712
338.3868, 27.56468
338.8690, 27.35960
339.3511, 27.30344
339.8332, 27.36840
340.3153, 27.44216
340.7974, 27.44704
341.2795, 27.40610
341.7617, 27.47398
342.2438, 27.80135
342.7259, 28.04369
343.2080, 28.12718
343.6901, 28.07753
344.1722, 27.88532
344.6544, 27.54147
345.1365, 27.17068
345.6186, 27.03913
346.1007, 27.42945
346.5828, 27.63548
347.0649, 27.45493
347.5471, 27.20349
348.0292, 27.17099
348.5113, 27.40478
348.9934, 27.75131
349.4755, 28.03883
349.9576, 28.28003
350.4398, 28.38967
350.9219, 28.20968
351.4040, 28.06151
351.8861, 28.17368
352.3682, 28.48055
352.8503, 28.73798
353.3325, 28.74718
353.8146, 28.53088
354.2967, 28.45273
354.7788, 28.71652
355.2609, 28.88510
355.7430, 28.76675
356.2252, 28.52348
356.7073, 28.39437
357.1894, 28.49438
357.6715, 28.73915
358.1536, 28.91221
358.6357, 28.88271
359.1179, 28.98745
359.5999, 29.39572
360.0821, 29.83329
360.5642, 30.04917
361.0463, 30.00962
361.5284, 29.88422
362.0105, 29.86170
362.4926, 29.91607
362.9748, 30.18825
363.4569, 30.97681
363.9390, 31.69014
364.4211, 31.99982
364.9032, 32.00479
365.3853, 32.00895
365.8675, 32.24253
366.3496, 32.68323
366.8317, 33.11543
367.3138, 33.47371
367.7959, 33.91269
368.2780, 34.47440
368.7602, 35.12574
369.2423, 35.85357
369.7244, 36.65391
370.2065, 37.45546
370.6886, 38.10467
371.1707, 38.53042
371.6529, 38.97770
372.1350, 39.48145
372.6171, 40.01681
373.0992, 40.56199
373.5813, 41.11655
374.0634, 41.72398
374.5456, 42.45516
375.0277, 43.31725
375.5098, 44.10958
375.9919, 44.72492
376.4740, 45.38660
376.9561, 46.22715
377.4383, 47.19263
377.9204, 48.13947
378.4025, 48.96317
378.8846, 49.73076
379.3667, 50.63773
379.8488, 51.71358
380.3310, 52.85524
380.8131, 54.15855
381.2952, 55.44566
381.7773, 56.48250
382.2594, 57.16520
382.7415, 57.79998
383.2237, 58.81642
383.7058, 60.21263
384.1879, 61.30542
384.6700, 61.74440
385.1521, 62.00683
385.6342, 62.57101
386.1164, 63.41249
386.5985, 64.18663
387.0806, 64.74850
387.5627, 65.09575
388.0448, 65.20047
388.5269, 65.02804
389.0091, 64.71782
389.4912, 64.23573
389.9733, 63.69142
390.4554, 63.35546
390.9375, 63.52485
391.4196, 63.69991
391.9018, 63.43201
392.3839, 62.74563
392.8660, 61.83857
393.3481, 60.68041
393.8302, 59.45967
394.3123, 58.56129
394.7945, 58.07655
395.2766, 57.57747
395.7587, 56.88932
396.2408, 56.08100
396.7229, 55.24443
397.2050, 54.38225
397.6872, 53.58434
398.1693, 52.93780
398.6514, 52.45588
399.1335, 52.09867
399.6156, 52.12941
400.0977, 52.06750
400.5798, 51.46481
401.0620, 50.41669
401.5441, 49.41027
402.0262, 48.76432
402.5083, 48.38503
402.9904, 47.81102
403.4725, 46.81769
403.9547, 45.93739
404.4368, 45.33986
404.9189, 44.88274
405.4010, 44.40321
405.8831, 43.85061
406.3652, 43.25317
406.8474, 42.66138
407.3295, 42.13142
407.8116, 41.43707
408.2937, 40.37763
408.7758, 39.35377
409.2579, 38.62276
409.7401, 38.13655
410.2222, 37.67177
410.7043, 37.05066
411.1864, 36.30433
411.6685, 35.68605
412.1506, 35.28262
412.6328, 34.91354
413.1149, 34.51998
413.5970, 34.16066
414.0791, 33.95661
414.5612, 33.93756
415.0433, 33.91507
415.5255, 33.53260
416.0076, 32.60707
416.4897, 31.95076
416.9718, 31.85559
417.4539, 31.83855
417.9360, 31.69808
418.4182, 31.43640
418.9003, 31.14219
419.3824, 30.85842
419.8645, 30.59477
420.3466, 30.40638
420.8287, 30.35632
421.3109, 30.24997
421.7930, 29.93598
422.2751, 29.55853
422.7572, 29.29306
423.2393, 29.20364
423.7214, 29.15673
424.2036, 28.99584
424.6857, 28.72689
425.1678, 28.49224
425.6499, 28.30303
426.1320, 28.18847
426.6141, 28.18257
427.0963, 28.27454
427.5784, 28.38504
428.0605, 28.57502
428.5426, 28.72601
429.0247, 28.60583
429.5068, 28.18692
429.9890, 27.74802
430.4711, 27.41035
430.9532, 27.20811
431.4353, 27.20488
431.9174, 27.62084
432.3995, 27.90882
432.8817, 27.64141
433.3638, 27.06292
433.8459, 26.69864
434.3280, 26.72205
434.8101, 26.93613
435.2922, 27.08220
435.7744, 27.14110
436.2565, 27.20068
436.7386, 27.32687
437.2207, 27.40402
437.7028, 27.32759
438.1849, 27.11892
438.6671, 26.87451
439.1492, 26.65318
439.6313, 26.45649
440.1134, 26.29993
440.5955, 26.12905
441.0776, 26.06874
441.5598, 26.26670
442.0418, 26.51469
442.5240, 26.57026
443.0061, 26.38465
443.4882, 26.13229
443.9703, 26.06741
444.4524, 26.27712
444.9345, 26.26319
445.4167, 25.71144
445.8988, 25.24487
446.3809, 25.12494
446.8630, 25.25355
447.3451, 25.42653
447.8272, 25.54037
448.3094, 25.59787
448.7915, 25.59329
449.2736, 25.49580
449.7557, 25.42395
450.2378, 25.42984
450.7199, 25.45605
451.2021, 25.45896
451.6842, 25.43503
452.1663, 25.41833
452.6484, 25.48690
453.1305, 25.59730
453.6126, 25.51182
454.0948, 25.11419
454.5769, 24.76722
455.0590, 24.80320
455.5411, 25.04966
456.0232, 25.21957
456.5053, 25.25593
456.9875, 25.19003
457.4696, 25.00650
457.9517, 24.73049
458.4338, 24.45602
458.9159, 24.18522
459.3980, 23.98605
459.8802, 24.01273
460.3623, 24.28798
460.8444, 24.48816
461.3265, 24.45286
461.8086, 24.38837
462.2907, 24.54012
462.7729, 24.87793
463.2550, 25.13463
463.7371, 25.12617
464.2192, 24.88783
464.7013, 24.61815
465.1834, 24.14713
465.6656, 23.86173
466.1477, 23.92565
466.6298, 24.14593
467.1119, 24.34773
467.5940, 24.47660
468.0761, 24.52705
468.5583, 24.48544
469.0404, 24.33741
469.5225, 24.18677
470.0046, 24.01984
470.4867, 23.86455
470.9688, 23.72829
471.4510, 23.61014
471.9331, 23.49688
472.4152, 23.37671
472.8973, 23.29337
473.3794, 23.34610
473.8615, 23.56739
474.3437, 23.78758
474.8258, 24.06277
475.3079, 24.25071
475.7900, 24.19632
476.2721, 23.94208
476.7542, 23.72999
477.2364, 23.78495
477.7185, 23.97082
478.2006, 23.93251
478.6827, 23.62036
479.1648, 23.37940
479.6469, 23.42712
480.1291, 23.64414
480.6112, 23.81073
481.0933, 23.91101
481.5754, 23.98009
482.0575, 24.02011
482.5396, 24.04438
483.0217, 24.09017
483.5038, 24.16720
483.9860, 24.21469
484.4681, 24.15797
484.9502, 23.99246
485.4323, 23.90468
485.9144, 23.96488
486.3965, 24.02295
486.8787, 24.00457
487.3608, 23.94120
487.8429, 23.88737
488.3250, 23.86485
488.8071, 23.87524
489.2892, 23.92429
489.7714, 24.03213
490.2535, 24.13094
490.7356, 24.22437
491.2177, 24.30690
491.6998, 24.38881
492.1819, 24.45733
492.6641, 24.45655
493.1462, 24.31899
493.6283, 24.15856
494.1104, 24.38030
494.5925, 25.21916
495.0746, 25.79923
495.5568, 25.68951
496.0389, 25.40136
496.5210, 25.23923
497.0031, 25.24065
497.4852, 25.34972
497.9673, 25.51425
498.4495, 25.75734
498.9316, 26.21843
499.4137, 26.98212
499.8958, 27.58050
500.3779, 27.62028
500.8600, 27.35412
501.3422, 27.31217
501.8243, 27.58096
502.3064, 27.94394
502.7885, 28.39963
503.2706, 28.85168
503.7527, 29.08310
504.2349, 29.04300
504.7170, 28.97763
505.1991, 29.12906
505.6812, 29.51284
506.1633, 29.89114
506.6454, 30.15656
507.1276, 30.53437
507.6097, 31.21199
508.0918, 32.02631
508.5739, 32.69127
509.0560, 33.10723
509.5381, 33.45837
510.0203, 34.04753
510.5024, 34.96215
510.9845, 35.81750
511.4666, 36.69695
511.9487, 37.43126
512.4308, 37.84593
512.9130, 38.07959
513.3951, 38.41444
513.8772, 39.01661
514.3593, 39.72121
514.8414, 40.29536
515.3235, 40.77081
515.8057, 40.87805
516.2878, 40.43343
516.7699, 39.69691
517.2520, 38.84924
517.7341, 37.90958
518.2162, 36.98738
518.6984, 36.16096
519.1805, 35.35402
519.6626, 34.45845
520.1447, 33.47796
520.6268, 32.47219
521.1089, 31.43574
521.5911, 30.42907
522.0732, 29.62851
522.5553, 29.06833
523.0374, 28.55215
523.5195, 28.08626
524.0016, 27.62681
524.4838, 27.05896
524.9659, 26.43585
525.4480, 26.01971
525.9301, 26.03889
526.4122, 26.37206
526.8943, 26.37980
527.3765, 25.72959
527.8586, 25.22083
528.3407, 24.90580
528.8228, 24.75825
529.3049, 24.84167
529.7870, 25.10791
530.2692, 25.33301
530.7513, 25.29033
531.2334, 25.03353
531.7155, 24.89439
532.1976, 24.93682
532.6797, 24.94874
533.1619, 24.76202
533.6440, 24.53839
534.1261, 24.44304
534.6082, 24.50729
535.0903, 24.64425
535.5724, 24.86765
536.0546, 25.10962
536.5367, 25.18892
537.0188, 25.07023
537.5009, 24.98013
537.9830, 25.12195
538.4651, 25.43305
538.9473, 25.55869
539.4294, 25.23912
539.9115, 25.07784
540.3936, 25.40324
540.8757, 25.90342
541.3578, 26.17206
541.8400, 26.14233
542.3221, 26.04844
542.8042, 26.12565
543.2863, 26.37629
543.7684, 26.65732
544.2505, 27.15373
544.7326, 27.44564
545.2147, 27.29523
545.6968, 26.98068
546.1790, 26.79438
546.6611, 26.81238
547.1432, 26.93330
547.6253, 27.06365
548.1074, 27.20454
548.5895, 27.36612
549.0717, 27.56048
549.5538, 27.74974
550.0359, 27.93698
550.5180, 28.09736
551.0001, 28.17881
551.4822, 28.14130
551.9644, 28.10048
552.4465, 28.15785
552.9286, 28.25777
553.4107, 28.25765
553.8928, 28.12693
554.3749, 28.02384
554.8571, 28.10841
555.3392, 28.37355
555.8213, 28.53261
556.3034, 28.53474
556.7855, 28.51007
557.2676, 28.46728
557.7498, 28.42775
558.2319, 28.41472
558.7140, 28.43353
559.1961, 28.47503
559.6782, 28.53143
560.1603, 28.60250
560.6425, 28.69083
561.1246, 28.91436
561.6067, 28.97053
562.0888, 28.61647
562.5709, 28.14135
563.0530, 27.89814
563.5352, 27.97810
564.0173, 28.10282
564.4994, 27.99578
564.9815, 27.74101
565.4636, 27.63030
565.9457, 27.71216
566.4279, 27.82585
566.9100, 27.86464
567.3921, 27.85154
567.8742, 27.87140
568.3563, 27.92260
568.8384, 28.00845
569.3206, 28.14129
569.8027, 28.30366
570.2848, 28.50580
570.7669, 28.73212
571.2490, 28.88592
571.7311, 28.85459
572.2133, 28.67262
572.6954, 28.72852
573.1775, 29.35605
573.6596, 29.76153
574.1417, 29.66502
574.6238, 29.43664
575.1060, 29.42841
575.5881, 29.66048
576.0702, 29.86751
576.5523, 29.78959
577.0344, 29.51368
577.5165, 29.40046
577.9987, 29.51448
578.4808, 29.50617
578.9629, 29.17867
579.4450, 28.67591
579.9271, 28.19618
580.4092, 27.74075
580.8914, 27.32080
581.3735, 26.94213
581.8556, 26.60031
582.3377, 26.27744
582.8198, 25.98054
583.3019, 25.75722
583.7841, 25.64874
584.2662, 25.59752
584.7483, 25.44135
585.2304, 25.06170
585.7125, 24.77038
586.1946, 24.70314
586.6768, 24.59784
587.1589, 24.22594
587.6410, 23.67484
