##NAMES=Tephroite
##RRUFFID=R100105
##IDEAL CHEMISTRY=Mn^2+^_2_SiO_4_
##LOCALITY=Franklin, Sussex County, New Jersey, USA
##OWNER=RRUFF
##SOURCE=American Museum of Natural History
##DESCRIPTION=Translucent gray massives, associated with reddish zincite and metallic franklinite.
##STATUS=The identification of this mineral is confirmed by single-crystal X-ray diffraction and chemical analysis.
##URL=rruff.info/R100105
##MEASURED CHEMISTRY=(Mn^+2^_1.716_Zn_0.124_Mg_0.080_Ca_0.078_Fe^+2^_0.003_Al_0.001_)_Î£=2.002_Si_0.998_O_4_
91.53320, 338.3322
92.01532, 340.8034
92.49744, 340.9438
92.97955, 343.1453
93.46167, 343.3512
93.94379, 339.1894
94.42590, 332.0399
94.90802, 324.2678
95.39014, 317.7467
95.87225, 312.8087
96.35437, 307.7643
96.83649, 301.8141
97.31860, 295.7217
97.80072, 290.2456
98.28284, 285.4415
98.76495, 280.9837
99.24707, 276.8537
99.72919, 273.4315
100.2113, 269.9989
100.6934, 265.9665
101.1755, 261.6797
101.6577, 257.9293
102.1398, 255.4224
102.6219, 254.4079
103.1040, 253.2681
103.5861, 251.7669
104.0682, 250.3065
104.5504, 249.1187
105.0325, 248.2245
105.5146, 247.4388
105.9967, 246.4883
106.4788, 245.2834
106.9609, 244.0590
107.4431, 242.7495
107.9252, 241.4272
108.4073, 240.1510
108.8894, 238.8860
109.3715, 237.7877
109.8536, 237.2538
110.3358, 237.4487
110.8179, 237.4027
111.3000, 236.3211
111.7821, 234.3325
112.2642, 232.7119
112.7463, 232.1604
113.2285, 232.1082
113.7106, 232.0436
114.1927, 231.9268
114.6748, 231.6664
115.1569, 231.0360
115.6390, 229.7637
116.1212, 228.8178
116.6033, 228.5584
117.0854, 228.6756
117.5675, 228.9568
118.0496, 229.3512
118.5317, 229.7488
119.0139, 229.6151
119.4960, 228.2589
119.9781, 227.0589
120.4602, 226.4519
120.9423, 226.1709
121.4244, 225.6945
121.9066, 224.5733
122.3887, 222.7210
122.8708, 221.4417
123.3529, 220.9970
123.8350, 220.7322
124.3171, 220.3354
124.7993, 219.8011
125.2814, 219.3498
125.7635, 219.2520
126.2456, 219.6247
126.7277, 219.6811
127.2098, 219.0981
127.6920, 218.3309
128.1741, 217.8157
128.6562, 217.6322
129.1383, 217.7331
129.6204, 218.1241
130.1025, 218.7636
130.5847, 219.5640
131.0668, 220.5464
131.5489, 221.6739
132.0310, 222.8022
132.5131, 223.8494
132.9952, 224.9788
133.4774, 226.5046
133.9595, 228.4176
134.4416, 230.0534
134.9237, 230.5802
135.4058, 229.7758
135.8879, 229.4449
136.3701, 230.4065
136.8522, 231.6495
137.3343, 232.6466
137.8164, 233.2677
138.2985, 233.6727
138.7806, 234.1132
139.2628, 234.5118
139.7449, 235.1193
140.2270, 236.2548
140.7091, 237.4394
141.1912, 238.1578
141.6733, 238.1758
142.1555, 237.7657
142.6376, 237.8640
143.1197, 238.7882
143.6018, 239.9085
144.0839, 241.3684
144.5660, 242.9620
145.0482, 244.3116
145.5303, 245.1344
146.0124, 245.5740
146.4945, 246.7554
146.9766, 248.6049
147.4587, 251.0493
147.9409, 254.4825
148.4230, 258.6664
148.9051, 262.5777
149.3872, 265.5295
149.8693, 267.5342
150.3514, 269.4013
150.8336, 271.3016
151.3157, 272.9694
151.7978, 274.3400
152.2799, 275.4832
152.7620, 275.8467
153.2441, 274.5668
153.7263, 272.2266
154.2084, 269.6076
154.6905, 266.6569
155.1726, 263.6581
155.6547, 261.2581
156.1368, 259.6679
156.6190, 258.3626
157.1011, 256.8602
157.5832, 255.3722
158.0653, 254.3122
158.5474, 253.9980
159.0295, 254.3926
159.5117, 255.0082
159.9938, 255.7859
160.4759, 256.9010
160.9580, 258.5334
161.4401, 260.5681
161.9222, 262.7194
162.4044, 264.7212
162.8865, 266.5419
163.3686, 268.4672
163.8507, 271.2473
164.3328, 273.5132
164.8149, 274.5587
165.2971, 274.4130
165.7792, 273.5700
166.2613, 272.5826
166.7434, 271.4591
167.2255, 270.1263
167.7076, 268.6648
168.1898, 266.9776
168.6719, 264.8913
169.1540, 262.3984
169.6361, 259.8021
170.1182, 257.5049
170.6003, 255.5558
171.0825, 253.8708
171.5646, 252.6174
172.0467, 251.5692
172.5288, 250.5243
173.0109, 249.4450
173.4930, 248.2514
173.9752, 246.7114
174.4573, 244.7801
174.9394, 242.9327
175.4215, 241.3637
175.9036, 239.9684
176.3857, 238.5349
176.8679, 236.9942
177.3500, 235.3756
177.8321, 233.7767
178.3142, 232.2168
178.7963, 230.4865
179.2784, 228.5204
179.7606, 226.2926
180.2427, 223.6786
180.7248, 220.2437
181.2069, 216.7527
181.6890, 213.8856
182.1711, 211.6920
182.6533, 209.8408
183.1354, 208.2175
183.6175, 206.9184
184.0996, 205.0867
184.5817, 201.9694
185.0638, 198.5728
185.5460, 195.4461
186.0281, 192.7093
186.5102, 190.1729
186.9923, 187.6210
187.4744, 185.1277
187.9565, 182.4002
188.4387, 178.8811
188.9208, 175.4453
189.4029, 172.8395
189.8850, 171.2536
190.3671, 170.2201
190.8492, 168.8206
191.3314, 166.8016
191.8135, 164.8144
192.2956, 162.8015
192.7777, 160.8882
193.2598, 159.2467
193.7419, 157.9399
194.2241, 156.8001
194.7062, 155.4251
195.1883, 153.4070
195.6704, 151.6090
196.1525, 150.3659
196.6346, 149.2554
197.1168, 147.6922
197.5989, 145.4024
198.0810, 142.7219
198.5631, 140.6351
199.0452, 139.2008
199.5273, 138.2124
200.0095, 138.1838
200.4916, 138.5148
200.9737, 138.0976
201.4558, 136.3038
201.9379, 133.7258
202.4200, 132.0772
202.9022, 131.7012
203.3843, 131.4182
203.8664, 130.7772
204.3485, 129.9051
204.8306, 129.1748
205.3127, 128.7980
205.7949, 128.6027
206.2770, 128.2323
206.7591, 127.7102
207.2412, 126.9963
207.7233, 125.8503
208.2054, 124.3773
208.6876, 123.3018
209.1697, 123.1782
209.6518, 123.4184
210.1339, 123.0599
210.6160, 121.8517
211.0981, 120.6736
211.5803, 120.3018
212.0624, 120.7378
212.5445, 121.2707
213.0266, 121.8821
213.5087, 122.3192
213.9908, 122.2620
214.4730, 121.5969
214.9551, 120.8026
215.4372, 120.4387
215.9193, 120.5777
216.4014, 120.6880
216.8836, 120.6387
217.3657, 120.4918
217.8478, 120.1053
218.3299, 119.4331
218.8120, 119.0022
219.2941, 119.7644
219.7763, 122.2644
220.2584, 124.1431
220.7405, 124.6777
221.2226, 124.6807
221.7047, 124.6432
222.1868, 124.7044
222.6690, 124.7472
223.1511, 124.5370
223.6332, 123.8455
224.1153, 123.4309
224.5974, 123.2662
225.0795, 123.4089
225.5617, 124.0879
226.0438, 125.3100
226.5259, 126.6415
227.0080, 127.2885
227.4901, 126.7509
227.9722, 126.4060
228.4544, 126.2789
228.9365, 126.3440
229.4186, 126.5636
229.9007, 126.9326
230.3828, 127.5059
230.8649, 128.4000
231.3471, 130.0056
231.8292, 131.3118
232.3113, 132.3054
232.7934, 133.0382
233.2755, 133.4856
233.7576, 133.6588
234.2398, 133.7028
234.7219, 133.8460
235.2040, 134.0748
235.6861, 134.4618
236.1682, 135.0713
236.6503, 135.7982
237.1325, 136.5766
237.6146, 137.3803
238.0967, 138.1699
238.5788, 138.8724
239.0609, 139.3929
239.5430, 140.0517
240.0252, 141.1663
240.5073, 142.2700
240.9894, 142.8250
241.4715, 142.7081
241.9536, 142.3093
242.4357, 142.1528
242.9179, 142.3289
243.4000, 142.3433
243.8821, 142.2198
244.3642, 141.8804
244.8463, 141.1926
245.3284, 140.1178
245.8106, 138.8472
246.2927, 137.5029
246.7748, 136.0660
247.2569, 134.9389
247.7390, 134.4274
248.2211, 134.1474
248.7033, 133.6360
249.1854, 132.8110
249.6675, 131.8536
250.1496, 130.8170
250.6317, 129.7330
251.1138, 128.9682
251.5960, 128.9300
252.0781, 129.1111
252.5602, 128.8054
253.0423, 127.8941
253.5244, 126.8300
254.0065, 125.7986
254.4887, 124.8931
254.9708, 124.4832
255.4529, 125.0957
255.9350, 126.0852
256.4171, 126.4988
256.8992, 126.2066
257.3813, 125.8110
257.8635, 125.8047
258.3456, 125.9845
258.8277, 125.9999
259.3098, 125.6406
259.7919, 125.1296
260.2740, 124.7404
260.7562, 124.4524
261.2383, 124.3720
261.7204, 124.6963
262.2025, 125.2351
262.6846, 125.8096
263.1667, 126.4655
263.6489, 127.0172
264.1310, 127.0723
264.6131, 126.4604
265.0952, 126.0944
265.5773, 126.7983
266.0594, 127.7933
266.5416, 128.2998
267.0237, 128.0116
267.5058, 127.4406
267.9879, 127.1960
268.4700, 127.2689
268.9521, 127.7247
269.4343, 129.0531
269.9164, 130.5424
270.3985, 131.6183
270.8806, 132.1242
271.3627, 132.4090
271.8448, 132.9839
272.3270, 133.9785
272.8091, 134.5939
273.2912, 134.2245
273.7733, 133.6644
274.2554, 133.3042
274.7375, 133.2247
275.2197, 133.4533
275.7018, 134.1486
276.1839, 135.4143
276.6660, 136.4494
277.1481, 137.3944
277.6302, 137.8569
278.1124, 137.4470
278.5945, 136.2138
279.0766, 134.6633
279.5587, 133.1557
280.0408, 131.6446
280.5229, 130.5654
281.0051, 130.3040
281.4872, 130.2046
281.9693, 129.9892
282.4514, 129.6886
282.9335, 129.4896
283.4156, 129.5750
283.8978, 129.9506
284.3799, 130.3356
284.8620, 130.8594
285.3441, 131.2498
285.8262, 131.2802
286.3083, 131.0997
286.7905, 131.0575
287.2726, 131.4907
287.7547, 132.3055
288.2368, 132.5591
288.7189, 131.6329
289.2010, 130.8541
289.6832, 130.5586
290.1653, 130.6413
290.6474, 130.9698
291.1295, 131.5156
291.6116, 132.1723
292.0938, 132.4853
292.5759, 132.1917
293.0580, 131.9075
293.5401, 131.7428
294.0222, 131.6571
294.5043, 131.5046
294.9865, 131.2032
295.4686, 131.0267
295.9507, 131.7482
296.4328, 134.2072
296.9149, 136.0615
297.3970, 136.7214
297.8792, 136.9209
298.3613, 137.3149
298.8434, 138.0963
299.3255, 138.9485
299.8076, 139.2755
300.2897, 138.6592
300.7719, 138.4731
301.2540, 139.0237
301.7361, 139.7741
302.2182, 140.5641
302.7003, 141.2747
303.1824, 141.6621
303.6646, 141.3300
304.1467, 139.9864
304.6288, 138.9849
305.1109, 138.6493
305.5930, 138.3450
306.0751, 137.7261
306.5573, 136.8435
307.0394, 135.9863
307.5215, 135.4136
308.0036, 135.1355
308.4857, 134.9574
308.9678, 135.2555
309.4500, 135.2800
309.9321, 134.4523
310.4142, 133.1831
310.8963, 132.3644
311.3784, 132.6894
311.8605, 133.9415
312.3427, 134.3938
312.8248, 133.0446
313.3069, 132.0309
313.7890, 131.8998
314.2711, 132.2751
314.7532, 132.6448
315.2354, 132.7527
315.7175, 132.7269
316.1996, 132.9832
316.6817, 134.0689
317.1638, 134.5318
317.6459, 133.8093
318.1281, 132.6909
318.6102, 131.8232
319.0923, 131.4246
319.5744, 131.3736
320.0565, 131.5357
320.5386, 132.1435
321.0208, 132.4105
321.5029, 132.2468
321.9850, 131.8368
322.4671, 131.1272
322.9492, 130.2044
323.4313, 129.4038
323.9135, 129.1588
324.3956, 129.6373
324.8777, 129.8144
325.3598, 129.1116
325.8419, 128.6418
326.3240, 129.0583
326.8062, 130.1146
327.2883, 131.0550
327.7704, 131.2320
328.2525, 130.7093
328.7346, 130.6508
329.2167, 131.7160
329.6989, 132.5117
330.1810, 132.4914
330.6631, 132.0396
331.1452, 131.7556
331.6273, 131.9796
332.1094, 132.5195
332.5916, 132.7293
333.0737, 132.1773
333.5558, 132.0566
334.0379, 132.9799
334.5200, 134.1491
335.0021, 134.7210
335.4843, 134.4399
335.9664, 133.8624
336.4485, 133.9988
336.9306, 135.2940
337.4127, 135.9610
337.8948, 134.9250
338.3770, 133.9253
338.8591, 134.1015
339.3412, 135.4787
339.8233, 137.2045
340.3055, 138.5323
340.7876, 139.4543
341.2697, 139.9979
341.7518, 139.8296
342.2339, 139.5782
342.7160, 139.3572
343.1982, 139.2428
343.6803, 139.3469
344.1624, 139.7274
344.6445, 140.3903
345.1266, 141.4863
345.6087, 143.7213
346.0909, 145.1859
346.5730, 144.6085
347.0551, 143.2516
347.5372, 142.7473
348.0193, 143.8330
348.5014, 145.7873
348.9836, 147.4555
349.4657, 148.9346
349.9478, 149.7639
350.4299, 148.9915
350.9120, 148.0317
351.3941, 148.0645
351.8763, 149.2883
352.3584, 150.6974
352.8405, 151.0102
353.3226, 150.1756
353.8047, 150.2242
354.2868, 152.3457
354.7690, 154.4590
355.2511, 155.0088
355.7332, 154.3054
356.2153, 153.7870
356.6974, 154.6505
357.1795, 156.4931
357.6617, 157.7177
358.1438, 158.1227
358.6259, 158.2681
359.1080, 158.1501
359.5901, 158.0478
360.0722, 158.4601
360.5544, 159.6928
361.0365, 161.3654
361.5186, 163.0296
362.0007, 164.6875
362.4828, 166.2610
362.9649, 167.8181
363.4471, 169.2039
363.9292, 170.2102
364.4113, 170.7549
364.8934, 171.1956
365.3755, 171.7156
365.8576, 172.3365
366.3398, 173.2118
366.8219, 174.4982
367.3040, 175.8794
367.7861, 176.9555
368.2682, 177.7634
368.7503, 178.7313
369.2325, 180.1788
369.7146, 181.8579
370.1967, 183.3555
370.6788, 184.6344
371.1609, 185.7535
371.6430, 186.5389
372.1252, 187.1861
372.6073, 188.3305
373.0894, 190.5499
373.5715, 192.8973
374.0536, 194.5157
374.5357, 195.5198
375.0179, 196.6314
375.5000, 198.1597
375.9821, 200.0357
376.4642, 202.1396
376.9463, 204.6393
377.4284, 206.9380
377.9106, 208.7285
378.3927, 210.1858
378.8748, 211.5087
379.3569, 212.7131
379.8390, 214.0947
380.3211, 216.2230
380.8033, 219.3486
381.2854, 221.6504
381.7675, 222.1989
382.2496, 222.4387
382.7317, 223.5885
383.2138, 225.6456
383.6960, 227.7892
384.1781, 229.4208
384.6602, 230.5688
385.1423, 231.8001
385.6244, 233.2178
386.1065, 234.5855
386.5887, 235.8899
387.0708, 237.0735
387.5529, 238.1430
388.0350, 239.1184
388.5171, 239.7622
388.9992, 239.5028
389.4814, 236.6877
389.9635, 235.5846
390.4456, 238.2594
390.9277, 241.2569
391.4098, 241.2056
391.8919, 238.0084
392.3741, 234.5661
392.8562, 234.0441
393.3383, 236.9650
393.8204, 238.8059
394.3025, 239.4836
394.7846, 239.2662
395.2668, 237.5634
395.7489, 235.0961
396.2310, 233.1856
396.7131, 232.6613
397.1952, 233.0067
397.6773, 232.3692
398.1595, 229.9310
398.6416, 227.8326
399.1237, 226.4803
399.6058, 225.4572
400.0879, 224.3904
400.5700, 223.1994
401.0522, 222.0878
401.5343, 221.3328
402.0164, 221.0050
402.4985, 220.6376
402.9806, 220.2472
403.4627, 219.7767
403.9449, 219.1407
404.4270, 218.3994
404.9091, 217.7075
405.3912, 217.1947
405.8733, 216.7819
406.3554, 216.2489
406.8376, 215.6157
407.3197, 214.7936
407.8018, 213.5391
408.2839, 212.1780
408.7660, 211.0426
409.2481, 210.2058
409.7303, 209.5715
410.2124, 209.0002
410.6945, 208.5071
411.1766, 208.3663
411.6587, 208.9514
412.1408, 209.4926
412.6230, 209.1765
413.1051, 208.1167
413.5872, 207.1245
414.0693, 206.7601
414.5514, 206.5913
415.0335, 205.7141
415.5157, 203.9798
415.9978, 202.6497
416.4799, 202.7634
416.9620, 203.8943
417.4441, 204.6250
417.9262, 204.9149
418.4084, 204.7834
418.8905, 203.9524
419.3726, 202.6972
419.8547, 201.8076
420.3368, 201.6283
420.8189, 201.6594
421.3011, 201.0176
421.7832, 199.4656
422.2653, 198.2982
422.7474, 197.7128
423.2295, 197.5288
423.7116, 197.8044
424.1938, 198.4292
424.6759, 198.8333
425.1580, 198.4760
425.6401, 197.4361
426.1222, 197.1970
426.6043, 198.9630
427.0865, 200.0033
427.5686, 199.1084
428.0507, 197.2462
428.5328, 195.7663
429.0149, 195.1835
429.4970, 195.1047
429.9792, 194.8662
430.4613, 194.5092
430.9434, 193.8680
431.4255, 192.3456
431.9076, 191.1017
432.3897, 191.1211
432.8719, 192.0882
433.3540, 192.8190
433.8361, 192.3167
434.3182, 190.7857
434.8003, 189.6799
435.2824, 189.0776
435.7646, 188.8386
436.2467, 189.1973
436.7288, 189.7242
437.2109, 190.0370
437.6930, 190.0194
438.1751, 189.6118
438.6573, 188.4129
439.1394, 186.3020
439.6215, 185.2068
440.1036, 186.2732
440.5857, 187.4373
441.0678, 187.2330
441.5500, 185.9442
442.0321, 184.7287
442.5142, 184.2493
442.9963, 184.1779
443.4784, 183.8990
443.9605, 183.3796
444.4427, 182.9057
444.9248, 182.6105
445.4069, 182.4621
445.8890, 182.4311
446.3711, 182.6080
446.8532, 182.6463
447.3354, 182.1664
447.8175, 181.4319
448.2996, 181.0840
448.7817, 181.3097
449.2638, 181.6493
449.7459, 181.6561
450.2281, 181.3048
450.7102, 180.6941
451.1923, 179.6371
451.6744, 178.4895
452.1565, 177.2361
452.6386, 176.0534
453.1208, 175.4512
453.6029, 175.7290
454.0850, 176.6303
454.5671, 177.4528
455.0492, 178.6123
455.5313, 179.0761
456.0135, 178.1371
456.4956, 176.9677
456.9777, 176.7560
457.4598, 177.4810
457.9419, 177.9844
458.4240, 177.0324
458.9062, 174.5950
459.3883, 173.0349
459.8704, 173.1471
460.3525, 173.2916
460.8346, 173.1495
461.3167, 172.8265
461.7989, 172.4592
462.2810, 172.0963
462.7631, 171.7652
463.2452, 171.4878
463.7273, 171.2484
464.2094, 171.1628
464.6916, 171.4727
465.1737, 171.7195
465.6558, 171.4571
466.1379, 170.8592
466.6200, 170.5721
467.1021, 171.1460
467.5843, 172.1698
468.0664, 172.8828
468.5485, 173.2913
469.0306, 173.3220
469.5127, 172.5886
469.9948, 171.6664
470.4770, 171.5694
470.9591, 172.6199
471.4412, 173.4056
471.9233, 172.9280
472.4054, 171.7811
472.8875, 171.0362
473.3697, 170.8897
473.8518, 171.0486
474.3339, 171.3457
474.8160, 171.7656
475.2981, 171.8870
475.7802, 171.5857
476.2624, 171.1265
476.7445, 170.4668
477.2266, 169.7554
477.7087, 169.2897
478.1908, 169.1859
478.6729, 169.2702
479.1551, 169.2175
479.6372, 168.8595
480.1193, 168.7688
480.6014, 169.1544
481.0835, 169.5808
481.5656, 169.7717
482.0478, 169.7887
482.5299, 169.8643
483.0120, 170.1594
483.4941, 170.6125
483.9762, 170.9775
484.4583, 171.2041
484.9405, 171.4469
485.4226, 172.0991
485.9047, 172.5403
486.3868, 171.9582
486.8689, 170.3832
487.3510, 169.0889
487.8332, 169.3449
488.3153, 170.8484
488.7974, 172.2006
489.2795, 173.4413
489.7616, 174.3011
490.2437, 174.0848
490.7259, 173.5000
491.2080, 173.7505
491.6901, 175.4778
492.1722, 177.2129
492.6543, 177.8187
493.1364, 177.5808
493.6186, 177.2811
494.1007, 177.0904
494.5828, 176.9886
495.0649, 176.9072
495.5470, 176.8335
496.0291, 177.1182
496.5113, 177.9385
496.9934, 178.9682
497.4755, 180.3450
497.9576, 181.7747
498.4397, 182.4438
498.9218, 181.9097
499.4040, 180.8762
499.8861, 180.9537
500.3682, 182.9631
500.8503, 184.6079
501.3324, 185.9827
501.8145, 186.9675
502.2967, 187.3171
502.7788, 187.1912
503.2609, 186.9988
503.7430, 186.9480
504.2251, 187.1395
504.7072, 188.0826
505.1894, 190.2720
505.6715, 192.0847
506.1536, 192.9049
506.6357, 193.3323
507.1178, 193.7068
507.5999, 194.0984
508.0821, 194.6350
508.5642, 195.5050
509.0463, 196.5901
509.5284, 197.4172
510.0105, 197.8058
510.4926, 198.6553
510.9748, 200.9955
511.4569, 204.0634
511.9390, 206.0481
512.4211, 206.4226
512.9032, 206.4737
513.3853, 206.6120
513.8674, 206.8999
514.3495, 207.4901
514.8317, 208.4201
515.3138, 209.5094
515.7959, 210.6857
516.2780, 212.0055
516.7601, 212.4230
517.2422, 211.4749
517.7244, 210.3014
518.2065, 209.0676
518.6886, 207.9206
519.1707, 207.0741
519.6528, 206.5940
520.1349, 206.2790
520.6171, 205.9046
521.0992, 205.5830
521.5813, 204.7410
522.0634, 202.2740
522.5455, 200.3994
523.0276, 200.2525
523.5098, 201.2336
523.9919, 202.2411
524.4740, 202.8678
524.9561, 203.1023
525.4382, 202.6763
525.9203, 201.5706
526.4025, 201.1458
526.8846, 202.2395
527.3667, 203.4109
527.8488, 202.9725
528.3309, 201.2117
528.8130, 199.9995
529.2952, 200.3544
529.7773, 201.1260
530.2594, 201.2784
530.7415, 200.8952
531.2236, 200.4470
531.7057, 200.1126
532.1879, 199.9097
532.6700, 199.8964
533.1521, 200.2428
533.6342, 200.3857
534.1163, 200.1740
534.5984, 199.8769
535.0806, 199.7211
535.5627, 199.6390
536.0448, 199.2872
536.5269, 198.3876
537.0090, 197.3546
537.4911, 197.6109
537.9733, 200.1180
538.4554, 201.7934
538.9375, 201.7019
539.4196, 201.1893
539.9017, 200.9845
540.3839, 201.1176
540.8660, 201.3350
541.3481, 201.6342
541.8302, 201.8206
542.3123, 201.2500
542.7944, 199.7899
543.2766, 198.7911
543.7587, 199.0955
544.2408, 199.8858
544.7229, 199.9392
545.2050, 199.1815
545.6871, 198.4247
546.1693, 198.0561
546.6514, 197.7596
547.1335, 197.0044
547.6156, 195.8825
548.0977, 195.1678
548.5798, 195.3979
549.0620, 196.2689
549.5441, 196.7551
550.0262, 196.7056
550.5083, 196.4305
550.9904, 195.7180
551.4725, 194.9371
551.9547, 194.3863
552.4368, 194.0453
552.9189, 193.6903
553.4010, 193.1448
553.8831, 192.4721
554.3652, 191.9757
554.8474, 191.8140
555.3295, 191.4363
555.8116, 190.4400
556.2937, 189.3581
556.7758, 188.6007
557.2579, 188.1799
557.7401, 187.7747
558.2222, 187.0715
558.7043, 186.3154
559.1864, 185.9733
559.6685, 186.0605
560.1506, 186.2529
560.6328, 186.5628
561.1149, 186.7200
561.5970, 186.0059
562.0791, 184.1763
562.5612, 182.4680
563.0433, 181.0347
563.5255, 179.8662
564.0076, 179.0337
564.4897, 178.4712
564.9718, 177.9177
565.4539, 177.1860
565.9360, 176.4087
566.4182, 176.1023
566.9003, 176.8734
567.3824, 176.9512
567.8645, 175.6356
568.3466, 174.1679
568.8287, 173.2639
569.3109, 172.9210
569.7930, 172.8775
570.2751, 173.1352
570.7572, 173.4144
571.2393, 173.0280
571.7214, 171.9182
572.2036, 170.8623
572.6857, 170.0963
573.1678, 169.5083
573.6499, 168.9920
574.1320, 168.5464
574.6141, 168.0621
575.0963, 167.6119
575.5784, 167.0303
576.0605, 166.0255
576.5426, 164.7439
577.0247, 163.6850
577.5068, 163.0919
577.9890, 162.7609
578.4711, 162.3412
578.9532, 161.9516
579.4353, 161.1415
579.9174, 159.4769
580.3995, 157.8789
580.8817, 156.9720
581.3638, 156.4350
581.8459, 155.5698
582.3280, 154.0185
582.8101, 152.2212
583.2922, 150.8533
583.7744, 149.9341
584.2565, 149.2458
584.7386, 148.9615
