##NAMES=Tephroite
##RRUFFID=R100105
##IDEAL CHEMISTRY=Mn^2+^_2_SiO_4_
##LOCALITY=Franklin, Sussex County, New Jersey, USA
##OWNER=RRUFF
##SOURCE=American Museum of Natural History
##DESCRIPTION=Translucent gray massives, associated with reddish zincite and metallic franklinite.
##STATUS=The identification of this mineral is confirmed by single-crystal X-ray diffraction and chemical analysis.
##URL=rruff.info/R100105
##MEASURED CHEMISTRY=(Mn^+2^_1.716_Zn_0.124_Mg_0.080_Ca_0.078_Fe^+2^_0.003_Al_0.001_)_Î£=2.002_Si_0.998_O_4_
165.2203, 714.5710
165.7024, 717.5582
166.1845, 722.1847
166.6666, 729.1709
167.1487, 735.9257
167.6309, 741.5015
168.1130, 745.9308
168.5951, 749.1634
169.0772, 749.7368
169.5593, 749.9482
170.0414, 751.8568
170.5236, 756.2345
171.0057, 761.3203
171.4878, 766.7082
171.9699, 772.0148
172.4520, 775.9459
172.9341, 776.6221
173.4163, 776.0055
173.8984, 776.4778
174.3805, 778.9876
174.8626, 781.9683
175.3447, 783.7892
175.8268, 784.7063
176.3090, 785.9456
176.7911, 789.3097
177.2732, 793.3572
177.7553, 795.5861
178.2374, 794.5817
178.7195, 792.3820
179.2017, 791.3688
179.6838, 791.4727
180.1659, 792.2330
180.6480, 793.4008
181.1301, 794.9457
181.6122, 796.8834
182.0944, 799.5441
182.5765, 802.3527
183.0586, 804.3114
183.5407, 805.3986
184.0228, 806.2403
184.5049, 807.4315
184.9871, 808.8484
185.4692, 809.9963
185.9513, 810.7150
186.4334, 811.0760
186.9155, 811.1339
187.3976, 810.8558
187.8798, 810.6536
188.3619, 810.9344
188.8440, 811.6667
189.3261, 812.6592
189.8082, 814.1967
190.2903, 815.9456
190.7725, 816.5413
191.2546, 815.8411
191.7367, 814.7841
192.2188, 814.2801
192.7009, 814.3184
193.1830, 814.8982
193.6652, 816.4036
194.1473, 818.5873
194.6294, 819.7181
195.1115, 819.6569
195.5936, 819.0214
196.0757, 818.3996
196.5579, 817.7737
197.0400, 817.6341
197.5221, 818.4332
198.0042, 820.0807
198.4863, 821.2911
198.9684, 822.1246
199.4506, 822.3854
199.9327, 821.4145
200.4148, 819.0217
200.8969, 817.0951
201.3790, 816.5621
201.8611, 817.4760
202.3433, 818.0844
202.8254, 818.1876
203.3075, 818.2771
203.7896, 819.4673
204.2717, 822.0739
204.7538, 824.1404
205.2360, 824.5910
205.7181, 823.1956
206.2002, 822.3190
206.6823, 822.1929
207.1644, 822.2992
207.6465, 821.4009
208.1287, 819.0375
208.6108, 817.3294
209.0929, 817.6777
209.5750, 820.7715
210.0571, 822.1570
210.5392, 821.3677
211.0214, 819.3341
211.5035, 817.9010
211.9856, 817.1724
212.4677, 816.8316
212.9498, 816.8698
213.4319, 817.4708
213.9141, 817.6559
214.3962, 817.2347
214.8783, 816.5032
215.3604, 816.1581
215.8425, 816.2757
216.3246, 816.5601
216.8068, 816.8656
217.2889, 817.1367
217.7710, 817.5662
218.2531, 818.2216
218.7352, 818.9763
219.2173, 819.6644
219.6995, 820.5872
220.1816, 820.8407
220.6637, 819.6155
221.1458, 815.6207
221.6279, 814.0713
222.1100, 816.1456
222.5922, 820.2761
223.0743, 822.2438
223.5564, 820.9197
224.0385, 819.4410
224.5206, 819.4641
225.0027, 822.0104
225.4849, 823.2612
225.9670, 822.5027
226.4491, 820.6400
226.9312, 820.1094
227.4133, 821.5926
227.8954, 823.3087
228.3776, 824.4197
228.8597, 824.7571
229.3418, 824.8871
229.8239, 824.7486
230.3060, 824.3861
230.7881, 823.8539
231.2703, 822.6347
231.7524, 821.9667
232.2345, 822.4838
232.7166, 824.7380
233.1987, 826.9109
233.6808, 829.2108
234.1630, 831.3614
234.6451, 832.6045
235.1272, 832.5863
235.6093, 832.2119
236.0914, 831.8173
236.5735, 831.2179
237.0557, 831.0992
237.5378, 831.5623
238.0199, 832.5108
238.5020, 833.7700
238.9841, 835.8476
239.4662, 837.5403
239.9484, 838.2372
240.4305, 837.3057
240.9126, 836.8735
241.3947, 837.2064
241.8768, 837.9371
242.3589, 838.2164
242.8411, 838.1038
243.3232, 837.4128
243.8053, 835.9016
244.2874, 832.8525
244.7695, 830.7045
245.2516, 829.6918
245.7338, 829.4669
246.2159, 829.3513
246.6980, 829.7061
247.1801, 829.6138
247.6622, 828.6318
248.1443, 826.3586
248.6265, 824.3204
249.1086, 822.4623
249.5907, 820.8622
250.0728, 819.8105
250.5549, 819.9533
251.0370, 819.5423
251.5192, 817.5931
252.0013, 813.1762
252.4834, 810.3947
252.9655, 809.7117
253.4476, 810.3817
253.9297, 811.2349
254.4119, 812.7423
254.8940, 813.5018
255.3761, 812.7702
255.8582, 809.9562
256.3403, 808.0515
256.8224, 807.4149
257.3046, 807.4168
257.7867, 807.0158
258.2688, 806.0350
258.7509, 805.0518
259.2330, 804.3024
259.7151, 803.8596
260.1973, 803.2211
260.6794, 802.1988
261.1615, 801.2012
261.6436, 800.9276
262.1257, 801.7004
262.6078, 802.3962
263.0900, 802.5507
263.5721, 802.0469
264.0542, 802.2243
264.5363, 803.4834
265.0184, 804.9229
265.5005, 805.2751
265.9827, 804.0740
266.4648, 803.0889
266.9469, 802.7743
267.4290, 803.1267
267.9111, 804.0722
268.3932, 806.0846
268.8754, 807.9319
269.3575, 807.8401
269.8396, 805.0298
270.3217, 803.2332
270.8038, 803.8585
271.2859, 806.7150
271.7681, 807.5461
272.2502, 805.6032
272.7323, 803.2003
273.2144, 803.0217
273.6965, 805.5890
274.1786, 807.4839
274.6608, 807.6928
275.1429, 806.5445
275.6250, 806.6489
276.1071, 808.4293
276.5892, 810.2586
277.0714, 810.5271
277.5535, 809.0887
278.0356, 807.4860
278.5177, 805.8691
278.9998, 804.3438
279.4819, 803.3260
279.9641, 802.8221
280.4462, 802.7946
280.9283, 803.6852
281.4104, 805.5624
281.8925, 806.0134
282.3746, 804.1968
282.8568, 801.0819
283.3389, 799.2656
283.8210, 798.7733
284.3031, 799.3317
284.7852, 801.7156
285.2673, 805.6835
285.7495, 807.0335
286.2316, 804.5081
286.7137, 800.1523
287.1958, 798.1910
287.6779, 798.6649
288.1600, 799.9611
288.6422, 801.5934
289.1243, 803.3981
289.6064, 804.0634
290.0885, 803.3299
290.5706, 801.8593
291.0527, 800.5033
291.5349, 799.2821
292.0170, 798.3922
292.4991, 798.4105
292.9812, 798.9377
293.4633, 798.2091
293.9454, 795.8681
294.4276, 793.4178
294.9097, 793.0978
295.3918, 794.5686
295.8739, 796.0614
296.3560, 796.8643
296.8381, 797.0530
297.3203, 796.4842
297.8024, 795.0449
298.2845, 793.8337
298.7666, 794.3768
299.2487, 796.1678
299.7308, 797.6807
300.2130, 798.2726
300.6951, 798.2077
301.1772, 797.8763
301.6593, 797.2874
302.1414, 796.4778
302.6235, 795.4265
303.1057, 794.1936
303.5878, 792.8974
304.0699, 791.3124
304.5520, 789.8925
305.0341, 789.4550
305.5162, 789.8719
305.9984, 790.0174
306.4805, 788.7751
306.9626, 786.8323
307.4447, 785.1487
307.9268, 783.9256
308.4089, 783.0680
308.8911, 782.5619
309.3732, 782.3619
309.8553, 782.3052
310.3374, 783.1541
310.8195, 783.6978
311.3016, 782.3608
311.7838, 777.6988
312.2659, 773.5261
312.7480, 772.7614
313.2301, 774.4843
313.7122, 776.3659
314.1943, 777.6821
314.6765, 778.5688
315.1586, 779.1277
315.6407, 779.3839
316.1228, 779.3021
316.6049, 778.9541
317.0870, 778.2387
317.5692, 777.0000
318.0513, 774.1666
318.5334, 771.5955
319.0155, 770.3584
319.4976, 770.7009
319.9797, 771.0209
320.4619, 770.9432
320.9440, 770.4912
321.4261, 769.6984
321.9082, 768.3826
322.3903, 766.8936
322.8724, 765.1876
323.3546, 763.2637
323.8367, 761.6971
324.3188, 760.8962
324.8009, 760.3460
325.2830, 759.6656
325.7651, 758.0925
326.2473, 757.2058
326.7294, 757.8583
327.2115, 759.7620
327.6936, 760.5663
328.1757, 759.0347
328.6578, 757.1874
329.1400, 756.0353
329.6221, 756.8818
330.1042, 756.6554
330.5863, 754.6159
331.0684, 751.4503
331.5505, 749.2252
332.0327, 748.2898
332.5148, 747.8313
332.9969, 747.5390
333.4790, 747.3497
333.9611, 747.5271
334.4432, 748.4221
334.9254, 749.4724
335.4075, 749.6454
335.8896, 748.5128
336.3717, 747.3770
336.8538, 746.6693
337.3359, 746.4345
337.8181, 746.0834
338.3002, 745.4604
338.7823, 744.9748
339.2644, 745.4483
339.7465, 747.3992
340.2286, 747.9454
340.7108, 745.7608
341.1929, 741.4333
341.6750, 739.6026
342.1571, 740.7553
342.6392, 742.4536
343.1213, 742.6062
343.6035, 741.1830
344.0856, 739.7747
344.5677, 738.5811
345.0498, 737.6110
345.5319, 736.8395
346.0140, 736.2560
346.4962, 736.1603
346.9783, 737.1995
347.4604, 739.0474
347.9425, 739.9235
348.4246, 739.5029
348.9067, 738.6276
349.3889, 738.7336
349.8710, 739.5993
350.3531, 739.9520
350.8352, 738.6742
351.3173, 736.5681
351.7994, 735.1320
352.2816, 734.4446
352.7637, 734.1942
353.2458, 734.2411
353.7279, 734.4969
354.2100, 734.7746
354.6921, 735.0738
355.1743, 735.2984
355.6564, 735.2281
356.1385, 734.8984
356.6206, 734.7244
357.1027, 735.4977
357.5848, 736.3935
358.0670, 736.3229
358.5491, 734.1530
359.0312, 732.2053
359.5133, 732.0154
359.9954, 733.2529
360.4775, 734.8802
360.9597, 737.2728
361.4418, 739.3045
361.9239, 740.0820
362.4060, 739.0624
362.8881, 737.9717
363.3702, 737.4930
363.8524, 737.3406
364.3345, 737.0779
364.8166, 736.0530
365.2987, 735.3705
365.7808, 735.5535
366.2629, 736.7104
366.7451, 737.9866
367.2272, 739.9201
367.7093, 741.6021
368.1914, 742.2352
368.6735, 739.9084
369.1556, 738.5951
369.6378, 739.7869
370.1199, 743.0305
370.6020, 744.1235
371.0841, 740.6799
371.5662, 737.2996
372.0483, 736.5757
372.5305, 740.3599
373.0126, 743.2850
373.4947, 744.9220
373.9768, 745.7229
374.4589, 746.6965
374.9410, 747.7369
375.4232, 749.1812
375.9053, 751.3209
376.3874, 754.3145
376.8695, 756.7696
377.3516, 758.5555
377.8337, 760.0701
378.3159, 761.9918
378.7980, 764.4464
379.2801, 766.3719
379.7622, 767.2507
380.2443, 767.4039
380.7264, 768.4701
381.2086, 770.5616
381.6907, 772.7117
382.1728, 773.9016
382.6549, 774.3275
383.1370, 775.2246
383.6191, 776.9168
384.1013, 778.9724
384.5834, 780.7112
385.0655, 782.1732
385.5476, 783.6501
386.0297, 785.3499
386.5118, 787.1933
386.9940, 789.2813
387.4761, 791.7195
387.9582, 793.6370
388.4403, 793.7955
388.9224, 792.8492
389.4045, 792.1631
389.8867, 793.2352
390.3688, 794.1628
390.8509, 792.8849
391.3330, 789.5970
391.8151, 786.5023
392.2972, 785.3198
392.7794, 784.7896
393.2615, 783.6473
393.7436, 780.9584
394.2257, 778.4998
394.7078, 777.4731
395.1899, 777.3093
395.6721, 776.5129
396.1542, 774.3947
396.6363, 771.7208
397.1184, 768.6990
397.6005, 765.0754
398.0826, 762.0018
398.5648, 760.2816
399.0469, 758.9931
399.5290, 757.0181
400.0111, 753.2971
400.4932, 749.9515
400.9753, 747.4252
401.4575, 745.7050
401.9396, 744.0093
402.4217, 742.3043
402.9038, 740.6315
403.3859, 739.0021
403.8680, 737.3588
404.3502, 735.9237
404.8323, 734.9479
405.3144, 734.0757
405.7965, 732.2834
406.2786, 729.2889
406.7607, 726.2763
407.2429, 723.6880
407.7250, 721.5144
408.2071, 719.9305
408.6892, 719.0592
409.1713, 718.3798
409.6534, 717.1897
410.1356, 715.5214
410.6177, 713.9440
411.0998, 712.6591
411.5819, 711.5403
412.0640, 710.2421
412.5461, 708.7841
413.0282, 707.3791
413.5103, 706.4576
413.9925, 705.6933
414.4746, 704.2248
414.9567, 701.6340
415.4388, 699.1328
415.9209, 698.0080
416.4030, 697.9486
416.8852, 698.1524
417.3673, 698.8201
417.8494, 699.1877
418.3315, 698.4908
418.8136, 696.6810
419.2957, 694.5887
419.7779, 692.2542
420.2600, 690.0570
420.7421, 688.4166
421.2242, 687.5525
421.7063, 687.1443
422.1884, 687.4841
422.6706, 688.2936
423.1527, 688.5227
423.6348, 687.3057
424.1169, 685.9664
424.5990, 685.1310
425.0811, 685.1507
425.5633, 685.0139
426.0454, 685.0007
426.5275, 684.6938
427.0096, 683.4515
427.4917, 680.1401
427.9738, 677.6494
428.4560, 676.8096
428.9381, 677.5266
429.4202, 677.8053
429.9023, 677.4861
430.3844, 677.0084
430.8665, 676.6596
431.3487, 676.4375
431.8308, 676.3390
432.3129, 676.3865
432.7950, 676.5118
433.2771, 676.6074
433.7592, 676.6700
434.2414, 676.6306
434.7235, 676.3986
435.2056, 676.0239
435.6877, 675.7298
436.1698, 675.5195
436.6519, 675.3121
437.1341, 675.2118
437.6162, 675.0627
438.0983, 674.3439
438.5804, 672.4526
439.0625, 670.6081
439.5446, 670.6536
440.0268, 672.0863
440.5089, 673.0574
440.9910, 672.1630
441.4731, 670.5314
441.9552, 669.1251
442.4373, 668.1091
442.9195, 667.1385
443.4016, 665.5789
443.8837, 664.1208
444.3658, 663.6032
444.8479, 665.6285
445.3300, 667.2702
445.8122, 667.4807
446.2943, 666.3747
446.7764, 665.1756
447.2585, 663.6798
447.7406, 662.4206
448.2227, 661.7122
448.7049, 662.0361
449.1870, 661.9705
449.6691, 661.2008
450.1512, 660.1982
450.6333, 659.8082
451.1154, 660.5046
451.5976, 660.7648
452.0797, 660.0342
452.5618, 658.4004
453.0439, 657.0951
453.5260, 656.0626
454.0081, 655.5951
454.4903, 656.3310
454.9724, 658.2365
455.4545, 659.2250
455.9366, 658.8777
456.4187, 657.8517
456.9008, 657.1573
457.3830, 656.7652
457.8651, 656.5099
458.3472, 656.4902
458.8293, 656.4955
459.3114, 656.2713
459.7935, 655.8124
460.2757, 654.7811
460.7578, 652.0109
461.2399, 648.7756
461.7220, 646.9542
462.2041, 647.6434
462.6862, 648.7708
463.1684, 649.1490
463.6505, 648.9431
464.1326, 648.5275
464.6147, 647.7866
465.0968, 647.0823
465.5789, 646.5032
466.0611, 645.9998
466.5432, 646.0327
467.0253, 647.3987
467.5074, 648.9551
467.9895, 649.7418
468.4716, 649.4522
468.9538, 648.6853
469.4359, 647.0595
469.9180, 645.0016
470.4001, 643.9792
470.8822, 644.6680
471.3643, 645.2258
471.8465, 644.8572
472.3286, 643.4722
472.8107, 642.1080
473.2928, 640.6678
473.7749, 639.5489
474.2570, 639.4417
474.7392, 640.3409
475.2213, 640.9548
475.7034, 640.9635
476.1855, 640.5795
476.6676, 640.1395
477.1497, 639.6549
477.6319, 639.2727
478.1140, 639.3671
478.5961, 639.5178
479.0782, 638.8149
479.5603, 637.1250
480.0424, 635.5609
480.5246, 635.0540
481.0067, 635.2302
481.4888, 635.5773
481.9709, 636.3121
482.4530, 636.7335
482.9352, 636.1158
483.4173, 634.8243
483.8994, 634.0167
484.3815, 634.5887
484.8636, 635.3181
485.3457, 635.8250
485.8279, 636.3414
486.3100, 635.6284
486.7921, 631.6276
487.2742, 627.4326
487.7563, 625.8793
488.2384, 629.1312
488.7206, 631.2696
489.2027, 631.1830
489.6848, 629.5880
490.1669, 629.1438
490.6490, 630.2667
491.1311, 631.3002
491.6133, 631.3507
492.0954, 630.4426
492.5775, 629.8538
493.0596, 629.6838
493.5417, 629.4413
494.0238, 628.3979
494.5060, 626.7495
494.9881, 625.3832
495.4702, 624.4667
495.9523, 624.0363
496.4344, 624.3331
496.9165, 625.2258
497.3987, 626.2198
497.8808, 627.6330
498.3629, 628.6639
498.8450, 628.2249
499.3271, 626.1614
499.8092, 624.3116
500.2914, 623.4612
500.7735, 623.3683
501.2556, 623.8007
501.7377, 625.8977
502.2198, 627.0558
502.7019, 625.8154
503.1841, 623.1722
503.6662, 621.8459
504.1483, 623.0573
504.6304, 624.5433
505.1125, 625.8500
505.5946, 627.0300
506.0768, 627.4662
506.5589, 626.9900
507.0410, 626.0293
507.5231, 624.5701
508.0052, 622.3115
508.4873, 621.8399
508.9695, 624.0261
509.4516, 627.2213
509.9337, 628.0067
510.4158, 626.5217
510.8979, 625.4172
511.3800, 626.2119
511.8622, 628.0565
512.3443, 629.2946
512.8264, 629.9000
513.3085, 629.6511
513.7906, 627.1793
514.2728, 624.1954
514.7549, 623.0662
515.2370, 624.6155
515.7191, 626.9044
516.2012, 630.1779
516.6833, 633.0889
517.1655, 633.6274
517.6476, 628.3967
518.1297, 623.4260
518.6118, 621.1328
519.0939, 621.3115
519.5760, 621.0031
520.0582, 619.5483
520.5403, 617.8108
521.0224, 616.0992
521.5045, 614.2508
521.9866, 612.8580
522.4688, 611.9400
522.9509, 611.4467
523.4330, 611.4174
523.9151, 611.9631
524.3972, 612.3902
524.8793, 612.6856
525.3615, 612.6500
525.8436, 611.3644
526.3257, 608.8492
526.8078, 606.7972
527.2899, 606.7792
527.7720, 607.8242
528.2542, 607.6619
528.7363, 606.1791
529.2184, 604.2777
529.7005, 602.4775
530.1826, 600.8220
530.6647, 599.3284
531.1469, 597.7604
531.6290, 596.7868
532.1111, 597.1822
532.5932, 598.4229
533.0753, 599.4396
533.5574, 599.6204
534.0396, 599.8156
534.5217, 600.6009
535.0038, 602.0560
535.4859, 602.4053
535.9680, 600.7090
536.4501, 598.7775
536.9323, 597.6351
537.4144, 597.4808
537.8965, 597.6109
538.3786, 598.2313
538.8607, 598.8453
539.3428, 598.4733
539.8250, 597.0085
540.3071, 596.0717
540.7892, 596.3053
541.2713, 597.2332
541.7534, 597.8182
542.2355, 598.0636
542.7177, 597.9698
543.1998, 596.9805
543.6819, 595.8582
544.1640, 596.1155
544.6461, 597.9399
545.1282, 599.4291
545.6104, 598.7010
546.0925, 597.1082
546.5746, 596.1909
547.0567, 596.9283
547.5388, 597.6095
548.0209, 597.5108
548.5031, 596.9531
548.9852, 596.6452
549.4673, 597.0230
549.9494, 597.3131
550.4315, 597.3881
550.9136, 597.2482
551.3958, 596.6186
551.8779, 594.9935
552.3600, 593.7336
552.8421, 593.9293
553.3242, 595.7971
553.8063, 597.1770
554.2885, 598.0933
554.7706, 598.2052
555.2527, 596.2372
555.7348, 592.6730
556.2169, 590.7115
556.6990, 592.1445
557.1812, 594.5895
557.6633, 594.3887
558.1454, 592.1708
558.6275, 590.2970
559.1096, 590.2611
559.5917, 591.0400
560.0739, 592.0349
560.5560, 593.2125
561.0381, 594.0219
561.5202, 594.0143
562.0023, 593.6838
562.4844, 593.3785
562.9666, 592.9859
563.4487, 592.8693
563.9308, 593.1413
564.4129, 593.6428
564.8950, 594.2205
565.3771, 595.1765
565.8593, 595.4113
566.3414, 594.2073
566.8235, 592.1447
567.3056, 592.1801
567.7877, 594.6123
568.2698, 596.9449
568.7520, 597.4286
569.2341, 596.5629
569.7162, 596.3074
570.1983, 596.7500
570.6804, 597.3849
571.1625, 597.9485
571.6447, 598.3400
572.1268, 598.3363
572.6089, 597.6898
573.0910, 597.0797
573.5731, 597.1776
574.0552, 597.5774
574.5374, 597.5674
575.0195, 596.6469
575.5016, 595.5648
575.9837, 594.5431
576.4658, 593.5892
576.9479, 592.6200
577.4301, 591.9826
577.9122, 590.9329
578.3943, 588.8962
578.8764, 585.4974
579.3585, 583.4689
579.8406, 583.2740
580.3228, 583.4125
580.8049, 582.1937
581.2870, 579.7041
581.7691, 577.3810
582.2512, 575.4003
582.7333, 573.8594
583.2155, 573.1525
583.6976, 573.0507
584.1797, 572.8162
584.6618, 572.1352
585.1439, 571.1412
585.6260, 569.5693
586.1082, 567.6335
586.5903, 566.4226
587.0724, 567.6251
587.5545, 568.7770
588.0366, 568.2370
588.5187, 565.3099
589.0009, 563.0266
589.4830, 562.1799
589.9651, 561.8292
590.4472, 561.3144
590.9293, 560.6132
591.4114, 559.7990
591.8936, 558.8256
592.3757, 557.7998
592.8578, 556.8860
593.3399, 556.0919
593.8220, 555.4632
594.3041, 555.1649
594.7863, 554.9283
595.2684, 554.1036
595.7505, 552.7403
596.2326, 551.1468
596.7147, 548.9365
597.1968, 546.9207
597.6790, 546.2943
598.1611, 547.1671
598.6432, 547.8693
599.1253, 547.1472
599.6074, 546.0505
600.0895, 545.4836
600.5717, 546.1725
601.0538, 546.4153
601.5359, 545.5405
602.0180, 544.2518
602.5001, 543.4451
602.9822, 543.2689
603.4644, 543.3109
603.9465, 543.6050
604.4286, 544.0189
604.9107, 544.1677
605.3928, 544.0476
605.8749, 543.6213
606.3571, 542.6690
606.8392, 541.4022
607.3213, 540.4464
607.8034, 539.8026
608.2855, 539.5054
608.7676, 539.6370
609.2498, 540.1146
609.7319, 541.0792
610.2140, 542.8052
610.6961, 543.7587
611.1782, 542.2894
611.6603, 539.9745
612.1425, 538.4738
612.6246, 539.3372
613.1067, 539.6338
613.5888, 538.4610
614.0709, 536.5849
614.5530, 535.5738
615.0352, 535.9619
615.5173, 536.0961
615.9994, 535.3969
616.4815, 534.0864
616.9636, 533.3906
617.4457, 533.3552
617.9279, 533.4659
618.4100, 533.7001
618.8921, 533.8134
619.3742, 532.7994
619.8563, 530.5947
620.3384, 528.7125
620.8206, 528.7531
621.3027, 529.6648
621.7848, 530.2094
622.2669, 530.1179
622.7490, 529.6671
623.2311, 528.4130
623.7133, 527.0644
624.1954, 526.5284
624.6775, 527.9634
625.1596, 528.9825
625.6417, 529.1103
626.1238, 528.6676
626.6060, 528.6423
627.0881, 529.3174
627.5702, 529.5405
628.0523, 528.6786
628.5344, 527.0413
629.0165, 526.2177
629.4987, 526.2222
629.9808, 526.4565
630.4629, 526.4861
630.9450, 526.4504
631.4271, 526.8876
631.9092, 527.8760
632.3914, 528.1440
632.8735, 525.9307
633.3556, 522.9307
633.8377, 520.8660
634.3198, 520.4080
634.8019, 520.3680
635.2841, 520.8746
635.7662, 521.4675
636.2483, 521.4915
636.7304, 520.5046
637.2125, 519.6622
637.6946, 519.1215
638.1768, 518.8260
638.6589, 518.7193
639.1410, 518.8793
639.6231, 518.6922
640.1052, 517.6903
640.5873, 516.2484
641.0695, 515.5139
641.5516, 515.4501
642.0337, 515.6356
642.5158, 516.1819
642.9979, 516.6176
643.4800, 516.1823
643.9622, 514.7699
644.4443, 513.6317
644.9264, 513.5061
645.4085, 513.8298
645.8906, 514.1921
646.3727, 514.7881
646.8549, 514.9017
647.3370, 514.2863
647.8191, 513.3102
648.3012, 512.2615
648.7833, 510.8034
649.2654, 510.4808
649.7476, 511.9764
650.2297, 514.1559
650.7118, 514.4246
651.1939, 512.9533
651.6760, 511.7969
652.1581, 511.9956
652.6403, 512.8368
653.1224, 513.3842
653.6045, 513.6566
654.0866, 513.7482
654.5687, 513.6370
655.0508, 513.4280
655.5330, 513.1306
656.0151, 512.7455
656.4972, 512.5139
656.9793, 512.5143
657.4614, 512.6690
657.9435, 512.9903
658.4257, 513.6347
