##NAMES=Terlinguaite
##RRUFFID=R060492
##IDEAL CHEMISTRY=Hg_2_OCl
##LOCALITY=Mariposa mine, Terlingua Mining District, Brewster County, Texas, USA
##OWNER=RRUFF
##SOURCE=Michael Scott
##DESCRIPTION=Pale green colored mass showing perfect cleavage
##STATUS=The identification of this mineral has been confirmed by single-crystal X-ray diffraction.
##URL=rruff.info/R060492
97.97919, 133.3889
98.46130, 137.6008
98.94342, 143.1868
99.42554, 150.0890
99.90765, 157.7366
100.3898, 166.2927
100.8719, 175.3251
101.3540, 185.0094
101.8361, 196.4961
102.3182, 205.0443
102.8004, 209.4388
103.2825, 210.1547
103.7646, 205.5168
104.2467, 194.2444
104.7288, 178.6510
105.2109, 163.8043
105.6931, 148.7507
106.1752, 135.4606
106.6573, 124.6259
107.1394, 116.8504
107.6215, 110.4010
108.1036, 105.4832
108.5858, 101.9021
109.0679, 98.75273
109.5500, 96.00591
110.0321, 93.67139
110.5142, 91.76818
110.9963, 90.25700
111.4785, 89.17802
111.9606, 88.70257
112.4427, 88.80008
112.9248, 88.79844
113.4069, 89.23319
113.8890, 89.24454
114.3712, 88.14037
114.8533, 85.56589
115.3354, 82.09127
115.8175, 77.66502
116.2996, 72.15967
116.7817, 66.69390
117.2639, 61.28352
117.7460, 56.16945
118.2281, 51.66143
118.7102, 47.92875
119.1923, 44.76669
119.6744, 42.12469
120.1566, 40.01527
120.6387, 38.28582
121.1208, 36.90728
121.6029, 35.84702
122.0850, 35.05938
122.5671, 34.66642
123.0493, 34.46760
123.5314, 34.23598
124.0135, 33.88273
124.4956, 33.61833
124.9777, 33.73201
125.4598, 34.14020
125.9420, 34.52922
126.4241, 34.57055
126.9062, 34.46671
127.3883, 34.56910
127.8704, 34.91042
128.3525, 35.54176
128.8347, 36.71530
129.3168, 38.40541
129.7989, 40.04323
130.2810, 41.08562
130.7631, 41.66551
131.2452, 42.33742
131.7274, 43.11597
132.2095, 44.13513
132.6916, 45.94543
133.1737, 48.66615
133.6558, 51.45414
134.1379, 53.30630
134.6201, 54.24445
135.1022, 55.69265
135.5843, 58.13372
136.0664, 61.46856
136.5485, 64.90781
137.0306, 68.48127
137.5128, 72.13477
137.9949, 75.87772
138.4770, 79.70049
138.9591, 83.74100
139.4412, 88.18130
139.9233, 93.02708
140.4055, 97.64023
140.8876, 101.9988
141.3697, 106.1607
141.8518, 110.2080
142.3339, 114.0178
142.8160, 117.9437
143.2982, 122.1312
143.7803, 126.5884
144.2624, 131.1716
144.7445, 135.8883
145.2266, 140.7361
145.7087, 145.4474
146.1909, 149.7524
146.6730, 154.3599
147.1551, 159.6041
147.6372, 165.5637
148.1193, 171.9519
148.6014, 178.8796
149.0836, 186.2429
149.5657, 193.9815
150.0478, 201.6643
150.5299, 209.8912
151.0120, 218.9964
151.4941, 229.2232
151.9763, 239.9123
152.4584, 251.6742
152.9405, 264.1422
153.4226, 275.7330
153.9047, 286.9415
154.3868, 296.8414
154.8690, 304.9275
155.3511, 311.1992
155.8332, 315.5948
156.3153, 318.3938
156.7974, 319.4630
157.2795, 317.7325
157.7617, 312.6349
158.2438, 304.8406
158.7259, 294.8343
159.2080, 281.6249
159.6901, 267.2763
160.1722, 252.0006
160.6544, 235.8645
161.1365, 219.8443
161.6186, 203.7935
162.1007, 188.3207
162.5828, 173.5948
163.0649, 159.4627
163.5471, 146.4502
164.0292, 134.8950
164.5113, 124.8077
164.9934, 115.6711
165.4755, 107.3036
165.9576, 99.68852
166.4398, 92.91079
166.9219, 86.96674
167.4040, 81.78987
167.8861, 77.54661
168.3682, 74.24891
168.8503, 71.31171
169.3325, 68.32272
169.8146, 65.43971
170.2967, 62.95899
170.7788, 61.15440
171.2609, 59.69256
171.7430, 58.30244
172.2252, 56.95286
172.7073, 55.72480
173.1894, 54.71840
173.6715, 53.87733
174.1536, 53.10790
174.6357, 52.42205
175.1179, 51.74194
175.6000, 50.97047
176.0821, 50.10345
176.5642, 49.16677
177.0463, 48.15178
177.5284, 47.07702
178.0106, 46.01738
178.4927, 44.99943
178.9748, 44.02007
179.4569, 43.08506
179.9390, 42.17568
180.4211, 41.35107
180.9033, 40.69337
181.3854, 40.17952
181.8675, 39.71589
182.3496, 39.22977
182.8317, 38.75457
183.3138, 38.34872
183.7960, 38.02893
184.2781, 37.76078
184.7602, 37.44973
185.2423, 37.11402
185.7244, 36.93126
186.2065, 37.17910
186.6887, 37.70301
187.1708, 37.86306
187.6529, 37.48772
188.1350, 36.94177
188.6171, 36.88103
189.0992, 37.29489
189.5814, 37.80198
190.0635, 38.15259
190.5456, 38.37876
191.0277, 38.66059
191.5098, 39.01569
191.9919, 39.44240
192.4741, 39.95216
192.9562, 40.54627
193.4383, 41.14922
193.9204, 41.67913
194.4025, 42.14412
194.8846, 42.69064
195.3668, 43.34763
195.8489, 44.08174
196.3310, 44.82963
196.8131, 45.59569
197.2952, 46.33764
197.7773, 47.08582
198.2595, 47.84201
198.7416, 48.37551
199.2237, 48.62458
199.7058, 48.65740
200.1879, 48.68355
200.6700, 48.73732
201.1522, 48.63114
201.6343, 48.19977
202.1164, 47.41625
202.5985, 46.57825
203.0806, 45.72027
203.5627, 44.83903
204.0449, 43.93023
204.5270, 42.98712
205.0091, 42.03752
205.4912, 41.08959
205.9733, 40.13519
206.4554, 39.24006
206.9376, 38.44087
207.4197, 37.70069
207.9018, 36.80904
208.3839, 35.68419
208.8660, 34.61308
209.3481, 33.81609
209.8303, 33.33329
210.3124, 32.93279
210.7945, 32.61895
211.2766, 32.36599
211.7587, 32.03115
212.2408, 31.55025
212.7230, 31.12170
213.2051, 30.90662
213.6872, 30.99364
214.1693, 30.98222
214.6514, 30.80522
215.1335, 30.49615
215.6157, 30.21773
216.0978, 29.96935
216.5799, 29.74671
217.0620, 29.54257
217.5441, 29.35034
218.0262, 29.19465
218.5084, 29.08169
218.9905, 29.00586
219.4726, 28.94744
219.9547, 28.91587
220.4368, 28.88471
220.9189, 28.82528
221.4011, 28.69538
221.8832, 28.66269
222.3653, 28.81622
222.8474, 29.08010
223.3295, 29.08889
223.8116, 28.71149
224.2938, 28.28720
224.7759, 28.02003
225.2580, 27.96489
225.7401, 27.94331
226.2222, 27.96430
226.7043, 28.00930
227.1865, 28.00193
227.6686, 27.93773
228.1507, 27.82775
228.6328, 27.67484
229.1149, 27.46545
229.5970, 27.24546
230.0792, 27.01679
230.5613, 26.77975
231.0434, 26.53995
231.5255, 26.28872
232.0076, 26.05266
232.4897, 25.85591
232.9719, 25.73446
233.4540, 25.57199
233.9361, 25.35102
234.4182, 25.08619
234.9003, 24.81855
235.3824, 24.51894
235.8646, 24.25808
236.3467, 24.08038
236.8288, 24.04199
237.3109, 23.96190
237.7930, 23.83408
238.2751, 23.66081
238.7573, 23.44352
239.2394, 23.12629
239.7215, 22.84447
240.2036, 22.66722
240.6857, 22.66412
241.1678, 22.60430
241.6500, 22.45780
242.1321, 22.26294
242.6142, 22.12020
243.0963, 22.07343
243.5784, 22.01481
244.0605, 21.88722
244.5427, 21.62762
245.0248, 21.46673
245.5069, 21.46067
245.9890, 21.53104
246.4711, 21.50299
246.9532, 21.33337
247.4354, 21.13656
247.9175, 20.95071
248.3996, 20.76661
248.8817, 20.61664
249.3638, 20.48237
249.8459, 20.39287
250.3281, 20.41546
250.8102, 20.62226
251.2923, 20.81727
251.7744, 20.94074
252.2565, 20.98828
252.7386, 20.96830
253.2208, 20.82335
253.7029, 20.65331
254.1850, 20.63375
254.6671, 20.87165
255.1492, 21.04821
255.6313, 21.03218
256.1135, 20.77590
256.5956, 20.65605
257.0777, 20.73007
257.5598, 20.88556
258.0419, 20.96398
258.5240, 20.91397
259.0062, 20.90204
259.4883, 20.98883
259.9704, 21.18167
260.4525, 21.32930
260.9346, 21.40506
261.4167, 21.46660
261.8989, 21.58963
262.3810, 21.80733
262.8631, 21.99348
263.3452, 22.10026
263.8273, 22.13016
264.3094, 22.21932
264.7916, 22.36475
265.2737, 22.57619
265.7558, 22.88452
266.2379, 23.32512
266.7200, 23.73789
267.2021, 24.07929
267.6843, 24.36039
268.1664, 24.70479
268.6485, 25.11907
269.1306, 25.58071
269.6127, 26.05492
270.0948, 26.52195
270.5770, 27.08895
271.0591, 27.80417
271.5412, 28.62460
272.0233, 29.36045
272.5054, 29.97786
272.9875, 30.56931
273.4697, 31.19228
273.9518, 31.85471
274.4339, 32.53047
274.9160, 33.20933
275.3981, 33.90099
275.8802, 34.66146
276.3624, 35.49181
276.8445, 36.34362
277.3266, 37.17414
277.8087, 37.97843
278.2908, 38.84853
278.7729, 39.81124
279.2551, 40.82095
279.7372, 41.70485
280.2193, 42.43113
280.7014, 43.26488
281.1835, 44.44169
281.6656, 45.95412
282.1478, 47.24243
282.6299, 48.21561
283.1120, 49.09639
283.5941, 50.31682
284.0762, 51.90220
284.5583, 53.41862
285.0405, 54.66541
285.5226, 55.66511
286.0047, 56.67225
286.4868, 57.73684
286.9689, 58.64577
287.4510, 59.08313
287.9332, 59.06132
288.4153, 58.84310
288.8974, 58.62539
289.3795, 58.30150
289.8616, 57.40599
290.3438, 55.89985
290.8259, 54.09024
291.3080, 52.27279
291.7901, 50.44718
292.2722, 48.49837
292.7543, 46.37340
293.2365, 44.13000
293.7186, 41.84027
294.2007, 39.52039
294.6828, 37.36335
295.1649, 35.61582
295.6470, 34.20061
296.1292, 32.78745
296.6113, 31.24246
297.0934, 29.73619
297.5755, 28.53646
298.0576, 27.62599
298.5397, 26.87096
299.0219, 26.20316
299.5040, 25.60569
299.9861, 25.05574
300.4682, 24.55851
300.9503, 24.08895
301.4324, 23.59001
301.9146, 23.08243
302.3967, 22.63132
302.8788, 22.31414
303.3609, 22.07092
303.8430, 21.82131
304.3251, 21.55149
304.8073, 21.28585
305.2894, 21.04086
305.7715, 20.81625
306.2536, 20.60452
306.7357, 20.38260
307.2178, 20.18324
307.7000, 20.05937
308.1821, 20.02236
308.6642, 19.98447
309.1463, 19.86638
309.6284, 19.70754
310.1105, 19.56779
310.5927, 19.47489
311.0748, 19.41018
311.5569, 19.36448
312.0390, 19.33745
312.5211, 19.31901
313.0032, 19.29988
313.4854, 19.28759
313.9675, 19.29047
314.4496, 19.37007
314.9317, 19.41298
315.4138, 19.34044
315.8959, 19.17063
316.3781, 19.01272
316.8602, 18.89517
317.3423, 18.82013
317.8244, 18.79685
318.3065, 18.89778
318.7886, 18.95011
319.2708, 18.85301
319.7529, 18.65748
320.2350, 18.50666
320.7171, 18.45886
321.1992, 18.45548
321.6813, 18.47929
322.1635, 18.56272
322.6456, 18.59274
323.1277, 18.50593
323.6098, 18.35845
324.0919, 18.24388
324.5740, 18.17211
325.0562, 18.14084
325.5383, 18.16369
326.0204, 18.26214
326.5025, 18.32797
326.9846, 18.34847
327.4667, 18.33563
327.9489, 18.30194
328.4310, 18.17612
328.9131, 18.11077
329.3952, 18.15541
329.8773, 18.31396
330.3594, 18.42282
330.8416, 18.45893
331.3237, 18.46409
331.8058, 18.46440
332.2879, 18.44242
332.7700, 18.44963
333.2521, 18.52584
333.7343, 18.64008
334.2164, 18.62126
334.6985, 18.35909
335.1806, 18.13546
335.6627, 18.12458
336.1448, 18.42492
336.6270, 18.62998
337.1091, 18.69717
337.5912, 18.68628
338.0733, 18.73003
338.5554, 18.85509
339.0375, 18.94563
339.5197, 18.91843
340.0018, 18.75968
340.4839, 18.77800
340.9660, 19.03276
341.4481, 19.33406
341.9302, 19.38948
342.4124, 19.17541
342.8945, 19.05062
343.3766, 19.16527
343.8587, 19.45246
344.3408, 19.59566
344.8229, 19.57782
345.3051, 19.52586
345.7872, 19.53551
346.2693, 19.60576
346.7514, 19.74599
347.2335, 19.98744
347.7156, 20.26063
348.1978, 20.39994
348.6799, 20.41684
349.1620, 20.45355
349.6441, 20.62827
350.1262, 20.89236
350.6083, 21.12050
351.0905, 21.28756
351.5726, 21.46362
352.0547, 21.76419
352.5368, 22.14858
353.0189, 22.49348
353.5010, 22.68803
353.9832, 22.83183
354.4653, 23.06603
354.9474, 23.40269
355.4295, 23.71292
355.9116, 23.80831
356.3937, 23.83108
356.8759, 23.99307
357.3580, 24.50426
357.8401, 25.07119
358.3222, 25.47276
358.8043, 25.74002
359.2864, 26.03629
359.7686, 26.41827
360.2507, 26.88522
360.7328, 27.44925
361.2149, 28.22117
361.6970, 28.91408
362.1791, 29.34037
362.6613, 29.60084
363.1434, 29.92782
363.6255, 30.37347
364.1076, 30.91875
364.5897, 31.57227
365.0718, 32.34430
365.5540, 33.14650
366.0361, 34.05552
366.5182, 34.95475
367.0003, 35.70443
367.4824, 36.14186
367.9645, 36.58023
368.4467, 37.04833
368.9288, 37.53527
369.4109, 38.18983
369.8930, 39.19613
370.3751, 40.22968
370.8572, 41.06926
371.3394, 41.56048
371.8215, 42.10614
372.3036, 42.76242
372.7857, 43.49269
373.2678, 44.17600
373.7499, 44.81420
374.2321, 45.41190
374.7142, 45.95131
375.1963, 46.41015
375.6784, 46.93433
376.1605, 47.56679
376.6426, 48.20470
377.1248, 48.64894
377.6069, 48.87424
378.0890, 49.08967
378.5711, 49.37355
379.0532, 49.71044
379.5353, 49.96727
380.0175, 50.14144
380.4996, 50.26069
380.9817, 50.35183
381.4638, 50.41310
381.9459, 50.43431
382.4280, 50.42240
382.9102, 50.35606
383.3923, 50.21693
383.8744, 49.99846
384.3565, 49.64840
384.8386, 49.12197
385.3207, 48.44303
385.8029, 47.65991
386.2850, 46.75933
386.7671, 45.81074
387.2492, 44.91186
387.7313, 44.01446
388.2134, 43.02490
388.6956, 41.86053
389.1777, 40.62696
389.6598, 39.36340
390.1419, 38.08447
390.6240, 36.90738
391.1061, 36.02184
391.5883, 35.21428
392.0704, 34.23875
392.5525, 32.81867
393.0346, 31.51205
393.5167, 30.62330
393.9988, 30.04031
394.4810, 29.43497
394.9631, 28.65059
395.4452, 27.84865
395.9273, 27.10592
396.4094, 26.43553
396.8915, 25.80993
397.3737, 25.23316
397.8558, 24.69499
398.3379, 24.18283
398.8200, 23.72294
399.3021, 23.25922
399.7842, 22.76934
400.2664, 22.25352
400.7485, 21.77245
401.2306, 21.32123
401.7127, 20.91480
402.1948, 20.56397
402.6769, 20.27218
403.1591, 20.03188
403.6412, 19.85931
404.1233, 19.73101
404.6054, 19.58678
405.0875, 19.42826
405.5696, 19.25326
406.0518, 19.05517
406.5339, 18.83314
407.0160, 18.60297
407.4981, 18.33922
407.9802, 18.14577
408.4623, 18.08983
408.9445, 18.17600
409.4266, 18.65561
409.9087, 19.91071
410.3908, 21.34093
410.8729, 21.26953
411.3550, 19.73726
411.8372, 18.09565
412.3193, 17.27038
412.8014, 17.04698
413.2835, 16.95203
413.7656, 16.94981
414.2477, 16.95885
414.7299, 16.86500
415.2120, 16.71180
415.6941, 16.60672
416.1762, 16.67767
416.6583, 16.76685
417.1404, 16.70259
417.6226, 16.48779
418.1047, 16.30109
418.5868, 16.30158
419.0689, 16.35235
419.5510, 16.31732
420.0331, 16.07723
420.5153, 15.85809
420.9974, 15.74380
421.4795, 15.71607
421.9616, 15.73438
422.4437, 15.84727
422.9258, 15.95413
423.4080, 16.01628
423.8901, 16.03022
424.3722, 16.00603
424.8543, 15.91490
425.3364, 15.80062
425.8185, 15.70598
426.3007, 15.63994
426.7828, 15.57973
427.2649, 15.52572
427.7470, 15.47624
428.2291, 15.41128
428.7112, 15.30288
429.1934, 15.22848
429.6755, 15.24955
430.1576, 15.39834
430.6397, 15.46344
431.1218, 15.40680
431.6039, 15.31706
432.0861, 15.36839
432.5682, 15.57499
433.0503, 15.70067
433.5324, 15.64158
434.0145, 15.44435
434.4966, 15.23979
434.9788, 15.02557
435.4609, 14.87819
435.9430, 14.91251
436.4251, 15.06602
436.9072, 15.15327
437.3893, 15.11895
437.8715, 15.06778
438.3536, 15.18120
438.8357, 15.38440
439.3178, 15.46875
439.7999, 15.18004
440.2820, 14.81504
440.7642, 14.66053
441.2463, 14.73130
441.7284, 14.83339
442.2105, 14.90717
442.6926, 14.93880
443.1747, 14.91201
443.6569, 14.73717
444.1390, 14.60542
444.6211, 14.60258
445.1032, 14.69151
445.5853, 14.76500
446.0674, 14.81778
446.5496, 14.83961
447.0317, 14.81246
447.5138, 14.70296
447.9959, 14.65857
448.4780, 14.73262
448.9601, 14.83507
449.4423, 14.87951
449.9244, 14.85005
450.4065, 14.79310
450.8886, 14.70073
451.3707, 14.58739
451.8528, 14.50796
452.3350, 14.46056
452.8171, 14.45238
453.2992, 14.49421
453.7813, 14.58679
454.2634, 14.69867
454.7455, 14.84387
455.2277, 14.96274
455.7098, 14.96013
456.1919, 14.85170
456.6740, 14.74048
457.1561, 14.63985
457.6382, 14.57558
458.1204, 14.64889
458.6025, 14.83537
459.0846, 14.95290
459.5667, 14.79911
460.0488, 14.53587
460.5309, 14.36871
461.0131, 14.33152
461.4952, 14.37053
461.9773, 14.52277
462.4594, 14.71092
462.9415, 14.82351
463.4236, 14.73460
463.9058, 14.63808
464.3879, 14.62732
464.8700, 14.69428
465.3521, 14.74400
465.8342, 14.71764
466.3163, 14.69398
466.7985, 14.71998
467.2806, 14.84080
467.7627, 14.93417
468.2448, 14.97691
468.7269, 14.99933
469.2090, 15.04951
469.6912, 15.16570
470.1733, 15.23986
470.6554, 15.24031
471.1375, 15.17382
471.6196, 15.10504
472.1017, 15.03476
472.5839, 14.95966
473.0660, 14.86452
473.5481, 14.74931
474.0302, 14.67206
474.5123, 14.63504
474.9944, 14.64325
475.4766, 14.74430
475.9587, 14.91752
476.4408, 15.02718
476.9229, 14.97237
477.4050, 14.84914
477.8871, 14.81542
478.3693, 14.86476
478.8514, 14.93798
479.3335, 15.00453
479.8156, 15.06706
480.2977, 15.13291
480.7798, 15.21087
481.2620, 15.26533
481.7441, 15.25409
482.2262, 15.21047
482.7083, 15.18368
483.1904, 15.22070
483.6725, 15.24700
484.1547, 15.23170
484.6368, 15.17655
485.1189, 15.11589
485.6010, 15.02417
486.0831, 14.95190
486.5652, 14.92908
487.0474, 14.99654
487.5295, 15.02384
488.0116, 14.99197
488.4937, 14.93367
488.9758, 14.89476
489.4579, 14.88149
489.9401, 14.86532
490.4222, 14.82499
490.9043, 14.77811
491.3864, 14.83463
491.8685, 15.01486
492.3506, 15.15904
492.8328, 15.12720
493.3149, 14.95885
493.7970, 14.83347
494.2791, 14.76756
494.7612, 14.72865
495.2433, 14.67976
495.7255, 14.62801
496.2076, 14.59065
496.6897, 14.57328
497.1718, 14.57378
497.6539, 14.58963
498.1360, 14.62151
498.6182, 14.67277
499.1003, 14.78780
499.5824, 14.89348
500.0645, 14.92837
500.5466, 14.87072
501.0287, 14.81450
501.5109, 14.74710
501.9930, 14.71182
502.4751, 14.75311
502.9572, 15.03002
503.4393, 15.19736
503.9214, 15.14216
504.4036, 14.94496
504.8857, 14.89476
505.3678, 15.07180
505.8499, 15.25649
506.3320, 15.35118
506.8141, 15.34655
507.2963, 15.39804
507.7784, 15.52084
508.2605, 15.66159
508.7426, 15.75803
509.2247, 15.81483
509.7068, 15.90535
510.1890, 16.04803
510.6711, 16.22044
511.1532, 16.37927
511.6353, 16.53109
512.1174, 16.70279
512.5995, 16.91654
513.0817, 17.15499
513.5638, 17.39572
514.0459, 17.63882
514.5280, 17.89884
515.0101, 18.21164
515.4922, 18.53321
515.9744, 18.81809
516.4565, 19.04874
516.9386, 19.26329
517.4207, 19.41272
517.9028, 19.56608
518.3849, 19.83646
518.8671, 20.41327
519.3492, 20.92380
519.8313, 21.25590
520.3134, 21.42303
520.7955, 21.67237
521.2776, 22.02514
521.7598, 22.43003
522.2419, 22.86658
522.7240, 23.34949
523.2061, 23.79040
523.6882, 24.17735
524.1703, 24.54832
524.6525, 24.97022
525.1346, 25.43907
525.6167, 25.85993
526.0988, 26.19309
526.5809, 26.47458
527.0630, 26.80611
527.5452, 27.16168
528.0273, 27.40084
528.5094, 27.51064
528.9915, 27.42399
529.4736, 27.00510
529.9557, 26.23275
530.4379, 25.40897
530.9200, 24.70872
531.4021, 24.03972
531.8842, 23.30566
532.3663, 22.43261
532.8484, 21.56625
533.3306, 20.70712
533.8127, 19.88304
534.2948, 19.17660
534.7769, 18.62449
535.2590, 18.14416
535.7411, 17.71755
536.2233, 17.34652
536.7054, 17.05552
537.1875, 16.88218
537.6696, 16.72150
538.1517, 16.49022
538.6339, 16.18117
539.1160, 15.92246
539.5981, 15.71969
540.0802, 15.57567
540.5623, 15.52544
541.0444, 15.54830
541.5266, 15.51933
542.0087, 15.36331
542.4908, 15.17802
542.9729, 15.10645
543.4550, 15.13144
543.9371, 15.18149
544.4193, 15.32068
544.9014, 15.39833
545.3835, 15.21102
545.8656, 14.72322
546.3477, 14.37919
546.8298, 14.46466
547.3120, 14.71032
547.7941, 14.89351
548.2762, 14.91761
548.7583, 14.96304
549.2404, 15.08015
549.7225, 15.21561
550.2047, 15.27495
550.6868, 15.22262
551.1689, 15.16052
551.6510, 15.10424
552.1331, 15.05782
552.6152, 15.05381
553.0974, 15.09713
553.5795, 15.15934
554.0616, 15.25377
554.5437, 15.36215
555.0258, 15.34468
555.5079, 15.17489
555.9901, 15.01530
556.4722, 15.07074
556.9543, 15.25793
557.4364, 15.41289
557.9185, 15.52201
558.4006, 15.52868
558.8828, 15.27037
559.3649, 14.87527
559.8470, 14.63437
560.3291, 14.75834
560.8112, 14.97740
561.2933, 15.24585
561.7755, 15.55898
562.2576, 15.67116
562.7397, 15.34579
563.2218, 14.97267
563.7039, 14.73517
564.1860, 14.66610
564.6682, 14.65619
565.1503, 14.73233
565.6324, 14.83437
566.1145, 14.88646
566.5966, 14.88634
567.0787, 14.85781
567.5609, 14.79067
568.0430, 14.71798
568.5251, 14.72448
569.0072, 14.80139
569.4893, 14.87693
569.9714, 14.90729
570.4536, 14.91558
570.9357, 14.95244
571.4178, 15.01366
571.8999, 15.02583
572.3820, 14.85925
572.8641, 14.66848
573.3463, 14.61133
573.8284, 14.78431
574.3105, 14.90087
574.7926, 14.82181
575.2747, 14.65830
575.7568, 14.55079
576.2390, 14.55809
576.7211, 14.55593
577.2032, 14.52032
577.6853, 14.46608
578.1674, 14.45411
578.6495, 14.50799
579.1317, 14.53267
579.6138, 14.45937
580.0959, 14.31071
580.5780, 14.30466
581.0601, 14.45489
581.5422, 14.59733
582.0244, 14.59280
582.5065, 14.47467
582.9886, 14.29647
583.4707, 14.04076
583.9528, 13.84954
584.4349, 13.90827
584.9171, 14.09825
585.3992, 14.24352
585.8813, 14.28102
586.3634, 14.26309
586.8455, 14.17090
587.3276, 14.03603
587.8098, 13.94862
588.2919, 13.99748
588.7740, 14.02180
589.2561, 13.94906
589.7382, 13.77596
590.2203, 13.70588
590.7025, 13.77887
591.1846, 13.88386
591.6667, 13.93905
592.1488, 13.93723
592.6309, 14.02159
593.1130, 14.22608
593.5952, 14.41089
594.0773, 14.35966
594.5594, 14.13301
595.0415, 13.97164
595.5236, 13.95523
