##NAMES=Terlinguacreekite
##RRUFFID=R060731
##IDEAL CHEMISTRY=Hg^2+^_3_O_2_Cl_2_
##LOCALITY=Mariposa mine, Terlingua, Brewster County, Texas, USA
##OWNER=RRUFF
##SOURCE=Michael Scott
##DESCRIPTION=Dark orange bladed crystals on lighter orange incrustation, both terlinguacreekite, associated with calcite
##STATUS=The identification of this mineral is confirmed by single-crystal X-ray diffraction and chemical analysis.
##URL=rruff.info/R060731
##MEASURED CHEMISTRY=Hg^2+^_3.00_O_2_Cl_2.00_ ; O estimated by difference and stoichiometry
126.5579, 4152.825
127.0400, 4339.320
127.5222, 4485.741
128.0043, 4611.382
128.4864, 4761.000
128.9685, 4940.103
129.4506, 5129.669
129.9327, 5300.160
130.4149, 5453.895
130.8970, 5608.660
131.3791, 5774.747
131.8612, 5950.775
132.3433, 6125.505
132.8254, 6297.080
133.3076, 6464.885
133.7897, 6627.962
134.2718, 6787.948
134.7539, 6936.506
135.2360, 7068.421
135.7181, 7184.419
136.2003, 7283.156
136.6824, 7361.477
137.1645, 7421.571
137.6466, 7473.961
138.1287, 7517.500
138.6108, 7554.777
139.0930, 7588.472
139.5751, 7619.718
140.0572, 7642.830
140.5393, 7652.792
141.0214, 7647.571
141.5035, 7652.262
141.9857, 7666.247
142.4678, 7690.746
142.9499, 7729.578
143.4320, 7793.095
143.9141, 7853.312
144.3962, 7898.803
144.8784, 7915.935
145.3605, 7951.982
145.8426, 8014.848
146.3247, 8096.177
146.8068, 8171.608
147.2889, 8238.012
147.7711, 8301.509
148.2532, 8364.205
148.7353, 8418.644
149.2174, 8482.801
149.6995, 8566.872
150.1816, 8666.761
150.6638, 8747.444
151.1459, 8800.414
151.6280, 8839.165
152.1101, 8871.589
152.5922, 8883.557
153.0743, 8904.435
153.5565, 8942.383
154.0386, 8997.839
154.5207, 9049.149
155.0028, 9088.986
155.4849, 9125.476
155.9670, 9166.722
156.4492, 9199.317
156.9313, 9250.027
157.4134, 9328.699
157.8955, 9437.643
158.3776, 9563.076
158.8597, 9712.592
159.3419, 9874.767
159.8240, 10031.49
160.3061, 10161.44
160.7882, 10297.83
161.2703, 10457.68
161.7524, 10649.51
162.2346, 10850.60
162.7167, 11095.91
163.1988, 11346.83
163.6809, 11516.04
164.1630, 11628.39
164.6451, 11612.26
165.1273, 11394.54
165.6094, 10873.92
166.0915, 10301.47
166.5736, 9789.336
167.0557, 9341.623
167.5379, 8953.045
168.0200, 8626.001
168.5021, 8359.420
168.9842, 8156.291
169.4663, 8038.146
169.9484, 7962.300
170.4306, 7906.510
170.9127, 7869.151
171.3948, 7832.230
171.8769, 7786.365
172.3590, 7732.902
172.8411, 7673.611
173.3233, 7597.211
173.8054, 7522.642
174.2875, 7471.318
174.7696, 7443.271
175.2517, 7428.264
175.7338, 7425.644
176.2160, 7429.736
176.6981, 7428.049
177.1802, 7409.302
177.6623, 7383.356
178.1444, 7367.112
178.6265, 7362.449
179.1087, 7358.068
179.5908, 7337.709
180.0729, 7306.139
180.5550, 7280.128
181.0371, 7271.728
181.5192, 7274.947
182.0014, 7276.938
182.4835, 7276.816
182.9656, 7275.336
183.4477, 7273.924
183.9298, 7272.358
184.4119, 7268.909
184.8941, 7260.734
185.3762, 7249.456
185.8583, 7241.325
186.3404, 7237.500
186.8225, 7236.071
187.3046, 7233.274
187.7868, 7229.167
188.2689, 7226.281
188.7510, 7229.319
189.2331, 7236.580
189.7152, 7235.963
190.1973, 7222.008
190.6795, 7202.456
191.1616, 7199.262
191.6437, 7214.363
192.1258, 7227.080
192.6079, 7215.379
193.0900, 7180.652
193.5722, 7155.208
194.0543, 7148.207
194.5364, 7154.370
195.0185, 7151.793
195.5006, 7137.585
195.9827, 7128.074
196.4649, 7145.779
196.9470, 7192.705
197.4291, 7225.385
197.9112, 7227.358
198.3933, 7204.318
198.8754, 7197.265
199.3576, 7210.059
199.8397, 7227.866
200.3218, 7232.508
200.8039, 7221.998
201.2860, 7212.625
201.7681, 7210.286
202.2503, 7214.642
202.7324, 7213.942
203.2145, 7206.557
203.6966, 7197.114
204.1787, 7190.698
204.6608, 7186.749
205.1430, 7188.774
205.6251, 7201.222
206.1072, 7225.667
206.5893, 7239.018
207.0714, 7238.764
207.5535, 7230.530
208.0357, 7222.542
208.5178, 7214.313
208.9999, 7208.041
209.4820, 7204.818
209.9641, 7205.128
210.4462, 7204.989
210.9284, 7201.855
211.4105, 7200.387
211.8926, 7212.433
212.3747, 7245.019
212.8568, 7274.375
213.3389, 7288.941
213.8211, 7283.672
214.3032, 7281.736
214.7853, 7284.385
215.2674, 7289.954
215.7495, 7293.580
216.2316, 7293.160
216.7138, 7295.047
217.1959, 7302.185
217.6780, 7315.077
218.1601, 7332.832
218.6422, 7359.635
219.1243, 7390.166
219.6065, 7405.873
220.0886, 7399.615
220.5707, 7390.184
221.0528, 7387.600
221.5349, 7393.029
222.0170, 7402.854
222.4992, 7420.960
222.9813, 7443.266
223.4634, 7450.671
223.9455, 7428.419
224.4276, 7412.432
224.9097, 7429.443
225.3919, 7504.385
225.8740, 7553.592
226.3561, 7563.484
226.8382, 7540.706
227.3203, 7523.764
227.8024, 7516.396
228.2846, 7510.223
228.7667, 7499.827
229.2488, 7485.041
229.7309, 7466.067
230.2130, 7437.829
230.6951, 7403.396
231.1773, 7388.208
231.6594, 7402.369
232.1415, 7424.072
232.6236, 7438.063
233.1057, 7442.096
233.5878, 7442.499
234.0700, 7436.963
234.5521, 7426.632
235.0342, 7428.162
235.5163, 7455.173
235.9984, 7479.059
236.4805, 7472.603
236.9627, 7407.570
237.4448, 7369.519
237.9269, 7381.405
238.4090, 7440.830
238.8911, 7476.328
239.3732, 7475.978
239.8554, 7464.298
240.3375, 7461.325
240.8196, 7468.387
241.3017, 7481.877
241.7838, 7503.265
242.2659, 7532.435
242.7481, 7558.933
243.2302, 7578.814
243.7123, 7600.027
244.1944, 7630.439
244.6765, 7675.467
245.1586, 7719.966
245.6408, 7761.635
246.1229, 7800.659
246.6050, 7836.918
247.0871, 7867.897
247.5692, 7898.725
248.0513, 7934.724
248.5335, 7979.334
249.0156, 8022.356
249.4977, 8059.618
249.9798, 8091.185
250.4619, 8131.029
250.9440, 8182.602
251.4262, 8239.025
251.9083, 8292.935
252.3904, 8340.315
252.8725, 8394.190
253.3546, 8459.344
253.8367, 8536.371
254.3189, 8607.450
254.8010, 8672.044
255.2831, 8730.358
255.7652, 8779.495
256.2473, 8808.827
256.7295, 8852.624
257.2116, 8922.740
257.6937, 9019.213
258.1758, 9103.367
258.6579, 9170.627
259.1400, 9231.199
259.6222, 9296.149
260.1043, 9365.311
260.5864, 9437.538
261.0685, 9512.866
261.5506, 9590.020
262.0327, 9673.983
262.5149, 9769.386
262.9970, 9864.117
263.4791, 9941.491
263.9612, 9994.033
264.4433, 10053.12
264.9254, 10130.06
265.4076, 10223.12
265.8897, 10301.81
266.3718, 10359.28
266.8539, 10414.71
267.3360, 10492.03
267.8181, 10598.52
268.3003, 10697.96
268.7824, 10777.63
269.2645, 10839.59
269.7466, 10918.65
270.2287, 11020.80
270.7108, 11127.76
271.1930, 11219.84
271.6751, 11291.33
272.1572, 11372.58
272.6393, 11473.68
273.1214, 11593.00
273.6035, 11700.50
274.0857, 11795.04
274.5678, 11882.12
275.0499, 11962.76
275.5320, 12033.21
276.0141, 12122.47
276.4962, 12245.34
276.9784, 12393.91
277.4605, 12510.39
277.9426, 12587.10
278.4247, 12660.56
278.9068, 12769.69
279.3889, 12917.56
279.8711, 13052.03
280.3532, 13154.19
280.8353, 13235.69
281.3174, 13352.61
281.7995, 13510.36
282.2816, 13670.46
282.7638, 13793.09
283.2459, 13879.00
283.7280, 13973.98
284.2101, 14088.16
284.6922, 14217.74
285.1743, 14351.54
285.6565, 14488.15
286.1386, 14631.13
286.6207, 14788.40
287.1028, 14957.81
287.5849, 15118.25
288.0670, 15262.69
288.5492, 15396.24
289.0313, 15523.10
289.5134, 15641.79
289.9955, 15772.51
290.4776, 15941.60
290.9597, 16138.72
291.4419, 16323.22
291.9240, 16487.69
292.4061, 16635.70
292.8882, 16768.34
293.3703, 16885.89
293.8524, 17004.78
294.3346, 17139.78
294.8167, 17285.70
295.2988, 17432.37
295.7809, 17580.65
296.2630, 17724.69
296.7451, 17860.74
297.2273, 17987.85
297.7094, 18103.40
298.1915, 18200.47
298.6736, 18286.56
299.1557, 18375.04
299.6378, 18468.70
300.1200, 18565.50
300.6021, 18685.12
301.0842, 18814.24
301.5663, 18901.59
302.0484, 18878.02
302.5305, 18806.24
303.0127, 18781.55
303.4948, 18826.47
303.9769, 18883.53
304.4590, 18908.84
304.9411, 18904.46
305.4232, 18876.81
305.9054, 18813.84
306.3875, 18736.71
306.8696, 18670.06
307.3517, 18619.21
307.8338, 18566.00
308.3159, 18504.99
308.7981, 18431.95
309.2802, 18338.70
309.7623, 18210.70
310.2444, 18068.48
310.7265, 17923.01
311.2086, 17775.04
311.6908, 17631.65
312.1729, 17501.54
312.6550, 17377.23
313.1371, 17249.60
313.6192, 17119.98
314.1013, 16984.08
314.5835, 16837.19
315.0656, 16679.32
315.5477, 16517.20
316.0298, 16334.44
316.5119, 16155.69
316.9940, 16007.37
317.4762, 15938.63
317.9583, 15866.25
318.4404, 15756.24
318.9225, 15607.95
319.4046, 15458.22
319.8867, 15310.58
320.3689, 15169.70
320.8510, 15039.45
321.3331, 14941.36
321.8152, 14832.55
322.2973, 14692.65
322.7794, 14525.47
323.2616, 14374.86
323.7437, 14264.11
324.2258, 14161.82
324.7079, 14048.46
325.1900, 13920.78
325.6721, 13783.31
326.1543, 13631.20
326.6364, 13467.92
327.1185, 13305.71
327.6006, 13147.30
328.0827, 12987.73
328.5648, 12824.77
329.0470, 12657.83
329.5291, 12487.44
330.0112, 12316.76
330.4933, 12142.59
330.9754, 11957.17
331.4576, 11752.55
331.9397, 11546.31
332.4218, 11341.67
332.9039, 11131.64
333.3860, 10941.01
333.8681, 10781.68
334.3503, 10638.23
334.8324, 10484.61
335.3145, 10322.23
335.7966, 10149.81
336.2787, 9961.430
336.7608, 9753.990
337.2430, 9564.984
337.7251, 9402.435
338.2072, 9252.751
338.6893, 9100.928
339.1714, 8949.144
339.6535, 8789.999
340.1357, 8616.383
340.6178, 8429.642
341.0999, 8274.289
341.5820, 8155.698
342.0641, 8046.220
342.5462, 7906.760
343.0284, 7738.593
343.5105, 7585.466
343.9926, 7465.398
344.4747, 7367.070
344.9568, 7255.844
345.4389, 7130.580
345.9211, 7007.531
346.4032, 6903.394
346.8853, 6813.913
347.3674, 6723.092
347.8495, 6625.474
348.3316, 6527.527
348.8138, 6443.855
349.2959, 6373.106
349.7780, 6306.091
350.2601, 6228.338
350.7422, 6149.735
351.2243, 6093.603
351.7065, 6070.354
352.1886, 6051.152
352.6707, 5998.809
353.1528, 5922.039
353.6349, 5850.669
354.1170, 5807.891
354.5992, 5774.362
355.0813, 5723.505
355.5634, 5647.986
356.0455, 5581.775
356.5276, 5561.323
357.0097, 5565.910
357.4919, 5559.919
357.9740, 5517.607
358.4561, 5467.576
358.9382, 5427.703
359.4203, 5399.261
359.9024, 5373.976
360.3846, 5349.999
360.8667, 5326.392
361.3488, 5302.062
361.8309, 5272.717
362.3130, 5246.750
362.7951, 5230.375
363.2773, 5222.408
363.7594, 5209.055
364.2415, 5182.243
364.7236, 5151.791
365.2057, 5124.011
365.6878, 5098.245
366.1700, 5077.431
366.6521, 5066.914
367.1342, 5063.044
367.6163, 5050.842
368.0984, 5015.679
368.5805, 4983.994
369.0627, 4966.841
369.5448, 4973.305
370.0269, 4977.144
370.5090, 4979.543
370.9911, 4978.905
371.4732, 4970.896
371.9554, 4948.487
372.4375, 4930.714
372.9196, 4926.187
373.4017, 4938.492
373.8838, 4939.854
374.3659, 4927.106
374.8481, 4907.772
375.3302, 4890.264
375.8123, 4874.036
376.2944, 4861.519
376.7765, 4854.215
377.2586, 4851.300
377.7408, 4846.973
378.2229, 4841.090
378.7050, 4834.169
379.1871, 4827.715
379.6692, 4821.551
380.1513, 4808.945
380.6335, 4784.608
381.1156, 4757.945
381.5977, 4753.117
382.0798, 4769.336
382.5619, 4787.094
383.0440, 4795.843
383.5262, 4796.274
384.0083, 4787.455
384.4904, 4765.831
384.9725, 4746.349
385.4546, 4752.255
385.9367, 4776.277
386.4189, 4795.680
386.9010, 4794.025
387.3831, 4784.059
387.8652, 4779.776
388.3473, 4782.007
388.8294, 4789.014
389.3116, 4812.520
389.7937, 4836.773
390.2758, 4840.232
390.7579, 4786.709
391.2400, 4733.253
391.7221, 4716.011
392.2043, 4731.671
392.6864, 4749.415
393.1685, 4755.250
393.6506, 4758.219
394.1327, 4765.513
394.6148, 4784.359
395.0970, 4800.074
395.5791, 4808.162
396.0612, 4810.413
396.5433, 4811.761
397.0254, 4813.893
397.5075, 4814.585
397.9897, 4813.364
398.4718, 4811.682
398.9539, 4804.360
399.4360, 4782.144
399.9181, 4757.799
400.4002, 4749.941
400.8824, 4768.083
401.3645, 4788.844
401.8466, 4807.244
402.3287, 4823.322
402.8108, 4839.148
403.2929, 4857.436
403.7751, 4871.164
404.2572, 4870.736
404.7393, 4850.825
405.2214, 4841.010
405.7035, 4848.653
406.1856, 4868.362
406.6678, 4881.095
407.1499, 4885.700
407.6320, 4891.695
408.1141, 4906.648
408.5962, 4929.597
409.0783, 4951.107
409.5605, 4971.024
410.0426, 4987.401
410.5247, 4994.188
411.0068, 4993.221
411.4889, 4995.226
411.9710, 5009.095
412.4532, 5028.225
412.9353, 5040.046
413.4174, 5044.044
413.8995, 5047.243
414.3816, 5057.616
414.8637, 5070.838
415.3459, 5079.943
415.8280, 5081.267
416.3101, 5079.020
416.7922, 5070.281
417.2743, 5058.540
417.7564, 5059.011
418.2386, 5095.564
418.7207, 5137.776
419.2028, 5160.484
419.6849, 5149.348
420.1670, 5140.885
420.6491, 5151.204
421.1313, 5171.907
421.6134, 5187.717
422.0955, 5197.605
422.5776, 5199.882
423.0597, 5190.941
423.5418, 5167.148
424.0240, 5150.749
424.5061, 5145.407
424.9882, 5146.272
425.4703, 5149.747
425.9524, 5159.495
426.4345, 5165.610
426.9167, 5164.455
427.3988, 5158.081
427.8809, 5158.685
428.3630, 5167.653
428.8451, 5180.872
429.3272, 5198.576
429.8094, 5223.264
430.2915, 5234.085
430.7736, 5225.054
431.2557, 5209.862
431.7378, 5216.548
432.2199, 5246.080
432.7021, 5269.925
433.1842, 5270.219
433.6663, 5255.153
434.1484, 5256.461
434.6305, 5274.769
435.1126, 5299.133
435.5948, 5322.010
436.0769, 5342.687
436.5590, 5359.375
437.0411, 5371.539
437.5232, 5379.306
438.0053, 5376.053
438.4875, 5366.154
438.9696, 5367.233
439.4517, 5401.982
439.9338, 5445.946
440.4159, 5474.963
440.8980, 5481.652
441.3802, 5487.647
441.8623, 5506.332
442.3444, 5530.647
442.8265, 5550.524
443.3086, 5562.760
443.7907, 5570.085
444.2729, 5568.113
444.7550, 5556.774
445.2371, 5558.986
445.7192, 5594.296
446.2013, 5633.704
446.6834, 5658.026
447.1656, 5650.617
447.6477, 5651.233
448.1298, 5662.013
448.6119, 5681.714
449.0940, 5707.597
449.5761, 5745.530
450.0583, 5779.053
450.5404, 5799.113
451.0225, 5803.719
451.5046, 5817.205
451.9867, 5841.162
452.4688, 5870.304
452.9510, 5899.380
453.4331, 5927.919
453.9152, 5956.206
454.3973, 5985.038
454.8794, 6012.845
455.3615, 6034.591
455.8437, 6050.537
456.3258, 6062.941
456.8079, 6064.345
457.2900, 6064.685
457.7721, 6088.674
458.2542, 6143.722
458.7364, 6205.349
459.2185, 6252.031
459.7006, 6287.002
460.1827, 6315.881
460.6648, 6340.249
461.1469, 6360.605
461.6291, 6374.436
462.1112, 6382.431
462.5933, 6395.863
463.0754, 6420.094
463.5575, 6451.712
464.0396, 6488.233
464.5218, 6537.061
465.0039, 6580.167
465.4860, 6611.509
465.9681, 6634.588
466.4502, 6658.353
466.9323, 6685.256
467.4145, 6711.320
467.8966, 6734.564
468.3787, 6753.676
468.8608, 6777.448
469.3429, 6808.278
469.8250, 6841.072
470.3072, 6870.263
470.7893, 6894.488
471.2714, 6920.730
471.7535, 6951.140
472.2356, 6983.982
472.7177, 7011.696
473.1999, 7033.493
473.6820, 7055.708
474.1641, 7084.002
474.6462, 7116.414
475.1284, 7144.282
475.6105, 7167.072
476.0926, 7185.424
476.5747, 7191.453
477.0568, 7192.847
477.5389, 7210.022
478.0211, 7270.695
478.5032, 7335.420
478.9853, 7357.961
479.4674, 7344.427
479.9495, 7333.652
480.4316, 7353.782
480.9138, 7382.511
481.3959, 7400.793
481.8780, 7399.417
482.3601, 7401.838
482.8422, 7422.347
483.3243, 7450.212
483.8065, 7468.948
484.2886, 7468.211
484.7707, 7465.448
485.2528, 7463.993
485.7349, 7463.862
486.2170, 7466.557
486.6992, 7473.013
487.1813, 7481.308
487.6634, 7491.430
488.1455, 7506.688
488.6276, 7512.875
489.1097, 7505.087
489.5919, 7491.941
490.0740, 7492.883
490.5561, 7509.720
491.0382, 7524.588
491.5203, 7528.323
492.0024, 7523.908
492.4846, 7524.542
492.9667, 7530.348
493.4488, 7538.613
493.9309, 7551.162
494.4130, 7564.154
494.8951, 7566.324
495.3773, 7550.250
495.8594, 7533.193
496.3415, 7533.646
496.8236, 7547.006
497.3057, 7561.537
497.7878, 7570.595
498.2700, 7579.732
498.7521, 7595.034
499.2342, 7617.378
499.7163, 7633.867
500.1984, 7627.606
500.6805, 7619.834
501.1627, 7627.688
501.6448, 7684.972
502.1269, 7720.607
502.6090, 7710.967
503.0911, 7675.430
503.5732, 7665.517
504.0554, 7693.554
504.5375, 7728.588
505.0196, 7760.733
505.5017, 7789.653
505.9838, 7821.134
506.4659, 7857.626
506.9481, 7890.905
507.4302, 7905.748
507.9123, 7902.109
508.3944, 7918.966
508.8765, 7970.488
509.3586, 8034.878
509.8408, 8064.708
510.3229, 8065.869
510.8050, 8081.302
511.2871, 8154.443
511.7692, 8249.530
512.2513, 8306.156
512.7335, 8321.019
513.2156, 8339.528
513.6977, 8398.688
514.1798, 8477.759
514.6619, 8552.881
515.1440, 8614.847
515.6262, 8675.027
516.1083, 8734.341
516.5904, 8794.744
517.0725, 8860.692
517.5546, 8932.720
518.0367, 9011.165
518.5189, 9096.876
519.0010, 9191.434
519.4831, 9285.295
519.9652, 9374.939
520.4473, 9466.258
520.9294, 9567.597
521.4116, 9686.170
521.8937, 9783.767
522.3758, 9845.734
522.8579, 9893.440
523.3400, 9982.899
523.8221, 10116.26
524.3043, 10251.97
524.7864, 10363.51
525.2685, 10462.17
525.7506, 10596.24
526.2327, 10767.46
526.7148, 10935.82
527.1970, 11061.39
527.6791, 11163.53
528.1612, 11275.44
528.6433, 11407.17
529.1254, 11547.75
529.6075, 11688.24
530.0897, 11831.37
530.5718, 11979.20
531.0539, 12135.84
531.5360, 12296.62
532.0181, 12462.31
532.5002, 12632.57
532.9824, 12797.55
533.4645, 12941.55
533.9466, 13088.95
534.4287, 13251.53
534.9108, 13429.87
535.3929, 13628.08
535.8751, 13859.19
536.3572, 14100.78
536.8393, 14307.92
537.3214, 14474.17
537.8035, 14642.19
538.2856, 14825.54
538.7678, 15022.63
539.2499, 15235.78
539.7320, 15465.93
540.2141, 15689.55
540.6962, 15878.78
541.1783, 16048.15
541.6605, 16236.12
542.1426, 16449.33
542.6247, 16669.73
543.1068, 16886.76
543.5889, 17098.45
544.0710, 17301.43
544.5532, 17482.98
545.0353, 17666.00
545.5174, 17862.50
545.9995, 18072.01
546.4816, 18282.20
546.9637, 18514.23
547.4459, 18726.23
547.9280, 18891.38
548.4101, 18980.24
548.8922, 19107.81
549.3743, 19297.12
549.8564, 19505.87
550.3386, 19688.26
550.8207, 19834.79
551.3028, 19988.77
551.7849, 20162.80
552.2670, 20342.53
552.7491, 20480.83
553.2313, 20576.21
553.7134, 20670.79
554.1955, 20792.44
554.6776, 20930.08
555.1597, 21050.18
555.6418, 21150.85
556.1240, 21252.30
556.6061, 21392.72
557.0882, 21538.26
557.5703, 21633.00
558.0524, 21639.79
558.5345, 21643.83
559.0167, 21702.18
559.4988, 21791.58
559.9809, 21867.23
560.4630, 21942.74
560.9451, 21977.10
561.4272, 21936.56
561.9094, 21819.15
562.3915, 21737.52
562.8736, 21711.94
563.3557, 21700.82
563.8378, 21687.92
564.3199, 21684.95
564.8021, 21634.30
565.2842, 21524.37
565.7663, 21386.29
566.2484, 21272.25
566.7305, 21180.43
567.2126, 21056.91
567.6948, 20877.61
568.1769, 20668.28
568.6590, 20482.41
569.1411, 20314.26
569.6232, 20141.29
570.1053, 19948.53
570.5875, 19741.97
571.0696, 19531.20
571.5517, 19318.58
572.0338, 19082.36
572.5159, 18782.54
572.9980, 18469.94
573.4802, 18195.20
573.9623, 18022.42
574.4444, 17816.93
574.9265, 17545.23
575.4086, 17230.72
575.8907, 16927.07
576.3729, 16646.32
576.8550, 16356.28
577.3371, 16043.77
577.8192, 15714.47
578.3013, 15411.47
578.7834, 15142.13
579.2656, 14887.18
579.7477, 14643.46
580.2298, 14405.26
580.7119, 14146.60
581.1940, 13862.91
581.6761, 13573.67
582.1583, 13293.95
582.6404, 13025.19
583.1225, 12770.64
583.6046, 12533.22
584.0867, 12307.99
584.5688, 12096.95
585.0510, 11895.82
585.5331, 11692.57
586.0152, 11471.29
586.4973, 11257.05
586.9794, 11061.40
587.4615, 10886.38
587.9437, 10719.10
588.4258, 10559.32
588.9079, 10406.42
589.3900, 10258.88
589.8721, 10113.08
590.3542, 9985.625
590.8364, 9885.016
591.3185, 9792.712
591.8006, 9677.734
592.2827, 9540.241
592.7648, 9413.060
593.2469, 9307.106
593.7291, 9216.023
594.2112, 9130.413
594.6933, 9050.059
595.1754, 8975.574
595.6575, 8910.597
596.1396, 8850.564
596.6218, 8790.711
597.1039, 8730.467
597.5860, 8674.368
598.0681, 8636.852
598.5502, 8598.592
599.0323, 8543.746
599.5145, 8451.105
599.9966, 8367.899
600.4787, 8291.324
600.9608, 8227.283
601.4429, 8188.947
601.9250, 8188.121
602.4072, 8184.908
602.8893, 8172.357
603.3714, 8149.680
603.8535, 8106.750
604.3356, 8041.020
604.8177, 7986.731
605.2999, 7979.037
605.7820, 7998.583
606.2641, 7987.248
606.7462, 7941.172
607.2283, 7895.493
607.7104, 7887.565
608.1926, 7894.097
608.6747, 7882.242
609.1568, 7829.025
609.6389, 7785.803
610.1210, 7794.054
610.6031, 7824.209
611.0853, 7827.892
611.5674, 7763.883
612.0495, 7708.812
612.5316, 7679.610
613.0137, 7672.725
613.4958, 7666.690
613.9780, 7661.381
614.4601, 7657.426
614.9422, 7657.615
615.4243, 7661.640
615.9064, 7651.582
616.3885, 7624.570
616.8707, 7601.155
617.3528, 7609.798
617.8349, 7637.347
618.3170, 7649.434
618.7991, 7636.027
619.2813, 7615.423
619.7634, 7598.725
