##NAMES=Terrywallaceite
##RRUFFID=R100007
##IDEAL CHEMISTRY=Ag^1+^Pb^2+^(Sb^3+^,Bi^3+^)_3_S^2-^_6_
##LOCALITY=Level 390, Vein 14, Mina Herminia, Julcani District, Huancavelica, Peru
##OWNER=RRUFF
##SOURCE=William Pinch
##DESCRIPTION=Lath-shaped black crystals with striations parallel to the c-axis. Associated with barite, quartz, pyrite, gustavite, and tetrahedrite.
##STATUS=The identification of this mineral is confirmed by single-crystal X-ray diffraction and chemical analysis.
##URL=rruff.info/R100007
##MEASURED CHEMISTRY=Ag_1.02_Pb_0.87_Sb_1.53_Bi_1.47_(S_5.94_As_0.06_)_Î£=6.00_
89.60352, 7.013359
90.08563, 6.996219
90.56775, 6.999394
91.04987, 7.065904
91.53198, 7.112751
92.01410, 7.004035
92.49622, 6.746881
92.97833, 6.476278
93.46045, 6.363264
93.94257, 6.351035
94.42468, 6.242497
94.90680, 5.869088
95.38892, 5.347775
95.87103, 5.044148
96.35315, 4.982609
96.83527, 5.050917
97.31738, 5.169207
97.79950, 5.342483
98.28162, 5.395904
98.76373, 5.138988
99.24585, 4.555158
99.72797, 4.291493
100.2101, 4.435050
100.6922, 4.836092
101.1743, 5.172494
101.6564, 5.460480
102.1385, 5.647815
102.6207, 5.691978
103.1028, 5.555268
103.5849, 5.383401
104.0670, 5.150190
104.5491, 4.878764
105.0313, 4.761566
105.5134, 4.908188
105.9955, 5.094362
106.4776, 5.154459
106.9597, 5.088275
107.4418, 4.890184
107.9240, 4.459776
108.4061, 3.726425
108.8882, 3.312643
109.3703, 3.497277
109.8524, 3.896915
110.3345, 4.105409
110.8167, 3.882981
111.2988, 3.682526
111.7809, 3.618072
112.2630, 3.733111
112.7451, 3.874107
113.2272, 4.153743
113.7094, 4.431639
114.1915, 4.478068
114.6736, 3.724180
115.1557, 3.090600
115.6378, 3.091765
116.1199, 4.260820
116.6021, 5.288202
117.0842, 5.756871
117.5663, 5.738534
118.0484, 5.448684
118.5305, 4.705318
119.0126, 3.858509
119.4948, 3.193709
119.9769, 2.751801
120.4590, 2.550523
120.9411, 2.632937
121.4232, 2.985749
121.9053, 3.517963
122.3875, 4.385927
122.8696, 5.356537
123.3517, 6.106129
123.8338, 6.370337
124.3159, 6.427431
124.7980, 6.523365
125.2802, 6.657700
125.7623, 6.881131
126.2444, 7.300815
126.7265, 7.855998
127.2086, 8.384731
127.6907, 8.753488
128.1729, 9.052409
128.6550, 9.442800
129.1371, 9.926542
129.6192, 10.53341
130.1013, 11.42910
130.5834, 12.56127
131.0656, 13.57417
131.5477, 14.01683
132.0298, 14.07569
132.5119, 14.73440
132.9940, 16.19712
133.4761, 18.13713
133.9583, 20.14079
134.4404, 22.24238
134.9225, 24.03041
135.4046, 25.00004
135.8867, 25.13503
136.3688, 25.60383
136.8510, 26.72062
137.3331, 28.23638
137.8152, 29.23702
138.2973, 29.60830
138.7794, 29.78363
139.2615, 29.97174
139.7437, 30.01351
140.2258, 30.77910
140.7079, 32.69302
141.1900, 35.67782
141.6721, 38.03374
142.1542, 39.54424
142.6364, 40.69960
143.1185, 41.96342
143.6006, 43.21434
144.0827, 44.80569
144.5648, 46.89921
145.0469, 49.65532
145.5291, 52.13773
146.0112, 54.28995
146.4933, 56.23077
146.9754, 58.16515
147.4575, 60.05975
147.9396, 61.96309
148.4218, 63.94640
148.9039, 66.14401
149.3860, 68.05920
149.8681, 69.51881
150.3502, 70.68773
150.8323, 71.90030
151.3145, 73.22514
151.7966, 74.52262
152.2787, 75.78093
152.7608, 77.17735
153.2429, 78.23985
153.7250, 78.62039
154.2072, 78.60201
154.6893, 78.97810
155.1714, 79.67747
155.6535, 80.25384
156.1356, 81.03867
156.6177, 82.34089
157.0999, 83.54926
157.5820, 84.59240
158.0641, 85.47257
158.5462, 86.18105
159.0283, 86.43696
159.5104, 86.68946
159.9926, 87.23042
160.4747, 88.10990
160.9568, 89.28970
161.4389, 91.05650
161.9210, 93.26999
162.4031, 95.03629
162.8853, 95.69459
163.3674, 95.86600
163.8495, 96.11876
164.3316, 96.72899
164.8137, 97.38181
165.2958, 97.89513
165.7780, 98.27151
166.2601, 98.68372
166.7422, 99.14760
167.2243, 99.72295
167.7064, 100.4780
168.1885, 101.7817
168.6707, 103.0447
169.1528, 103.7647
169.6349, 103.8960
170.1170, 103.9801
170.5991, 104.3647
171.0812, 104.9619
171.5634, 105.6119
172.0455, 106.4853
172.5276, 107.2611
173.0097, 107.4976
173.4918, 107.0824
173.9739, 106.6766
174.4561, 106.7944
174.9382, 107.3448
175.4203, 108.1170
175.9024, 109.2729
176.3845, 110.4895
176.8666, 111.2443
177.3488, 111.4002
177.8309, 111.4316
178.3130, 111.9791
178.7951, 112.8911
179.2772, 113.5817
179.7593, 113.4338
180.2415, 112.8770
180.7236, 112.7812
181.2057, 113.3352
181.6878, 114.1652
182.1699, 114.9287
182.6520, 115.5891
183.1342, 115.9893
183.6163, 115.8028
184.0984, 115.2463
184.5805, 114.9568
185.0626, 115.0471
185.5447, 115.4023
186.0269, 115.8705
186.5090, 116.4474
186.9911, 117.0929
187.4732, 117.9692
187.9553, 118.9621
188.4374, 119.4324
188.9196, 119.1413
189.4017, 118.4257
189.8838, 117.9656
190.3659, 117.7588
190.8480, 117.7519
191.3301, 118.0652
191.8123, 118.6454
192.2944, 118.8622
192.7765, 118.4327
193.2586, 117.6624
193.7407, 117.5141
194.2228, 118.0440
194.7050, 118.7820
195.1871, 119.3188
195.6692, 119.6576
196.1513, 120.1458
196.6334, 121.0243
197.1155, 122.0633
197.5977, 122.1693
198.0798, 121.1217
198.5619, 120.0139
199.0440, 120.0096
199.5261, 121.1844
200.0082, 122.2449
200.4904, 122.9827
200.9725, 123.3768
201.4546, 123.1742
201.9367, 122.1818
202.4188, 121.1321
202.9009, 120.8609
203.3831, 121.4889
203.8652, 122.0232
204.3473, 122.1761
204.8294, 121.9934
205.3115, 122.0210
205.7936, 122.3213
206.2758, 122.6990
206.7579, 123.0251
207.2400, 123.3704
207.7221, 123.3146
208.2042, 122.5359
208.6863, 121.0625
209.1685, 120.4959
209.6506, 121.2168
210.1327, 122.1862
210.6148, 122.0709
211.0969, 120.4767
211.5790, 119.1541
212.0612, 118.5811
212.5433, 118.7738
213.0254, 119.1437
213.5075, 119.8610
213.9896, 120.5258
214.4717, 120.5051
214.9538, 119.3911
215.4360, 118.7376
215.9181, 119.2311
216.4002, 121.0122
216.8823, 121.5696
217.3644, 120.3884
217.8465, 118.5650
218.3287, 117.4409
218.8108, 117.2048
219.2929, 117.2469
219.7750, 117.5262
220.2571, 118.1201
220.7392, 118.2105
221.2214, 117.5664
221.7035, 116.6552
222.1856, 116.0578
222.6677, 115.8614
223.1498, 115.8125
223.6319, 115.8972
224.1141, 116.1557
224.5962, 116.2434
225.0783, 116.1452
225.5604, 115.8892
226.0425, 115.4770
226.5246, 114.7948
227.0068, 114.1813
227.4889, 113.7451
227.9710, 113.5001
228.4531, 113.3043
228.9352, 113.2099
229.4173, 113.1203
229.8995, 112.9155
230.3816, 112.5909
230.8637, 112.1429
231.3458, 111.4876
231.8279, 110.5161
232.3100, 110.0123
232.7922, 110.2176
233.2743, 110.6931
233.7564, 110.8766
234.2385, 110.6654
234.7206, 110.3365
235.2027, 109.9161
235.6849, 109.3650
236.1670, 108.9845
236.6491, 108.8179
237.1312, 108.7871
237.6133, 108.8098
238.0954, 108.9563
238.5776, 109.0421
239.0597, 109.0945
239.5418, 109.1797
240.0239, 108.7070
240.5060, 107.2687
240.9881, 105.6081
241.4703, 104.6803
241.9524, 104.8234
242.4345, 105.0964
242.9166, 105.3507
243.3987, 105.6314
243.8808, 105.5098
244.3630, 104.7134
244.8451, 103.7519
245.3272, 103.2733
245.8093, 103.6147
246.2914, 103.8195
246.7735, 103.6202
247.2557, 102.9631
247.7378, 102.4432
248.2199, 102.1177
248.7020, 101.8668
249.1841, 101.5736
249.6662, 101.2764
250.1484, 100.8483
250.6305, 100.1792
251.1126, 99.24525
251.5947, 98.59688
252.0768, 98.30511
252.5589, 98.22726
253.0411, 98.25281
253.5232, 98.48338
254.0053, 98.58744
254.4874, 98.43575
254.9695, 98.02036
255.4516, 97.88554
255.9338, 98.34875
256.4159, 98.70429
256.8980, 98.11414
257.3801, 95.95032
257.8622, 94.37125
258.3444, 93.91724
258.8265, 94.53836
259.3086, 95.08138
259.7907, 95.63856
260.2728, 95.97412
260.7549, 95.72878
261.2371, 94.48960
261.7192, 93.86762
262.2013, 94.42244
262.6834, 95.97844
263.1655, 96.63475
263.6476, 96.17060
264.1298, 95.18726
264.6119, 93.98414
265.0940, 92.32734
265.5761, 91.32028
266.0582, 91.38798
266.5403, 92.27115
267.0225, 92.39066
267.5046, 91.43997
267.9867, 90.36103
268.4688, 89.90662
268.9509, 90.26161
269.4330, 90.42429
269.9152, 90.23415
270.3973, 89.77238
270.8794, 89.35593
271.3615, 88.98417
271.8436, 88.66045
272.3257, 88.41599
272.8079, 88.26949
273.2900, 88.06918
273.7721, 87.77862
274.2542, 87.43873
274.7363, 87.14457
275.2184, 86.88337
275.7006, 86.72262
276.1827, 86.82513
276.6648, 87.24490
277.1469, 87.22076
277.6290, 86.56609
278.1111, 85.59218
278.5933, 85.02882
279.0754, 84.93611
279.5575, 84.86391
280.0396, 84.49806
280.5217, 83.83817
281.0038, 83.43795
281.4860, 83.39567
281.9681, 83.48497
282.4502, 83.25284
282.9323, 82.67211
283.4144, 82.14975
283.8965, 81.94332
284.3787, 82.02024
284.8608, 81.95210
285.3429, 81.70070
285.8250, 81.39111
286.3071, 81.26698
286.7892, 81.32197
287.2714, 81.22927
287.7535, 80.73845
288.2356, 79.93859
288.7177, 79.38427
289.1998, 79.09800
289.6819, 78.90249
290.1641, 78.57024
290.6462, 78.12283
291.1283, 77.73183
291.6104, 77.51173
292.0925, 77.39040
292.5746, 77.17878
293.0568, 76.87608
293.5389, 76.48638
294.0210, 75.91601
294.5031, 75.23413
294.9852, 74.73528
295.4673, 74.61777
295.9495, 74.68357
296.4316, 74.60123
296.9137, 74.37100
297.3958, 73.96525
297.8779, 73.05773
298.3600, 71.94685
298.8422, 71.39782
299.3243, 71.83438
299.8064, 72.67561
300.2885, 73.11113
300.7706, 73.18694
301.2527, 73.23103
301.7349, 73.57296
302.2170, 74.02232
302.6991, 74.26573
303.1812, 74.26382
303.6633, 73.99002
304.1454, 73.14730
304.6276, 71.92979
305.1097, 71.01531
305.5918, 71.11272
306.0739, 71.63467
306.5560, 71.87582
307.0381, 71.68108
307.5203, 71.33857
308.0024, 70.96146
308.4845, 70.61034
308.9666, 70.42729
309.4487, 70.78856
309.9308, 71.17128
310.4130, 71.02879
310.8951, 70.21485
311.3772, 69.43307
311.8593, 69.29647
312.3414, 69.46616
312.8235, 69.40306
313.3057, 68.62862
313.7878, 67.74995
314.2699, 67.13250
314.7520, 66.80811
315.2341, 66.56419
315.7162, 66.36054
316.1984, 66.16550
316.6805, 65.94646
317.1626, 65.60629
317.6447, 65.31725
318.1268, 65.17194
318.6089, 65.16197
319.0911, 65.15322
319.5732, 65.10326
320.0553, 65.03561
320.5374, 64.96921
321.0195, 65.06853
321.5016, 64.99895
321.9838, 64.54597
322.4659, 63.80812
322.9480, 63.26465
323.4301, 63.06116
323.9122, 63.03756
324.3943, 63.12853
324.8765, 63.58479
325.3586, 63.78156
325.8407, 63.44137
326.3228, 62.78966
326.8049, 62.39970
327.2870, 62.53452
327.7692, 62.74009
328.2513, 62.86530
328.7334, 62.87169
329.2155, 62.88479
329.6976, 62.96342
330.1797, 63.02877
330.6619, 62.95530
331.1440, 62.66685
331.6261, 62.33670
332.1082, 61.94643
332.5903, 61.45055
333.0724, 61.29116
333.5546, 61.70965
334.0367, 62.24389
334.5188, 62.35513
335.0009, 61.80503
335.4830, 61.37525
335.9651, 61.23882
336.4473, 61.37247
336.9294, 61.52806
337.4115, 61.76925
337.8936, 61.90849
338.3757, 61.72799
338.8578, 61.12838
339.3399, 60.72785
339.8221, 60.66731
340.3042, 60.83120
340.7863, 60.83817
341.2684, 60.65480
341.7505, 60.48478
342.2326, 60.50842
342.7148, 60.72291
343.1969, 60.74730
343.6790, 60.52831
344.1611, 60.16099
344.6432, 59.71556
345.1253, 59.19484
345.6075, 58.89084
346.0896, 59.05806
346.5717, 59.58286
347.0538, 60.00565
347.5359, 60.33040
348.0180, 60.51103
348.5002, 60.41486
348.9823, 60.10389
349.4644, 59.84217
349.9465, 59.81257
350.4286, 59.84728
350.9107, 59.55584
351.3929, 58.95471
351.8750, 58.46914
352.3571, 58.56760
352.8392, 59.00996
353.3213, 59.36796
353.8034, 59.55021
354.2856, 59.58036
354.7677, 59.33283
355.2498, 58.90178
355.7319, 58.66280
356.2140, 59.14571
356.6961, 59.78656
357.1783, 59.95818
357.6604, 59.40150
358.1425, 58.81825
358.6246, 58.57824
359.1067, 58.62391
359.5888, 58.83953
360.0710, 59.65823
360.5531, 60.26268
361.0352, 59.95054
361.5173, 58.51651
361.9994, 57.47647
362.4815, 57.77682
362.9637, 58.62751
363.4458, 59.18131
363.9279, 59.00477
364.4100, 58.71570
364.8921, 58.43307
365.3742, 58.16716
365.8564, 58.02504
366.3385, 58.05828
366.8206, 58.19836
367.3027, 58.40404
367.7848, 58.89775
368.2669, 59.18650
368.7491, 59.08557
369.2312, 58.74883
369.7133, 58.61180
370.1954, 58.65957
370.6775, 58.93036
371.1596, 59.53988
371.6418, 60.84943
372.1239, 61.44071
372.6060, 60.99810
373.0881, 60.06035
373.5702, 59.35778
374.0523, 58.88154
374.5345, 58.67926
375.0166, 58.89684
375.4987, 59.52181
375.9808, 59.58843
376.4629, 58.87408
376.9450, 58.07945
377.4272, 57.87083
377.9093, 58.30757
378.3914, 58.81990
378.8735, 59.42999
379.3556, 59.96342
379.8377, 59.79302
380.3199, 58.85926
380.8020, 57.95222
381.2841, 57.59730
381.7662, 57.72225
382.2483, 58.02575
382.7304, 58.55442
383.2126, 59.02740
383.6947, 58.97197
384.1768, 58.48083
384.6589, 58.02510
385.1410, 57.88619
385.6231, 57.89679
386.1053, 57.73775
386.5874, 57.40102
387.0695, 57.09513
387.5516, 56.87546
388.0337, 56.82395
388.5158, 57.11777
388.9980, 58.23805
389.4801, 59.25726
389.9622, 59.17151
390.4443, 58.22708
390.9264, 57.44275
391.4085, 57.61860
391.8907, 58.05769
392.3728, 58.13637
392.8549, 57.53389
393.3370, 57.11275
393.8191, 57.54864
394.3012, 58.36702
394.7834, 58.76772
395.2655, 58.06579
395.7476, 57.29998
396.2297, 56.83667
396.7118, 56.71350
397.1939, 56.78763
397.6761, 57.28090
398.1582, 57.83514
398.6403, 58.15124
399.1224, 57.82904
399.6045, 57.71716
400.0866, 58.12498
400.5688, 58.89627
401.0509, 59.06984
401.5330, 58.24751
402.0151, 57.31923
402.4972, 56.70424
402.9793, 56.49770
403.4615, 56.35613
403.9436, 56.25383
404.4257, 56.24096
404.9078, 56.47745
405.3899, 57.08215
405.8720, 57.47379
406.3542, 57.33066
406.8363, 56.72074
407.3184, 56.65755
407.8005, 57.25291
408.2826, 57.92377
408.7647, 58.05452
409.2469, 57.68509
409.7290, 57.36255
410.2111, 57.19384
410.6932, 57.12620
411.1753, 57.04510
411.6574, 56.95969
412.1396, 56.95014
412.6217, 57.12411
413.1038, 57.39838
413.5859, 57.62679
414.0680, 57.79921
414.5501, 57.91251
415.0323, 57.97381
415.5144, 57.97497
415.9965, 57.90085
416.4786, 57.77955
416.9607, 57.55490
417.4428, 57.03174
417.9250, 56.26908
418.4071, 55.76450
418.8892, 55.81231
419.3713, 56.22284
419.8534, 56.89677
420.3355, 58.21917
420.8177, 59.13970
421.2998, 59.09011
421.7819, 58.41558
422.2640, 57.86508
422.7461, 57.58874
423.2282, 57.48701
423.7104, 57.56937
424.1925, 57.90168
424.6746, 58.14905
425.1567, 58.34500
425.6388, 58.42672
426.1209, 58.31173
426.6031, 57.72035
427.0852, 57.39368
427.5673, 57.49775
428.0494, 57.95471
428.5315, 58.39277
429.0136, 58.93090
429.4958, 59.18857
429.9779, 58.82036
430.4600, 57.68266
430.9421, 56.90455
431.4242, 56.54108
431.9063, 56.49040
432.3885, 56.69185
432.8706, 57.14721
433.3527, 57.56047
433.8348, 57.87795
434.3169, 58.06361
434.7990, 57.89812
435.2812, 57.38068
435.7633, 56.92614
436.2454, 56.92096
436.7275, 57.24639
437.2096, 57.68365
437.6917, 58.29090
438.1739, 58.75132
438.6560, 58.58097
439.1381, 57.97459
439.6202, 57.44636
440.1023, 57.34119
440.5844, 57.37040
441.0666, 57.24547
441.5487, 56.93874
442.0308, 56.78822
442.5129, 57.21668
442.9950, 57.76937
443.4771, 58.01184
443.9593, 57.45431
444.4414, 56.97379
444.9235, 56.85221
445.4056, 56.99802
445.8877, 57.08008
446.3698, 56.96041
446.8520, 56.84419
447.3341, 56.81295
447.8162, 56.88819
448.2983, 56.98110
448.7804, 57.09033
449.2625, 57.21653
449.7447, 57.38306
450.2268, 57.68670
450.7089, 57.78393
451.1910, 57.47803
451.6731, 56.90827
452.1552, 56.91164
452.6374, 57.64870
453.1195, 58.36937
453.6016, 58.51702
454.0837, 58.11319
454.5658, 57.88802
455.0479, 57.90059
455.5301, 58.06312
456.0122, 58.41381
456.4943, 58.88040
456.9764, 58.98877
457.4585, 58.27787
457.9406, 57.27220
458.4228, 56.87918
458.9049, 57.05416
459.3870, 57.32481
459.8691, 57.33746
460.3512, 57.25148
460.8333, 57.26812
461.3155, 57.44524
461.7976, 57.67481
462.2797, 57.95950
462.7618, 58.24063
463.2439, 58.41039
463.7260, 58.36343
464.2082, 58.25528
464.6903, 58.13682
465.1724, 58.01158
465.6545, 57.90669
466.1366, 57.85012
466.6187, 57.80288
467.1009, 57.74031
467.5830, 57.68821
468.0651, 57.57522
468.5472, 57.28442
469.0293, 56.96843
469.5114, 56.98157
469.9936, 57.55998
470.4757, 58.00881
470.9578, 58.07662
471.4399, 57.76736
471.9220, 57.49002
472.4041, 57.21783
472.8863, 57.06330
473.3684, 57.23034
473.8505, 57.70586
474.3326, 57.94118
474.8147, 57.79513
475.2968, 57.48927
475.7790, 57.42220
476.2611, 57.55934
476.7432, 57.67180
477.2253, 57.61956
477.7074, 57.47917
478.1895, 57.40932
478.6717, 57.41105
479.1538, 57.30654
479.6359, 56.68022
480.1180, 55.97129
480.6001, 55.76692
481.0822, 56.53489
481.5644, 57.30151
482.0465, 57.52954
482.5286, 57.38868
483.0107, 57.24590
483.4928, 57.35897
483.9749, 57.36788
484.4571, 56.95958
484.9392, 55.99224
485.4213, 55.60822
485.9034, 56.66277
486.3855, 57.83396
486.8676, 58.20430
487.3498, 57.15649
487.8319, 56.40215
488.3140, 56.03995
488.7961, 56.03005
489.2782, 56.38513
489.7603, 57.26292
490.2425, 57.96416
490.7246, 58.17234
491.2067, 57.93075
491.6888, 57.65070
492.1709, 57.31734
492.6530, 57.04604
493.1352, 56.98706
493.6173, 57.09251
494.0994, 57.16453
494.5815, 57.16541
495.0636, 57.12466
495.5457, 57.05052
496.0279, 56.96191
496.5100, 56.91388
496.9921, 56.96295
497.4742, 57.04517
497.9563, 57.13899
498.4384, 57.23846
498.9206, 57.23766
499.4027, 56.90559
499.8848, 56.55062
500.3669, 56.44633
500.8490, 56.93316
501.3311, 57.20040
501.8133, 56.79318
502.2954, 56.08881
502.7775, 55.80169
503.2596, 56.51557
503.7417, 57.05023
504.2238, 57.09509
504.7060, 56.66196
505.1881, 56.29917
505.6702, 55.98263
506.1523, 55.78096
506.6344, 55.77009
507.1165, 55.97937
507.5987, 56.19696
508.0808, 56.45958
508.5629, 56.62063
509.0450, 56.27566
509.5271, 55.48288
510.0092, 55.04433
510.4914, 55.47274
510.9735, 56.29130
511.4556, 56.48199
511.9377, 56.10746
512.4199, 55.71016
512.9020, 55.66098
513.3841, 55.80189
513.8662, 55.95315
514.3483, 56.09205
514.8304, 56.22585
515.3126, 56.48759
515.7947, 56.70465
516.2768, 56.66176
516.7589, 55.74939
517.2410, 55.13622
517.7231, 55.45924
518.2053, 56.48354
518.6874, 57.04642
519.1695, 56.56653
519.6516, 56.00681
520.1337, 55.66952
520.6158, 55.55516
521.0980, 55.69158
521.5801, 56.26710
522.0622, 56.85287
522.5443, 56.96328
523.0264, 56.49984
523.5085, 56.16810
523.9907, 56.12445
524.4728, 56.22248
524.9549, 56.08184
525.4370, 55.71673
525.9191, 55.48251
526.4012, 55.71806
526.8834, 56.17544
527.3655, 56.24481
527.8476, 55.93198
528.3297, 55.64774
528.8118, 55.76665
529.2939, 56.08224
529.7761, 56.37884
530.2582, 56.69353
530.7403, 56.76925
531.2224, 56.20511
531.7045, 55.35183
532.1866, 54.78727
532.6688, 55.02612
533.1509, 55.21199
533.6330, 54.90413
534.1151, 54.14022
534.5972, 53.94198
535.0793, 54.70567
535.5615, 55.63807
536.0436, 56.43207
536.5257, 57.20625
537.0078, 57.38628
537.4899, 56.79435
537.9720, 55.89459
538.4542, 55.18586
538.9363, 54.65369
539.4184, 54.51128
539.9005, 54.92849
540.3826, 55.61772
540.8647, 55.99318
541.3469, 56.07465
541.8290, 56.00831
542.3111, 55.66679
542.7932, 55.31665
543.2753, 55.53119
543.7574, 56.31574
544.2396, 56.83274
544.7217, 56.07500
545.2038, 54.96444
545.6859, 54.48027
546.1680, 55.23770
546.6501, 55.91821
547.1323, 56.00692
547.6144, 55.73803
548.0965, 55.52306
548.5786, 55.37073
549.0607, 55.33818
549.5428, 55.52370
550.0250, 55.88825
550.5071, 55.99970
550.9892, 55.76246
551.4713, 55.44564
551.9534, 55.15660
552.4355, 54.88471
552.9177, 54.76294
553.3998, 54.80508
553.8819, 54.95634
554.3640, 55.16259
554.8461, 55.42379
555.3282, 55.81027
555.8104, 56.52448
556.2925, 57.03963
556.7746, 56.27000
557.2567, 54.63270
557.7388, 53.42659
558.2209, 53.55843
558.7031, 54.24069
559.1852, 55.08348
559.6673, 56.03942
560.1494, 56.61040
560.6315, 56.22660
561.1136, 55.63385
561.5958, 55.33778
562.0779, 55.64850
562.5600, 55.78602
563.0421, 55.69458
563.5242, 55.42056
564.0063, 54.94624
564.4885, 53.99108
564.9706, 53.53592
565.4527, 53.92330
565.9348, 54.86473
566.4169, 55.41838
566.8990, 55.55907
567.3812, 55.48602
567.8633, 55.15889
568.3454, 54.69191
568.8275, 54.51693
569.3096, 54.64146
569.7917, 54.89058
570.2739, 55.29364
570.7560, 55.66848
571.2381, 55.68725
571.7202, 55.17012
572.2023, 54.63235
572.6844, 54.29938
573.1666, 54.17878
573.6487, 54.27552
574.1308, 54.95924
574.6129, 55.47646
575.0950, 55.54499
575.5771, 55.22411
576.0593, 54.90322
576.5414, 54.37626
577.0235, 54.13104
577.5056, 54.49694
577.9877, 55.59548
578.4698, 55.98382
578.9520, 55.41791
579.4341, 54.74450
579.9162, 54.87116
580.3983, 55.72457
580.8804, 56.18563
581.3625, 56.05692
