##NAMES=Tetrahedrite-(Zn)
##RRUFFID=R050302
##IDEAL CHEMISTRY=Cu^1+^_6_(Cu^1+^_4_Zn^2+^_2_)Sb^3+^_4_S^2-^_13_
##LOCALITY=Casapalca, Peru
##OWNER=RRUFF
##SOURCE=Eugene Schlepp
##DESCRIPTION=Black tetrahedra associated with quartz and pyrite
##STATUS=The identification of this mineral has been confirmed by X-ray diffraction and chemical analysis
##URL=rruff.info/R050302
##MEASURED CHEMISTRY=(Cu_10.02_Zn_1.76_Fe_0.22_)_Σ=12_(Sb_2.42_As_1.58_)_Σ=4_S_13.00_
136.2261, 22.16350
136.7083, 22.66289
137.1904, 23.10425
137.6725, 23.45341
138.1546, 23.68888
138.6367, 23.81816
139.1188, 23.80917
139.6010, 23.60552
140.0831, 23.20756
140.5652, 22.95444
141.0473, 22.89011
141.5294, 22.90097
142.0115, 22.80926
142.4937, 22.50036
142.9758, 22.35615
143.4579, 22.56190
143.9400, 23.25344
144.4221, 23.61596
144.9042, 23.55803
145.3864, 23.23076
145.8685, 22.88431
146.3506, 22.49248
146.8327, 22.11009
147.3148, 21.71745
147.7969, 21.16444
148.2791, 20.94600
148.7612, 21.23600
149.2433, 21.83854
149.7254, 22.31503
150.2075, 22.77687
150.6896, 23.01724
151.1718, 22.92977
151.6539, 21.96789
152.1360, 21.47501
152.6181, 21.74260
153.1002, 22.53408
153.5823, 23.14253
154.0645, 23.64063
154.5466, 23.86720
155.0287, 23.74328
155.5108, 22.91599
155.9929, 22.15330
156.4750, 21.41687
156.9572, 20.78310
157.4393, 20.59537
157.9214, 21.45583
158.4035, 22.46037
158.8856, 23.04801
159.3677, 22.87056
159.8499, 22.49441
160.3320, 21.91524
160.8141, 21.19440
161.2962, 20.70821
161.7783, 20.79269
162.2604, 21.07768
162.7426, 21.25780
163.2247, 21.17984
163.7068, 21.03422
164.1889, 20.85054
164.6710, 20.64031
165.1531, 20.52861
165.6353, 20.69524
166.1174, 20.95272
166.5995, 21.09917
167.0816, 20.88549
167.5637, 20.66841
168.0458, 20.74086
168.5280, 21.10403
169.0101, 21.40751
169.4922, 21.38734
169.9743, 21.17508
170.4564, 20.95358
170.9385, 20.78090
171.4207, 20.64072
171.9028, 20.48641
172.3849, 20.31197
172.8670, 20.24145
173.3491, 20.55730
173.8312, 21.04087
174.3134, 21.27358
174.7955, 20.65480
175.2776, 19.86082
175.7597, 19.84271
176.2418, 20.73491
176.7239, 21.66442
177.2061, 21.78302
177.6882, 21.29385
178.1703, 20.75011
178.6524, 20.31513
179.1345, 20.01797
179.6166, 19.96143
180.0988, 20.18342
180.5809, 20.46800
181.0630, 20.52096
181.5451, 20.40666
182.0272, 20.38093
182.5093, 20.73886
182.9915, 21.27702
183.4736, 21.45650
183.9557, 21.19130
184.4378, 20.75606
184.9199, 20.46991
185.4020, 20.32870
185.8842, 20.26838
186.3663, 20.36151
186.8484, 20.52892
187.3305, 20.41827
187.8126, 19.92400
188.2947, 19.35209
188.7769, 19.22018
189.2590, 19.51093
189.7411, 19.86838
190.2232, 20.10586
190.7053, 20.23807
191.1874, 20.38907
191.6696, 20.60547
192.1517, 20.77842
192.6338, 20.60486
193.1159, 20.06752
193.5980, 19.64617
194.0801, 19.79687
194.5623, 20.45649
195.0444, 20.65387
195.5265, 20.16660
196.0086, 19.36781
196.4907, 19.06848
196.9728, 19.31287
197.4550, 19.67972
197.9371, 19.95991
198.4192, 20.15401
198.9013, 20.21700
199.3834, 20.09634
199.8655, 19.89274
200.3477, 19.84553
200.8298, 19.96731
201.3119, 20.19365
201.7940, 20.58968
202.2761, 21.20050
202.7582, 21.43751
203.2404, 21.13850
203.7225, 20.51715
204.2046, 20.19308
204.6867, 20.24468
205.1688, 20.32418
205.6509, 20.15882
206.1331, 19.67594
206.6152, 19.44154
207.0973, 19.58144
207.5794, 19.95992
208.0615, 20.16062
208.5436, 20.15298
209.0257, 20.04844
209.5079, 19.88922
209.9900, 19.65020
210.4721, 19.47094
210.9542, 19.34745
211.4363, 19.29592
211.9184, 19.40084
212.4006, 19.73393
212.8827, 20.06957
213.3648, 20.25125
213.8469, 20.23285
214.3290, 20.24588
214.8111, 20.33817
215.2933, 20.46722
215.7754, 20.47066
216.2575, 20.29666
216.7396, 20.09413
217.2217, 19.94990
217.7038, 19.87692
218.1860, 19.83040
218.6681, 19.83962
219.1502, 19.86900
219.6323, 19.76292
220.1144, 19.42872
220.5965, 19.11983
221.0787, 18.99243
221.5608, 19.11003
222.0429, 19.22936
222.5250, 19.29773
223.0071, 19.36202
223.4892, 19.61989
223.9714, 20.21608
224.4535, 20.78191
224.9356, 21.12305
225.4177, 21.18247
225.8998, 21.13885
226.3819, 20.95127
226.8641, 20.67196
227.3462, 20.46148
227.8283, 20.22765
228.3104, 20.20112
228.7925, 20.59243
229.2746, 21.85573
229.7568, 22.47436
230.2389, 22.10500
230.7210, 21.10746
231.2031, 20.67537
231.6852, 21.15327
232.1673, 21.68550
232.6495, 21.84664
233.1316, 21.47422
233.6137, 21.07163
234.0958, 20.53074
234.5779, 19.99473
235.0600, 19.92244
235.5422, 20.63113
236.0243, 21.34362
236.5064, 21.70100
236.9885, 21.51824
237.4706, 21.38243
237.9527, 21.26874
238.4349, 21.21126
238.9170, 21.33257
239.3991, 21.83493
239.8812, 22.21254
240.3633, 22.18303
240.8454, 21.39449
241.3276, 21.10526
241.8097, 21.59901
242.2918, 22.49041
242.7739, 22.90187
243.2560, 22.52602
243.7381, 22.14738
244.2203, 22.11746
244.7024, 22.70009
245.1845, 22.84431
245.6666, 22.22573
246.1487, 21.32432
246.6308, 21.09220
247.1130, 21.88794
247.5951, 22.77371
248.0772, 23.46935
248.5593, 24.02996
249.0414, 24.17232
249.5235, 23.61623
250.0057, 22.81842
250.4878, 22.55677
250.9699, 23.11162
251.4520, 23.71145
251.9341, 24.16987
252.4162, 24.54107
252.8984, 24.47191
253.3805, 23.69136
253.8626, 22.67486
254.3447, 22.15463
254.8268, 22.30770
255.3089, 22.58268
255.7911, 22.87006
256.2732, 23.19435
256.7553, 23.31560
257.2374, 23.11320
257.7195, 22.82659
258.2017, 22.73994
258.6838, 22.87316
259.1659, 23.17103
259.6480, 23.71377
260.1301, 24.51824
260.6122, 24.98556
261.0944, 25.03363
261.5765, 24.84577
262.0586, 24.60292
262.5407, 24.30058
263.0228, 23.95184
263.5049, 23.52334
263.9871, 23.02081
264.4692, 22.65483
264.9513, 22.35655
265.4334, 22.29811
265.9155, 22.76581
266.3976, 24.01279
266.8798, 24.88555
267.3619, 25.07580
267.8440, 24.67957
268.3261, 24.48622
268.8082, 24.59077
269.2903, 24.69892
269.7725, 24.44755
270.2546, 23.64557
270.7367, 23.43506
271.2188, 24.23092
271.7009, 25.69370
272.1830, 26.31939
272.6652, 25.87259
273.1473, 25.21910
273.6294, 24.93659
274.1115, 25.08121
274.5936, 25.28307
275.0757, 25.54198
275.5579, 25.81086
276.0400, 25.90451
276.5221, 25.76709
277.0042, 25.67910
277.4863, 25.82234
277.9684, 26.21160
278.4506, 26.66027
278.9327, 27.22398
279.4148, 27.75533
279.8969, 27.86607
280.3790, 27.49472
280.8611, 27.13711
281.3433, 27.06534
281.8254, 27.27778
282.3075, 27.52937
282.7896, 27.86249
283.2717, 28.12707
283.7538, 27.96360
284.2360, 27.34914
284.7181, 26.90249
285.2002, 26.95202
285.6823, 27.44705
286.1644, 27.98055
286.6465, 28.58048
287.1287, 29.09956
287.6108, 29.29397
288.0929, 29.17965
288.5750, 29.05103
289.0571, 29.01939
289.5392, 29.06031
290.0214, 29.07053
290.5035, 29.04485
290.9856, 29.03055
291.4677, 29.07305
291.9498, 29.17014
292.4319, 29.29485
292.9141, 29.38314
293.3962, 29.52459
293.8783, 30.10476
294.3604, 31.13078
294.8425, 31.93763
295.3246, 31.62101
295.8068, 30.55951
296.2889, 30.08574
296.7710, 30.76139
297.2531, 31.87884
297.7352, 32.22204
298.2173, 31.86026
298.6995, 31.38777
299.1816, 31.17308
299.6637, 31.16306
300.1458, 31.30136
300.6279, 31.66643
301.1100, 31.98100
301.5922, 31.71754
302.0743, 31.03340
302.5564, 30.56748
303.0385, 30.97400
303.5206, 31.73836
304.0027, 32.10143
304.4849, 31.90939
304.9670, 31.53434
305.4491, 31.18252
305.9312, 30.91008
306.4133, 30.85174
306.8954, 31.32588
307.3776, 31.91297
307.8597, 32.14085
308.3418, 31.95579
308.8239, 31.72051
309.3060, 31.68138
309.7881, 31.77279
310.2703, 31.89162
310.7524, 31.95382
311.2345, 32.05964
311.7166, 32.28655
312.1987, 32.63369
312.6808, 33.03782
313.1630, 33.55268
313.6451, 34.07573
314.1272, 34.50205
314.6093, 34.86738
315.0914, 35.05641
315.5735, 34.91356
316.0557, 34.49747
316.5378, 34.12062
317.0199, 33.88267
317.5020, 33.75478
317.9841, 33.70414
318.4662, 33.64090
318.9484, 33.78338
319.4305, 34.39307
319.9126, 35.28285
320.3947, 35.96097
320.8768, 36.32483
321.3589, 36.41165
321.8411, 36.16542
322.3232, 35.35569
322.8053, 34.77308
323.2874, 34.50918
323.7695, 34.57341
324.2516, 34.98081
324.7338, 36.38401
325.2159, 37.53188
325.6980, 37.94254
326.1801, 37.40394
326.6622, 36.99307
327.1443, 36.79994
327.6265, 36.75887
328.1086, 36.80584
328.5907, 37.02839
329.0728, 37.23752
329.5549, 37.38903
330.0370, 37.48274
330.5192, 37.62854
331.0013, 37.83656
331.4834, 38.08909
331.9655, 38.40600
332.4476, 39.04328
332.9297, 39.29216
333.4118, 38.95570
333.8940, 38.17007
334.3761, 37.49212
334.8582, 36.81790
335.3403, 36.43423
335.8224, 36.58198
336.3045, 37.56018
336.7867, 38.14632
337.2688, 38.16602
337.7509, 37.90015
338.2330, 37.90742
338.7151, 38.21930
339.1972, 38.71494
339.6794, 39.48909
340.1615, 40.57203
340.6436, 41.06925
341.1257, 40.83219
341.6078, 40.32665
342.0899, 40.08801
342.5721, 40.12335
343.0542, 40.40528
343.5363, 41.07537
344.0184, 41.97382
344.5005, 42.34108
344.9826, 42.12127
345.4648, 41.76026
345.9469, 41.54726
346.4290, 41.50150
346.9111, 41.83514
347.3932, 42.71501
347.8753, 43.81946
348.3575, 44.57026
348.8396, 44.97327
349.3217, 45.12469
349.8038, 44.86465
350.2859, 44.40573
350.7680, 44.34769
351.2502, 44.85238
351.7323, 45.40542
352.2144, 45.33751
352.6965, 44.81379
353.1786, 44.33531
353.6607, 44.27433
354.1429, 44.34252
354.6250, 44.15974
355.1071, 43.70481
355.5892, 43.19831
356.0713, 42.73936
356.5534, 42.35434
357.0356, 42.08457
357.5177, 42.10279
357.9998, 42.10847
358.4819, 41.85317
358.9640, 41.37568
359.4461, 40.89597
359.9283, 40.47731
360.4104, 40.13303
360.8925, 39.89515
361.3746, 39.88473
361.8567, 39.78218
362.3388, 39.39198
362.8210, 38.81319
363.3031, 38.26271
363.7852, 37.84232
364.2673, 37.43851
364.7494, 36.96507
365.2315, 36.34965
365.7137, 35.89795
366.1958, 35.98044
366.6779, 36.15423
367.1600, 35.89899
367.6421, 34.48658
368.1242, 33.33434
368.6064, 32.84204
369.0885, 33.05122
369.5706, 33.10186
370.0527, 32.86459
370.5348, 32.56997
371.0169, 32.36800
371.4991, 32.34054
371.9812, 32.27478
372.4633, 32.18107
372.9454, 32.03808
373.4275, 31.77166
373.9096, 31.35535
374.3918, 30.85512
374.8739, 30.26832
375.3560, 29.52226
375.8381, 29.00681
376.3202, 28.79940
376.8023, 28.72872
377.2845, 28.56492
377.7666, 28.31787
378.2487, 27.92328
378.7308, 27.33449
379.2129, 26.57313
379.6950, 25.82080
380.1772, 25.06314
380.6593, 24.35505
381.1414, 23.67650
381.6235, 23.05358
382.1056, 22.71997
382.5877, 22.83734
383.0699, 23.11809
383.5520, 23.02419
384.0341, 22.57615
384.5162, 21.99264
384.9983, 21.25423
385.4804, 20.49701
385.9626, 20.04717
386.4447, 19.97230
386.9268, 20.01275
387.4089, 19.88933
387.8910, 19.67756
388.3731, 19.55038
388.8553, 19.75439
389.3374, 19.97145
389.8195, 19.80901
390.3016, 19.29260
390.7837, 18.85107
391.2658, 18.89634
391.7480, 19.09786
392.2301, 19.09996
392.7122, 18.64591
393.1943, 18.19649
393.6764, 17.97235
394.1585, 17.92579
394.6407, 17.92401
395.1228, 18.14330
395.6049, 18.22133
396.0870, 17.86452
396.5691, 16.78722
397.0512, 16.11375
397.5334, 16.45031
398.0155, 17.17978
398.4976, 17.52542
398.9797, 16.77501
399.4618, 16.31940
399.9439, 16.62265
400.4261, 17.67886
400.9082, 18.22041
401.3903, 17.93260
401.8724, 17.42848
402.3545, 17.09101
402.8366, 17.00416
403.3188, 16.90438
403.8009, 16.75392
404.2830, 16.59219
404.7651, 16.52603
405.2472, 16.57892
405.7293, 16.66338
406.2115, 16.76673
406.6936, 16.89125
407.1757, 16.90914
407.6578, 16.79050
408.1399, 16.64644
408.6220, 16.61172
409.1042, 16.68406
409.5863, 16.76610
410.0684, 16.85776
410.5505, 16.92262
411.0326, 16.84015
411.5147, 16.61510
411.9969, 16.40676
412.4790, 16.37445
412.9611, 16.43899
413.4432, 16.40494
413.9253, 16.23376
414.4074, 16.01037
414.8896, 15.72316
415.3717, 15.44790
415.8538, 15.36802
416.3359, 15.82433
416.8180, 16.35335
417.3001, 16.52674
417.7823, 16.34241
418.2644, 16.02480
418.7465, 15.52653
419.2286, 15.03623
419.7107, 14.74143
420.1928, 14.72278
420.6750, 14.85746
421.1571, 15.20418
421.6392, 15.67797
422.1213, 16.04955
422.6034, 16.31632
423.0855, 16.41883
423.5677, 16.26734
424.0498, 15.72849
424.5319, 15.39937
425.0140, 15.50985
425.4961, 15.76190
425.9782, 15.85121
426.4604, 15.62304
426.9425, 15.46618
427.4246, 15.51241
427.9067, 15.70385
428.3888, 15.57537
428.8709, 14.87481
429.3531, 14.29948
429.8352, 14.37195
430.3173, 15.32591
430.7994, 15.67074
431.2815, 15.21433
431.7636, 14.38510
432.2458, 13.83392
432.7279, 13.56721
433.2100, 13.47416
433.6921, 13.57121
434.1742, 13.80392
434.6563, 13.98701
435.1385, 14.12344
435.6206, 14.19983
436.1027, 14.14344
436.5848, 14.01655
437.0669, 14.00527
437.5490, 14.17816
438.0312, 14.39249
438.5133, 14.51132
438.9954, 14.54436
439.4775, 14.51809
439.9596, 14.37432
440.4417, 14.22326
440.9239, 14.20487
441.4060, 14.32737
441.8881, 14.37823
442.3702, 14.08373
442.8523, 13.72856
443.3344, 13.59199
443.8166, 14.07915
444.2987, 14.40640
444.7808, 14.09480
445.2629, 13.40839
445.7450, 13.11930
446.2271, 13.85730
446.7093, 14.61344
447.1914, 14.97945
447.6735, 14.79595
448.1556, 14.70314
448.6377, 14.82978
449.1198, 14.96146
449.6020, 14.84289
450.0841, 14.24045
450.5662, 13.90580
451.0483, 14.09429
451.5304, 14.63111
452.0125, 14.66499
452.4947, 14.03212
452.9768, 13.40271
453.4589, 13.14651
453.9410, 13.27058
454.4231, 13.52761
454.9052, 13.96389
455.3874, 14.36940
455.8695, 14.44431
456.3516, 14.22470
456.8337, 13.97115
457.3158, 13.73209
457.7979, 13.53541
458.2801, 13.46591
458.7622, 13.50551
459.2443, 13.52391
459.7264, 13.37778
460.2085, 13.17855
460.6906, 13.06406
461.1728, 13.05064
461.6549, 13.13851
462.1370, 13.47839
462.6191, 13.88762
463.1012, 14.08959
463.5833, 13.70652
464.0655, 13.35130
464.5476, 13.40958
465.0297, 13.81729
465.5118, 13.99731
465.9939, 13.50971
466.4760, 12.95776
466.9582, 12.68102
467.4403, 12.89140
467.9224, 13.04351
468.4045, 13.15762
468.8866, 13.19374
469.3687, 13.05901
469.8509, 12.53519
470.3330, 12.25258
470.8151, 12.43886
471.2972, 13.03427
471.7793, 13.42320
472.2614, 13.60118
472.7436, 13.59500
473.2257, 13.31359
473.7078, 12.74736
474.1899, 12.51375
474.6720, 12.72673
475.1541, 13.09004
475.6363, 13.12202
476.1184, 12.88021
476.6005, 12.73911
477.0826, 12.94670
477.5647, 13.28616
478.0468, 13.40056
478.5290, 13.30431
479.0111, 13.12773
479.4932, 12.85237
479.9753, 12.59568
480.4574, 12.51438
480.9395, 12.67432
481.4217, 12.88487
481.9038, 13.08834
482.3859, 13.25259
482.8680, 13.32651
483.3501, 13.22549
483.8322, 13.09707
484.3144, 12.95364
484.7965, 12.80650
485.2786, 12.76640
485.7607, 12.96654
486.2428, 13.18659
486.7249, 13.32577
487.2071, 13.40025
487.6892, 13.33940
488.1713, 13.00441
488.6534, 12.63151
489.1355, 12.62633
489.6176, 13.19652
490.0998, 13.50481
490.5819, 13.25603
491.0640, 12.59478
491.5461, 12.27527
492.0282, 12.32614
492.5103, 12.48890
492.9925, 12.67395
493.4746, 12.84452
493.9567, 12.74084
494.4388, 12.29724
494.9209, 11.82822
495.4030, 11.69265
495.8852, 11.81097
496.3673, 11.98555
496.8494, 12.20566
497.3315, 12.38901
497.8136, 12.42127
498.2957, 12.33628
498.7779, 12.27238
499.2600, 12.32770
499.7421, 12.41191
500.2242, 11.83849
500.7063, 12.60082
501.1884, 13.02597
501.6706, 13.13206
502.1527, 11.96347
502.6348, 12.44087
503.1169, 12.25863
503.5990, 12.04934
504.0811, 12.75840
504.5633, 11.77521
505.0454, 12.46971
505.5275, 12.49450
506.0096, 12.82580
506.4917, 12.49339
506.9738, 12.36598
507.4560, 12.90249
507.9381, 13.07139
508.4202, 12.66258
508.9023, 13.01336
509.3844, 12.00699
509.8665, 12.19154
510.3487, 12.88992
510.8308, 12.51448
511.3129, 12.87740
511.7950, 12.95911
512.2772, 11.76285
512.7593, 12.78911
513.2414, 12.85420
513.7235, 11.93238
514.2056, 12.88249
514.6877, 12.09673
515.1699, 11.93057
515.6520, 12.23069
516.1341, 12.04473
516.6162, 12.62514
517.0983, 12.46725
517.5804, 12.24340
518.0626, 12.30741
518.5447, 11.55569
519.0268, 12.31732
519.5089, 12.04521
519.9910, 12.28695
520.4731, 12.64516
520.9553, 12.11154
521.4374, 12.52209
521.9195, 11.46847
522.4016, 11.63997
522.8837, 11.67954
523.3658, 11.95380
523.8480, 12.11004
524.3301, 12.37036
524.8122, 12.48956
525.2943, 12.47391
525.7764, 12.42568
526.2585, 12.38236
526.7407, 12.31040
527.2228, 12.09895
527.7049, 11.77657
528.1870, 11.51617
528.6691, 11.41836
529.1512, 11.43868
529.6334, 11.56677
530.1155, 11.80726
530.5976, 11.99547
531.0797, 12.12298
531.5618, 12.10877
532.0439, 11.84460
532.5261, 10.88110
533.0082, 10.26942
533.4903, 10.57936
533.9724, 11.39017
534.4545, 11.80433
534.9366, 11.28013
535.4188, 10.88390
535.9009, 10.91920
536.3830, 11.37257
536.8651, 11.65583
537.3472, 11.75921
537.8293, 11.71336
538.3115, 11.44333
538.7936, 10.91218
539.2757, 10.72401
539.7578, 10.96723
540.2399, 11.39100
540.7220, 11.75123
541.2042, 12.02414
541.6863, 12.08346
542.1684, 11.78645
542.6505, 11.38076
543.1326, 11.19640
543.6147, 11.20615
544.0969, 11.30552
544.5790, 11.47091
545.0611, 11.67465
545.5432, 11.94238
546.0253, 12.28369
546.5074, 12.48456
546.9896, 12.37547
547.4717, 12.13011
547.9538, 11.88252
548.4359, 11.46194
548.9180, 11.31042
549.4001, 11.73666
549.8823, 12.36579
550.3644, 12.53856
550.8465, 12.00599
551.3286, 11.48270
551.8107, 11.12507
552.2928, 10.92212
552.7750, 10.80568
553.2571, 10.77726
553.7392, 10.82259
554.2213, 11.00210
554.7034, 11.27059
555.1855, 11.30702
555.6677, 11.05893
556.1498, 10.85786
556.6319, 11.15057
557.1140, 11.73993
557.5961, 12.23119
558.0782, 12.54020
558.5604, 12.66775
559.0425, 12.52429
559.5246, 12.19920
560.0067, 11.89070
560.4888, 11.57974
560.9709, 11.39696
561.4531, 11.49650
561.9352, 11.87802
562.4173, 12.08052
562.8994, 11.91603
563.3815, 11.65755
563.8636, 11.41771
564.3458, 11.14286
564.8279, 11.05917
565.3100, 11.26164
565.7921, 11.53449
566.2742, 11.57212
566.7563, 11.34569
567.2385, 11.17491
567.7206, 11.14138
568.2027, 11.18584
568.6848, 11.20150
569.1669, 11.18697
569.6490, 11.12884
570.1312, 10.89698
570.6133, 10.67251
571.0954, 10.80662
571.5775, 11.28057
572.0596, 11.67797
572.5417, 11.66711
573.0239, 11.50314
573.5060, 11.39608
573.9881, 11.37815
574.4702, 11.43000
574.9523, 11.57890
575.4344, 11.78336
575.9166, 11.99294
576.3987, 12.43025
576.8808, 12.56383
577.3629, 12.19099
577.8450, 11.48941
578.3271, 11.03722
578.8092, 10.87392
579.2913, 10.84983
579.7734, 10.97157
580.2556, 11.20119
580.7377, 11.19609
581.2198, 10.93109
581.7019, 10.70429
582.1840, 10.84156
582.6661, 11.19665
583.1483, 11.41918
583.6304, 11.44882
584.1125, 11.40357
584.5946, 11.33103
585.0767, 11.26479
585.5588, 11.25579
586.0410, 11.40834
586.5231, 11.52419
587.0052, 11.43832
587.4873, 11.24722
587.9694, 11.21048
588.4515, 11.58660
588.9337, 11.90635
589.4158, 12.00853
589.8979, 11.89161
590.3800, 11.86382
590.8621, 12.01170
591.3442, 12.09516
591.8264, 11.92811
592.3085, 11.49007
592.7906, 11.08603
593.2727, 10.69709
593.7548, 10.44344
594.2369, 10.52593
594.7191, 10.87456
595.2012, 11.22545
595.6833, 11.53190
596.1654, 11.78182
596.6475, 12.00537
597.1296, 12.16163
597.6118, 12.16156
598.0939, 11.81256
598.5760, 11.43187
599.0581, 11.17702
599.5402, 11.05096
600.0223, 10.98308
600.5045, 10.99501
600.9866, 11.03134
601.4687, 11.07838
601.9508, 11.15365
602.4329, 11.14521
602.9150, 10.96800
603.3972, 10.82565
603.8793, 10.95293
604.3614, 11.38940
604.8435, 11.65560
605.3256, 11.65380
605.8077, 11.55702
606.2899, 11.69843
606.7720, 12.00861
607.2541, 12.14325
607.7362, 11.84633
608.2183, 11.44645
608.7004, 11.35131
609.1826, 11.49034
609.6647, 11.62210
610.1468, 11.68056
610.6289, 11.64860
611.1110, 11.44920
611.5931, 11.06949
612.0753, 10.84829
612.5574, 10.99573
613.0395, 11.20888
613.5216, 11.31252
614.0037, 11.25774
614.4858, 11.22326
614.9680, 11.22276
615.4501, 11.22400
615.9322, 11.19244
616.4143, 11.12836
616.8964, 10.98993
617.3785, 10.68672
617.8607, 10.46066
618.3428, 10.97389
618.8249, 12.01033
619.3070, 12.66463
619.7891, 12.11412
620.2712, 11.26483
620.7534, 11.03172
621.2355, 11.31276
621.7176, 11.64722
622.1997, 11.96496
622.6818, 12.14748
623.1639, 12.06133
623.6461, 11.63546
624.1282, 11.38130
624.6103, 11.46661
625.0924, 11.63558
625.5745, 11.73611
626.0566, 11.75619
626.5388, 11.73001
627.0209, 11.62540
627.5030, 11.53018
627.9851, 11.61578
628.4672, 11.86749
628.9493, 11.98193
629.4315, 11.83737
629.9136, 11.61418
630.3957, 11.60946
630.8778, 11.76231
631.3599, 11.89102
