##NAMES=Tetrawickmanite
##RRUFFID=R100003
##IDEAL CHEMISTRY=Mn^2+^Sn^4+^(OH)_6_
##LOCALITY=Langban, Filipstad, Varmland, Sweden
##OWNER=RRUFF
##SOURCE=William Pinch
##DESCRIPTION=Yellowish-orange pseudocubic crystals
##STATUS=The identification of this mineral is confirmed by single-crystal X-ray diffraction and chemical analysis.
##URL=rruff.info/R100003
##MEASURED CHEMISTRY=(Mn^2+^_0.94_Mg^2+^_0.05_Fe^2+^_0.01_)_Σ=1_(Sn^4+^_0.92_W^6+^_0.05_)_Σ=0.97_(OH)_6_
106.6087, 1074.444
107.0908, 1071.744
107.5729, 1070.808
108.0551, 1070.586
108.5372, 1069.892
109.0193, 1068.560
109.5014, 1066.666
109.9835, 1063.537
110.4656, 1059.568
110.9478, 1056.832
111.4299, 1057.008
111.9120, 1059.715
112.3941, 1062.051
112.8762, 1063.682
113.3583, 1064.744
113.8405, 1064.841
114.3226, 1064.129
114.8047, 1063.758
115.2868, 1065.596
115.7689, 1071.237
116.2510, 1074.276
116.7332, 1072.540
117.2153, 1069.482
117.6974, 1067.033
118.1795, 1065.879
118.6616, 1065.844
119.1437, 1066.573
119.6259, 1069.365
120.1080, 1071.336
120.5901, 1071.770
121.0722, 1071.483
121.5543, 1071.561
122.0364, 1072.622
122.5186, 1074.376
123.0007, 1075.222
123.4828, 1075.412
123.9649, 1074.722
124.4470, 1072.374
124.9291, 1068.809
125.4113, 1065.738
125.8934, 1064.326
126.3755, 1064.435
126.8576, 1064.557
127.3397, 1064.502
127.8218, 1064.561
128.3040, 1064.854
128.7861, 1065.299
129.2682, 1066.459
129.7503, 1070.202
130.2324, 1074.916
130.7145, 1077.734
131.1967, 1076.340
131.6788, 1072.166
132.1609, 1069.519
132.6430, 1068.600
133.1251, 1069.176
133.6072, 1071.694
134.0894, 1075.449
134.5715, 1078.907
135.0536, 1080.633
135.5357, 1080.433
136.0178, 1081.108
136.4999, 1084.375
136.9821, 1087.093
137.4642, 1087.623
137.9463, 1086.228
138.4284, 1084.481
138.9105, 1084.212
139.3926, 1085.963
139.8748, 1087.940
140.3569, 1090.638
140.8390, 1093.206
141.3211, 1095.098
141.8032, 1096.172
142.2853, 1096.627
142.7675, 1096.711
143.2496, 1096.002
143.7317, 1095.732
144.2138, 1095.777
144.6959, 1096.344
145.1780, 1098.093
145.6602, 1101.531
146.1423, 1105.330
146.6244, 1106.436
147.1065, 1104.405
147.5886, 1102.008
148.0707, 1099.796
148.5529, 1097.944
149.0350, 1097.154
149.5171, 1098.115
149.9992, 1100.031
150.4813, 1101.632
150.9634, 1102.990
151.4456, 1103.807
151.9277, 1103.379
152.4098, 1101.514
152.8919, 1100.447
153.3740, 1102.724
153.8561, 1105.461
154.3383, 1106.171
154.8204, 1103.881
155.3025, 1100.112
155.7846, 1097.428
156.2667, 1096.391
156.7488, 1095.273
157.2310, 1093.549
157.7131, 1091.551
158.1952, 1089.620
158.6773, 1087.950
159.1594, 1086.412
159.6415, 1084.478
160.1237, 1081.144
160.6058, 1078.624
161.0879, 1077.440
161.5700, 1077.242
162.0521, 1077.701
162.5342, 1078.700
163.0164, 1080.131
163.4985, 1080.262
163.9806, 1077.360
164.4627, 1075.031
164.9448, 1074.604
165.4269, 1075.637
165.9091, 1076.970
166.3912, 1077.827
166.8733, 1078.166
167.3554, 1077.757
167.8375, 1075.994
168.3196, 1074.129
168.8018, 1072.781
169.2839, 1071.984
169.7660, 1071.516
170.2481, 1070.978
170.7302, 1070.545
171.2123, 1071.584
171.6945, 1076.149
172.1766, 1081.151
172.6587, 1083.315
173.1408, 1082.137
173.6229, 1079.868
174.1050, 1077.585
174.5872, 1075.575
175.0693, 1075.081
175.5514, 1077.509
176.0335, 1081.541
176.5156, 1084.853
176.9977, 1087.852
177.4799, 1088.877
177.9620, 1085.316
178.4441, 1078.892
178.9262, 1073.953
179.4083, 1073.639
179.8904, 1077.273
180.3726, 1080.497
180.8547, 1083.499
181.3368, 1085.671
181.8189, 1086.553
182.3010, 1086.404
182.7831, 1085.900
183.2653, 1085.523
183.7474, 1085.278
184.2295, 1085.088
184.7116, 1084.778
185.1937, 1084.689
185.6758, 1085.138
186.1580, 1085.987
186.6401, 1086.826
187.1222, 1087.396
187.6043, 1087.970
188.0864, 1086.930
188.5685, 1082.420
189.0507, 1078.042
189.5328, 1075.759
190.0149, 1075.567
190.4970, 1076.123
190.9791, 1075.911
191.4612, 1074.732
191.9434, 1073.239
192.4255, 1071.043
192.9076, 1068.860
193.3897, 1067.046
193.8718, 1065.714
194.3539, 1064.959
194.8361, 1065.023
195.3182, 1066.555
195.8003, 1067.069
196.2824, 1066.482
196.7645, 1064.932
197.2466, 1062.238
197.7288, 1058.350
198.2109, 1054.103
198.6930, 1050.412
199.1751, 1047.149
199.6572, 1045.138
200.1393, 1045.531
200.6215, 1046.955
201.1036, 1047.490
201.5857, 1046.643
202.0678, 1045.097
202.5499, 1043.424
203.0320, 1041.620
203.5142, 1040.254
203.9963, 1039.705
204.4784, 1039.731
204.9605, 1039.988
205.4426, 1040.924
205.9247, 1041.082
206.4069, 1038.115
206.8890, 1032.507
207.3711, 1028.338
207.8532, 1029.372
208.3353, 1034.321
208.8174, 1036.435
209.2996, 1033.049
209.7817, 1028.611
210.2638, 1026.185
210.7459, 1025.643
211.2280, 1025.867
211.7101, 1026.428
212.1923, 1027.300
212.6744, 1027.390
213.1565, 1025.394
213.6386, 1023.761
214.1207, 1024.417
214.6028, 1026.863
215.0850, 1028.824
215.5671, 1027.518
216.0492, 1022.291
216.5313, 1019.155
217.0134, 1020.227
217.4955, 1021.870
217.9777, 1023.284
218.4598, 1024.134
218.9419, 1024.012
219.4240, 1022.037
219.9061, 1017.415
220.3882, 1015.040
220.8704, 1016.983
221.3525, 1019.261
221.8346, 1020.207
222.3167, 1019.776
222.7988, 1018.809
223.2809, 1018.107
223.7631, 1017.590
224.2452, 1017.716
224.7273, 1018.994
225.2094, 1020.341
225.6915, 1020.897
226.1736, 1020.834
226.6558, 1021.240
227.1379, 1023.507
227.6200, 1028.551
228.1021, 1031.014
228.5842, 1029.476
229.0663, 1027.003
229.5485, 1024.942
230.0306, 1023.570
230.5127, 1022.873
230.9948, 1022.986
231.4769, 1024.190
231.9590, 1024.473
232.4412, 1022.578
232.9233, 1020.829
233.4054, 1021.116
233.8875, 1023.372
234.3696, 1025.697
234.8517, 1026.164
235.3339, 1024.488
235.8160, 1023.966
236.2981, 1025.430
236.7802, 1027.403
237.2623, 1028.831
237.7444, 1029.637
238.2266, 1030.342
238.7087, 1031.515
239.1908, 1033.067
239.6729, 1033.834
240.1550, 1033.317
240.6371, 1032.296
241.1193, 1031.199
241.6014, 1030.062
242.0835, 1029.319
242.5656, 1029.400
243.0477, 1030.200
243.5298, 1031.133
244.0120, 1032.745
244.4941, 1034.097
244.9762, 1033.937
245.4583, 1032.171
245.9404, 1030.681
246.4225, 1031.172
246.9047, 1032.739
247.3868, 1033.336
247.8689, 1031.751
248.3510, 1029.859
248.8331, 1029.932
249.3152, 1032.170
249.7974, 1034.356
250.2795, 1035.239
250.7616, 1035.349
251.2437, 1035.306
251.7258, 1035.035
252.2079, 1034.917
252.6901, 1035.543
253.1722, 1037.022
253.6543, 1038.365
254.1364, 1038.849
254.6185, 1039.084
255.1006, 1039.522
255.5828, 1040.121
256.0649, 1041.351
256.5470, 1044.098
257.0291, 1048.657
257.5112, 1052.922
257.9933, 1056.238
258.4755, 1058.929
258.9576, 1060.722
259.4397, 1061.390
259.9218, 1062.620
260.4039, 1066.846
260.8860, 1074.660
261.3682, 1082.064
261.8503, 1087.166
262.3324, 1092.168
262.8145, 1098.618
263.2966, 1106.772
263.7787, 1115.476
264.2609, 1123.422
264.7430, 1130.417
265.2251, 1137.732
265.7072, 1145.060
266.1893, 1153.103
266.6714, 1162.876
267.1536, 1174.226
267.6357, 1185.466
268.1178, 1194.695
268.5999, 1201.497
269.0820, 1208.631
269.5641, 1216.047
270.0463, 1224.016
270.5284, 1233.227
271.0105, 1243.328
271.4926, 1252.966
271.9747, 1260.392
272.4568, 1265.182
272.9390, 1271.775
273.4211, 1281.766
273.9032, 1292.293
274.3853, 1302.739
274.8674, 1313.002
275.3495, 1322.997
275.8317, 1332.884
276.3138, 1342.637
276.7959, 1351.080
277.2780, 1356.001
277.7601, 1361.614
278.2422, 1369.897
278.7244, 1379.671
279.2065, 1388.509
279.6886, 1394.696
280.1707, 1398.443
280.6528, 1401.833
281.1349, 1406.488
281.6171, 1408.825
282.0992, 1408.265
282.5813, 1404.939
283.0634, 1398.842
283.5455, 1389.855
284.0276, 1378.490
284.5098, 1367.120
284.9919, 1357.884
285.4740, 1345.780
285.9561, 1328.413
286.4382, 1308.567
286.9203, 1289.141
287.4025, 1271.544
287.8846, 1255.525
288.3667, 1240.556
288.8488, 1227.154
289.3309, 1214.194
289.8130, 1201.155
290.2952, 1188.776
290.7773, 1177.627
291.2594, 1167.965
291.7415, 1159.620
292.2236, 1152.568
292.7057, 1149.247
293.1879, 1142.987
293.6700, 1130.983
294.1521, 1118.264
294.6342, 1108.755
295.1163, 1103.126
295.5984, 1099.254
296.0806, 1094.222
296.5627, 1086.854
297.0448, 1081.923
297.5269, 1081.359
298.0090, 1081.228
298.4911, 1079.558
298.9733, 1076.080
299.4554, 1071.251
299.9375, 1065.292
300.4196, 1057.800
300.9017, 1051.898
301.3839, 1048.352
301.8660, 1045.325
302.3481, 1042.128
302.8302, 1038.773
303.3123, 1035.509
303.7944, 1032.503
304.2766, 1029.755
304.7587, 1027.175
305.2408, 1025.416
305.7229, 1023.089
306.2050, 1019.202
306.6871, 1014.562
307.1693, 1010.673
307.6514, 1008.454
308.1335, 1007.425
308.6156, 1005.479
309.0977, 1001.308
309.5798, 997.7200
310.0620, 995.0323
310.5441, 993.0539
311.0262, 991.6080
311.5083, 990.6111
311.9904, 989.9559
312.4725, 989.4296
312.9547, 989.5272
313.4368, 989.0283
313.9189, 988.0024
314.4010, 986.3727
314.8831, 983.5026
315.3652, 979.4703
315.8474, 975.6996
316.3295, 974.3642
316.8116, 976.8539
317.2937, 978.1904
317.7758, 978.3771
318.2579, 977.5984
318.7401, 975.3972
319.2222, 972.1038
319.7043, 968.9286
320.1864, 967.0277
320.6685, 966.4891
321.1506, 966.6044
321.6328, 968.9964
322.1149, 970.3578
322.5970, 968.1618
323.0791, 963.7629
323.5612, 960.5500
324.0433, 960.9500
324.5255, 964.6044
325.0076, 967.5568
325.4897, 969.6314
325.9718, 971.2117
326.4539, 972.1880
326.9360, 972.7638
327.4182, 973.1307
327.9003, 973.3739
328.3824, 973.6313
328.8645, 974.2951
329.3466, 975.6935
329.8287, 977.1048
330.3109, 978.8371
330.7930, 980.3936
331.2751, 980.9820
331.7572, 980.4990
332.2393, 979.9595
332.7214, 981.0157
333.2036, 984.6004
333.6857, 987.6835
334.1678, 989.3990
334.6499, 991.3840
335.1320, 994.6194
335.6141, 999.1487
336.0963, 1004.493
336.5784, 1010.319
337.0605, 1016.823
337.5426, 1022.197
338.0247, 1025.992
338.5068, 1029.178
338.9890, 1031.630
339.4711, 1033.735
339.9532, 1036.183
340.4353, 1039.516
340.9174, 1043.511
341.3995, 1046.787
341.8817, 1047.882
342.3638, 1050.031
342.8459, 1054.074
343.3280, 1059.280
343.8101, 1064.882
344.2922, 1070.552
344.7744, 1076.272
345.2565, 1082.127
345.7386, 1088.870
346.2207, 1094.175
346.7028, 1095.875
347.1849, 1097.691
347.6671, 1103.119
348.1492, 1112.404
348.6313, 1122.159
349.1134, 1128.129
349.5955, 1129.319
350.0776, 1130.993
350.5598, 1133.129
351.0419, 1135.791
351.5240, 1139.848
352.0061, 1144.580
352.4882, 1148.081
352.9703, 1148.379
353.4525, 1145.970
353.9346, 1145.982
354.4167, 1150.340
354.8988, 1154.690
355.3809, 1157.505
355.8630, 1159.615
356.3452, 1162.325
356.8273, 1166.391
357.3094, 1170.856
357.7915, 1173.340
358.2736, 1172.729
358.7557, 1173.008
359.2379, 1176.721
359.7200, 1180.606
360.2021, 1181.776
360.6842, 1179.685
361.1663, 1176.783
361.6484, 1175.994
362.1306, 1177.563
362.6127, 1178.335
363.0948, 1178.417
363.5769, 1177.022
364.0590, 1172.488
364.5411, 1165.747
365.0233, 1160.329
365.5054, 1159.671
365.9875, 1162.476
366.4696, 1163.131
366.9517, 1161.230
367.4338, 1157.845
367.9160, 1152.540
368.3981, 1146.455
368.8802, 1141.297
369.3623, 1137.705
369.8444, 1135.199
370.3265, 1133.432
370.8087, 1132.547
371.2908, 1131.187
371.7729, 1129.390
372.2550, 1126.445
372.7371, 1121.202
373.2192, 1113.249
373.7014, 1105.290
374.1835, 1099.025
374.6656, 1094.396
375.1477, 1091.324
375.6298, 1090.604
376.1119, 1090.129
376.5941, 1087.734
377.0762, 1083.724
377.5583, 1079.518
378.0404, 1075.729
378.5225, 1072.011
379.0046, 1067.582
379.4868, 1062.285
379.9689, 1057.557
380.4510, 1054.963
380.9331, 1053.627
381.4152, 1050.768
381.8973, 1044.666
382.3795, 1038.724
382.8616, 1035.785
383.3437, 1035.076
383.8258, 1033.477
384.3079, 1029.644
384.7900, 1024.370
385.2722, 1018.732
385.7543, 1012.012
386.2364, 1007.235
386.7185, 1006.786
387.2006, 1008.125
387.6827, 1007.956
388.1649, 1005.609
388.6470, 1002.375
389.1291, 999.6761
389.6112, 997.6648
390.0933, 994.2637
390.5754, 987.7674
391.0576, 981.4025
391.5397, 977.7148
392.0218, 976.0136
392.5039, 973.5081
392.9860, 968.3473
393.4681, 961.2575
393.9503, 955.8600
394.4324, 952.9520
394.9145, 950.5880
395.3966, 949.5716
395.8787, 948.4949
396.3608, 945.0194
396.8430, 938.5819
397.3251, 931.7977
397.8072, 928.8576
398.2893, 932.1967
398.7714, 932.7508
399.2535, 929.2076
399.7357, 924.4769
400.2178, 919.5630
400.6999, 914.8715
401.1820, 910.8731
401.6641, 907.9680
402.1462, 906.0772
402.6284, 904.0069
403.1105, 901.9650
403.5926, 899.4544
404.0747, 896.1266
404.5568, 892.4029
405.0389, 888.6085
405.5211, 884.8781
406.0032, 881.5281
406.4853, 879.2990
406.9674, 878.6730
407.4495, 877.6434
407.9316, 876.1854
408.4138, 874.1412
408.8959, 870.9100
409.3780, 866.7810
409.8601, 863.1019
410.3422, 861.2107
410.8243, 860.8443
411.3065, 859.7971
411.7886, 857.6436
412.2707, 855.4952
412.7528, 854.0714
413.2349, 852.8955
413.7170, 851.1583
414.1992, 848.3159
414.6813, 845.4116
415.1634, 844.0818
415.6455, 844.4221
416.1276, 844.5463
416.6097, 844.3135
417.0919, 843.2010
417.5740, 840.1240
418.0561, 835.0283
418.5382, 831.1517
419.0203, 831.0124
419.5024, 833.2148
419.9846, 834.9199
420.4667, 835.8512
420.9488, 836.1556
421.4309, 835.7133
421.9130, 834.6899
422.3951, 833.7115
422.8773, 832.6185
423.3594, 831.7863
423.8415, 831.6342
424.3236, 832.0005
424.8057, 832.3216
425.2878, 832.4122
425.7700, 832.2207
426.2521, 831.5397
426.7342, 830.1467
427.2163, 828.9740
427.6984, 828.3768
428.1805, 827.9593
428.6627, 827.0978
429.1448, 825.7919
429.6269, 824.9327
430.1090, 825.5008
430.5911, 827.6282
431.0732, 828.5546
431.5554, 827.3679
432.0375, 826.2467
432.5196, 825.8745
433.0017, 826.0842
433.4838, 826.6398
433.9659, 827.4376
434.4481, 828.2439
434.9302, 828.5558
435.4123, 828.3059
435.8944, 827.6159
436.3765, 825.9040
436.8586, 824.2743
437.3408, 823.5405
437.8229, 823.6581
438.3050, 823.9752
438.7871, 823.8583
439.2692, 823.3663
439.7513, 823.5773
440.2335, 825.3614
440.7156, 826.5974
441.1977, 826.2979
441.6798, 825.3005
442.1619, 824.7268
442.6440, 825.0198
443.1262, 825.4880
443.6083, 824.8848
444.0904, 823.0409
444.5725, 822.3354
445.0546, 824.4131
445.5367, 826.5286
446.0189, 826.2761
446.5010, 824.0418
446.9831, 822.1581
447.4652, 822.2292
447.9473, 823.3190
448.4294, 823.6688
448.9116, 823.1691
449.3937, 822.5299
449.8758, 822.1782
450.3579, 821.9403
450.8400, 821.5240
451.3221, 821.1801
451.8043, 820.1380
452.2864, 816.9288
452.7685, 812.8486
453.2506, 811.1078
453.7327, 812.7384
454.2148, 815.1319
454.6970, 815.2248
455.1791, 812.5541
455.6612, 810.1636
456.1433, 807.9918
456.6254, 806.1895
457.1075, 804.6823
457.5897, 803.5958
458.0718, 803.3714
458.5539, 804.3447
459.0360, 806.0330
459.5181, 806.9397
460.0002, 806.6007
460.4824, 806.0295
460.9645, 804.5583
461.4466, 803.3326
461.9287, 803.6861
462.4108, 805.5023
462.8929, 807.2454
463.3751, 807.3550
463.8572, 805.8178
464.3393, 804.4195
464.8214, 802.7768
465.3035, 801.7971
465.7856, 802.6564
466.2678, 803.9392
466.7499, 803.5092
467.2320, 800.4537
467.7141, 796.8019
468.1962, 795.6954
468.6783, 797.3895
469.1605, 798.7719
469.6426, 799.6243
470.1247, 799.6795
470.6068, 798.3261
471.0889, 795.9454
471.5710, 794.0814
472.0532, 794.1251
472.5353, 794.8319
473.0174, 793.8438
473.4995, 791.0623
473.9816, 789.0969
474.4637, 789.4581
474.9459, 791.2558
475.4280, 792.7032
475.9101, 793.8810
476.3922, 794.5067
476.8743, 794.0297
477.3564, 793.1196
477.8386, 792.8975
478.3207, 793.5282
478.8028, 794.0771
479.2849, 793.6885
479.7670, 792.3476
480.2491, 790.9328
480.7313, 789.0627
481.2134, 787.5499
481.6955, 786.8420
482.1776, 786.6287
482.6597, 786.3894
483.1418, 785.9393
483.6240, 785.5638
484.1061, 785.8925
484.5882, 787.6526
485.0703, 788.0013
485.5524, 785.0482
486.0345, 782.5982
486.5167, 783.2035
486.9988, 785.7048
487.4809, 787.1184
487.9630, 785.4109
488.4451, 782.0443
488.9272, 781.0387
489.4094, 783.4601
489.8915, 784.9139
490.3736, 782.6923
490.8557, 780.1614
491.3378, 780.1693
491.8199, 782.7245
492.3021, 784.6686
492.7842, 783.2382
493.2663, 779.7859
493.7484, 777.5271
494.2305, 776.6688
494.7126, 776.6360
495.1948, 777.3701
495.6769, 778.6426
496.1590, 779.9089
496.6411, 781.5483
497.1232, 782.4488
497.6053, 781.8469
498.0875, 780.2152
498.5696, 778.2892
499.0517, 776.2493
499.5338, 773.9865
500.0159, 771.1094
500.4980, 767.4198
500.9802, 766.0759
501.4623, 768.6715
501.9444, 771.5569
502.4265, 773.6996
502.9086, 775.0988
503.3907, 775.7926
503.8729, 775.8156
504.3550, 775.5097
504.8371, 775.5421
505.3192, 776.2697
505.8013, 776.3514
506.2834, 774.4083
506.7656, 773.1465
507.2477, 774.3762
507.7298, 777.2369
508.2119, 779.6973
508.6940, 780.6986
509.1761, 780.5500
509.6583, 779.5021
510.1404, 777.2408
510.6225, 775.9736
511.1046, 777.2169
511.5867, 778.9189
512.0688, 778.9980
512.5510, 777.4948
513.0331, 776.3363
513.5152, 776.7809
513.9973, 777.9328
514.4794, 778.3823
514.9615, 778.0897
515.4437, 778.1041
515.9258, 779.2080
516.4079, 780.8865
516.8900, 781.5196
517.3721, 780.5700
517.8542, 779.8693
518.3364, 779.9503
518.8185, 780.3909
519.3006, 780.5663
519.7827, 780.5197
520.2648, 781.1644
520.7469, 783.5485
521.2291, 787.4219
521.7112, 788.9825
522.1933, 784.9441
522.6754, 782.5361
523.1575, 784.3889
523.6396, 787.3610
524.1218, 787.7424
524.6039, 784.9984
525.0860, 782.3078
525.5681, 783.7731
526.0502, 789.2631
526.5323, 792.2938
527.0145, 791.6444
527.4966, 790.5880
527.9787, 790.3912
528.4608, 790.8571
528.9429, 791.8019
529.4250, 793.2670
529.9072, 794.9213
530.3893, 796.8845
530.8714, 798.8568
531.3535, 799.7821
531.8356, 799.3663
532.3177, 798.2511
532.7999, 796.6586
533.2820, 794.6960
533.7641, 793.9080
534.2462, 795.2206
534.7283, 796.7624
535.2104, 797.6680
535.6926, 798.2223
536.1747, 798.8502
536.6568, 799.7047
537.1389, 800.9793
537.6210, 803.1207
538.1031, 806.7190
538.5853, 808.5920
539.0674, 807.2186
539.5495, 805.8444
540.0316, 805.1940
540.5137, 805.3709
540.9958, 806.4698
541.4780, 808.5496
541.9601, 811.2543
542.4422, 814.3625
542.9243, 817.9714
543.4064, 820.4008
543.8885, 820.1974
544.3707, 820.4047
544.8528, 824.3019
545.3349, 830.2070
545.8170, 833.5314
546.2991, 831.2040
546.7813, 827.5884
547.2634, 826.6486
547.7455, 827.9201
548.2276, 829.6707
548.7097, 831.4876
549.1918, 833.1412
549.6740, 834.2357
550.1561, 834.5997
550.6382, 835.3890
551.1203, 836.7222
551.6024, 838.3720
552.0845, 840.0179
552.5667, 841.9197
553.0488, 844.8592
553.5309, 849.1522
554.0130, 853.7955
554.4951, 856.8213
554.9772, 857.4700
555.4594, 858.7764
555.9415, 861.1898
556.4236, 863.8554
556.9057, 866.0385
557.3878, 868.2904
557.8699, 871.8820
558.3521, 877.6800
558.8342, 884.1283
559.3163, 889.2055
559.7984, 892.9186
560.2805, 896.0226
560.7626, 897.9056
561.2448, 900.4882
561.7269, 906.8140
562.2090, 915.9025
562.6911, 923.2000
563.1732, 925.8459
563.6553, 928.3440
564.1375, 933.2261
564.6196, 940.3082
565.1017, 949.4691
565.5838, 960.7252
566.0659, 972.6653
566.5480, 983.0438
567.0302, 991.1068
567.5123, 1001.276
567.9944, 1014.208
568.4765, 1028.241
568.9586, 1042.707
569.4407, 1057.890
569.9229, 1074.131
570.4050, 1091.615
570.8871, 1109.952
571.3692, 1128.113
571.8513, 1145.905
572.3334, 1166.177
572.8156, 1189.231
573.2977, 1214.519
573.7798, 1242.741
574.2619, 1272.690
574.7440, 1302.206
575.2261, 1329.554
575.7083, 1358.592
576.1904, 1393.451
576.6725, 1432.035
577.1546, 1469.508
577.6367, 1504.681
578.1188, 1539.201
578.6010, 1574.305
579.0831, 1610.003
579.5652, 1647.635
580.0473, 1688.996
580.5294, 1729.855
581.0115, 1769.495
581.4937, 1807.640
581.9758, 1843.214
582.4579, 1876.427
582.9400, 1909.481
583.4221, 1945.146
583.9042, 1983.214
584.3864, 2020.171
584.8685, 2055.892
585.3506, 2091.281
585.8327, 2129.804
586.3148, 2166.552
586.7969, 2195.307
587.2791, 2215.018
587.7612, 2232.975
588.2433, 2256.274
588.7254, 2280.529
589.2075, 2297.160
589.6896, 2305.510
590.1718, 2308.759
590.6539, 2308.695
591.1360, 2304.865
591.6181, 2295.726
592.1002, 2283.150
592.5823, 2262.617
593.0645, 2233.347
593.5466, 2196.066
594.0287, 2148.667
594.5108, 2093.393
594.9929, 2035.770
595.4750, 1979.176
595.9572, 1923.386
596.4393, 1867.801
596.9214, 1812.990
597.4035, 1756.235
597.8856, 1694.217
598.3677, 1632.254
598.8499, 1571.710
599.3320, 1513.544
599.8141, 1460.312
600.2962, 1413.234
600.7783, 1371.168
601.2604, 1333.701
601.7426, 1300.400
