##NAMES=Tetrawickmanite
##RRUFFID=R100003
##IDEAL CHEMISTRY=Mn^2+^Sn^4+^(OH)_6_
##LOCALITY=Langban, Filipstad, Varmland, Sweden
##OWNER=RRUFF
##SOURCE=William Pinch
##DESCRIPTION=Yellowish-orange pseudocubic crystals
##STATUS=The identification of this mineral is confirmed by single-crystal X-ray diffraction and chemical analysis.
##URL=rruff.info/R100003
##MEASURED CHEMISTRY=(Mn^2+^_0.94_Mg^2+^_0.05_Fe^2+^_0.01_)_Σ=1_(Sn^4+^_0.92_W^6+^_0.05_)_Σ=0.97_(OH)_6_
158.5462, 1289.785
159.0283, 1293.086
159.5104, 1296.058
159.9926, 1301.813
160.4747, 1315.524
160.9568, 1327.708
161.4389, 1334.098
161.9210, 1335.427
162.4031, 1337.975
162.8853, 1345.833
163.3674, 1355.257
163.8495, 1362.820
164.3316, 1367.450
164.8137, 1369.967
165.2958, 1369.716
165.7780, 1366.777
166.2601, 1364.731
166.7422, 1365.807
167.2243, 1368.748
167.7064, 1371.942
168.1885, 1375.294
168.6707, 1378.331
169.1528, 1380.511
169.6349, 1381.770
170.1170, 1383.094
170.5991, 1385.654
171.0812, 1388.736
171.5634, 1391.058
172.0455, 1391.190
172.5276, 1390.774
173.0097, 1391.231
173.4918, 1392.623
173.9739, 1395.201
174.4561, 1399.983
174.9382, 1406.223
175.4203, 1412.143
175.9024, 1416.717
176.3845, 1420.428
176.8666, 1423.845
177.3488, 1427.020
177.8309, 1429.995
178.3130, 1432.850
178.7951, 1435.586
179.2772, 1438.086
179.7593, 1440.122
180.2415, 1441.914
180.7236, 1444.012
181.2057, 1446.615
181.6878, 1449.206
182.1699, 1451.225
182.6520, 1452.648
183.1342, 1453.583
183.6163, 1454.305
184.0984, 1454.595
184.5805, 1453.481
185.0626, 1450.160
185.5447, 1446.439
186.0269, 1445.804
186.5090, 1448.132
186.9911, 1450.598
187.4732, 1450.520
187.9553, 1448.590
188.4374, 1448.521
188.9196, 1451.887
189.4017, 1456.393
189.8838, 1456.111
190.3659, 1450.791
190.8480, 1445.643
191.3301, 1445.400
191.8123, 1449.534
192.2944, 1452.722
192.7765, 1453.887
193.2586, 1453.505
193.7407, 1452.918
194.2228, 1452.183
194.7050, 1450.911
195.1871, 1448.165
195.6692, 1443.973
196.1513, 1441.150
196.6334, 1440.457
197.1155, 1441.511
197.5977, 1443.314
198.0798, 1446.193
198.5619, 1448.442
199.0440, 1448.106
199.5261, 1445.021
200.0082, 1441.834
200.4904, 1438.877
200.9725, 1436.254
201.4546, 1434.614
201.9367, 1434.016
202.4188, 1434.185
202.9009, 1435.486
203.3831, 1438.358
203.8652, 1439.220
204.3473, 1436.482
204.8294, 1430.583
205.3115, 1426.687
205.7936, 1425.275
206.2758, 1424.847
206.7579, 1423.789
207.2400, 1421.924
207.7221, 1420.296
208.2042, 1419.177
208.6863, 1418.568
209.1685, 1418.126
209.6506, 1417.665
210.1327, 1417.710
210.6148, 1419.295
211.0969, 1423.220
211.5790, 1425.903
212.0612, 1425.852
212.5433, 1422.977
213.0254, 1422.154
213.5075, 1424.125
213.9896, 1427.122
214.4717, 1429.074
214.9538, 1429.895
215.4360, 1429.909
215.9181, 1429.083
216.4002, 1427.376
216.8823, 1425.191
217.3644, 1421.595
217.8465, 1418.554
218.3287, 1419.099
218.8108, 1425.520
219.2929, 1430.251
219.7750, 1430.920
220.2571, 1426.977
220.7392, 1423.717
221.2214, 1420.533
221.7035, 1418.611
222.1856, 1420.055
222.6677, 1427.229
223.1498, 1432.749
223.6319, 1434.108
224.1141, 1430.705
224.5962, 1427.901
225.0783, 1425.101
225.5604, 1423.442
226.0425, 1424.766
226.5246, 1430.688
227.0068, 1436.486
227.4889, 1441.024
227.9710, 1444.434
228.4531, 1446.005
228.9352, 1445.067
229.4173, 1442.847
229.8995, 1440.636
230.3816, 1437.042
230.8637, 1436.030
231.3458, 1439.562
231.8279, 1448.865
232.3100, 1454.984
232.7922, 1456.682
233.2743, 1456.221
233.7564, 1456.484
234.2385, 1457.849
234.7206, 1459.296
235.2027, 1460.668
235.6849, 1462.046
236.1670, 1462.802
236.6491, 1462.536
237.1312, 1461.982
237.6133, 1462.019
238.0954, 1462.585
238.5776, 1463.869
239.0597, 1466.129
239.5418, 1469.544
240.0239, 1472.473
240.5060, 1474.656
240.9881, 1476.570
241.4703, 1478.890
241.9524, 1482.132
242.4345, 1484.812
242.9166, 1486.103
243.3987, 1485.576
243.8808, 1487.254
244.3630, 1492.601
244.8451, 1498.908
245.3272, 1502.661
245.8093, 1501.731
246.2914, 1502.217
246.7735, 1506.142
247.2557, 1514.056
247.7378, 1519.793
248.2199, 1522.369
248.7020, 1523.758
249.1841, 1526.309
249.6662, 1531.235
250.1484, 1534.782
250.6305, 1535.226
251.1126, 1532.192
251.5947, 1532.737
252.0768, 1538.408
252.5589, 1545.943
253.0411, 1551.921
253.5232, 1555.464
254.0053, 1559.218
254.4874, 1563.980
254.9695, 1569.811
255.4516, 1574.261
255.9338, 1576.592
256.4159, 1578.501
256.8980, 1581.683
257.3801, 1586.785
257.8622, 1591.692
258.3444, 1595.648
258.8265, 1598.782
259.3086, 1603.721
259.7907, 1610.914
260.2728, 1619.161
260.7549, 1626.976
261.2371, 1633.432
261.7192, 1642.328
262.2013, 1654.879
262.6834, 1670.766
263.1655, 1685.254
263.6476, 1697.474
264.1298, 1709.962
264.6119, 1725.154
265.0940, 1743.426
265.5761, 1762.640
266.0582, 1782.374
266.5403, 1802.592
267.0225, 1824.060
267.5046, 1847.182
267.9867, 1870.375
268.4688, 1892.432
268.9509, 1913.431
269.4330, 1933.595
269.9152, 1952.199
270.3973, 1970.221
270.8794, 1991.016
271.3615, 2014.957
271.8436, 2040.541
272.3257, 2066.152
272.8079, 2091.696
273.2900, 2118.698
273.7721, 2147.905
274.2542, 2178.592
274.7363, 2208.661
275.2184, 2237.536
275.7006, 2267.896
276.1827, 2300.948
276.6648, 2337.006
277.1469, 2373.769
277.6290, 2410.770
278.1111, 2448.767
278.5933, 2490.411
279.0754, 2536.970
279.5575, 2581.921
280.0396, 2621.732
280.5217, 2656.037
281.0038, 2689.483
281.4860, 2723.393
281.9681, 2754.390
282.4502, 2777.106
282.9323, 2791.508
283.4144, 2797.758
283.8965, 2795.777
284.3787, 2785.633
284.8608, 2767.023
285.3429, 2739.098
285.8250, 2705.150
286.3071, 2669.252
286.7892, 2631.428
287.2714, 2591.838
287.7535, 2549.332
288.2356, 2504.383
288.7177, 2462.131
289.1998, 2422.225
289.6819, 2384.514
290.1641, 2348.794
290.6462, 2315.092
291.1283, 2283.445
291.6104, 2253.852
292.0925, 2226.420
292.5746, 2202.918
293.0568, 2183.385
293.5389, 2165.630
294.0210, 2147.356
294.5031, 2128.995
294.9852, 2112.578
295.4673, 2099.354
295.9495, 2088.228
296.4316, 2077.835
296.9137, 2068.180
297.3958, 2058.324
297.8779, 2046.924
298.3600, 2034.751
298.8422, 2023.429
299.3243, 2013.326
299.8064, 2004.307
300.2885, 1997.130
300.7706, 1991.428
301.2527, 1984.376
301.7349, 1973.298
302.2170, 1959.672
302.6991, 1946.234
303.1812, 1933.479
303.6633, 1920.923
304.1454, 1907.500
304.6276, 1893.688
305.1097, 1880.898
305.5918, 1872.176
306.0739, 1864.211
306.5560, 1852.674
307.0381, 1835.731
307.5203, 1818.338
308.0024, 1804.294
308.4845, 1792.891
308.9666, 1782.478
309.4487, 1773.252
309.9308, 1764.040
310.4130, 1753.284
310.8951, 1740.353
311.3772, 1729.009
311.8593, 1723.154
312.3414, 1720.373
312.8235, 1716.751
313.3057, 1710.001
313.7878, 1702.407
314.2699, 1695.073
314.7520, 1688.080
315.2341, 1681.699
315.7162, 1676.352
316.1984, 1671.618
316.6805, 1667.094
317.1626, 1662.542
317.6447, 1658.206
318.1268, 1654.400
318.6089, 1651.042
319.0911, 1647.347
319.5732, 1641.137
320.0553, 1635.501
320.5374, 1632.873
321.0195, 1639.379
321.5016, 1642.928
321.9838, 1638.049
322.4659, 1626.899
322.9480, 1619.977
323.4301, 1622.857
323.9122, 1627.990
324.3943, 1631.291
324.8765, 1629.986
325.3586, 1630.251
325.8407, 1634.388
326.3228, 1640.553
326.8049, 1644.079
327.2870, 1641.184
327.7692, 1638.591
328.2513, 1638.660
328.7334, 1642.490
329.2155, 1646.470
329.6976, 1651.296
330.1797, 1656.052
330.6619, 1659.192
331.1440, 1659.539
331.6261, 1659.854
332.1082, 1660.589
332.5903, 1661.558
333.0724, 1664.233
333.5546, 1669.511
334.0367, 1675.696
334.5188, 1680.833
335.0009, 1684.354
335.4830, 1688.173
335.9651, 1692.487
336.4473, 1697.356
336.9294, 1703.240
337.4115, 1710.532
337.8936, 1718.048
338.3757, 1724.667
338.8578, 1730.216
339.3399, 1735.994
339.8221, 1741.951
340.3042, 1748.414
340.7863, 1755.888
341.2684, 1764.420
341.7505, 1774.279
342.2326, 1786.191
342.7148, 1800.042
343.1969, 1813.870
343.6790, 1827.542
344.1611, 1840.866
344.6432, 1852.715
345.1253, 1863.093
345.6075, 1874.270
346.0896, 1886.710
346.5717, 1900.728
347.0538, 1917.989
347.5359, 1939.098
348.0180, 1960.697
348.5002, 1979.578
348.9823, 1995.832
349.4644, 2009.758
349.9465, 2019.675
350.4286, 2028.268
350.9107, 2040.584
351.3929, 2056.534
351.8750, 2073.753
352.3571, 2091.503
352.8392, 2109.079
353.3213, 2125.066
353.8034, 2138.643
354.2856, 2151.222
354.7677, 2164.054
355.2498, 2177.135
355.7319, 2190.594
356.2140, 2205.228
356.6961, 2219.875
357.1783, 2233.558
357.6604, 2246.036
358.1425, 2257.516
358.6246, 2268.413
359.1067, 2278.396
359.5888, 2286.961
360.0710, 2292.529
360.5531, 2297.565
361.0352, 2304.086
361.5173, 2312.601
361.9994, 2319.404
362.4815, 2321.836
362.9637, 2322.314
363.4458, 2323.433
363.9279, 2327.293
364.4100, 2330.521
364.8921, 2332.222
365.3742, 2332.435
365.8564, 2331.436
366.3385, 2328.533
366.8206, 2324.934
367.3027, 2321.371
367.7848, 2319.899
368.2669, 2316.055
368.7491, 2308.293
369.2312, 2297.967
369.7133, 2289.131
370.1954, 2284.054
370.6775, 2278.030
371.1596, 2269.038
371.6418, 2255.339
372.1239, 2243.601
372.6060, 2234.289
373.0881, 2226.769
373.5702, 2220.555
374.0523, 2217.188
374.5345, 2211.440
375.0166, 2201.128
375.4987, 2186.259
375.9808, 2172.921
376.4629, 2161.004
376.9450, 2150.395
377.4272, 2141.173
377.9093, 2133.510
378.3914, 2124.892
378.8735, 2114.700
379.3556, 2103.291
379.8377, 2091.458
380.3199, 2079.289
380.8020, 2066.170
381.2841, 2051.025
381.7662, 2034.277
382.2483, 2018.899
382.7304, 2005.040
383.2126, 1992.624
383.6947, 1981.903
384.1768, 1972.576
384.6589, 1963.141
385.1410, 1953.127
385.6231, 1942.392
386.1053, 1930.013
386.5874, 1915.999
387.0695, 1902.108
387.5516, 1889.355
388.0337, 1877.641
388.5158, 1866.927
388.9980, 1857.686
389.4801, 1848.739
389.9622, 1838.673
390.4443, 1827.986
390.9264, 1818.530
391.4085, 1812.980
391.8907, 1808.238
392.3728, 1801.688
392.8549, 1792.475
393.3370, 1782.660
393.8191, 1772.145
394.3012, 1761.802
394.7834, 1753.106
395.2655, 1748.928
395.7476, 1744.291
396.2297, 1736.752
396.7118, 1725.695
397.1939, 1715.659
397.6761, 1707.801
398.1582, 1701.012
398.6403, 1694.371
399.1224, 1688.917
399.6045, 1682.286
400.0866, 1672.891
400.5688, 1661.603
401.0509, 1654.094
401.5330, 1653.922
402.0151, 1653.171
402.4972, 1647.547
402.9793, 1633.908
403.4615, 1623.841
403.9436, 1619.021
404.4257, 1616.409
404.9078, 1610.464
405.3899, 1600.015
405.8720, 1590.542
406.3542, 1583.847
406.8363, 1579.763
407.3184, 1577.139
407.8005, 1576.486
408.2826, 1575.039
408.7647, 1569.284
409.2469, 1559.598
409.7290, 1550.609
410.2111, 1542.684
410.6932, 1536.542
411.1753, 1534.840
411.6574, 1537.137
412.1396, 1538.886
412.6217, 1536.104
413.1038, 1531.031
413.5859, 1528.234
414.0680, 1528.471
414.5501, 1528.919
415.0323, 1526.560
415.5144, 1522.475
415.9965, 1518.710
416.4786, 1516.300
416.9607, 1514.455
417.4428, 1512.627
417.9250, 1510.808
418.4071, 1508.976
418.8892, 1505.727
419.3713, 1503.196
419.8534, 1503.613
420.3355, 1510.605
420.8177, 1515.402
421.2998, 1513.622
421.7819, 1507.739
422.2640, 1503.077
422.7461, 1501.258
423.2282, 1500.578
423.7104, 1500.513
424.1925, 1501.074
424.6746, 1502.229
425.1567, 1504.245
425.6388, 1506.698
426.1209, 1509.275
426.6031, 1512.224
427.0852, 1514.821
427.5673, 1516.823
428.0494, 1518.341
428.5315, 1520.024
429.0136, 1521.958
429.4958, 1523.725
429.9779, 1525.034
430.4600, 1525.812
430.9421, 1526.364
431.4242, 1526.503
431.9063, 1526.748
432.3885, 1528.130
432.8706, 1530.657
433.3527, 1532.923
433.8348, 1534.112
434.3169, 1534.797
434.7990, 1536.898
435.2812, 1540.429
435.7633, 1544.175
436.2454, 1547.089
436.7275, 1549.416
437.2096, 1551.875
437.6917, 1554.817
438.1739, 1557.424
438.6560, 1557.844
439.1381, 1557.112
439.6202, 1557.954
440.1023, 1563.428
440.5844, 1569.964
441.0666, 1574.925
441.5487, 1578.077
442.0308, 1580.029
442.5129, 1579.426
442.9950, 1578.518
443.4771, 1579.453
443.9593, 1585.796
444.4414, 1590.822
444.9235, 1591.985
445.4056, 1590.277
445.8877, 1589.295
446.3698, 1590.294
446.8520, 1591.435
447.3341, 1591.775
447.8162, 1590.545
448.2983, 1590.856
448.7804, 1594.389
449.2625, 1598.249
449.7447, 1598.754
450.2268, 1594.002
450.7089, 1590.276
451.1910, 1588.861
451.6731, 1589.443
452.1552, 1591.066
452.6374, 1594.456
453.1195, 1596.231
453.6016, 1592.962
454.0837, 1584.923
454.5658, 1579.810
455.0479, 1578.458
455.5301, 1579.214
456.0122, 1580.523
456.4943, 1582.204
456.9764, 1583.011
457.4585, 1581.854
457.9406, 1579.918
458.4228, 1579.127
458.9049, 1579.415
459.3870, 1580.139
459.8691, 1581.212
460.3512, 1582.283
460.8333, 1582.971
461.3155, 1583.279
461.7976, 1582.939
462.2797, 1580.904
462.7618, 1578.197
463.2439, 1576.648
463.7260, 1578.011
464.2082, 1579.714
464.6903, 1580.796
465.1724, 1581.216
465.6545, 1581.037
466.1366, 1579.009
466.6187, 1577.217
467.1009, 1577.024
467.5830, 1579.361
468.0651, 1582.276
468.5472, 1587.041
469.0293, 1591.984
469.5114, 1593.303
469.9936, 1588.750
470.4757, 1584.918
470.9578, 1584.154
471.4399, 1586.415
471.9220, 1587.570
472.4041, 1587.220
472.8863, 1586.886
473.3684, 1588.202
473.8505, 1591.109
474.3326, 1593.453
474.8147, 1594.866
475.2968, 1595.662
475.7790, 1596.039
476.2611, 1596.122
476.7432, 1596.740
477.2253, 1599.387
477.7074, 1602.434
478.1895, 1602.623
478.6717, 1599.939
479.1538, 1597.755
479.6359, 1599.323
480.1180, 1602.645
480.6001, 1605.210
481.0822, 1606.009
481.5644, 1606.611
482.0465, 1607.921
482.5286, 1609.643
483.0107, 1611.115
483.4928, 1612.211
483.9749, 1612.952
484.4571, 1613.225
484.9392, 1612.941
485.4213, 1612.824
485.9034, 1612.915
486.3855, 1613.172
486.8676, 1613.461
487.3498, 1612.844
487.8319, 1614.067
488.3140, 1618.380
488.7961, 1624.062
489.2782, 1626.792
489.7603, 1625.777
490.2425, 1624.290
490.7246, 1623.412
491.2067, 1623.134
491.6888, 1623.406
492.1709, 1624.258
492.6530, 1625.630
493.1352, 1628.057
493.6173, 1631.138
494.0994, 1632.894
494.5815, 1632.601
495.0636, 1631.776
495.5457, 1632.268
496.0279, 1633.858
496.5100, 1635.845
496.9921, 1637.717
497.4742, 1639.969
497.9563, 1643.337
498.4384, 1647.799
498.9206, 1651.943
499.4027, 1655.164
499.8848, 1657.692
500.3669, 1659.651
500.8490, 1659.877
501.3311, 1661.437
501.8133, 1666.083
502.2954, 1672.344
502.7775, 1677.454
503.2596, 1680.052
503.7417, 1682.844
504.2238, 1686.486
504.7060, 1690.946
505.1881, 1695.116
505.6702, 1699.111
506.1523, 1702.560
506.6344, 1704.933
507.1165, 1705.952
507.5987, 1707.795
508.0808, 1710.547
508.5629, 1714.189
509.0450, 1719.042
509.5271, 1725.015
510.0092, 1730.803
510.4914, 1736.330
510.9735, 1741.218
511.4556, 1744.066
511.9377, 1745.147
512.4199, 1746.902
512.9020, 1751.422
513.3841, 1757.391
513.8662, 1763.533
514.3483, 1769.901
514.8304, 1775.215
515.3126, 1777.168
515.7947, 1778.052
516.2768, 1780.816
516.7589, 1787.492
517.2410, 1794.934
517.7231, 1802.996
518.2053, 1811.279
518.6874, 1817.999
519.1695, 1820.838
519.6516, 1823.987
520.1337, 1829.123
520.6158, 1837.029
521.0980, 1843.483
521.5801, 1847.889
522.0622, 1851.661
522.5443, 1856.230
523.0264, 1861.690
523.5085, 1867.359
523.9907, 1872.731
524.4728, 1878.679
524.9549, 1888.194
525.4370, 1901.135
525.9191, 1912.849
526.4012, 1920.121
526.8834, 1924.820
527.3655, 1931.080
527.8476, 1938.860
528.3297, 1946.382
528.8118, 1951.538
529.2939, 1955.797
529.7761, 1960.980
530.2582, 1967.594
530.7403, 1974.788
531.2224, 1982.707
531.7045, 1990.703
532.1866, 1997.694
532.6688, 2001.433
533.1509, 2006.122
533.6330, 2013.623
534.1151, 2023.760
534.5972, 2033.051
535.0793, 2040.099
535.5615, 2047.587
536.0436, 2057.143
536.5257, 2070.110
537.0078, 2080.753
537.4899, 2088.902
537.9720, 2095.065
538.4542, 2099.374
538.9363, 2101.794
539.4184, 2103.936
539.9005, 2105.908
540.3826, 2108.153
540.8647, 2111.515
541.3469, 2115.972
541.8290, 2121.207
542.3111, 2128.016
542.7932, 2135.163
543.2753, 2140.476
543.7574, 2143.898
544.2396, 2147.287
544.7217, 2151.399
545.2038, 2156.267
545.6859, 2161.829
546.1680, 2167.518
546.6501, 2174.828
547.1323, 2187.181
547.6144, 2200.878
548.0965, 2209.728
548.5786, 2206.766
549.0607, 2205.543
549.5428, 2208.973
550.0250, 2216.703
550.5071, 2225.366
550.9892, 2236.248
551.4713, 2245.801
551.9534, 2251.408
552.4355, 2252.467
552.9177, 2256.076
553.3998, 2262.509
553.8819, 2270.813
554.3640, 2280.664
554.8461, 2291.691
555.3282, 2301.702
555.8104, 2309.609
556.2925, 2317.000
556.7746, 2325.389
557.2567, 2334.901
557.7388, 2345.980
558.2209, 2360.505
558.7031, 2375.410
559.1852, 2387.658
559.6673, 2397.359
560.1494, 2407.802
560.6315, 2420.690
561.1136, 2434.422
561.5958, 2447.789
562.0779, 2459.485
562.5600, 2473.178
563.0421, 2488.667
563.5242, 2506.354
564.0063, 2527.138
564.4885, 2552.393
564.9706, 2576.809
565.4527, 2598.730
565.9348, 2619.307
566.4169, 2643.243
566.8990, 2670.541
567.3812, 2699.947
567.8633, 2730.583
568.3454, 2762.763
568.8275, 2798.745
569.3096, 2838.234
569.7917, 2881.659
570.2739, 2930.089
570.7560, 2982.026
571.2381, 3034.693
571.7202, 3087.347
572.2023, 3142.688
572.6844, 3200.867
573.1666, 3263.582
573.6487, 3334.597
574.1308, 3418.266
574.6129, 3506.422
575.0950, 3596.630
575.5771, 3688.844
576.0593, 3786.081
576.5414, 3886.098
577.0235, 3992.382
577.5056, 4107.129
577.9877, 4229.895
578.4698, 4361.106
578.9520, 4501.719
579.4341, 4648.313
579.9162, 4799.193
580.3983, 4953.425
580.8804, 5107.260
581.3625, 5258.336
581.8447, 5411.315
582.3268, 5572.679
582.8089, 5739.815
583.2910, 5913.118
583.7731, 6093.510
584.2552, 6277.108
584.7373, 6459.185
585.2194, 6641.195
585.7015, 6828.502
586.1837, 7034.430
586.6658, 7236.369
587.1479, 7425.536
587.6300, 7598.695
588.1121, 7767.927
588.5942, 7939.458
589.0764, 8104.016
589.5585, 8257.063
590.0406, 8405.246
590.5227, 8527.123
591.0048, 8623.570
591.4869, 8692.955
591.9691, 8735.901
592.4512, 8752.831
592.9333, 8728.938
593.4154, 8657.884
593.8975, 8546.061
594.3796, 8404.229
594.8618, 8233.715
595.3439, 8034.600
595.8260, 7794.982
596.3081, 7534.372
596.7902, 7268.636
597.2723, 6998.695
597.7545, 6724.697
598.2366, 6440.523
598.7187, 6159.734
599.2008, 5890.106
599.6829, 5632.391
600.1650, 5386.263
600.6472, 5152.341
601.1293, 4931.971
601.6114, 4728.131
602.0935, 4545.449
602.5756, 4373.201
603.0577, 4208.249
603.5399, 4052.861
604.0220, 3908.759
604.5041, 3777.422
604.9862, 3654.780
605.4683, 3538.947
605.9504, 3430.709
606.4326, 3331.490
606.9147, 3241.456
607.3968, 3157.440
607.8789, 3079.638
608.3610, 3006.258
608.8431, 2936.567
609.3253, 2869.781
609.8074, 2806.474
610.2895, 2745.913
610.7716, 2689.543
611.2537, 2638.096
611.7358, 2595.495
612.2180, 2553.956
612.7001, 2511.827
613.1822, 2470.381
613.6643, 2430.592
614.1464, 2392.750
614.6285, 2357.562
615.1107, 2324.851
615.5928, 2294.833
616.0749, 2268.204
616.5570, 2245.215
617.0391, 2223.505
617.5212, 2202.251
618.0034, 2181.439
618.4855, 2159.676
618.9676, 2136.809
619.4497, 2116.381
619.9318, 2103.991
620.4139, 2094.156
620.8961, 2080.099
621.3782, 2058.930
621.8603, 2038.407
622.3424, 2021.657
622.8245, 2007.309
623.3066, 1993.795
623.7888, 1981.241
624.2709, 1969.042
624.7530, 1956.593
625.2351, 1944.572
625.7172, 1935.215
626.1993, 1929.652
626.6815, 1922.941
627.1636, 1912.922
627.6457, 1900.677
628.1278, 1890.684
628.6099, 1882.945
629.0920, 1876.494
629.5742, 1871.863
630.0563, 1867.745
630.5384, 1861.082
631.0205, 1851.712
631.5026, 1842.866
631.9847, 1837.713
632.4669, 1833.782
632.9490, 1828.384
633.4311, 1820.027
633.9132, 1812.689
634.3953, 1808.295
634.8774, 1805.172
635.3596, 1801.112
635.8417, 1795.064
636.3238, 1789.760
636.8059, 1785.414
637.2880, 1782.008
637.7701, 1780.054
638.2523, 1779.932
638.7344, 1778.175
639.2165, 1772.823
639.6986, 1765.210
640.1807, 1758.606
640.6628, 1753.015
641.1450, 1749.087
641.6271, 1748.807
642.1092, 1749.525
642.5913, 1747.698
643.0734, 1743.051
643.5555, 1739.570
644.0377, 1740.830
644.5198, 1742.963
645.0019, 1743.073
645.4840, 1740.101
645.9661, 1736.408
646.4482, 1731.334
646.9304, 1726.224
647.4125, 1722.414
647.8946, 1719.728
648.3767, 1719.150
648.8588, 1721.656
649.3409, 1725.143
649.8231, 1725.634
650.3052, 1723.298
650.7873, 1719.793
651.2694, 1714.708
651.7515, 1709.724
652.2336, 1707.672
652.7158, 1707.972
653.1979, 1708.403
653.6800, 1707.949
