##NAMES=Thaumasite
##RRUFFID=R060814
##IDEAL CHEMISTRY=Ca_3_Si(OH)_6_(S^6+^O_4_)(CO_3_)&#183;12H_2_O
##LOCALITY=Crestmore Quarry, Riverside County, Jurupa Mountains, California, USA
##OWNER=RRUFF
##SOURCE=Michael Scott
##DESCRIPTION=Mass of colorless acicular crystals associated with afwillite, R080022
##STATUS=The identification of this mineral has been confirmed only by single crystal X-ray diffraction.
##URL=rruff.info/R060814
161.5243, 76.11143
162.0064, 76.67256
162.4885, 77.18328
162.9706, 77.51789
163.4527, 77.71803
163.9349, 77.85143
164.4170, 77.92208
164.8991, 77.96959
165.3812, 78.03089
165.8633, 78.03547
166.3454, 78.22684
166.8276, 78.92134
167.3097, 80.03130
167.7918, 80.89877
168.2739, 81.15691
168.7560, 81.10342
169.2381, 81.07370
169.7203, 81.07176
170.2024, 81.17651
170.6845, 81.55746
171.1666, 82.28896
171.6487, 82.84814
172.1308, 82.87354
172.6130, 82.73492
173.0951, 82.69527
173.5772, 82.83721
174.0593, 83.08550
174.5414, 83.32375
175.0235, 83.57557
175.5057, 83.75710
175.9878, 83.68653
176.4699, 83.61962
176.9520, 83.86583
177.4341, 84.58500
177.9162, 85.55577
178.3984, 86.08355
178.8805, 85.66736
179.3626, 85.41823
179.8447, 85.51925
180.3268, 85.84665
180.8089, 86.27763
181.2911, 86.75347
181.7732, 87.23820
182.2553, 87.52078
182.7374, 87.23550
183.2195, 87.15269
183.7016, 87.60180
184.1838, 88.34956
184.6659, 88.93398
185.1480, 89.03600
185.6301, 88.73721
186.1122, 88.88226
186.5943, 89.86186
187.0765, 90.77625
187.5586, 91.21962
188.0407, 91.28689
188.5228, 91.32994
189.0049, 91.57598
189.4870, 91.99779
189.9692, 92.36777
190.4513, 92.52760
190.9334, 92.76493
191.4155, 93.36590
191.8976, 94.30226
192.3797, 95.16139
192.8619, 95.63949
193.3440, 95.82338
193.8261, 95.99371
194.3082, 96.09901
194.7903, 96.25465
195.2724, 96.58842
195.7546, 97.11147
196.2367, 97.73537
196.7188, 98.62518
197.2009, 99.54440
197.6830, 100.1232
198.1651, 100.0785
198.6473, 99.75114
199.1294, 99.71102
199.6115, 99.99965
200.0936, 100.4959
200.5757, 101.3004
201.0578, 102.2179
201.5400, 103.0075
202.0221, 103.5465
202.5042, 103.8865
202.9863, 104.1566
203.4684, 104.2199
203.9505, 104.4477
204.4327, 105.0093
204.9148, 105.7677
205.3969, 106.5538
205.8790, 107.2950
206.3611, 107.9751
206.8432, 108.5285
207.3254, 108.9444
207.8075, 109.2205
208.2896, 109.3365
208.7717, 109.3248
209.2538, 109.2277
209.7359, 109.0711
210.2181, 108.8538
210.7002, 108.5691
211.1823, 108.4428
211.6644, 107.9991
212.1465, 106.9872
212.6286, 105.6000
213.1108, 104.1448
213.5929, 102.8136
214.0750, 101.6031
214.5571, 100.5119
215.0392, 99.83769
215.5213, 98.95284
216.0035, 97.56846
216.4856, 95.83171
216.9677, 94.08032
217.4498, 92.52055
217.9319, 91.15078
218.4140, 89.80492
218.8962, 88.46329
219.3783, 87.17051
219.8604, 85.86691
220.3425, 84.60795
220.8246, 83.57661
221.3067, 82.94824
221.7889, 82.63889
222.2710, 82.02889
222.7531, 80.79629
223.2352, 79.60732
223.7173, 78.80619
224.1994, 78.34941
224.6816, 78.00970
225.1637, 77.70884
225.6458, 77.40004
226.1279, 76.94627
226.6100, 76.33649
227.0921, 75.59953
227.5743, 74.61526
228.0564, 73.42791
228.5385, 72.47470
229.0206, 72.12856
229.5027, 72.13630
229.9848, 71.92564
230.4670, 71.39520
230.9491, 70.73106
231.4312, 70.03151
231.9133, 69.29403
232.3954, 68.66181
232.8775, 68.28063
233.3597, 68.01435
233.8418, 67.68652
234.3239, 67.25851
234.8060, 66.79012
235.2881, 66.33360
235.7702, 65.88850
236.2524, 65.46140
236.7345, 65.12090
237.2166, 64.76579
237.6987, 64.26962
238.1808, 63.57460
238.6629, 62.87928
239.1451, 62.48948
239.6272, 62.48775
240.1093, 62.34789
240.5914, 61.78654
241.0735, 61.09742
241.5556, 60.44799
242.0378, 59.87340
242.5199, 59.38969
243.0020, 59.06074
243.4841, 58.96906
243.9662, 58.72649
244.4483, 58.08172
244.9305, 57.38125
245.4126, 56.83238
245.8947, 56.48462
246.3768, 56.26277
246.8589, 56.12882
247.3410, 56.20383
247.8232, 55.97334
248.3053, 55.05954
248.7874, 54.08238
249.2695, 53.44039
249.7516, 53.19093
250.2337, 53.09322
250.7159, 52.82649
251.1980, 52.31462
251.6801, 51.83799
252.1622, 51.40232
252.6443, 50.99778
253.1264, 50.61581
253.6086, 50.25655
254.0907, 49.92760
254.5728, 49.64879
255.0549, 49.45099
255.5370, 49.20373
256.0191, 48.86256
256.5013, 48.51621
256.9834, 48.24642
257.4655, 48.03900
257.9476, 47.79340
258.4297, 47.38385
258.9118, 46.73591
259.3940, 46.22639
259.8761, 45.97899
260.3582, 45.73344
260.8403, 45.29421
261.3224, 44.70286
261.8045, 44.17524
262.2867, 43.93034
262.7688, 44.02532
263.2509, 44.02539
263.7330, 43.89900
264.2151, 43.73087
264.6972, 43.54421
265.1794, 43.34845
265.6615, 43.16426
266.1436, 43.02803
266.6257, 42.94896
267.1078, 42.64506
267.5899, 41.81615
268.0721, 41.10163
268.5542, 40.82170
269.0363, 40.89837
269.5184, 41.08242
270.0005, 41.22554
270.4826, 41.32049
270.9648, 41.25692
271.4469, 40.91672
271.9290, 40.57927
272.4111, 40.37809
272.8932, 40.26337
273.3753, 40.09435
273.8575, 39.77677
274.3396, 39.35286
274.8217, 39.04616
275.3038, 38.85595
275.7859, 38.75047
276.2680, 38.80748
276.7502, 38.94082
277.2323, 38.94557
277.7144, 38.69688
278.1965, 38.31521
278.6786, 38.19078
279.1607, 38.51188
279.6429, 38.69776
280.1250, 38.44928
280.6071, 37.97739
281.0892, 37.67397
281.5713, 37.69338
282.0534, 37.89907
282.5356, 38.05101
283.0177, 38.17537
283.4998, 38.19676
283.9819, 38.01537
284.4640, 37.73957
284.9461, 37.55474
285.4283, 37.52439
285.9104, 37.52187
286.3925, 37.31626
286.8746, 36.87373
287.3567, 36.59103
287.8388, 36.69926
288.3210, 36.95144
288.8031, 37.00739
289.2852, 36.79463
289.7673, 36.51249
290.2494, 36.38332
290.7315, 36.39679
291.2137, 36.36917
291.6958, 36.25778
292.1779, 36.10017
292.6600, 35.91183
293.1421, 35.69252
293.6242, 35.51849
294.1064, 35.48958
294.5885, 35.57154
295.0706, 35.57693
295.5527, 35.40025
296.0348, 35.20052
296.5169, 35.14323
296.9991, 35.22461
297.4812, 35.27578
297.9633, 35.17069
298.4454, 34.95796
298.9275, 34.80428
299.4096, 34.74302
299.8918, 34.70976
300.3739, 34.64625
300.8560, 34.56208
301.3381, 34.53871
301.8202, 34.66516
302.3023, 34.83163
302.7845, 34.81122
303.2666, 34.52220
303.7487, 34.24642
304.2308, 34.16966
304.7129, 34.24332
305.1950, 34.29245
305.6772, 34.25154
306.1593, 34.17641
306.6414, 34.13506
307.1235, 34.12075
307.6056, 34.16482
308.0877, 34.37517
308.5699, 34.64918
309.0520, 34.72081
309.5341, 34.48311
310.0162, 34.16389
310.4983, 34.05327
310.9804, 34.11470
311.4626, 34.10042
311.9447, 33.85835
312.4268, 33.51795
312.9089, 33.26155
313.3910, 33.10441
313.8731, 33.04124
314.3553, 33.13743
314.8374, 33.33611
315.3195, 33.45305
315.8016, 33.43835
316.2837, 33.33307
316.7658, 33.11897
317.2480, 32.78984
317.7301, 32.57595
318.2122, 32.69935
318.6943, 33.02122
319.1764, 33.19201
319.6585, 33.10750
320.1407, 32.96614
320.6228, 32.91689
321.1049, 32.94820
321.5870, 32.98394
322.0691, 33.02943
322.5512, 33.02325
323.0334, 32.84111
323.5155, 32.40566
323.9976, 32.04654
324.4797, 32.01355
324.9618, 32.20596
325.4439, 32.31916
325.9261, 32.26689
326.4082, 32.11300
326.8903, 31.87749
327.3724, 31.55248
327.8545, 31.38150
328.3366, 31.57496
328.8188, 31.94333
329.3009, 32.17629
329.7830, 32.21804
330.2651, 32.16556
330.7472, 32.07698
331.2293, 31.96150
331.7115, 31.87294
332.1936, 31.80393
332.6757, 31.77653
333.1578, 31.87908
333.6399, 32.11390
334.1220, 32.22093
334.6042, 31.95920
335.0863, 31.43170
335.5684, 31.06665
336.0505, 30.91903
336.5326, 30.89246
337.0147, 30.98409
337.4969, 31.16437
337.9790, 31.29377
338.4611, 31.29675
338.9432, 31.22376
339.4253, 31.17692
339.9074, 31.12971
340.3896, 31.16399
340.8717, 31.43189
341.3538, 31.79038
341.8359, 31.92804
342.3180, 31.73044
342.8001, 31.38918
343.2823, 31.15685
343.7644, 31.03378
344.2465, 30.95514
344.7286, 30.89508
345.2107, 30.88080
345.6928, 30.96779
346.1750, 31.16256
346.6571, 31.36537
347.1392, 31.48160
347.6213, 31.50721
348.1034, 31.56393
348.5855, 31.74204
349.0677, 31.87598
349.5498, 31.79931
350.0319, 31.55765
350.5140, 31.37472
350.9961, 31.38917
351.4782, 31.56504
351.9604, 31.72674
352.4425, 31.96985
352.9246, 32.09185
353.4067, 31.89211
353.8888, 31.54992
354.3709, 31.41911
354.8531, 31.65108
355.3352, 32.04873
355.8173, 32.22120
356.2994, 31.99648
356.7815, 31.95250
357.2636, 32.32684
357.7458, 32.79942
358.2279, 33.04654
358.7100, 33.01794
359.1921, 32.88602
359.6742, 32.81826
360.1563, 32.81052
360.6385, 32.94101
361.1206, 33.41682
361.6027, 33.82970
362.0848, 33.88677
362.5669, 33.67097
363.0490, 33.49281
363.5312, 33.57763
364.0133, 33.87807
364.4954, 34.00387
364.9775, 33.72334
365.4596, 33.55257
365.9417, 33.69989
366.4239, 33.98503
366.9060, 34.16002
367.3881, 34.12458
367.8702, 33.95442
368.3523, 33.80139
368.8344, 33.65378
369.3166, 33.54798
369.7987, 33.47018
370.2808, 33.43891
370.7629, 33.49202
371.2450, 33.62004
371.7271, 33.76030
372.2093, 33.85076
372.6914, 33.89548
373.1735, 33.86386
373.6556, 33.65461
374.1377, 33.47533
374.6198, 33.45574
375.1020, 33.52246
375.5841, 33.51167
376.0662, 33.30984
376.5483, 32.96380
377.0304, 32.69791
377.5125, 32.52721
377.9947, 32.42682
378.4768, 32.42260
378.9589, 32.46631
379.4410, 32.53196
379.9231, 32.60693
380.4052, 32.64850
380.8874, 32.56882
381.3695, 32.30950
381.8516, 32.12185
382.3337, 32.09352
382.8158, 32.08413
383.2979, 32.00574
383.7801, 31.87059
384.2622, 31.76291
384.7443, 31.77267
385.2264, 31.88677
385.7085, 31.93924
386.1906, 31.90372
386.6728, 31.83965
387.1549, 31.71684
387.6370, 31.59713
388.1191, 31.59094
388.6012, 31.77623
389.0833, 32.03361
389.5655, 32.13338
390.0476, 32.03629
390.5297, 31.96230
391.0118, 32.05009
391.4939, 32.14597
391.9760, 32.08442
392.4582, 31.83935
392.9403, 31.63913
393.4224, 31.70780
393.9045, 32.00167
394.3866, 32.25819
394.8687, 32.45226
395.3509, 32.58152
395.8330, 32.60785
396.3151, 32.56458
396.7972, 32.56286
397.2793, 32.66830
397.7614, 32.82817
398.2436, 32.95297
398.7257, 33.03471
399.2078, 33.18266
399.6899, 33.54255
400.1720, 33.97264
400.6541, 34.15902
401.1363, 33.95190
401.6184, 33.75799
402.1005, 33.84893
402.5826, 34.14309
403.0647, 34.42049
403.5468, 34.61832
404.0290, 34.76591
404.5111, 34.89404
404.9932, 35.00011
405.4753, 35.11589
405.9574, 35.23311
406.4395, 35.37022
406.9217, 35.56658
407.4038, 35.81758
407.8859, 36.04673
408.3680, 36.19263
408.8501, 36.25996
409.3322, 36.32027
409.8144, 36.32854
410.2965, 36.38047
410.7786, 36.52367
411.2607, 36.73102
411.7428, 36.96276
412.2249, 37.20245
412.7071, 37.44476
413.1892, 37.68308
413.6713, 37.97027
414.1534, 38.14496
414.6355, 38.07771
415.1176, 37.99818
415.5998, 38.12659
416.0819, 38.43851
416.5640, 38.69665
417.0461, 38.65720
417.5282, 38.31293
418.0103, 38.21616
418.4925, 38.64294
418.9746, 39.02485
419.4567, 39.25655
419.9388, 39.36343
420.4209, 39.36606
420.9030, 39.27092
421.3852, 39.14823
421.8673, 39.15782
422.3494, 39.37813
422.8315, 39.52925
423.3136, 39.53487
423.7957, 39.50715
424.2779, 39.52781
424.7600, 39.59016
425.2421, 39.61442
425.7242, 39.48259
426.2063, 39.22516
426.6884, 39.16208
427.1706, 39.41319
427.6527, 39.66173
428.1348, 39.70978
428.6169, 39.68560
429.0990, 39.79403
429.5811, 40.14756
430.0633, 40.55017
430.5454, 40.72195
431.0275, 40.65709
431.5096, 40.65294
431.9917, 40.82193
432.4738, 41.05844
432.9560, 41.22010
433.4381, 41.30873
433.9202, 41.47808
434.4023, 41.89126
434.8844, 42.40596
435.3665, 42.76112
435.8487, 42.92543
436.3308, 43.00637
436.8129, 43.00330
437.2950, 42.98154
437.7771, 43.18161
438.2592, 43.86777
438.7414, 44.49987
439.2235, 44.69372
439.7056, 44.61002
440.1877, 44.63385
440.6698, 44.90687
441.1519, 45.33482
441.6341, 45.77763
442.1162, 46.23146
442.5983, 46.71352
443.0804, 47.28244
443.5625, 47.83578
444.0446, 48.31573
444.5268, 48.71112
445.0089, 49.03185
445.4910, 49.28474
445.9731, 49.46894
446.4552, 49.57917
446.9373, 49.47226
447.4195, 49.46468
447.9016, 49.68748
448.3837, 49.99401
448.8658, 50.21985
449.3479, 50.31608
449.8300, 50.35102
450.3122, 50.43470
450.7943, 50.61150
451.2764, 50.66907
451.7585, 50.52866
452.2406, 50.33861
452.7227, 50.10643
453.2049, 49.86968
453.6870, 49.70803
454.1691, 49.69771
454.6512, 49.75138
455.1333, 49.65022
455.6154, 49.38606
456.0976, 48.98854
456.5797, 48.34460
457.0618, 47.63947
457.5439, 47.01281
458.0260, 46.48772
458.5081, 45.96029
458.9903, 45.32668
459.4724, 44.62673
459.9545, 44.00496
460.4366, 43.49077
460.9187, 43.01257
461.4008, 42.51488
461.8830, 42.01131
462.3651, 41.54270
462.8472, 41.17529
463.3293, 40.77966
463.8114, 40.22399
464.2935, 39.55029
464.7756, 38.91193
465.2578, 38.36921
465.7399, 37.87554
466.2220, 37.34818
466.7041, 36.74849
467.1862, 36.26654
467.6683, 36.06479
468.1505, 35.88599
468.6326, 35.46976
469.1147, 34.84706
469.5968, 34.26659
470.0789, 33.90248
470.5610, 33.72772
471.0432, 33.56664
471.5253, 33.44542
472.0074, 33.30398
472.4895, 33.12782
472.9716, 32.93267
473.4537, 32.71498
473.9359, 32.48411
474.4180, 32.28910
474.9001, 32.20506
475.3822, 32.25207
475.8643, 32.24907
476.3464, 32.22786
476.8286, 32.11323
477.3107, 31.79419
477.7928, 31.38624
478.2749, 31.07514
478.7570, 30.94971
479.2391, 30.93065
479.7213, 30.92080
480.2034, 30.93218
480.6855, 30.84078
481.1676, 30.52754
481.6497, 30.18626
482.1318, 29.99038
482.6140, 29.92313
483.0961, 29.84092
483.5782, 29.66116
484.0603, 29.43014
484.5424, 29.19758
485.0245, 28.96387
485.5067, 28.79808
485.9888, 28.76484
486.4709, 28.81218
486.9530, 28.80384
487.4351, 28.73270
487.9172, 28.62757
488.3994, 28.42703
488.8815, 28.22738
489.3636, 28.20041
489.8457, 28.36814
490.3278, 28.54095
490.8099, 28.52907
491.2921, 28.32264
491.7742, 28.18169
492.2563, 28.15348
492.7384, 28.12558
493.2205, 28.02081
493.7026, 27.90997
494.1848, 27.93263
494.6669, 28.13255
495.1490, 28.35629
495.6311, 28.32819
496.1132, 27.91954
496.5953, 27.67691
497.0775, 27.79695
497.5596, 27.89817
498.0417, 27.76279
498.5238, 27.49343
499.0059, 27.33477
499.4880, 27.43594
499.9702, 27.67970
500.4523, 27.84079
500.9344, 27.91204
501.4165, 27.95093
501.8986, 27.99271
502.3807, 27.98588
502.8629, 27.83246
503.3450, 27.54379
503.8271, 27.36268
504.3092, 27.50891
504.7913, 27.78915
505.2734, 27.90070
505.7556, 27.82809
506.2377, 27.69846
506.7198, 27.54863
507.2019, 27.41428
507.6840, 27.41165
508.1661, 27.62187
508.6483, 27.79115
509.1304, 27.84281
509.6125, 27.82471
510.0946, 27.78107
510.5767, 27.72320
511.0588, 27.27099
511.5410, 27.75019
512.0231, 28.02317
512.5052, 28.10101
512.9873, 27.39926
513.4694, 27.70420
513.9515, 27.60569
514.4337, 27.49065
514.9158, 27.93727
515.3979, 27.34891
515.8800, 27.78662
516.3621, 27.81474
516.8442, 28.03032
517.3264, 27.83998
517.8085, 27.77501
518.2906, 28.24481
518.7727, 28.23523
519.2548, 27.93945
519.7369, 27.69532
520.2191, 27.61516
520.7012, 27.62424
521.1833, 27.64439
521.6654, 27.67944
522.1475, 27.76692
522.6296, 27.93278
523.1118, 28.11896
523.5939, 28.27627
524.0760, 28.40469
524.5581, 28.47902
525.0402, 28.42520
525.5223, 28.37721
526.0045, 28.46574
526.4866, 28.64250
526.9687, 28.76190
527.4508, 28.75895
527.9329, 28.67784
528.4150, 28.58950
528.8972, 28.43367
529.3793, 28.42542
529.8614, 28.74158
530.3435, 29.03267
530.8256, 29.03640
531.3077, 28.85141
531.7899, 28.76632
532.2720, 28.96299
532.7541, 29.31426
533.2362, 29.47392
533.7183, 29.35549
534.2004, 29.29263
534.6826, 29.39739
535.1647, 29.52951
535.6468, 29.58929
536.1289, 29.59361
536.6110, 29.64659
537.0931, 29.88286
537.5753, 30.17061
538.0574, 30.24503
538.5395, 30.09867
539.0216, 29.89856
539.5037, 29.64173
539.9858, 29.43729
540.4680, 29.50964
540.9501, 29.91950
541.4322, 30.21190
541.9143, 30.12943
542.3964, 29.95639
542.8785, 30.01032
543.3607, 30.27179
543.8428, 30.49771
544.3249, 30.52944
544.8070, 30.41503
545.2891, 30.33075
545.7712, 30.25519
546.2534, 30.24543
546.7355, 30.42349
547.2176, 30.57598
547.6997, 30.49109
548.1818, 30.20664
548.6639, 29.95278
549.1461, 29.92949
549.6282, 30.06542
550.1103, 30.05225
550.5924, 29.82986
551.0745, 29.61398
551.5566, 29.47922
552.0388, 29.36928
552.5209, 29.21990
553.0030, 29.03012
553.4851, 28.90447
553.9672, 28.96265
554.4493, 29.10264
554.9315, 29.14556
555.4136, 29.08220
555.8957, 28.96053
556.3778, 28.79331
556.8599, 28.59600
557.3420, 28.40900
557.8242, 28.22161
558.3063, 28.06604
558.7884, 27.93446
559.2705, 27.84743
559.7526, 27.84503
560.2347, 27.91395
560.7169, 27.98900
561.1990, 28.02166
561.6811, 28.02455
562.1632, 28.06264
562.6453, 28.21232
563.1274, 28.26029
563.6096, 28.07304
564.0917, 27.87442
564.5738, 27.87547
565.0559, 28.04517
565.5380, 28.13983
566.0201, 27.92093
566.5023, 27.53503
566.9844, 27.38028
567.4665, 27.48618
567.9486, 27.64039
568.4307, 27.83546
568.9128, 27.97530
569.3950, 27.89515
569.8771, 27.56885
570.3592, 27.33877
570.8413, 27.34930
571.3234, 27.48810
571.8055, 27.70511
572.2877, 27.96108
572.7698, 28.12030
573.2519, 28.10624
573.7340, 27.95196
574.2161, 27.73290
574.6982, 27.30954
575.1804, 27.07122
575.6625, 27.06792
576.1446, 27.19431
576.6267, 27.48519
577.1088, 27.85030
577.5909, 28.09018
578.0731, 28.06876
578.5552, 27.90628
579.0373, 27.87232
579.5194, 27.99080
580.0015, 28.10427
580.4836, 28.17681
580.9658, 28.24130
581.4479, 28.33607
581.9300, 28.44918
582.4121, 28.52769
582.8942, 28.51844
583.3763, 28.49450
583.8585, 28.53602
584.3406, 28.62582
584.8227, 28.70580
585.3048, 28.76002
585.7869, 28.77627
586.2690, 28.72183
586.7512, 28.56252
587.2333, 28.51310
587.7154, 28.65032
588.1975, 28.80640
588.6796, 28.91835
589.1617, 28.99976
589.6439, 29.06608
590.1260, 29.12555
590.6081, 29.21436
591.0902, 29.40939
591.5723, 29.73078
592.0544, 29.96250
592.5366, 30.09704
593.0187, 30.14112
593.5008, 30.01591
593.9829, 29.83732
594.4650, 29.79741
594.9471, 29.97531
595.4293, 30.16381
595.9114, 30.18557
596.3935, 30.10366
596.8756, 30.05575
597.3577, 30.06198
597.8398, 30.11377
598.3220, 30.20490
598.8041, 30.33631
599.2862, 30.51799
599.7683, 30.86778
600.2504, 31.10494
600.7325, 31.10149
601.2147, 31.02339
601.6968, 31.02989
602.1789, 31.12928
602.6610, 31.23428
603.1431, 31.28461
603.6252, 31.27495
604.1074, 31.15322
604.5895, 30.83535
605.0716, 30.62536
605.5537, 30.65834
606.0358, 30.78497
606.5179, 30.92147
607.0001, 31.05883
607.4822, 31.19046
607.9643, 31.35492
608.4464, 31.48429
608.9285, 31.44744
609.4106, 31.27797
609.8928, 31.17847
610.3749, 31.23116
610.8570, 31.37214
611.3391, 31.51882
611.8212, 31.68580
612.3033, 31.79019
612.7855, 31.80688
613.2676, 31.79096
613.7497, 31.73288
614.2318, 31.66899
614.7139, 31.65270
615.1960, 31.70288
615.6782, 31.79570
616.1603, 31.93796
616.6424, 32.13866
617.1245, 32.15108
617.6066, 31.81405
618.0887, 31.56627
618.5709, 31.72324
619.0530, 32.06291
619.5351, 32.28733
620.0172, 32.33651
620.4993, 32.33346
620.9814, 32.33357
621.4636, 32.33241
621.9457, 32.31287
622.4278, 32.27731
622.9099, 32.26472
623.3920, 32.30117
623.8741, 32.37846
624.3563, 32.46638
624.8384, 32.52859
625.3205, 32.65904
625.8026, 32.94942
626.2847, 33.22676
626.7668, 33.38631
627.2490, 33.43507
627.7311, 33.41271
628.2132, 33.32586
628.6953, 33.22924
629.1774, 33.22062
629.6595, 33.30207
630.1417, 33.42753
630.6238, 33.62563
631.1059, 33.80460
631.5880, 33.84828
632.0701, 33.80266
632.5522, 33.81314
633.0344, 33.91590
633.5165, 34.06127
633.9986, 34.23677
634.4807, 34.43502
634.9628, 34.63852
635.4449, 34.84675
635.9271, 35.09062
636.4092, 35.40506
636.8913, 35.78070
637.3734, 36.09992
637.8555, 36.35648
638.3376, 36.56273
638.8198, 36.57133
639.3019, 36.64912
639.7840, 37.05409
640.2661, 37.75525
640.7482, 38.47843
641.2303, 39.07169
641.7125, 39.57711
642.1946, 40.01630
642.6767, 40.40128
643.1588, 40.89984
643.6409, 41.59882
644.1230, 42.33998
644.6052, 42.94726
645.0873, 43.40863
645.5694, 43.74097
646.0515, 43.73622
646.5336, 43.83785
647.0157, 44.28170
647.4979, 44.90955
647.9800, 45.53328
648.4621, 46.09349
648.9442, 46.58889
649.4263, 47.00232
649.9084, 47.34838
650.3906, 47.74933
650.8727, 48.23437
651.3548, 48.70207
651.8369, 49.15211
652.3190, 49.54346
652.8011, 49.80089
653.2833, 49.92187
653.7654, 50.08168
654.2475, 50.58723
654.7296, 50.97215
655.2117, 50.65985
655.6938, 49.83213
656.1760, 49.10923
656.6581, 48.73597
657.1402, 48.49353
