##NAMES=Thaumasite
##RRUFFID=R060296
##IDEAL CHEMISTRY=Ca_3_Si(OH)_6_(S^6+^O_4_)(CO_3_)&#183;12H_2_O
##LOCALITY=N'Chwaning II mine, Kalahari manganese field, Cape Province, South Africa
##OWNER=RRUFF
##SOURCE=Herb Obodda
##DESCRIPTION=Pale blue hexagonal prism
##STATUS=The identification of this mineral has been confirmed by X-ray diffraction.
##URL=rruff.info/R060296
129.5436, 21.94179
130.0258, 24.37333
130.5079, 28.10377
130.9900, 30.36399
131.4721, 31.13602
131.9542, 32.01465
132.4363, 34.69337
132.9185, 38.89658
133.4006, 42.68154
133.8827, 45.28217
134.3648, 47.09039
134.8469, 49.62661
135.3290, 52.90076
135.8112, 56.87892
136.2933, 61.44830
136.7754, 66.61783
137.2575, 72.51852
137.7396, 79.42463
138.2217, 87.19212
138.7039, 94.95809
139.1860, 102.7588
139.6681, 110.5200
140.1502, 118.3680
140.6323, 126.3390
141.1144, 134.0163
141.5966, 141.1066
142.0787, 147.3184
142.5608, 154.2198
143.0429, 162.3312
143.5250, 170.8247
144.0071, 177.7510
144.4893, 182.7304
144.9714, 186.6581
145.4535, 189.5932
145.9356, 190.0845
146.4177, 192.6176
146.8998, 198.0221
147.3820, 205.6102
147.8641, 212.7755
148.3462, 218.9651
148.8283, 225.1612
149.3104, 231.9280
149.7925, 238.8177
150.2747, 246.8462
150.7568, 256.8216
151.2389, 268.4792
151.7210, 278.5219
152.2031, 287.2777
152.6852, 294.1449
153.1674, 298.8342
153.6495, 298.5509
154.1316, 298.9315
154.6137, 301.9034
155.0958, 307.5711
155.5779, 310.2140
156.0601, 306.7311
156.5422, 301.0397
157.0243, 296.5236
157.5064, 294.9560
157.9885, 293.5280
158.4706, 291.2383
158.9528, 287.8681
159.4349, 285.1646
159.9170, 283.9863
160.3991, 283.5901
160.8812, 283.1169
161.3633, 280.5033
161.8455, 279.2149
162.3276, 281.5032
162.8097, 288.3839
163.2918, 294.5973
163.7739, 296.5999
164.2560, 296.4237
164.7382, 295.9214
165.2203, 298.9285
165.7024, 303.6031
166.1845, 308.6905
166.6666, 314.3488
167.1487, 319.3991
167.6309, 322.3462
168.1130, 324.2545
168.5951, 327.3203
169.0772, 333.7761
169.5593, 341.1913
170.0414, 347.4782
170.5236, 352.0728
171.0057, 356.0510
171.4878, 360.3840
171.9699, 364.8484
172.4520, 368.6647
172.9341, 371.5180
173.4163, 373.5008
173.8984, 374.6436
174.3805, 374.7287
174.8626, 374.3648
175.3447, 374.3984
175.8268, 374.6259
176.3090, 374.0800
176.7911, 370.2154
177.2732, 365.4657
177.7553, 364.0445
178.2374, 368.2848
178.7195, 374.8307
179.2017, 379.8112
179.6838, 383.3425
180.1659, 385.9991
180.6480, 387.0197
181.1301, 387.4861
181.6122, 390.1032
182.0944, 396.6005
182.5765, 404.9309
183.0586, 412.2847
183.5407, 418.5473
184.0228, 423.4660
184.5049, 425.6740
184.9871, 426.0038
185.4692, 427.4348
185.9513, 431.7009
186.4334, 437.3812
186.9155, 441.1731
187.3976, 442.9717
187.8798, 443.9416
188.3619, 445.1964
188.8440, 446.6743
189.3261, 447.8949
189.8082, 448.7708
190.2903, 449.2750
190.7725, 449.2503
191.2546, 448.6476
191.7367, 447.7739
192.2188, 446.5130
192.7009, 444.9262
193.1830, 444.5146
193.6652, 446.3023
194.1473, 449.9056
194.6294, 452.9497
195.1115, 455.4704
195.5936, 457.3341
196.0757, 457.9494
196.5579, 457.2563
197.0400, 457.0825
197.5221, 458.6353
198.0042, 461.7247
198.4863, 463.3969
198.9684, 463.4587
199.4506, 462.5171
199.9327, 461.0614
200.4148, 458.9315
200.8969, 457.6412
201.3790, 458.3081
201.8611, 461.0373
202.3433, 462.2073
202.8254, 461.2529
203.3075, 459.6279
203.7896, 459.8607
204.2717, 462.1823
204.7538, 465.0974
205.2360, 467.9668
205.7181, 470.7277
206.2002, 473.9991
206.6823, 477.8774
207.1644, 482.1403
207.6465, 486.2328
208.1287, 489.8542
208.6108, 494.2128
209.0929, 500.0304
209.5750, 507.6461
210.0571, 515.0775
210.5392, 522.3852
211.0214, 529.5284
211.5035, 536.4344
211.9856, 543.0305
212.4677, 549.4425
212.9498, 556.1576
213.4319, 563.8062
213.9140, 568.8260
214.3962, 570.8152
214.8783, 570.4074
215.3604, 569.0187
215.8425, 566.6693
216.3246, 563.2545
216.8067, 558.5080
217.2889, 552.0820
217.7710, 545.6478
218.2531, 539.2266
218.7352, 532.8085
219.2173, 526.1542
219.6994, 518.9699
220.1816, 512.0449
220.6637, 505.7022
221.1458, 500.2248
221.6279, 494.3371
222.1100, 487.3076
222.5921, 480.1212
223.0743, 475.3439
223.5564, 474.0031
224.0385, 473.3448
224.5206, 472.0623
225.0027, 469.5847
225.4848, 468.0282
225.9670, 467.6865
226.4491, 468.2145
226.9312, 468.6328
227.4133, 468.4875
227.8954, 468.9660
228.3775, 470.6093
228.8597, 473.6567
229.3418, 477.3204
229.8239, 481.5967
230.3060, 486.4732
230.7881, 491.9315
231.2702, 498.7050
231.7524, 505.0251
232.2345, 509.9124
232.7166, 512.6782
233.1987, 515.8156
233.6808, 519.6467
234.1629, 523.7599
234.6451, 527.1160
235.1272, 529.4951
235.6093, 531.4308
236.0914, 533.0350
236.5735, 533.7914
237.0556, 535.5266
237.5378, 538.8832
238.0199, 543.0552
238.5020, 545.8864
238.9841, 546.6035
239.4662, 547.1949
239.9483, 548.5436
240.4305, 551.0348
240.9126, 553.3386
241.3947, 555.3967
241.8768, 557.2755
242.3589, 559.2404
242.8410, 561.7963
243.3232, 563.6451
243.8053, 564.3376
244.2874, 564.1732
244.7695, 562.0135
245.2516, 557.2973
245.7337, 550.8038
246.2159, 544.2491
246.6980, 537.7728
247.1801, 531.0163
247.6622, 523.9632
248.1443, 517.0905
248.6264, 508.4604
249.1086, 497.5575
249.5907, 485.1127
250.0728, 472.3114
250.5549, 457.9644
251.0370, 445.2777
251.5191, 436.0530
252.0013, 432.2387
252.4834, 425.3719
252.9655, 413.8876
253.4476, 400.3495
253.9297, 389.7045
254.4118, 383.4437
254.8940, 377.4893
255.3761, 370.4301
255.8582, 361.9673
256.3403, 353.4004
256.8224, 344.5390
257.3046, 335.7156
257.7867, 327.6963
258.2688, 320.6182
258.7509, 313.9316
259.2330, 307.6003
259.7151, 301.6684
260.1973, 295.5991
260.6794, 289.4069
261.1615, 283.1955
261.6436, 277.1171
262.1257, 270.7406
262.6078, 265.4754
263.0900, 262.3228
263.5721, 261.6632
264.0542, 258.8616
264.5363, 252.9684
265.0184, 246.0323
265.5005, 240.4779
265.9827, 236.6586
266.4648, 233.3296
266.9469, 230.2461
267.4290, 227.4214
267.9111, 224.8173
268.3932, 222.7785
268.8754, 220.4485
269.3575, 216.4394
269.8396, 209.9051
270.3217, 204.7379
270.8038, 202.3583
271.2859, 202.5547
271.7681, 201.4596
272.2502, 198.7710
272.7323, 195.4255
273.2144, 192.3002
273.6965, 189.3282
274.1786, 186.8842
274.6608, 185.1977
275.1429, 184.1366
275.6250, 182.6803
276.1071, 180.7829
276.5892, 178.6335
277.0714, 176.3446
277.5535, 173.8599
278.0356, 171.6404
278.5177, 169.7397
278.9998, 168.1763
279.4819, 167.0915
279.9641, 166.5379
280.4462, 166.2065
280.9283, 166.1730
281.4104, 166.4831
281.8925, 165.5740
282.3746, 162.7499
282.8568, 158.9026
283.3389, 156.5834
283.8210, 155.8967
284.3031, 155.9153
284.7852, 156.2681
285.2673, 156.9124
285.7495, 157.0863
286.2316, 156.5433
286.7137, 155.6990
287.1958, 155.7285
287.6779, 156.6774
288.1600, 157.0203
288.6422, 155.1335
289.1243, 151.4420
289.6064, 149.2341
290.0885, 148.9433
290.5706, 149.7073
291.0527, 150.4126
291.5349, 151.0450
292.0170, 151.3747
292.4991, 151.2275
292.9812, 150.6684
293.4633, 149.8643
293.9454, 148.7727
294.4276, 147.6410
294.9097, 146.6698
295.3918, 145.8939
295.8739, 145.5284
296.3560, 145.9859
296.8381, 146.8991
297.3203, 147.4366
297.8024, 147.5750
298.2845, 147.3835
298.7666, 146.7893
299.2487, 145.8964
299.7308, 145.0068
300.2130, 144.1533
300.6951, 143.4131
301.1772, 142.7216
301.6593, 142.0807
302.1414, 142.0680
302.6235, 143.8913
303.1057, 146.6882
303.5878, 148.6793
304.0699, 149.1378
304.5520, 148.6359
305.0341, 147.4455
305.5162, 145.6764
305.9984, 144.2152
306.4805, 143.7864
306.9626, 144.0493
307.4447, 144.6020
307.9268, 145.6558
308.4089, 146.5376
308.8911, 146.6230
309.3732, 146.0117
309.8553, 145.1184
310.3374, 143.9067
310.8195, 142.6588
311.3016, 141.6289
311.7838, 140.7795
312.2659, 140.3499
312.7480, 140.4745
313.2301, 141.1460
313.7122, 142.3392
314.1943, 144.8571
314.6765, 147.3866
315.1586, 148.9145
315.6407, 149.0674
316.1228, 149.0321
316.6049, 149.0739
317.0870, 149.3331
317.5692, 150.0346
318.0513, 152.0408
318.5334, 153.8733
319.0155, 154.6595
319.4976, 154.1823
319.9797, 153.7807
320.4619, 153.6736
320.9440, 153.9467
321.4261, 154.6930
321.9082, 157.1990
322.3903, 158.9644
322.8724, 158.7551
323.3546, 156.5014
323.8367, 154.9096
324.3188, 154.6324
324.8009, 155.1315
325.2830, 155.9946
325.7651, 158.1413
326.2473, 159.5830
326.7294, 159.7396
327.2115, 158.7779
327.6936, 158.0136
328.1757, 157.6347
328.6578, 157.3965
329.1400, 157.1833
329.6221, 157.2009
330.1042, 156.9608
330.5863, 156.2357
331.0684, 155.2393
331.5505, 154.6221
332.0327, 154.6196
332.5148, 154.7065
332.9969, 154.6655
333.4790, 154.3931
333.9611, 154.3286
334.4432, 154.8522
334.9254, 155.3603
335.4075, 154.6424
335.8896, 151.8091
336.3717, 149.5591
336.8538, 149.0276
337.3359, 150.4659
337.8180, 150.7486
338.3001, 149.4682
338.7823, 147.6625
339.2644, 146.6751
339.7465, 146.8226
340.2286, 146.3085
340.7107, 144.3574
341.1928, 141.2954
341.6750, 139.7039
342.1571, 139.7867
342.6392, 140.4734
343.1213, 140.8735
343.6034, 140.9736
344.0855, 141.4256
344.5677, 142.4950
345.0498, 143.8059
345.5319, 144.3707
346.0140, 144.1713
346.4961, 143.7417
346.9782, 143.2630
347.4604, 142.7991
347.9425, 142.8020
348.4246, 143.4602
348.9067, 144.1549
349.3888, 143.7564
349.8709, 142.4761
350.3531, 141.4801
350.8352, 141.3070
351.3173, 141.8269
351.7994, 143.1340
352.2815, 145.3193
352.7636, 147.1567
353.2458, 147.0080
353.7279, 145.6297
354.2100, 144.6543
354.6921, 144.7893
355.1742, 145.5618
355.6563, 146.7682
356.1385, 148.3361
356.6206, 149.5840
357.1027, 149.8350
357.5848, 149.5775
358.0669, 149.3549
358.5490, 149.1486
359.0312, 149.2483
359.5133, 150.0530
359.9954, 151.3575
360.4775, 152.5338
360.9596, 153.5349
361.4417, 154.1349
361.9239, 154.0384
362.4060, 152.8613
362.8881, 151.9881
363.3702, 152.1264
363.8523, 152.8581
364.3344, 153.5419
364.8166, 153.9597
365.2987, 154.3381
365.7808, 154.7556
366.2629, 155.2290
366.7450, 155.6829
367.2271, 156.2717
367.7093, 156.7581
368.1914, 156.9335
368.6735, 155.9505
369.1556, 155.5864
369.6377, 156.7544
370.1198, 159.1513
370.6020, 159.9284
371.0841, 157.5854
371.5662, 155.0127
372.0483, 153.7624
372.5304, 154.3238
373.0125, 155.3264
373.4947, 157.1254
373.9768, 159.2032
374.4589, 160.2731
374.9410, 159.8745
375.4231, 159.4105
375.9052, 159.3907
376.3874, 159.8538
376.8695, 160.5320
377.3516, 161.5690
377.8337, 162.5921
378.3158, 163.1047
378.7979, 163.0423
379.2801, 162.9579
379.7622, 162.9766
380.2443, 163.0938
380.7264, 163.1802
381.2085, 163.1775
381.6906, 163.5615
382.1728, 165.0410
382.6549, 167.4155
383.1370, 169.3333
383.6191, 170.5767
384.1012, 171.2767
384.5833, 171.4551
385.0655, 171.1866
385.5476, 171.0340
386.0297, 170.9379
386.5118, 171.2657
386.9939, 173.0568
387.4760, 176.6009
387.9582, 180.0991
388.4403, 181.6638
388.9224, 181.9596
389.4045, 182.3660
389.8866, 183.0288
390.3687, 184.3468
390.8509, 187.1035
391.3330, 191.1366
391.8151, 194.8350
392.2972, 197.2325
392.7793, 198.8017
393.2614, 199.9016
393.7436, 199.7816
394.2257, 200.3922
394.7078, 202.9438
395.1899, 206.8882
395.6720, 210.7865
396.1541, 214.9837
396.6363, 218.3979
397.1184, 220.2326
397.6005, 219.6966
398.0826, 219.8408
398.5647, 220.7193
399.0468, 222.6565
399.5290, 226.0457
400.0111, 232.8154
400.4932, 238.9913
400.9753, 243.8015
401.4574, 247.2657
401.9395, 250.4911
402.4217, 252.9363
402.9038, 255.7342
403.3859, 259.7890
403.8680, 265.9236
404.3501, 271.3510
404.8322, 275.6755
405.3144, 279.2499
405.7965, 282.6020
406.2786, 285.3590
406.7607, 289.1916
407.2428, 295.5629
407.7249, 304.6380
408.2071, 311.1737
408.6892, 314.6953
409.1713, 317.1955
409.6534, 321.2843
410.1355, 326.8565
410.6176, 332.0536
411.0998, 336.1737
411.5819, 339.7106
412.0640, 343.9376
412.5461, 348.7943
413.0282, 353.6746
413.5103, 358.5584
413.9925, 363.0153
414.4746, 366.0737
414.9567, 367.3591
415.4388, 367.8643
415.9209, 368.4013
416.4030, 368.9639
416.8852, 369.5523
417.3673, 371.1586
417.8494, 372.1310
418.3315, 370.4633
418.8136, 366.0223
419.2957, 362.0435
419.7779, 361.3143
420.2600, 361.5611
420.7421, 360.5207
421.2242, 356.4039
421.7063, 352.0836
422.1884, 348.1080
422.6706, 344.5756
423.1527, 341.6934
423.6348, 340.5609
424.1169, 339.2942
424.5990, 336.8191
425.0811, 331.9832
425.5633, 328.4660
426.0454, 327.0875
426.5275, 326.7906
427.0096, 326.2068
427.4917, 324.7654
427.9738, 323.9319
428.4560, 324.2054
428.9381, 325.5243
429.4202, 326.3862
429.9023, 326.5644
430.3844, 326.6811
430.8665, 327.0041
431.3487, 327.4014
431.8308, 328.9334
432.3129, 331.9804
432.7950, 335.8141
433.2771, 338.7077
433.7592, 340.5800
434.2414, 342.8810
434.7235, 346.3300
435.2056, 350.7533
435.6877, 355.6153
436.1698, 360.9272
436.6519, 366.2680
437.1341, 370.7744
437.6162, 374.8862
438.0983, 379.9798
438.5804, 386.9079
439.0625, 394.2730
439.5446, 400.2372
440.0268, 405.1909
440.5089, 410.5558
440.9910, 417.5123
441.4731, 425.0363
441.9552, 432.2892
442.4373, 439.0282
442.9195, 445.9287
443.4016, 453.9085
443.8837, 462.0477
444.3658, 469.2273
444.8479, 474.0876
445.3300, 478.9783
445.8122, 484.9318
446.2943, 491.7520
446.7764, 498.0432
447.2585, 503.3063
447.7406, 508.2106
448.2227, 513.2337
448.7049, 519.4200
449.1870, 523.6025
449.6691, 524.8795
450.1512, 524.5795
450.6333, 524.8997
451.1154, 526.6768
451.5976, 527.2414
452.0797, 525.5867
452.5618, 521.8823
453.0439, 519.1216
453.5260, 518.1042
454.0081, 515.7271
454.4903, 508.9725
454.9724, 497.9581
455.4545, 486.6605
455.9366, 475.5021
456.4187, 464.5733
456.9008, 454.7446
457.3830, 445.6742
457.8651, 435.8571
458.3472, 423.4052
458.8293, 409.9494
459.3114, 398.2045
459.7935, 388.2839
460.2757, 379.0654
460.7578, 370.1446
461.2399, 361.3387
461.7220, 352.3561
462.2041, 342.6739
462.6862, 333.3778
463.1684, 324.9869
463.6505, 317.4522
464.1326, 310.8665
464.6147, 305.4982
465.0968, 300.8510
465.5789, 297.0259
466.0611, 294.1559
466.5432, 290.9069
467.0253, 286.4207
467.5074, 281.7881
467.9895, 277.9356
468.4716, 274.5773
468.9538, 272.3907
469.4359, 271.8600
469.9180, 272.5285
470.4001, 273.0099
470.8822, 273.4000
471.3643, 273.4253
471.8465, 272.8404
472.3286, 271.5505
472.8107, 270.6164
473.2928, 269.9647
473.7749, 269.8731
474.2570, 270.9904
474.7392, 273.3061
475.2213, 275.2504
475.7034, 276.7278
476.1855, 277.3478
476.6676, 275.5682
477.1497, 271.6659
477.6319, 268.3565
478.1140, 268.0518
478.5961, 269.1183
479.0782, 268.6780
479.5603, 266.4505
480.0424, 263.9747
480.5246, 262.3089
481.0067, 261.2292
481.4888, 260.4346
481.9709, 260.2640
482.4530, 259.8388
482.9352, 258.2350
483.4173, 255.9234
483.8994, 254.3943
484.3815, 255.7954
484.8636, 256.7412
485.3457, 255.2466
485.8279, 250.2651
486.3100, 246.3010
486.7921, 244.2400
487.2742, 243.0896
487.7563, 242.0078
488.2384, 241.0526
488.7206, 240.1004
489.2027, 239.3751
489.6848, 238.6115
490.1669, 236.6521
490.6490, 233.0718
491.1311, 229.6432
491.6133, 227.3326
492.0954, 226.1108
492.5775, 224.8036
493.0596, 223.3961
493.5417, 222.0011
494.0238, 221.0348
494.5060, 220.2847
494.9881, 218.5313
495.4702, 214.8010
495.9523, 211.0218
496.4344, 210.4469
496.9165, 212.3931
497.3987, 214.2888
497.8808, 214.8389
498.3629, 214.5851
498.8450, 214.0279
499.3271, 213.2041
499.8092, 211.9840
500.2914, 209.3202
500.7735, 206.6934
501.2556, 205.4597
501.7377, 207.4972
502.2198, 209.1182
502.7019, 209.2786
503.1841, 208.4317
503.6662, 207.8264
504.1483, 207.7397
504.6304, 207.6968
505.1125, 207.3874
505.5946, 206.7081
506.0768, 207.2543
506.5589, 209.9858
507.0410, 212.5158
507.5231, 212.4194
508.0052, 209.0790
508.4873, 207.3586
508.9695, 208.1826
509.4516, 210.2807
509.9337, 211.4195
510.4158, 211.6293
510.8979, 211.4737
511.3800, 211.0002
511.8622, 210.3890
512.3443, 209.9517
512.8264, 209.6998
513.3085, 209.8035
513.7906, 210.7671
514.2728, 212.0232
514.7549, 212.8500
515.2370, 213.0999
515.7191, 212.9414
516.2012, 211.7304
516.6833, 210.3431
517.1655, 210.1028
517.6476, 212.8202
518.1297, 215.3830
518.6118, 216.9562
519.0939, 217.5062
519.5760, 217.0173
520.0582, 213.9888
520.5403, 211.2012
521.0224, 209.9142
521.5045, 210.6429
521.9866, 211.3631
522.4688, 212.1236
522.9509, 212.8185
523.4330, 213.3331
523.9151, 213.6613
524.3972, 213.8444
524.8793, 213.9176
525.3615, 213.8254
525.8436, 213.1333
526.3257, 211.8572
526.8078, 211.1412
527.2899, 212.1541
527.7720, 214.1216
528.2542, 215.3391
528.7363, 215.7289
529.2184, 215.5514
529.7005, 214.5180
530.1826, 213.2108
530.6647, 212.4787
531.1469, 212.9504
531.6290, 213.3974
532.1111, 212.7161
532.5932, 211.5468
533.0753, 211.1956
533.5574, 213.2979
534.0396, 215.0658
534.5217, 215.2465
535.0038, 213.6783
535.4859, 212.8118
535.9680, 213.0483
536.4501, 213.6607
536.9323, 214.3364
537.4144, 215.3663
537.8965, 215.4795
538.3786, 214.1017
538.8607, 212.5470
539.3428, 213.0881
539.8250, 215.9028
540.3071, 218.5020
540.7892, 220.2209
541.2713, 221.2209
541.7534, 221.8978
542.2355, 222.2197
542.7177, 221.8292
543.1998, 219.3474
543.6819, 216.4263
544.1640, 215.8557
544.6461, 217.9082
545.1282, 220.5900
545.6104, 223.1745
546.0925, 225.3275
546.5746, 226.6401
547.0567, 226.4815
547.5388, 226.1911
548.0209, 225.8903
548.5031, 225.7858
548.9852, 226.3230
549.4673, 228.1184
549.9494, 229.9965
550.4315, 231.7651
550.9136, 233.4236
551.3958, 234.6284
551.8779, 235.0585
552.3600, 235.5805
552.8421, 236.9920
553.3242, 239.4893
553.8063, 240.8126
554.2885, 240.5640
554.7706, 239.9747
555.2527, 241.1875
555.7348, 243.7919
556.2169, 245.0943
556.6990, 243.6831
557.1812, 241.3472
557.6633, 240.4157
558.1454, 240.7134
558.6275, 241.5863
559.1096, 243.2717
559.5917, 244.9565
560.0739, 245.7678
560.5560, 245.6371
561.0381, 245.7964
561.5202, 247.3839
562.0023, 249.0625
562.4844, 249.8309
562.9666, 249.0632
563.4487, 248.0664
563.9308, 246.2960
564.4129, 244.6062
564.8950, 244.4859
565.3771, 246.8658
565.8593, 248.6581
566.3414, 248.8579
566.8235, 247.9758
567.3056, 248.6379
567.7877, 251.0930
568.2698, 253.2428
568.7520, 253.4344
569.2341, 252.2505
569.7162, 251.9128
570.1983, 252.5093
570.6804, 253.6470
571.1625, 255.5915
571.6447, 257.6705
572.1268, 258.6762
572.6089, 257.8737
573.0910, 256.9452
573.5731, 257.1072
574.0552, 257.8644
574.5374, 258.3532
575.0195, 257.6213
575.5016, 257.2592
575.9837, 258.1913
576.4658, 260.2580
576.9479, 261.3372
577.4301, 260.0967
577.9122, 259.3855
578.3943, 260.6822
578.8764, 264.5171
579.3585, 267.2633
579.8406, 268.6069
580.3228, 269.5609
580.8049, 271.1469
581.2870, 273.3275
581.7691, 275.6362
582.2512, 278.0079
582.7333, 280.3983
583.2155, 282.9088
583.6975, 285.3868
584.1796, 287.4809
584.6617, 288.6815
585.1439, 289.6373
585.6260, 290.6342
586.1081, 291.7909
586.5902, 293.7028
587.0723, 297.4297
587.5544, 301.3650
588.0366, 304.6874
588.5187, 307.2258
589.0008, 309.4194
589.4829, 310.5016
589.9650, 311.8214
590.4471, 314.5057
590.9293, 319.4307
591.4114, 323.7236
591.8935, 327.1647
592.3756, 329.9839
592.8577, 332.4933
593.3398, 334.6532
593.8220, 336.8548
594.3041, 339.2899
594.7862, 341.7929
595.2683, 343.9179
595.7504, 345.6975
596.2325, 347.5090
596.7147, 349.4517
597.1968, 351.6207
597.6789, 354.3315
598.1610, 357.6179
598.6431, 360.6596
599.1252, 363.0652
599.6074, 364.9621
600.0895, 366.4623
600.5716, 367.5233
601.0537, 368.3061
601.5358, 368.6844
602.0179, 368.8474
602.5001, 369.1019
602.9822, 369.9184
603.4643, 369.8556
603.9464, 368.5428
604.4285, 366.2340
604.9106, 363.4603
605.3928, 360.1366
605.8749, 357.2945
606.3570, 355.7021
606.8391, 354.9684
607.3212, 354.0409
607.8033, 352.9035
608.2855, 351.0244
608.7676, 347.7851
609.2497, 343.6616
609.7318, 339.2321
610.2139, 334.4863
610.6960, 329.7260
611.1782, 325.1006
611.6603, 320.5645
612.1424, 316.0110
612.6245, 311.4745
613.1066, 306.9259
613.5887, 302.3707
614.0709, 297.6048
614.5530, 292.9818
615.0351, 287.9023
615.5172, 282.8549
615.9993, 277.7626
616.4814, 272.7503
616.9636, 268.5074
617.4457, 265.1137
617.9278, 261.7636
618.4099, 257.6794
618.8920, 253.3194
619.3741, 250.1427
619.8563, 248.1950
620.3384, 246.0032
620.8205, 241.6895
621.3026, 236.7137
621.7847, 232.8989
622.2668, 230.8285
622.7490, 229.2550
623.2311, 227.7000
623.7132, 226.2706
624.1953, 225.1044
624.6774, 224.4884
625.1595, 223.7995
625.6417, 222.6799
626.1238, 221.4808
626.6059, 221.4465
627.0880, 223.2383
