##NAMES=Thaumasite
##RRUFFID=R060814
##IDEAL CHEMISTRY=Ca_3_Si(OH)_6_(S^6+^O_4_)(CO_3_)&#183;12H_2_O
##LOCALITY=Crestmore Quarry, Riverside County, Jurupa Mountains, California, USA
##OWNER=RRUFF
##SOURCE=Michael Scott
##DESCRIPTION=Mass of colorless acicular crystals associated with afwillite, R080022
##STATUS=The identification of this mineral has been confirmed only by single crystal X-ray diffraction.
##URL=rruff.info/R060814
156.0814, 59.43555
156.5635, 59.23859
157.0456, 59.20339
157.5278, 59.33189
158.0099, 59.58985
158.4920, 60.15862
158.9741, 60.77376
159.4562, 61.20282
159.9383, 61.20046
160.4205, 61.18004
160.9026, 61.30168
161.3847, 61.58325
161.8668, 61.83048
162.3489, 61.93682
162.8310, 61.98524
163.3132, 62.07209
163.7953, 62.10456
164.2774, 62.27907
164.7595, 62.78643
165.2416, 63.70198
165.7237, 64.50447
166.2059, 64.88496
166.6880, 65.00271
167.1701, 65.10011
167.6522, 65.26729
168.1343, 65.45861
168.6164, 65.64690
169.0986, 65.83229
169.5807, 66.00208
170.0628, 66.13662
170.5449, 66.25040
171.0270, 66.37038
171.5091, 66.48479
171.9913, 66.62520
172.4734, 66.84003
172.9555, 67.16156
173.4376, 67.47721
173.9197, 67.68462
174.4018, 67.80934
174.8840, 67.91771
175.3661, 68.06116
175.8482, 68.20470
176.3303, 68.29314
176.8124, 68.30098
177.2945, 68.29333
177.7767, 68.31131
178.2588, 68.36344
178.7409, 68.48547
179.2230, 68.74887
179.7051, 69.09214
180.1872, 69.40189
180.6694, 69.66557
181.1515, 69.88184
181.6336, 70.00505
182.1157, 70.05167
182.5978, 70.13857
183.0799, 70.45168
183.5621, 70.87761
184.0442, 71.06446
184.5263, 70.83842
185.0084, 70.49031
185.4905, 70.52671
185.9726, 70.93821
186.4547, 71.47466
186.9369, 72.06300
187.4190, 72.65266
187.9011, 72.98409
188.3832, 72.93930
188.8653, 72.67321
189.3474, 72.48689
189.8296, 72.37822
190.3117, 72.37216
190.7938, 72.52669
191.2759, 72.82397
191.7580, 73.11853
192.2401, 73.37032
192.7223, 73.60560
193.2044, 73.94214
193.6865, 74.40238
194.1686, 74.81120
194.6507, 74.95893
195.1328, 74.85880
195.6150, 74.80271
196.0971, 74.86790
196.5792, 75.02399
197.0613, 75.13702
197.5434, 75.18848
198.0255, 75.27854
198.5077, 75.58885
198.9898, 76.13834
199.4719, 76.44572
199.9540, 76.31545
200.4361, 75.84578
200.9182, 75.54047
201.4004, 75.39401
201.8825, 75.43838
202.3646, 75.80831
202.8467, 76.56062
203.3288, 77.13836
203.8109, 77.38831
204.2931, 77.33987
204.7752, 77.19091
205.2573, 76.88023
205.7394, 76.61576
206.2215, 76.65176
206.7036, 77.04569
207.1858, 77.44437
207.6679, 77.81651
208.1500, 78.14783
208.6321, 78.18475
209.1142, 77.85961
209.5963, 77.36767
210.0785, 76.88916
210.5606, 76.41185
211.0427, 76.01174
211.5248, 75.74100
212.0069, 75.59445
212.4890, 75.33866
212.9712, 74.98565
213.4533, 74.50417
213.9354, 73.84629
214.4175, 72.95902
214.8996, 72.03281
215.3817, 71.06191
215.8639, 70.05354
216.3460, 69.23679
216.8281, 68.69054
217.3102, 68.22735
217.7923, 67.62418
218.2744, 66.78470
218.7566, 66.04250
219.2387, 65.52474
219.7208, 65.23347
220.2029, 64.83028
220.6850, 64.27940
221.1671, 63.66264
221.6493, 63.04237
222.1314, 62.31127
222.6135, 61.82567
223.0956, 61.79112
223.5777, 62.24067
224.0598, 62.27575
224.5420, 61.76256
225.0241, 60.98524
225.5062, 60.19617
225.9883, 59.31239
226.4704, 58.61036
226.9525, 58.21482
227.4347, 58.13676
227.9168, 57.94824
228.3989, 57.59340
228.8810, 57.18795
229.3631, 56.87397
229.8452, 56.74758
230.3274, 56.50928
230.8095, 56.04243
231.2916, 55.33247
231.7737, 54.82268
232.2558, 54.62772
232.7379, 54.51410
233.2201, 54.23732
233.7022, 53.68464
234.1843, 53.19590
234.6664, 52.87811
235.1485, 52.73789
235.6306, 52.45283
236.1128, 51.93083
236.5949, 51.35390
237.0770, 50.90944
237.5591, 50.72686
238.0412, 50.41872
238.5233, 49.84290
239.0055, 48.99762
239.4876, 48.41484
239.9697, 48.21214
240.4518, 48.13845
240.9339, 47.98992
241.4160, 47.79279
241.8982, 47.46059
242.3803, 46.89431
242.8624, 46.10576
243.3445, 45.62059
243.8266, 45.64211
244.3087, 45.73197
244.7909, 45.49219
245.2730, 44.65270
245.7551, 44.03398
246.2372, 43.84092
246.7193, 44.03028
247.2014, 43.98781
247.6836, 43.54156
248.1657, 43.07032
248.6478, 42.91246
249.1299, 43.34256
249.6120, 43.47884
250.0941, 43.14341
250.5762, 42.39408
251.0584, 41.67472
251.5405, 40.95581
252.0226, 40.31556
252.5047, 39.83193
252.9868, 39.57387
253.4689, 39.30448
253.9511, 38.99654
254.4332, 38.65699
254.9153, 38.34181
255.3974, 38.09577
255.8795, 37.80770
256.3617, 37.39014
256.8438, 36.75219
257.3259, 36.22439
257.8080, 35.87751
258.2901, 35.65749
258.7722, 35.31966
259.2544, 34.76450
259.7365, 34.25629
260.2186, 33.95846
260.7007, 33.97382
261.1828, 33.88824
261.6649, 33.62836
262.1471, 33.26953
262.6292, 33.05069
263.1113, 33.05184
263.5934, 33.03190
264.0755, 32.84987
264.5576, 32.43869
265.0398, 32.09808
265.5219, 31.83636
266.0040, 31.64611
266.4861, 31.52029
266.9682, 31.49392
267.4503, 31.44803
267.9325, 31.32739
268.4146, 31.11706
268.8967, 30.89216
269.3788, 30.64475
269.8609, 30.39181
270.3430, 30.17779
270.8252, 30.01959
271.3073, 29.84521
271.7894, 29.61891
272.2715, 29.33282
272.7536, 29.06780
273.2357, 28.80887
273.7179, 28.59592
274.2000, 28.51186
274.6821, 28.58953
275.1642, 28.64988
275.6463, 28.62239
276.1284, 28.50666
276.6106, 28.40392
277.0927, 28.31129
277.5748, 28.23777
278.0569, 28.21893
278.5390, 28.26950
279.0211, 28.25224
279.5032, 28.08537
279.9854, 27.79751
280.4675, 27.65798
280.9496, 27.70370
281.4317, 27.77529
281.9138, 27.68924
282.3959, 27.43983
282.8781, 27.18496
283.3602, 26.93472
283.8423, 26.71392
284.3244, 26.65905
284.8065, 26.78833
285.2886, 26.96407
285.7708, 27.07232
286.2529, 27.11507
286.7350, 27.13124
287.2171, 27.12645
287.6992, 27.10138
288.1813, 27.06969
288.6635, 27.03337
289.1456, 26.95129
289.6277, 26.74783
290.1098, 26.44769
290.5919, 26.23428
291.0740, 26.15858
291.5562, 26.14616
292.0383, 26.03108
292.5204, 25.81899
293.0025, 25.65027
293.4846, 25.63354
293.9667, 25.73649
294.4489, 25.87269
294.9310, 26.06180
295.4131, 26.20120
295.8952, 26.05519
296.3773, 25.67475
296.8594, 25.38186
297.3416, 25.45703
297.8237, 25.73949
298.3058, 25.84955
298.7879, 25.74387
299.2700, 25.55599
299.7521, 25.41577
300.2343, 25.31787
300.7164, 25.25264
301.1985, 25.24742
301.6806, 25.26018
302.1627, 25.20119
302.6448, 25.05999
303.1270, 24.94945
303.6091, 25.00669
304.0912, 25.16955
304.5733, 25.31168
305.0554, 25.37443
305.5375, 25.39320
306.0197, 25.42095
306.5018, 25.45419
306.9839, 25.42921
307.4660, 25.21317
307.9481, 24.92953
308.4302, 24.75875
308.9124, 24.84357
309.3945, 24.97366
309.8766, 24.94481
310.3587, 24.79115
310.8408, 24.69390
311.3229, 24.81814
311.8051, 25.02869
312.2872, 25.19551
312.7693, 25.31862
313.2514, 25.34377
313.7335, 25.14371
314.2156, 24.80325
314.6978, 24.56768
315.1799, 24.63417
315.6620, 24.79582
316.1441, 24.91976
316.6262, 25.00184
317.1083, 24.99874
317.5905, 24.77169
318.0726, 24.45978
318.5547, 24.30307
319.0368, 24.60144
319.5189, 24.90621
320.0010, 24.95810
320.4832, 24.67278
320.9653, 24.45914
321.4474, 24.50237
321.9295, 24.65511
322.4116, 24.74492
322.8937, 24.65208
323.3759, 24.57123
323.8580, 24.57654
324.3401, 24.67635
324.8222, 24.73794
325.3043, 24.75566
325.7864, 24.72105
326.2686, 24.62761
326.7507, 24.37567
327.2328, 24.17441
327.7149, 24.06671
328.1970, 24.04570
328.6791, 24.02228
329.1613, 23.94779
329.6434, 23.90731
330.1255, 23.94757
330.6076, 24.18335
331.0897, 24.33378
331.5718, 24.37806
332.0540, 24.33383
332.5361, 24.24965
333.0182, 24.10184
333.5003, 23.94315
333.9824, 23.77846
334.4645, 23.55963
334.9467, 23.49142
335.4288, 23.65202
335.9109, 23.90847
336.3930, 24.02697
336.8751, 23.93499
337.3572, 23.88163
337.8394, 23.98190
338.3215, 24.24954
338.8036, 24.30666
339.2857, 24.06904
339.7678, 23.76715
340.2499, 23.66236
340.7321, 23.78965
341.2142, 23.91229
341.6963, 23.96147
342.1784, 23.96583
342.6605, 24.09518
343.1426, 24.38293
343.6248, 24.63299
344.1069, 24.62365
344.5890, 24.37085
345.0711, 24.25574
345.5532, 24.35999
346.0353, 24.59500
346.5175, 24.80047
346.9996, 24.97779
347.4817, 25.10830
347.9638, 25.15787
348.4459, 25.14822
348.9280, 25.14884
349.4102, 25.15896
349.8923, 25.20401
350.3744, 25.33215
350.8565, 25.52747
351.3386, 25.73188
351.8207, 25.94599
352.3029, 26.14063
352.7850, 26.24122
353.2671, 26.24637
353.7492, 26.27584
354.2313, 26.49608
354.7134, 26.80352
355.1956, 27.01477
355.6777, 26.99685
356.1598, 26.92321
356.6419, 26.93877
357.1240, 27.03758
357.6061, 27.18721
358.0883, 27.41994
358.5704, 27.67011
359.0525, 27.86642
359.5346, 27.97419
360.0167, 28.06597
360.4988, 28.15012
360.9810, 28.24742
361.4631, 28.40356
361.9452, 28.69570
362.4273, 29.00747
362.9094, 29.26657
363.3915, 29.45024
363.8737, 29.64977
364.3558, 29.95908
364.8379, 30.27685
365.3200, 30.48284
365.8021, 30.42435
366.2842, 30.37468
366.7664, 30.44065
367.2485, 30.62644
367.7306, 30.73462
368.2127, 30.63912
368.6948, 30.52378
369.1769, 30.51016
369.6591, 30.73486
370.1412, 30.90005
370.6233, 30.99236
371.1054, 31.01648
371.5875, 30.98942
372.0696, 30.91621
372.5518, 30.78566
373.0339, 30.57210
373.5160, 30.20404
373.9981, 29.97186
374.4802, 29.96499
374.9623, 30.01971
375.4445, 29.83554
375.9266, 29.28241
376.4087, 28.85028
376.8908, 28.71708
377.3729, 28.87047
377.8550, 28.97218
378.3372, 29.02589
378.8193, 29.01576
379.3014, 28.88453
379.7835, 28.62176
380.2656, 28.45820
380.7477, 28.47019
381.2299, 28.57782
381.7120, 28.57946
382.1941, 28.47346
382.6762, 28.33315
383.1583, 28.18492
383.6404, 28.03823
384.1226, 27.94791
384.6047, 27.93163
385.0868, 27.92637
385.5689, 27.82198
386.0510, 27.65104
386.5331, 27.53407
387.0153, 27.54880
387.4974, 27.64202
387.9795, 27.77015
388.4616, 27.93176
388.9437, 28.03590
389.4258, 27.92741
389.9080, 27.73893
390.3901, 27.66774
390.8722, 27.85427
391.3543, 28.08187
391.8364, 28.17416
392.3185, 28.16871
392.8007, 28.20747
393.2828, 28.50113
393.7649, 28.77197
394.2470, 28.77227
394.7291, 28.31866
395.2112, 27.99853
395.6934, 28.14075
396.1755, 28.51828
396.6576, 28.79162
397.1397, 28.72745
397.6218, 28.69011
398.1039, 28.85314
398.5861, 29.25330
399.0682, 29.48310
399.5503, 29.30790
400.0324, 29.06508
400.5145, 29.00773
400.9966, 29.35366
401.4788, 29.57802
401.9609, 29.58137
402.4430, 29.43161
402.9251, 29.39327
403.4072, 29.50664
403.8893, 29.67181
404.3714, 29.86125
404.8535, 30.10332
405.3357, 30.25187
405.8178, 30.28695
406.2999, 30.25294
406.7820, 30.16811
407.2641, 29.99681
407.7462, 29.99162
408.2284, 30.30379
408.7105, 30.84215
409.1926, 31.15336
409.6747, 31.21519
410.1568, 31.21540
410.6389, 31.29352
411.1211, 31.44375
411.6032, 31.64418
412.0853, 31.90665
412.5674, 32.18917
413.0495, 32.48080
413.5316, 32.76315
414.0138, 32.93623
414.4959, 32.76239
414.9780, 32.51313
415.4601, 32.70055
415.9422, 33.38308
416.4243, 34.00698
416.9065, 33.94721
417.3886, 33.57823
417.8707, 33.46288
418.3528, 34.09474
418.8349, 34.75497
419.3170, 34.92795
419.7992, 34.71187
420.2813, 34.56279
420.7634, 34.77599
421.2455, 35.06015
421.7276, 35.19981
422.2097, 35.05993
422.6919, 35.02312
423.1740, 35.30331
423.6561, 35.71747
424.1382, 35.99168
424.6203, 35.92067
425.1024, 35.86262
425.5846, 35.91358
426.0667, 36.08070
426.5488, 36.23524
427.0309, 36.40393
427.5130, 36.53811
427.9951, 36.58164
428.4773, 36.40409
428.9594, 36.43848
429.4415, 36.81507
429.9236, 37.37341
430.4057, 37.68522
430.8878, 37.67070
431.3700, 37.65050
431.8521, 37.76014
432.3342, 37.99982
432.8163, 38.28539
433.2984, 38.63219
433.7805, 38.97313
434.2627, 39.23700
434.7448, 39.42659
435.2269, 39.55516
435.7090, 39.58375
436.1911, 39.59962
436.6732, 39.79765
437.1554, 40.16084
437.6375, 40.54999
438.1196, 40.88239
438.6017, 41.17683
439.0838, 41.42846
439.5659, 41.61224
440.0481, 41.89497
440.5302, 42.53986
441.0123, 43.36447
441.4944, 44.06276
441.9765, 44.44572
442.4586, 44.71722
442.9408, 44.94926
443.4229, 45.15499
443.9050, 45.43606
444.3871, 45.93677
444.8692, 46.45656
445.3513, 46.85316
445.8335, 47.00813
446.3156, 47.21360
446.7977, 47.54300
447.2798, 47.95046
447.7619, 48.35674
448.2440, 48.92929
448.7262, 49.30214
449.2083, 49.28092
449.6904, 48.82965
450.1725, 48.75235
450.6546, 49.33521
451.1367, 49.93603
451.6189, 50.00713
452.1010, 49.32653
452.5831, 48.90194
453.0652, 48.92976
453.5473, 49.15199
454.0294, 48.92472
454.5116, 48.18734
454.9937, 47.48460
455.4758, 47.13283
455.9579, 47.04400
456.4400, 46.68176
456.9221, 46.02132
457.4043, 45.28959
457.8864, 44.72540
458.3685, 44.26758
458.8506, 43.70574
459.3327, 42.94316
459.8148, 42.13834
460.2970, 41.47976
460.7791, 40.93438
461.2612, 40.41415
461.7433, 39.92537
462.2254, 39.40363
462.7076, 38.76474
463.1897, 37.98172
463.6718, 37.25785
464.1539, 36.74142
464.6360, 36.32233
465.1181, 35.90035
465.6003, 35.38308
466.0824, 34.93118
466.5645, 34.69760
467.0466, 34.59180
467.5287, 34.26653
468.0108, 33.30665
468.4930, 32.46423
468.9751, 32.06247
469.4572, 32.28609
469.9393, 32.25340
470.4214, 31.81085
470.9035, 31.25134
471.3857, 30.90257
471.8678, 30.83385
472.3499, 30.75686
472.8320, 30.62384
473.3141, 30.44491
473.7962, 30.26562
474.2784, 30.09463
474.7605, 29.86313
475.2426, 29.46517
475.7247, 28.94570
476.2068, 28.59597
476.6889, 28.43513
477.1711, 28.37476
477.6532, 28.36537
478.1353, 28.38182
478.6174, 28.35122
479.0995, 28.22387
479.5816, 28.06812
480.0638, 27.97733
480.5459, 27.92959
481.0280, 27.84511
481.5101, 27.58423
481.9922, 27.32780
482.4743, 27.26969
482.9565, 27.48178
483.4386, 27.59277
483.9207, 27.37307
484.4028, 27.00886
484.8849, 26.69454
485.3670, 26.45981
485.8492, 26.29476
486.3313, 26.24197
486.8134, 26.27395
487.2955, 26.24820
487.7776, 26.14020
488.2597, 26.00510
488.7419, 25.84068
489.2240, 25.61306
489.7061, 25.55073
490.1882, 25.73781
490.6703, 25.96627
491.1524, 25.95768
491.6346, 25.66264
492.1167, 25.53420
492.5988, 25.72723
493.0809, 26.07188
493.5630, 26.08620
494.0451, 25.78092
494.5273, 25.50326
495.0094, 25.49030
495.4915, 25.64740
495.9736, 25.78510
496.4557, 25.89689
496.9378, 25.93599
497.4200, 25.78824
497.9021, 25.55745
498.3842, 25.40790
498.8663, 25.42215
499.3484, 25.48016
499.8305, 25.51938
500.3127, 25.54420
500.7948, 25.56535
501.2769, 25.58294
501.7590, 25.60171
502.2411, 25.62152
502.7232, 25.64115
503.2054, 25.67303
503.6875, 25.77714
504.1696, 25.85608
504.6517, 25.83036
505.1338, 25.58872
505.6159, 25.43851
506.0981, 25.41905
506.5802, 25.49132
507.0623, 25.57273
507.5444, 25.67021
508.0265, 25.75759
508.5086, 25.83034
508.9908, 25.88671
509.4729, 25.90464
509.9550, 25.88015
510.4371, 25.84891
510.9192, 25.84770
511.4013, 25.86743
511.8835, 25.85291
512.3655, 25.76944
512.8477, 25.73632
513.3298, 25.95222
513.8119, 26.32953
514.2940, 26.65945
514.7761, 26.89731
515.2582, 27.01297
515.7404, 26.91070
516.2225, 26.62636
516.7046, 26.41651
517.1867, 26.42293
517.6688, 26.52250
518.1509, 26.63946
518.6331, 26.76145
519.1152, 26.90430
519.5973, 27.13440
520.0794, 27.36025
520.5615, 27.46120
521.0436, 27.33010
521.5258, 27.24024
522.0079, 27.23903
522.4900, 27.31203
522.9721, 27.38495
523.4542, 27.44232
523.9363, 27.53986
524.4185, 27.72919
524.9006, 28.01029
525.3827, 28.22591
525.8648, 28.36750
526.3469, 28.49458
526.8290, 28.68786
527.3112, 28.92566
527.7933, 29.12241
528.2754, 29.24727
528.7575, 29.34695
529.2396, 29.47014
529.7217, 29.61530
530.2039, 29.77463
530.6860, 29.91937
531.1681, 30.09650
531.6502, 30.36242
532.1323, 30.71805
532.6144, 31.05994
533.0966, 31.36701
533.5787, 31.63511
534.0608, 31.86856
534.5429, 32.10256
535.0250, 32.23690
535.5071, 32.08579
535.9893, 31.89559
536.4714, 32.05913
536.9535, 32.83704
537.4356, 33.45834
537.9177, 33.70626
538.3998, 33.65025
538.8820, 33.69635
539.3641, 33.85196
539.8462, 34.07079
540.3283, 34.37218
540.8104, 34.73036
541.2925, 34.94179
541.7747, 34.97832
542.2568, 34.99166
542.7389, 35.16933
543.2210, 35.44844
543.7031, 35.68942
544.1852, 35.88130
544.6674, 35.97592
545.1495, 35.82273
545.6316, 35.52925
546.1137, 35.36395
546.5958, 35.62782
547.0779, 35.89931
547.5601, 35.94396
548.0422, 35.74412
548.5243, 35.51814
549.0064, 35.25997
549.4885, 35.02685
549.9706, 34.85668
550.4528, 34.79173
550.9349, 34.71564
551.4170, 34.66693
551.8991, 34.57478
552.3812, 34.29669
552.8633, 33.76182
553.3455, 33.33508
553.8276, 33.13082
554.3097, 33.08011
554.7918, 32.96963
555.2739, 32.80148
555.7560, 32.60805
556.2382, 32.39172
556.7203, 32.16829
557.2024, 31.99628
557.6845, 31.88120
558.1666, 31.71805
558.6487, 31.30787
559.1309, 30.83999
559.6130, 30.58425
560.0951, 30.71936
560.5772, 30.84936
561.0593, 30.75097
561.5414, 30.52417
562.0236, 30.34735
562.5057, 30.31102
562.9878, 30.27785
563.4699, 30.19165
563.9520, 30.06193
564.4341, 29.99754
564.9163, 30.03629
565.3984, 30.08680
565.8805, 30.10303
566.3626, 30.07740
566.8447, 30.06771
567.3268, 30.08181
567.8090, 30.08955
568.2911, 30.04349
568.7732, 29.95140
569.2553, 29.88329
569.7374, 29.84841
570.2195, 29.85324
570.7017, 29.91302
571.1838, 30.02097
571.6659, 30.15333
572.1480, 30.36939
572.6301, 30.55461
573.1122, 30.58082
573.5944, 30.46612
574.0765, 30.37378
574.5586, 30.36339
575.0407, 30.40692
575.5228, 30.49822
576.0049, 30.66439
576.4871, 30.79753
576.9692, 30.86172
577.4513, 30.90759
577.9334, 30.99574
578.4155, 31.18887
578.8976, 31.25559
579.3798, 31.10183
579.8619, 30.85919
580.3440, 30.89010
580.8261, 31.21920
581.3082, 31.50174
581.7903, 31.54821
582.2725, 31.45376
582.7546, 31.49690
583.2367, 31.66986
583.7188, 31.88016
584.2009, 32.08780
584.6830, 32.27850
585.1652, 32.42216
585.6473, 32.50684
586.1294, 32.60221
586.6115, 32.80042
587.0936, 33.00933
587.5757, 33.12923
588.0579, 33.02510
588.5400, 32.95886
589.0221, 33.02185
589.5042, 33.15064
589.9863, 33.18622
590.4684, 32.98517
590.9506, 32.93068
591.4327, 33.18931
591.9148, 33.70688
592.3969, 33.98096
592.8790, 33.97062
593.3611, 33.89380
593.8433, 33.88027
594.3254, 33.92006
594.8075, 33.94080
595.2896, 33.93342
595.7717, 33.97301
596.2538, 34.20502
596.7360, 34.52251
597.2181, 34.71633
597.7002, 34.66319
598.1823, 34.62059
598.6644, 34.78786
599.1465, 35.07802
599.6287, 35.34267
600.1108, 35.54808
600.5929, 35.70295
601.0750, 35.79968
601.5571, 35.84086
602.0392, 35.86226
602.5214, 35.85020
603.0035, 35.83773
603.4856, 35.84499
603.9677, 35.87606
604.4498, 35.84718
604.9319, 35.73089
605.4141, 35.63795
605.8962, 35.70587
606.3783, 35.90539
606.8604, 36.03781
607.3425, 36.07710
607.8246, 36.05390
608.3068, 35.98318
608.7889, 35.87856
609.2710, 35.76688
609.7531, 35.60449
610.2352, 35.50145
610.7173, 35.55318
611.1995, 35.72306
611.6816, 35.90992
612.1637, 36.19963
612.6458, 36.38976
613.1279, 36.35478
613.6100, 36.08281
614.0922, 35.91571
614.5743, 35.94300
615.0564, 35.95530
615.5385, 35.80336
616.0206, 35.42663
616.5027, 35.24943
616.9849, 35.30377
617.4670, 35.46117
617.9491, 35.63121
618.4312, 35.79266
618.9133, 35.79731
619.3954, 35.55676
619.8776, 35.30614
620.3597, 35.37469
620.8418, 35.64787
621.3239, 35.86792
621.8060, 35.93571
622.2881, 35.91418
622.7703, 35.76587
623.2524, 35.53865
623.7345, 35.42476
624.2166, 35.56187
624.6987, 35.73927
625.1808, 35.87988
625.6630, 35.98153
626.1451, 36.07134
626.6272, 36.14655
627.1093, 36.21479
627.5914, 36.27703
628.0735, 36.33162
628.5557, 36.42013
629.0378, 36.56203
629.5199, 36.66925
630.0020, 36.52303
630.4841, 36.24535
630.9662, 36.24813
631.4484, 36.72687
631.9305, 37.32413
632.4126, 37.75316
632.8947, 38.03943
633.3768, 38.24367
633.8589, 38.18382
634.3411, 38.24930
634.8232, 38.65798
635.3053, 39.35993
635.7874, 40.04442
636.2695, 40.68544
636.7516, 41.28700
637.2338, 41.80827
637.7159, 42.24284
638.1980, 42.86140
638.6801, 43.72508
639.1622, 44.60377
639.6443, 45.25123
640.1265, 45.70789
640.6086, 46.43168
641.0907, 47.48719
641.5728, 48.59654
642.0549, 49.38653
642.5370, 50.04067
643.0192, 50.94322
643.5013, 52.33711
643.9834, 53.72406
644.4655, 54.73139
644.9476, 55.53399
645.4297, 56.46882
645.9119, 57.79753
646.3940, 59.07097
646.8761, 60.08603
647.3582, 60.94267
647.8403, 62.00299
648.3224, 63.41533
648.8046, 64.75720
649.2867, 65.80643
649.7688, 66.63024
650.2509, 67.91283
650.7330, 69.72837
651.2151, 71.32884
651.6973, 72.04350
