##NAMES=Thaumasite
##RRUFFID=R060296
##IDEAL CHEMISTRY=Ca_3_Si(OH)_6_(S^6+^O_4_)(CO_3_)&#183;12H_2_O
##LOCALITY=N'Chwaning II mine, Kalahari manganese field, Cape Province, South Africa
##OWNER=RRUFF
##SOURCE=Herb Obodda
##DESCRIPTION=Pale blue hexagonal prism
##STATUS=The identification of this mineral has been confirmed by X-ray diffraction.
##URL=rruff.info/R060296
93.94379, 1183.040
94.42590, 1176.113
94.90802, 1160.944
95.39014, 1142.751
95.87225, 1120.902
96.35437, 1099.331
96.83649, 1081.432
97.31860, 1065.020
97.80072, 1047.793
98.28284, 1027.837
98.76495, 1004.464
99.24707, 978.6151
99.72919, 946.4814
100.2113, 916.2899
100.6934, 889.1599
101.1755, 865.0782
101.6577, 844.1994
102.1398, 826.5730
102.6219, 812.6669
103.1040, 799.5314
103.5861, 789.8454
104.0682, 778.5211
104.5504, 762.2709
105.0325, 740.8450
105.5146, 716.4852
105.9967, 691.9875
106.4788, 666.5099
106.9609, 643.0033
107.4431, 621.4076
107.9252, 601.7382
108.4073, 584.0629
108.8894, 568.2952
109.3715, 554.7767
109.8536, 543.9938
110.3358, 535.5554
110.8179, 529.4379
111.3000, 526.0096
111.7821, 525.1307
112.2642, 525.4955
112.7463, 526.4514
113.2285, 528.7361
113.7106, 533.2189
114.1927, 540.3288
114.6748, 548.8621
115.1569, 557.5204
115.6390, 567.0709
116.1212, 574.8036
116.6033, 580.4531
117.0854, 584.0803
117.5675, 585.6115
118.0496, 584.9892
118.5317, 582.2899
119.0139, 577.8795
119.4960, 569.9335
119.9781, 562.0292
120.4602, 555.2228
120.9423, 548.8859
121.4244, 541.8502
121.9066, 533.1340
122.3887, 522.5667
122.8708, 512.4139
123.3529, 503.0303
123.8350, 493.5974
124.3171, 483.4597
124.7993, 472.7209
125.2814, 462.3341
125.7635, 453.2255
126.2456, 445.6987
126.7277, 438.4400
127.2098, 430.5641
127.6920, 423.3410
128.1741, 418.7281
128.6562, 417.5830
129.1383, 416.8737
129.6204, 412.3612
130.1025, 404.5198
130.5847, 396.5053
131.0668, 389.3819
131.5489, 383.0414
132.0310, 377.0579
132.5131, 370.9363
132.9952, 365.6741
133.4774, 362.1078
133.9595, 360.2359
134.4416, 358.9644
134.9237, 357.0482
135.4058, 354.1930
135.8879, 352.7362
136.3701, 353.8383
136.8522, 356.0547
137.3343, 358.8432
137.8164, 362.0548
138.2985, 365.5276
138.7806, 369.0696
139.2628, 372.8859
139.7449, 376.3755
140.2270, 379.3360
140.7091, 382.0828
141.1912, 385.0527
141.6733, 388.4244
142.1555, 391.8658
142.6376, 394.1705
143.1197, 393.9556
143.6018, 394.0559
144.0839, 394.8778
144.5660, 396.1889
145.0482, 397.5304
145.5303, 398.5818
146.0124, 399.4787
146.4945, 401.2964
146.9766, 404.4389
147.4587, 407.8555
147.9409, 411.4539
148.4230, 415.0847
148.9051, 418.2736
149.3872, 421.0732
149.8693, 422.9766
150.3514, 422.7321
150.8336, 420.6128
151.3157, 416.1581
151.7978, 408.5859
152.2799, 397.6212
152.7620, 385.0446
153.2441, 371.5337
153.7263, 357.3344
154.2084, 342.4144
154.6905, 325.6514
155.1726, 308.4317
155.6547, 293.7086
156.1368, 281.9277
156.6190, 272.2677
157.1011, 264.2319
157.5832, 257.5895
158.0653, 251.8891
158.5474, 247.2260
159.0295, 243.4926
159.5117, 239.2048
159.9938, 232.8672
160.4759, 227.4767
160.9580, 224.7114
161.4401, 223.9106
161.9222, 223.2626
162.4044, 220.9462
162.8865, 216.4242
163.3686, 213.3597
163.8507, 213.1647
164.3328, 213.0817
164.8149, 211.6081
165.2971, 208.8581
165.7792, 206.1474
166.2613, 205.0195
166.7434, 206.0594
167.2255, 207.2204
167.7076, 208.7119
168.1898, 210.1747
168.6719, 210.9857
169.1540, 211.1383
169.6361, 211.6673
170.1182, 214.2599
170.6003, 220.4215
171.0825, 224.7550
171.5646, 225.5752
172.0467, 225.0005
172.5288, 225.4400
173.0109, 227.6160
173.4930, 230.6457
173.9752, 233.1237
174.4573, 234.9568
174.9394, 237.0217
175.4215, 239.8437
175.9036, 243.0907
176.3857, 245.8892
176.8679, 247.7487
177.3500, 249.5157
177.8321, 252.2607
178.3142, 256.0016
178.7963, 260.1820
179.2784, 264.5808
179.7606, 269.2106
180.2427, 273.8370
180.7248, 278.1058
181.2069, 282.6579
181.6890, 288.1374
182.1711, 294.6477
182.6533, 301.3021
183.1354, 307.5555
183.6175, 313.5114
184.0996, 318.2459
184.5817, 320.6381
185.0638, 322.2338
185.5460, 323.7658
186.0281, 325.4043
186.5102, 326.9929
186.9923, 328.4494
187.4744, 330.0916
187.9565, 330.6597
188.4387, 329.0465
188.9208, 327.0310
189.4029, 325.9683
189.8850, 326.2451
190.3671, 327.1685
190.8492, 327.3295
191.3314, 325.5823
191.8135, 325.0019
192.2956, 326.8240
192.7777, 329.2248
193.2598, 330.3232
193.7419, 329.4210
194.2241, 327.6026
194.7062, 327.4818
195.1883, 331.0511
195.6704, 334.1773
196.1525, 336.1956
196.6346, 337.9055
197.1168, 340.2036
197.5989, 343.4763
198.0810, 347.5682
198.5631, 352.0953
199.0452, 357.4701
199.5273, 362.7098
200.0095, 367.4667
200.4916, 372.0063
200.9737, 376.6987
201.4558, 381.6611
201.9379, 387.0386
202.4200, 393.4026
202.9022, 400.5012
203.3843, 408.5718
203.8664, 417.5446
204.3485, 427.5497
204.8306, 438.8832
205.3127, 451.6884
205.7949, 466.0219
206.2770, 481.5987
206.7591, 498.7238
207.2412, 516.3923
207.7233, 533.5417
208.2054, 550.5275
208.6876, 569.2635
209.1697, 591.4069
209.6518, 615.1725
210.1339, 637.8719
210.6160, 659.4178
211.0981, 679.5667
211.5803, 698.5305
212.0624, 716.2870
212.5445, 731.3225
213.0266, 742.8849
213.5087, 751.0782
213.9908, 756.1800
214.4730, 758.2446
214.9551, 756.8471
215.4372, 750.8743
215.9193, 739.7775
216.4014, 727.3849
216.8836, 714.8920
217.3657, 701.2885
217.8478, 685.6685
218.3299, 667.8845
218.8120, 648.2207
219.2941, 626.6914
219.7763, 602.4543
220.2584, 579.1883
220.7405, 557.4583
221.2226, 536.7765
221.7047, 516.8387
222.1868, 497.5613
222.6690, 479.0577
223.1511, 461.3085
223.6332, 443.4303
224.1153, 428.4089
224.5974, 417.6063
225.0795, 408.5737
225.5617, 399.6745
226.0438, 390.4273
226.5259, 381.3456
227.0080, 373.2568
227.4901, 366.1594
227.9722, 360.3470
228.4544, 355.9551
228.9365, 352.5476
229.4186, 350.1232
229.9007, 348.5804
230.3828, 347.4051
230.8649, 345.6840
231.3471, 342.6004
231.8292, 340.3006
232.3113, 338.9272
232.7934, 338.1701
233.2755, 337.9223
233.7576, 338.1113
234.2398, 338.4961
234.7219, 338.7048
235.2040, 338.9128
235.6861, 338.5169
236.1682, 336.8264
236.6503, 334.9146
237.1325, 333.8965
237.6146, 334.0398
238.0967, 334.5869
238.5788, 334.4237
239.0609, 333.2707
239.5430, 331.9414
240.0252, 330.3011
240.5073, 328.5746
240.9894, 326.8953
241.4715, 325.2901
241.9536, 323.9807
242.4357, 323.3849
242.9179, 323.7582
243.4000, 323.7079
243.8821, 323.3361
244.3642, 322.3724
244.8463, 320.5504
245.3284, 317.8105
245.8106, 314.1863
246.2927, 309.4446
246.7748, 303.5446
247.2569, 297.6985
247.7390, 291.6796
248.2211, 285.9556
248.7033, 281.4040
249.1854, 278.3001
249.6675, 275.1718
250.1496, 270.3507
250.6317, 264.0414
251.1138, 257.6613
251.5960, 250.9767
252.0781, 244.5749
252.5602, 239.5376
253.0423, 236.2596
253.5244, 232.7935
254.0065, 226.6471
254.4887, 218.8802
254.9708, 212.5018
255.4529, 209.3028
255.9350, 207.5079
256.4171, 204.5351
256.8992, 200.0317
257.3813, 195.6375
257.8635, 193.1174
258.3456, 191.4678
258.8277, 188.8993
259.3098, 184.1846
259.7919, 178.7330
260.2740, 174.5064
260.7562, 171.6043
261.2383, 169.5011
261.7204, 168.5890
262.2025, 168.1333
262.6846, 167.1579
263.1667, 165.0715
263.6489, 162.7287
264.1310, 161.5953
264.6131, 162.0784
265.0952, 161.9918
265.5773, 159.4462
266.0594, 156.1959
266.5416, 153.9688
267.0237, 153.4267
267.5058, 153.5047
267.9879, 152.5817
268.4700, 150.3157
268.9521, 148.6556
269.4343, 148.9621
269.9164, 149.7923
270.3985, 150.0577
270.8806, 149.4710
271.3627, 148.5772
271.8448, 148.1398
272.3270, 148.3188
272.8091, 148.1035
273.2912, 146.8518
273.7733, 145.3677
274.2554, 144.1592
274.7375, 143.2991
275.2197, 142.4701
275.7018, 141.1670
276.1839, 139.2455
276.6660, 137.8185
277.1481, 137.6809
277.6302, 137.6323
278.1124, 137.0999
278.5945, 136.0436
279.0766, 134.7631
279.5587, 133.5064
280.0408, 132.2659
280.5229, 131.0919
281.0051, 129.7955
281.4872, 128.7594
281.9693, 128.3951
282.4514, 128.5125
282.9335, 128.4832
283.4156, 127.7270
283.8978, 126.2280
284.3799, 124.7483
284.8620, 123.1821
285.3441, 121.7544
285.8262, 120.5572
286.3083, 119.5576
286.7905, 118.6449
287.2726, 117.6710
287.7547, 116.6980
288.2368, 116.4517
288.7189, 118.5670
289.2010, 119.3854
289.6832, 116.8427
290.1653, 112.6330
290.6474, 109.3259
291.1295, 108.4873
291.6116, 109.5157
292.0938, 110.0014
292.5759, 109.6307
293.0580, 109.1112
293.5401, 108.5742
294.0222, 107.9867
294.5043, 107.2891
294.9865, 106.4513
295.4686, 105.5376
295.9507, 104.7184
296.4328, 104.1238
296.9149, 103.3859
297.3970, 102.1861
297.8792, 100.9968
298.3613, 100.3331
298.8434, 100.3197
299.3255, 100.5316
299.8076, 100.2452
300.2897, 99.21951
300.7719, 98.21764
301.2540, 97.17595
301.7361, 96.23486
302.2182, 95.47968
302.7003, 94.92545
303.1824, 94.51854
303.6646, 94.22311
304.1467, 94.10062
304.6288, 93.86645
305.1109, 93.77273
305.5930, 93.35918
306.0751, 92.08989
306.5573, 90.20020
307.0394, 88.51054
307.5215, 87.85099
308.0036, 88.31717
308.4857, 88.35726
308.9678, 87.69078
309.4500, 86.84998
309.9321, 85.93367
310.4142, 84.95244
310.8963, 83.83739
311.3784, 82.47302
311.8605, 80.96001
312.3427, 80.11695
312.8248, 80.48730
313.3069, 80.94967
313.7890, 81.41552
314.2711, 81.81692
314.7532, 82.12639
315.2354, 82.33597
315.7175, 82.37998
316.1996, 82.00154
316.6817, 80.54151
317.1638, 79.73483
317.6459, 80.02312
318.1281, 80.82754
318.6102, 81.77518
319.0923, 82.70961
319.5744, 83.46266
320.0565, 83.75040
320.5386, 83.48791
321.0208, 82.91482
321.5029, 81.48608
321.9850, 80.21132
322.4671, 79.88364
322.9492, 80.49020
323.4313, 81.29762
323.9135, 81.46779
324.3956, 80.82909
324.8777, 80.41817
325.3598, 80.16659
325.8419, 80.20480
326.3240, 80.97261
326.8062, 82.13174
327.2883, 82.83164
327.7704, 82.32081
328.2525, 80.68234
328.7346, 79.38963
329.2167, 78.52323
329.6989, 77.95662
330.1810, 77.86122
330.6631, 77.99288
331.1452, 78.01738
331.6273, 77.75528
332.1094, 77.27054
332.5916, 76.75163
333.0737, 76.16993
333.5558, 75.60326
334.0379, 74.85263
334.5200, 74.22445
335.0021, 74.12569
335.4843, 74.66857
335.9664, 75.41310
336.4485, 75.60304
336.9306, 74.99629
337.4127, 74.55598
337.8948, 74.62753
338.3770, 74.69128
338.8591, 74.43137
339.3412, 73.82774
339.8233, 73.07389
340.3055, 72.21147
340.7876, 71.17300
341.2697, 70.75986
341.7518, 71.81239
342.2339, 72.68863
342.7160, 72.45367
343.1982, 71.51281
343.6803, 70.91604
344.1624, 71.49437
344.6445, 72.96838
345.1266, 73.92412
345.6087, 74.12489
346.0909, 74.15738
346.5730, 74.29815
347.0551, 74.39178
347.5372, 74.16113
348.0193, 73.41550
348.5014, 72.56067
348.9836, 72.37031
349.4657, 73.01304
349.9478, 73.76141
350.4299, 74.48869
350.9120, 75.21445
351.3941, 75.97465
351.8763, 76.77176
352.3584, 77.52222
352.8405, 78.20323
353.3226, 78.82458
353.8047, 79.08533
354.2868, 78.64103
354.7690, 78.12810
355.2511, 77.84591
355.7332, 77.81835
356.2153, 78.07700
356.6974, 78.73318
357.1795, 79.70676
357.6617, 80.80643
358.1438, 82.34184
358.6259, 83.31604
359.1080, 82.55840
359.5901, 81.01060
360.0722, 80.22316
360.5544, 81.02902
361.0365, 82.50547
361.5186, 83.46068
362.0007, 83.87245
362.4828, 83.85696
362.9649, 83.02233
363.4471, 82.02468
363.9292, 81.67131
364.4113, 82.15969
364.8934, 82.76709
365.3755, 82.97858
365.8576, 82.83739
366.3398, 82.53242
366.8219, 81.95381
367.3040, 81.45605
367.7861, 81.52660
368.2682, 82.10191
368.7503, 82.50542
369.2325, 82.30228
369.7146, 81.80575
370.1967, 81.69955
370.6788, 82.15307
371.1609, 82.27405
371.6430, 80.88700
372.1252, 78.57299
372.6073, 77.31487
373.0894, 78.05885
373.5715, 79.39910
374.0536, 80.48794
374.5357, 81.29287
375.0179, 81.57787
375.5000, 81.08309
375.9821, 80.11022
376.4642, 79.33387
376.9463, 78.64362
377.4284, 78.35039
377.9106, 78.80627
378.3927, 79.68591
378.8748, 80.50149
379.3569, 81.14571
379.8390, 81.53179
380.3211, 81.48870
380.8033, 80.93276
381.2854, 80.40672
381.7675, 79.72298
382.2496, 79.24484
382.7317, 79.29806
383.2138, 79.87447
383.6960, 80.79008
384.1781, 82.06128
384.6602, 83.59436
385.1423, 84.09484
385.6244, 82.28125
386.1065, 81.06124
386.5887, 81.87064
387.0708, 83.82945
387.5529, 85.43597
388.0350, 86.03237
388.5171, 85.98042
388.9992, 86.08073
389.4814, 86.62521
389.9635, 86.85876
390.4456, 86.11359
390.9277, 85.50118
391.4098, 86.09066
391.8919, 87.91859
392.3741, 90.13792
392.8562, 91.92093
393.3383, 93.28084
393.8204, 94.12035
394.3025, 93.64425
394.7846, 93.50808
395.2668, 94.38744
395.7489, 96.01207
396.2310, 97.99292
396.7131, 100.1991
397.1952, 102.2586
397.6773, 102.7423
398.1595, 100.0491
398.6416, 98.43342
399.1237, 98.50814
399.6058, 99.69176
400.0879, 101.8902
400.5700, 104.9251
401.0522, 107.8805
401.5343, 109.5217
402.0164, 109.5731
402.4985, 109.8843
402.9806, 110.3353
403.4627, 111.2705
403.9449, 113.0609
404.4270, 115.4725
404.9091, 117.9320
405.3912, 120.1298
405.8733, 122.0997
406.3554, 123.7716
406.8376, 124.7699
407.3197, 126.4588
407.8018, 130.4479
408.2839, 134.9008
408.7660, 137.6840
409.2481, 138.0918
409.7303, 138.0593
410.2124, 139.6805
410.6945, 142.8368
411.1766, 145.6799
411.6587, 147.6704
412.1408, 149.4401
412.6230, 151.6080
413.1051, 154.1192
413.5872, 156.5800
414.0693, 159.0348
414.5514, 161.2635
415.0335, 162.8937
415.5157, 163.8949
415.9978, 164.3908
416.4799, 164.2567
416.9620, 163.6818
417.4441, 163.3012
417.9262, 163.2131
418.4084, 163.2200
418.8905, 163.4996
419.3726, 163.8001
419.8547, 163.2866
420.3368, 161.5069
420.8189, 159.3790
421.3011, 158.6152
421.7832, 159.8057
422.2653, 159.7831
422.7474, 157.2432
423.2295, 154.0080
423.7116, 151.3098
424.1938, 149.3828
424.6759, 148.3829
425.1580, 148.5650
425.6401, 149.8457
426.1222, 150.6750
426.6043, 151.2432
427.0865, 151.2204
427.5686, 149.7500
428.0507, 147.8776
428.5328, 147.2231
429.0149, 148.3802
429.4970, 150.3199
429.9792, 151.1670
430.4613, 150.0107
430.9434, 149.7678
431.4255, 150.7658
431.9076, 152.2090
432.3897, 153.9027
432.8719, 155.6712
433.3540, 157.1419
433.8361, 157.8453
434.3182, 158.0246
434.8003, 159.5781
435.2824, 163.6030
435.7646, 167.3472
436.2467, 169.8656
436.7288, 171.9070
437.2109, 174.2237
437.6930, 177.0525
438.1751, 180.1552
438.6573, 183.2354
439.1394, 186.2749
439.6215, 189.5543
440.1036, 193.2530
440.5857, 197.0633
441.0678, 200.7835
441.5500, 204.4452
442.0321, 208.1663
442.5142, 212.0294
442.9963, 215.9927
443.4784, 220.0033
443.9605, 224.0530
444.4427, 228.2374
444.9248, 232.7322
445.4069, 237.3141
445.8890, 241.5000
446.3711, 245.1008
446.8532, 248.8224
447.3354, 253.2414
447.8175, 258.0298
448.2996, 262.5663
448.7817, 266.7474
449.2638, 270.4086
449.7459, 273.2775
450.2281, 275.2956
450.7102, 277.0698
451.1923, 278.8487
451.6744, 280.1870
452.1565, 280.6874
452.6386, 280.4890
453.1208, 280.0829
453.6029, 279.7609
454.0850, 279.2772
454.5671, 277.9475
455.0492, 275.4734
455.5313, 272.4604
456.0135, 268.3984
456.4956, 264.1492
456.9777, 260.6874
457.4598, 257.9351
457.9419, 254.6481
458.4240, 249.4129
458.9062, 242.1950
459.3883, 236.2872
459.8704, 232.6596
460.3525, 229.3191
460.8346, 226.2097
461.3167, 223.0061
461.7989, 219.1841
462.2810, 214.5116
462.7631, 209.7144
463.2452, 205.9100
463.7273, 203.2077
464.2094, 200.8597
464.6916, 199.0669
465.1737, 197.3435
465.6558, 195.1724
466.1379, 192.7738
466.6200, 190.9192
467.1021, 190.1537
467.5843, 190.1497
468.0664, 190.2460
468.5485, 190.4080
469.0306, 190.9339
469.5127, 192.0398
469.9948, 193.5725
470.4770, 195.2158
470.9591, 196.9299
471.4412, 198.8738
471.9233, 201.6475
472.4054, 204.5840
472.8875, 206.1138
473.3697, 205.8739
473.8518, 205.6062
474.3339, 206.8972
474.8160, 209.7812
475.2981, 212.6552
475.7802, 216.7612
476.2624, 219.5542
476.7445, 218.9970
477.2266, 216.4651
477.7087, 214.5272
478.1908, 214.1910
478.6729, 214.8173
479.1551, 215.3067
479.6372, 215.7851
480.1193, 215.7816
480.6014, 214.9443
481.0835, 214.0072
481.5656, 213.5649
482.0478, 213.3940
482.5299, 212.7535
483.0120, 211.0764
483.4941, 208.7235
483.9762, 207.2332
484.4583, 207.4164
484.9405, 206.7870
485.4226, 204.6821
485.9047, 201.7762
486.3868, 198.4721
486.8689, 194.8605
487.3510, 191.0305
487.8332, 186.6528
488.3153, 182.0302
488.7974, 178.8224
489.2795, 177.8366
489.7616, 176.4294
490.2437, 172.3837
490.7259, 166.9992
491.2080, 162.0636
491.6901, 157.8081
492.1722, 154.2807
492.6543, 152.1585
493.1364, 150.8434
493.6186, 148.4632
494.1007, 144.3658
494.5828, 139.7302
495.0649, 135.6717
495.5470, 132.2060
496.0291, 129.8300
496.5113, 129.3511
496.9934, 129.2189
497.4755, 128.8089
497.9576, 128.0107
498.4397, 126.5865
498.9218, 124.3972
499.4040, 121.8557
499.8861, 119.9111
500.3682, 118.8577
500.8503, 117.9219
501.3324, 117.1197
501.8145, 116.4023
502.2967, 115.7739
502.7788, 115.2034
503.2609, 114.5965
503.7430, 113.8488
504.2251, 113.0542
504.7072, 112.6684
505.1894, 113.0379
505.6715, 113.0098
506.1536, 112.1748
506.6357, 110.9137
507.1178, 109.2131
507.5999, 107.1516
508.0821, 105.6102
508.5642, 105.4629
509.0463, 106.3317
509.5284, 107.2810
510.0105, 108.4054
510.4926, 108.9307
510.9748, 108.0550
511.4569, 106.2984
511.9390, 104.8950
512.4211, 103.8990
512.9032, 103.2949
513.3853, 103.3150
513.8674, 103.6615
514.3495, 103.8218
514.8317, 103.6819
515.3138, 103.4272
515.7959, 103.2388
516.2780, 103.1213
516.7601, 102.9907
517.2422, 102.6821
517.7244, 102.5446
518.2065, 102.9831
518.6886, 103.5708
519.1707, 103.6505
519.6528, 103.0045
520.1349, 102.0126
520.6171, 101.2104
521.0992, 100.5889
521.5813, 100.1972
522.0634, 100.2823
522.5455, 100.3627
523.0276, 100.0603
523.5098, 99.65993
523.9919, 99.80531
524.4740, 100.9555
524.9561, 102.2649
525.4382, 102.2947
525.9203, 101.0146
526.4025, 100.1654
526.8846, 100.1752
527.3667, 100.7205
527.8488, 101.8252
528.3309, 103.3320
528.8130, 104.1451
529.2952, 103.4995
529.7773, 102.3656
530.2594, 101.4867
530.7415, 100.8815
531.2236, 100.5163
531.7057, 100.3868
532.1879, 100.4594
532.6700, 100.6734
533.1521, 101.0467
533.6342, 101.5504
534.1163, 102.5465
534.5984, 103.3629
535.0806, 103.2931
535.5627, 102.6351
536.0448, 102.3792
536.5269, 103.2020
537.0090, 104.5718
537.4911, 104.6879
537.9733, 102.4277
538.4554, 101.4119
538.9375, 103.1154
539.4196, 105.2567
539.9017, 106.4713
540.3839, 106.8002
540.8660, 107.0694
541.3481, 108.0637
541.8302, 109.2163
542.3123, 108.9169
542.7944, 106.9240
543.2766, 105.6101
543.7587, 105.9866
544.2408, 107.5022
544.7229, 109.5471
545.2050, 112.2756
545.6871, 114.2126
546.1693, 114.0395
546.6514, 113.3185
547.1335, 113.9292
547.6156, 115.8044
548.0977, 117.5651
548.5798, 118.3299
549.0620, 118.4428
549.5441, 119.0594
550.0262, 120.8980
550.5083, 122.2853
550.9904, 122.6848
551.4725, 123.0325
551.9547, 124.2450
552.4368, 126.1449
552.9189, 127.7494
553.4010, 128.2205
553.8831, 127.9388
554.3652, 128.5565
554.8474, 130.6400
555.3295, 132.1847
555.8116, 132.3725
556.2937, 132.0407
556.7758, 131.5566
557.2579, 131.0165
557.7401, 130.7793
558.2222, 131.1544
558.7043, 131.9280
559.1864, 132.7047
559.6685, 133.4691
560.1506, 134.6042
560.6328, 136.6082
561.1149, 138.7871
561.5970, 139.5209
562.0791, 138.5280
562.5612, 137.3499
563.0433, 135.6682
563.5255, 134.3581
564.0076, 134.5560
564.4897, 135.9308
564.9718, 136.9452
565.4539, 136.5670
565.9360, 135.2781
566.4182, 134.7714
566.9003, 135.8728
567.3824, 136.1800
567.8645, 134.2612
568.3466, 132.6605
568.8287, 133.5266
569.3109, 136.2995
569.7930, 138.6052
570.2751, 138.9700
570.7572, 137.9608
571.2393, 136.5081
571.7214, 134.5447
572.2036, 132.9902
572.6857, 132.1413
573.1678, 131.8547
573.6499, 132.0179
574.1320, 132.6147
574.6141, 133.3065
575.0963, 134.4299
575.5784, 135.2679
576.0605, 134.9143
576.5426, 133.6904
577.0247, 132.6356
577.5068, 132.1957
577.9890, 132.3566
578.4711, 133.1570
578.9532, 135.0117
579.4353, 136.4521
579.9174, 136.8477
580.3995, 137.5109
580.8817, 139.7085
581.3638, 142.5320
581.8459, 144.1245
582.3280, 143.5435
582.8101, 141.9214
583.2922, 141.0071
583.7744, 140.8383
584.2565, 140.8227
584.7386, 140.6431
585.2207, 140.9690
585.7029, 142.5278
586.1850, 144.9229
586.6671, 147.1709
587.1492, 149.0445
587.6313, 150.7088
588.1135, 152.1356
588.5956, 153.4605
589.0777, 154.9917
589.5598, 156.8026
590.0419, 158.8725
590.5240, 161.2910
591.0062, 164.0987
591.4883, 166.0860
