##NAMES=Thenardite
##RRUFFID=R040178
##IDEAL CHEMISTRY=Na_2_S^6+^O_4_
##LOCALITY=Bonita Flow, Flagstaff, Coconino County, Arizona, USA
##OWNER=RRUFF
##SOURCE=University of Arizona Mineral Museum
##DESCRIPTION=Tan colored powder
##STATUS=The identification of this mineral has been confirmed by X-ray diffraction.
##URL=rruff.info/R040178
160.2684, 7664.830
160.7505, 7696.265
161.2326, 7741.351
161.7148, 7782.310
162.1969, 7809.361
162.6790, 7829.729
163.1611, 7850.084
163.6432, 7867.971
164.1253, 7890.321
164.6075, 7924.277
165.0896, 7970.219
165.5717, 8012.839
166.0538, 8041.939
166.5359, 8062.623
167.0180, 8082.329
167.5002, 8099.322
167.9823, 8119.668
168.4644, 8150.572
168.9465, 8194.231
169.4286, 8236.826
169.9107, 8266.654
170.3929, 8287.747
170.8750, 8309.382
171.3571, 8337.428
171.8392, 8367.647
172.3213, 8395.630
172.8034, 8420.468
173.2856, 8443.293
173.7677, 8464.280
174.2498, 8483.896
174.7319, 8503.351
175.2140, 8521.165
175.6961, 8539.794
176.1783, 8563.559
176.6604, 8594.432
177.1425, 8628.006
177.6246, 8662.432
178.1067, 8696.358
178.5888, 8723.264
179.0710, 8731.177
179.5531, 8728.195
180.0352, 8732.296
180.5173, 8749.369
180.9994, 8773.846
181.4815, 8799.608
181.9637, 8826.666
182.4458, 8848.147
182.9279, 8850.811
183.4100, 8841.098
183.8921, 8844.001
184.3742, 8872.487
184.8564, 8915.622
185.3385, 8949.355
185.8206, 8973.971
186.3027, 8989.271
186.7848, 8987.872
187.2669, 8972.913
187.7491, 8968.280
188.2312, 8986.034
188.7133, 9020.632
189.1954, 9053.660
189.6775, 9085.308
190.1596, 9113.567
190.6418, 9135.811
191.1239, 9152.001
191.6060, 9165.448
192.0881, 9177.052
192.5702, 9186.879
193.0524, 9194.830
193.5345, 9200.089
194.0166, 9205.528
194.4987, 9213.724
194.9808, 9224.373
195.4629, 9242.435
195.9451, 9277.056
196.4272, 9328.038
196.9093, 9356.315
197.3914, 9353.816
197.8735, 9339.379
198.3556, 9353.661
198.8378, 9402.021
199.3199, 9444.739
199.8020, 9453.809
200.2841, 9425.882
200.7662, 9414.781
201.2483, 9428.061
201.7305, 9455.734
202.2126, 9471.720
202.6947, 9472.432
203.1768, 9474.841
203.6589, 9491.408
204.1410, 9524.636
204.6232, 9553.158
205.1053, 9574.602
205.5874, 9590.352
206.0695, 9603.628
206.5516, 9612.503
207.0337, 9623.971
207.5159, 9643.632
207.9980, 9672.552
208.4801, 9704.014
208.9622, 9741.583
209.4443, 9780.978
209.9264, 9797.547
210.4086, 9781.696
210.8907, 9762.268
211.3728, 9765.335
211.8549, 9801.646
212.3370, 9822.420
212.8191, 9813.655
213.3013, 9780.770
213.7834, 9770.190
214.2655, 9788.516
214.7476, 9818.668
215.2297, 9847.582
215.7118, 9877.569
216.1940, 9900.313
216.6761, 9912.421
217.1582, 9914.522
217.6403, 9919.243
218.1224, 9926.868
218.6045, 9936.644
219.0867, 9949.192
219.5688, 9968.297
220.0509, 9980.458
220.5330, 9979.126
221.0151, 9963.740
221.4972, 9961.823
221.9794, 9979.688
222.4615, 10003.93
222.9436, 10019.96
223.4257, 10023.10
223.9078, 10027.89
224.3899, 10038.67
224.8721, 10056.42
225.3542, 10068.37
225.8363, 10070.05
226.3184, 10070.28
226.8005, 10080.20
227.2827, 10104.36
227.7648, 10129.55
228.2469, 10152.64
228.7290, 10173.24
229.2111, 10194.06
229.6932, 10215.02
230.1754, 10236.02
230.6575, 10258.62
231.1396, 10289.22
231.6217, 10309.42
232.1038, 10310.42
232.5859, 10286.27
233.0681, 10275.92
233.5502, 10286.61
234.0323, 10305.89
234.5144, 10313.64
234.9965, 10294.91
235.4786, 10290.28
235.9608, 10317.86
236.4429, 10389.01
236.9250, 10437.22
237.4071, 10453.76
237.8892, 10452.35
238.3713, 10454.02
238.8535, 10459.50
239.3356, 10466.92
239.8177, 10476.87
240.2998, 10491.61
240.7819, 10498.62
241.2640, 10488.28
241.7462, 10475.89
242.2283, 10491.90
242.7104, 10562.51
243.1925, 10618.21
243.6746, 10631.96
244.1567, 10587.83
244.6389, 10554.89
245.1210, 10531.12
245.6031, 10519.64
246.0852, 10528.10
246.5673, 10565.92
247.0494, 10607.93
247.5316, 10649.37
248.0137, 10698.07
248.4958, 10716.52
248.9779, 10686.70
249.4600, 10636.66
249.9421, 10621.50
250.4243, 10660.15
250.9064, 10699.47
251.3885, 10717.89
251.8706, 10705.33
252.3527, 10707.33
252.8348, 10733.25
253.3170, 10767.92
253.7991, 10779.03
254.2812, 10750.24
254.7633, 10729.08
255.2454, 10736.07
255.7275, 10780.76
256.2097, 10818.38
256.6918, 10848.29
257.1739, 10871.19
257.6560, 10888.50
258.1381, 10899.91
258.6202, 10906.35
259.1024, 10907.59
259.5845, 10902.51
260.0666, 10895.14
260.5487, 10879.23
261.0308, 10865.83
261.5129, 10879.40
261.9951, 10933.48
262.4772, 10981.89
262.9593, 11004.48
263.4414, 10995.70
263.9235, 10987.66
264.4056, 10978.70
264.8878, 10971.98
265.3699, 10974.44
265.8520, 10989.74
266.3341, 11003.62
266.8162, 11006.51
267.2983, 10993.43
267.7805, 11004.04
268.2626, 11047.48
268.7447, 11104.38
269.2268, 11142.30
269.7089, 11159.07
270.1910, 11164.43
270.6732, 11157.83
271.1553, 11136.94
271.6374, 11127.80
272.1195, 11132.33
272.6016, 11145.83
273.0837, 11163.55
273.5659, 11187.75
274.0480, 11204.88
274.5301, 11205.02
275.0122, 11187.09
275.4943, 11185.58
275.9764, 11204.36
276.4586, 11232.23
276.9407, 11252.77
277.4228, 11264.94
277.9049, 11276.65
278.3870, 11290.51
278.8691, 11306.47
279.3513, 11323.25
279.8334, 11340.73
280.3155, 11359.39
280.7976, 11382.84
281.2798, 11411.40
281.7619, 11432.35
282.2440, 11436.10
282.7261, 11425.96
283.2082, 11430.69
283.6903, 11454.19
284.1725, 11478.14
284.6546, 11472.03
285.1367, 11437.53
285.6188, 11417.34
286.1009, 11433.30
286.5830, 11476.47
287.0652, 11510.33
287.5473, 11534.56
288.0294, 11549.59
288.5115, 11550.23
288.9936, 11538.67
289.4757, 11533.10
289.9579, 11542.81
290.4400, 11562.05
290.9221, 11575.17
291.4042, 11581.91
291.8863, 11586.12
292.3684, 11594.59
292.8506, 11604.82
293.3327, 11605.00
293.8148, 11581.12
294.2969, 11550.81
294.7790, 11554.83
295.2611, 11593.31
295.7433, 11632.36
296.2254, 11637.29
296.7075, 11619.02
297.1896, 11607.39
297.6717, 11607.96
298.1538, 11621.96
298.6360, 11659.17
299.1181, 11717.74
299.6002, 11771.68
300.0823, 11804.81
300.5644, 11819.26
301.0465, 11817.52
301.5287, 11791.26
302.0108, 11760.42
302.4929, 11747.15
302.9750, 11749.69
303.4571, 11758.67
303.9392, 11766.01
304.4214, 11776.45
304.9035, 11798.64
305.3856, 11842.06
305.8677, 11884.96
306.3498, 11902.78
306.8319, 11901.95
307.3141, 11905.52
307.7962, 11939.96
308.2783, 11979.26
308.7604, 11996.53
309.2425, 11979.38
309.7246, 11954.02
310.2068, 11930.16
310.6889, 11910.23
311.1710, 11900.10
311.6531, 11903.68
312.1352, 11917.48
312.6173, 11942.09
313.0995, 11982.97
313.5816, 12017.95
314.0637, 12030.75
314.5458, 12030.88
315.0279, 12036.38
315.5100, 12067.01
315.9922, 12095.13
316.4743, 12102.93
316.9564, 12082.68
317.4385, 12065.79
317.9206, 12061.81
318.4027, 12067.58
318.8849, 12078.69
319.3670, 12102.84
319.8491, 12124.33
320.3312, 12133.00
320.8133, 12123.91
321.2954, 12128.31
321.7776, 12165.00
322.2597, 12213.24
322.7418, 12250.93
323.2239, 12283.54
323.7060, 12296.71
324.1881, 12272.58
324.6703, 12205.19
325.1524, 12173.18
325.6345, 12223.75
326.1166, 12289.96
326.5987, 12318.20
327.0808, 12268.93
327.5630, 12227.72
328.0451, 12201.90
328.5272, 12191.46
329.0093, 12197.31
329.4914, 12231.37
329.9735, 12270.67
330.4557, 12299.89
330.9378, 12311.34
331.4199, 12326.30
331.9020, 12348.41
332.3841, 12375.68
332.8662, 12397.54
333.3484, 12408.47
333.8305, 12422.05
334.3126, 12451.51
334.7947, 12512.61
335.2768, 12536.14
335.7589, 12501.34
336.2411, 12436.62
336.7232, 12417.18
337.2053, 12457.20
337.6874, 12501.58
338.1695, 12522.94
338.6516, 12517.67
339.1338, 12520.82
339.6159, 12536.99
340.0980, 12555.22
340.5801, 12549.98
341.0622, 12517.13
341.5443, 12499.10
342.0265, 12522.70
342.5086, 12581.71
342.9907, 12618.85
343.4728, 12631.64
343.9549, 12631.01
344.4370, 12624.86
344.9192, 12614.30
345.4013, 12610.57
345.8834, 12622.43
346.3655, 12642.67
346.8476, 12647.90
347.3297, 12637.46
347.8119, 12630.57
348.2940, 12651.28
348.7761, 12690.96
349.2582, 12723.59
349.7403, 12743.33
350.2225, 12751.94
350.7046, 12742.78
351.1867, 12719.17
351.6688, 12707.55
352.1509, 12741.94
352.6331, 12796.59
353.1152, 12831.93
353.5973, 12834.31
354.0794, 12824.56
354.5615, 12815.24
355.0436, 12807.77
355.5258, 12806.49
356.0079, 12818.06
356.4900, 12834.46
356.9721, 12848.86
357.4542, 12859.81
357.9363, 12870.07
358.4185, 12879.31
358.9006, 12889.12
359.3827, 12902.24
359.8648, 12925.61
360.3469, 12947.92
360.8290, 12962.51
361.3112, 12967.95
361.7933, 12972.48
362.2754, 12978.97
362.7575, 12985.89
363.2396, 12991.63
363.7217, 12987.70
364.2039, 12990.60
364.6860, 13012.04
365.1681, 13052.38
365.6502, 13075.08
366.1323, 13052.15
366.6144, 13024.90
367.0966, 13021.96
367.5787, 13072.19
368.0608, 13112.44
368.5429, 13136.02
369.0250, 13145.71
369.5071, 13155.62
369.9893, 13170.66
370.4714, 13180.23
370.9535, 13177.16
371.4356, 13149.91
371.9177, 13136.92
372.3998, 13143.20
372.8820, 13161.72
373.3641, 13176.98
373.8462, 13187.56
374.3283, 13198.53
374.8104, 13213.95
375.2925, 13235.29
375.7747, 13242.37
376.2568, 13229.55
376.7389, 13213.71
377.2210, 13219.26
377.7031, 13247.53
378.1852, 13278.69
378.6674, 13311.49
379.1495, 13342.14
379.6316, 13350.38
380.1137, 13333.79
380.5958, 13316.05
381.0779, 13322.41
381.5601, 13348.14
382.0422, 13369.60
382.5243, 13381.99
383.0064, 13387.47
383.4885, 13385.24
383.9706, 13376.90
384.4528, 13374.35
384.9349, 13391.64
385.4170, 13418.53
385.8991, 13438.82
386.3812, 13450.23
386.8633, 13455.09
387.3455, 13448.19
387.8276, 13436.08
388.3097, 13433.74
388.7918, 13449.48
389.2739, 13477.65
389.7560, 13519.74
390.2382, 13577.76
390.7203, 13626.25
391.2024, 13649.43
391.6845, 13656.14
392.1666, 13656.71
392.6487, 13651.17
393.1309, 13643.04
393.6130, 13632.74
394.0951, 13620.48
394.5772, 13608.98
395.0593, 13583.29
395.5414, 13568.40
396.0236, 13580.33
396.5057, 13662.28
396.9878, 13722.60
397.4699, 13742.24
397.9520, 13732.50
398.4341, 13729.08
398.9163, 13740.94
399.3984, 13749.72
399.8805, 13745.91
400.3626, 13718.42
400.8447, 13713.13
401.3268, 13744.57
401.8090, 13787.50
402.2911, 13803.41
402.7732, 13778.22
403.2553, 13763.04
403.7374, 13776.16
404.2195, 13815.28
404.7017, 13835.84
405.1838, 13832.62
405.6659, 13825.01
406.1480, 13830.09
406.6301, 13847.96
407.1122, 13871.53
407.5944, 13903.06
408.0765, 13936.03
408.5586, 13949.75
409.0407, 13944.71
409.5228, 13944.22
410.0049, 13971.55
410.4871, 14015.45
410.9692, 14042.55
411.4513, 14046.79
411.9334, 14045.29
412.4155, 14058.45
412.8976, 14082.15
413.3798, 14103.89
413.8619, 14113.90
414.3440, 14121.81
414.8261, 14142.29
415.3082, 14175.54
415.7903, 14200.48
416.2725, 14203.04
416.7546, 14190.07
417.2367, 14168.17
417.7188, 14115.08
418.2009, 14080.84
418.6830, 14102.14
419.1652, 14165.20
419.6473, 14218.79
420.1294, 14238.53
420.6115, 14249.99
421.0937, 14267.47
421.5758, 14295.90
422.0579, 14322.99
422.5400, 14349.58
423.0221, 14373.45
423.5042, 14391.23
423.9864, 14389.39
424.4685, 14396.47
424.9506, 14422.36
425.4327, 14468.74
425.9148, 14507.75
426.3969, 14535.83
426.8791, 14560.60
427.3612, 14590.64
427.8433, 14632.54
428.3254, 14656.32
428.8075, 14647.83
429.2896, 14622.14
429.7718, 14634.35
430.2539, 14690.18
430.7360, 14752.94
431.2181, 14801.10
431.7002, 14835.65
432.1823, 14869.40
432.6645, 14901.51
433.1466, 14937.91
433.6287, 14986.78
434.1108, 15046.82
434.5929, 15112.66
435.0750, 15185.24
435.5572, 15260.29
436.0393, 15330.68
436.5214, 15396.47
437.0035, 15459.49
437.4856, 15519.02
437.9677, 15576.68
438.4499, 15633.00
438.9320, 15682.14
439.4141, 15740.10
439.8962, 15818.50
440.3783, 15914.28
440.8604, 16021.89
441.3426, 16148.87
441.8247, 16277.96
442.3068, 16399.78
442.7889, 16512.99
443.2710, 16620.41
443.7531, 16731.56
444.2353, 16833.59
444.7174, 16914.23
445.1995, 16941.87
445.6816, 16979.36
446.1637, 17039.78
446.6458, 17120.71
447.1280, 17204.61
447.6101, 17304.94
448.0922, 17393.67
448.5743, 17453.21
449.0564, 17474.57
449.5385, 17492.05
450.0207, 17507.66
450.5028, 17518.77
450.9849, 17521.88
451.4670, 17518.35
451.9491, 17499.52
452.4312, 17455.67
452.9134, 17391.23
453.3955, 17340.87
453.8776, 17306.27
454.3597, 17274.93
454.8418, 17229.86
455.3239, 17176.37
455.8061, 17138.75
456.2882, 17124.00
456.7703, 17124.43
457.2524, 17135.20
457.7345, 17153.45
458.2166, 17167.79
458.6988, 17156.72
459.1809, 17145.49
459.6630, 17170.11
460.1451, 17240.71
460.6272, 17300.52
461.1093, 17294.30
461.5915, 17262.17
462.0736, 17254.10
462.5557, 17321.81
463.0378, 17381.88
463.5199, 17405.98
464.0020, 17395.46
464.4842, 17364.77
464.9663, 17303.49
465.4484, 17232.63
465.9305, 17162.02
466.4126, 17084.21
466.8947, 17020.09
467.3769, 16986.48
467.8590, 16959.47
468.3411, 16895.98
468.8232, 16775.21
469.3053, 16659.45
469.7874, 16563.67
470.2696, 16487.26
470.7517, 16422.25
471.2338, 16373.95
471.7159, 16321.37
472.1980, 16238.34
472.6801, 16125.74
473.1623, 16038.88
473.6444, 15990.37
474.1265, 15959.99
474.6086, 15914.29
475.0907, 15855.27
475.5728, 15795.87
476.0550, 15727.68
476.5371, 15668.60
477.0192, 15660.38
477.5013, 15705.00
477.9834, 15745.68
478.4655, 15733.03
478.9477, 15691.80
479.4298, 15654.49
479.9119, 15632.59
480.3940, 15613.97
480.8761, 15589.44
481.3582, 15562.90
481.8404, 15546.00
482.3225, 15544.80
482.8046, 15552.25
483.2867, 15567.90
483.7688, 15596.75
484.2509, 15616.13
484.7331, 15624.29
485.2152, 15621.89
485.6973, 15607.52
486.1794, 15564.29
486.6615, 15539.00
487.1436, 15545.88
487.6258, 15575.95
488.1079, 15584.66
488.5900, 15565.23
489.0721, 15542.93
489.5542, 15532.90
490.0363, 15535.25
490.5185, 15529.96
491.0006, 15513.73
491.4827, 15499.32
491.9648, 15506.89
492.4470, 15532.76
492.9291, 15556.58
493.4112, 15568.38
493.8933, 15576.58
494.3754, 15595.75
494.8575, 15624.21
495.3397, 15650.27
495.8218, 15665.52
496.3039, 15675.04
496.7860, 15685.63
497.2681, 15700.70
497.7502, 15708.10
498.2324, 15690.81
498.7145, 15664.98
499.1966, 15652.24
499.6787, 15669.38
500.1608, 15690.24
500.6429, 15714.22
501.1251, 15739.62
501.6072, 15743.75
502.0893, 15695.28
502.5714, 15651.68
503.0535, 15642.34
503.5356, 15688.88
504.0178, 15717.48
504.4999, 15722.31
504.9820, 15714.21
505.4641, 15707.98
505.9462, 15703.07
506.4283, 15703.70
506.9105, 15714.97
507.3926, 15731.87
507.8747, 15724.91
508.3568, 15691.87
508.8389, 15676.77
509.3210, 15739.73
509.8032, 15845.72
510.2853, 15891.41
510.7674, 15854.36
511.2495, 15797.76
511.7316, 15772.72
512.2137, 15776.70
512.6959, 15804.48
513.1780, 15887.72
513.6601, 15965.88
514.1422, 15993.98
514.6243, 15977.79
515.1064, 15959.33
515.5886, 15955.35
516.0707, 15953.94
516.5528, 15947.21
517.0349, 15928.55
517.5170, 15916.12
517.9991, 15914.50
518.4813, 15918.99
518.9634, 15923.54
519.4455, 15923.91
519.9276, 15931.89
520.4097, 15952.21
520.8918, 15982.50
521.3740, 16011.08
521.8561, 16039.38
522.3382, 16061.24
522.8203, 16073.98
523.3024, 16077.35
523.7845, 16064.18
524.2667, 16029.78
524.7488, 15994.88
525.2309, 15986.77
525.7130, 15999.48
526.1951, 16011.60
526.6772, 16008.01
527.1594, 16007.65
527.6415, 16041.07
528.1236, 16100.29
528.6057, 16151.05
529.0878, 16163.02
529.5699, 16165.67
530.0521, 16185.42
530.5342, 16233.51
531.0163, 16263.53
531.4984, 16243.59
531.9805, 16205.64
532.4626, 16183.63
532.9448, 16194.06
533.4269, 16206.59
533.9090, 16221.76
534.3911, 16237.01
534.8732, 16240.59
535.3553, 16225.53
535.8375, 16211.77
536.3196, 16206.76
536.8017, 16210.37
537.2838, 16226.16
537.7659, 16257.68
538.2480, 16290.25
538.7302, 16307.93
539.2123, 16312.32
539.6944, 16311.41
540.1765, 16302.23
540.6586, 16297.10
541.1407, 16319.76
541.6229, 16363.02
542.1050, 16401.29
542.5871, 16416.52
543.0692, 16423.48
543.5513, 16435.54
544.0334, 16453.26
544.5156, 16468.29
544.9977, 16475.36
545.4798, 16478.89
545.9619, 16481.70
546.4440, 16476.49
546.9261, 16482.21
547.4083, 16524.61
547.8904, 16574.83
548.3725, 16578.17
548.8546, 16500.22
549.3367, 16431.13
549.8188, 16388.14
550.3010, 16371.55
550.7831, 16392.91
551.2652, 16463.86
551.7473, 16534.14
552.2294, 16561.61
552.7115, 16551.35
553.1937, 16553.72
553.6758, 16574.40
554.1579, 16600.72
554.6400, 16614.86
555.1221, 16621.76
555.6042, 16635.94
556.0864, 16672.47
556.5685, 16708.74
557.0506, 16720.60
557.5327, 16712.89
558.0148, 16703.32
558.4969, 16690.41
558.9791, 16685.94
559.4612, 16702.74
559.9433, 16748.88
560.4254, 16780.18
560.9075, 16782.05
561.3896, 16768.97
561.8718, 16751.91
562.3539, 16705.80
562.8360, 16702.55
563.3181, 16773.93
563.8002, 16878.68
564.2823, 16907.44
564.7645, 16840.37
565.2466, 16785.94
565.7287, 16794.64
566.2108, 16851.75
566.6929, 16883.69
567.1750, 16889.25
567.6572, 16890.91
568.1393, 16913.92
568.6214, 16945.30
569.1035, 16954.72
569.5856, 16932.46
570.0677, 16908.95
570.5499, 16905.06
571.0320, 16917.36
571.5141, 16940.30
571.9962, 16987.38
572.4783, 17029.24
572.9604, 17050.23
573.4426, 17054.06
573.9247, 17061.19
574.4068, 17084.53
574.8889, 17102.59
575.3710, 17104.91
575.8531, 17086.89
576.3353, 17077.05
576.8174, 17076.30
577.2995, 17082.53
577.7816, 17098.02
578.2637, 17124.74
578.7458, 17136.34
579.2280, 17124.33
579.7101, 17104.19
580.1922, 17100.44
580.6743, 17112.43
581.1564, 17136.35
581.6385, 17185.02
582.1207, 17236.89
582.6028, 17259.36
583.0849, 17255.39
583.5670, 17249.77
584.0491, 17264.30
584.5313, 17278.37
585.0134, 17271.56
585.4955, 17229.89
585.9776, 17203.44
586.4597, 17213.34
586.9418, 17241.72
587.4240, 17268.31
587.9061, 17288.33
588.3882, 17313.90
588.8703, 17355.10
589.3524, 17400.31
589.8345, 17410.01
590.3167, 17374.01
590.7988, 17341.29
591.2809, 17331.74
591.7630, 17342.99
592.2451, 17368.13
592.7272, 17407.69
593.2094, 17448.09
593.6915, 17477.79
594.1736, 17500.33
594.6557, 17523.41
595.1378, 17549.05
595.6199, 17570.08
596.1021, 17579.71
596.5842, 17581.58
597.0663, 17580.86
597.5485, 17573.88
598.0306, 17570.33
598.5127, 17573.04
598.9948, 17581.71
599.4769, 17594.55
599.9590, 17606.90
600.4412, 17628.92
600.9233, 17666.49
601.4054, 17721.17
601.8875, 17769.95
602.3696, 17812.99
602.8517, 17848.80
603.3339, 17867.49
603.8160, 17871.78
604.2981, 17900.54
604.7802, 17962.36
605.2623, 18033.35
605.7444, 18073.55
606.2266, 18097.34
606.7087, 18140.83
607.1908, 18218.09
607.6729, 18320.21
608.1550, 18462.77
608.6371, 18628.45
609.1193, 18765.83
609.6014, 18821.71
610.0835, 18871.38
610.5656, 18947.36
611.0477, 19053.75
611.5298, 19173.63
612.0120, 19321.22
612.4941, 19465.88
612.9762, 19583.43
613.4583, 19663.42
613.9404, 19753.98
614.4225, 19860.40
614.9047, 19971.00
615.3868, 20058.07
615.8689, 20126.63
616.3510, 20236.35
616.8331, 20419.02
617.3152, 20632.35
617.7974, 20822.99
618.2795, 20990.46
618.7616, 21143.19
619.2437, 21311.89
619.7258, 21447.29
620.2079, 21510.96
620.6901, 21500.43
621.1722, 21450.23
621.6543, 21352.19
622.1364, 21232.01
622.6185, 21106.06
623.1006, 20971.91
623.5828, 20835.21
624.0649, 20675.07
624.5470, 20531.55
625.0291, 20456.79
625.5112, 20460.08
625.9933, 20486.02
626.4755, 20532.37
626.9576, 20585.23
627.4397, 20598.25
627.9218, 20580.58
628.4039, 20602.20
628.8860, 20725.90
629.3682, 20894.38
629.8503, 21043.79
630.3324, 21172.15
630.8145, 21263.28
631.2966, 21289.08
631.7787, 21286.17
632.2609, 21288.98
632.7430, 21319.24
633.2251, 21285.84
633.7072, 21120.51
634.1893, 20915.18
634.6714, 20743.95
635.1536, 20619.25
635.6357, 20499.21
636.1178, 20375.43
636.5999, 20262.15
637.0820, 20188.34
637.5641, 20155.32
638.0463, 20141.43
638.5284, 20144.80
639.0105, 20158.25
639.4926, 20159.11
639.9747, 20152.83
640.4568, 20170.28
640.9390, 20255.42
641.4211, 20356.73
641.9032, 20423.94
642.3853, 20453.29
642.8674, 20482.81
643.3495, 20521.21
643.8317, 20569.29
644.3138, 20632.24
644.7959, 20745.74
645.2780, 20802.66
645.7601, 20780.57
646.2422, 20721.73
646.7244, 20684.81
647.2065, 20686.49
647.6886, 20620.07
648.1707, 20452.88
648.6528, 20229.38
649.1349, 20026.01
649.6171, 19842.61
650.0992, 19671.65
650.5813, 19510.64
651.0634, 19359.55
651.5455, 19213.40
652.0276, 19074.10
652.5098, 18959.19
652.9919, 18895.46
653.4740, 18845.14
653.9561, 18780.99
654.4382, 18694.56
654.9203, 18630.38
655.4025, 18602.61
655.8846, 18591.42
656.3667, 18585.04
656.8488, 18583.45
657.3309, 18588.44
657.8130, 18604.08
658.2952, 18619.07
