##NAMES=Thomsenolite
##RRUFFID=R050282
##IDEAL CHEMISTRY=NaCaAlF_6_&#183;H_2_O
##LOCALITY=Ivigtut, Greenland
##OWNER=RRUFF
##SOURCE=Marcus Origlieri
##DESCRIPTION=Colorless prismatic rectangular single crystals associated with colorless ralstonite
##STATUS=The identification of this mineral has been confirmed by X-ray diffraction and chemical analysis
##URL=rruff.info/R050282
##MEASURED CHEMISTRY=Na_1.00_(Ca_0.96_Sr_0.04_)_Σ=1_Al_1.00_F_6.00_·H_2_O
104.1121, 24.13346
104.5942, 25.59713
105.0763, 26.65109
105.5585, 27.74109
106.0406, 29.27060
106.5227, 31.55015
107.0048, 33.70898
107.4869, 35.63166
107.9690, 37.31863
108.4512, 38.74539
108.9333, 39.65830
109.4154, 40.45025
109.8975, 41.51999
110.3796, 42.66650
110.8617, 44.30334
111.3439, 46.62785
111.8260, 49.87059
112.3081, 52.99839
112.7902, 56.29847
113.2723, 59.38503
113.7544, 61.66261
114.2366, 62.68217
114.7187, 63.16345
115.2008, 63.34834
115.6829, 63.25026
116.1650, 62.89919
116.6471, 61.95345
117.1293, 60.73571
117.6114, 59.97436
118.0935, 60.42611
118.5756, 61.12765
119.0577, 61.41320
119.5398, 60.76923
120.0220, 60.21179
120.5041, 60.18781
120.9862, 60.66687
121.4683, 61.52535
121.9504, 62.89565
122.4325, 64.53353
122.9147, 66.21561
123.3968, 68.07034
123.8789, 69.75829
124.3610, 70.78246
124.8431, 71.20744
125.3252, 71.69379
125.8074, 72.70399
126.2895, 74.13524
126.7716, 75.79112
127.2537, 77.55128
127.7358, 79.51643
128.2179, 81.94212
128.7001, 84.84679
129.1822, 87.79350
129.6643, 90.44156
130.1464, 92.77803
130.6285, 94.74931
131.1106, 96.45686
131.5928, 97.79576
132.0749, 98.41399
132.5570, 98.27431
133.0391, 97.47798
133.5212, 95.73132
134.0033, 92.91965
134.4855, 90.18298
134.9676, 88.51012
135.4497, 88.11503
135.9318, 87.89175
136.4139, 87.72533
136.8960, 87.78141
137.3782, 88.42950
137.8603, 89.71086
138.3424, 91.30578
138.8245, 93.22401
139.3066, 95.61400
139.7887, 97.38733
140.2709, 98.61122
140.7530, 99.11981
141.2351, 98.14725
141.7172, 95.31579
142.1993, 91.87121
142.6814, 88.63371
143.1636, 85.61961
143.6457, 82.65822
144.1278, 79.66982
144.6099, 76.68143
145.0920, 73.82653
145.5741, 70.94942
146.0563, 68.36481
146.5384, 66.37148
147.0205, 65.19029
147.5026, 64.19752
147.9847, 63.36642
148.4668, 62.71347
148.9490, 61.91010
149.4311, 60.52629
149.9132, 59.24548
150.3953, 58.71791
150.8774, 59.56912
151.3595, 60.47952
151.8417, 61.16893
152.3238, 61.54816
152.8059, 62.22415
153.2880, 63.20806
153.7701, 64.48428
154.2522, 66.05199
154.7344, 68.11225
155.2165, 70.26378
155.6986, 72.43923
156.1807, 74.70576
156.6628, 76.80918
157.1449, 78.29085
157.6271, 79.66009
158.1092, 81.62313
158.5913, 84.61590
159.0734, 87.97822
159.5555, 91.61382
160.0376, 95.81002
160.5198, 99.40097
161.0019, 102.0080
161.4840, 103.7933
161.9661, 104.9482
162.4482, 105.6739
162.9303, 105.7111
163.4125, 104.8369
163.8946, 102.7785
164.3767, 100.3692
164.8588, 97.43948
165.3409, 94.39576
165.8230, 92.13644
166.3052, 91.41172
166.7873, 91.43532
167.2694, 91.60508
167.7515, 91.72292
168.2336, 92.09081
168.7157, 92.93204
169.1978, 94.18093
169.6800, 95.65382
170.1621, 97.07745
170.6442, 98.73549
171.1263, 101.0093
171.6084, 104.3515
172.0905, 107.8156
172.5727, 110.4981
173.0548, 112.5434
173.5369, 114.7008
174.0190, 117.6132
174.5011, 120.9072
174.9832, 124.0994
175.4654, 127.2266
175.9475, 130.0160
176.4296, 132.3207
176.9117, 134.1296
177.3938, 135.2592
177.8759, 135.8336
178.3581, 135.6328
178.8402, 134.1730
179.3223, 131.0421
179.8044, 126.8246
180.2865, 121.9590
180.7686, 116.4980
181.2508, 111.3024
181.7329, 107.0907
182.2150, 103.7104
182.6971, 100.8110
183.1792, 98.35680
183.6613, 96.29343
184.1435, 94.62437
184.6256, 93.33861
185.1077, 92.30307
185.5898, 91.45802
186.0719, 90.77660
186.5540, 90.08231
187.0362, 89.43309
187.5183, 88.70683
188.0004, 87.58652
188.4825, 86.05178
188.9646, 84.22432
189.4467, 82.08416
189.9289, 79.67997
190.4110, 77.41927
190.8931, 75.40855
191.3752, 73.63839
191.8573, 72.03295
192.3394, 70.57201
192.8216, 69.29902
193.3037, 68.17462
193.7858, 67.20546
194.2679, 66.68330
194.7500, 66.82539
195.2321, 67.53725
195.7143, 68.22224
196.1964, 68.84299
196.6785, 69.54271
197.1606, 70.53133
197.6427, 71.83727
198.1248, 73.20857
198.6070, 74.71610
199.0891, 76.31711
199.5712, 77.31070
200.0533, 77.62885
200.5354, 77.50902
201.0175, 77.22417
201.4997, 76.76408
201.9818, 76.20031
202.4639, 75.55637
202.9460, 74.83293
203.4281, 74.01433
203.9102, 73.11982
204.3924, 72.09797
204.8745, 70.73979
205.3566, 68.90053
205.8387, 67.40253
206.3208, 66.63696
206.8029, 66.63788
207.2851, 66.60838
207.7672, 66.54965
208.2493, 66.45935
208.7314, 66.28044
209.2135, 65.93096
209.6956, 65.77570
210.1778, 66.00163
210.6599, 66.66303
211.1420, 67.23367
211.6241, 67.73609
212.1062, 68.11313
212.5883, 68.23089
213.0705, 67.99318
213.5526, 67.75279
214.0347, 67.57745
214.5168, 67.42225
214.9989, 67.64639
215.4810, 68.36960
215.9632, 69.35781
216.4453, 70.21897
216.9274, 70.89822
217.4095, 71.59457
217.8916, 72.35860
218.3737, 73.18059
218.8559, 74.07670
219.3380, 74.93405
219.8201, 75.95283
220.3022, 77.52832
220.7843, 79.93966
221.2664, 82.26937
221.7486, 84.12126
222.2307, 85.26439
222.7128, 87.00494
223.1949, 89.41602
223.6770, 92.35560
224.1591, 95.59200
224.6413, 99.28603
225.1234, 103.0329
225.6055, 106.8739
226.0876, 110.9564
226.5697, 114.2760
227.0518, 116.6522
227.5340, 118.4117
228.0161, 119.9931
228.4982, 121.4695
228.9803, 122.6722
229.4624, 123.6299
229.9445, 124.4541
230.4267, 124.4381
230.9088, 123.2610
231.3909, 121.4863
231.8730, 119.8818
232.3551, 118.4370
232.8372, 117.1663
233.3194, 116.2429
233.8015, 115.8662
234.2836, 114.5787
234.7657, 112.0141
235.2478, 108.8377
235.7299, 105.8509
236.2121, 103.1002
236.6942, 100.4954
237.1763, 98.00541
237.6584, 95.62791
238.1405, 93.43281
238.6226, 91.48843
239.1048, 89.71220
239.5869, 88.03824
240.0690, 86.56187
240.5511, 85.01349
241.0332, 83.20624
241.5153, 81.06114
241.9975, 79.45123
242.4796, 78.56399
242.9617, 78.06301
243.4438, 77.57678
243.9259, 77.01029
244.4080, 76.63670
244.8902, 76.56230
245.3723, 76.81026
245.8544, 76.98580
246.3365, 76.99716
246.8186, 77.02472
247.3007, 77.25384
247.7829, 77.75433
248.2650, 78.33364
248.7471, 79.03838
249.2292, 79.88017
249.7113, 80.39743
250.1934, 80.61308
250.6756, 80.48522
251.1577, 79.94110
251.6398, 78.81366
252.1219, 77.60559
252.6040, 76.35129
253.0861, 75.06751
253.5683, 73.87479
254.0504, 72.67931
254.5325, 71.68658
255.0146, 71.10296
255.4967, 71.11635
255.9788, 71.08856
256.4609, 70.90575
256.9431, 70.59634
257.4252, 70.36362
257.9073, 70.13268
258.3894, 70.08632
258.8715, 70.40475
259.3536, 71.28292
259.8358, 72.02635
260.3179, 72.55318
260.8000, 72.88945
261.2821, 73.16277
261.7642, 73.37614
262.2463, 73.52686
262.7285, 73.59866
263.2106, 73.55521
263.6927, 73.55907
264.1748, 73.67017
264.6569, 73.82890
265.1390, 73.82658
265.6212, 73.65279
266.1033, 73.34043
266.5854, 72.84097
267.0675, 72.05927
267.5496, 71.51480
268.0317, 71.31436
268.5139, 71.32481
268.9960, 71.19233
269.4781, 70.86317
269.9602, 70.53699
270.4423, 70.32402
270.9244, 70.24868
271.4066, 70.17300
271.8887, 70.12573
272.3708, 70.04454
272.8529, 69.71551
273.3350, 69.00206
273.8171, 68.53163
274.2993, 68.68089
274.7814, 69.53721
275.2635, 70.18002
275.7456, 70.61618
276.2277, 70.82744
276.7098, 70.63100
277.1920, 69.89726
277.6741, 69.46694
278.1562, 69.73592
278.6383, 70.70490
279.1204, 71.58007
279.6025, 72.33577
280.0847, 73.07153
280.5668, 73.91315
281.0489, 74.86516
281.5310, 75.87996
282.0131, 76.97542
282.4952, 78.13713
282.9774, 79.17152
283.4595, 80.04855
283.9416, 80.94423
284.4237, 82.04550
284.9058, 83.35210
285.3879, 84.75079
285.8701, 86.18018
286.3522, 87.68784
286.8343, 89.56432
287.3164, 91.84592
287.7985, 94.07177
288.2806, 95.54665
288.7628, 96.39561
289.2449, 97.94331
289.7270, 100.6239
290.2091, 104.0379
290.6912, 107.3160
291.1733, 110.4020
291.6555, 113.3993
292.1376, 116.2698
292.6197, 119.0695
293.1018, 122.0541
293.5839, 125.2084
294.0660, 128.6007
294.5482, 132.5621
295.0303, 137.0123
295.5124, 141.2130
295.9945, 144.7764
296.4766, 147.7769
296.9587, 150.3474
297.4409, 152.5134
297.9230, 154.2995
298.4051, 155.7844
298.8872, 156.9221
299.3693, 157.5337
299.8514, 157.6260
300.3336, 157.0970
300.8157, 155.5943
301.2978, 153.0224
301.7799, 150.0356
302.2620, 147.1950
302.7441, 144.4870
303.2263, 141.8908
303.7084, 139.4361
304.1905, 137.0512
304.6726, 134.4162
305.1547, 131.5340
305.6368, 129.0730
306.1190, 127.6622
306.6011, 127.0672
307.0832, 126.9312
307.5653, 127.4739
308.0474, 128.1479
308.5295, 128.2401
309.0117, 127.8512
309.4938, 127.8479
309.9759, 128.8796
310.4580, 130.6025
310.9401, 132.5775
311.4222, 134.6598
311.9044, 137.0088
312.3865, 139.8360
312.8686, 143.0281
313.3507, 146.2420
313.8328, 149.3810
314.3149, 152.3968
314.7971, 155.1848
315.2792, 157.7102
315.7613, 160.1513
316.2434, 162.8440
316.7255, 165.5251
317.2076, 167.6239
317.6898, 168.9069
318.1719, 169.5519
318.6540, 169.5972
319.1361, 168.9913
319.6182, 168.0125
320.1003, 166.6414
320.5825, 164.9818
321.0646, 163.1760
321.5467, 161.1481
322.0288, 159.0850
322.5109, 156.8210
322.9930, 154.2655
323.4752, 152.5493
323.9573, 152.3687
324.4394, 152.9083
324.9215, 153.4334
325.4036, 153.4256
325.8857, 153.8272
326.3679, 155.0113
326.8500, 156.9428
327.3321, 158.6753
327.8142, 159.4782
328.2963, 160.5114
328.7784, 162.4641
329.2606, 166.4469
329.7427, 170.0130
330.2248, 173.1309
330.7069, 175.8098
331.1890, 178.0168
331.6711, 179.6426
332.1533, 180.9389
332.6354, 182.0554
333.1175, 183.2023
333.5996, 183.6925
334.0817, 183.3816
334.5638, 182.4709
335.0460, 181.3600
335.5281, 180.1449
336.0102, 178.5344
336.4923, 176.4392
336.9744, 173.8463
337.4565, 170.7071
337.9387, 166.8035
338.4208, 162.5969
338.9029, 158.6147
339.3850, 154.8260
339.8671, 151.3927
340.3492, 148.3300
340.8313, 145.6262
341.3134, 143.2347
341.7956, 141.0647
342.2777, 139.4331
342.7598, 138.7139
343.2419, 138.9510
343.7240, 139.2742
344.2061, 139.4833
344.6883, 139.7700
345.1704, 140.7712
345.6525, 142.5442
346.1346, 144.2202
346.6167, 145.1213
347.0988, 145.3962
347.5810, 146.0009
348.0631, 147.1716
348.5452, 148.2144
349.0273, 148.1385
349.5094, 147.0210
349.9915, 145.3636
350.4737, 143.2711
350.9558, 140.8111
351.4379, 138.0068
351.9200, 134.8034
352.4021, 131.9713
352.8842, 130.4423
353.3664, 129.8251
353.8485, 129.1812
354.3306, 127.9265
354.8127, 126.6997
355.2948, 126.1842
355.7769, 126.3624
356.2591, 127.1534
356.7412, 128.8570
357.2233, 131.0005
357.7054, 133.0175
358.1875, 134.5776
358.6696, 136.3425
359.1518, 138.6604
359.6339, 141.5230
360.1160, 144.8957
360.5981, 149.0484
361.0802, 153.5091
361.5623, 157.8685
362.0445, 161.9480
362.5266, 166.5405
363.0087, 171.9800
363.4908, 178.0820
363.9729, 184.5887
364.4550, 191.6406
364.9372, 198.8802
365.4193, 206.0567
365.9014, 213.1553
366.3835, 220.8270
366.8656, 229.3472
367.3477, 238.3776
367.8299, 247.8394
368.3120, 258.0363
368.7941, 268.2932
369.2762, 278.6917
369.7583, 289.1383
370.2404, 299.2958
370.7226, 308.9171
371.2047, 318.3604
371.6868, 327.9391
372.1689, 338.3165
372.6510, 347.3448
373.1331, 354.8169
373.6153, 361.1292
374.0974, 366.9211
374.5795, 372.1197
375.0616, 376.8518
375.5437, 381.0941
376.0258, 384.8300
376.5080, 388.1658
376.9901, 390.9661
377.4722, 393.6278
377.9543, 396.4836
378.4364, 399.4624
378.9185, 403.0306
379.4007, 407.4139
379.8828, 412.2700
380.3649, 416.3730
380.8470, 419.6091
381.3291, 422.7864
381.8112, 426.5316
382.2934, 430.7543
382.7755, 434.5997
383.2576, 438.0380
383.7397, 440.9547
384.2218, 443.7684
384.7039, 446.2003
385.1861, 446.5760
385.6682, 443.4970
386.1503, 438.0280
386.6324, 432.1306
387.1145, 425.8961
387.5966, 418.6305
388.0788, 409.4637
388.5609, 398.8451
389.0430, 387.5259
389.5251, 375.3967
390.0072, 362.8715
390.4893, 350.0640
390.9715, 337.2053
391.4536, 324.3983
391.9357, 311.2404
392.4178, 298.6064
392.8999, 287.3708
393.3820, 277.8179
393.8642, 268.8111
394.3463, 259.8551
394.8284, 251.0331
395.3105, 242.6014
395.7926, 234.3688
396.2747, 226.6893
396.7569, 219.7624
397.2390, 213.6001
397.7211, 208.0721
398.2032, 203.3152
398.6853, 199.0680
399.1674, 195.1884
399.6496, 191.8964
400.1317, 188.6431
400.6138, 185.1544
401.0959, 181.6337
401.5780, 178.8141
402.0602, 177.1317
402.5423, 175.6243
403.0244, 173.9133
403.5065, 171.8602
403.9886, 170.0689
404.4707, 168.6461
404.9529, 167.3823
405.4350, 165.9155
405.9171, 164.0535
406.3992, 162.6393
406.8813, 162.0621
407.3634, 162.1500
407.8456, 161.6687
408.3277, 160.5765
408.8098, 159.0887
409.2919, 157.3181
409.7740, 155.2716
410.2561, 153.2185
410.7383, 151.2617
411.2204, 149.1620
411.7025, 146.3364
412.1846, 142.8502
412.6667, 139.2333
413.1488, 135.8339
413.6310, 132.5153
414.1131, 129.0107
414.5952, 125.3239
415.0773, 121.5347
415.5594, 117.3835
416.0415, 113.2098
416.5237, 109.5383
417.0058, 106.7274
417.4879, 104.3382
417.9700, 102.1402
418.4521, 100.0988
418.9342, 98.03737
419.4164, 95.61752
419.8985, 93.28847
420.3806, 91.46821
420.8627, 90.32120
421.3448, 89.28973
421.8269, 88.07219
422.3091, 86.84987
422.7912, 85.86897
423.2733, 85.53579
423.7554, 85.11198
424.2375, 84.35735
424.7196, 83.26718
425.2018, 82.12142
425.6839, 80.54624
426.1660, 79.21930
426.6481, 78.56123
427.1302, 79.32169
427.6123, 79.53181
428.0945, 78.75063
428.5766, 77.51417
429.0587, 77.15817
429.5408, 78.19449
430.0229, 79.01799
430.5050, 78.92928
430.9872, 77.88313
431.4693, 77.30202
431.9514, 77.32036
432.4335, 77.46195
432.9156, 77.22908
433.3977, 76.61433
433.8799, 75.90649
434.3620, 75.10975
434.8441, 74.31041
435.3262, 73.73656
435.8083, 73.37860
436.2904, 73.05013
436.7726, 72.68848
437.2547, 72.26582
437.7368, 71.66792
438.2189, 70.85991
438.7010, 70.07397
439.1831, 69.67432
439.6652, 69.44160
440.1473, 68.94534
440.6295, 67.75724
441.1116, 66.46901
441.5937, 65.54390
442.0758, 64.93974
442.5579, 64.46303
443.0400, 64.03270
443.5222, 63.67209
444.0043, 63.40464
444.4864, 63.25920
444.9685, 63.14800
445.4506, 63.06071
445.9327, 62.98610
446.4149, 62.90796
446.8970, 62.84649
447.3791, 62.75697
447.8612, 62.61576
448.3433, 62.42084
448.8254, 62.24166
449.3076, 62.12358
449.7897, 61.98045
450.2718, 61.73562
450.7539, 61.24339
451.2360, 61.00835
451.7181, 61.17095
452.2003, 61.50791
452.6824, 61.52486
453.1645, 61.11806
453.6466, 60.80919
454.1287, 60.86906
454.6108, 61.22796
455.0930, 61.15537
455.5751, 60.57209
456.0572, 60.05360
456.5393, 60.21321
457.0214, 60.93879
457.5035, 61.67175
457.9857, 62.37594
458.4678, 62.92623
458.9499, 63.01560
459.4320, 62.76266
459.9141, 62.60092
460.3962, 62.85184
460.8784, 63.27242
461.3605, 63.56578
461.8426, 63.72396
462.3247, 63.91711
462.8068, 64.32469
463.2889, 64.80031
463.7711, 65.17834
464.2532, 65.31693
464.7353, 65.48605
465.2174, 65.81327
465.6995, 66.24681
466.1816, 66.67259
466.6638, 66.95249
467.1459, 67.30561
467.6280, 67.84682
468.1101, 68.63251
468.5922, 69.34591
469.0743, 69.97927
469.5565, 70.53866
470.0386, 71.00357
470.5207, 71.24911
471.0028, 71.66225
471.4849, 72.36252
471.9670, 73.21989
472.4492, 73.84573
472.9313, 74.16505
473.4134, 74.49921
473.8955, 74.95762
474.3776, 75.54583
474.8597, 76.35612
475.3419, 77.42177
475.8240, 78.54963
476.3061, 79.61672
476.7882, 80.59552
477.2703, 81.29359
477.7524, 81.49490
478.2346, 81.69400
478.7167, 82.74847
479.1988, 84.45070
479.6809, 86.02782
480.1630, 86.91680
480.6451, 87.54128
481.1273, 88.31557
481.6094, 89.27605
482.0915, 90.26289
482.5736, 91.07368
483.0557, 91.92375
483.5378, 93.04331
484.0200, 94.86247
484.5021, 96.50166
484.9842, 97.59241
485.4663, 98.31624
485.9484, 99.14626
486.4305, 100.3267
486.9127, 101.4479
487.3948, 102.3743
487.8769, 103.0691
488.3590, 103.7410
488.8411, 104.2412
489.3232, 104.8847
489.8054, 106.0405
490.2875, 107.9745
490.7696, 109.3899
491.2517, 109.9192
491.7338, 110.0712
492.2159, 111.1762
492.6981, 113.3329
493.1802, 115.1540
493.6623, 115.7402
494.1444, 115.4634
494.6265, 115.7474
495.1086, 116.6012
495.5908, 117.6901
496.0729, 118.9660
496.5550, 120.2463
497.0371, 121.1098
497.5192, 121.3744
498.0013, 121.4324
498.4835, 121.5841
498.9656, 121.7875
499.4477, 121.9541
499.9298, 122.0168
500.4119, 122.0563
500.8940, 122.2451
501.3762, 122.5651
501.8583, 122.4837
502.3404, 121.3013
502.8225, 120.0448
503.3046, 119.3798
503.7867, 119.9052
504.2689, 120.1460
504.7510, 120.0411
505.2331, 119.6472
505.7152, 119.0130
506.1973, 118.0398
506.6794, 117.0450
507.1616, 116.0979
507.6437, 115.1855
508.1258, 114.2001
508.6079, 113.0472
509.0900, 112.1888
509.5721, 112.2021
510.0543, 112.9576
510.5364, 113.0131
511.0185, 112.2049
511.5006, 111.0368
511.9827, 109.9535
512.4648, 108.9927
512.9470, 108.2779
513.4291, 107.8988
513.9112, 107.7307
514.3933, 107.7337
514.8754, 107.8522
515.3575, 107.8832
515.8397, 107.6991
516.3218, 107.3972
516.8039, 106.9994
517.2860, 106.4782
517.7681, 106.0717
518.2502, 105.7541
518.7324, 105.6349
519.2145, 105.8122
519.6966, 106.7165
520.1787, 107.4048
520.6608, 107.6229
521.1429, 107.5919
521.6251, 107.8982
522.1072, 108.8263
522.5893, 109.5545
523.0714, 109.6398
523.5535, 109.1015
524.0356, 109.4688
524.5178, 110.9445
524.9999, 112.6378
525.4820, 113.7114
525.9641, 114.2345
526.4462, 115.0814
526.9283, 116.3864
527.4105, 117.9707
527.8926, 119.7061
528.3747, 121.5611
528.8568, 123.3944
529.3389, 124.9318
529.8210, 126.5822
530.3032, 128.9710
530.7853, 131.9319
531.2674, 134.6002
531.7495, 136.1696
532.2316, 137.4682
532.7137, 138.9652
533.1959, 140.6578
533.6780, 142.9005
534.1601, 146.2628
534.6422, 150.0187
535.1243, 153.4713
535.6064, 156.1458
536.0886, 159.0229
536.5707, 162.1118
537.0528, 165.4789
537.5349, 169.2806
538.0170, 173.8699
538.4991, 178.0267
538.9813, 180.9345
539.4634, 182.7335
539.9455, 185.8100
540.4276, 190.3204
540.9097, 195.1795
541.3918, 199.3160
541.8740, 202.8842
542.3561, 206.4391
542.8382, 209.9623
543.3203, 213.7613
543.8024, 218.3658
544.2845, 223.5374
544.7667, 228.6557
545.2488, 233.1686
545.7309, 237.7042
546.2130, 242.7961
546.6951, 248.3512
547.1772, 253.7199
547.6594, 257.5994
548.1415, 262.0474
548.6236, 268.3921
549.1057, 277.2484
549.5878, 285.9624
550.0699, 294.2299
550.5521, 302.4302
551.0342, 310.8386
551.5163, 319.1191
551.9984, 328.3999
552.4805, 339.0570
552.9626, 350.6292
553.4448, 361.6708
553.9269, 372.0460
554.4090, 383.3364
554.8911, 396.4714
555.3732, 410.9402
555.8553, 424.9279
556.3375, 438.3287
556.8196, 451.8835
557.3017, 466.3536
557.7838, 481.1237
558.2659, 495.1443
558.7480, 508.2842
559.2302, 520.6254
559.7123, 532.2142
560.1944, 543.0522
560.6765, 553.1696
561.1586, 563.7604
561.6407, 572.4718
562.1229, 578.2827
562.6050, 581.5828
563.0871, 583.6954
563.5692, 585.1049
564.0513, 584.9501
564.5334, 582.3640
565.0156, 577.2248
565.4977, 573.8361
565.9798, 572.9266
566.4619, 572.4917
566.9440, 571.0234
567.4261, 568.4365
567.9083, 566.2639
568.3904, 564.5849
568.8725, 563.4474
569.3546, 562.6128
569.8367, 562.2761
570.3188, 563.4192
570.8010, 566.9647
571.2831, 571.3189
571.7652, 574.7261
572.2473, 577.2928
572.7294, 579.2031
573.2115, 580.4074
573.6937, 581.1650
574.1758, 582.0919
574.6579, 583.2345
575.1400, 582.5660
575.6221, 579.5765
576.1042, 574.4928
576.5864, 567.4120
577.0685, 558.0591
577.5506, 547.3013
578.0327, 535.2340
578.5148, 521.5717
578.9969, 505.7095
579.4791, 486.9822
579.9612, 467.7616
580.4433, 448.6380
580.9254, 429.4888
581.4075, 409.6172
581.8896, 389.1117
582.3718, 368.9462
582.8539, 349.3230
583.3360, 330.4158
583.8181, 313.0912
584.3002, 297.4654
584.7823, 282.7277
585.2645, 268.3727
585.7466, 254.6744
586.2286, 241.6673
586.7108, 229.3170
587.1929, 218.1532
587.6750, 208.8164
588.1571, 200.6573
588.6392, 192.7915
589.1213, 184.7243
589.6035, 177.3964
590.0856, 171.0155
590.5677, 165.4172
591.0498, 160.1645
591.5319, 155.2402
592.0140, 150.6843
592.4962, 146.6262
592.9783, 142.9905
593.4604, 139.3001
593.9425, 135.5266
594.4246, 131.9132
594.9067, 128.5802
595.3889, 125.5536
595.8710, 122.9401
596.3531, 120.7606
596.8352, 118.7303
597.3173, 116.6710
597.7994, 114.5658
598.2816, 112.4187
598.7637, 110.2064
599.2458, 107.9560
