##NAMES=Thomsonite-Ca
##RRUFFID=R050091
##IDEAL CHEMISTRY=NaCa_2_(Al_5_Si_5_)O_20_&#183;6H_2_O
##LOCALITY=Amudikha River, near Mirny, Yakutia, Siberia, Russia
##OWNER=RRUFF
##SOURCE=Rock Currier
##DESCRIPTION=Radial groups of colorless bladed crystals
##STATUS=The identification of this mineral has been confirmed by X-ray diffraction and chemical analysis
##URL=rruff.info/R050091
##MEASURED CHEMISTRY=(Na_0.94_[box]_0.06_)_Σ=1_(Ca_1.71_Na_0.29_)_Σ=2_(Si_5.35_Al_4.65_)O_20_·7.09H_2_O
138.3520, 537.7219
138.8341, 569.2399
139.3162, 609.6938
139.7984, 649.6653
140.2805, 676.7045
140.7626, 686.0858
141.2447, 698.5932
141.7268, 722.8157
142.2089, 761.2111
142.6911, 790.2084
143.1732, 804.8729
143.6553, 813.4220
144.1374, 832.1779
144.6195, 867.2588
145.1016, 902.1419
145.5838, 930.1030
146.0659, 949.0194
146.5480, 965.6649
147.0301, 978.5905
147.5122, 989.0953
147.9943, 1002.840
148.4765, 1019.739
148.9586, 1039.780
149.4407, 1063.779
149.9228, 1100.390
150.4049, 1129.305
150.8870, 1143.059
151.3692, 1141.865
151.8513, 1153.277
152.3334, 1191.123
152.8155, 1234.054
153.2976, 1266.846
153.7797, 1275.544
154.2619, 1287.090
154.7440, 1307.877
155.2261, 1339.926
155.7082, 1369.179
156.1903, 1394.509
156.6724, 1416.282
157.1546, 1434.225
157.6367, 1443.502
158.1188, 1453.213
158.6009, 1466.964
159.0830, 1486.991
159.5652, 1506.042
160.0473, 1518.483
160.5294, 1528.914
161.0115, 1545.994
161.4936, 1574.834
161.9757, 1609.456
162.4579, 1648.338
162.9400, 1699.332
163.4221, 1740.762
163.9042, 1755.897
164.3863, 1752.187
164.8684, 1754.604
165.3506, 1782.459
165.8327, 1817.066
166.3148, 1842.986
166.7969, 1848.725
167.2790, 1851.977
167.7611, 1863.736
168.2433, 1882.954
168.7254, 1900.068
169.2075, 1903.217
169.6896, 1903.001
170.1717, 1911.866
170.6538, 1942.210
171.1360, 1978.307
171.6181, 2009.537
172.1002, 2035.812
172.5823, 2057.306
173.0644, 2068.819
173.5465, 2076.076
174.0287, 2089.567
174.5108, 2115.728
174.9929, 2149.696
175.4750, 2191.252
175.9571, 2243.062
176.4392, 2286.791
176.9214, 2301.200
177.4035, 2292.494
177.8856, 2278.008
178.3677, 2264.799
178.8498, 2252.298
179.3319, 2240.885
179.8141, 2232.581
180.2962, 2220.087
180.7783, 2194.292
181.2604, 2156.434
181.7425, 2110.591
182.2246, 2053.318
182.7068, 1990.303
183.1889, 1933.560
183.6710, 1886.959
184.1531, 1845.993
184.6352, 1806.143
185.1173, 1766.942
185.5995, 1726.266
186.0816, 1677.432
186.5637, 1624.533
187.0458, 1582.395
187.5279, 1558.535
188.0100, 1545.474
188.4922, 1526.672
188.9743, 1501.595
189.4564, 1476.242
189.9385, 1455.769
190.4206, 1439.930
190.9027, 1426.873
191.3849, 1415.673
191.8670, 1406.777
192.3491, 1402.081
192.8312, 1401.891
193.3133, 1404.203
193.7955, 1407.808
194.2776, 1412.647
194.7597, 1415.861
195.2418, 1416.953
195.7239, 1415.767
196.2060, 1410.440
196.6882, 1400.420
197.1703, 1387.687
197.6524, 1374.917
198.1345, 1362.335
198.6166, 1348.896
199.0987, 1334.659
199.5809, 1319.625
200.0630, 1302.386
200.5451, 1283.133
201.0272, 1261.442
201.5093, 1235.529
201.9914, 1204.784
202.4736, 1173.032
202.9557, 1140.981
203.4378, 1108.325
203.9199, 1078.744
204.4020, 1051.848
204.8841, 1028.618
205.3663, 1012.031
205.8484, 1002.921
206.3305, 997.5358
206.8126, 993.9066
207.2947, 992.0820
207.7768, 992.0078
208.2590, 994.5732
208.7411, 998.5740
209.2232, 999.0540
209.7053, 994.3187
210.1874, 990.1230
210.6695, 991.2062
211.1517, 999.3497
211.6338, 1004.964
212.1159, 1005.890
212.5980, 1003.176
213.0801, 1003.295
213.5622, 1007.342
214.0444, 1012.162
214.5265, 1014.210
215.0086, 1011.157
215.4907, 1013.329
215.9728, 1024.595
216.4549, 1043.887
216.9371, 1056.066
217.4192, 1057.516
217.9013, 1057.027
218.3834, 1064.818
218.8655, 1087.308
219.3476, 1100.198
219.8298, 1095.340
220.3119, 1072.562
220.7940, 1057.962
221.2761, 1055.136
221.7582, 1056.362
222.2403, 1053.712
222.7225, 1047.609
223.2046, 1036.515
223.6867, 1017.955
224.1688, 990.4543
224.6509, 971.4545
225.1330, 965.2938
225.6152, 963.3452
226.0973, 953.9064
226.5794, 932.9958
227.0615, 913.0555
227.5436, 897.9019
228.0257, 888.2848
228.5079, 878.2149
228.9900, 867.4104
229.4721, 856.2562
229.9542, 845.5111
230.4363, 836.3915
230.9185, 825.4606
231.4006, 810.7329
231.8827, 790.5610
232.3648, 773.9724
232.8469, 761.6838
233.3290, 752.4179
233.8112, 744.3221
234.2933, 739.1625
234.7754, 732.1740
235.2575, 720.7042
235.7396, 701.6008
236.2217, 688.4554
236.7039, 683.1925
237.1860, 682.9193
237.6681, 681.4271
238.1502, 675.8983
238.6323, 673.6540
239.1144, 679.1357
239.5966, 699.1201
240.0787, 707.6665
240.5608, 699.0266
241.0429, 681.0562
241.5250, 671.5534
242.0071, 674.4456
242.4893, 679.8717
242.9714, 684.0643
243.4535, 687.3665
243.9356, 688.4509
244.4177, 685.1284
244.8998, 680.1377
245.3820, 681.2112
245.8641, 692.1541
246.3462, 703.5979
246.8283, 711.0344
247.3104, 712.2930
247.7925, 714.6643
248.2747, 718.4873
248.7568, 723.4288
249.2389, 728.4581
249.7210, 733.0514
250.2031, 738.5259
250.6852, 745.7162
251.1674, 755.4177
251.6495, 764.1279
252.1316, 767.9915
252.6137, 771.3698
253.0958, 790.8924
253.5779, 840.4028
254.0601, 884.6772
254.5422, 902.4041
255.0243, 879.8345
255.5064, 866.7348
255.9885, 868.5325
256.4706, 880.6548
256.9528, 887.9315
257.4349, 888.9703
257.9170, 887.4537
258.3991, 884.6034
258.8812, 878.7284
259.3633, 876.8541
259.8455, 882.0406
260.3276, 890.9892
260.8097, 891.4436
261.2918, 879.9476
261.7739, 866.2997
262.2560, 856.1697
262.7382, 851.2642
263.2203, 843.9551
263.7024, 830.9467
264.1845, 815.8224
264.6666, 813.2450
265.1487, 830.8377
265.6309, 845.2492
266.1130, 840.8755
266.5951, 811.7073
267.0772, 784.4206
267.5593, 759.3708
268.0414, 737.7327
268.5236, 725.7057
269.0057, 726.4652
269.4878, 728.9211
269.9699, 725.7861
270.4520, 715.3347
270.9341, 707.4099
271.4163, 703.4899
271.8984, 702.2765
272.3805, 699.9861
272.8626, 696.5813
273.3447, 692.1310
273.8268, 685.4470
274.3090, 675.5613
274.7911, 670.8185
275.2732, 673.7475
275.7553, 681.1054
276.2374, 683.6818
276.7195, 680.5500
277.2017, 676.3147
277.6838, 674.1497
278.1659, 674.3509
278.6480, 672.3890
279.1301, 666.5068
279.6122, 659.5405
280.0944, 658.4658
280.5765, 663.8607
281.0586, 672.0281
281.5407, 683.6132
282.0229, 698.7076
282.5050, 703.7499
282.9871, 694.3283
283.4692, 678.3771
283.9513, 673.5614
284.4334, 680.6842
284.9156, 689.5593
285.3977, 694.0958
285.8798, 694.6220
286.3619, 695.1683
286.8440, 695.5106
287.3261, 697.0012
287.8083, 703.6672
288.2904, 715.5688
288.7725, 726.1447
289.2546, 730.2338
289.7367, 729.0521
290.2188, 729.9431
290.7010, 733.8042
291.1831, 739.3020
291.6652, 743.2615
292.1473, 746.0103
292.6294, 751.5870
293.1115, 765.1448
293.5937, 783.8325
294.0758, 797.5739
294.5579, 805.1358
295.0400, 809.0531
295.5221, 811.6296
296.0042, 813.2000
296.4864, 815.5930
296.9685, 819.0986
297.4506, 824.2250
297.9327, 833.0013
298.4148, 846.3631
298.8969, 860.0854
299.3791, 868.0944
299.8612, 871.7678
300.3433, 875.5914
300.8254, 879.9366
301.3075, 886.4217
301.7896, 900.1257
302.2718, 922.8909
302.7539, 943.2028
303.2360, 945.7903
303.7181, 936.7159
304.2002, 930.6943
304.6823, 936.9240
305.1645, 949.0215
305.6466, 960.1944
306.1287, 970.3032
306.6108, 978.5040
307.0929, 984.9494
307.5750, 988.9854
308.0572, 989.6867
308.5393, 984.0145
309.0214, 976.4302
309.5035, 970.1461
309.9856, 965.3106
310.4677, 962.3979
310.9499, 965.2664
311.4320, 969.4233
311.9141, 968.7144
312.3962, 954.7120
312.8783, 939.7244
313.3604, 931.4502
313.8426, 929.9233
314.3247, 931.4292
314.8068, 936.2552
315.2889, 942.2834
315.7710, 947.3311
316.2531, 948.2275
316.7353, 950.2617
317.2174, 956.9462
317.6995, 967.7790
318.1816, 977.4750
318.6637, 984.9925
319.1458, 989.9951
319.6280, 992.2131
320.1101, 990.8435
320.5922, 987.4265
321.0743, 980.3654
321.5564, 970.7116
322.0385, 964.3137
322.5207, 961.9958
323.0028, 963.8419
323.4849, 970.0266
323.9670, 988.4079
324.4491, 1001.784
324.9312, 1004.071
325.4134, 998.4597
325.8955, 996.9494
326.3776, 1004.783
326.8597, 1014.173
327.3418, 1021.517
327.8239, 1023.929
328.3061, 1027.961
328.7882, 1035.625
329.2703, 1045.098
329.7524, 1051.705
330.2345, 1054.196
330.7166, 1055.019
331.1988, 1054.231
331.6809, 1048.273
332.1630, 1049.306
332.6451, 1062.698
333.1272, 1081.192
333.6093, 1090.639
334.0915, 1085.546
334.5736, 1079.995
335.0557, 1077.142
335.5378, 1075.608
336.0199, 1084.682
336.5020, 1109.974
336.9842, 1140.515
337.4663, 1160.715
337.9484, 1166.964
338.4305, 1172.921
338.9126, 1183.847
339.3947, 1199.759
339.8769, 1207.539
340.3590, 1205.046
340.8411, 1198.919
341.3232, 1196.568
341.8053, 1198.571
342.2874, 1200.279
342.7696, 1201.561
343.2517, 1201.599
343.7338, 1195.231
344.2159, 1181.549
344.6980, 1165.903
345.1801, 1153.377
345.6623, 1143.755
346.1444, 1131.762
346.6265, 1115.012
347.1086, 1096.552
347.5907, 1083.808
348.0728, 1076.968
348.5550, 1071.168
349.0371, 1062.415
349.5192, 1051.836
350.0013, 1043.306
350.4834, 1038.390
350.9655, 1034.067
351.4477, 1026.151
351.9298, 1014.948
352.4119, 1002.453
352.8940, 988.3738
353.3762, 974.1231
353.8583, 962.1893
354.3404, 952.9240
354.8225, 945.7931
355.3046, 942.8574
355.7867, 941.8791
356.2689, 937.4845
356.7510, 921.9399
357.2331, 904.6686
357.7152, 894.2842
358.1973, 891.7101
358.6794, 893.1310
359.1616, 899.4197
359.6437, 907.4501
360.1258, 912.8481
360.6079, 911.4290
361.0900, 908.9877
361.5721, 908.9957
362.0543, 911.5067
362.5364, 913.1317
363.0185, 915.6899
363.5006, 915.2431
363.9827, 908.2766
364.4648, 881.7090
364.9470, 861.0573
365.4291, 858.0921
365.9112, 869.8503
366.3933, 874.6926
366.8754, 860.9353
367.3575, 844.1738
367.8397, 833.3837
368.3218, 835.3749
368.8039, 835.8347
369.2860, 831.4797
369.7681, 824.7721
370.2502, 823.0601
370.7324, 830.7173
371.2145, 839.0200
371.6966, 844.5005
372.1787, 845.4323
372.6608, 847.9499
373.1429, 853.4673
373.6251, 859.7930
374.1072, 862.6255
374.5893, 858.4949
375.0714, 858.0175
375.5535, 866.1917
376.0356, 883.9003
376.5178, 895.6280
376.9999, 899.5411
377.4820, 900.4320
377.9641, 903.9861
378.4462, 910.8148
378.9283, 916.2634
379.4105, 918.5448
379.8926, 918.5546
380.3747, 920.5394
380.8568, 924.7316
381.3389, 929.5614
381.8210, 932.7321
382.3032, 934.7652
382.7853, 941.0423
383.2674, 954.3698
383.7495, 969.8013
384.2316, 977.1177
384.7137, 977.0042
385.1959, 974.9843
385.6780, 975.1147
386.1601, 975.8578
386.6422, 973.1278
387.1243, 965.3676
387.6064, 957.8676
388.0886, 957.0014
388.5707, 960.8557
389.0528, 964.5067
389.5349, 963.8030
390.0170, 962.6910
390.4991, 967.2823
390.9813, 978.5274
391.4634, 984.9989
391.9455, 973.1516
392.4276, 953.9239
392.9097, 941.2122
393.3918, 950.1086
393.8740, 957.5587
394.3561, 951.1899
394.8382, 932.1822
395.3203, 912.9522
395.8024, 894.4003
396.2845, 879.5901
396.7667, 870.8989
397.2488, 876.1594
397.7309, 878.2623
398.2130, 872.7621
398.6951, 861.6625
399.1772, 851.2444
399.6594, 843.2979
400.1415, 835.2617
400.6236, 825.7490
401.1057, 812.4466
401.5878, 803.3341
402.0699, 800.9601
402.5521, 801.5343
403.0342, 799.3456
403.5163, 792.5051
403.9984, 786.1165
404.4805, 780.4489
404.9626, 775.4613
405.4448, 777.3342
405.9269, 789.0532
406.4090, 802.1511
406.8911, 808.1085
407.3732, 805.9488
407.8553, 803.2318
408.3375, 801.3583
408.8196, 799.8453
409.3017, 796.0671
409.7838, 789.5953
410.2659, 785.6862
410.7480, 790.1703
411.2302, 801.1277
411.7123, 808.4180
412.1944, 810.1209
412.6765, 810.0936
413.1586, 813.4197
413.6407, 819.6293
414.1229, 826.5223
414.6050, 832.6962
415.0871, 839.1055
415.5692, 848.1056
416.0513, 860.0980
416.5334, 870.0689
417.0156, 871.8585
417.4977, 869.6548
417.9798, 869.6987
418.4619, 875.3521
418.9440, 883.0074
419.4261, 890.5311
419.9083, 898.0110
420.3904, 906.7797
420.8725, 918.4297
421.3546, 930.8983
421.8367, 942.4508
422.3188, 951.8189
422.8010, 962.1074
423.2831, 974.1786
423.7652, 987.7139
424.2473, 1002.302
424.7295, 1022.116
425.2116, 1039.207
425.6937, 1049.461
426.1758, 1049.301
426.6579, 1056.193
427.1400, 1075.479
427.6222, 1098.324
428.1043, 1115.820
428.5864, 1124.917
429.0685, 1134.402
429.5506, 1143.961
430.0327, 1154.524
430.5149, 1175.803
430.9970, 1212.456
431.4791, 1248.481
431.9612, 1269.965
432.4433, 1275.666
432.9254, 1288.848
433.4076, 1313.283
433.8897, 1343.263
434.3718, 1367.920
434.8539, 1387.422
435.3360, 1407.739
435.8181, 1430.933
436.3003, 1456.984
436.7824, 1488.408
437.2645, 1525.811
437.7466, 1560.529
438.2287, 1581.822
438.7108, 1594.090
439.1930, 1607.016
439.6751, 1623.547
440.1572, 1642.258
440.6393, 1664.639
441.1214, 1689.177
441.6035, 1708.409
442.0857, 1716.860
442.5678, 1718.768
443.0499, 1717.893
443.5320, 1715.565
444.0141, 1708.887
444.4962, 1695.646
444.9784, 1677.470
445.4605, 1657.087
445.9426, 1627.059
446.4247, 1602.539
446.9068, 1595.119
447.3889, 1610.405
447.8711, 1602.604
448.3532, 1543.549
448.8353, 1477.139
449.3174, 1436.432
449.7995, 1443.396
450.2816, 1438.629
450.7638, 1410.754
451.2459, 1367.139
451.7280, 1338.544
452.2101, 1330.272
452.6922, 1324.494
453.1743, 1313.556
453.6565, 1297.687
454.1386, 1273.536
454.6207, 1238.004
455.1028, 1200.829
455.5849, 1175.063
456.0670, 1160.448
456.5492, 1151.635
457.0313, 1149.705
457.5134, 1151.133
457.9955, 1145.839
458.4776, 1134.101
458.9597, 1124.594
459.4419, 1125.148
459.9240, 1132.339
460.4061, 1140.561
460.8882, 1148.661
461.3703, 1157.386
461.8524, 1169.313
462.3346, 1182.427
462.8167, 1191.790
463.2988, 1186.232
463.7809, 1182.803
464.2630, 1194.206
464.7451, 1222.642
465.2273, 1250.301
465.7094, 1272.846
466.1915, 1290.704
466.6736, 1304.492
467.1557, 1305.814
467.6378, 1312.479
468.1200, 1328.051
468.6021, 1351.500
469.0842, 1377.912
469.5663, 1412.164
470.0484, 1443.595
470.5305, 1468.228
471.0127, 1485.556
471.4948, 1497.370
471.9769, 1504.000
472.4590, 1504.875
472.9411, 1496.495
473.4232, 1476.632
473.9054, 1462.979
474.3875, 1465.398
474.8696, 1476.837
475.3517, 1465.543
475.8338, 1430.396
476.3159, 1393.324
476.7981, 1375.153
477.2802, 1368.989
477.7623, 1352.522
478.2444, 1320.409
478.7265, 1283.861
479.2086, 1254.420
479.6908, 1230.887
480.1729, 1210.629
480.6550, 1191.568
481.1371, 1175.747
481.6192, 1167.869
482.1013, 1167.569
482.5835, 1163.292
483.0656, 1144.126
483.5477, 1121.227
484.0298, 1103.838
484.5119, 1093.906
484.9940, 1089.822
485.4762, 1095.190
485.9583, 1106.280
486.4404, 1113.492
486.9225, 1113.890
487.4046, 1112.212
487.8867, 1108.998
488.3689, 1103.530
488.8510, 1101.273
489.3331, 1104.810
489.8152, 1108.438
490.2973, 1105.291
490.7794, 1092.786
491.2616, 1085.076
491.7437, 1085.688
492.2258, 1091.457
492.7079, 1093.557
493.1900, 1091.799
493.6722, 1089.797
494.1543, 1089.782
494.6364, 1091.225
495.1185, 1092.574
495.6006, 1093.802
496.0828, 1094.396
496.5649, 1096.691
497.0470, 1097.780
497.5291, 1091.047
498.0112, 1065.611
498.4933, 1040.312
498.9755, 1033.985
499.4576, 1042.191
499.9397, 1048.545
500.4218, 1045.118
500.9039, 1037.471
501.3860, 1027.679
501.8682, 1013.803
502.3503, 1005.449
502.8324, 1008.820
503.3145, 1017.369
503.7966, 1023.295
504.2787, 1024.214
504.7609, 1024.755
505.2430, 1023.833
505.7251, 1022.395
506.2072, 1028.154
506.6893, 1045.542
507.1714, 1062.183
507.6536, 1070.090
508.1357, 1067.613
508.6178, 1070.677
509.0999, 1081.268
509.5820, 1093.720
510.0641, 1098.487
510.5463, 1096.442
511.0284, 1097.983
511.5105, 1105.767
511.9926, 1119.735
512.4747, 1141.916
512.9568, 1171.518
513.4390, 1201.918
513.9211, 1227.860
514.4032, 1252.363
514.8853, 1277.794
515.3674, 1303.640
515.8495, 1334.754
516.3317, 1380.306
516.8138, 1431.304
517.2959, 1475.313
517.7780, 1494.869
518.2601, 1520.502
518.7422, 1563.689
519.2244, 1623.336
519.7065, 1685.572
520.1886, 1744.584
520.6707, 1809.105
521.1528, 1883.489
521.6349, 1971.288
522.1171, 2059.927
522.5992, 2150.168
523.0813, 2240.492
523.5634, 2329.052
524.0455, 2413.174
524.5276, 2510.696
525.0098, 2630.488
525.4919, 2764.815
525.9740, 2891.094
526.4561, 3010.129
526.9382, 3128.214
527.4203, 3251.986
527.9025, 3380.525
528.3846, 3508.185
528.8667, 3634.239
529.3488, 3765.768
529.8309, 3915.556
530.3130, 4072.532
530.7952, 4220.910
531.2773, 4353.943
531.7594, 4475.610
532.2415, 4583.729
532.7236, 4680.806
533.2057, 4772.838
533.6879, 4869.197
534.1700, 4956.280
534.6521, 5029.805
535.1342, 5094.158
535.6163, 5129.655
536.0984, 5130.871
536.5806, 5106.654
537.0627, 5066.334
537.5448, 5010.580
538.0269, 4935.368
538.5090, 4840.384
538.9911, 4725.903
539.4733, 4592.799
539.9554, 4437.317
540.4375, 4282.045
540.9196, 4145.228
541.4017, 4019.546
541.8839, 3873.641
542.3660, 3704.599
542.8481, 3533.314
543.3302, 3370.777
543.8123, 3218.374
544.2944, 3077.937
544.7766, 2953.164
545.2587, 2835.616
545.7408, 2720.144
546.2229, 2608.443
546.7050, 2501.851
547.1871, 2398.077
547.6693, 2302.107
548.1514, 2219.260
548.6335, 2150.910
549.1156, 2083.536
549.5977, 2009.836
550.0798, 1939.926
550.5620, 1881.965
551.0441, 1843.077
551.5262, 1801.380
552.0083, 1755.211
552.4904, 1706.371
552.9725, 1657.943
553.4547, 1609.727
553.9368, 1562.625
554.4189, 1516.405
554.9010, 1471.920
555.3831, 1432.892
555.8652, 1399.312
556.3474, 1371.728
556.8295, 1355.810
557.3116, 1345.278
557.7937, 1326.835
558.2758, 1297.382
558.7579, 1264.877
559.2401, 1231.231
559.7222, 1200.225
560.2043, 1177.985
560.6864, 1173.581
561.1685, 1171.846
561.6506, 1169.052
562.1328, 1164.336
562.6149, 1153.573
563.0970, 1129.910
563.5791, 1105.333
564.0612, 1083.490
564.5433, 1062.978
565.0255, 1051.445
565.5076, 1053.584
565.9897, 1059.271
566.4718, 1057.221
566.9539, 1045.654
567.4360, 1038.533
567.9182, 1040.317
568.4003, 1044.982
568.8824, 1038.112
569.3645, 1020.668
569.8466, 1003.595
570.3287, 992.7701
570.8109, 986.1554
571.2930, 981.5114
571.7751, 978.6662
572.2572, 975.8355
572.7393, 971.7865
573.2214, 967.0632
573.7036, 962.1371
574.1857, 956.9361
574.6678, 951.9644
575.1499, 948.1668
575.6320, 944.5711
576.1141, 939.6921
576.5963, 930.9800
577.0784, 923.6913
577.5605, 919.6633
578.0426, 918.2225
578.5247, 914.0152
579.0068, 904.5723
579.4890, 897.4938
579.9711, 898.0115
580.4532, 906.7365
580.9353, 912.0773
581.4174, 914.0386
581.8995, 912.5683
582.3817, 903.5490
582.8638, 890.2510
583.3459, 886.1603
583.8280, 898.6902
584.3101, 913.5394
584.7922, 912.6023
585.2744, 900.7965
585.7565, 890.7665
586.2386, 888.1730
586.7207, 889.4431
587.2028, 894.8261
587.6849, 903.9295
588.1671, 908.6258
588.6492, 902.7131
589.1313, 894.5856
589.6134, 889.2177
590.0955, 887.1000
590.5776, 886.9119
591.0598, 889.5688
591.5419, 893.3336
592.0240, 895.5031
592.5061, 895.3640
592.9882, 897.9247
593.4703, 906.3375
593.9525, 916.0632
594.4346, 912.0117
594.9167, 895.4407
595.3988, 884.0302
595.8809, 892.6719
596.3630, 911.1894
596.8452, 924.2078
597.3273, 930.9362
597.8094, 933.4588
598.2915, 930.4135
598.7736, 925.1768
599.2557, 920.6994
599.7379, 916.7281
600.2200, 915.4968
600.7021, 919.6406
601.1843, 926.4458
601.6664, 922.2673
602.1485, 933.5291
602.6306, 939.7003
603.1127, 941.0545
603.5948, 923.1640
604.0770, 930.1239
604.5591, 927.1249
605.0412, 923.7176
605.5233, 934.1752
606.0054, 919.0838
606.4875, 929.3215
606.9697, 929.4482
607.4518, 934.2025
607.9339, 928.9363
608.4160, 926.7652
608.8981, 934.6177
609.3802, 936.9200
609.8624, 930.5003
610.3445, 935.5488
610.8266, 920.1074
611.3087, 922.6461
611.7908, 932.8286
612.2729, 936.8674
612.7551, 927.8598
613.2372, 907.7060
613.7193, 890.5406
614.2014, 875.1296
614.6835, 865.0928
615.1656, 863.3604
615.6478, 871.1160
616.1299, 875.6851
616.6120, 876.3583
617.0941, 875.6068
617.5762, 875.8630
618.0583, 876.9133
618.5405, 876.7374
619.0226, 874.7223
619.5047, 872.3573
619.9868, 872.4794
620.4689, 873.7288
620.9510, 872.8168
621.4332, 867.3942
621.9153, 860.1992
622.3974, 853.0067
622.8795, 845.5450
623.3616, 836.5826
623.8438, 819.2130
624.3259, 805.8680
624.8080, 803.9948
625.2901, 815.7874
625.7722, 825.3406
626.2543, 832.8967
626.7365, 837.9111
627.2186, 839.8657
627.7007, 838.6082
628.1828, 834.2789
628.6649, 825.4424
629.1470, 817.1351
629.6292, 818.3258
630.1113, 827.2582
630.5934, 834.8669
631.0755, 837.5891
631.5576, 838.3273
632.0397, 841.7835
632.5219, 846.4579
633.0040, 847.5640
