##NAMES=Thortveitite
##RRUFFID=R060360
##IDEAL CHEMISTRY=Sc^3+^_2_Si_2_O_7_
##LOCALITY=Rossa, near Evje, southern Norway
##OWNER=RRUFF
##SOURCE=Michael Scott
##DESCRIPTION=Gray transparent prismatic crystal
##STATUS=The identification of this mineral is confirmed by single-crystal X-ray diffraction and chemical analysis.
##URL=rruff.info/R060360
##MEASURED CHEMISTRY=(Sc_1.44_Y_0.30_Zr_0.07_Fe^3+^_0.08_Mn_0.06_Yb_0.05_)_Σ=2_(Si_1.99_Al_0.01_)_Σ=2_O_7_
117.0086, 13.09524
117.4907, 13.06198
117.9728, 13.05376
118.4550, 13.07406
118.9371, 13.12708
119.4192, 13.31499
119.9013, 13.51509
120.3834, 13.56760
120.8655, 13.19506
121.3477, 12.78579
121.8298, 12.64775
122.3119, 12.84229
122.7940, 13.09365
123.2761, 13.12134
123.7582, 13.05171
124.2404, 13.16611
124.7225, 13.86465
125.2046, 14.74656
125.6867, 15.24551
126.1688, 15.15286
126.6509, 14.98581
127.1331, 15.28977
127.6152, 16.01477
128.0973, 16.91221
128.5794, 17.75661
129.0615, 18.64554
129.5436, 19.84177
130.0258, 21.50866
130.5079, 23.39334
130.9900, 24.99101
131.4721, 26.28835
131.9542, 27.75091
132.4363, 29.69292
132.9185, 32.11580
133.4006, 35.05687
133.8827, 38.71022
134.3648, 42.83640
134.8469, 46.65254
135.3290, 50.00655
135.8112, 53.73760
136.2933, 58.73761
136.7754, 65.05640
137.2575, 72.14834
137.7396, 80.00315
138.2217, 88.47556
138.7039, 97.33540
139.1860, 106.7212
139.6681, 116.2997
140.1502, 125.6010
140.6323, 134.2566
141.1144, 143.5627
141.5966, 154.4280
142.0787, 167.4706
142.5608, 178.9941
143.0429, 188.6428
143.5250, 196.9578
144.0071, 205.0344
144.4893, 212.7194
144.9714, 220.3016
145.4535, 227.7902
145.9356, 235.1768
146.4177, 242.6160
146.8998, 249.9385
147.3820, 257.3084
147.8641, 265.7176
148.3462, 274.9164
148.8283, 285.2793
149.3104, 297.1717
149.7925, 311.6425
150.2747, 326.2060
150.7568, 340.3918
151.2389, 354.2613
151.7210, 368.6153
152.2031, 384.0633
152.6852, 399.4760
153.1674, 414.3246
153.6495, 429.3388
154.1316, 442.8564
154.6137, 454.1559
155.0958, 463.1968
155.5779, 472.3254
156.0601, 482.4365
156.5422, 492.4945
157.0243, 501.4925
157.5064, 508.8866
157.9885, 515.5508
158.4706, 521.5656
158.9528, 526.8785
159.4349, 532.1131
159.9170, 536.9133
160.3991, 541.8718
160.8812, 547.6736
161.3633, 555.3314
161.8455, 563.2209
162.3276, 570.4158
162.8097, 576.4274
163.2918, 583.2930
163.7739, 592.1299
164.2560, 601.5951
164.7382, 606.8291
165.2203, 611.1085
165.7024, 615.1026
166.1845, 618.1578
166.6666, 619.7976
167.1487, 621.9000
167.6309, 626.2491
168.1130, 631.8600
168.5951, 636.5701
169.0772, 639.0717
169.5593, 640.4781
170.0414, 641.7429
170.5236, 643.1395
171.0057, 644.1877
171.4878, 644.4885
171.9699, 644.1577
172.4520, 643.5398
172.9341, 642.4883
173.4163, 641.3741
173.8984, 640.6674
174.3805, 640.6027
174.8626, 640.7196
175.3447, 641.1989
175.8268, 641.7491
176.3090, 640.9776
176.7911, 636.4822
177.2732, 630.3093
177.7553, 625.9503
178.2374, 625.1407
178.7195, 625.5100
179.2017, 623.8439
179.6838, 620.3219
180.1659, 616.8036
180.6480, 614.3234
181.1301, 612.8951
181.6122, 612.6871
182.0944, 614.8711
182.5765, 617.4758
183.0586, 616.8493
183.5407, 613.0434
184.0228, 608.2590
184.5049, 604.0748
184.9871, 600.4537
185.4692, 597.4644
185.9513, 595.3127
186.4334, 593.7047
186.9155, 591.8590
187.3976, 589.7582
187.8798, 587.7203
188.3619, 586.1695
188.8440, 585.0176
189.3261, 583.8046
189.8082, 582.4346
190.2903, 580.8754
190.7725, 578.9229
191.2546, 576.5002
191.7367, 573.9557
192.2188, 571.5931
192.7009, 569.3904
193.1830, 567.3770
193.6652, 565.6675
194.1473, 564.1774
194.6294, 562.5298
195.1115, 560.7532
195.5936, 558.7298
196.0757, 555.9055
196.5579, 552.2200
197.0400, 549.4254
197.5221, 548.7736
198.0042, 550.0607
198.4863, 549.9164
198.9684, 548.0457
199.4506, 545.4032
199.9327, 543.4645
200.4148, 542.3071
200.8969, 541.0518
201.3790, 539.2653
201.8611, 536.9308
202.3433, 534.5702
202.8254, 531.9731
203.3075, 529.6542
203.7896, 528.8323
204.2717, 529.8465
204.7538, 530.5541
205.2360, 529.7709
205.7181, 527.2424
206.2002, 525.6209
206.6823, 525.1938
207.1644, 525.3199
207.6465, 524.7238
208.1287, 523.1810
208.6108, 521.7421
209.0929, 521.0378
209.5750, 521.3314
210.0571, 520.8454
210.5392, 519.1822
211.0214, 517.1117
211.5035, 516.3380
211.9856, 517.2538
212.4677, 518.4177
212.9498, 519.5035
213.4319, 520.9046
213.9140, 520.3879
214.3962, 517.2254
214.8783, 512.5803
215.3604, 509.2263
215.8425, 507.5034
216.3246, 506.2061
216.8067, 504.7317
217.2889, 502.9083
217.7710, 501.5542
218.2531, 500.8831
218.7352, 500.5699
219.2173, 499.7036
219.6994, 497.7873
220.1816, 496.2464
220.6637, 495.9756
221.1458, 497.9305
221.6279, 498.2721
222.1100, 496.2164
222.5921, 492.8220
223.0743, 490.8398
223.5564, 490.8141
224.0385, 491.2938
224.5206, 491.5094
225.0027, 490.9563
225.4848, 491.6317
225.9670, 494.2231
226.4491, 497.8431
226.9312, 500.3912
227.4133, 502.3231
227.8954, 502.4073
228.3775, 499.5362
228.8597, 491.3282
229.3418, 485.9389
229.8239, 484.1857
230.3060, 485.0688
230.7881, 486.0122
231.2702, 487.2940
231.7524, 488.1956
232.2345, 488.2850
232.7166, 487.0070
233.1987, 486.1992
233.6808, 485.9850
234.1629, 486.2144
234.6451, 486.5570
235.1272, 487.2938
235.6093, 487.7446
236.0914, 487.6097
236.5735, 486.7684
237.0556, 485.5945
237.5378, 483.6794
238.0199, 481.5706
238.5020, 480.7211
238.9841, 481.7752
239.4662, 483.1392
239.9483, 484.1447
240.4305, 484.5865
240.9126, 485.1779
241.3947, 486.2620
241.8768, 487.3804
242.3589, 487.2661
242.8410, 485.0089
243.3232, 482.8943
243.8053, 481.9552
244.2874, 482.7690
244.7695, 483.3425
245.2516, 483.5995
245.7337, 483.6488
246.2159, 483.6959
246.6980, 483.5886
247.1801, 483.7281
247.6622, 484.2967
248.1443, 485.4267
248.6264, 486.6776
249.1086, 488.2570
249.5907, 489.8735
250.0728, 490.9142
250.5549, 491.2425
251.0370, 491.2199
251.5191, 490.8692
252.0013, 489.9458
252.4834, 489.5313
252.9655, 489.8423
253.4476, 490.5212
253.9297, 490.8797
254.4118, 490.6763
254.8940, 490.5859
255.3761, 490.9538
255.8582, 492.0419
256.3403, 492.4573
256.8224, 491.7969
257.3046, 490.7789
257.7867, 490.6610
258.2688, 491.8089
258.7509, 493.1129
259.2330, 494.3252
259.7151, 495.5558
260.1973, 496.0507
260.6794, 495.4005
261.1615, 494.4195
261.6436, 494.3932
262.1257, 495.7476
262.6078, 497.0067
263.0900, 497.5879
263.5721, 497.3633
264.0542, 497.8101
264.5363, 499.2325
265.0184, 500.9527
265.5005, 502.1048
265.9827, 502.4751
266.4648, 502.8463
266.9469, 503.4179
267.4290, 504.1856
267.9111, 505.0359
268.3932, 506.0370
268.8754, 506.9982
269.3575, 507.6850
269.8396, 508.0502
270.3217, 508.3250
270.8038, 508.4596
271.2859, 508.4879
271.7681, 509.0356
272.2502, 510.1889
272.7323, 511.6879
273.2144, 513.4061
273.6965, 515.4977
274.1786, 516.9950
274.6608, 517.4979
275.1429, 517.1896
275.6250, 517.3796
276.1071, 518.0823
276.5892, 519.2404
277.0714, 520.9542
277.5535, 523.3244
278.0356, 525.4129
278.5177, 527.0242
278.9998, 528.2344
279.4819, 529.2294
279.9641, 529.9301
280.4462, 530.8104
280.9283, 532.5243
281.4104, 535.1092
281.8925, 536.9482
282.3746, 537.5872
282.8568, 537.4831
283.3389, 537.6721
283.8210, 538.0746
284.3031, 539.3554
284.7852, 542.6978
285.2673, 547.8873
285.7495, 551.5141
286.2316, 552.7940
286.7137, 552.8152
287.1958, 553.7794
287.6779, 555.7007
288.1600, 557.9018
288.6422, 560.1449
289.1243, 562.3892
289.6064, 564.1348
290.0885, 565.2423
290.5706, 566.1539
291.0527, 567.6933
291.5349, 569.8168
292.0170, 571.8209
292.4991, 573.2250
292.9812, 574.1901
293.4633, 575.0475
293.9454, 575.6960
294.4276, 576.7844
294.9097, 579.5558
295.3918, 583.7103
295.8739, 587.6189
296.3560, 590.2857
296.8381, 592.1489
297.3203, 594.2369
297.8024, 596.6038
298.2845, 598.7751
298.7666, 599.9479
299.2487, 600.4380
299.7308, 601.2605
300.2130, 603.0765
300.6951, 605.3885
301.1772, 607.3312
301.6593, 608.9017
302.1414, 610.6059
302.6235, 613.1103
303.1057, 616.0587
303.5878, 618.6476
304.0699, 620.3502
304.5520, 621.8192
305.0341, 623.9012
305.5162, 626.5212
305.9984, 629.1223
306.4805, 631.1685
306.9626, 632.9605
307.4447, 634.8820
307.9268, 637.1276
308.4089, 639.4332
308.8911, 641.5360
309.3732, 643.4825
309.8553, 645.4835
310.3374, 647.6769
310.8195, 649.9761
311.3016, 652.2484
311.7838, 654.3918
312.2659, 656.6605
312.7480, 659.3508
313.2301, 662.2869
313.7122, 665.0800
314.1943, 666.8411
314.6765, 668.8889
315.1586, 672.4443
315.6407, 678.1822
316.1228, 683.6215
316.6049, 687.5394
317.0870, 690.3666
317.5692, 692.7595
318.0513, 695.1358
318.5334, 697.0066
319.0155, 697.5781
319.4976, 696.4215
319.9797, 696.6879
320.4619, 700.4683
320.9440, 705.8436
321.4261, 710.6142
321.9082, 713.7744
322.3903, 716.7464
322.8724, 720.0839
323.3546, 723.8187
323.8367, 727.0687
324.3188, 729.1871
324.8009, 731.0471
325.2830, 733.2943
325.7651, 735.9694
326.2473, 739.1282
326.7294, 743.2467
327.2115, 748.1316
327.6936, 752.2126
328.1757, 754.8447
328.6578, 757.0299
329.1400, 759.2538
329.6221, 760.9505
330.1042, 763.4174
330.5863, 767.0388
331.0684, 771.4518
331.5505, 775.5305
332.0327, 779.1722
332.5148, 782.6084
332.9969, 785.8326
333.4790, 788.3941
333.9611, 791.7989
334.4432, 796.3500
334.9254, 801.5787
335.4075, 806.6937
335.8896, 811.8917
336.3717, 816.6630
336.8538, 820.7068
337.3359, 823.9814
337.8180, 827.4018
338.3001, 830.9393
338.7823, 834.6741
339.2644, 838.6769
339.7465, 843.0353
340.2286, 847.3729
340.7107, 851.4233
341.1928, 855.3614
341.6750, 860.0613
342.1571, 865.7188
342.6392, 871.6133
343.1213, 877.5048
343.6034, 883.3509
344.0855, 888.1097
344.5677, 891.2126
345.0498, 893.4667
345.5319, 896.5564
346.0140, 900.4764
346.4961, 905.3387
346.9782, 912.0646
347.4604, 920.1047
347.9425, 926.1324
348.4246, 929.4997
348.9067, 932.0659
349.3888, 936.5643
349.8709, 942.7369
350.3531, 949.1056
350.8352, 954.9406
351.3173, 960.4518
351.7994, 966.1868
352.2815, 972.1653
352.7636, 978.0568
353.2458, 983.2507
353.7279, 988.1166
354.2100, 993.4649
354.6921, 999.9960
355.1742, 1006.846
355.6563, 1012.910
356.1385, 1018.276
356.6206, 1024.185
357.1027, 1031.698
357.5848, 1040.127
358.0669, 1048.816
358.5490, 1057.775
359.0312, 1066.607
359.5133, 1075.603
359.9954, 1084.402
360.4775, 1092.033
360.9596, 1097.030
361.4417, 1101.328
361.9239, 1106.117
362.4060, 1111.352
362.8881, 1117.740
363.3702, 1126.914
363.8523, 1137.146
364.3344, 1145.796
364.8166, 1150.662
365.2987, 1155.173
365.7808, 1160.402
366.2629, 1166.497
366.7450, 1173.078
367.2271, 1180.641
367.7093, 1188.414
368.1914, 1195.722
368.6735, 1201.902
369.1556, 1208.363
369.6377, 1215.262
370.1198, 1222.601
370.6020, 1229.944
371.0841, 1237.481
371.5662, 1244.877
372.0483, 1251.752
372.5304, 1257.074
373.0125, 1264.064
373.4947, 1273.889
373.9768, 1284.949
374.4589, 1293.418
374.9410, 1298.196
375.4231, 1302.646
375.9052, 1307.911
376.3874, 1314.004
376.8695, 1321.318
377.3516, 1330.640
377.8337, 1339.994
378.3158, 1346.629
378.7979, 1350.079
379.2801, 1354.562
379.7622, 1361.534
380.2443, 1370.413
380.7264, 1379.204
381.2085, 1387.945
381.6906, 1395.956
382.1728, 1402.126
382.6549, 1406.838
383.1370, 1412.217
383.6191, 1418.793
384.1012, 1425.969
384.5833, 1433.008
385.0655, 1439.917
385.5476, 1446.700
386.0297, 1453.841
386.5118, 1460.845
386.9939, 1466.765
387.4760, 1471.365
387.9582, 1475.758
388.4403, 1481.282
388.9224, 1487.430
389.4045, 1493.100
389.8866, 1497.058
390.3687, 1500.951
390.8509, 1506.425
391.3330, 1513.311
391.8151, 1520.004
392.2972, 1525.505
392.7793, 1530.296
393.2614, 1534.817
393.7436, 1538.807
394.2257, 1542.988
394.7078, 1547.533
395.1899, 1552.461
395.6720, 1557.821
396.1541, 1564.170
396.6363, 1570.546
397.1184, 1576.551
397.6005, 1582.183
398.0826, 1587.359
398.5647, 1591.246
399.0468, 1594.962
399.5290, 1599.865
400.0111, 1607.531
400.4932, 1614.787
400.9753, 1620.651
401.4574, 1625.157
401.9395, 1631.076
402.4217, 1639.231
402.9038, 1647.951
403.3859, 1656.143
403.8680, 1663.617
404.3501, 1670.908
404.8322, 1677.564
405.3144, 1684.242
405.7965, 1692.836
406.2786, 1704.085
406.7607, 1714.923
407.2428, 1723.640
407.7249, 1730.177
408.2071, 1737.660
408.6892, 1746.229
409.1713, 1755.421
409.6534, 1765.028
410.1355, 1774.962
410.6176, 1784.158
411.0998, 1792.055
411.5819, 1799.259
412.0640, 1807.102
412.5461, 1815.519
413.0282, 1824.592
413.5103, 1835.047
413.9925, 1845.999
414.4746, 1855.488
414.9567, 1862.802
415.4388, 1869.815
415.9209, 1878.600
416.4030, 1888.665
416.8852, 1899.050
417.3673, 1910.379
417.8494, 1920.942
418.3315, 1928.683
418.8136, 1933.371
419.2957, 1938.801
419.7779, 1947.501
420.2600, 1957.780
420.7421, 1967.802
421.2242, 1976.788
421.7063, 1985.831
422.1884, 1995.962
422.6706, 2006.663
423.1527, 2016.341
423.6348, 2024.191
424.1169, 2031.196
424.5990, 2037.660
425.0811, 2042.737
425.5633, 2049.247
426.0454, 2058.216
426.5275, 2068.248
427.0096, 2077.728
427.4917, 2086.347
427.9738, 2094.781
428.4560, 2103.024
428.9381, 2111.160
429.4202, 2119.632
429.9023, 2128.340
430.3844, 2137.330
430.8665, 2147.003
431.3487, 2157.829
431.8308, 2166.004
432.3129, 2170.319
432.7950, 2172.929
433.2771, 2178.388
433.7592, 2186.734
434.2414, 2195.312
434.7235, 2203.175
435.2056, 2210.277
435.6877, 2216.300
436.1698, 2221.160
436.6519, 2225.575
437.1341, 2230.718
437.6162, 2235.925
438.0983, 2239.414
438.5804, 2239.874
439.0625, 2239.627
439.5446, 2242.476
440.0268, 2247.267
440.5089, 2249.741
440.9910, 2244.256
441.4731, 2237.248
441.9552, 2235.385
442.4373, 2240.646
442.9195, 2244.371
443.4016, 2241.016
443.8837, 2234.030
444.3658, 2227.601
444.8479, 2224.167
445.3300, 2220.276
445.8122, 2214.146
446.2943, 2206.164
446.7764, 2199.450
447.2585, 2196.247
447.7406, 2193.036
448.2227, 2188.006
448.7049, 2180.434
449.1870, 2172.501
449.6691, 2164.418
450.1512, 2155.897
450.6333, 2146.639
451.1154, 2136.454
451.5976, 2125.728
452.0797, 2114.393
452.5618, 2102.496
453.0439, 2091.833
453.5260, 2083.208
454.0081, 2073.950
454.4903, 2061.242
454.9724, 2045.257
455.4545, 2030.737
455.9366, 2018.640
456.4187, 2007.711
456.9008, 1996.220
457.3830, 1984.090
457.8651, 1972.050
458.3472, 1960.106
458.8293, 1948.404
459.3114, 1937.055
459.7935, 1926.154
460.2757, 1915.146
460.7578, 1903.799
461.2399, 1892.133
461.7220, 1880.156
462.2041, 1867.432
462.6862, 1854.876
463.1684, 1843.034
463.6505, 1831.721
464.1326, 1820.800
464.6147, 1810.052
465.0968, 1799.721
465.5789, 1790.292
466.0611, 1781.894
466.5432, 1773.320
467.0253, 1763.710
467.5074, 1754.207
467.9895, 1745.807
468.4716, 1738.879
468.9538, 1732.515
469.4359, 1727.202
469.9180, 1722.470
470.4001, 1716.512
470.8822, 1708.094
471.3643, 1700.805
471.8465, 1696.577
472.3286, 1695.852
472.8107, 1693.496
473.2928, 1689.048
473.7749, 1684.262
474.2570, 1680.994
474.7392, 1679.250
475.2213, 1678.716
475.7034, 1679.608
476.1855, 1681.333
476.6676, 1682.243
477.1497, 1682.538
477.6319, 1684.043
478.1140, 1688.832
478.5961, 1695.221
479.0782, 1700.145
479.5603, 1703.270
480.0424, 1706.603
480.5246, 1711.770
481.0067, 1718.166
481.4888, 1724.921
481.9709, 1731.498
482.4530, 1738.713
482.9352, 1747.136
483.4173, 1756.561
483.8994, 1766.339
484.3815, 1776.312
484.8636, 1786.570
485.3457, 1797.306
485.8279, 1808.893
486.3100, 1819.781
486.7921, 1829.618
487.2742, 1838.806
487.7563, 1847.696
488.2384, 1855.586
488.7206, 1864.518
489.2027, 1875.034
489.6848, 1886.708
490.1669, 1897.984
490.6490, 1908.804
491.1311, 1919.168
491.6133, 1928.880
492.0954, 1938.001
492.5775, 1947.114
493.0596, 1956.274
493.5417, 1965.050
494.0238, 1972.355
494.5060, 1978.676
494.9881, 1986.552
495.4702, 1997.734
495.9523, 2008.853
496.4344, 2014.045
496.9165, 2014.582
497.3987, 2015.237
497.8808, 2019.535
498.3629, 2024.706
498.8450, 2028.206
499.3271, 2029.836
499.8092, 2030.367
500.2914, 2030.214
500.7735, 2029.147
501.2556, 2026.936
501.7377, 2022.999
502.2198, 2018.535
502.7019, 2014.197
503.1841, 2009.515
503.6662, 2003.208
504.1483, 1994.138
504.6304, 1984.398
505.1125, 1974.480
505.5946, 1964.348
506.0768, 1954.725
506.5589, 1946.354
507.0410, 1937.533
507.5231, 1926.270
508.0052, 1911.932
508.4873, 1899.903
508.9695, 1891.542
509.4516, 1884.917
509.9337, 1876.477
510.4158, 1866.309
510.8979, 1856.122
511.3800, 1846.500
511.8622, 1837.318
512.3443, 1828.309
512.8264, 1819.519
513.3085, 1810.566
513.7906, 1800.376
514.2728, 1790.163
514.7549, 1781.622
515.2370, 1775.369
515.7191, 1769.917
516.2012, 1764.788
516.6833, 1759.789
517.1655, 1754.533
517.6476, 1748.226
518.1297, 1742.344
518.6118, 1737.516
519.0939, 1733.688
519.5760, 1730.015
520.0582, 1725.664
520.5403, 1722.137
521.0224, 1720.122
521.5045, 1719.800
521.9866, 1720.542
522.4688, 1723.061
522.9509, 1725.828
523.4330, 1726.575
523.9151, 1724.688
524.3972, 1724.145
524.8793, 1725.964
525.3615, 1729.493
525.8436, 1733.005
526.3257, 1736.529
526.8078, 1740.875
527.2899, 1747.711
527.7720, 1755.580
528.2542, 1760.583
528.7363, 1762.466
529.2184, 1764.254
529.7005, 1767.961
530.1826, 1773.277
530.6647, 1779.974
531.1469, 1788.865
531.6290, 1797.563
532.1111, 1803.787
532.5932, 1808.858
533.0753, 1815.437
533.5574, 1826.412
534.0396, 1837.027
534.5217, 1845.381
535.0038, 1851.164
535.4859, 1857.730
535.9680, 1865.458
536.4501, 1873.588
536.9323, 1881.777
537.4144, 1890.457
537.8965, 1897.896
538.3786, 1903.155
538.8607, 1908.391
539.3428, 1917.638
539.8250, 1931.425
540.3071, 1943.161
540.7892, 1950.336
541.2713, 1954.706
541.7534, 1959.904
542.2355, 1965.913
542.7177, 1972.416
543.1998, 1979.172
543.6819, 1986.412
544.1640, 1994.594
544.6461, 2003.786
545.1282, 2013.195
545.6104, 2022.389
546.0925, 2031.331
546.5746, 2039.942
547.0567, 2047.567
547.5388, 2055.696
548.0209, 2064.769
548.5031, 2074.603
548.9852, 2085.002
549.4673, 2097.697
549.9494, 2109.028
550.4315, 2117.138
550.9136, 2122.054
551.3958, 2130.120
551.8779, 2142.340
552.3600, 2156.068
552.8421, 2170.211
553.3242, 2184.959
553.8063, 2198.061
554.2885, 2209.034
554.7706, 2219.437
555.2527, 2231.456
555.7348, 2244.856
556.2169, 2258.246
556.6990, 2271.231
557.1812, 2283.750
557.6633, 2294.972
558.1454, 2305.391
558.6275, 2316.915
559.1096, 2332.123
559.5917, 2347.776
560.0739, 2360.167
560.5560, 2369.042
561.0381, 2379.847
561.5202, 2398.379
562.0023, 2417.389
562.4844, 2431.342
562.9666, 2435.538
563.4487, 2440.560
563.9308, 2447.685
564.4129, 2455.650
564.8950, 2462.584
565.3771, 2468.344
565.8593, 2473.253
566.3414, 2477.690
566.8235, 2481.243
567.3056, 2482.452
567.7877, 2481.348
568.2698, 2477.437
568.7520, 2469.333
569.2341, 2458.067
569.7162, 2447.894
570.1983, 2439.223
570.6804, 2428.643
571.1625, 2412.235
571.6447, 2392.130
572.1268, 2371.943
572.6089, 2352.944
573.0910, 2332.831
573.5731, 2309.327
574.0552, 2283.742
574.5374, 2257.829
575.0195, 2233.247
575.5016, 2207.638
575.9837, 2180.228
576.4658, 2151.176
576.9479, 2120.862
577.4301, 2088.085
577.9122, 2055.961
578.3943, 2025.749
578.8764, 1998.090
579.3585, 1969.275
579.8406, 1938.631
580.3228, 1908.294
580.8049, 1880.834
581.2870, 1856.182
581.7691, 1831.221
582.2512, 1805.478
582.7333, 1779.459
583.2155, 1753.140
583.6975, 1727.252
584.1796, 1702.841
584.6617, 1680.763
585.1439, 1660.427
585.6260, 1641.763
586.1081, 1624.541
586.5902, 1607.642
587.0723, 1590.448
587.5544, 1573.590
588.0366, 1556.874
588.5187, 1540.088
589.0008, 1524.883
589.4829, 1512.481
589.9650, 1501.068
590.4471, 1489.281
590.9293, 1476.584
591.4114, 1464.635
591.8935, 1453.149
592.3756, 1442.782
592.8577, 1435.079
593.3398, 1430.246
593.8220, 1425.707
594.3041, 1420.625
594.7862, 1415.315
595.2683, 1410.146
595.7504, 1405.270
596.2325, 1401.485
596.7147, 1400.398
597.1968, 1400.111
597.6789, 1397.799
598.1610, 1393.220
598.6431, 1390.066
599.1252, 1391.720
599.6074, 1394.951
600.0895, 1396.991
600.5716, 1395.757
601.0537, 1396.123
601.5358, 1400.158
602.0179, 1405.655
602.5001, 1409.574
602.9822, 1410.067
603.4643, 1412.691
603.9464, 1418.907
604.4285, 1427.660
604.9106, 1435.609
605.3928, 1442.511
605.8749, 1450.058
606.3570, 1459.349
606.8391, 1469.888
607.3212, 1480.407
607.8033, 1490.841
608.2855, 1500.911
608.7676, 1509.392
609.2497, 1517.705
609.7318, 1527.597
610.2139, 1539.610
610.6960, 1552.300
611.1782, 1565.145
611.6603, 1578.102
612.1424, 1591.289
