##NAMES=Thorianite
##RRUFFID=R130003
##IDEAL CHEMISTRY=ThO_2_
##LOCALITY=Millar's mine, Tory Hill, Monmouth Township, Haliburton County, Ontario, Canada
##OWNER=RRUFF
##SOURCE=Don Doell
##DESCRIPTION=Broken black cubes
##STATUS=The identification of this mineral has been confirmed by X-ray diffraction.
##URL=rruff.info/R130003
116.2996, 266.8763
116.7817, 266.0251
117.2639, 267.2519
117.7460, 269.1299
118.2281, 269.8481
118.7102, 267.5415
119.1923, 264.7197
119.6744, 262.7954
120.1566, 261.9341
120.6387, 261.8451
121.1208, 262.2966
121.6029, 263.3754
122.0850, 265.2732
122.5671, 269.7386
123.0493, 274.3396
123.5314, 276.4312
124.0135, 275.1473
124.4956, 272.3759
124.9777, 269.1878
125.4598, 265.7935
125.9420, 263.0747
126.4241, 261.7072
126.9062, 261.3878
127.3883, 261.6233
127.8704, 262.4470
128.3525, 263.5949
128.8347, 264.9326
129.3168, 266.4285
129.7989, 267.4579
130.2810, 267.5077
130.7631, 266.6711
131.2452, 265.2679
131.7274, 263.1070
132.2095, 260.5639
132.6916, 258.6335
133.1737, 257.3366
133.6558, 256.4649
134.1379, 255.7738
134.6201, 255.2676
135.1022, 255.1231
135.5843, 255.5113
136.0664, 256.3515
136.5485, 256.9225
137.0306, 257.0753
137.5128, 257.3256
137.9949, 258.5717
138.4770, 261.1269
138.9591, 263.1552
139.4412, 264.1595
139.9233, 264.1283
140.4055, 262.9386
140.8876, 260.1412
141.3697, 256.6229
141.8518, 253.7441
142.3339, 251.5012
142.8160, 249.9190
143.2982, 249.1481
143.7803, 249.5486
144.2624, 249.6014
144.7445, 249.0902
145.2266, 248.3001
145.7087, 247.9190
146.1909, 248.1917
146.6730, 248.5579
147.1551, 248.8307
147.6372, 249.1918
148.1193, 249.1506
148.6014, 248.5604
149.0836, 247.5535
149.5657, 246.5438
150.0478, 245.2917
150.5299, 244.2519
151.0120, 243.6194
151.4941, 243.8790
151.9763, 243.9749
152.4584, 243.7536
152.9405, 243.2960
153.4226, 243.0141
153.9047, 243.1356
154.3868, 243.3096
154.8690, 243.3448
155.3511, 243.7134
155.8332, 243.4150
156.3153, 241.9505
156.7974, 239.4741
157.2795, 237.2315
157.7617, 235.2489
158.2438, 233.7276
158.7259, 232.8138
159.2080, 233.3745
159.6901, 233.7565
160.1722, 233.2231
160.6544, 231.8312
161.1365, 230.8219
161.6186, 230.9061
162.1007, 231.4623
162.5828, 231.9181
163.0649, 232.4322
163.5471, 232.5165
164.0292, 231.7788
164.5113, 230.2046
164.9934, 228.5607
165.4755, 226.8275
165.9576, 225.3371
166.4398, 224.5183
166.9219, 225.2666
167.4040, 226.2096
167.8861, 226.3288
168.3682, 225.5341
168.8503, 224.7338
169.3325, 224.5566
169.8146, 224.7557
170.2967, 224.9334
170.7788, 225.2090
171.2609, 225.2257
171.7430, 224.5117
172.2252, 222.9657
172.7073, 221.3514
173.1894, 220.2760
173.6715, 219.5851
174.1536, 218.9644
174.6357, 218.1049
175.1179, 217.2793
175.6000, 216.8629
176.0821, 216.9315
176.5642, 217.1738
177.0463, 217.4973
177.5284, 217.7962
178.0106, 217.7447
178.4927, 216.8761
178.9748, 215.6096
179.4569, 214.6540
179.9390, 214.0770
180.4211, 213.7777
180.9033, 213.7134
181.3854, 213.8518
181.8675, 214.0348
182.3496, 214.2713
182.8317, 214.4828
183.3138, 214.4348
183.7960, 214.0340
184.2781, 213.5634
184.7602, 213.4269
185.2423, 213.6002
185.7244, 213.8952
186.2065, 214.3858
186.6887, 214.9431
187.1708, 215.0195
187.6529, 214.4353
188.1350, 213.6016
188.6171, 213.2176
189.0992, 213.2718
189.5814, 213.4862
190.0635, 213.8050
190.5456, 214.1866
191.0277, 214.2725
191.5098, 213.9356
191.9919, 213.4261
192.4741, 213.2666
192.9562, 213.4676
193.4383, 213.7943
193.9204, 214.1334
194.4025, 214.4804
194.8846, 214.7596
195.3668, 214.9506
195.8489, 215.0802
196.3310, 215.1910
196.8131, 215.2747
197.2952, 215.3968
197.7773, 215.7269
198.2595, 216.2789
198.7416, 216.3481
199.2237, 215.6509
199.7058, 214.5838
200.1879, 214.4053
200.6700, 215.3176
201.1522, 216.2089
201.6343, 216.2056
202.1164, 215.2004
202.5985, 214.4074
203.0806, 213.9872
203.5627, 213.8703
204.0449, 213.8608
204.5270, 213.9642
205.0091, 214.1514
205.4912, 214.4495
205.9733, 214.8994
206.4554, 215.1962
206.9376, 215.2625
207.4197, 215.1623
207.9018, 215.1193
208.3839, 215.1147
208.8660, 215.2200
209.3481, 215.5488
209.8303, 216.1989
210.3124, 216.6272
210.7945, 216.6781
211.2766, 216.4818
211.7587, 216.6406
212.2408, 217.3622
212.7230, 218.0056
213.2051, 218.0624
213.6872, 217.2838
214.1693, 216.7897
214.6514, 216.8097
215.1335, 217.1994
215.6157, 217.2427
216.0978, 216.7238
216.5799, 216.2447
217.0620, 216.2466
217.5441, 216.9414
218.0262, 217.4897
218.5084, 217.7774
218.9905, 217.8579
219.4726, 217.9904
219.9547, 218.2096
220.4368, 218.4300
220.9189, 218.6084
221.4011, 218.7734
221.8832, 218.8357
222.3653, 218.7834
222.8474, 218.6281
223.3295, 218.3775
223.8116, 217.9254
224.2938, 217.5566
224.7759, 217.4875
225.2580, 217.9198
225.7401, 218.1521
226.2222, 218.0689
226.7043, 217.7460
227.1865, 217.5051
227.6686, 217.3983
228.1507, 217.2990
228.6328, 217.1306
229.1149, 216.8502
229.5970, 216.5970
230.0792, 216.3577
230.5613, 216.1535
231.0434, 216.0814
231.5255, 216.1910
232.0076, 216.3673
232.4897, 216.5811
232.9719, 216.9592
233.4540, 217.0749
233.9361, 216.7380
234.4182, 216.1427
234.9003, 215.9847
235.3824, 216.4922
235.8646, 217.1108
236.3467, 217.5760
236.8288, 217.8450
237.3109, 218.0595
237.7930, 218.2905
238.2751, 218.4540
238.7573, 218.2266
239.2394, 217.1977
239.7215, 216.3613
240.2036, 216.2265
240.6857, 217.2638
241.1678, 217.9178
241.6500, 218.0412
242.1321, 217.8172
242.6142, 217.7179
243.0963, 217.8345
243.5784, 217.9420
244.0605, 217.9473
244.5427, 217.8302
245.0248, 217.6648
245.5069, 217.4348
245.9890, 217.1654
246.4711, 216.9116
246.9532, 216.6684
247.4354, 216.4525
247.9175, 216.2829
248.3996, 216.1869
248.8817, 216.0508
249.3638, 215.8375
249.8459, 215.6104
250.3281, 215.4807
250.8102, 215.4511
251.2923, 215.5248
251.7744, 215.7669
252.2565, 216.2915
252.7386, 216.4670
253.2208, 216.0840
253.7029, 215.5068
254.1850, 215.3196
254.6671, 215.6915
255.1492, 216.1213
255.6313, 216.4676
256.1135, 216.7218
256.5956, 216.9385
257.0777, 217.1816
257.5598, 217.3155
258.0419, 217.0991
258.5240, 216.3249
259.0062, 215.6676
259.4883, 215.3318
259.9704, 215.3431
260.4525, 215.3580
260.9346, 215.3957
261.4167, 215.4141
261.8989, 215.2960
262.3810, 214.8623
262.8631, 214.8124
263.3452, 215.5049
263.8273, 216.9433
264.3094, 217.6398
264.7916, 217.3710
265.2737, 216.7520
265.7558, 216.3300
266.2379, 216.1091
266.7200, 216.1183
267.2021, 216.4944
267.6843, 217.1612
268.1664, 217.3183
268.6485, 216.7786
269.1306, 216.1134
269.6127, 215.8157
270.0948, 215.9533
270.5770, 216.1476
271.0591, 216.3597
271.5412, 216.5735
272.0233, 216.7418
272.5054, 216.8788
272.9875, 216.9123
273.4697, 216.7702
273.9518, 216.4279
274.4339, 216.0379
274.9160, 215.5766
275.3981, 215.1060
275.8802, 214.7857
276.3624, 214.6129
276.8445, 214.6321
277.3266, 215.0315
277.8087, 215.8680
278.2908, 216.1842
278.7729, 215.7486
279.2551, 214.9364
279.7372, 214.6935
280.2193, 215.1213
280.7014, 215.4567
281.1835, 215.1315
281.6656, 214.1615
282.1478, 213.6549
282.6299, 213.7284
283.1120, 214.1337
283.5941, 214.5318
284.0762, 214.9293
284.5583, 215.2019
285.0405, 215.1857
285.5226, 214.9333
286.0047, 215.0511
286.4868, 215.6672
286.9689, 216.2348
287.4510, 215.7412
287.9332, 214.2541
288.4153, 213.1895
288.8974, 213.4626
289.3795, 214.6264
289.8616, 214.8801
290.3438, 214.1233
290.8259, 213.1467
291.3080, 212.8448
291.7901, 213.1202
292.2722, 213.3722
292.7543, 213.3842
293.2365, 213.2548
293.7186, 213.2181
294.2007, 213.2759
294.6828, 213.3433
295.1649, 213.4681
295.6470, 213.5632
296.1292, 213.2861
296.6113, 212.3246
297.0934, 211.2006
297.5755, 210.8241
298.0576, 211.1389
298.5397, 211.5461
299.0219, 211.7180
299.5040, 211.6570
299.9861, 211.2906
300.4682, 210.4498
300.9503, 209.6270
301.4324, 209.4935
301.9146, 209.9292
302.3967, 210.4183
302.8788, 210.7186
303.3609, 210.8514
303.8430, 210.7969
304.3251, 210.5058
304.8073, 210.2057
305.2894, 210.1539
305.7715, 210.2591
306.2536, 210.2996
306.7357, 210.0627
307.2178, 209.7495
307.7000, 209.6002
308.1821, 209.6496
308.6642, 209.6659
309.1463, 209.4420
309.6284, 209.0767
310.1105, 208.7218
310.5927, 208.4751
311.0748, 208.2405
311.5569, 207.8697
312.0390, 207.3668
312.5211, 207.0558
313.0032, 207.2212
313.4854, 207.6345
313.9675, 208.0517
314.4496, 208.5915
314.9317, 208.9404
315.4138, 208.9046
315.8959, 208.5244
316.3781, 208.0427
316.8602, 207.3134
317.3423, 206.6750
317.8244, 206.4081
318.3065, 206.9336
318.7886, 207.3252
319.2708, 207.0602
319.7529, 206.3968
320.2350, 206.0610
320.7171, 206.6084
321.1992, 207.2799
321.6813, 207.7093
322.1635, 207.8011
322.6456, 207.7526
323.1277, 207.5025
323.6098, 207.1469
324.0919, 206.8466
324.5740, 206.6127
325.0562, 206.4518
325.5383, 206.3812
326.0204, 206.4248
326.5025, 206.4652
326.9846, 206.3986
327.4667, 206.3680
327.9489, 206.5272
328.4310, 207.2622
328.9131, 207.7617
329.3952, 207.8412
329.8773, 207.4915
330.3594, 207.1892
330.8416, 206.9411
331.3237, 206.7397
331.8058, 206.5827
332.2879, 206.4869
332.7700, 206.4075
333.2521, 206.3638
333.7343, 206.3345
334.2164, 206.1975
334.6985, 205.8425
335.1806, 205.5485
335.6627, 205.4973
336.1448, 205.8122
336.6270, 205.9640
337.1091, 205.8416
337.5912, 205.6214
338.0733, 205.7496
338.5554, 206.3983
339.0375, 206.8349
339.5197, 206.6772
340.0018, 205.8857
340.4839, 205.2328
340.9660, 204.6823
341.4481, 204.3759
341.9302, 204.6822
342.4124, 205.6689
342.8945, 206.3448
343.3766, 206.2868
343.8587, 205.6878
344.3408, 205.4732
344.8229, 205.6890
345.3051, 205.9804
345.7872, 205.9893
346.2693, 205.7640
346.7514, 205.6394
347.2335, 205.7269
347.7156, 205.8986
348.1978, 205.8446
348.6799, 205.5903
349.1620, 205.4326
349.6441, 205.6733
350.1262, 206.1550
350.6083, 206.5044
351.0905, 206.6738
351.5726, 206.7343
352.0547, 206.7009
352.5368, 206.6140
353.0189, 206.5967
353.5010, 206.6374
353.9832, 206.8150
354.4653, 207.4486
354.9474, 208.5860
355.4295, 209.3176
355.9116, 208.4012
356.3937, 206.7241
356.8759, 205.6307
357.3580, 206.0344
357.8401, 206.8201
358.3222, 207.2387
358.8043, 207.3563
359.2864, 207.5444
359.7686, 208.1242
360.2507, 208.7977
360.7328, 209.3208
361.2149, 209.7020
361.6970, 209.8273
362.1791, 209.4421
362.6613, 208.7578
363.1434, 208.2638
363.6255, 207.9893
364.1076, 208.0364
364.5897, 208.6202
365.0718, 210.0567
365.5540, 210.9563
366.0361, 210.5665
366.5182, 209.6811
367.0003, 209.2529
367.4824, 209.9118
367.9645, 210.5033
368.4467, 210.7644
368.9288, 210.6750
369.4109, 210.6070
369.8930, 210.5652
370.3751, 210.5478
370.8572, 210.5404
371.3394, 210.4102
371.8215, 210.5394
372.3036, 211.1474
372.7857, 212.0298
373.2678, 212.3988
373.7499, 211.9050
374.2321, 211.5174
374.7142, 211.7729
375.1963, 212.9070
375.6784, 213.6671
376.1605, 213.9774
376.6426, 213.9961
377.1248, 213.8117
377.6069, 213.3095
378.0890, 213.3000
378.5711, 214.3169
379.0532, 216.1415
379.5353, 217.0327
380.0175, 216.8906
380.4996, 216.3587
380.9817, 215.9083
381.4638, 215.5579
381.9459, 215.4756
382.4280, 215.7589
382.9102, 216.2445
383.3923, 216.6531
383.8744, 216.9871
384.3565, 217.2507
384.8386, 217.2785
385.3207, 217.2609
385.8029, 217.6719
386.2850, 218.6306
386.7671, 219.6435
387.2492, 220.2772
387.7313, 220.5852
388.2134, 220.6734
388.6956, 220.3678
389.1777, 220.0127
389.6598, 219.8981
390.1419, 220.0289
390.6240, 220.3331
391.1061, 220.9980
391.5883, 221.7230
392.0704, 222.1708
392.5525, 221.9619
393.0346, 221.8627
393.5167, 222.2950
393.9988, 223.1214
394.4810, 223.9555
394.9631, 224.7778
395.4452, 225.4863
395.9273, 226.0148
396.4094, 226.3159
396.8915, 226.5633
397.3737, 226.5279
397.8558, 226.5382
398.3379, 226.9993
398.8200, 228.5266
399.3021, 229.8902
399.7842, 230.7929
400.2664, 231.2338
400.7485, 231.7772
401.2306, 232.5562
401.7127, 233.2951
402.1948, 233.8071
402.6769, 233.9874
403.1591, 234.1283
403.6412, 234.0857
404.1233, 234.0838
404.6054, 234.8196
405.0875, 236.5944
405.5696, 238.1987
406.0518, 239.0819
406.5339, 239.2249
407.0160, 239.3596
407.4981, 239.4336
407.9802, 239.6543
408.4623, 240.3657
408.9445, 241.5629
409.4266, 242.6729
409.9087, 243.5509
410.3908, 244.2506
410.8729, 244.7968
411.3550, 245.2027
411.8372, 245.7241
412.3193, 246.5334
412.8014, 247.6014
413.2835, 248.9324
413.7656, 250.6043
414.2477, 252.2554
414.7299, 253.4640
415.2120, 254.3360
415.6941, 255.0971
416.1762, 255.8120
416.6583, 256.4919
417.1404, 256.9730
417.6226, 257.2818
418.1047, 258.0228
418.5868, 260.1035
419.0689, 262.5208
419.5510, 264.3275
420.0331, 264.8402
420.5153, 265.2611
420.9974, 265.9914
421.4795, 266.9652
421.9616, 267.9866
422.4437, 269.1038
422.9258, 270.1958
423.4080, 271.1885
423.8901, 272.0383
424.3722, 272.9901
424.8543, 274.1039
425.3364, 275.3190
425.8185, 276.5685
426.3007, 277.8323
426.7828, 279.1954
427.2649, 280.7601
427.7470, 282.4585
428.2291, 283.8633
428.7112, 284.8218
429.1934, 285.7293
429.6755, 286.8711
430.1576, 288.3361
430.6397, 289.4615
431.1218, 290.0611
431.6039, 290.5785
432.0861, 291.8644
432.5682, 293.9811
433.0503, 295.9186
433.5324, 297.2927
434.0145, 298.2431
434.4966, 299.2003
434.9788, 300.1648
435.4609, 301.2094
435.9430, 302.5201
436.4251, 303.9796
436.9072, 305.1857
437.3893, 305.9586
437.8715, 306.7654
438.3536, 308.2716
438.8357, 310.2657
439.3178, 312.1573
439.7999, 313.5305
440.2820, 314.7348
440.7642, 316.1111
441.2463, 317.6869
441.7284, 319.1237
442.2105, 320.0070
442.6926, 320.7745
443.1747, 321.8613
443.6569, 323.8673
444.1390, 325.6238
444.6211, 326.5332
445.1032, 326.8848
445.5853, 327.4886
446.0674, 328.7306
446.5496, 330.0554
447.0317, 331.3309
447.5138, 332.6758
447.9959, 333.5645
448.4780, 333.6927
448.9601, 333.5971
449.4423, 333.7968
449.9244, 334.3727
450.4065, 335.0961
450.8886, 335.9902
451.3707, 337.0009
451.8528, 337.9389
452.3350, 338.8116
452.8171, 339.5906
453.2992, 340.2710
453.7813, 340.8502
454.2634, 341.2850
454.7455, 341.5215
455.2277, 341.7702
455.7098, 342.4951
456.1919, 343.5748
456.6740, 344.2280
457.1561, 344.0501
457.6382, 343.4090
458.1204, 342.8624
458.6025, 342.4059
459.0846, 342.0318
459.5667, 341.7612
460.0488, 341.5602
460.5309, 341.3822
461.0131, 341.2214
461.4952, 341.0971
461.9773, 341.0753
462.4594, 341.0899
462.9415, 341.0426
463.4236, 341.1399
463.9058, 340.9396
464.3879, 339.9046
464.8700, 338.1895
465.3521, 337.1031
465.8342, 337.5072
466.3163, 338.2184
466.7985, 338.6141
467.2806, 338.6909
467.7627, 338.3420
468.2448, 337.3000
468.7269, 335.9510
469.2090, 334.8575
469.6912, 334.2922
470.1733, 333.4413
470.6554, 331.9717
471.1375, 329.9865
471.6196, 328.5307
472.1017, 327.7175
472.5839, 327.1103
473.0660, 326.4896
473.5481, 325.8602
474.0302, 324.9103
474.5123, 323.5573
474.9944, 322.0502
475.4766, 320.7730
475.9587, 319.6913
476.4408, 318.5568
476.9229, 317.2079
477.4050, 315.8047
477.8871, 314.5752
478.3693, 313.5254
478.8514, 312.6907
479.3335, 312.5529
479.8156, 312.4481
480.2977, 311.4335
480.7798, 309.0551
481.2620, 306.7710
481.7441, 305.2995
482.2262, 304.4865
482.7083, 304.1063
483.1904, 304.8499
483.6725, 305.2631
484.1547, 304.7653
484.6368, 303.3846
485.1189, 301.7060
485.6010, 299.0199
486.0831, 296.6707
486.5652, 295.4150
487.0474, 296.0028
487.5295, 296.0563
488.0116, 295.4442
488.4937, 294.3946
488.9758, 293.1582
489.4579, 291.6299
489.9401, 290.2260
490.4222, 289.0374
490.9043, 288.0475
491.3864, 287.1140
491.8685, 286.2213
492.3506, 285.4748
492.8328, 285.0663
493.3149, 284.8972
493.7970, 284.5284
494.2791, 283.9360
494.7612, 283.0944
495.2433, 281.6922
495.7255, 279.9999
496.2076, 278.7044
496.6897, 278.3341
497.1718, 278.1989
497.6539, 277.7950
498.1360, 277.1120
498.6182, 276.0853
499.1003, 274.1852
499.5824, 272.2720
500.0645, 271.0331
500.5466, 270.6484
501.0287, 270.3624
501.5109, 270.1778
501.9930, 269.8809
502.4751, 269.2591
502.9572, 268.0687
503.4393, 266.8001
503.9214, 265.4507
504.4036, 264.0687
504.8857, 262.7691
505.3678, 261.4835
505.8499, 260.3817
506.3320, 259.5949
506.8141, 259.1572
507.2963, 258.5178
507.7784, 257.6074
508.2605, 256.6613
508.7426, 255.9745
509.2247, 255.5190
509.7068, 254.8586
510.1890, 253.8868
510.6711, 252.7244
511.1532, 251.4400
511.6353, 250.0974
512.1174, 249.0371
512.5995, 248.7752
513.0817, 248.6955
513.5638, 248.0240
514.0459, 246.7614
514.5280, 245.3405
515.0101, 243.7958
515.4922, 242.3415
515.9744, 241.2253
516.4565, 240.6685
516.9386, 240.0997
517.4207, 239.3704
517.9028, 238.5068
518.3849, 237.5507
518.8671, 236.3118
519.3492, 235.1993
519.8313, 234.4729
520.3134, 234.0773
520.7955, 232.9928
521.2776, 230.6529
521.7598, 228.4508
522.2419, 227.2875
522.7240, 227.3998
523.2061, 227.2397
523.6882, 226.7460
524.1703, 226.0567
524.6525, 225.3112
525.1346, 224.5122
525.6167, 223.7471
526.0988, 223.0745
526.5809, 222.4251
527.0630, 221.7271
527.5452, 220.9660
528.0273, 220.0426
528.5094, 218.5679
528.9915, 217.0684
529.4736, 216.1781
529.9557, 215.9544
530.4379, 215.9044
530.9200, 216.0485
531.4021, 216.0614
531.8842, 215.5938
532.3663, 214.0744
532.8484, 212.7643
533.3306, 212.1724
533.8127, 211.9875
534.2948, 211.5680
534.7769, 210.4555
535.2590, 209.5739
535.7411, 209.2514
536.2233, 209.4653
536.7054, 209.3369
537.1875, 208.8345
537.6696, 208.0615
538.1517, 206.9197
538.6339, 205.3564
539.1160, 204.3050
539.5981, 203.8584
540.0802, 203.8298
540.5623, 204.1987
541.0444, 204.8511
541.5266, 205.1230
542.0087, 204.6330
542.4908, 203.8602
542.9729, 203.5307
543.4550, 203.5392
543.9371, 203.4566
544.4193, 202.8628
544.9014, 202.1895
545.3835, 201.7885
545.8656, 201.6957
546.3477, 201.7342
546.8298, 201.9074
547.3120, 202.1378
547.7941, 202.3578
548.2762, 202.4581
548.7583, 202.6864
549.2404, 203.2902
549.7225, 203.9634
550.2047, 204.1326
550.6868, 203.4272
551.1689, 202.9483
551.6510, 203.0806
552.1331, 203.6918
552.6152, 203.7972
553.0974, 203.2636
553.5795, 202.8973
554.0616, 203.4422
554.5437, 204.6985
555.0258, 205.4391
555.5079, 205.5567
555.9901, 205.5014
556.4722, 205.6534
556.9543, 205.9950
557.4364, 206.5112
557.9185, 207.3110
558.4006, 208.0988
558.8828, 208.6282
559.3649, 208.9657
559.8470, 209.2810
560.3291, 209.5915
560.8112, 209.9300
561.2933, 210.3219
561.7755, 210.7648
562.2576, 211.1965
562.7397, 211.5773
563.2218, 211.9589
563.7039, 212.3549
564.1860, 212.7138
564.6682, 213.2345
565.1503, 213.9592
565.6324, 214.8060
566.1145, 215.7140
566.5966, 216.7196
567.0787, 217.5450
567.5609, 218.1079
568.0430, 218.4976
568.5251, 218.7518
569.0072, 218.9215
569.4893, 219.3761
569.9714, 220.6369
570.4536, 222.1627
570.9357, 223.1069
571.4178, 223.4850
571.8999, 223.8719
572.3820, 224.7226
572.8641, 225.6920
573.3463, 226.4236
573.8284, 226.7149
574.3105, 227.1633
574.7926, 228.1099
575.2747, 229.2505
575.7568, 230.1991
576.2390, 230.8887
576.7211, 231.4261
577.2032, 231.6322
577.6853, 231.7117
578.1674, 232.4471
578.6495, 234.0872
579.1317, 235.6628
579.6138, 236.8162
580.0959, 237.5641
580.5780, 237.8750
581.0601, 237.6970
581.5422, 237.6997
582.0244, 238.7266
582.5065, 240.3519
582.9886, 241.3651
583.4707, 241.4935
583.9528, 241.7160
584.4349, 243.4095
584.9171, 245.6407
585.3992, 247.0113
585.8813, 246.0189
586.3634, 245.1671
586.8455, 245.5631
587.3276, 246.8942
587.8098, 248.3095
588.2919, 249.7872
588.7740, 251.1830
589.2561, 252.5190
589.7382, 253.7992
590.2203, 254.6264
590.7025, 254.6924
591.1846, 254.8416
591.6667, 255.7606
592.1488, 257.5382
592.6309, 258.7458
593.1130, 259.2024
593.5952, 259.6143
594.0773, 261.0903
594.5594, 263.3190
595.0415, 264.9832
595.5236, 265.5217
596.0057, 265.8468
596.4879, 267.1000
596.9700, 268.9290
597.4521, 270.4941
597.9342, 271.0001
598.4163, 271.4992
598.8984, 272.6107
599.3806, 274.2951
599.8627, 276.0058
600.3448, 277.6589
600.8269, 279.2722
601.3090, 280.8702
601.7911, 282.4615
602.2733, 284.0473
602.7554, 285.7473
603.2375, 287.2702
603.7196, 288.1245
604.2017, 288.1906
604.6838, 288.9561
605.1660, 290.7026
605.6481, 292.9826
606.1302, 295.0962
606.6123, 297.0965
607.0944, 299.2292
607.5765, 301.7421
608.0587, 304.2954
608.5408, 306.5628
609.0229, 308.5558
609.5050, 310.4036
609.9871, 311.9629
610.4692, 313.5378
610.9514, 315.2705
611.4335, 317.1829
611.9156, 319.2973
612.3977, 321.7685
612.8798, 324.3316
613.3619, 326.7982
613.8441, 329.1561
614.3262, 331.5416
614.8083, 334.0385
