##NAMES=Thorianite
##RRUFFID=R060849
##IDEAL CHEMISTRY=ThO_2_
##LOCALITY=Belafeno, Malagasy Republic
##OWNER=RRUFF
##SOURCE=Michael Scott
##DESCRIPTION=Dark brown rough cube
##STATUS=The identification of this mineral has been confirmed by X-ray diffraction.
##URL=rruff.info/R060849
136.4683, 8897.896
136.9505, 9037.812
137.4326, 9168.301
137.9147, 9289.812
138.3968, 9415.039
138.8789, 9550.399
139.3610, 9677.940
139.8432, 9785.222
140.3253, 9874.408
140.8074, 9937.244
141.2895, 9966.465
141.7716, 9957.527
142.2537, 9956.829
142.7359, 9970.129
143.2180, 9987.274
143.7001, 9990.343
144.1822, 9969.347
144.6643, 9949.595
145.1464, 9940.733
145.6286, 9949.367
146.1107, 9953.765
146.5928, 9957.479
147.0749, 9956.473
147.5570, 9937.008
148.0391, 9873.346
148.5213, 9814.005
149.0034, 9782.288
149.4855, 9806.722
149.9676, 9823.890
150.4497, 9826.071
150.9318, 9814.889
151.4140, 9812.893
151.8961, 9823.975
152.3782, 9843.060
152.8603, 9866.632
153.3424, 9906.062
153.8245, 9939.973
154.3067, 9963.711
154.7888, 9976.865
155.2709, 9989.073
155.7530, 10002.78
156.2351, 10016.18
156.7172, 10027.11
157.1993, 10021.81
157.6815, 10024.89
158.1636, 10048.17
158.6457, 10099.62
159.1278, 10147.43
159.6099, 10182.60
160.0920, 10207.39
160.5742, 10225.03
161.0563, 10232.91
161.5384, 10235.24
162.0205, 10233.95
162.5026, 10228.11
162.9847, 10219.86
163.4669, 10209.14
163.9490, 10196.40
164.4311, 10183.43
164.9132, 10176.84
165.3953, 10167.89
165.8774, 10149.15
166.3596, 10113.95
166.8417, 10074.07
167.3238, 10034.33
167.8059, 9995.691
168.2880, 9960.635
168.7701, 9933.641
169.2523, 9910.802
169.7344, 9887.063
170.2165, 9854.889
170.6986, 9825.242
171.1807, 9812.667
171.6628, 9818.044
172.1450, 9817.718
172.6271, 9781.686
173.1092, 9727.609
173.5913, 9688.181
174.0734, 9693.849
174.5555, 9715.646
175.0377, 9715.598
175.5198, 9687.650
176.0019, 9657.305
176.4840, 9654.662
176.9661, 9671.086
177.4482, 9679.929
177.9303, 9662.641
178.4125, 9628.763
178.8946, 9591.256
179.3767, 9547.566
179.8588, 9510.212
180.3409, 9501.578
180.8230, 9517.061
181.3052, 9527.564
181.7873, 9504.848
182.2694, 9461.817
182.7515, 9431.946
183.2336, 9423.886
183.7157, 9429.382
184.1979, 9437.306
184.6800, 9447.486
185.1621, 9456.389
185.6442, 9468.758
186.1263, 9479.908
186.6084, 9466.097
187.0906, 9401.574
187.5727, 9317.240
188.0548, 9305.677
188.5369, 9372.646
189.0190, 9453.535
189.5011, 9484.804
189.9833, 9470.380
190.4654, 9446.152
190.9475, 9419.214
191.4296, 9391.254
191.9117, 9373.597
192.3938, 9368.959
192.8760, 9364.503
193.3581, 9338.728
193.8402, 9291.815
194.3223, 9254.779
194.8044, 9247.342
195.2865, 9266.604
195.7687, 9268.302
196.2508, 9247.207
196.7329, 9220.023
197.2150, 9214.783
197.6971, 9233.712
198.1792, 9254.356
198.6613, 9267.321
199.1435, 9272.689
199.6256, 9272.032
200.1077, 9262.591
200.5898, 9250.608
201.0719, 9249.722
201.5540, 9261.634
202.0362, 9275.942
202.5183, 9284.275
203.0004, 9284.558
203.4825, 9298.925
203.9646, 9338.049
204.4467, 9386.350
204.9289, 9390.363
205.4110, 9336.432
205.8931, 9280.223
206.3752, 9262.442
206.8573, 9291.760
207.3394, 9312.938
207.8216, 9317.257
208.3037, 9308.852
208.7858, 9306.253
209.2679, 9308.946
209.7500, 9319.341
210.2321, 9343.783
210.7143, 9389.437
211.1964, 9422.124
211.6785, 9432.273
212.1606, 9423.076
212.6427, 9426.839
213.1248, 9450.915
213.6070, 9476.305
214.0891, 9482.363
214.5712, 9458.034
215.0533, 9446.241
215.5354, 9460.314
216.0175, 9500.065
216.4997, 9525.135
216.9818, 9529.112
217.4639, 9524.995
217.9460, 9524.680
218.4281, 9524.198
218.9102, 9536.874
219.3923, 9572.755
219.8745, 9635.691
220.3566, 9672.716
220.8387, 9673.480
221.3208, 9658.229
221.8029, 9652.616
222.2850, 9660.078
222.7672, 9671.294
223.2493, 9686.416
223.7314, 9709.002
224.2135, 9716.275
224.6956, 9696.316
225.1777, 9670.160
225.6599, 9671.131
226.1420, 9709.992
226.6241, 9756.770
227.1062, 9804.717
227.5883, 9860.246
228.0704, 9893.139
228.5526, 9890.426
229.0347, 9871.581
229.5168, 9875.381
229.9989, 9918.654
230.4810, 9957.129
230.9632, 9971.652
231.4453, 9947.771
231.9274, 9939.574
232.4095, 9955.090
232.8916, 9983.523
233.3737, 9999.400
233.8559, 9994.764
234.3380, 9989.795
234.8201, 9993.628
235.3022, 10012.62
235.7843, 10026.36
236.2664, 10030.45
236.7486, 10030.23
237.2307, 10042.49
237.7128, 10078.79
238.1949, 10111.53
238.6770, 10124.83
239.1591, 10100.36
239.6412, 10097.47
240.1234, 10129.83
240.6055, 10184.83
241.0876, 10214.71
241.5697, 10200.69
242.0518, 10187.37
242.5339, 10201.21
243.0161, 10264.54
243.4982, 10306.40
243.9803, 10311.72
244.4624, 10291.44
244.9445, 10296.44
245.4266, 10347.34
245.9088, 10395.00
246.3909, 10408.14
246.8730, 10363.80
247.3551, 10332.47
247.8372, 10320.76
248.3193, 10326.10
248.8015, 10335.83
249.2836, 10353.19
249.7657, 10370.54
250.2478, 10383.34
250.7299, 10391.21
251.2120, 10396.29
251.6942, 10397.22
252.1763, 10395.68
252.6584, 10402.52
253.1405, 10428.31
253.6226, 10448.80
254.1047, 10443.89
254.5869, 10395.70
255.0690, 10366.08
255.5511, 10367.98
256.0332, 10396.01
256.5153, 10412.35
256.9974, 10410.70
257.4796, 10405.79
257.9617, 10406.60
258.4438, 10411.01
258.9259, 10426.53
259.4080, 10459.04
259.8901, 10504.99
260.3723, 10536.15
260.8544, 10547.46
261.3365, 10551.46
261.8186, 10557.77
262.3007, 10568.26
262.7828, 10574.99
263.2650, 10575.32
263.7471, 10570.33
264.2292, 10568.00
264.7113, 10566.45
265.1934, 10570.79
265.6755, 10591.48
266.1577, 10641.16
266.6398, 10660.89
267.1219, 10628.33
267.6040, 10554.80
268.0861, 10527.48
268.5682, 10562.73
269.0503, 10611.89
269.5324, 10632.88
270.0146, 10618.00
270.4967, 10610.07
270.9788, 10615.53
271.4609, 10633.67
271.9430, 10664.67
272.4251, 10717.72
272.9073, 10761.48
273.3894, 10758.13
273.8715, 10695.49
274.3536, 10661.62
274.8357, 10679.03
275.3178, 10736.25
275.8000, 10775.88
276.2821, 10794.80
276.7642, 10805.14
277.2463, 10817.56
277.7284, 10832.73
278.2105, 10839.67
278.6927, 10833.25
279.1748, 10817.79
279.6569, 10810.98
280.1390, 10813.79
280.6211, 10820.34
281.1032, 10823.98
281.5854, 10824.33
282.0675, 10834.94
282.5496, 10864.16
283.0317, 10902.25
283.5138, 10914.41
283.9959, 10897.64
284.4781, 10875.10
284.9602, 10865.60
285.4423, 10868.73
285.9244, 10870.28
286.4065, 10864.27
286.8886, 10858.36
287.3708, 10881.62
287.8529, 10936.73
288.3350, 10981.10
288.8171, 10969.35
289.2992, 10910.09
289.7813, 10870.04
290.2635, 10865.62
290.7456, 10880.66
291.2277, 10882.58
291.7098, 10871.43
292.1919, 10859.19
292.6740, 10854.24
293.1562, 10855.57
293.6383, 10859.07
294.1204, 10863.04
294.6025, 10870.68
295.0846, 10895.31
295.5667, 10934.75
296.0489, 10963.14
296.5310, 10959.07
297.0131, 10930.35
297.4952, 10891.59
297.9773, 10838.07
298.4594, 10791.72
298.9416, 10788.14
299.4237, 10822.27
299.9058, 10866.87
300.3879, 10906.82
300.8700, 10944.18
301.3521, 10982.01
301.8343, 11022.34
302.3164, 11059.49
302.7985, 11089.46
303.2806, 11111.28
303.7627, 11123.77
304.2448, 11116.67
304.7270, 11102.25
305.2091, 11098.85
305.6912, 11112.32
306.1733, 11125.87
306.6554, 11119.93
307.1375, 11101.89
307.6197, 11090.99
308.1018, 11105.12
308.5839, 11127.78
309.0660, 11141.99
309.5481, 11144.05
310.0302, 11146.19
310.5123, 11165.33
310.9944, 11190.63
311.4766, 11200.71
311.9587, 11161.48
312.4408, 11119.20
312.9229, 11115.92
313.4050, 11164.96
313.8871, 11202.37
314.3693, 11174.69
314.8514, 11117.82
315.3335, 11086.61
315.8156, 11138.55
316.2977, 11192.80
316.7798, 11201.19
317.2620, 11153.29
317.7441, 11112.38
318.2262, 11105.77
318.7083, 11118.43
319.1904, 11132.54
319.6725, 11153.74
320.1547, 11165.98
320.6368, 11157.26
321.1189, 11124.79
321.6010, 11103.19
322.0831, 11098.44
322.5652, 11108.64
323.0474, 11132.05
323.5295, 11202.91
324.0116, 11251.56
324.4937, 11243.92
324.9758, 11178.74
325.4579, 11150.47
325.9401, 11204.47
326.4222, 11279.14
326.9043, 11330.66
327.3864, 11347.41
327.8685, 11350.97
328.3506, 11334.84
328.8328, 11301.80
329.3149, 11283.13
329.7970, 11292.80
330.2791, 11305.70
330.7612, 11306.30
331.2433, 11276.71
331.7255, 11263.10
332.2076, 11270.91
332.6897, 11297.33
333.1718, 11331.38
333.6539, 11386.09
334.1360, 11431.05
334.6182, 11446.94
335.1003, 11416.52
335.5824, 11402.65
336.0645, 11414.80
336.5466, 11442.01
337.0287, 11452.77
337.5109, 11436.98
337.9930, 11427.47
338.4751, 11447.13
338.9572, 11505.87
339.4393, 11528.66
339.9214, 11501.32
340.4036, 11453.67
340.8857, 11445.05
341.3678, 11484.14
341.8499, 11511.71
342.3320, 11493.63
342.8141, 11432.22
343.2963, 11396.34
343.7784, 11388.85
344.2605, 11398.83
344.7426, 11416.65
345.2247, 11442.16
345.7068, 11464.32
346.1890, 11477.26
346.6711, 11483.83
347.1532, 11495.10
347.6353, 11511.57
348.1174, 11526.53
348.5995, 11524.26
349.0817, 11511.60
349.5638, 11519.29
350.0459, 11575.85
350.5280, 11645.22
351.0101, 11656.62
351.4922, 11612.98
351.9743, 11565.07
352.4565, 11556.03
352.9386, 11571.28
353.4207, 11583.34
353.9028, 11581.22
354.3849, 11578.74
354.8670, 11599.14
355.3492, 11635.75
355.8313, 11658.07
356.3134, 11630.79
356.7955, 11587.23
357.2776, 11564.57
357.7597, 11577.58
358.2419, 11597.78
358.7240, 11610.77
359.2061, 11617.32
359.6882, 11619.26
360.1703, 11603.66
360.6524, 11592.94
361.1346, 11606.25
361.6167, 11654.76
362.0988, 11694.60
362.5809, 11705.83
363.0630, 11698.74
363.5451, 11688.56
364.0273, 11656.19
364.5094, 11642.01
364.9915, 11673.37
365.4736, 11762.89
365.9557, 11823.93
366.4378, 11819.70
366.9200, 11790.85
367.4021, 11777.23
367.8842, 11796.71
368.3663, 11816.83
368.8484, 11831.36
369.3305, 11840.43
369.8127, 11854.01
370.2948, 11878.14
370.7769, 11902.05
371.2590, 11917.82
371.7411, 11917.78
372.2232, 11921.75
372.7054, 11926.65
373.1875, 11936.04
373.6696, 11971.66
374.1517, 12053.88
374.6338, 12125.07
375.1159, 12143.60
375.5981, 12088.11
376.0802, 12070.19
376.5623, 12103.37
377.0444, 12167.18
377.5265, 12224.64
378.0086, 12278.16
378.4908, 12312.20
378.9729, 12302.07
379.4550, 12250.84
379.9371, 12260.39
380.4192, 12344.55
380.9013, 12446.44
381.3835, 12494.27
381.8656, 12491.21
382.3477, 12475.96
382.8298, 12453.08
383.3119, 12430.69
383.7940, 12428.23
384.2762, 12445.49
384.7583, 12483.43
385.2404, 12558.42
385.7225, 12654.61
386.2046, 12734.75
386.6867, 12790.40
387.1689, 12822.12
387.6510, 12808.56
388.1331, 12760.96
388.6152, 12736.87
389.0973, 12803.75
389.5794, 12901.45
390.0616, 12961.41
390.5437, 12960.57
391.0258, 12947.43
391.5079, 12950.35
391.9900, 12964.78
392.4721, 12981.05
392.9542, 12999.06
393.4363, 13015.40
393.9185, 13026.31
394.4006, 13029.91
394.8827, 13038.49
395.3648, 13045.00
395.8469, 13062.48
396.3290, 13106.24
396.8112, 13231.63
397.2933, 13332.02
397.7754, 13363.93
398.2575, 13323.67
398.7396, 13305.04
399.2217, 13324.66
399.7039, 13360.85
400.1860, 13399.89
400.6681, 13440.90
401.1502, 13486.16
401.6323, 13539.53
402.1144, 13597.59
402.5966, 13649.22
403.0787, 13698.64
403.5608, 13735.38
404.0429, 13747.75
404.5250, 13720.65
405.0071, 13727.34
405.4893, 13778.82
405.9714, 13853.33
406.4535, 13915.25
406.9356, 13962.51
407.4177, 14009.78
407.8998, 14063.82
408.3820, 14122.99
408.8641, 14178.50
409.3462, 14230.59
409.8283, 14278.40
410.3104, 14316.53
410.7925, 14347.72
411.2747, 14390.56
411.7568, 14455.71
412.2389, 14530.73
412.7210, 14592.01
413.2031, 14641.39
413.6852, 14693.53
414.1674, 14769.47
414.6495, 14853.62
415.1316, 14913.81
415.6137, 14931.84
416.0958, 14958.20
416.5779, 15049.96
417.0601, 15185.88
417.5422, 15310.62
418.0243, 15411.70
418.5064, 15484.55
418.9885, 15510.98
419.4706, 15480.63
419.9528, 15478.93
420.4349, 15566.87
420.9170, 15694.87
421.3991, 15807.52
421.8812, 15864.53
422.3633, 15931.40
422.8455, 16032.92
423.3276, 16167.51
423.8097, 16292.62
424.2918, 16394.26
424.7739, 16493.01
425.2560, 16601.32
425.7382, 16733.52
426.2203, 16853.02
426.7024, 16940.64
427.1845, 17019.04
427.6666, 17148.10
428.1487, 17360.16
428.6309, 17563.09
429.1130, 17718.16
429.5951, 17813.60
430.0772, 17938.20
430.5593, 18096.98
431.0414, 18274.52
431.5236, 18447.47
432.0057, 18614.16
432.4878, 18797.63
432.9699, 19011.81
433.4520, 19244.37
433.9341, 19445.29
434.4162, 19612.92
434.8983, 19792.59
435.3805, 20030.67
435.8626, 20310.84
436.3447, 20579.66
436.8268, 20824.29
437.3089, 21067.50
437.7910, 21336.07
438.2732, 21628.44
438.7553, 21939.65
439.2374, 22278.46
439.7195, 22628.17
440.2016, 22973.08
440.6837, 23311.76
441.1659, 23647.88
441.6480, 23955.97
442.1301, 24268.74
442.6122, 24622.68
443.0943, 25079.41
443.5764, 25530.51
444.0586, 25925.18
444.5407, 26274.57
445.0228, 26650.79
445.5049, 27072.48
445.9870, 27523.08
446.4691, 27988.78
446.9513, 28469.21
447.4334, 28970.78
447.9155, 29520.00
448.3976, 30085.66
448.8797, 30600.82
449.3618, 31012.01
449.8440, 31457.99
450.3261, 31983.16
450.8082, 32594.30
451.2903, 33182.30
451.7724, 33745.35
452.2545, 34276.02
452.7367, 34750.06
453.2188, 35155.33
453.7009, 35602.56
454.1830, 36140.91
454.6651, 36705.96
455.1472, 37150.48
455.6294, 37471.11
456.1115, 37745.70
456.5936, 38022.97
457.0757, 38291.39
457.5578, 38505.61
458.0399, 38665.96
458.5221, 38774.75
459.0042, 38844.54
459.4863, 38866.34
459.9684, 38821.57
460.4505, 38678.79
460.9326, 38482.09
461.4148, 38276.95
461.8969, 38059.47
462.3790, 37795.71
462.8611, 37465.18
463.3432, 37083.95
463.8253, 36666.43
464.3075, 36209.10
464.7896, 35726.26
465.2717, 35232.60
465.7538, 34720.67
466.2359, 34182.11
466.7180, 33564.63
467.2002, 32962.20
467.6823, 32414.59
468.1644, 31938.32
468.6465, 31411.73
469.1286, 30799.74
469.6107, 30172.32
470.0929, 29583.86
470.5750, 29053.60
471.0571, 28512.12
471.5392, 27949.99
472.0213, 27374.54
472.5034, 26807.94
472.9856, 26247.45
473.4677, 25701.02
473.9498, 25176.53
474.4319, 24670.45
474.9140, 24142.49
475.3961, 23587.39
475.8782, 23033.90
476.3604, 22513.05
476.8425, 22020.48
477.3246, 21550.40
477.8067, 21096.79
478.2888, 20663.23
478.7709, 20260.75
479.2531, 19885.77
479.7352, 19516.66
480.2173, 19130.28
480.6994, 18745.98
481.1815, 18384.58
481.6636, 18044.48
482.1458, 17731.37
482.6279, 17464.05
483.1100, 17223.25
483.5921, 16982.22
484.0742, 16734.64
484.5563, 16481.56
485.0385, 16219.09
485.5206, 15943.85
486.0027, 15698.46
486.4848, 15506.54
486.9669, 15324.83
487.4490, 15128.70
487.9312, 14903.64
488.4133, 14692.81
488.8954, 14500.14
489.3775, 14324.61
489.8596, 14162.73
490.3417, 14018.37
490.8239, 13879.40
491.3060, 13737.54
491.7881, 13596.70
492.2702, 13481.54
492.7523, 13395.42
493.2344, 13315.52
493.7166, 13216.32
494.1987, 13104.45
494.6808, 13004.49
495.1629, 12923.56
495.6450, 12854.22
496.1271, 12794.13
496.6093, 12740.00
497.0914, 12681.66
497.5735, 12599.89
498.0556, 12520.54
498.5377, 12471.79
499.0198, 12457.26
499.5020, 12440.93
499.9841, 12399.54
500.4662, 12350.71
500.9483, 12311.92
501.4304, 12304.83
501.9125, 12287.26
502.3947, 12240.67
502.8768, 12175.04
503.3589, 12128.33
503.8410, 12102.87
504.3231, 12094.31
504.8052, 12105.21
505.2874, 12140.68
505.7695, 12164.90
506.2516, 12173.15
506.7337, 12176.70
507.2158, 12191.42
507.6979, 12220.45
508.1801, 12233.60
508.6622, 12220.46
509.1443, 12192.68
509.6264, 12176.22
510.1085, 12171.12
510.5906, 12175.16
511.0728, 12193.22
511.5549, 12218.61
512.0370, 12232.24
512.5191, 12231.11
513.0012, 12240.06
513.4833, 12301.27
513.9655, 12381.36
514.4476, 12429.76
514.9297, 12401.68
515.4118, 12367.60
515.8939, 12360.26
516.3760, 12377.15
516.8582, 12409.65
517.3403, 12476.78
517.8224, 12540.68
518.3045, 12578.49
518.7866, 12574.05
519.2687, 12592.74
519.7509, 12659.32
520.2330, 12736.97
520.7151, 12787.51
521.1972, 12797.40
521.6793, 12810.83
522.1614, 12832.26
522.6436, 12862.26
523.1257, 12902.37
523.6078, 12953.55
524.0899, 13011.77
524.5720, 13078.69
525.0541, 13151.95
525.5363, 13215.93
526.0184, 13269.75
526.5005, 13318.56
526.9826, 13355.96
527.4647, 13391.80
527.9468, 13455.51
528.4290, 13573.61
528.9111, 13694.08
529.3932, 13750.65
529.8753, 13764.31
530.3574, 13795.78
530.8395, 13886.95
531.3217, 13996.90
531.8038, 14100.25
532.2859, 14193.70
532.7680, 14289.33
533.2501, 14392.69
533.7322, 14499.16
534.2144, 14606.37
534.6965, 14710.74
535.1786, 14819.93
535.6607, 14934.33
536.1428, 15053.59
536.6249, 15177.62
537.1070, 15312.05
537.5891, 15440.64
538.0712, 15550.75
538.5533, 15645.06
539.0355, 15766.71
539.5176, 15916.88
539.9997, 16085.86
540.4818, 16273.60
540.9639, 16471.64
541.4460, 16642.46
541.9282, 16770.63
542.4103, 16885.54
542.8924, 17020.81
543.3745, 17172.97
543.8566, 17326.45
544.3387, 17489.85
544.8209, 17640.57
545.3030, 17754.56
545.7851, 17832.85
546.2672, 17918.49
546.7493, 18041.38
547.2314, 18170.54
547.7136, 18284.96
548.1957, 18370.67
548.6778, 18458.20
549.1599, 18551.78
549.6420, 18647.63
550.1241, 18742.49
550.6063, 18848.50
551.0884, 18929.04
551.5705, 18965.88
552.0526, 18968.20
552.5347, 19002.83
553.0168, 19076.38
553.4990, 19151.67
553.9811, 19199.87
554.4632, 19225.99
554.9453, 19270.24
555.4274, 19342.07
555.9095, 19398.01
556.3917, 19370.15
556.8738, 19292.02
557.3559, 19239.37
557.8380, 19246.53
558.3201, 19279.53
558.8022, 19331.20
559.2844, 19389.99
559.7665, 19417.54
560.2486, 19362.97
560.7307, 19301.19
561.2128, 19273.49
561.6949, 19290.42
562.1771, 19305.71
562.6592, 19324.76
563.1413, 19331.98
563.6234, 19313.26
564.1055, 19251.06
564.5876, 19197.65
565.0698, 19159.27
565.5519, 19130.05
566.0340, 19095.46
566.5161, 19053.52
566.9982, 19020.74
567.4803, 19010.02
567.9625, 19013.36
568.4446, 19000.45
568.9267, 18971.46
569.4088, 18932.79
569.8909, 18885.29
570.3730, 18832.94
570.8552, 18781.49
571.3373, 18729.99
571.8194, 18687.55
572.3015, 18663.37
572.7836, 18651.52
573.2657, 18642.85
573.7479, 18634.59
574.2300, 18628.68
574.7121, 18634.32
575.1942, 18646.59
575.6763, 18636.42
576.1584, 18578.17
576.6406, 18521.83
577.1227, 18486.20
577.6048, 18475.77
578.0869, 18462.36
578.5690, 18443.31
579.0511, 18426.48
579.5333, 18422.65
580.0154, 18432.29
580.4975, 18433.74
580.9796, 18420.51
581.4617, 18403.56
581.9438, 18404.04
582.4260, 18418.10
582.9081, 18428.25
583.3902, 18414.59
583.8723, 18399.27
584.3544, 18410.69
584.8365, 18445.81
585.3187, 18480.14
585.8008, 18492.03
586.2829, 18502.74
586.7650, 18531.92
587.2471, 18595.92
587.7292, 18640.72
588.2114, 18638.95
588.6935, 18620.65
589.1756, 18621.34
589.6577, 18660.27
590.1398, 18683.76
590.6219, 18677.46
591.1041, 18653.48
591.5862, 18648.92
592.0683, 18665.09
592.5504, 18694.47
593.0325, 18737.86
593.5146, 18792.35
593.9968, 18842.92
594.4789, 18889.19
594.9610, 18938.81
595.4431, 19013.62
595.9252, 19092.37
596.4073, 19133.97
596.8895, 19118.35
597.3716, 19105.95
597.8537, 19145.81
598.3358, 19213.05
598.8179, 19270.35
599.3000, 19296.56
599.7822, 19322.29
600.2643, 19358.07
600.7464, 19401.78
601.2285, 19440.09
601.7106, 19477.47
602.1927, 19503.30
602.6749, 19509.83
603.1570, 19495.32
603.6391, 19488.31
604.1212, 19489.57
604.6033, 19495.90
605.0854, 19511.20
605.5676, 19532.19
606.0497, 19530.80
606.5318, 19497.82
607.0139, 19456.45
607.4960, 19448.42
607.9781, 19454.88
608.4603, 19431.39
608.9424, 19326.00
609.4245, 19212.16
609.9066, 19143.82
610.3887, 19111.79
610.8708, 19070.62
611.3530, 19000.43
611.8351, 18922.18
612.3172, 18848.22
612.7993, 18785.86
613.2814, 18696.39
613.7635, 18556.56
614.2457, 18415.98
614.7278, 18318.45
615.2099, 18276.21
615.6920, 18218.19
616.1741, 18135.92
616.6563, 18040.17
617.1384, 17938.83
617.6205, 17835.28
618.1026, 17754.14
618.5847, 17722.49
619.0668, 17702.63
619.5489, 17639.30
620.0310, 17540.23
620.5131, 17435.40
620.9952, 17344.43
621.4774, 17252.07
621.9595, 17142.97
622.4416, 17012.88
622.9237, 16897.60
623.4058, 16811.65
623.8879, 16740.29
624.3701, 16675.74
624.8522, 16637.45
625.3343, 16567.73
625.8164, 16449.68
626.2985, 16316.21
626.7806, 16216.99
627.2628, 16157.08
627.7449, 16090.71
628.2270, 16004.40
628.7091, 15907.52
629.1912, 15824.14
629.6733, 15751.17
630.1555, 15670.98
630.6376, 15566.85
631.1197, 15452.74
631.6018, 15338.20
632.0839, 15224.79
632.5660, 15128.89
633.0482, 15074.83
633.5303, 15031.12
634.0124, 14976.88
634.4945, 14909.27
634.9766, 14828.86
635.4587, 14724.06
635.9409, 14613.39
