##NAMES=Thorianite
##RRUFFID=R130003
##IDEAL CHEMISTRY=ThO_2_
##LOCALITY=Millar's mine, Tory Hill, Monmouth Township, Haliburton County, Ontario, Canada
##OWNER=RRUFF
##SOURCE=Don Doell
##DESCRIPTION=Broken black cubes
##STATUS=The identification of this mineral has been confirmed by X-ray diffraction.
##URL=rruff.info/R130003
138.8073, 217.3029
139.2895, 215.7094
139.7716, 213.2386
140.2537, 210.8771
140.7358, 208.8051
141.2179, 207.0200
141.7000, 205.6910
142.1821, 204.7802
142.6643, 203.7531
143.1464, 202.3579
143.6285, 200.6642
144.1106, 198.8630
144.5927, 196.7653
145.0748, 194.8694
145.5570, 193.7023
146.0391, 193.2617
146.5212, 192.8205
147.0033, 191.5898
147.4854, 189.4424
147.9675, 187.7366
148.4497, 187.1355
148.9318, 186.8026
149.4139, 186.3751
149.8960, 185.7634
150.3781, 184.9830
150.8602, 184.0623
151.3424, 182.9859
151.8245, 181.7603
152.3066, 180.1179
152.7887, 178.5009
153.2708, 177.2699
153.7529, 176.5626
154.2351, 176.2166
154.7172, 175.8413
155.1993, 175.6524
155.6814, 175.1412
156.1635, 173.9501
156.6456, 172.5252
157.1278, 171.4503
157.6099, 171.0336
158.0920, 171.0807
158.5741, 170.7612
159.0562, 169.7380
159.5383, 168.7816
160.0205, 168.1573
160.5026, 167.7460
160.9847, 167.2746
161.4668, 166.6009
161.9489, 165.7322
162.4310, 164.7825
162.9131, 163.7330
163.3953, 162.6345
163.8774, 161.2835
164.3595, 159.7466
164.8416, 158.7643
165.3237, 159.1700
165.8058, 160.3935
166.2880, 161.0685
166.7701, 160.8215
167.2522, 160.1553
167.7343, 159.5939
168.2164, 159.1520
168.6985, 158.7502
169.1807, 158.3165
169.6628, 157.9023
170.1449, 157.5899
170.6270, 157.4668
171.1091, 157.4330
171.5912, 157.2907
172.0734, 157.1208
172.5555, 156.6561
173.0376, 155.6095
173.5197, 154.2898
174.0018, 153.1173
174.4839, 152.3305
174.9661, 151.8969
175.4482, 151.6434
175.9303, 151.7325
176.4124, 151.8379
176.8945, 151.9844
177.3766, 152.0804
177.8588, 151.9731
178.3409, 151.5295
178.8230, 150.7453
179.3051, 150.0113
179.7872, 149.2626
180.2693, 148.6238
180.7515, 148.1763
181.2336, 147.8802
181.7157, 147.6336
182.1978, 147.3409
182.6799, 146.9823
183.1620, 146.7908
183.6441, 146.8972
184.1263, 147.0132
184.6084, 147.0149
185.0905, 146.8937
185.5726, 146.6871
186.0547, 146.4140
186.5368, 146.0604
187.0190, 145.7812
187.5011, 145.8589
187.9832, 145.8175
188.4653, 145.1090
188.9474, 143.7148
189.4296, 142.3948
189.9117, 141.9951
190.3938, 142.4963
190.8759, 142.7738
191.3580, 142.3846
191.8401, 141.8649
192.3223, 141.9520
192.8044, 142.8413
193.2865, 143.7449
193.7686, 143.8332
194.2507, 143.3079
194.7328, 142.6356
195.2150, 141.7376
195.6971, 140.8194
196.1792, 140.3438
196.6613, 140.5066
197.1434, 140.7700
197.6255, 140.7914
198.1077, 140.6067
198.5898, 140.2749
199.0719, 139.6900
199.5540, 138.9457
200.0361, 138.4706
200.5182, 138.4174
201.0004, 138.4513
201.4825, 138.3935
201.9646, 138.2698
202.4467, 138.1548
202.9288, 138.1707
203.4109, 138.2958
203.8930, 138.1212
204.3752, 137.2480
204.8573, 136.4829
205.3394, 136.1553
205.8215, 136.1876
206.3036, 136.3598
206.7857, 136.5447
207.2679, 136.7544
207.7500, 136.7433
208.2321, 136.1389
208.7142, 135.6437
209.1963, 135.6114
209.6784, 135.9086
210.1606, 136.1245
210.6427, 135.8336
211.1248, 134.9231
211.6069, 134.5388
212.0890, 135.2265
212.5711, 135.8795
213.0533, 136.0253
213.5354, 135.7200
214.0175, 135.2980
214.4996, 135.0573
214.9817, 135.0232
215.4638, 135.0095
215.9460, 135.0661
216.4281, 135.0955
216.9102, 135.1162
217.3923, 135.0892
217.8744, 134.8572
218.3565, 134.1994
218.8387, 133.0212
219.3208, 132.4814
219.8029, 133.0477
220.2850, 133.7866
220.7671, 134.1696
221.2492, 134.1697
221.7314, 134.0098
222.2135, 133.8615
222.6956, 133.7244
223.1777, 133.5631
223.6598, 133.4600
224.1419, 133.2746
224.6240, 132.8172
225.1062, 132.0976
225.5883, 131.4325
226.0704, 131.0939
226.5525, 131.0628
227.0346, 131.0423
227.5167, 131.0441
227.9989, 131.0324
228.4810, 130.9683
228.9631, 130.8494
229.4452, 130.7131
229.9273, 130.5790
230.4094, 130.4490
230.8916, 130.3265
231.3737, 130.1398
231.8558, 130.0016
232.3379, 130.1168
232.8200, 130.5354
233.3021, 130.8541
233.7843, 130.7098
234.2664, 130.3134
234.7485, 129.9608
235.2306, 129.6716
235.7127, 129.5040
236.1948, 129.5703
236.6770, 129.9174
237.1591, 130.3090
237.6412, 130.7519
238.1233, 131.1336
238.6054, 131.3025
239.0875, 131.1786
239.5697, 130.8700
240.0518, 130.5285
240.5339, 130.1384
241.0160, 129.7612
241.4981, 129.3651
241.9802, 129.0149
242.4624, 128.8099
242.9445, 128.8139
243.4266, 128.8832
243.9087, 128.7443
244.3908, 128.2973
244.8729, 127.9142
245.3550, 127.6811
245.8372, 127.5566
246.3193, 127.5990
246.8014, 127.8465
247.2835, 128.0387
247.7656, 127.6327
248.2477, 126.2502
248.7299, 125.1790
249.2120, 124.7288
249.6941, 124.5835
250.1762, 124.5886
250.6583, 124.6849
251.1404, 124.7631
251.6226, 124.6530
252.1047, 124.3607
252.5868, 123.8419
253.0689, 122.8115
253.5510, 121.7751
254.0331, 121.0371
254.5153, 120.6939
254.9974, 120.7054
255.4795, 121.1166
255.9616, 122.4055
256.4437, 123.0203
256.9258, 122.6900
257.4080, 121.9979
257.8901, 121.1527
258.3722, 120.2763
258.8543, 119.5671
259.3364, 119.3208
259.8185, 119.7416
260.3007, 120.1361
260.7828, 120.7424
261.2649, 121.1565
261.7470, 120.9961
262.2291, 120.2999
262.7112, 119.5044
263.1934, 119.1217
263.6755, 119.3072
264.1576, 119.3527
264.6397, 119.2370
265.1218, 119.0301
265.6039, 118.6932
266.0861, 118.2741
266.5682, 117.9396
267.0503, 117.8945
267.5324, 118.2439
268.0145, 118.1689
268.4966, 117.2683
268.9788, 116.3980
269.4609, 115.9721
269.9430, 115.9670
270.4251, 116.1600
270.9072, 116.3969
271.3893, 116.6816
271.8715, 116.8339
272.3536, 116.8996
272.8357, 116.8223
273.3178, 116.4611
273.7999, 115.9195
274.2820, 115.4723
274.7642, 115.3190
275.2463, 115.4296
275.7284, 115.4379
276.2105, 115.3153
276.6926, 115.1494
277.1747, 114.9151
277.6568, 114.6576
278.1389, 114.4912
278.6211, 114.4972
279.1032, 114.6136
279.5853, 114.5644
280.0674, 114.2629
280.5495, 113.9363
281.0316, 113.6157
281.5138, 113.3112
281.9959, 113.0196
282.4780, 112.7267
282.9601, 112.4879
283.4422, 112.4688
283.9243, 112.7094
284.4065, 113.0449
284.8886, 113.7396
285.3707, 114.4340
285.8528, 114.4698
286.3349, 113.5698
286.8170, 112.3329
287.2992, 111.8140
287.7813, 112.2383
288.2634, 112.5419
288.7455, 112.4921
289.2276, 112.2639
289.7097, 112.0514
290.1919, 111.8973
290.6740, 111.7812
291.1561, 111.7166
291.6382, 111.7319
292.1203, 111.5462
292.6024, 110.9414
293.0846, 110.2300
293.5667, 109.6734
294.0488, 109.3068
294.5309, 109.1511
295.0130, 109.3463
295.4951, 109.8808
295.9773, 109.9881
296.4594, 109.1952
296.9415, 108.2878
297.4236, 107.8940
297.9057, 108.0147
298.3878, 108.2678
298.8700, 108.4138
299.3521, 108.4666
299.8342, 108.5491
300.3163, 108.8179
300.7984, 108.9744
301.2805, 108.7894
301.7627, 108.3181
302.2448, 107.7756
302.7269, 107.1700
303.2090, 106.6568
303.6911, 106.6731
304.1732, 107.5471
304.6554, 108.3612
305.1375, 108.7658
305.6196, 108.8048
306.1017, 108.5433
306.5838, 107.9403
307.0659, 107.1686
307.5481, 106.5181
308.0302, 105.9180
308.5123, 105.6019
308.9944, 105.8756
309.4765, 106.4367
309.9586, 106.7884
310.4408, 106.8107
310.9229, 106.5737
311.4050, 106.0251
311.8871, 105.1342
312.3692, 104.5481
312.8513, 104.5317
313.3335, 104.8225
313.8156, 105.1738
314.2977, 105.5560
314.7798, 105.8715
315.2619, 106.0692
315.7440, 106.1281
316.2262, 105.9159
316.7083, 105.0801
317.1904, 104.2096
317.6725, 103.8545
318.1546, 103.9989
318.6367, 104.1814
319.1188, 104.0783
319.6010, 103.7651
320.0831, 103.6277
320.5652, 103.8737
321.0473, 104.0837
321.5294, 103.9507
322.0115, 103.5706
322.4937, 103.2874
322.9758, 103.2790
323.4579, 103.4467
323.9400, 103.5513
324.4221, 103.6296
324.9042, 103.5927
325.3864, 103.3461
325.8685, 102.9726
326.3506, 102.5907
326.8327, 102.2128
327.3148, 101.9292
327.7969, 101.9199
328.2791, 102.2124
328.7612, 102.5340
329.2433, 102.9757
329.7254, 103.3557
330.2075, 103.4197
330.6896, 103.1239
331.1718, 102.7047
331.6539, 102.4095
332.1360, 102.2498
332.6181, 101.9136
333.1002, 101.0231
333.5823, 100.2339
334.0645, 100.1828
334.5466, 100.7933
335.0287, 101.3368
335.5108, 101.2679
335.9929, 100.6892
336.4750, 100.4139
336.9572, 100.7500
337.4393, 101.0261
337.9214, 100.9350
338.4035, 100.5671
338.8856, 100.0835
339.3677, 99.50523
339.8499, 98.97968
340.3320, 98.97739
340.8141, 99.87001
341.2962, 100.5294
341.7783, 100.6382
342.2604, 100.4347
342.7426, 100.1893
343.2247, 99.97970
343.7068, 99.80191
344.1889, 99.64725
344.6710, 99.50568
345.1531, 99.43973
345.6353, 99.54021
346.1174, 99.65515
346.5995, 99.63968
347.0816, 99.49902
347.5637, 99.37888
348.0458, 99.43441
348.5280, 99.68160
349.0101, 99.70129
349.4922, 99.23739
349.9743, 98.84367
350.4564, 98.75010
350.9385, 98.91507
351.4207, 99.26266
351.9028, 99.78342
352.3849, 100.3749
352.8670, 100.5863
353.3491, 100.0065
353.8312, 99.55893
354.3134, 99.48864
354.7955, 99.55553
355.2776, 99.45396
355.7597, 99.08165
356.2418, 98.59692
356.7239, 98.25933
357.2061, 98.09641
357.6882, 98.05158
358.1703, 98.26497
358.6524, 98.48020
359.1345, 98.51218
359.6166, 98.35446
360.0987, 98.11234
360.5808, 97.86521
361.0630, 97.59200
361.5451, 97.52530
362.0272, 97.84886
362.5093, 98.17284
362.9914, 98.42453
363.4735, 98.57715
363.9557, 98.56746
364.4378, 98.33752
364.9199, 97.97739
365.4020, 97.88299
365.8841, 98.35851
366.3662, 98.68931
366.8484, 98.74699
367.3305, 98.65212
367.8126, 98.50098
368.2947, 98.33149
368.7768, 98.16122
369.2589, 98.01515
369.7411, 97.89350
370.2232, 97.79854
370.7053, 97.87008
371.1874, 97.85091
371.6695, 97.41411
372.1516, 96.68977
372.6338, 96.21457
373.1159, 96.61446
373.5980, 97.84599
374.0801, 98.43140
374.5622, 97.75647
375.0443, 97.16251
375.5265, 97.18847
376.0086, 97.55906
376.4907, 97.86088
376.9728, 97.91528
377.4549, 97.73830
377.9370, 97.23338
378.4192, 96.09596
378.9013, 95.50961
379.3834, 96.43059
379.8655, 97.63984
380.3476, 98.16936
380.8297, 97.83069
381.3119, 97.19369
381.7940, 96.73148
382.2761, 96.44384
382.7582, 96.40716
383.2403, 96.79545
383.7224, 97.25461
384.2046, 97.61073
384.6867, 97.84663
385.1688, 97.91903
385.6509, 97.56532
386.1330, 97.07102
386.6151, 97.23722
387.0973, 98.30569
387.5794, 99.15716
388.0615, 98.90102
388.5436, 98.08752
389.0257, 97.44701
389.5078, 97.09083
389.9900, 96.97902
390.4721, 97.22323
390.9542, 97.76193
391.4363, 98.07115
391.9184, 97.85376
392.4005, 97.48975
392.8827, 97.55824
393.3648, 98.09299
393.8469, 98.53419
394.3290, 98.57684
394.8111, 98.41870
395.2932, 98.37784
395.7754, 98.50727
396.2575, 98.66879
396.7396, 98.74094
397.2217, 98.73137
397.7038, 98.74903
398.1859, 98.85350
398.6681, 98.93906
399.1501, 98.85482
399.6323, 98.67274
400.1144, 98.69448
400.5965, 99.12951
401.0786, 99.76997
401.5607, 99.96645
402.0428, 99.32323
402.5250, 98.99783
403.0071, 99.57684
403.4892, 100.4003
403.9713, 100.6135
404.4534, 100.0500
404.9355, 99.29710
405.4177, 99.03606
405.8998, 99.36572
406.3819, 99.75751
406.8640, 100.4899
407.3461, 101.0146
407.8282, 100.8284
408.3104, 100.2009
408.7925, 99.82868
409.2746, 100.1646
409.7567, 101.0505
410.2388, 101.7645
410.7209, 102.3739
411.2031, 102.6874
411.6852, 102.5240
412.1673, 102.1560
412.6494, 101.7793
413.1315, 101.4696
413.6136, 101.2822
414.0958, 101.3270
414.5779, 101.6883
415.0600, 101.9448
415.5421, 101.9806
416.0242, 102.0160
416.5063, 102.1279
416.9885, 102.3096
417.4706, 102.5099
417.9527, 102.6691
418.4348, 102.8495
418.9169, 103.3293
419.3990, 104.3417
419.8812, 105.1255
420.3633, 105.2791
420.8454, 105.2005
421.3275, 105.2465
421.8096, 105.5043
422.2917, 105.8064
422.7739, 105.8987
423.2560, 105.8037
423.7381, 106.0581
424.2202, 107.0541
424.7023, 107.9766
425.1844, 108.0522
425.6666, 107.5072
426.1487, 107.1684
426.6308, 107.6430
427.1129, 108.4040
427.5950, 108.5426
428.0771, 108.0086
428.5593, 107.7021
429.0414, 108.2876
429.5235, 109.3167
430.0056, 109.7415
430.4877, 109.2739
430.9698, 108.8537
431.4520, 109.0427
431.9341, 109.5923
432.4162, 109.9841
432.8983, 110.0719
433.3804, 110.1115
433.8625, 110.4388
434.3447, 111.1121
434.8268, 111.5558
435.3089, 111.5741
435.7910, 111.5076
436.2731, 111.5264
436.7552, 111.6481
437.2374, 111.9073
437.7195, 112.3552
438.2016, 112.8928
438.6837, 113.1315
439.1658, 112.6541
439.6479, 112.4115
440.1301, 112.5679
440.6122, 112.9292
441.0943, 113.3579
441.5764, 113.8034
442.0585, 114.2322
442.5406, 114.5999
443.0227, 114.8991
443.5049, 115.2011
443.9870, 115.6140
444.4691, 115.9156
444.9512, 115.9900
445.4333, 115.9131
445.9154, 115.7671
446.3976, 115.5718
446.8797, 115.4483
447.3618, 115.7647
447.8439, 116.7955
448.3260, 117.4429
448.8081, 117.0794
449.2903, 116.5796
449.7724, 116.4884
450.2545, 116.8302
450.7366, 117.2881
451.2187, 117.7016
451.7008, 118.0464
452.1830, 118.1952
452.6651, 118.1109
453.1472, 117.9150
453.6293, 117.5000
454.1114, 117.0607
454.5935, 116.9404
455.0757, 117.3872
455.5578, 117.8225
456.0399, 117.7361
456.5220, 117.2181
457.0041, 116.6372
457.4862, 116.0617
457.9684, 115.5310
458.4505, 115.0691
458.9326, 114.6632
459.4147, 114.4577
459.8968, 114.6467
460.3789, 114.9279
460.8611, 115.0657
461.3432, 115.0516
461.8253, 114.9334
462.3074, 114.7159
462.7895, 114.4411
463.2716, 114.2816
463.7538, 114.4158
464.2359, 114.4247
464.7180, 114.1831
465.2001, 113.8352
465.6822, 113.5118
466.1643, 113.2446
466.6465, 113.0198
467.1286, 112.8380
467.6107, 112.7149
468.0928, 112.4609
468.5749, 111.9090
469.0570, 111.4013
469.5392, 111.0742
470.0213, 110.8373
470.5034, 110.5362
470.9855, 110.0985
471.4676, 109.6339
471.9497, 109.4086
472.4319, 109.5505
472.9140, 109.3642
473.3961, 108.2657
473.8782, 107.2300
474.3603, 106.9852
474.8424, 107.3606
475.3246, 107.5451
475.8067, 106.8797
476.2888, 105.7648
476.7709, 105.0840
477.2530, 104.8945
477.7351, 104.8035
478.2173, 104.6907
478.6994, 104.5365
479.1815, 104.3375
479.6636, 104.1204
480.1457, 103.7615
480.6278, 103.0229
481.1100, 102.1443
481.5920, 101.5585
482.0742, 101.3439
482.5563, 101.3699
483.0384, 101.6350
483.5205, 102.1116
484.0026, 102.0989
484.4847, 101.2527
484.9669, 100.3242
485.4490, 99.46125
485.9311, 98.75312
486.4132, 98.40811
486.8953, 98.49763
487.3774, 98.73857
487.8596, 98.66298
488.3417, 98.15395
488.8238, 97.63339
489.3059, 97.10267
489.7880, 96.56307
490.2701, 95.91829
490.7523, 95.27029
491.2344, 94.85140
491.7165, 94.82558
492.1986, 95.05703
492.6807, 95.17928
493.1628, 95.16619
493.6450, 95.11608
494.1271, 95.03711
494.6092, 94.93647
495.0913, 94.80281
495.5734, 94.64281
496.0555, 94.49940
496.5377, 94.48122
497.0198, 94.49688
497.5019, 94.26881
497.9840, 93.75173
498.4661, 93.17136
498.9482, 92.57851
499.4304, 92.02518
499.9125, 91.60050
500.3946, 91.31328
500.8767, 91.14040
501.3588, 91.12156
501.8409, 91.19441
502.3231, 91.30267
502.8052, 91.43759
503.2873, 91.42018
503.7694, 91.03944
504.2515, 90.27563
504.7336, 89.67612
505.2158, 89.18990
505.6979, 88.90241
506.1800, 89.05540
506.6621, 89.36316
507.1442, 89.32484
507.6263, 88.77759
508.1085, 88.11011
508.5906, 87.96680
509.0727, 88.56930
509.5548, 88.89219
510.0369, 88.74638
510.5190, 88.50687
511.0012, 88.23971
511.4833, 87.99190
511.9654, 87.83667
512.4475, 87.82597
512.9296, 87.87328
513.4117, 87.84290
513.8939, 87.73953
514.3760, 87.50736
514.8581, 86.98094
515.3402, 86.47701
515.8223, 86.25945
516.3044, 86.30341
516.7866, 86.42368
517.2687, 86.68249
517.7508, 86.89597
518.2329, 86.76295
518.7150, 86.30683
519.1971, 85.86588
519.6793, 85.57332
520.1614, 85.42181
520.6435, 85.46281
521.1256, 85.85026
521.6077, 85.95341
522.0898, 85.38847
522.5720, 84.69077
523.0541, 84.33965
523.5362, 84.33876
524.0183, 84.40269
524.5004, 84.31306
524.9825, 84.13710
525.4647, 84.23780
525.9468, 84.92262
526.4289, 85.44890
526.9110, 85.79100
527.3931, 85.93570
527.8752, 85.81339
528.3574, 85.45492
528.8395, 85.01908
529.3216, 84.56577
529.8037, 84.14356
530.2858, 84.12428
530.7679, 84.75350
531.2501, 85.21473
531.7322, 84.81065
532.2143, 84.22420
532.6964, 84.25311
533.1785, 85.10605
533.6606, 85.93208
534.1428, 86.14970
534.6249, 85.95031
535.1070, 85.59419
535.5891, 85.07371
536.0712, 85.00720
536.5533, 86.19537
537.0355, 88.26311
537.5176, 88.91949
537.9997, 86.73380
538.4818, 85.02213
538.9639, 85.03586
539.4460, 85.88905
539.9282, 86.55559
540.4103, 86.79176
540.8924, 86.84286
541.3745, 86.95765
541.8566, 87.13987
542.3387, 87.25487
542.8209, 87.15271
543.3029, 87.16460
543.7850, 87.53511
544.2672, 87.96726
544.7493, 88.01973
545.2314, 87.60223
545.7135, 87.23824
546.1956, 87.66975
546.6777, 88.80135
547.1599, 89.39882
547.6420, 89.11234
548.1241, 88.89544
548.6062, 89.50171
549.0883, 90.53725
549.5704, 91.39207
550.0526, 91.91152
550.5347, 92.34970
551.0168, 92.92319
551.4989, 93.52187
551.9810, 93.89746
552.4631, 93.99546
552.9453, 93.97011
553.4274, 93.94039
553.9095, 93.90646
554.3916, 93.96410
554.8737, 94.14987
555.3558, 94.36765
555.8380, 94.64453
556.3201, 94.91565
556.8022, 95.06189
557.2843, 95.07216
557.7664, 95.10913
558.2485, 95.44559
558.7307, 96.10889
559.2128, 96.22440
559.6949, 95.28596
560.1770, 94.52101
560.6591, 94.47620
561.1412, 94.75209
561.6234, 94.81445
562.1055, 94.50269
562.5876, 94.27742
563.0697, 94.66074
563.5518, 95.46246
564.0339, 96.00156
564.5161, 96.14848
564.9982, 96.32502
565.4803, 96.96823
565.9624, 97.88172
566.4445, 98.23019
566.9266, 97.56878
567.4088, 96.98048
567.8909, 96.81803
568.3730, 96.93984
568.8551, 97.28890
569.3372, 97.79334
569.8193, 98.13928
570.3015, 97.97155
570.7836, 97.33742
571.2657, 97.17763
571.7478, 98.09313
572.2299, 98.67815
572.7120, 98.40263
573.1942, 97.91248
573.6763, 97.85250
574.1584, 98.29602
574.6405, 98.79234
575.1226, 98.93356
575.6047, 98.79927
576.0869, 98.68150
576.5690, 98.54326
577.0511, 98.58652
577.5332, 99.04137
578.0153, 99.66005
578.4974, 100.0480
578.9796, 100.1728
579.4617, 100.1850
579.9438, 100.0656
580.4259, 99.90822
580.9080, 99.79066
581.3901, 99.73219
581.8723, 99.79516
582.3544, 100.0482
582.8365, 100.3960
583.3186, 100.5156
583.8007, 100.3110
584.2828, 100.0084
584.7650, 99.48593
585.2471, 98.97813
585.7292, 98.52995
586.2113, 98.22709
586.6934, 98.29910
587.1755, 99.00155
587.6577, 99.95595
588.1398, 100.2144
588.6219, 99.66200
589.1040, 99.19859
589.5861, 99.05716
590.0682, 99.05679
590.5504, 99.00484
591.0325, 98.92220
591.5146, 98.95543
591.9967, 99.33052
592.4788, 99.68542
592.9609, 99.58617
593.4431, 99.20066
593.9252, 99.03857
594.4073, 99.28808
594.8894, 99.79917
595.3715, 100.4317
595.8536, 101.3422
596.3358, 101.6363
596.8179, 100.6960
597.3000, 99.91989
597.7821, 99.95112
598.2642, 100.3982
598.7463, 100.7018
599.2285, 100.6664
599.7106, 100.4220
600.1927, 100.0438
600.6748, 99.54131
601.1569, 99.22323
601.6390, 99.08794
602.1212, 99.16988
602.6033, 99.62118
603.0854, 100.2670
603.5675, 100.8585
604.0496, 101.3833
604.5317, 101.8093
605.0139, 102.1963
605.4960, 102.4444
605.9781, 102.2736
606.4602, 101.7127
606.9423, 101.2801
607.4244, 101.3699
607.9066, 101.8663
608.3887, 102.2499
608.8708, 102.4897
609.3529, 102.6497
609.8350, 102.6257
610.3171, 102.6130
610.7993, 102.8356
611.2814, 103.2106
611.7635, 103.3971
612.2456, 103.0833
612.7277, 102.6099
613.2098, 102.7971
613.6920, 103.7199
614.1741, 104.4157
614.6562, 104.5617
615.1383, 104.5242
615.6204, 104.6309
616.1025, 104.8677
616.5847, 105.1849
617.0668, 105.7062
617.5489, 106.1714
618.0310, 106.3912
618.5131, 106.4376
618.9952, 106.4246
619.4774, 106.3927
619.9595, 106.4185
620.4416, 106.6057
620.9237, 106.9695
621.4058, 107.2779
621.8879, 107.6679
622.3701, 107.8201
622.8522, 107.3737
623.3343, 106.8284
623.8164, 106.7552
624.2985, 107.2376
624.7806, 107.8075
625.2628, 108.0864
625.7448, 108.1626
626.2269, 108.2468
626.7090, 108.3389
627.1912, 108.5280
627.6733, 108.9789
628.1554, 109.4337
628.6375, 109.2623
629.1196, 108.2538
629.6017, 107.7228
630.0839, 108.2258
630.5660, 108.9388
631.0481, 109.3501
631.5302, 109.4980
632.0123, 109.5848
632.4944, 109.7024
632.9766, 109.8097
633.4587, 109.8371
633.9408, 109.7776
634.4229, 109.6560
634.9050, 109.2744
635.3871, 109.1020
635.8693, 109.5976
636.3514, 110.3264
636.8335, 110.5703
637.3156, 110.0679
