##NAMES=Tilasite
##RRUFFID=R060618
##IDEAL CHEMISTRY=CaMgAs^5+^O_4_F
##LOCALITY=Cervandone, Italy
##OWNER=RRUFF
##SOURCE=Michael Scott
##DESCRIPTION=Pinkish-gray spearhead shaped crystals associated with albite and hexagonal tablets of clinochlore
##STATUS=The identification of this mineral is confirmed by single-crystal X-ray diffraction and chemical analysis.
##URL=rruff.info/R060618
##MEASURED CHEMISTRY=Ca_1.00_(Mg_0.99_Fe_0.01_)_Σ=1_((As_0.99_P_0.01_)_Σ=1_O_4_)F_1.00_
83.918, 64.793
84.400, 60.996
84.882, 62.227
85.364, 64.995
85.846, 66.407
86.329, 63.975
86.811, 61.086
87.293, 59.846
87.775, 60.298
88.257, 60.931
88.739, 60.650
89.221, 59.835
89.703, 59.195
90.185, 59.363
90.668, 59.817
91.150, 59.836
91.632, 59.228
92.114, 58.449
92.596, 58.360
93.078, 58.811
93.560, 58.679
94.042, 56.282
94.525, 52.368
95.007, 49.819
95.489, 49.775
95.971, 51.421
96.453, 52.423
96.935, 52.635
97.417, 52.920
97.899, 54.700
98.381, 58.125
98.864, 60.881
99.346, 61.803
99.828, 60.747
100.310, 60.286
100.792, 60.542
101.274, 61.290
101.756, 61.852
102.238, 61.845
102.720, 62.529
103.203, 64.904
103.685, 69.798
104.167, 74.022
104.649, 76.529
105.131, 77.518
105.613, 81.107
106.095, 88.478
106.577, 97.630
107.060, 106.481
107.542, 113.881
108.024, 122.561
108.506, 133.694
108.988, 148.744
109.470, 161.737
109.952, 171.701
110.434, 179.674
110.916, 187.422
111.399, 191.466
111.881, 198.031
112.363, 209.727
112.845, 231.984
113.327, 252.531
113.809, 268.298
114.291, 280.445
114.773, 293.570
115.256, 309.760
115.738, 326.811
116.220, 343.254
116.702, 358.593
117.184, 373.174
117.666, 389.185
118.148, 406.901
118.630, 418.306
119.113, 414.660
119.595, 402.749
120.077, 392.251
120.559, 389.226
121.041, 388.176
121.523, 383.984
122.005, 374.462
122.487, 366.467
122.969, 368.223
123.451, 376.667
123.934, 382.592
124.416, 377.813
124.898, 367.436
125.380, 358.784
125.862, 353.294
126.344, 350.745
126.826, 352.030
127.308, 356.998
127.791, 362.444
128.273, 365.438
128.755, 366.608
129.237, 367.936
129.719, 369.437
130.201, 371.642
130.683, 376.272
131.165, 383.543
131.648, 392.226
132.130, 401.527
132.612, 411.374
133.094, 420.216
133.576, 426.861
134.058, 431.438
134.540, 435.973
135.022, 440.218
135.504, 444.960
135.986, 452.565
136.469, 463.713
136.951, 474.603
137.433, 481.920
137.915, 485.142
138.397, 489.111
138.879, 494.259
139.361, 500.727
139.844, 509.165
140.326, 519.601
140.808, 531.940
141.290, 546.248
141.772, 563.447
142.254, 580.510
142.736, 596.112
143.218, 609.902
143.700, 625.714
144.182, 643.141
144.665, 662.985
145.147, 687.103
145.629, 716.178
146.111, 748.279
146.593, 782.521
147.075, 820.023
147.557, 858.115
148.040, 895.797
148.522, 933.853
149.004, 975.062
149.486, 1023.209
149.968, 1071.965
150.450, 1118.198
150.932, 1160.067
151.414, 1202.243
151.896, 1244.294
152.378, 1286.822
152.861, 1330.033
153.343, 1382.207
153.825, 1431.171
154.307, 1467.234
154.789, 1486.394
155.271, 1495.670
155.753, 1498.680
156.235, 1496.963
156.718, 1478.740
157.200, 1433.972
157.682, 1373.393
158.164, 1310.788
158.646, 1248.779
159.128, 1185.787
159.610, 1119.432
160.092, 1046.647
160.574, 979.535
161.057, 921.699
161.539, 871.992
162.021, 829.385
162.503, 795.170
162.985, 766.861
163.467, 743.060
163.949, 724.600
164.431, 708.969
164.913, 696.565
165.396, 686.529
165.878, 675.089
166.360, 656.962
166.842, 637.822
167.324, 623.248
167.806, 618.958
168.288, 616.842
168.770, 610.315
169.253, 599.724
169.735, 591.721
170.217, 594.847
170.699, 602.696
171.181, 605.724
171.663, 595.629
172.145, 581.302
172.627, 570.106
173.109, 562.336
173.592, 557.775
174.074, 558.803
174.556, 563.208
175.038, 565.688
175.520, 562.013
176.002, 555.178
176.484, 549.085
176.966, 543.706
177.449, 540.194
177.931, 541.082
178.413, 545.495
178.895, 549.734
179.377, 552.596
179.859, 553.509
180.341, 550.138
180.823, 539.347
181.305, 528.114
181.788, 529.111
182.270, 541.445
182.752, 554.153
183.234, 558.008
183.716, 554.948
184.198, 551.200
184.680, 547.668
185.162, 544.793
185.645, 543.909
186.127, 545.141
186.609, 546.359
187.091, 543.880
187.573, 538.675
188.055, 536.905
188.537, 542.864
189.019, 553.963
189.501, 560.835
189.984, 563.115
190.466, 562.909
190.948, 561.890
191.430, 560.112
191.912, 559.383
192.394, 561.959
192.876, 567.043
193.358, 567.350
193.840, 561.290
194.323, 553.889
194.805, 553.970
195.287, 562.072
195.769, 570.739
196.251, 577.415
196.733, 582.069
197.215, 580.733
197.697, 570.987
198.180, 557.814
198.662, 552.945
199.144, 557.518
199.626, 564.076
200.108, 568.297
200.590, 570.017
201.072, 570.813
201.554, 570.104
202.036, 568.936
202.519, 571.494
203.001, 578.718
203.483, 586.595
203.965, 592.346
204.447, 595.904
204.929, 597.279
205.411, 595.235
205.893, 590.768
206.376, 590.790
206.858, 596.489
207.340, 604.075
207.822, 610.300
208.304, 615.131
208.786, 618.884
209.268, 622.353
209.750, 625.401
210.232, 621.947
210.715, 607.808
211.197, 593.651
211.679, 594.042
212.161, 615.157
212.643, 632.891
213.125, 639.396
213.607, 633.485
214.089, 630.784
214.572, 632.004
215.054, 635.687
215.536, 640.091
216.018, 645.847
216.500, 650.844
216.982, 654.427
217.464, 656.443
217.946, 657.325
218.428, 656.456
218.911, 654.822
219.393, 654.340
219.875, 655.305
220.357, 656.814
220.839, 658.297
221.321, 659.105
221.803, 662.146
222.285, 669.041
222.768, 677.644
223.250, 681.506
223.732, 676.880
224.214, 673.764
224.696, 677.471
225.178, 691.606
225.660, 703.720
226.142, 712.036
226.624, 718.176
227.107, 727.948
227.589, 742.951
228.071, 759.211
228.553, 774.525
229.035, 789.391
229.517, 802.302
229.999, 811.506
230.481, 818.372
230.964, 830.485
231.446, 849.715
231.928, 871.765
232.410, 893.900
232.892, 916.638
233.374, 938.247
233.856, 957.155
234.338, 974.005
234.820, 994.548
235.303, 1021.624
235.785, 1049.531
236.267, 1074.192
236.749, 1095.482
237.231, 1113.791
237.713, 1129.015
238.195, 1141.186
238.677, 1151.298
239.160, 1160.075
239.642, 1166.080
240.124, 1167.778
240.606, 1163.473
241.088, 1158.122
241.570, 1153.177
242.052, 1148.769
242.534, 1140.035
243.016, 1125.687
243.499, 1108.169
243.981, 1089.769
244.463, 1070.182
244.945, 1050.023
245.427, 1028.009
245.909, 1003.668
246.391, 985.768
246.873, 976.393
247.355, 971.587
247.838, 967.398
248.320, 965.280
248.802, 960.805
249.284, 951.013
249.766, 934.343
250.248, 926.309
250.730, 929.396
251.212, 939.092
251.695, 949.780
252.177, 961.469
252.659, 974.394
253.141, 989.088
253.623, 1005.946
254.105, 1021.630
254.587, 1035.375
255.069, 1048.860
255.551, 1064.572
256.034, 1084.262
256.516, 1102.918
256.998, 1119.076
257.480, 1132.375
257.962, 1144.616
258.444, 1156.264
258.926, 1166.498
259.408, 1175.429
259.891, 1186.278
260.373, 1188.520
260.855, 1177.964
261.337, 1153.165
261.819, 1121.863
262.301, 1080.944
262.783, 1036.274
263.265, 998.294
263.747, 967.856
264.229, 941.380
264.712, 918.601
265.194, 901.164
265.676, 878.323
266.158, 846.909
266.640, 813.675
267.122, 791.866
267.604, 784.563
268.086, 780.028
268.569, 775.145
269.051, 770.714
269.533, 759.711
270.015, 739.003
270.497, 715.405
270.979, 702.596
271.461, 703.267
271.943, 705.362
272.426, 703.932
272.908, 698.543
273.390, 693.271
273.872, 688.309
274.354, 683.274
274.836, 677.073
275.318, 669.362
275.800, 662.149
276.282, 655.858
276.765, 650.316
277.247, 648.271
277.729, 650.718
278.211, 655.170
278.693, 656.911
279.175, 655.455
279.657, 654.436
280.139, 656.201
280.621, 660.787
281.104, 662.961
281.586, 661.915
282.068, 659.744
282.550, 660.578
283.032, 664.710
283.514, 667.571
283.996, 665.281
284.478, 658.494
284.961, 657.287
285.443, 663.462
285.925, 671.629
286.407, 672.600
286.889, 666.464
287.371, 659.798
287.853, 654.800
288.335, 651.651
288.818, 652.486
289.300, 658.375
289.782, 665.047
290.264, 664.732
290.746, 658.201
291.228, 653.881
291.710, 659.134
292.192, 670.322
292.674, 672.901
293.156, 664.713
293.639, 655.010
294.121, 657.565
294.603, 670.283
295.085, 681.936
295.567, 685.223
296.049, 683.699
296.531, 687.380
297.013, 697.752
297.496, 707.143
297.978, 704.127
298.460, 692.105
298.942, 682.609
299.424, 681.890
299.906, 686.972
300.388, 693.521
300.870, 701.482
301.353, 709.550
301.835, 717.286
302.317, 724.089
302.799, 728.899
303.281, 728.286
303.763, 726.570
304.245, 729.905
304.727, 738.769
305.209, 748.245
305.691, 753.151
306.174, 755.790
306.656, 760.394
307.138, 770.836
307.620, 782.842
308.102, 792.926
308.584, 801.093
309.066, 807.296
309.548, 807.048
310.031, 805.844
310.513, 811.540
310.995, 830.917
311.477, 855.527
311.959, 880.314
312.441, 905.073
312.923, 930.682
313.405, 957.156
313.888, 984.782
314.370, 1013.396
314.852, 1039.876
315.334, 1070.654
315.816, 1108.910
316.298, 1154.548
316.780, 1205.520
317.262, 1262.879
317.744, 1324.699
318.227, 1387.922
318.709, 1448.341
319.191, 1514.131
319.673, 1588.524
320.155, 1671.095
320.637, 1757.993
321.119, 1848.197
321.601, 1942.352
322.083, 2041.309
322.566, 2147.946
323.048, 2255.022
323.530, 2360.753
324.012, 2465.536
324.494, 2571.767
324.976, 2676.147
325.458, 2784.480
325.940, 2900.347
326.422, 3039.825
326.905, 3166.498
327.387, 3286.004
327.869, 3392.326
328.351, 3467.659
328.833, 3511.250
329.315, 3524.341
329.797, 3507.345
330.280, 3461.407
330.762, 3383.538
331.244, 3267.738
331.726, 3120.562
332.208, 2957.019
332.690, 2764.556
333.172, 2571.994
333.654, 2387.542
334.136, 2206.679
334.618, 2044.006
335.101, 1898.621
335.583, 1769.004
336.065, 1655.234
336.547, 1559.280
337.029, 1472.448
337.511, 1391.969
337.993, 1316.402
338.475, 1252.846
338.958, 1203.406
339.440, 1162.946
339.922, 1125.062
340.404, 1089.046
340.886, 1057.750
341.368, 1033.740
341.850, 1016.601
342.332, 993.295
342.815, 962.119
343.297, 931.519
343.779, 914.101
344.261, 909.598
344.743, 903.421
345.225, 888.539
345.707, 868.980
346.189, 859.600
346.671, 861.208
347.154, 866.595
347.636, 868.908
348.118, 869.092
348.600, 871.780
349.082, 879.455
349.564, 889.263
350.046, 896.156
350.528, 900.203
351.010, 902.899
351.493, 903.241
351.975, 903.232
352.457, 906.798
352.939, 914.728
353.421, 926.716
353.903, 944.909
354.385, 967.829
354.867, 989.121
355.349, 1000.991
355.832, 1010.720
356.314, 1027.212
356.796, 1053.970
357.278, 1082.695
357.760, 1108.352
358.242, 1131.579
358.724, 1154.765
359.207, 1183.006
359.689, 1208.943
360.171, 1225.422
360.653, 1228.482
361.135, 1234.752
361.617, 1259.757
362.099, 1291.161
362.581, 1309.866
363.063, 1300.645
363.546, 1285.839
364.028, 1275.188
364.510, 1270.517
364.992, 1260.855
365.474, 1243.941
365.956, 1220.745
366.438, 1192.357
366.920, 1149.150
367.402, 1110.823
367.885, 1083.794
368.367, 1068.563
368.849, 1048.752
369.331, 1019.775
369.813, 989.316
370.295, 962.216
370.777, 936.054
371.259, 917.454
371.741, 908.612
372.224, 908.138
372.706, 908.829
373.188, 911.989
373.670, 914.369
374.152, 913.296
374.634, 906.383
375.116, 903.407
375.598, 904.172
376.081, 909.541
376.563, 922.298
377.045, 943.664
377.527, 968.235
378.009, 995.382
378.491, 1024.845
378.973, 1049.629
379.455, 1067.738
379.938, 1085.321
380.420, 1111.374
380.902, 1146.013
381.384, 1182.592
381.866, 1218.182
382.348, 1253.908
382.830, 1295.453
383.312, 1343.119
383.794, 1391.857
384.276, 1434.478
384.759, 1473.367
385.241, 1515.021
385.723, 1563.430
386.205, 1614.105
386.687, 1660.684
387.169, 1703.240
387.651, 1744.749
388.134, 1787.444
388.616, 1829.633
389.098, 1870.745
389.580, 1914.459
390.062, 1949.799
390.544, 1970.543
391.026, 1976.506
391.508, 1965.921
391.990, 1930.895
392.473, 1883.930
392.955, 1832.499
393.437, 1777.316
393.919, 1720.034
394.401, 1662.472
394.883, 1603.479
395.365, 1541.617
395.847, 1469.858
396.329, 1401.117
396.812, 1341.239
397.294, 1291.613
397.776, 1243.438
398.258, 1193.487
398.740, 1145.812
399.222, 1104.499
399.704, 1075.445
400.186, 1045.577
400.668, 1011.626
401.151, 974.289
401.633, 942.862
402.115, 919.436
402.597, 899.551
403.079, 879.874
403.561, 858.654
404.043, 842.668
404.525, 834.352
405.008, 830.705
405.490, 823.069
405.972, 809.812
406.454, 798.070
406.936, 792.938
407.418, 794.747
407.900, 790.453
408.382, 778.296
408.865, 764.135
409.347, 756.726
409.829, 755.762
410.311, 755.052
410.793, 751.213
411.275, 746.085
411.757, 745.668
412.239, 750.084
412.721, 754.684
413.203, 754.152
413.686, 750.587
414.168, 748.813
414.650, 750.986
415.132, 754.439
415.614, 756.073
416.096, 756.350
416.578, 757.389
417.060, 762.678
417.543, 768.216
418.025, 769.315
418.507, 763.182
418.989, 758.097
419.471, 757.188
419.953, 760.333
420.435, 767.305
420.917, 779.380
421.400, 794.103
421.882, 812.192
422.364, 834.948
422.846, 852.136
423.328, 855.234
423.810, 855.212
424.292, 862.401
424.774, 888.043
425.256, 909.122
425.738, 920.285
426.221, 922.993
426.703, 930.635
427.185, 940.909
427.667, 958.840
428.149, 988.773
428.631, 1036.358
429.113, 1080.173
429.595, 1120.480
430.078, 1156.238
430.560, 1182.117
431.042, 1194.960
431.524, 1213.288
432.006, 1248.401
432.488, 1298.936
432.970, 1341.114
433.452, 1374.262
433.935, 1401.968
434.417, 1427.833
434.899, 1451.610
435.381, 1471.929
435.863, 1488.545
436.345, 1501.081
436.827, 1512.440
437.309, 1521.580
437.791, 1517.533
438.274, 1484.795
438.756, 1436.165
439.238, 1389.176
439.720, 1346.514
440.202, 1307.764
440.684, 1274.993
441.166, 1245.928
441.648, 1215.429
442.130, 1178.056
442.613, 1141.318
443.095, 1107.731
443.577, 1076.923
444.059, 1054.666
444.541, 1047.984
445.023, 1048.470
445.505, 1047.940
445.987, 1041.470
446.470, 1037.710
446.952, 1038.403
447.434, 1043.390
447.916, 1050.254
448.398, 1058.247
448.880, 1068.932
449.362, 1083.071
449.844, 1100.395
450.327, 1121.443
450.809, 1145.949
451.291, 1174.483
451.773, 1209.428
452.255, 1252.286
452.737, 1296.194
453.219, 1337.385
453.701, 1377.098
454.183, 1425.476
454.665, 1483.492
455.148, 1548.146
455.630, 1619.616
456.112, 1697.087
456.594, 1772.399
457.076, 1841.667
457.558, 1912.025
458.040, 1995.333
458.522, 2090.235
459.005, 2192.377
459.487, 2302.802
459.969, 2415.823
460.451, 2524.920
460.933, 2627.221
461.415, 2731.927
461.897, 2845.386
462.379, 2963.032
462.862, 3079.178
463.344, 3207.818
463.826, 3318.689
464.308, 3399.451
464.790, 3449.499
465.272, 3470.656
465.754, 3461.714
466.236, 3424.152
466.718, 3359.028
467.201, 3263.446
467.683, 3142.010
468.165, 2982.796
468.647, 2800.741
469.129, 2626.127
469.611, 2463.423
470.093, 2302.240
470.575, 2134.325
471.057, 1957.419
471.540, 1802.686
472.022, 1672.306
472.504, 1560.175
472.986, 1464.620
473.468, 1385.976
473.950, 1311.504
474.432, 1236.368
474.914, 1165.067
475.397, 1109.636
475.879, 1069.602
476.361, 1035.832
476.843, 1004.958
477.325, 975.626
477.807, 944.359
478.289, 909.860
478.771, 878.335
479.254, 856.082
479.736, 840.745
480.218, 828.102
480.700, 818.307
481.182, 809.006
481.664, 798.550
482.146, 787.059
482.628, 776.487
483.110, 768.276
483.592, 760.761
484.075, 752.724
484.557, 743.074
485.039, 734.422
485.521, 726.072
486.003, 719.147
486.485, 715.895
486.967, 718.638
487.449, 722.029
487.931, 725.601
488.414, 729.510
488.896, 729.303
489.378, 724.080
489.860, 716.340
490.342, 706.690
490.824, 694.407
491.306, 686.816
491.789, 685.192
492.271, 688.253
492.753, 695.549
493.235, 706.857
493.717, 714.946
494.199, 713.124
494.681, 706.035
495.163, 704.719
495.645, 709.795
496.128, 715.247
496.610, 714.702
497.092, 711.216
497.574, 709.914
498.056, 715.372
498.538, 719.705
499.020, 717.437
499.502, 709.882
499.984, 701.273
500.467, 690.996
500.949, 681.744
501.431, 675.246
501.913, 672.204
502.395, 669.597
502.877, 668.504
503.359, 666.960
503.841, 662.972
504.323, 655.703
504.806, 647.064
505.288, 635.600
505.770, 622.825
506.252, 616.759
506.734, 619.666
507.216, 623.123
507.698, 621.996
508.181, 616.166
508.663, 611.666
509.145, 608.927
509.627, 606.678
510.109, 602.718
510.591, 597.529
511.073, 593.619
511.555, 592.283
512.037, 592.326
512.519, 592.324
513.002, 592.243
513.484, 591.846
513.966, 591.977
514.448, 591.184
514.930, 586.563
515.412, 575.376
515.894, 569.020
516.376, 579.761
516.859, 596.583
517.341, 604.571
517.823, 587.933
518.305, 574.911
518.787, 575.942
519.269, 589.827
519.751, 596.214
520.233, 590.366
520.716, 582.128
521.198, 575.580
521.680, 569.328
522.162, 570.046
522.644, 581.046
523.126, 594.479
523.608, 597.438
524.090, 588.922
524.572, 582.312
525.055, 582.261
525.537, 586.304
526.019, 588.090
526.501, 587.647
526.983, 585.934
527.465, 581.423
527.947, 576.679
528.429, 576.938
528.911, 583.833
529.394, 590.893
529.876, 593.781
530.358, 593.448
530.840, 591.387
531.322, 584.740
531.804, 579.767
532.286, 580.421
532.768, 585.823
533.250, 589.681
533.733, 588.301
534.215, 587.000
534.697, 588.714
535.179, 595.743
535.661, 599.850
536.143, 599.711
536.625, 597.802
537.107, 597.368
537.589, 599.036
538.072, 599.793
538.554, 598.857
539.036, 596.634
539.518, 594.518
540.000, 592.523
540.482, 590.366
540.964, 587.614
541.446, 584.596
541.929, 581.793
542.411, 579.086
542.893, 577.962
543.375, 581.990
543.857, 588.143
544.339, 591.100
544.821, 584.657
545.303, 579.551
545.786, 584.963
546.268, 597.267
546.750, 604.980
547.232, 599.843
547.714, 593.028
548.196, 589.169
548.678, 588.927
549.160, 590.959
549.643, 599.156
550.125, 606.443
550.607, 605.717
551.089, 591.880
551.571, 583.672
552.053, 585.001
552.535, 591.753
553.017, 593.029
553.499, 588.167
553.982, 585.150
554.464, 589.892
554.946, 599.330
555.428, 601.699
555.910, 596.861
556.392, 592.253
556.874, 596.595
557.356, 604.596
557.838, 607.028
558.321, 599.144
558.803, 591.933
559.285, 593.800
559.767, 601.357
560.249, 608.315
560.731, 614.764
561.213, 618.137
561.695, 615.884
562.177, 608.084
562.660, 603.008
563.142, 602.746
563.624, 603.801
564.106, 604.554
564.588, 604.984
565.070, 604.784
565.552, 603.020
566.034, 601.881
566.516, 605.844
566.999, 615.413
567.481, 621.552
567.963, 621.182
568.445, 616.509
568.927, 610.935
569.409, 604.840
569.891, 600.895
570.373, 601.510
570.856, 605.005
571.338, 609.580
571.820, 615.201
572.302, 620.945
572.784, 628.940
573.266, 635.647
573.748, 637.536
574.230, 629.720
574.713, 621.779
575.195, 615.159
575.677, 609.947
576.159, 606.390
576.641, 605.756
577.123, 605.011
577.605, 603.113
578.087, 600.099
578.570, 598.047
579.052, 596.948
579.534, 596.819
580.016, 597.461
580.498, 598.931
580.980, 602.468
581.462, 608.571
581.944, 615.374
582.426, 621.704
582.909, 626.937
583.391, 628.979
583.873, 623.874
584.355, 618.143
584.837, 618.367
585.319, 623.191
585.801, 627.260
586.283, 629.601
586.765, 629.394
587.248, 624.515
587.730, 612.529
588.212, 606.462
588.694, 612.893
589.176, 622.546
589.658, 628.601
590.140, 630.285
590.622, 629.570
591.104, 624.580
591.587, 618.983
592.069, 622.542
592.551, 636.276
593.033, 646.747
593.515, 646.212
593.997, 639.419
594.479, 640.935
594.961, 650.214
595.443, 657.389
595.926, 652.669
596.408, 642.796
596.890, 635.941
597.372, 633.040
597.854, 633.953
598.336, 644.253
598.818, 656.273
599.300, 660.731
599.783, 644.575
600.265, 633.325
600.747, 635.489
601.229, 646.151
601.711, 651.510
602.193, 648.390
602.675, 645.315
603.157, 645.479
603.640, 648.691
604.122, 649.346
604.604, 646.501
605.086, 645.373
605.568, 652.375
606.050, 665.178
606.532, 674.053
607.014, 677.513
607.497, 677.648
607.979, 674.009
608.461, 668.877
608.943, 666.580
609.425, 673.453
609.907, 678.806
610.389, 673.556
610.871, 661.445
611.353, 654.950
611.836, 662.021
612.318, 671.047
612.800, 678.459
613.282, 684.371
613.764, 686.872
614.246, 684.542
614.728, 680.791
615.210, 677.700
615.692, 675.173
616.175, 674.303
616.657, 675.302
617.139, 677.630
617.621, 680.632
618.103, 684.311
618.585, 688.979
619.067, 696.862
619.549, 703.311
620.031, 700.664
620.514, 691.520
620.996, 684.400
621.478, 684.467
621.960, 687.288
622.442, 690.948
622.924, 695.368
623.406, 698.692
623.888, 699.247
624.370, 699.578
624.853, 701.243
625.335, 704.925
625.817, 708.458
626.299, 712.015
626.781, 715.194
627.263, 718.340
627.745, 721.584
628.227, 720.226
628.710, 710.990
629.192, 699.309
629.674, 695.045
630.156, 697.445
630.638, 702.808
