##NAMES=Tilleyite
##RRUFFID=R050227
##IDEAL CHEMISTRY=Ca_5_Si_2_O_7_(CO_3_)_2_
##LOCALITY=Crestmore Quarry, Riverside County, California, USA
##OWNER=RRUFF
##SOURCE=Marcus Origlieri
##DESCRIPTION=Aggregate of colorless subhedral crystals
##STATUS=The identification of this mineral has been confirmed by X-ray diffraction.
##URL=rruff.info/R050227
91.33551, 0.0000000E+00
91.81763, 0.0000000E+00
92.29974, 0.0000000E+00
92.78186, 0.0000000E+00
93.26398, 0.0000000E+00
93.74609, 7.919522
94.22821, 7.787484
94.71033, 7.780372
95.19244, 7.910806
95.67456, 8.230089
96.15668, 8.802104
96.63879, 9.589574
97.12091, 10.46326
97.60303, 11.42338
98.08514, 12.47729
98.56726, 13.62410
99.04938, 14.86904
99.53149, 16.19963
100.0136, 17.48565
100.4957, 18.70735
100.9778, 20.46149
101.4600, 22.84306
101.9421, 25.73500
102.4242, 28.74047
102.9063, 31.87482
103.3884, 35.14192
103.8705, 38.59361
104.3527, 42.47314
104.8348, 45.91459
105.3169, 48.77350
105.7990, 51.08080
106.2811, 53.46006
106.7632, 55.87091
107.2454, 58.37355
107.7275, 60.97797
108.2096, 63.72260
108.6917, 66.56921
109.1738, 69.60142
109.6559, 72.92007
110.1381, 75.93349
110.6202, 78.54491
111.1023, 80.90571
111.5844, 83.18185
112.0665, 85.44060
112.5486, 87.58266
113.0308, 89.43053
113.5129, 90.68493
113.9950, 92.67120
114.4771, 95.90029
114.9592, 99.90054
115.4413, 104.0072
115.9235, 107.4311
116.4056, 111.3825
116.8877, 116.3776
117.3698, 122.7349
117.8519, 129.7956
118.3340, 137.0046
118.8162, 144.7123
119.2983, 153.7380
119.7804, 165.0179
120.2625, 177.5902
120.7446, 190.9588
121.2267, 207.0805
121.7089, 221.2110
122.1910, 231.0816
122.6731, 236.6918
123.1552, 238.0407
123.6373, 234.1103
124.1194, 226.2324
124.6015, 215.7432
125.0837, 201.5076
125.5658, 186.3385
126.0479, 172.7211
126.5300, 160.6591
127.0121, 150.2068
127.4942, 141.2641
127.9764, 134.0006
128.4585, 128.5842
128.9406, 125.8850
129.4227, 124.8885
129.9048, 123.7788
130.3869, 122.5006
130.8691, 121.6593
131.3512, 122.1798
131.8333, 123.8747
132.3154, 125.6347
132.7975, 126.7010
133.2796, 127.3514
133.7618, 128.7557
134.2439, 130.6790
134.7260, 132.6281
135.2081, 134.7251
135.6902, 137.2725
136.1723, 140.2868
136.6545, 143.7472
137.1366, 147.6335
137.6187, 152.0950
138.1008, 157.1690
138.5829, 162.7962
139.0650, 169.2935
139.5472, 177.0409
140.0293, 184.2739
140.5114, 190.2164
140.9935, 194.9271
141.4756, 198.3912
141.9577, 200.7820
142.4399, 201.9896
142.9220, 201.4177
143.4041, 198.6488
143.8862, 194.9172
144.3683, 190.8311
144.8504, 186.2086
145.3326, 181.6900
145.8147, 177.2486
146.2968, 172.9003
146.7789, 169.3567
147.2610, 166.5337
147.7431, 164.5266
148.2253, 163.4028
148.7074, 163.5539
149.1895, 164.0024
149.6716, 164.3909
150.1537, 164.6756
150.6358, 166.1779
151.1180, 169.0994
151.6001, 173.1012
152.0822, 177.8653
152.5643, 183.7762
153.0464, 190.0228
153.5285, 196.1993
154.0107, 202.0667
154.4928, 209.3176
154.9749, 218.5673
155.4570, 229.0745
155.9391, 240.0873
156.4212, 253.1214
156.9034, 265.3080
157.3855, 276.4256
157.8676, 286.7263
158.3497, 293.9106
158.8318, 298.1786
159.3139, 299.0124
159.7961, 295.8079
160.2782, 286.8315
160.7603, 275.1217
161.2424, 261.4759
161.7245, 245.5404
162.2066, 229.4351
162.6888, 212.7952
163.1709, 196.5603
163.6530, 182.2615
164.1351, 170.8804
164.6172, 161.2857
165.0993, 152.9294
165.5815, 145.8213
166.0636, 139.5887
166.5457, 133.9977
167.0278, 129.0877
167.5099, 124.9450
167.9920, 121.7339
168.4742, 119.2304
168.9563, 117.2990
169.4384, 115.9852
169.9205, 115.0578
170.4026, 114.3571
170.8847, 113.9100
171.3669, 113.8039
171.8490, 113.9704
172.3311, 114.5484
172.8132, 115.7206
173.2953, 117.6434
173.7774, 119.9611
174.2596, 122.3073
174.7417, 124.7596
175.2238, 127.5979
175.7059, 130.8512
176.1880, 134.6079
176.6701, 139.0215
177.1523, 144.2942
177.6344, 150.0195
178.1165, 155.8976
178.5986, 161.9370
179.0807, 167.8396
179.5628, 174.1662
180.0450, 180.2366
180.5271, 184.6265
181.0092, 187.0835
181.4913, 187.6970
181.9734, 186.2357
182.4555, 182.7819
182.9377, 178.3479
183.4198, 173.7806
183.9019, 168.8361
184.3840, 162.7707
184.8661, 154.7203
185.3482, 145.9458
185.8304, 138.5759
186.3125, 132.6477
186.7946, 127.6104
187.2767, 123.0614
187.7588, 118.9842
188.2409, 115.5179
188.7231, 112.6278
189.2052, 110.3645
189.6873, 108.9786
190.1694, 108.4991
190.6515, 108.3582
191.1336, 107.8997
191.6158, 107.2010
192.0979, 106.9862
192.5800, 107.5687
193.0621, 108.7570
193.5442, 109.8714
194.0263, 110.9002
194.5084, 111.9941
194.9906, 113.4032
195.4727, 115.1115
195.9548, 116.6483
196.4369, 117.9618
196.9190, 118.9963
197.4011, 119.4394
197.8833, 119.2651
198.3654, 118.6224
198.8475, 117.6064
199.3296, 116.2033
199.8117, 114.6772
200.2938, 113.1394
200.7760, 111.5639
201.2581, 109.6164
201.7402, 107.2207
202.2223, 104.6875
202.7044, 102.3354
203.1865, 100.1931
203.6687, 98.17312
204.1508, 96.28909
204.6329, 94.52922
205.1150, 92.73318
205.5971, 90.92101
206.0792, 89.02888
206.5614, 86.81791
207.0435, 84.14095
207.5256, 81.99174
208.0077, 80.78023
208.4898, 80.48376
208.9719, 79.93745
209.4541, 79.00709
209.9362, 78.05708
210.4183, 77.57552
210.9004, 77.70851
211.3825, 77.78661
211.8646, 77.58372
212.3468, 77.09197
212.8289, 76.82272
213.3110, 76.79009
213.7931, 76.96064
214.2752, 77.28855
214.7573, 77.76637
215.2395, 78.43983
215.7216, 79.37640
216.2037, 80.57930
216.6858, 81.73912
217.1679, 82.89352
217.6500, 83.96281
218.1322, 84.74895
218.6143, 84.99833
219.0964, 85.64758
219.5785, 87.08619
220.0606, 89.39010
220.5427, 91.03570
221.0249, 91.61479
221.5070, 91.98614
221.9891, 93.18189
222.4712, 95.58121
222.9533, 97.97229
223.4354, 100.0070
223.9176, 101.6878
224.3997, 103.4410
224.8818, 105.2875
225.3639, 107.2000
225.8460, 109.1765
226.3281, 111.1745
226.8103, 113.3171
227.2924, 115.6923
227.7745, 118.3653
228.2566, 120.5780
228.7387, 122.1428
229.2208, 123.4467
229.7030, 124.8591
230.1851, 126.4232
230.6672, 128.0409
231.1493, 129.6999
231.6314, 131.4004
232.1135, 133.1217
232.5957, 134.8627
233.0778, 136.6243
233.5599, 138.4158
234.0420, 140.3672
234.5241, 142.0873
235.0062, 143.4857
235.4883, 144.5509
235.9705, 145.4384
236.4526, 146.1869
236.9347, 146.7280
237.4168, 147.0474
237.8989, 147.3495
238.3810, 147.0223
238.8632, 145.8523
239.3453, 143.8386
239.8274, 141.7369
240.3095, 139.5885
240.7916, 137.2876
241.2737, 134.7384
241.7559, 131.8970
242.2380, 128.8875
242.7201, 125.5783
243.2022, 122.0060
243.6843, 119.0749
244.1664, 117.0288
244.6486, 115.3092
245.1307, 113.4451
245.6128, 111.1338
246.0949, 109.3053
246.5770, 108.1509
247.0591, 107.6196
247.5413, 107.2400
248.0234, 107.0854
248.5055, 106.9938
248.9876, 106.8144
249.4697, 106.3460
249.9518, 106.2361
250.4340, 106.6308
250.9161, 107.4562
251.3982, 108.2238
251.8803, 108.6486
252.3624, 109.4026
252.8445, 111.0013
253.3267, 113.9645
253.8088, 116.5141
254.2909, 118.3134
254.7730, 119.6038
255.2551, 121.3526
255.7372, 123.6442
256.2194, 126.2498
256.7015, 129.0695
257.1836, 132.2728
257.6657, 135.2748
258.1478, 138.0036
258.6299, 140.5170
259.1121, 143.1160
259.5942, 146.0002
260.0763, 148.6310
260.5584, 150.8946
261.0405, 152.9549
261.5226, 153.9745
262.0048, 153.4622
262.4869, 152.1455
262.9690, 151.8882
263.4511, 153.2731
263.9332, 154.4568
264.4153, 154.4897
264.8975, 152.9237
265.3796, 151.9779
265.8617, 151.7338
266.3438, 152.0280
266.8259, 152.5813
267.3080, 153.4068
267.7902, 154.4491
268.2723, 155.6909
268.7544, 157.1698
269.2365, 158.6322
269.7186, 159.9018
270.2007, 161.3771
270.6829, 163.7836
271.1650, 167.3823
271.6471, 170.9419
272.1292, 173.8433
272.6113, 176.0560
273.0934, 179.0223
273.5756, 182.9394
274.0577, 187.2103
274.5398, 191.0859
275.0219, 194.4175
275.5040, 198.0145
275.9861, 202.2783
276.4683, 207.1173
276.9504, 211.3305
277.4325, 214.8757
277.9146, 217.9045
278.3967, 220.5748
278.8788, 222.8858
279.3610, 224.7539
279.8431, 226.0714
280.3252, 226.9087
280.8073, 227.6522
281.2894, 228.2837
281.7715, 228.8990
282.2537, 229.5166
282.7358, 230.1314
283.2179, 231.0578
283.7000, 232.5371
284.1821, 234.2624
284.6642, 235.0697
285.1464, 234.8528
285.6285, 234.6963
286.1106, 235.4433
286.5927, 237.0448
287.0748, 238.8201
287.5569, 240.6625
288.0391, 242.6516
288.5212, 245.0843
289.0033, 247.9788
289.4854, 250.6817
289.9675, 252.8821
290.4496, 254.5721
290.9318, 255.7457
291.4139, 256.5346
291.8960, 256.5245
292.3781, 254.7212
292.8602, 251.2390
293.3423, 247.4924
293.8245, 244.1208
294.3066, 241.0493
294.7887, 237.9175
295.2708, 234.6466
295.7529, 231.7123
296.2350, 229.5447
296.7172, 228.1919
297.1992, 227.8185
297.6814, 228.6154
298.1635, 230.4222
298.6456, 233.0736
299.1277, 236.6223
299.6098, 240.4360
300.0919, 243.8471
300.5741, 246.9814
301.0562, 250.0647
301.5383, 254.0215
302.0204, 257.5530
302.5025, 258.6834
302.9846, 257.4617
303.4668, 254.7502
303.9489, 250.9813
304.4310, 246.2563
304.9131, 240.4965
305.3952, 233.1275
305.8773, 225.3958
306.3595, 218.4168
306.8416, 212.2418
307.3237, 206.9624
307.8058, 203.2843
308.2879, 200.3767
308.7701, 197.0817
309.2522, 192.5633
309.7343, 188.6669
310.2164, 187.2719
310.6985, 187.7398
311.1806, 188.3017
311.6628, 187.9195
312.1449, 187.2564
312.6270, 186.9031
313.1091, 186.9964
313.5912, 187.2113
314.0733, 187.5340
314.5555, 187.8309
315.0376, 187.8649
315.5197, 187.4790
316.0018, 186.8328
316.4839, 186.0071
316.9660, 184.9979
317.4482, 183.8626
317.9303, 182.5475
318.4124, 181.1499
318.8945, 179.7661
319.3766, 178.2777
319.8587, 176.9573
320.3409, 176.0635
320.8230, 175.5860
321.3051, 174.9042
321.7872, 173.7793
322.2693, 172.4159
322.7514, 170.9752
323.2336, 170.0341
323.7157, 168.4406
324.1978, 165.6108
324.6799, 161.7810
325.1620, 158.1942
325.6441, 155.1439
326.1263, 152.3034
326.6084, 149.5020
327.0905, 146.5782
327.5726, 143.8904
328.0547, 141.4967
328.5368, 139.3660
329.0190, 137.3455
329.5011, 135.3609
329.9832, 133.5724
330.4653, 132.0042
330.9474, 130.5589
331.4295, 129.5900
331.9117, 129.1515
332.3938, 129.1712
332.8759, 129.5761
333.3580, 130.6617
333.8401, 131.6933
334.3222, 132.4409
334.8044, 132.8700
335.2865, 133.4185
335.7686, 133.9113
336.2507, 134.7162
336.7328, 136.3344
337.2149, 139.2989
337.6971, 141.6368
338.1792, 142.7795
338.6613, 142.9797
339.1434, 143.9413
339.6255, 145.8732
340.1076, 148.0847
340.5898, 150.2108
341.0719, 152.2375
341.5540, 154.0405
342.0361, 155.6615
342.5182, 156.9712
343.0003, 157.4776
343.4825, 157.0639
343.9646, 156.6593
344.4467, 156.6745
344.9288, 157.1059
345.4109, 158.0580
345.8930, 159.6215
346.3752, 161.4128
346.8573, 162.8406
347.3394, 163.9467
347.8215, 165.0831
348.3036, 166.1957
348.7857, 167.4742
349.2679, 169.5616
349.7500, 172.4687
350.2321, 175.7386
350.7142, 179.1068
351.1963, 182.4684
351.6784, 185.5674
352.1606, 188.2432
352.6427, 190.6772
353.1248, 193.3210
353.6069, 196.1034
354.0890, 198.4151
354.5711, 199.7175
355.0533, 200.3305
355.5354, 200.6932
356.0175, 200.8578
356.4996, 200.8546
356.9817, 201.0418
357.4638, 201.1116
357.9460, 200.3268
358.4281, 197.6069
358.9102, 194.3297
359.3923, 191.5114
359.8744, 189.2354
360.3565, 187.4917
360.8387, 186.7231
361.3208, 186.3643
361.8029, 185.7210
362.2850, 183.9043
362.7671, 182.3351
363.2492, 181.8203
363.7314, 182.2817
364.2135, 182.6332
364.6956, 182.4738
365.1777, 182.0933
365.6598, 181.6821
366.1419, 180.9259
366.6241, 180.5708
367.1062, 181.0144
367.5883, 181.9957
368.0704, 182.7442
368.5525, 183.7876
369.0346, 184.0627
369.5168, 183.0607
369.9989, 180.1534
370.4810, 177.3941
370.9631, 174.8844
371.4452, 172.4650
371.9273, 169.9232
372.4095, 167.3596
372.8916, 164.5585
373.3737, 161.4051
373.8558, 157.8733
374.3379, 154.3377
374.8200, 150.6098
375.3022, 147.0809
375.7843, 144.2487
376.2664, 142.4303
376.7485, 140.0980
377.2306, 136.8456
377.7127, 133.0411
378.1949, 129.9699
378.6770, 127.7666
379.1591, 125.8512
379.6412, 123.9267
380.1233, 121.9747
380.6054, 120.2068
381.0875, 118.6067
381.5696, 117.2552
382.0518, 116.4694
382.5339, 116.2054
383.0160, 115.5987
383.4981, 114.0231
383.9802, 111.8908
384.4623, 110.5664
384.9445, 110.0732
385.4266, 109.6885
385.9087, 108.5974
386.3908, 107.1019
386.8729, 105.9849
387.3550, 105.5149
387.8372, 105.3804
388.3193, 105.2707
388.8014, 105.1830
389.2835, 105.1025
389.7656, 105.1305
390.2477, 105.1096
390.7299, 104.7746
391.2120, 103.9922
391.6941, 103.3622
392.1762, 103.4760
392.6583, 103.9898
393.1404, 104.3586
393.6226, 104.1742
394.1047, 103.9512
394.5868, 103.9996
395.0689, 104.3183
395.5510, 104.5737
396.0331, 104.5062
396.5153, 104.4048
396.9974, 104.4906
397.4795, 105.0088
397.9616, 105.4836
398.4437, 105.8414
398.9258, 106.0962
399.4080, 106.2914
399.8901, 106.4240
400.3722, 106.5045
400.8543, 106.5177
401.3364, 106.4070
401.8185, 106.3877
402.3007, 106.3943
402.7828, 106.5311
403.2649, 106.9601
403.7470, 107.8902
404.2291, 108.7130
404.7112, 109.2586
405.1934, 109.5594
405.6755, 109.9990
406.1576, 110.6733
406.6397, 111.2645
407.1218, 111.4696
407.6039, 111.2238
408.0861, 111.2020
408.5682, 111.5945
409.0503, 112.0639
409.5324, 111.7899
410.0145, 110.7489
410.4966, 109.9420
410.9788, 109.9914
411.4609, 110.7023
411.9430, 111.2566
412.4251, 111.6448
412.9072, 111.9672
413.3893, 112.2986
413.8715, 112.6493
414.3536, 113.0494
414.8357, 113.5276
415.3178, 114.0369
415.7999, 114.3799
416.2820, 114.6410
416.7642, 115.2090
417.2463, 116.6832
417.7284, 118.4172
418.2105, 119.6552
418.6926, 120.1923
419.1747, 120.6882
419.6569, 121.7631
420.1390, 123.0344
420.6211, 123.8858
421.1032, 123.5542
421.5853, 123.2784
422.0674, 123.7707
422.5496, 125.0093
423.0317, 125.9393
423.5138, 126.1656
423.9959, 126.0748
424.4780, 125.9221
424.9601, 125.8407
425.4423, 125.5685
425.9244, 125.2040
426.4065, 124.6276
426.8886, 123.5505
427.3707, 121.5284
427.8528, 119.5356
428.3350, 117.8504
428.8171, 116.4931
429.2992, 115.3100
429.7813, 114.3304
430.2634, 113.4901
430.7455, 112.7460
431.2277, 112.1397
431.7098, 111.4477
432.1919, 110.5583
432.6740, 109.5978
433.1561, 109.0455
433.6382, 108.9515
434.1204, 108.8261
434.6025, 108.2460
435.0846, 107.3239
435.5667, 106.7843
436.0488, 106.6946
436.5309, 106.7949
437.0131, 106.8718
437.4952, 106.8935
437.9773, 106.7394
438.4594, 106.2703
438.9415, 105.6792
439.4236, 105.1762
439.9058, 104.7660
440.3879, 104.4868
440.8700, 104.4514
441.3521, 104.5159
441.8342, 104.5053
442.3163, 104.3372
442.7985, 104.2502
443.2806, 104.4269
443.7627, 104.7666
444.2448, 105.1121
444.7269, 105.5705
445.2090, 105.8690
445.6912, 105.8518
446.1733, 105.5136
446.6554, 105.1406
447.1375, 104.5127
447.6196, 104.0505
448.1017, 104.0256
448.5839, 105.1352
449.0660, 105.7659
449.5481, 105.6561
450.0302, 105.1262
450.5123, 104.8509
450.9944, 104.9002
451.4766, 105.0926
451.9587, 105.4421
452.4408, 105.9691
452.9229, 106.2083
453.4050, 106.0927
453.8871, 105.8581
454.3693, 105.6816
454.8514, 105.5601
455.3335, 105.5882
455.8156, 105.8366
456.2977, 106.1592
456.7798, 106.2275
457.2620, 106.0599
457.7441, 105.9020
458.2262, 105.8450
458.7083, 105.8979
459.1904, 106.1148
459.6725, 106.5023
460.1547, 106.9231
460.6368, 107.3831
461.1189, 107.7716
461.6010, 107.8531
462.0831, 107.2373
462.5652, 106.7507
463.0473, 107.2157
463.5294, 108.3304
464.0116, 109.2367
464.4937, 109.3762
464.9758, 109.3212
465.4579, 109.3779
465.9400, 109.5950
466.4221, 109.8207
466.9043, 109.9915
467.3864, 110.1648
467.8685, 110.3949
468.3506, 110.8241
468.8327, 111.1468
469.3148, 111.3257
469.7970, 111.3762
470.2791, 111.3411
470.7612, 111.1297
471.2433, 110.9684
471.7254, 110.9013
472.2076, 110.8842
472.6897, 111.3563
473.1718, 112.5594
473.6539, 113.7947
474.1360, 114.1541
474.6181, 113.5965
475.1003, 113.0776
475.5824, 112.7457
476.0645, 112.6447
476.5466, 113.0285
477.0287, 113.8546
477.5108, 114.5685
477.9930, 114.7691
478.4751, 114.6313
478.9572, 114.4351
479.4393, 114.1861
479.9214, 114.0329
480.4035, 114.0347
480.8857, 114.2350
481.3678, 114.7261
481.8499, 115.9193
482.3320, 116.9786
482.8141, 117.3169
483.2962, 117.0945
483.7784, 116.7956
484.2605, 116.3698
484.7426, 116.1082
485.2247, 116.2714
485.7068, 117.0655
486.1889, 117.4946
486.6711, 117.0104
487.1532, 116.3263
487.6353, 116.1114
488.1174, 116.7134
488.5995, 117.2380
489.0816, 117.5633
489.5638, 117.7522
490.0459, 118.0481
490.5280, 118.5295
491.0101, 118.9181
491.4922, 119.0818
491.9743, 119.0159
492.4565, 118.8386
492.9386, 118.4901
493.4207, 118.2528
493.9028, 118.5860
494.3849, 119.3771
494.8670, 119.7492
495.3492, 119.1668
495.8313, 118.7006
496.3134, 120.5894
496.7955, 124.1805
497.2776, 127.0545
497.7597, 127.7202
498.2419, 127.0580
498.7240, 125.4985
499.2061, 123.0722
499.6882, 121.2617
500.1703, 121.3504
500.6524, 122.2615
501.1346, 123.0073
501.6167, 123.4004
502.0988, 123.5525
502.5809, 123.3419
503.0630, 122.9205
503.5451, 122.6067
504.0273, 122.1932
504.5094, 122.1577
504.9915, 122.7299
505.4736, 123.9289
505.9557, 125.0064
506.4378, 126.0643
506.9200, 126.8446
507.4021, 127.0718
507.8842, 126.5761
508.3663, 126.3192
508.8484, 126.3707
509.3305, 126.6664
509.8127, 127.2390
510.2948, 128.0782
510.7769, 128.6453
511.2590, 128.5721
511.7411, 128.1773
512.2232, 128.1889
512.7053, 128.5906
513.1874, 129.2057
513.6696, 130.0559
514.1517, 130.9871
514.6338, 131.7406
515.1159, 132.2328
515.5980, 132.7877
516.0801, 133.7662
516.5623, 134.9048
517.0444, 135.8520
517.5265, 136.2538
518.0086, 136.6805
518.4907, 137.3179
518.9728, 138.1437
519.4550, 139.0533
519.9371, 139.9475
520.4192, 140.9921
520.9013, 142.2868
521.3834, 143.9424
521.8655, 145.3843
522.3477, 146.5130
522.8298, 147.5383
523.3119, 148.5901
523.7940, 149.5535
524.2761, 151.0362
524.7582, 153.2833
525.2404, 155.9268
525.7225, 158.2088
526.2046, 160.1417
526.6867, 161.5659
527.1688, 162.2176
527.6509, 162.3355
528.1331, 162.6284
528.6152, 163.0870
529.0973, 163.2350
529.5794, 162.6004
530.0615, 161.4580
530.5436, 160.1602
531.0258, 158.6959
531.5079, 157.2832
531.9900, 156.0913
532.4721, 154.9989
532.9542, 153.8355
533.4363, 152.3374
533.9185, 150.9563
534.4006, 149.7676
534.8827, 148.7951
535.3648, 148.1252
535.8469, 147.9052
536.3290, 147.8655
536.8112, 147.9314
537.2933, 148.1492
537.7754, 148.2791
538.2575, 148.2889
538.7396, 148.2514
539.2217, 148.2019
539.7039, 148.1192
540.1860, 148.2679
540.6681, 148.7943
541.1502, 149.4418
541.6323, 149.5347
542.1144, 149.1488
542.5966, 149.0342
543.0787, 149.7378
543.5608, 150.8992
544.0429, 152.0682
544.5250, 153.2184
545.0071, 154.0925
545.4893, 154.2818
545.9714, 154.2019
546.4535, 154.3821
546.9356, 155.2377
547.4177, 155.5415
547.8998, 154.3396
548.3820, 152.4169
548.8641, 150.8564
549.3462, 150.1062
549.8283, 149.4683
550.3104, 148.8539
550.7925, 148.2482
551.2747, 147.5578
551.7568, 146.5137
552.2389, 145.8111
552.7210, 145.9359
553.2031, 147.0140
553.6852, 147.3402
554.1674, 146.7874
554.6495, 145.8790
555.1316, 144.9725
555.6137, 144.1243
556.0958, 143.6768
556.5779, 143.7700
557.0601, 144.0906
557.5422, 144.2905
558.0243, 144.3778
558.5064, 144.3733
558.9885, 144.0895
559.4706, 143.8658
559.9528, 144.1358
560.4349, 144.8005
560.9170, 145.2461
561.3991, 144.8716
561.8812, 144.4223
562.3633, 144.4125
562.8455, 145.0832
563.3276, 145.5849
563.8097, 145.7435
564.2918, 145.7222
564.7739, 145.6354
565.2560, 145.3236
565.7382, 145.2841
566.2203, 145.6907
566.7024, 146.3227
567.1845, 146.5759
567.6666, 146.4001
568.1487, 146.2408
568.6309, 146.2309
569.1130, 146.3868
569.5951, 146.8719
570.0772, 147.6884
570.5593, 148.4047
571.0414, 148.6434
571.5236, 148.6058
572.0057, 148.6207
572.4878, 148.7431
572.9699, 148.8354
573.4520, 148.5936
573.9341, 148.3375
574.4163, 148.4625
574.8984, 149.7523
575.3805, 150.6715
575.8626, 150.3784
576.3447, 149.3757
576.8268, 149.0688
577.3090, 150.2383
577.7911, 151.3327
578.2732, 151.9511
578.7553, 152.0945
579.2374, 152.2522
579.7195, 152.4337
580.2017, 152.6043
580.6838, 152.7339
581.1659, 152.8223
581.6480, 152.9110
582.1301, 153.0007
582.6122, 153.0935
583.0944, 153.1626
583.5765, 153.2336
584.0586, 153.3980
584.5407, 153.7431
585.0228, 154.0839
585.5049, 154.1760
585.9871, 154.1187
586.4692, 154.1506
586.9513, 154.5526
587.4334, 154.9162
587.9155, 154.9786
588.3976, 154.7519
588.8798, 154.5948
