##NAMES=Tin
##RRUFFID=R060756
##IDEAL CHEMISTRY=Sn
##LOCALITY=Aberfoil river, near Oban, New South Wales, Australia
##OWNER=RRUFF
##SOURCE=Michael Scott
##DESCRIPTION=Tin-white metallic water-worn grains
##STATUS=The identification of this mineral is confirmed by single-crystal X-ray diffraction and chemical analysis.
##URL=rruff.info/R060756
##MEASURED CHEMISTRY=Sn
135.022, 6144.836
135.504, 6143.704
135.986, 6178.763
136.468, 6251.763
136.951, 6313.804
137.433, 6356.998
137.915, 6388.411
138.397, 6438.280
138.879, 6518.118
139.361, 6588.242
139.843, 6615.496
140.325, 6588.053
140.807, 6562.169
141.290, 6548.753
141.772, 6547.665
142.254, 6538.962
142.736, 6518.391
143.218, 6494.790
143.700, 6478.584
144.182, 6472.999
144.664, 6468.250
145.146, 6460.883
145.629, 6448.639
146.111, 6441.884
146.593, 6449.642
147.075, 6460.070
147.557, 6448.638
148.039, 6390.571
148.521, 6335.469
149.003, 6301.894
149.486, 6311.532
149.968, 6312.182
150.450, 6295.761
150.932, 6267.573
151.414, 6252.361
151.896, 6267.841
152.378, 6285.081
152.860, 6288.719
153.342, 6257.895
153.825, 6235.692
154.307, 6232.557
154.789, 6248.600
155.271, 6260.086
155.753, 6267.153
156.235, 6266.745
156.717, 6255.982
157.199, 6215.457
157.682, 6180.946
158.164, 6165.301
158.646, 6172.028
159.128, 6182.340
159.610, 6189.750
160.092, 6197.142
160.574, 6208.913
161.056, 6233.275
161.538, 6256.886
162.020, 6272.286
162.503, 6276.097
162.985, 6276.000
163.467, 6281.081
163.949, 6285.497
164.431, 6274.269
164.913, 6218.328
165.395, 6155.638
165.878, 6117.092
166.360, 6124.373
166.842, 6140.682
167.324, 6145.921
167.806, 6141.703
168.288, 6136.619
168.770, 6140.926
169.252, 6145.843
169.734, 6141.177
170.217, 6112.839
170.699, 6080.613
171.181, 6059.985
171.663, 6051.197
172.145, 6048.103
172.627, 6048.983
173.109, 6052.287
173.591, 6055.283
174.073, 6057.274
174.556, 6058.026
175.038, 6058.193
175.520, 6058.268
176.002, 6054.358
176.484, 6034.521
176.966, 6005.753
177.448, 5988.775
177.930, 6007.903
178.413, 6043.605
178.895, 6060.795
179.377, 6050.535
179.859, 6032.641
180.341, 6033.537
180.823, 6050.326
181.305, 6065.650
181.787, 6067.675
182.269, 6059.277
182.751, 6046.982
183.234, 6029.443
183.716, 6011.639
184.198, 6001.053
184.680, 5997.679
185.162, 6002.791
185.644, 6027.718
186.126, 6065.559
186.609, 6085.191
187.091, 6069.462
187.573, 6033.003
188.055, 6016.819
188.537, 6022.710
189.019, 6033.389
189.501, 6029.002
189.983, 6011.131
190.465, 5997.209
190.947, 5993.222
191.430, 5998.230
191.912, 6010.495
192.394, 6032.179
192.876, 6053.034
193.358, 6059.162
193.840, 6050.546
194.322, 6034.362
194.805, 6007.424
195.287, 5971.143
195.769, 5950.811
196.251, 5949.571
196.733, 5959.288
197.215, 5966.324
197.697, 5970.339
198.179, 5975.143
198.661, 5982.672
199.143, 5992.957
199.626, 6006.381
200.108, 6026.244
200.590, 6046.127
201.072, 6044.862
201.554, 6015.792
202.036, 5993.189
202.518, 6005.143
203.000, 6057.121
203.483, 6096.583
203.965, 6115.821
204.447, 6118.311
204.929, 6116.210
205.411, 6107.432
205.893, 6099.228
206.375, 6098.888
206.857, 6108.905
207.339, 6114.173
207.822, 6111.491
208.304, 6101.704
208.786, 6091.706
209.268, 6081.812
209.750, 6071.538
210.232, 6060.310
210.714, 6047.749
211.196, 6036.724
211.678, 6029.865
212.161, 6027.313
212.643, 6016.750
213.125, 5997.875
213.607, 5971.888
214.089, 5937.142
214.571, 5886.480
215.053, 5845.628
215.536, 5823.523
216.018, 5822.641
216.500, 5817.419
216.982, 5806.583
217.464, 5792.286
217.946, 5777.586
218.428, 5762.280
218.910, 5746.797
219.392, 5730.895
219.874, 5714.180
220.357, 5699.174
220.839, 5686.344
221.321, 5675.366
221.803, 5665.956
222.285, 5658.839
222.767, 5652.575
223.249, 5648.095
223.731, 5649.562
224.214, 5640.588
224.696, 5614.397
225.178, 5580.332
225.660, 5562.080
226.142, 5569.937
226.624, 5577.412
227.106, 5570.579
227.588, 5539.028
228.070, 5517.140
228.553, 5510.106
229.035, 5512.881
229.517, 5507.117
229.999, 5486.719
230.481, 5465.908
230.963, 5453.945
231.445, 5459.938
231.927, 5454.380
232.410, 5429.253
232.892, 5389.936
233.374, 5365.159
233.856, 5362.591
234.338, 5364.940
234.820, 5360.931
235.302, 5345.594
235.784, 5334.689
236.266, 5334.780
236.749, 5343.065
237.231, 5332.361
237.713, 5288.410
238.195, 5241.945
238.677, 5215.988
239.159, 5219.237
239.641, 5226.646
240.123, 5237.684
240.605, 5252.087
241.088, 5258.820
241.570, 5256.831
242.052, 5248.392
242.534, 5234.310
243.016, 5209.597
243.498, 5188.037
243.980, 5169.366
244.462, 5153.339
244.945, 5129.809
245.427, 5143.957
245.909, 5148.959
246.391, 5145.307
246.873, 5107.082
247.355, 5113.501
247.837, 5102.028
248.319, 5089.822
248.801, 5102.525
249.284, 5069.328
249.766, 5081.636
250.248, 5075.779
250.730, 5078.234
251.212, 5062.689
251.694, 5052.231
252.176, 5046.642
252.658, 5037.416
253.141, 5022.917
253.623, 5006.684
254.105, 4992.258
254.587, 4978.026
255.069, 4969.333
255.551, 4970.869
256.033, 4985.304
256.515, 4984.938
256.997, 4961.304
257.480, 4930.563
257.962, 4913.476
258.444, 4916.148
258.926, 4919.005
259.408, 4916.228
259.890, 4906.707
260.372, 4897.510
260.854, 4886.401
261.336, 4877.470
261.819, 4877.928
262.301, 4893.160
262.783, 4904.384
263.265, 4904.063
263.747, 4889.930
264.229, 4881.432
264.711, 4881.770
265.194, 4884.254
265.676, 4878.078
266.158, 4860.444
266.640, 4842.412
267.122, 4829.370
267.604, 4822.916
268.086, 4806.426
268.568, 4774.192
269.050, 4738.996
269.533, 4722.815
270.015, 4729.846
270.497, 4741.269
270.979, 4751.731
271.461, 4761.641
271.943, 4768.358
272.425, 4772.316
272.907, 4772.650
273.389, 4767.084
273.872, 4754.622
274.354, 4740.685
274.836, 4724.862
275.318, 4706.209
275.800, 4700.318
276.282, 4711.511
276.764, 4728.166
277.246, 4731.215
277.728, 4718.565
278.211, 4704.529
278.693, 4694.581
279.175, 4688.696
279.657, 4682.370
280.139, 4674.489
280.621, 4668.213
281.103, 4670.676
281.585, 4682.791
282.068, 4692.000
282.550, 4690.611
283.032, 4679.470
283.514, 4675.963
283.996, 4682.877
284.478, 4690.368
284.960, 4682.182
285.442, 4658.060
285.924, 4633.551
286.407, 4610.072
286.889, 4589.614
287.371, 4590.365
287.853, 4616.453
288.335, 4649.791
288.817, 4666.355
289.299, 4666.832
289.781, 4663.084
290.263, 4660.291
290.746, 4657.416
291.228, 4650.157
291.710, 4638.204
292.192, 4622.895
292.674, 4604.477
293.156, 4583.532
293.638, 4564.027
294.121, 4545.062
294.603, 4529.171
295.085, 4526.680
295.567, 4539.865
296.049, 4552.397
296.531, 4537.321
297.013, 4503.374
297.495, 4484.746
297.977, 4510.653
298.460, 4558.423
298.942, 4584.487
299.424, 4587.595
299.906, 4580.715
300.388, 4568.025
300.870, 4554.192
301.352, 4551.913
301.834, 4579.651
302.316, 4616.131
302.799, 4630.674
303.281, 4622.012
303.763, 4608.301
304.245, 4604.929
304.727, 4607.587
305.209, 4608.254
305.691, 4599.815
306.173, 4589.993
306.655, 4586.641
307.138, 4589.779
307.620, 4595.978
308.102, 4607.948
308.584, 4620.572
309.066, 4626.491
309.548, 4618.920
310.030, 4606.834
310.512, 4593.782
310.995, 4580.207
311.477, 4573.068
311.959, 4584.681
312.441, 4601.984
312.923, 4610.926
313.405, 4597.125
313.887, 4581.754
314.369, 4577.635
314.852, 4583.312
315.334, 4586.747
315.816, 4581.315
316.298, 4571.645
316.780, 4561.762
317.262, 4549.637
317.744, 4540.588
318.226, 4536.991
318.708, 4538.387
319.190, 4541.955
319.673, 4546.693
320.155, 4553.383
320.637, 4562.741
321.119, 4585.022
321.601, 4598.306
322.083, 4592.396
322.565, 4571.672
323.047, 4554.317
323.530, 4540.313
324.012, 4532.886
324.494, 4534.021
324.976, 4553.134
325.458, 4568.737
325.940, 4580.218
326.422, 4586.833
326.904, 4586.056
327.387, 4564.492
327.869, 4546.052
328.351, 4540.780
328.833, 4558.073
329.315, 4573.177
329.797, 4586.054
330.279, 4596.746
330.761, 4605.362
331.243, 4613.932
331.725, 4617.980
332.208, 4614.497
332.690, 4597.643
333.172, 4589.465
333.654, 4594.984
334.136, 4606.489
334.618, 4610.407
335.100, 4603.702
335.582, 4595.330
336.065, 4587.792
336.547, 4581.047
337.029, 4575.508
337.511, 4570.769
337.993, 4567.512
338.475, 4567.451
338.957, 4571.885
339.439, 4573.725
339.922, 4568.100
340.404, 4555.596
340.886, 4554.662
341.368, 4567.121
341.850, 4586.650
342.332, 4610.219
342.814, 4639.004
343.296, 4654.367
343.778, 4645.386
344.261, 4620.054
344.743, 4612.439
345.225, 4624.172
345.707, 4642.378
346.189, 4659.499
346.671, 4674.360
347.153, 4677.741
347.635, 4662.231
348.117, 4638.352
348.600, 4626.978
349.082, 4627.887
349.564, 4634.883
350.046, 4645.200
350.528, 4657.755
351.010, 4670.810
351.492, 4686.227
351.974, 4697.772
352.457, 4691.863
352.939, 4672.441
353.421, 4657.940
353.903, 4665.585
354.385, 4683.301
354.867, 4695.808
355.349, 4700.764
355.831, 4700.471
356.314, 4694.763
356.796, 4685.334
357.278, 4675.750
357.760, 4665.595
358.242, 4657.706
358.724, 4654.918
359.206, 4658.237
359.688, 4663.109
360.170, 4668.570
360.652, 4673.704
361.135, 4677.158
361.617, 4675.225
362.099, 4674.047
362.581, 4676.582
363.063, 4683.156
363.545, 4690.998
364.027, 4700.354
364.509, 4710.065
364.992, 4719.021
365.474, 4729.607
365.956, 4736.850
366.438, 4737.724
366.920, 4732.454
367.402, 4730.086
367.884, 4732.947
368.366, 4738.194
368.849, 4744.012
369.331, 4750.354
369.813, 4757.241
370.295, 4763.758
370.777, 4770.522
371.259, 4781.563
371.741, 4804.842
372.223, 4822.739
372.705, 4824.464
373.188, 4799.801
373.670, 4782.733
374.152, 4775.570
374.634, 4775.619
375.116, 4777.200
375.598, 4780.521
376.080, 4784.625
376.562, 4789.210
377.044, 4794.328
377.527, 4799.197
378.009, 4802.801
378.491, 4808.236
378.973, 4823.761
379.455, 4850.763
379.937, 4869.331
380.419, 4868.689
380.901, 4853.229
381.384, 4845.606
381.866, 4846.879
382.348, 4850.122
382.830, 4847.795
383.312, 4841.124
383.794, 4834.744
384.276, 4826.629
384.758, 4822.240
385.241, 4832.214
385.723, 4855.710
386.205, 4886.620
386.687, 4934.051
387.169, 4982.815
387.651, 5002.675
388.133, 4974.601
388.615, 4939.420
389.097, 4938.076
389.579, 4961.594
390.062, 4980.691
390.544, 4978.336
391.026, 4966.015
391.508, 4951.754
391.990, 4935.188
392.472, 4923.147
392.954, 4919.974
393.436, 4923.876
393.919, 4931.867
394.401, 4944.985
394.883, 4960.408
395.365, 4980.713
395.847, 5007.999
396.329, 5022.711
396.811, 5006.092
397.293, 4981.295
397.776, 4970.086
398.258, 4990.893
398.740, 5007.789
399.222, 5012.786
399.704, 5006.900
400.186, 5005.033
400.668, 5013.903
401.150, 5020.672
401.632, 5016.361
402.115, 4987.547
402.597, 4975.058
403.079, 4985.841
403.561, 5012.576
404.043, 5036.181
404.525, 5057.414
405.007, 5073.944
405.489, 5083.741
405.971, 5086.055
406.454, 5087.831
406.936, 5089.115
407.418, 5089.720
407.900, 5087.417
408.382, 5081.862
408.864, 5082.278
409.346, 5096.643
409.828, 5119.726
410.310, 5125.198
410.793, 5111.783
411.275, 5100.454
411.757, 5119.891
412.239, 5159.060
412.721, 5181.054
413.203, 5167.095
413.685, 5142.722
414.167, 5145.328
414.650, 5170.275
415.132, 5192.438
415.614, 5192.990
416.096, 5182.933
416.578, 5174.551
417.060, 5169.526
417.542, 5167.541
418.024, 5169.023
418.507, 5173.272
418.989, 5179.034
419.471, 5191.930
419.953, 5201.306
420.435, 5197.918
420.917, 5179.374
421.399, 5167.409
421.881, 5175.675
422.363, 5190.894
422.846, 5200.411
423.328, 5190.406
423.810, 5187.495
424.292, 5202.699
424.774, 5233.783
425.256, 5252.100
425.738, 5246.067
426.220, 5237.502
426.703, 5237.809
427.185, 5253.059
427.667, 5265.017
428.149, 5273.175
428.631, 5277.651
429.113, 5276.984
429.595, 5266.780
430.077, 5262.735
430.559, 5273.752
431.042, 5300.272
431.524, 5318.590
432.006, 5327.338
432.488, 5331.184
432.970, 5336.554
433.452, 5343.219
433.934, 5343.703
434.416, 5332.349
434.898, 5316.053
435.381, 5313.190
435.863, 5323.317
436.345, 5333.854
436.827, 5332.440
437.309, 5324.916
437.791, 5323.536
438.273, 5331.406
438.755, 5343.169
439.237, 5356.356
439.720, 5369.488
440.202, 5378.922
440.684, 5379.691
441.166, 5377.995
441.648, 5378.086
442.130, 5380.240
442.612, 5384.293
443.095, 5393.709
443.577, 5403.496
444.059, 5408.446
444.541, 5398.644
445.023, 5392.775
445.505, 5398.058
445.987, 5413.166
446.469, 5426.375
446.951, 5434.723
447.434, 5442.442
447.916, 5452.239
448.398, 5471.588
448.880, 5478.588
449.362, 5461.688
449.844, 5437.578
450.326, 5441.248
450.808, 5489.348
451.290, 5526.308
451.773, 5529.501
452.255, 5499.220
452.737, 5481.524
453.219, 5478.586
453.701, 5482.393
454.183, 5484.554
454.665, 5485.268
455.147, 5491.274
455.629, 5505.646
456.112, 5524.237
456.594, 5539.771
457.076, 5552.251
457.558, 5559.762
458.040, 5556.964
458.522, 5549.475
459.004, 5547.759
459.486, 5553.736
459.969, 5561.531
460.451, 5564.359
460.933, 5565.451
461.415, 5570.610
461.897, 5593.232
462.379, 5611.770
462.861, 5606.939
463.343, 5580.849
463.826, 5561.884
464.308, 5566.963
464.790, 5580.341
465.272, 5590.729
465.754, 5593.079
466.236, 5596.462
466.718, 5602.265
467.200, 5609.977
467.682, 5618.470
468.164, 5629.681
468.647, 5639.214
469.129, 5645.324
469.611, 5647.110
470.093, 5649.606
470.575, 5651.708
471.057, 5655.695
471.539, 5665.994
472.021, 5685.356
472.504, 5696.849
472.986, 5695.100
473.468, 5684.694
473.950, 5678.134
474.432, 5675.405
474.914, 5677.835
475.396, 5690.953
475.878, 5710.732
476.361, 5721.021
476.843, 5719.356
477.325, 5715.286
477.807, 5721.805
478.289, 5734.390
478.771, 5742.029
479.253, 5735.054
479.735, 5724.680
480.217, 5720.641
480.699, 5722.473
481.182, 5726.195
481.664, 5730.451
482.146, 5734.932
482.628, 5738.542
483.110, 5736.387
483.592, 5741.401
484.074, 5765.682
484.556, 5798.557
485.039, 5818.964
485.521, 5809.560
486.003, 5802.078
486.485, 5806.216
486.967, 5823.429
487.449, 5836.528
487.931, 5846.914
488.413, 5852.009
488.896, 5848.513
489.378, 5833.405
489.860, 5821.323
490.342, 5814.167
490.824, 5811.228
491.306, 5810.929
491.788, 5813.366
492.270, 5818.354
492.752, 5829.039
493.235, 5842.814
493.717, 5844.441
494.199, 5832.109
494.681, 5823.186
495.163, 5841.571
495.645, 5875.948
496.127, 5901.167
496.609, 5906.185
497.091, 5902.930
497.574, 5899.236
498.056, 5895.897
498.538, 5895.701
499.020, 5906.648
499.502, 5916.767
499.984, 5916.314
500.466, 5901.284
500.948, 5888.831
501.431, 5886.789
501.913, 5888.598
502.395, 5887.058
502.877, 5866.103
503.359, 5859.509
503.841, 5878.823
504.323, 5918.479
504.805, 5946.812
505.288, 5960.746
505.770, 5966.935
506.252, 5967.004
506.734, 5959.082
507.216, 5952.897
507.698, 5946.982
508.180, 5945.747
508.662, 5959.578
509.144, 5987.703
509.626, 6009.926
510.109, 6019.299
510.591, 6019.174
511.073, 6011.018
511.555, 5996.383
512.037, 5991.232
512.519, 6020.312
513.001, 6060.976
513.484, 6079.082
513.966, 6065.429
514.448, 6048.248
514.930, 6045.360
515.412, 6051.783
515.894, 6060.143
516.376, 6070.030
516.858, 6079.012
517.340, 6088.418
517.823, 6097.372
518.305, 6098.435
518.787, 6079.317
519.269, 6060.625
519.751, 6052.478
520.233, 6057.796
520.715, 6068.422
521.197, 6089.942
521.679, 6112.443
522.162, 6120.825
522.644, 6111.975
523.126, 6099.881
523.608, 6086.146
524.090, 6072.253
524.572, 6061.568
525.054, 6053.446
525.536, 6059.067
526.018, 6100.596
526.501, 6162.909
526.983, 6199.755
527.465, 6204.171
527.947, 6192.107
528.429, 6167.488
528.911, 6139.527
529.393, 6126.832
529.875, 6153.189
530.357, 6183.354
530.840, 6193.876
531.322, 6187.399
531.804, 6179.408
532.286, 6176.995
532.768, 6174.255
533.250, 6166.177
533.732, 6145.285
534.214, 6136.596
534.697, 6153.971
535.179, 6179.119
535.661, 6190.195
536.143, 6179.343
536.625, 6169.145
537.107, 6161.482
537.589, 6157.572
538.071, 6166.316
538.554, 6191.302
539.036, 6214.076
539.518, 6220.545
540.000, 6213.092
540.482, 6213.948
540.964, 6225.401
541.446, 6236.253
541.928, 6226.419
542.411, 6205.781
542.893, 6201.455
543.375, 6233.293
543.857, 6271.284
544.339, 6285.565
544.821, 6281.496
545.303, 6276.404
545.785, 6278.301
546.267, 6281.950
546.750, 6286.484
547.232, 6293.780
547.714, 6290.953
548.196, 6255.879
548.678, 6220.285
549.160, 6212.982
549.642, 6261.934
550.124, 6296.569
550.606, 6309.135
551.089, 6304.687
551.571, 6294.751
552.053, 6276.010
552.535, 6263.319
553.017, 6265.933
553.499, 6281.515
553.981, 6286.521
554.463, 6279.525
554.945, 6273.415
555.428, 6284.466
555.910, 6305.930
556.392, 6318.195
556.874, 6313.857
557.356, 6309.180
557.838, 6326.535
558.320, 6355.838
558.802, 6375.401
559.284, 6371.797
559.767, 6358.652
560.249, 6337.743
560.731, 6310.337
561.213, 6293.113
561.695, 6294.391
562.177, 6303.914
562.659, 6316.080
563.141, 6330.393
563.624, 6347.718
564.106, 6372.629
564.588, 6396.820
565.070, 6407.790
565.552, 6402.830
566.034, 6394.122
566.516, 6382.775
566.998, 6370.315
567.481, 6361.789
567.963, 6357.224
568.445, 6356.509
568.927, 6363.313
569.409, 6373.422
569.891, 6375.491
570.373, 6368.403
570.855, 6361.021
571.338, 6363.327
571.820, 6369.087
572.302, 6369.491
572.784, 6356.457
573.266, 6345.220
573.748, 6342.474
574.230, 6346.503
574.712, 6353.173
575.194, 6364.970
575.677, 6376.048
576.159, 6387.810
576.641, 6401.048
577.123, 6396.839
577.605, 6360.649
578.087, 6327.770
578.569, 6327.791
579.051, 6369.511
579.533, 6385.534
580.016, 6364.744
580.498, 6334.325
580.980, 6341.743
581.462, 6380.885
581.944, 6407.574
582.426, 6402.358
582.908, 6380.124
583.390, 6359.286
583.872, 6340.102
584.355, 6324.584
584.837, 6308.790
585.319, 6300.445
585.801, 6310.242
586.283, 6342.813
586.765, 6367.492
587.247, 6366.184
587.729, 6355.973
588.211, 6351.629
588.694, 6360.053
589.176, 6367.781
589.658, 6376.106
590.140, 6382.903
590.622, 6383.296
591.104, 6376.165
591.586, 6365.522
592.068, 6349.740
592.550, 6331.390
593.033, 6325.244
593.515, 6331.800
593.997, 6343.722
594.479, 6364.720
594.961, 6385.798
595.443, 6382.583
595.925, 6349.036
596.407, 6313.562
596.890, 6296.241
597.372, 6293.501
597.854, 6300.123
598.336, 6330.120
598.818, 6352.318
599.300, 6348.050
599.782, 6326.123
600.264, 6312.721
600.747, 6327.379
601.229, 6334.865
601.711, 6320.500
602.193, 6282.108
602.675, 6263.098
603.157, 6270.162
603.639, 6283.119
604.121, 6283.299
604.604, 6270.305
605.086, 6279.405
605.568, 6319.966
606.050, 6361.245
606.532, 6353.743
607.014, 6310.532
607.496, 6274.308
607.978, 6261.799
608.460, 6259.613
608.943, 6257.008
609.425, 6254.139
609.907, 6251.482
610.389, 6251.071
610.871, 6249.403
611.353, 6242.871
611.835, 6230.313
612.317, 6223.308
612.799, 6225.222
613.282, 6231.859
613.764, 6242.173
614.246, 6261.107
614.728, 6269.724
615.210, 6262.974
615.692, 6252.309
616.174, 6259.231
616.656, 6284.092
617.138, 6296.787
617.621, 6285.271
618.103, 6260.748
618.585, 6239.527
619.067, 6222.436
619.549, 6213.698
620.031, 6222.188
620.513, 6235.876
620.995, 6241.765
621.477, 6239.035
621.960, 6240.648
622.442, 6260.578
622.924, 6281.502
623.406, 6291.005
623.888, 6282.943
624.370, 6270.638
624.852, 6248.502
625.334, 6226.076
625.817, 6217.430
626.299, 6228.467
626.781, 6233.446
627.263, 6225.880
627.745, 6210.555
628.227, 6202.088
628.709, 6200.130
629.191, 6192.704
629.674, 6162.284
630.156, 6126.624
630.638, 6119.344
631.120, 6139.236
631.602, 6162.186
632.084, 6181.466
632.566, 6191.179
633.048, 6182.580
633.531, 6145.582
634.013, 6117.148
634.495, 6111.610
634.977, 6117.364
635.459, 6121.706
635.941, 6123.958
636.423, 6125.362
636.905, 6127.678
637.387, 6128.188
637.870, 6118.783
638.352, 6098.101
638.834, 6076.690
639.316, 6055.625
639.798, 6038.020
640.280, 6036.338
640.762, 6049.601
641.244, 6064.602
641.726, 6074.396
642.209, 6079.534
642.691, 6079.469
643.173, 6073.811
643.655, 6067.708
644.137, 6065.932
644.619, 6063.974
645.101, 6057.591
645.583, 6033.182
646.065, 6022.617
646.548, 6036.048
647.030, 6059.513
647.512, 6070.674
647.994, 6065.332
648.476, 6059.321
648.958, 6056.938
649.440, 6055.678
649.922, 6046.657
650.404, 6030.032
650.887, 6014.548
651.369, 6004.930
651.851, 5999.578
652.333, 5994.971
652.815, 5991.265
653.297, 5992.521
653.779, 6012.933
654.261, 6032.441
654.744, 6031.548
655.226, 5998.450
655.708, 5971.878
656.190, 5963.333
656.672, 5963.543
657.154, 5963.104
657.636, 5963.512
658.118, 5959.246
658.601, 5946.870
659.083, 5932.060
659.565, 5928.040
660.047, 5935.141
