##NAMES=Tinaksite
##RRUFFID=R060375
##IDEAL CHEMISTRY=K_2_NaCa_2_Ti^4+^Si_7_O_18_(OH)O
##LOCALITY=Chara River area, Murun Massif, northwest Aldan, Siberia, U.S.S.R.
##OWNER=RRUFF
##SOURCE=Michael Scott
##DESCRIPTION=Tan colored long prismatic crystals embedded in purple charoite R060376
##STATUS=The identification of this mineral has been confirmed by single-crystal X-ray diffraction.
##URL=rruff.info/R060375
90.01007, 0.0000000E+00
90.49219, 23.86704
90.97430, 23.30428
91.45642, 23.10496
91.93854, 23.66093
92.42065, 24.46584
92.90277, 24.79339
93.38489, 24.58338
93.86700, 23.98720
94.34912, 22.87743
94.83124, 21.37921
95.31335, 20.24876
95.79547, 20.19491
96.27759, 20.96527
96.75970, 21.50685
97.24182, 21.63112
97.72394, 21.51291
98.20605, 21.62623
98.68817, 22.02501
99.17029, 22.21017
99.65240, 21.58462
100.1345, 20.06586
100.6166, 18.93360
101.0988, 18.46750
101.5809, 18.61371
102.0630, 18.92472
102.5451, 19.46502
103.0272, 20.06012
103.5093, 20.57110
103.9915, 21.06782
104.4736, 21.27694
104.9557, 21.02297
105.4378, 20.16747
105.9199, 19.64828
106.4020, 19.65464
106.8842, 19.90196
107.3663, 19.86908
107.8484, 19.18639
108.3305, 18.65300
108.8126, 18.58118
109.2947, 19.46334
109.7769, 19.98764
110.2590, 19.92569
110.7411, 19.46591
111.2232, 19.19570
111.7053, 19.36094
112.1874, 19.55138
112.6696, 19.58183
113.1517, 19.48948
113.6338, 19.17758
114.1159, 18.32515
114.5980, 17.07150
115.0801, 16.39076
115.5623, 17.11054
116.0444, 18.20951
116.5265, 18.89532
117.0086, 18.64934
117.4907, 18.23695
117.9728, 17.92497
118.4550, 17.72603
118.9371, 17.53941
119.4192, 17.38736
119.9013, 17.20648
120.3834, 16.91782
120.8655, 16.24891
121.3477, 15.61106
121.8298, 15.38274
122.3119, 15.66687
122.7940, 15.93429
123.2761, 15.68015
123.7582, 15.11647
124.2404, 14.71537
124.7225, 14.94302
125.2046, 15.39968
125.6867, 15.54986
126.1688, 15.22534
126.6509, 14.80787
127.1331, 14.61273
127.6152, 14.64791
128.0973, 14.95292
128.5794, 15.79313
129.0615, 16.93030
129.5436, 17.74764
130.0258, 17.94475
130.5079, 17.94436
130.9900, 18.59097
131.4721, 19.87850
131.9542, 21.25317
132.4363, 22.19476
132.9185, 22.76585
133.4006, 23.37284
133.8827, 24.00400
134.3648, 24.76761
134.8469, 26.08212
135.3290, 27.95240
135.8112, 30.36438
136.2933, 33.38529
136.7754, 37.05683
137.2575, 40.86248
137.7396, 44.51750
138.2217, 47.98287
138.7039, 52.30172
139.1860, 57.65215
139.6681, 63.59088
140.1502, 69.62215
140.6323, 75.71581
141.1144, 81.80725
141.5966, 87.99294
142.0787, 94.39857
142.5608, 100.1628
143.0429, 105.1695
143.5250, 109.5923
144.0071, 113.7621
144.4893, 117.5855
144.9714, 121.2480
145.4535, 124.6913
145.9356, 127.4541
146.4177, 131.0190
146.8998, 135.6976
147.3820, 141.2359
147.8641, 146.7352
148.3462, 151.3024
148.8283, 156.5990
149.3104, 163.5735
149.7925, 172.5726
150.2747, 182.7842
150.7568, 194.5131
151.2389, 207.6138
151.7210, 220.3657
152.2031, 232.1449
152.6852, 243.8229
153.1674, 256.0745
153.6495, 269.7737
154.1316, 283.0508
154.6137, 295.4658
155.0958, 306.9969
155.5779, 318.6813
156.0601, 331.3662
156.5422, 343.9591
157.0243, 355.3736
157.5064, 365.5913
157.9885, 374.4609
158.4706, 381.5735
158.9528, 386.7321
159.4349, 391.8231
159.9170, 397.9538
160.3991, 404.0878
160.8812, 409.0269
161.3633, 411.3979
161.8455, 413.3246
162.3276, 415.6305
162.8097, 418.3548
163.2918, 421.5145
163.7739, 424.7722
164.2560, 428.0313
164.7382, 429.2050
165.2203, 430.4501
165.7024, 433.0195
166.1845, 437.1994
166.6666, 443.2285
167.1487, 450.1172
167.6309, 457.8439
168.1130, 466.1160
168.5951, 474.1731
169.0772, 481.7616
169.5593, 489.0263
170.0414, 496.1437
170.5236, 503.3090
171.0057, 510.0167
171.4878, 516.5015
171.9699, 522.4663
172.4520, 526.8476
172.9341, 527.6677
173.4163, 527.1549
173.8984, 527.9791
174.3805, 531.1001
174.8626, 535.0416
175.3447, 538.2416
175.8268, 540.9589
176.3090, 544.4557
176.7911, 550.7744
177.2732, 558.1918
177.7553, 563.8886
178.2374, 567.0695
178.7195, 568.3615
179.2017, 568.9028
179.6838, 568.5873
180.1659, 566.1996
180.6480, 561.0618
181.1301, 553.2026
181.6122, 542.4089
182.0944, 527.8159
182.5765, 510.9066
183.0586, 492.8325
183.5407, 473.9171
184.0228, 456.0850
184.5049, 441.1958
184.9871, 428.9373
185.4692, 418.8285
185.9513, 410.6771
186.4334, 404.4676
186.9155, 400.1346
187.3976, 397.7344
187.8798, 396.7321
188.3619, 396.6992
188.8440, 397.6204
189.3261, 399.4580
189.8082, 402.6103
190.2903, 406.6678
190.7725, 410.1675
191.2546, 413.0981
191.7367, 415.7747
192.2188, 418.4004
192.7009, 421.0216
193.1830, 424.1753
193.6652, 428.7743
194.1473, 434.3532
194.6294, 437.6217
195.1115, 438.4066
195.5936, 437.5096
196.0757, 436.2011
196.5579, 434.5382
197.0400, 431.0406
197.5221, 424.7220
198.0042, 415.7809
198.4863, 406.4335
198.9684, 396.6108
199.4506, 386.6244
199.9327, 376.7143
200.4148, 366.6839
200.8969, 358.0151
201.3790, 351.7987
201.8611, 348.1797
202.3433, 343.2938
202.8254, 336.7059
203.3075, 329.5089
203.7896, 323.5501
204.2717, 318.8466
204.7538, 315.0507
205.2360, 311.9998
205.7181, 309.6678
206.2002, 308.3600
206.6823, 308.3102
207.1644, 308.9941
207.6465, 309.3441
208.1287, 309.1254
208.6108, 309.3823
209.0929, 310.8266
209.5750, 313.8299
210.0571, 316.0349
210.5392, 317.2882
211.0214, 317.9118
211.5035, 318.4080
211.9856, 318.5445
212.4677, 319.1901
212.9498, 320.8055
213.4319, 323.5451
213.9140, 326.5859
214.3962, 330.0786
214.8783, 333.7778
215.3604, 336.8549
215.8425, 338.7625
216.3246, 341.3209
216.8067, 345.5527
217.2889, 351.9303
217.7710, 358.1450
218.2531, 363.9902
218.7352, 369.7176
219.2173, 376.0399
219.6994, 382.9588
220.1816, 390.5128
220.6637, 398.9194
221.1458, 408.4908
221.6279, 418.0475
222.1100, 427.4544
222.5921, 436.9182
223.0743, 447.5234
223.5564, 460.1754
224.0385, 472.2868
224.5206, 482.3013
225.0027, 489.6106
225.4848, 497.0089
225.9670, 505.2098
226.4491, 513.2524
226.9312, 518.6366
227.4133, 520.6414
227.8954, 521.0911
228.3775, 520.5616
228.8597, 518.2991
229.3418, 516.8430
229.8239, 516.2546
230.3060, 516.4496
230.7881, 517.1696
231.2702, 518.1375
231.7524, 520.0419
232.2345, 523.2570
232.7166, 528.3982
233.1987, 533.6016
233.6808, 539.3730
234.1629, 545.0484
234.6451, 549.1649
235.1272, 552.6131
235.6093, 553.1536
236.0914, 549.7269
236.5735, 541.6212
237.0556, 531.0989
237.5378, 517.2396
238.0199, 501.2650
238.5020, 486.0865
238.9841, 470.8593
239.4662, 457.4259
239.9483, 446.6452
240.4305, 439.4990
240.9126, 432.8454
241.3947, 426.1349
241.8768, 420.0697
242.3589, 416.4845
242.8410, 416.1261
243.3232, 417.0691
243.8053, 418.5714
244.2874, 420.6514
244.7695, 423.1885
245.2516, 425.8524
245.7337, 429.1053
246.2159, 434.1040
246.6980, 441.6668
247.1801, 449.7120
247.6622, 457.4673
248.1443, 464.6787
248.6264, 472.4607
249.1086, 481.2826
249.5907, 490.5045
250.0728, 498.8019
250.5549, 505.9523
251.0370, 512.5528
251.5191, 518.7690
252.0013, 524.3903
252.4834, 530.1878
252.9655, 536.4067
253.4476, 542.5887
253.9297, 547.8619
254.4118, 552.0428
254.8940, 555.5355
255.3761, 558.3884
255.8582, 560.4698
256.3403, 562.5251
256.8224, 564.8080
257.3046, 566.8812
257.7867, 567.9567
258.2688, 567.8718
258.7509, 567.1658
259.2330, 565.8605
259.7151, 563.7777
260.1973, 562.1386
260.6794, 560.9561
261.1615, 560.2521
261.6436, 560.2431
262.1257, 561.3710
262.6078, 562.1310
263.0900, 562.1229
263.5721, 561.3391
264.0542, 559.6119
264.5363, 556.2258
265.0184, 552.7155
265.5005, 550.7527
265.9827, 550.1783
266.4648, 551.6420
266.9469, 555.4051
267.4290, 561.4459
267.9111, 569.2020
268.3932, 578.9064
268.8754, 589.8809
269.3575, 601.2643
269.8396, 612.9904
270.3217, 625.8415
270.8038, 640.3187
271.2859, 656.4273
271.7681, 672.0578
272.2502, 687.6826
272.7323, 701.8682
273.2144, 713.0985
273.6965, 721.5849
274.1786, 726.4619
274.6608, 727.6555
275.1429, 725.1242
275.6250, 718.3759
276.1071, 707.0309
276.5892, 692.6373
277.0714, 676.1527
277.5535, 657.1978
278.0356, 638.8842
278.5177, 621.4934
278.9998, 605.2491
279.4819, 591.3170
279.9641, 579.7977
280.4462, 569.6323
280.9283, 560.0724
281.4104, 551.2064
281.8925, 542.6795
282.3746, 534.2400
282.8568, 526.2599
283.3389, 519.8375
283.8210, 515.0281
284.3031, 511.3063
284.7852, 508.6373
285.2673, 506.9722
285.7495, 505.1547
286.2316, 503.0760
286.7137, 500.7115
287.1958, 498.1323
287.6779, 495.3450
288.1600, 491.9314
288.6422, 487.4247
289.1243, 481.9098
289.6064, 476.2799
290.0885, 470.4144
290.5706, 464.7608
291.0527, 459.7322
291.5349, 455.3776
292.0170, 452.3610
292.4991, 451.3508
292.9812, 452.0383
293.4633, 453.3369
293.9454, 455.1743
294.4276, 457.7234
294.9097, 461.3236
295.3918, 465.8827
295.8739, 470.8696
296.3560, 476.0840
296.8381, 481.5232
297.3203, 487.3576
297.8024, 493.6716
298.2845, 499.3868
298.7666, 504.1401
299.2487, 507.4690
299.7308, 508.0823
300.2130, 503.6862
300.6951, 496.8885
301.1772, 491.7915
301.6593, 488.4098
302.1414, 485.7690
302.6235, 482.9134
303.1057, 480.2197
303.5878, 478.5184
304.0699, 478.2531
304.5520, 478.9637
305.0341, 480.1913
305.5162, 481.9272
305.9984, 484.1750
306.4805, 486.7837
306.9626, 489.9324
307.4447, 493.9697
307.9268, 499.8927
308.4089, 505.5800
308.8911, 509.0329
309.3732, 510.5885
309.8553, 511.6480
310.3374, 513.6235
310.8195, 515.2394
311.3016, 515.1490
311.7838, 512.8192
312.2659, 509.3089
312.7480, 504.4143
313.2301, 498.8207
313.7122, 494.1163
314.1943, 491.0871
314.6765, 489.1534
315.1586, 487.9445
315.6407, 487.4503
316.1228, 487.5416
316.6049, 488.4325
317.0870, 489.8439
317.5692, 491.2989
318.0513, 492.6192
318.5334, 493.9503
319.0155, 495.2557
319.4976, 496.4825
319.9797, 498.0970
320.4619, 501.2269
320.9440, 504.4839
321.4261, 506.2829
321.9082, 506.4004
322.3903, 504.8837
322.8724, 501.4334
323.3546, 496.0334
323.8367, 490.0578
324.3188, 484.2978
324.8009, 477.7580
325.2830, 469.7575
325.7651, 457.6849
326.2473, 446.9093
326.7294, 438.7175
327.2115, 432.7997
327.6936, 426.5907
328.1757, 419.2020
328.6578, 412.1124
329.1400, 406.0533
329.6221, 402.4738
330.1042, 398.0502
330.5863, 392.3354
331.0684, 385.7183
331.5505, 379.4477
332.0327, 373.4295
332.5148, 367.7924
332.9969, 362.5622
333.4790, 357.9049
333.9611, 353.4399
334.4432, 349.0315
334.9254, 344.8750
335.4075, 341.3492
335.8896, 338.4458
336.3717, 336.1335
336.8538, 334.4409
337.3359, 333.3669
337.8180, 332.7794
338.3001, 332.6142
338.7823, 333.0353
339.2644, 334.2721
339.7465, 336.4126
340.2286, 339.0282
340.7107, 342.0641
341.1928, 345.5194
341.6750, 349.0260
342.1571, 352.5850
342.6392, 356.3533
343.1213, 360.6581
343.6034, 365.4707
344.0855, 370.0720
344.5677, 374.2959
345.0498, 378.2324
345.5319, 381.6729
346.0140, 384.5753
346.4961, 388.1496
346.9782, 393.5405
347.4604, 400.4213
347.9425, 406.6096
348.4246, 411.5728
348.9067, 417.0225
349.3888, 425.8431
349.8709, 437.5995
350.3531, 449.8593
350.8352, 461.1166
351.3173, 472.0626
351.7994, 484.1471
352.2815, 497.3741
352.7636, 511.6673
353.2458, 527.6995
353.7279, 544.7426
354.2100, 561.2372
354.6921, 577.0201
355.1742, 591.6116
355.6563, 605.2420
356.1385, 617.6879
356.6206, 627.4209
357.1027, 633.6574
357.5848, 636.4659
358.0669, 636.1022
358.5490, 633.0567
359.0312, 626.2278
359.5133, 613.3133
359.9954, 595.6789
360.4775, 577.4514
360.9596, 560.0759
361.4417, 543.1561
361.9239, 526.0078
362.4060, 507.9909
362.8881, 491.3671
363.3702, 477.5643
363.8523, 465.5789
364.3344, 453.8721
364.8166, 440.0974
365.2987, 428.1526
365.7808, 420.3112
366.2629, 417.0182
366.7450, 413.8389
367.2271, 409.8783
367.7093, 405.8416
368.1914, 402.3486
368.6735, 398.8603
369.1556, 396.5775
369.6377, 396.2088
370.1198, 397.5010
370.6020, 398.3467
371.0841, 398.2061
371.5662, 398.1226
372.0483, 398.8219
372.5304, 401.8893
373.0125, 402.6798
373.4947, 400.2739
373.9768, 395.8318
374.4589, 392.0951
374.9410, 389.5997
375.4231, 386.6795
375.9052, 382.4941
376.3874, 376.7935
376.8695, 371.7668
377.3516, 367.6295
377.8337, 363.7203
378.3158, 358.6927
378.7979, 352.2116
379.2801, 347.0755
379.7622, 344.2972
380.2443, 343.4101
380.7264, 342.3342
381.2085, 341.0802
381.6906, 339.5753
382.1728, 337.5572
382.6549, 335.1281
383.1370, 333.2090
383.6191, 332.2210
384.1012, 331.2964
384.5833, 328.6208
385.0655, 324.4151
385.5476, 320.4030
386.0297, 317.7071
386.5118, 315.8008
386.9939, 313.6121
387.4760, 311.0159
387.9582, 308.5215
388.4403, 306.3477
388.9224, 304.6155
389.4045, 303.5746
389.8866, 303.7467
390.3687, 304.3428
390.8509, 304.2956
391.3330, 303.7455
391.8151, 304.3243
392.2972, 307.5835
392.7793, 312.1683
393.2614, 316.8127
393.7436, 321.0759
394.2257, 325.4175
394.7078, 329.9084
395.1899, 334.5815
395.6720, 339.5241
396.1541, 344.5993
396.6363, 350.0852
397.1184, 356.1391
397.6005, 362.8561
398.0826, 369.9008
398.5647, 377.7435
399.0468, 385.7145
399.5290, 393.0013
400.0111, 397.7711
400.4932, 403.7878
400.9753, 411.9000
401.4574, 422.1435
401.9395, 432.6230
402.4217, 442.8498
402.9038, 453.9052
403.3859, 466.5634
403.8680, 481.2371
404.3501, 496.6040
404.8322, 512.4741
405.3144, 528.9655
405.7965, 546.0530
406.2786, 564.0476
406.7607, 581.9290
407.2428, 599.9178
407.7249, 618.1781
408.2071, 633.0421
408.6892, 644.5722
409.1713, 652.8292
409.6534, 658.0680
410.1355, 660.2141
410.6176, 658.4636
411.0998, 651.9418
411.5819, 641.8016
412.0640, 630.2755
412.5461, 617.4873
413.0282, 603.9940
413.5103, 590.1271
413.9925, 576.0603
414.4746, 562.0502
414.9567, 548.2058
415.4388, 534.1371
415.9209, 519.1500
416.4030, 503.5252
416.8852, 487.5221
417.3673, 470.2995
417.8494, 453.6371
418.3315, 438.6361
418.8136, 425.4924
419.2957, 414.1466
419.7779, 404.7711
420.2600, 397.2020
420.7421, 391.4277
421.2242, 387.9646
421.7063, 385.6638
422.1884, 384.5564
422.6706, 384.3858
423.1527, 384.1310
423.6348, 382.9727
424.1169, 382.1608
424.5990, 382.4720
425.0811, 385.0237
425.5633, 386.2480
426.0454, 385.1021
426.5275, 382.9724
427.0096, 381.5221
427.4917, 380.4849
427.9738, 380.5842
428.4560, 382.2173
428.9381, 385.3282
429.4202, 388.1200
429.9023, 389.8914
430.3844, 392.5528
430.8665, 397.8193
431.3487, 406.1924
431.8308, 414.0073
432.3129, 420.6873
432.7950, 426.9840
433.2771, 434.5985
433.7592, 443.5312
434.2414, 452.0612
434.7235, 460.3199
435.2056, 467.6340
435.6877, 471.1445
436.1698, 470.7687
436.6519, 467.6299
437.1341, 462.0961
437.6162, 454.6616
438.0983, 446.2846
438.5804, 436.5070
439.0625, 426.9507
439.5446, 419.1617
440.0268, 413.1068
440.5089, 408.6586
440.9910, 406.0702
441.4731, 404.8768
441.9552, 404.5988
442.4373, 405.1353
442.9195, 406.8828
443.4016, 410.5029
443.8837, 415.3003
444.3658, 420.4293
444.8479, 425.5780
445.3300, 431.0869
445.8122, 437.3359
446.2943, 444.1774
446.7764, 450.7852
447.2585, 457.6949
447.7406, 463.8303
448.2227, 468.6695
448.7049, 472.0147
449.1870, 474.3627
449.6691, 475.3679
450.1512, 475.5351
450.6333, 475.6149
451.1154, 475.6166
451.5976, 475.4621
452.0797, 474.8270
452.5618, 473.8288
453.0439, 474.6232
453.5260, 477.7167
454.0081, 480.9695
454.4903, 482.6969
454.9724, 482.9019
455.4545, 482.7357
455.9366, 482.4406
456.4187, 481.6117
456.9008, 479.8560
457.3830, 477.0685
457.8651, 472.7290
458.3472, 466.4759
458.8293, 458.5102
459.3114, 448.5523
459.7935, 436.7108
460.2757, 424.5109
460.7578, 412.5662
461.2399, 401.3347
461.7220, 391.4824
462.2041, 383.0986
462.6862, 376.0705
463.1684, 370.6970
463.6505, 366.5860
464.1326, 362.9648
464.6147, 360.2623
465.0968, 357.3335
465.5789, 353.3521
466.0611, 348.0250
466.5432, 343.5002
467.0253, 341.3290
467.5074, 339.5654
467.9895, 336.5836
468.4716, 330.3215
468.9538, 325.3048
469.4359, 322.2462
469.9180, 320.6462
470.4001, 318.8051
470.8822, 316.0615
471.3643, 314.3146
471.8465, 314.7362
472.3286, 317.6561
472.8107, 319.1188
473.2928, 318.6819
473.7749, 317.8531
474.2570, 318.4006
474.7392, 320.3156
475.2213, 322.2562
475.7034, 324.1061
476.1855, 325.6071
476.6676, 326.0928
477.1497, 325.6294
477.6319, 324.8570
478.1140, 324.2109
478.5961, 323.4817
479.0782, 322.2590
479.5603, 320.4903
480.0424, 318.5497
480.5246, 316.6144
481.0067, 314.7276
481.4888, 312.9432
481.9709, 311.2173
482.4530, 309.6457
482.9352, 308.0387
483.4173, 306.5811
483.8994, 305.8588
484.3815, 307.0860
484.8636, 308.2609
485.3457, 308.1449
485.8279, 306.0118
486.3100, 305.0358
486.7921, 306.6683
487.2742, 308.9240
487.7563, 310.0768
488.2384, 309.5842
488.7206, 308.8739
489.2027, 307.8683
489.6848, 306.7975
490.1669, 306.6595
490.6490, 307.8122
491.1311, 308.8220
491.6133, 308.9510
492.0954, 308.2169
492.5775, 307.3615
493.0596, 306.3291
493.5417, 305.4409
494.0238, 305.0228
494.5060, 305.0457
494.9881, 305.4209
495.4702, 306.2025
495.9523, 307.2010
496.4344, 308.0027
496.9165, 308.7365
497.3987, 309.8822
497.8808, 312.3774
498.3629, 315.0217
498.8450, 316.2978
499.3271, 316.0221
499.8092, 316.3893
500.2914, 319.4142
500.7735, 323.2288
501.2556, 326.1179
501.7377, 326.0501
502.2198, 326.9070
502.7019, 330.0324
503.1841, 334.7265
503.6662, 339.0910
504.1483, 343.0606
504.6304, 346.6621
505.1125, 349.6874
505.5946, 352.0439
506.0768, 355.1022
506.5589, 359.1411
507.0410, 363.4473
507.5231, 367.5172
508.0052, 371.3574
508.4873, 374.8537
508.9695, 377.8960
509.4516, 380.6408
509.9337, 383.3899
510.4158, 386.1293
510.8979, 388.5807
511.3800, 390.4542
511.8622, 392.0251
512.3443, 393.7891
512.8264, 395.7457
513.3085, 398.2105
513.7906, 401.8234
514.2728, 405.9303
514.7549, 409.7213
515.2370, 413.0699
515.7191, 416.0047
516.2012, 418.1935
516.6833, 420.0487
517.1655, 422.2394
517.6476, 425.7885
518.1297, 428.9099
518.6118, 431.2790
519.0939, 432.8256
519.5760, 432.9691
520.0582, 431.4065
520.5403, 428.5797
521.0224, 424.5282
521.5045, 418.7012
521.9866, 413.2590
522.4688, 408.5888
522.9509, 403.8656
523.4330, 397.8234
523.9151, 390.1772
524.3972, 382.7271
524.8793, 375.8627
525.3615, 369.5179
525.8436, 363.4184
526.3257, 357.5426
526.8078, 352.0471
527.2899, 346.7779
527.7720, 341.9255
528.2542, 338.1209
528.7363, 335.4232
529.2184, 333.1357
529.7005, 330.9301
530.1826, 328.7310
530.6647, 326.3028
531.1469, 322.8392
531.6290, 320.4176
532.1111, 321.3080
532.5932, 324.0197
533.0753, 325.5091
533.5574, 323.8106
534.0396, 321.7945
534.5217, 320.3190
535.0038, 319.4508
535.4859, 318.9359
535.9680, 318.9806
536.4501, 319.1595
536.9323, 319.1804
537.4144, 318.8073
537.8965, 318.9327
538.3786, 319.5868
538.8607, 320.7207
539.3428, 322.3624
539.8250, 324.5674
540.3071, 326.7330
540.7892, 328.5905
541.2713, 330.3602
541.7534, 332.5602
542.2355, 335.1607
542.7177, 337.8195
543.1998, 340.0816
543.6819, 342.3904
544.1640, 345.5908
544.6461, 349.7882
545.1282, 353.9393
545.6104, 356.9102
546.0925, 359.5502
546.5746, 362.8554
547.0567, 367.8297
547.5388, 372.4724
548.0209, 376.5091
548.5031, 379.6758
548.9852, 381.4920
549.4673, 381.4980
549.9494, 380.5028
550.4315, 378.4355
550.9136, 375.3022
551.3958, 372.6196
551.8779, 371.0068
552.3600, 368.7945
552.8421, 364.3409
553.3242, 357.2050
553.8063, 352.1866
554.2885, 349.7873
554.7706, 348.6834
555.2527, 347.1907
555.7348, 345.4146
556.2169, 343.9921
556.6990, 343.0729
557.1812, 342.6735
557.6633, 342.9149
558.1454, 343.7303
558.6275, 344.8734
559.1096, 346.4752
559.5917, 348.1544
560.0739, 349.3568
560.5560, 350.0370
561.0381, 351.3720
561.5202, 353.9998
562.0023, 357.3551
562.4844, 361.0089
562.9666, 364.6514
563.4487, 369.0125
563.9308, 374.2701
564.4129, 380.1701
564.8950, 386.4229
565.3771, 393.2928
565.8593, 399.7008
566.3414, 405.0692
566.8235, 409.7996
567.3056, 416.2592
567.7877, 424.6562
568.2698, 432.9995
568.7520, 439.9009
569.2341, 445.7556
569.7162, 452.7359
570.1983, 460.9543
570.6804, 468.5848
571.1625, 473.9580
571.6447, 477.5107
572.1268, 480.0293
572.6089, 482.0775
573.0910, 482.3967
573.5731, 479.8668
574.0552, 475.1352
574.5374, 469.2693
575.0195, 461.6840
575.5016, 454.0114
575.9837, 446.7415
576.4658, 439.9063
576.9479, 433.1652
577.4301, 426.3828
577.9122, 419.9340
578.3943, 413.8820
578.8764, 408.2260
579.3585, 403.1852
579.8406, 398.8443
580.3228, 394.9234
580.8049, 391.0450
581.2870, 387.2497
581.7691, 384.1346
582.2512, 381.9581
582.7333, 380.1761
583.2155, 377.9997
583.6975, 375.5538
584.1796, 373.1301
584.6617, 370.4666
585.1439, 368.1982
585.6260, 367.2741
586.1081, 367.4112
