##NAMES=Tincalconite
##RRUFFID=R050660
##IDEAL CHEMISTRY=Na_2_B_4_O_5_(OH)_4_&#183;3H_2_O
##LOCALITY=Boron, Kern County, California, USA
##OWNER=RRUFF
##SOURCE=Marcus Origlieri
##DESCRIPTION=Colorless pseudo-octahedral crystal
##STATUS=The identification of this mineral has been confirmed by X-ray diffraction.
##URL=rruff.info/R050660
89.78156, 0.0000000E+00
90.26367, 30.72118
90.74579, 30.39470
91.22791, 30.46383
91.71002, 30.89869
92.19214, 31.44683
92.67426, 32.16329
93.15638, 32.86852
93.63850, 33.04572
94.12061, 32.19416
94.60273, 30.78966
95.08485, 29.95370
95.56696, 29.73488
96.04908, 29.80704
96.53120, 29.98147
97.01331, 30.23441
97.49543, 30.13898
97.97755, 29.14146
98.45966, 27.34039
98.94178, 26.55556
99.42390, 27.05314
99.90602, 28.20137
100.3881, 28.82717
100.8703, 28.84719
101.3524, 28.64172
101.8345, 28.35930
102.3166, 27.96668
102.7987, 27.63879
103.2808, 27.35021
103.7630, 27.13645
104.2451, 27.15914
104.7272, 27.42432
105.2093, 27.91893
105.6914, 28.70195
106.1735, 30.13282
106.6557, 31.20933
107.1378, 31.60026
107.6199, 31.27414
108.1020, 31.46498
108.5841, 32.27356
109.0662, 33.55069
109.5484, 35.17109
110.0305, 37.11383
110.5126, 39.43722
110.9947, 42.33285
111.4768, 46.05333
111.9590, 49.29502
112.4411, 51.11015
112.9232, 52.60583
113.4053, 55.15113
113.8874, 59.07876
114.3695, 64.03626
114.8517, 69.86000
115.3338, 76.48641
115.8159, 84.06173
116.2980, 93.10680
116.7801, 103.2309
117.2622, 113.4862
117.7444, 122.2036
118.2265, 131.8017
118.7086, 143.9413
119.1907, 159.9436
119.6728, 177.2995
120.1549, 194.2946
120.6371, 211.3478
121.1192, 230.2400
121.6013, 252.3799
122.0834, 276.6021
122.5655, 301.5592
123.0476, 327.1877
123.5298, 353.0888
124.0119, 379.4767
124.4940, 406.2421
124.9761, 431.9483
125.4582, 455.2049
125.9404, 476.4202
126.4225, 496.1729
126.9046, 514.1977
127.3867, 531.0466
127.8688, 547.6473
128.3509, 564.0370
128.8331, 579.8173
129.3152, 593.3136
129.7973, 605.3161
130.2794, 619.3954
130.7615, 637.8680
131.2436, 659.8348
131.7258, 681.6884
132.2079, 702.9028
132.6900, 725.1533
133.1721, 751.9199
133.6542, 783.1461
134.1364, 814.5872
134.6185, 844.4588
135.1006, 872.8992
135.5827, 900.1159
136.0648, 926.1906
136.5469, 951.2637
137.0291, 976.1442
137.5112, 1001.090
137.9933, 1024.084
138.4754, 1044.666
138.9575, 1063.031
139.4396, 1076.376
139.9218, 1083.196
140.4039, 1084.726
140.8860, 1086.598
141.3681, 1088.748
141.8502, 1091.337
142.3323, 1094.534
142.8145, 1098.721
143.2966, 1102.593
143.7787, 1105.566
144.2608, 1107.705
144.7429, 1111.125
145.2250, 1115.323
145.7072, 1121.308
146.1893, 1130.239
146.6714, 1143.948
147.1535, 1157.804
147.6356, 1170.280
148.1178, 1180.665
148.5999, 1194.183
149.0820, 1212.644
149.5641, 1233.441
150.0462, 1253.358
150.5283, 1272.418
151.0105, 1290.327
151.4926, 1295.041
151.9747, 1296.046
152.4568, 1297.556
152.9389, 1300.503
153.4210, 1303.831
153.9032, 1306.092
154.3853, 1307.701
154.8674, 1307.787
155.3495, 1305.715
155.8316, 1300.077
156.3137, 1295.509
156.7959, 1293.341
157.2780, 1292.620
157.7601, 1291.583
158.2422, 1289.547
158.7243, 1287.271
159.2065, 1285.137
159.6886, 1283.508
160.1707, 1281.429
160.6528, 1278.185
161.1349, 1274.204
161.6170, 1270.645
162.0992, 1268.276
162.5813, 1266.223
163.0634, 1263.885
163.5455, 1260.801
164.0276, 1257.841
164.5097, 1255.190
164.9919, 1252.910
165.4740, 1251.272
165.9561, 1250.797
166.4382, 1250.852
166.9203, 1250.854
167.4024, 1250.466
167.8846, 1250.174
168.3667, 1249.667
168.8488, 1249.181
169.3309, 1250.286
169.8130, 1255.673
170.2952, 1262.712
170.7773, 1268.067
171.2594, 1269.938
171.7415, 1270.273
172.2236, 1270.118
172.7057, 1269.535
173.1879, 1269.683
173.6700, 1272.137
174.1521, 1275.804
174.6342, 1278.847
175.1163, 1280.752
175.5984, 1281.604
176.0806, 1281.340
176.5627, 1279.958
177.0448, 1277.938
177.5269, 1275.840
178.0090, 1273.460
178.4911, 1270.238
178.9733, 1265.758
179.4554, 1260.412
179.9375, 1254.494
180.4196, 1248.004
180.9017, 1241.653
181.3838, 1236.946
181.8660, 1233.291
182.3481, 1228.348
182.8302, 1220.138
183.3123, 1210.034
183.7944, 1200.980
184.2766, 1192.945
184.7587, 1186.167
185.2408, 1181.495
185.7229, 1178.625
186.2050, 1175.407
186.6871, 1170.652
187.1693, 1164.649
187.6514, 1158.529
188.1335, 1152.048
188.6156, 1146.048
189.0977, 1142.211
189.5798, 1140.406
190.0620, 1138.083
190.5441, 1133.426
191.0262, 1126.808
191.5083, 1120.719
191.9904, 1115.017
192.4725, 1110.228
192.9547, 1107.943
193.4368, 1108.240
193.9189, 1107.963
194.4010, 1104.708
194.8831, 1098.744
195.3652, 1094.471
195.8474, 1092.668
196.3295, 1091.908
196.8116, 1089.247
197.2937, 1084.542
197.7758, 1079.460
198.2579, 1074.828
198.7401, 1070.639
199.2222, 1066.998
199.7043, 1064.065
200.1864, 1061.552
200.6685, 1058.836
201.1507, 1055.910
201.6328, 1052.817
202.1149, 1049.711
202.5970, 1046.657
203.0791, 1042.732
203.5612, 1037.556
204.0434, 1031.742
204.5255, 1026.947
205.0076, 1023.219
205.4897, 1020.350
205.9718, 1018.631
206.4539, 1018.450
206.9361, 1017.056
207.4182, 1013.867
207.9003, 1009.483
208.3824, 1005.661
208.8645, 1002.457
209.3466, 999.6628
209.8288, 997.1192
210.3109, 994.8087
210.7930, 992.8460
211.2751, 991.2913
211.7572, 990.0837
212.2393, 988.9821
212.7215, 988.0665
213.2036, 987.0945
213.6857, 985.8522
214.1678, 984.1769
214.6499, 982.7874
215.1320, 981.9372
215.6142, 981.3809
216.0963, 980.0488
216.5784, 977.7147
217.0605, 975.0443
217.5426, 972.3544
218.0247, 969.4968
218.5069, 967.1207
218.9890, 965.2499
219.4711, 963.9111
219.9532, 963.2898
220.4353, 963.7863
220.9175, 964.3506
221.3996, 964.2258
221.8817, 962.9558
222.3638, 962.2542
222.8459, 962.5481
223.3280, 963.5689
223.8102, 963.9117
224.2923, 963.3552
224.7744, 962.4635
225.2565, 961.6145
225.7386, 960.9777
226.2207, 959.8837
226.7029, 957.8751
227.1850, 955.2872
227.6671, 953.9986
228.1492, 954.3342
228.6313, 955.4985
229.1134, 957.2452
229.5956, 960.4974
230.0777, 962.2634
230.5598, 961.9579
231.0419, 959.9579
231.5240, 958.0198
232.0062, 955.9421
232.4883, 954.2213
232.9704, 953.2077
233.4525, 953.2177
233.9346, 953.2305
234.4167, 952.9544
234.8989, 952.5997
235.3810, 953.2966
235.8631, 956.0050
236.3452, 958.4974
236.8273, 959.3995
237.3094, 957.7611
237.7916, 956.6022
238.2737, 956.4882
238.7558, 956.9830
239.2379, 956.0184
239.7200, 951.8959
240.2021, 948.5873
240.6843, 948.6568
241.1664, 954.9287
241.6485, 958.3074
242.1306, 957.4667
242.6127, 953.4639
243.0948, 950.2297
243.5770, 947.7877
244.0591, 946.1113
244.5412, 945.3678
245.0233, 946.3078
245.5054, 946.5223
245.9876, 945.7008
246.4697, 944.1553
246.9518, 942.7021
247.4339, 940.8643
247.9160, 939.8288
248.3981, 940.4509
248.8803, 944.0866
249.3624, 946.0338
249.8445, 945.4865
250.3266, 943.3663
250.8087, 942.2217
251.2908, 942.4638
251.7730, 942.9954
252.2551, 943.3387
252.7372, 943.4288
253.2193, 943.5008
253.7014, 943.7069
254.1835, 943.8210
254.6657, 943.2375
255.1478, 941.5280
255.6299, 939.8742
256.1120, 938.7176
256.5941, 938.0996
257.0763, 938.0161
257.5584, 938.9716
258.0405, 940.1593
258.5226, 939.7045
259.0047, 936.5477
259.4868, 933.9594
259.9690, 933.6214
260.4511, 936.4614
260.9332, 937.0500
261.4153, 934.1637
261.8974, 930.1025
262.3795, 929.1305
262.8617, 932.7184
263.3438, 935.8089
263.8259, 936.4454
264.3080, 934.1516
264.7901, 932.7132
265.2722, 932.1920
265.7544, 932.4362
266.2365, 933.6830
266.7186, 936.7556
267.2007, 938.2297
267.6828, 936.3080
268.1649, 930.6395
268.6471, 927.6829
269.1292, 928.1490
269.6113, 930.1202
270.0934, 931.2646
270.5755, 931.4031
271.0576, 931.4641
271.5398, 931.7780
272.0219, 932.3274
272.5040, 932.2888
272.9861, 931.4578
273.4682, 930.4838
273.9503, 930.0507
274.4325, 930.2288
274.9146, 930.5811
275.3967, 931.1139
275.8788, 931.7623
276.3610, 931.9345
276.8431, 931.5323
277.3252, 930.9504
277.8073, 930.5178
278.2894, 930.2421
278.7715, 930.1022
279.2537, 930.1420
279.7358, 930.3184
280.2179, 930.4371
280.7000, 930.5074
281.1821, 930.5212
281.6642, 930.2373
282.1464, 929.6519
282.6285, 929.9330
283.1106, 931.5110
283.5927, 933.8685
284.0748, 935.7321
284.5569, 937.1041
285.0391, 937.9120
285.5212, 937.4130
286.0033, 935.8291
286.4854, 936.2405
286.9675, 939.6365
287.4496, 944.2424
287.9318, 946.3984
288.4139, 946.0783
288.8960, 945.2135
289.3781, 944.9413
289.8602, 945.1268
290.3423, 944.9783
290.8245, 944.3090
291.3066, 943.6306
291.7887, 943.7774
292.2708, 944.7032
292.7529, 945.9325
293.2350, 947.3797
293.7172, 948.9500
294.1993, 950.3600
294.6814, 951.6428
295.1635, 952.5880
295.6456, 952.4213
296.1277, 951.4859
296.6099, 951.2806
297.0920, 952.6204
297.5741, 955.1189
298.0562, 958.4532
298.5383, 962.6816
299.0204, 966.5031
299.5026, 968.1904
299.9847, 968.3801
300.4668, 968.8168
300.9489, 970.3356
301.4311, 972.4088
301.9132, 974.3112
302.3953, 976.0707
302.8774, 977.8095
303.3595, 979.4810
303.8416, 981.2390
304.3238, 983.3978
304.8059, 986.0271
305.2880, 989.0845
305.7701, 992.5551
306.2522, 996.4322
306.7343, 1000.473
307.2165, 1004.803
307.6986, 1009.146
308.1807, 1013.047
308.6628, 1015.941
309.1449, 1019.179
309.6270, 1023.794
310.1092, 1029.657
310.5913, 1036.222
311.0734, 1044.064
311.5555, 1052.018
312.0376, 1058.749
312.5197, 1063.480
313.0019, 1068.463
313.4840, 1075.282
313.9661, 1083.339
314.4482, 1091.468
314.9303, 1099.515
315.4124, 1107.254
315.8946, 1114.295
316.3767, 1120.450
316.8588, 1126.849
317.3409, 1133.988
317.8230, 1141.703
318.3051, 1149.739
318.7873, 1158.572
319.2694, 1167.341
319.7515, 1175.643
320.2336, 1183.420
320.7157, 1191.278
321.1978, 1198.590
321.6800, 1206.340
322.1621, 1215.392
322.6442, 1226.481
323.1263, 1238.286
323.6084, 1250.721
324.0905, 1263.737
324.5727, 1276.808
325.0548, 1289.361
325.5369, 1302.146
326.0190, 1315.590
326.5012, 1329.045
326.9833, 1344.049
327.4654, 1361.078
327.9475, 1379.824
328.4296, 1398.811
328.9117, 1419.021
329.3939, 1438.580
329.8760, 1456.739
330.3581, 1472.158
330.8402, 1488.723
331.3223, 1507.529
331.8044, 1527.227
332.2866, 1545.021
332.7687, 1559.184
333.2508, 1573.662
333.7329, 1590.224
334.2150, 1609.877
334.6971, 1626.863
335.1793, 1640.841
335.6614, 1652.688
336.1435, 1662.925
336.6256, 1670.557
337.1077, 1679.635
337.5898, 1691.574
338.0720, 1706.330
338.5541, 1719.098
339.0362, 1729.384
339.5183, 1739.161
340.0004, 1750.554
340.4825, 1764.171
340.9647, 1775.957
341.4468, 1784.951
341.9289, 1791.791
342.4110, 1799.310
342.8931, 1807.880
343.3752, 1814.164
343.8574, 1816.074
344.3395, 1813.612
344.8216, 1807.179
345.3037, 1796.863
345.7858, 1782.372
346.2679, 1762.583
346.7501, 1737.474
347.2322, 1709.938
347.7143, 1681.255
348.1964, 1651.152
348.6785, 1618.111
349.1607, 1581.368
349.6428, 1543.392
350.1249, 1505.248
350.6070, 1467.570
351.0891, 1431.540
351.5713, 1398.208
352.0534, 1367.059
352.5355, 1336.451
353.0176, 1306.841
353.4997, 1279.382
353.9818, 1255.479
354.4640, 1234.395
354.9461, 1214.687
355.4282, 1196.099
355.9103, 1178.846
356.3924, 1163.288
356.8745, 1149.228
357.3567, 1136.240
357.8388, 1123.342
358.3209, 1111.697
358.8030, 1102.415
359.2851, 1096.349
359.7672, 1091.084
360.2494, 1085.507
360.7315, 1079.794
361.2136, 1074.360
361.6957, 1070.031
362.1778, 1065.408
362.6599, 1059.392
363.1421, 1051.612
363.6242, 1044.724
364.1063, 1039.564
364.5884, 1035.636
365.0705, 1032.477
365.5526, 1031.198
366.0348, 1029.408
366.5169, 1026.036
366.9990, 1021.218
367.4811, 1017.504
367.9632, 1015.819
368.4453, 1014.815
368.9275, 1013.738
369.4096, 1012.281
369.8917, 1011.163
370.3738, 1010.561
370.8559, 1010.300
371.3380, 1009.899
371.8202, 1009.298
372.3023, 1008.636
372.7844, 1007.918
373.2665, 1007.054
373.7487, 1006.480
374.2308, 1006.055
374.7129, 1006.072
375.1950, 1007.115
375.6771, 1009.622
376.1592, 1011.724
376.6414, 1012.573
377.1235, 1012.434
377.6056, 1014.277
378.0877, 1018.637
378.5698, 1023.301
379.0519, 1026.141
379.5341, 1027.124
380.0162, 1028.691
380.4983, 1031.307
380.9804, 1034.655
381.4625, 1037.597
381.9446, 1040.195
382.4268, 1043.761
382.9089, 1049.889
383.3910, 1057.692
383.8731, 1064.212
384.3552, 1068.919
384.8373, 1073.628
385.3195, 1080.701
385.8016, 1089.527
386.2837, 1098.462
386.7658, 1106.870
387.2479, 1114.824
387.7300, 1122.353
388.2122, 1129.449
388.6943, 1136.676
389.1764, 1144.705
389.6585, 1152.979
390.1406, 1160.557
390.6227, 1166.595
391.1049, 1172.710
391.5870, 1180.314
392.0691, 1188.875
392.5512, 1196.802
393.0333, 1203.087
393.5154, 1208.696
393.9976, 1214.042
394.4797, 1218.908
394.9618, 1224.482
395.4439, 1231.089
395.9260, 1238.637
396.4081, 1246.969
396.8903, 1257.016
397.3724, 1267.008
397.8545, 1276.283
398.3366, 1284.775
398.8188, 1294.088
399.3009, 1304.739
399.7830, 1315.978
400.2651, 1327.378
400.7472, 1339.815
401.2293, 1351.112
401.7115, 1361.189
402.1936, 1370.104
402.6757, 1378.173
403.1578, 1386.055
403.6399, 1391.961
404.1220, 1394.996
404.6042, 1394.946
405.0863, 1393.506
405.5684, 1391.048
406.0505, 1386.641
406.5326, 1379.086
407.0147, 1368.265
407.4969, 1354.875
407.9790, 1338.971
408.4611, 1320.614
408.9432, 1299.135
409.4253, 1274.355
409.9074, 1249.516
410.3896, 1227.372
410.8717, 1207.294
411.3538, 1186.060
411.8359, 1162.875
412.3180, 1139.775
412.8001, 1119.565
413.2823, 1102.219
413.7644, 1086.118
414.2465, 1069.478
414.7286, 1054.125
415.2107, 1042.968
415.6928, 1036.332
416.1750, 1030.313
416.6571, 1021.124
417.1392, 1011.057
417.6213, 1002.931
418.1034, 998.9150
418.5855, 995.8939
419.0677, 992.3299
419.5498, 988.3407
420.0319, 984.5029
420.5140, 980.8051
420.9961, 977.4590
421.4782, 974.5956
421.9604, 972.2962
422.4425, 970.3264
422.9246, 968.8871
423.4067, 967.7022
423.8889, 966.3734
424.3710, 964.1638
424.8531, 962.5468
425.3352, 962.1030
425.8173, 962.8349
426.2994, 963.1641
426.7816, 962.9202
427.2637, 962.4425
427.7458, 961.8680
428.2279, 960.8938
428.7100, 960.6539
429.1921, 961.6897
429.6743, 963.2010
430.1564, 963.0839
430.6385, 960.9171
431.1206, 958.7391
431.6027, 957.1826
432.0848, 956.2530
432.5670, 956.6908
433.0491, 958.7999
433.5312, 961.0476
434.0133, 961.6410
434.4954, 960.8170
434.9775, 960.2079
435.4597, 960.4235
435.9418, 960.8139
436.4239, 959.6797
436.9060, 957.3621
437.3881, 955.9724
437.8702, 957.5425
438.3524, 960.6140
438.8345, 963.1487
439.3166, 964.8945
439.7987, 966.3058
440.2808, 967.5974
440.7629, 968.8130
441.2451, 970.0121
441.7272, 971.0966
442.2093, 972.2635
442.6914, 973.6118
443.1735, 975.1340
443.6556, 976.7766
444.1378, 978.6641
444.6199, 980.5872
445.1020, 982.3516
445.5841, 983.5693
446.0662, 985.3526
446.5483, 988.3135
447.0305, 991.8527
447.5126, 994.9706
447.9947, 996.9714
448.4768, 999.3331
448.9590, 1002.441
449.4411, 1006.294
449.9232, 1010.226
450.4053, 1014.324
450.8874, 1018.408
451.3695, 1022.258
451.8517, 1025.798
452.3338, 1029.462
452.8159, 1033.218
453.2980, 1037.117
453.7801, 1041.318
454.2622, 1045.781
454.7444, 1050.563
455.2265, 1055.985
455.7086, 1061.781
456.1907, 1066.394
456.6728, 1069.812
457.1549, 1073.003
457.6371, 1077.076
458.1192, 1081.677
458.6013, 1086.056
459.0834, 1089.963
459.5655, 1093.630
460.0476, 1097.191
460.5298, 1100.693
461.0119, 1104.090
461.4940, 1107.961
461.9761, 1111.401
462.4582, 1113.698
462.9403, 1114.790
463.4225, 1115.120
463.9046, 1115.124
464.3867, 1114.363
464.8688, 1112.430
465.3509, 1108.043
465.8330, 1103.817
466.3152, 1100.895
466.7973, 1098.694
467.2794, 1095.097
467.7615, 1088.533
468.2436, 1081.925
468.7257, 1076.231
469.2079, 1071.732
469.6900, 1067.148
470.1721, 1062.388
470.6542, 1057.669
471.1363, 1053.333
471.6184, 1049.598
472.1006, 1045.246
472.5827, 1039.659
473.0648, 1033.568
473.5469, 1029.376
474.0291, 1027.207
474.5112, 1025.518
474.9933, 1023.220
475.4754, 1020.621
475.9575, 1019.210
476.4396, 1019.144
476.9218, 1019.472
477.4039, 1019.298
477.8860, 1018.742
478.3681, 1018.068
478.8502, 1017.257
479.3323, 1016.470
479.8145, 1015.597
480.2966, 1014.796
480.7787, 1014.684
481.2608, 1015.736
481.7429, 1017.448
482.2250, 1019.747
482.7072, 1022.834
483.1893, 1025.213
483.6714, 1025.458
484.1535, 1025.147
484.6356, 1025.876
485.1177, 1028.524
485.5999, 1031.538
486.0820, 1034.845
486.5641, 1038.377
487.0462, 1041.975
487.5283, 1045.733
488.0104, 1049.466
488.4926, 1053.081
488.9747, 1056.472
489.4568, 1060.339
489.9389, 1064.786
490.4210, 1069.466
490.9031, 1073.691
491.3853, 1077.393
491.8674, 1082.120
492.3495, 1088.454
492.8316, 1095.605
493.3137, 1101.782
493.7958, 1107.081
494.2780, 1112.398
494.7601, 1118.193
495.2422, 1124.347
495.7243, 1130.395
496.2064, 1136.374
496.6885, 1142.689
497.1707, 1150.562
497.6528, 1158.842
498.1349, 1165.914
498.6170, 1170.751
499.0992, 1175.217
499.5813, 1180.094
500.0634, 1185.399
500.5455, 1191.218
501.0276, 1198.804
501.5097, 1205.787
501.9919, 1211.602
502.4740, 1216.326
502.9561, 1218.662
503.4382, 1216.922
503.9203, 1213.938
504.4024, 1211.783
504.8846, 1212.169
505.3667, 1209.873
505.8488, 1204.029
506.3309, 1195.717
506.8130, 1187.151
507.2951, 1178.399
507.7773, 1169.231
508.2594, 1159.446
508.7415, 1149.255
509.2236, 1139.065
509.7057, 1128.801
510.1878, 1119.514
510.6700, 1112.383
511.1521, 1106.889
511.6342, 1101.385
512.1163, 1095.662
512.5984, 1089.941
513.0806, 1083.885
513.5627, 1078.040
514.0448, 1073.547
514.5269, 1072.243
515.0090, 1071.347
515.4911, 1068.420
515.9733, 1063.872
516.4554, 1060.668
516.9375, 1060.903
517.4196, 1062.082
517.9017, 1062.859
518.3839, 1063.219
518.8660, 1062.783
519.3481, 1060.582
519.8302, 1057.990
520.3123, 1056.573
520.7944, 1057.250
521.2766, 1057.435
521.7587, 1056.720
522.2408, 1055.256
522.7229, 1053.574
523.2050, 1051.717
523.6871, 1049.557
524.1693, 1046.655
524.6514, 1043.200
525.1335, 1041.026
525.6156, 1040.255
526.0977, 1039.965
526.5798, 1039.277
527.0620, 1038.297
527.5441, 1037.363
528.0262, 1036.570
528.5083, 1035.784
528.9904, 1034.436
529.4725, 1032.946
529.9547, 1032.378
530.4368, 1034.539
530.9189, 1036.751
531.4010, 1037.005
531.8831, 1035.262
532.3652, 1033.735
532.8474, 1033.008
533.3295, 1032.800
533.8116, 1032.919
534.2937, 1033.210
534.7758, 1034.126
535.2579, 1036.422
535.7401, 1038.995
536.2222, 1040.054
536.7043, 1038.756
537.1864, 1037.994
537.6685, 1038.366
538.1506, 1039.774
538.6328, 1041.876
539.1149, 1044.808
539.5970, 1047.795
540.0791, 1050.635
540.5612, 1053.207
541.0433, 1054.473
541.5255, 1054.279
542.0076, 1053.893
542.4897, 1054.018
542.9718, 1054.921
543.4539, 1057.336
543.9360, 1062.236
544.4182, 1067.247
544.9003, 1069.805
545.3824, 1071.010
545.8645, 1073.324
546.3466, 1078.554
546.8287, 1084.365
547.3109, 1089.895
547.7930, 1095.041
548.2751, 1099.653
548.7572, 1102.721
549.2393, 1106.021
549.7214, 1110.550
550.2036, 1116.916
550.6857, 1123.100
551.1678, 1128.732
551.6499, 1134.616
552.1320, 1141.800
552.6141, 1150.410
553.0963, 1159.678
553.5784, 1169.231
554.0605, 1179.517
554.5426, 1191.635
555.0247, 1205.578
555.5068, 1221.193
555.9890, 1237.815
556.4711, 1256.084
556.9532, 1276.495
557.4353, 1299.076
557.9174, 1325.627
558.3995, 1356.432
558.8817, 1392.085
559.3638, 1433.040
559.8459, 1477.970
560.3281, 1530.427
560.8102, 1592.837
561.2923, 1663.005
561.7744, 1737.151
562.2565, 1819.299
562.7386, 1900.198
563.2208, 1978.539
563.7029, 2054.055
564.1850, 2130.118
564.6671, 2205.936
565.1492, 2282.307
565.6313, 2359.481
566.1135, 2436.689
566.5956, 2516.125
567.0777, 2597.030
567.5598, 2681.074
568.0419, 2769.454
568.5240, 2862.245
569.0062, 2964.533
569.4883, 3076.540
569.9704, 3197.824
570.4525, 3326.359
570.9346, 3463.485
571.4167, 3606.264
571.8989, 3756.535
572.3810, 3912.472
572.8631, 4077.575
573.3452, 4249.211
573.8273, 4420.457
574.3094, 4595.868
574.7916, 4762.833
575.2737, 4918.327
575.7558, 5069.333
576.2379, 5183.557
576.7200, 5270.843
577.2021, 5312.187
577.6843, 5291.450
578.1664, 5207.166
578.6485, 5061.915
579.1306, 4844.394
579.6127, 4576.337
580.0948, 4281.657
580.5770, 3961.453
581.0591, 3656.745
581.5412, 3380.001
582.0233, 3134.699
582.5054, 2930.420
582.9875, 2767.999
583.4697, 2633.744
583.9518, 2525.682
584.4339, 2439.807
584.9160, 2373.950
585.3981, 2328.718
585.8802, 2294.931
586.3624, 2274.526
586.8445, 2260.063
587.3266, 2244.731
587.8087, 2227.468
