##NAMES=Tincalconite
##RRUFFID=R050660
##IDEAL CHEMISTRY=Na_2_B_4_O_5_(OH)_4_&#183;3H_2_O
##LOCALITY=Boron, Kern County, California, USA
##OWNER=RRUFF
##SOURCE=Marcus Origlieri
##DESCRIPTION=Colorless pseudo-octahedral crystal
##STATUS=The identification of this mineral has been confirmed by X-ray diffraction.
##URL=rruff.info/R050660
92.02539, 802.8782
92.50751, 810.3175
92.98962, 819.6516
93.47174, 818.3369
93.95386, 814.1130
94.43597, 808.3005
94.91809, 802.7320
95.40021, 797.6652
95.88232, 790.7048
96.36444, 780.1163
96.84656, 770.1364
97.32867, 762.7607
97.81078, 757.1895
98.29290, 751.9874
98.77502, 745.6441
99.25713, 737.0438
99.73925, 727.6518
100.2214, 713.6917
100.7035, 702.4461
101.1856, 697.8090
101.6677, 699.5491
102.1498, 704.3638
102.6320, 708.3936
103.1141, 711.0527
103.5962, 714.3643
104.0783, 718.7366
104.5604, 723.5202
105.0425, 728.2001
105.5247, 732.7685
106.0068, 736.6498
106.4889, 738.8807
106.9710, 739.9073
107.4531, 738.6827
107.9352, 734.1469
108.4173, 726.6661
108.8995, 718.2665
109.3816, 709.5674
109.8637, 700.1162
110.3458, 689.3825
110.8279, 677.0294
111.3100, 664.1879
111.7922, 651.8975
112.2743, 639.9650
112.7564, 629.4636
113.2385, 621.2585
113.7206, 614.1789
114.2027, 607.2213
114.6849, 599.9299
115.1670, 592.5814
115.6491, 586.3387
116.1312, 582.3876
116.6133, 578.1677
117.0954, 572.8925
117.5776, 567.0927
118.0597, 561.7089
118.5418, 557.4741
119.0239, 554.4102
119.5060, 549.8766
119.9881, 542.3713
120.4703, 535.0901
120.9524, 529.5919
121.4345, 525.6987
121.9166, 522.0602
122.3987, 517.5174
122.8808, 511.8858
123.3630, 505.9595
123.8451, 500.2415
124.3272, 493.9610
124.8093, 486.0355
125.2914, 476.0479
125.7735, 465.7632
126.2557, 457.3050
126.7378, 450.3198
127.2199, 443.8043
127.7020, 437.3653
128.1841, 431.1219
128.6662, 425.6292
129.1483, 421.3301
129.6305, 417.3949
130.1126, 413.1748
130.5947, 408.6692
131.0768, 404.0512
131.5589, 399.3914
132.0410, 394.6613
132.5232, 390.1455
133.0053, 385.6948
133.4874, 381.5804
133.9695, 378.0326
134.4516, 375.0712
134.9337, 372.5196
135.4159, 370.1980
135.8980, 368.6092
136.3801, 366.1996
136.8622, 362.2853
137.3443, 357.9771
137.8264, 354.3152
138.3086, 351.6774
138.7907, 349.5765
139.2728, 346.7340
139.7549, 342.0476
140.2370, 337.8410
140.7191, 334.5473
141.2013, 331.7866
141.6834, 328.9590
142.1655, 325.7374
142.6476, 322.2730
143.1297, 319.2956
143.6118, 317.1037
144.0939, 314.9791
144.5761, 312.6124
145.0582, 310.0578
145.5403, 307.5113
146.0224, 304.9656
146.5045, 302.5917
146.9866, 300.7116
147.4688, 299.4767
147.9509, 298.6361
148.4330, 298.0473
148.9151, 297.7508
149.3972, 297.4464
149.8793, 296.7949
150.3615, 296.0489
150.8436, 295.5324
151.3257, 295.3738
151.8078, 295.5094
152.2899, 295.8398
152.7720, 296.5148
153.2542, 297.1234
153.7363, 297.6112
154.2184, 297.9266
154.7005, 297.9593
155.1826, 297.5448
155.6647, 296.7523
156.1469, 296.3201
156.6290, 296.6936
157.1111, 297.0202
157.5932, 296.9445
158.0753, 296.6317
158.5574, 296.4994
159.0396, 296.9851
159.5217, 298.2430
160.0038, 298.6567
160.4859, 297.4958
160.9680, 296.2737
161.4501, 295.5023
161.9323, 295.2526
162.4144, 295.4471
162.8965, 296.0975
163.3786, 297.4613
163.8607, 298.0219
164.3428, 297.4103
164.8250, 296.3367
165.3071, 295.1407
165.7892, 293.9098
166.2713, 292.8516
166.7534, 292.2394
167.2355, 292.1197
167.7177, 292.1964
168.1998, 292.6907
168.6819, 293.2806
169.1640, 293.5129
169.6461, 293.2501
170.1282, 292.7959
170.6104, 292.3923
171.0925, 292.0300
171.5746, 291.9873
172.0567, 292.3886
172.5388, 293.1952
173.0209, 294.3429
173.5031, 295.9917
173.9852, 297.7563
174.4673, 299.4154
174.9494, 300.9514
175.4315, 302.2060
175.9136, 302.9846
176.3958, 303.3026
176.8779, 303.5733
177.3600, 304.0552
177.8421, 304.3007
178.3242, 304.0871
178.8063, 303.3971
179.2885, 302.3133
179.7706, 300.8594
180.2527, 298.9660
180.7348, 296.9799
181.2169, 294.7000
181.6990, 292.4976
182.1812, 290.8057
182.6633, 289.5800
183.1454, 288.2465
183.6275, 285.8503
184.1096, 281.4569
184.5917, 278.0013
185.0738, 276.2127
185.5560, 274.7084
186.0381, 272.4958
186.5202, 269.3405
187.0023, 265.7359
187.4844, 262.5202
187.9665, 259.7039
188.4487, 257.3492
188.9308, 255.8535
189.4129, 254.6170
189.8950, 253.0431
190.3771, 250.9462
190.8592, 248.6264
191.3414, 246.6886
191.8235, 245.4455
192.3056, 244.0021
192.7877, 241.9925
193.2698, 239.8141
193.7519, 238.0170
194.2341, 236.8205
194.7162, 235.9785
195.1983, 235.0123
195.6804, 233.8976
196.1625, 232.7881
196.6446, 231.7606
197.1268, 230.7693
197.6089, 229.7012
198.0910, 228.5066
198.5731, 227.2345
199.0552, 225.9861
199.5373, 224.7775
200.0195, 223.4902
200.5016, 221.8344
200.9837, 219.9460
201.4658, 218.6174
201.9479, 218.5063
202.4300, 218.6236
202.9122, 217.8611
203.3943, 216.1309
203.8764, 214.1386
204.3585, 212.3504
204.8406, 210.7624
205.3227, 209.3501
205.8048, 208.2284
206.2870, 207.2128
206.7691, 206.2070
207.2512, 205.1998
207.7333, 204.1583
208.2154, 203.0951
208.6975, 202.0421
209.1797, 200.7733
209.6618, 198.9787
210.1439, 197.1327
210.6260, 195.3757
211.1081, 193.7727
211.5902, 192.5044
212.0724, 191.9744
212.5545, 192.6241
213.0366, 192.6605
213.5187, 191.4446
214.0008, 190.0013
214.4829, 188.9660
214.9651, 188.4551
215.4472, 188.1206
215.9293, 187.4215
216.4114, 186.0271
216.8935, 184.9586
217.3756, 184.4012
217.8578, 183.9795
218.3399, 183.4097
218.8220, 182.6434
219.3041, 181.8478
219.7862, 181.2949
220.2683, 181.1761
220.7505, 180.9417
221.2326, 180.3450
221.7147, 179.7948
222.1968, 179.7607
222.6789, 180.2998
223.1610, 180.9024
223.6432, 180.7833
224.1253, 179.3783
224.6074, 178.3791
225.0895, 178.2227
225.5716, 178.2235
226.0537, 177.6995
226.5358, 176.5012
227.0180, 175.0696
227.5001, 174.0017
227.9822, 173.3880
228.4643, 172.9194
228.9464, 172.6417
229.4285, 172.4738
229.9107, 172.2899
230.3928, 172.0555
230.8749, 171.9602
231.3570, 172.4533
231.8391, 173.6626
232.3212, 174.1311
232.8034, 173.0141
233.2855, 171.2681
233.7676, 170.1612
234.2497, 169.9863
234.7318, 170.0507
235.2139, 169.4211
235.6961, 168.2042
236.1782, 167.4243
236.6603, 167.5615
237.1424, 168.2236
237.6245, 168.8581
238.1066, 169.4207
238.5888, 169.8852
239.0709, 170.3301
239.5530, 170.7005
240.0351, 170.6998
240.5172, 170.0116
240.9993, 168.9262
241.4815, 167.9929
241.9636, 167.2660
242.4457, 166.6234
242.9278, 165.8822
243.4099, 165.1426
243.8920, 164.6556
244.3742, 164.5622
244.8563, 164.7889
245.3384, 165.2910
245.8205, 166.3411
246.3026, 167.0291
246.7847, 166.8365
247.2668, 165.9922
247.7490, 164.7336
248.2311, 162.7820
248.7132, 160.6776
249.1953, 159.8776
249.6774, 161.0535
250.1595, 162.2071
250.6417, 162.5475
251.1238, 162.3600
251.6059, 161.9826
252.0880, 161.5742
252.5701, 161.0616
253.0522, 160.1711
253.5344, 158.5547
254.0165, 157.2705
254.4986, 156.6385
254.9807, 156.4445
255.4628, 156.5237
255.9449, 156.8435
256.4271, 157.2623
256.9092, 157.4407
257.3913, 157.2672
257.8734, 157.0487
258.3555, 156.8062
258.8376, 156.5789
259.3198, 156.4415
259.8019, 156.4258
260.2840, 156.4158
260.7661, 156.1479
261.2482, 155.4534
261.7303, 154.8108
262.2125, 154.2342
262.6946, 153.7394
263.1767, 153.3628
263.6588, 153.1077
264.1409, 152.9158
264.6230, 152.6505
265.1052, 152.1087
265.5873, 151.9183
266.0694, 152.4077
266.5515, 152.9979
267.0336, 153.1797
267.5157, 152.8767
267.9979, 152.4826
268.4800, 152.7044
268.9621, 154.3852
269.4442, 154.7590
269.9263, 152.6628
270.4084, 150.3795
270.8906, 149.4925
271.3727, 150.1444
271.8548, 151.3359
272.3369, 151.8822
272.8190, 151.6354
273.3011, 151.1722
273.7833, 150.0156
274.2654, 149.0761
274.7475, 149.0805
275.2296, 149.9087
275.7117, 150.8010
276.1938, 150.9925
276.6760, 150.3567
277.1581, 149.7684
277.6402, 149.1568
278.1223, 148.6418
278.6044, 148.1751
279.0865, 147.8290
279.5686, 147.8399
280.0508, 148.4673
280.5329, 149.7337
281.0150, 150.4371
281.4971, 150.6003
281.9792, 150.3123
282.4613, 149.1347
282.9435, 147.4982
283.4256, 146.4054
283.9077, 146.5741
284.3898, 147.8191
284.8719, 148.4690
285.3540, 148.0038
285.8362, 147.6295
286.3183, 147.8219
286.8004, 148.3068
287.2825, 148.5264
287.7646, 148.1618
288.2467, 147.4336
288.7289, 147.1211
289.2110, 147.5207
289.6931, 147.9325
290.1752, 148.4226
290.6573, 148.8198
291.1394, 148.7883
291.6216, 148.1768
292.1037, 147.3135
292.5858, 146.8604
293.0679, 146.8696
293.5500, 147.1987
294.0321, 148.4247
294.5143, 149.7124
294.9964, 149.9326
295.4785, 148.7887
295.9606, 147.2131
296.4427, 146.5213
296.9248, 147.0497
297.4070, 147.5452
297.8891, 147.8274
298.3712, 148.1435
298.8533, 148.8502
299.3354, 149.9577
299.8175, 150.9660
300.2997, 151.3204
300.7818, 150.8804
301.2639, 150.6555
301.7460, 150.8676
302.2281, 151.1170
302.7102, 151.0768
303.1924, 150.7708
303.6745, 150.4896
304.1566, 150.4207
304.6387, 150.5857
305.1208, 151.0195
305.6029, 151.9681
306.0851, 152.9209
306.5672, 153.5841
307.0493, 154.0284
307.5314, 154.5415
308.0135, 155.3408
308.4956, 156.2854
308.9778, 156.7319
309.4599, 156.0406
309.9420, 155.7267
310.4241, 156.3831
310.9062, 157.7435
311.3883, 159.3122
311.8705, 160.8888
312.3526, 162.5480
312.8347, 164.5321
313.3168, 167.2338
313.7989, 169.3326
314.2810, 170.0452
314.7632, 170.1881
315.2453, 170.8197
315.7274, 172.2261
316.2095, 174.1340
316.6916, 176.3132
317.1737, 178.9338
317.6559, 181.0467
318.1380, 182.1682
318.6201, 182.9928
319.1022, 184.1143
319.5843, 185.6224
320.0664, 187.3725
320.5485, 189.3403
321.0306, 191.5352
321.5128, 193.2160
321.9949, 193.6291
322.4770, 194.1817
322.9591, 195.9394
323.4412, 198.7400
323.9233, 201.5788
324.4055, 203.6628
324.8876, 205.2372
325.3697, 207.8753
325.8518, 212.8759
326.3339, 217.3757
326.8160, 219.5862
327.2982, 220.5222
327.7803, 222.5340
328.2624, 226.8270
328.7445, 232.5629
329.2266, 237.5247
329.7087, 241.2628
330.1909, 245.1643
330.6730, 249.5802
331.1551, 254.2518
331.6372, 258.8999
332.1193, 263.4462
332.6014, 267.8311
333.0836, 271.9983
333.5657, 275.9265
334.0478, 279.6112
334.5299, 283.1943
335.0120, 286.4182
335.4941, 289.0318
335.9763, 291.0120
336.4584, 292.5862
336.9405, 293.8700
337.4226, 294.8241
337.9047, 296.1489
338.3868, 298.2677
338.8690, 300.3291
339.3511, 301.5403
339.8332, 302.2611
340.3153, 303.6127
340.7974, 306.3545
341.2795, 310.2766
341.7617, 314.0447
342.2438, 317.5099
342.7259, 321.0133
343.2080, 325.0087
343.6901, 329.0067
344.1722, 332.2328
344.6544, 334.3531
345.1365, 335.6716
345.6186, 336.8342
346.1007, 338.8640
346.5828, 338.9662
347.0649, 336.6222
347.5471, 332.6328
348.0292, 327.4556
348.5113, 321.3078
348.9934, 314.3974
349.4755, 307.0387
349.9576, 299.1540
350.4398, 290.9214
350.9219, 282.3116
351.4040, 273.4449
351.8861, 264.0759
352.3682, 254.5174
352.8503, 245.4555
353.3325, 237.4318
353.8146, 230.4429
354.2967, 224.2799
354.7788, 219.7556
355.2609, 215.1377
355.7430, 209.7015
356.2252, 204.0581
356.7073, 199.1041
357.1894, 195.2828
357.6715, 192.2353
358.1536, 188.9922
358.6357, 185.0121
359.1179, 181.7105
359.5999, 179.2900
360.0821, 177.4035
360.5642, 175.9649
361.0463, 174.8594
361.5284, 173.7681
362.0105, 172.2792
362.4926, 170.3130
362.9748, 168.2424
363.4569, 166.0786
363.9390, 163.8154
364.4211, 161.2200
364.9032, 158.4850
365.3853, 156.1494
365.8675, 154.6761
366.3496, 153.9596
366.8317, 152.9955
367.3138, 151.6967
367.7959, 150.2286
368.2780, 148.1961
368.7602, 146.1777
369.2423, 144.9678
369.7244, 144.9374
370.2065, 145.5345
370.6886, 145.6597
371.1707, 145.0864
371.6529, 144.6049
372.1350, 144.6763
372.6171, 144.6227
373.0992, 143.8039
373.5813, 142.2264
374.0634, 140.6222
374.5456, 139.7520
375.0277, 139.6433
375.5098, 139.6865
375.9919, 139.9388
376.4740, 140.2772
376.9561, 140.8004
377.4383, 141.3648
377.9204, 141.6020
378.4025, 141.0430
378.8846, 140.1603
379.3667, 140.4052
379.8488, 142.2341
380.3310, 144.0144
380.8131, 145.1207
381.2952, 145.8313
381.7773, 146.3215
382.2594, 146.5798
382.7415, 146.8860
383.2237, 147.5161
383.7058, 148.4697
384.1879, 149.6709
384.6700, 151.1353
385.1521, 152.8375
385.6342, 154.8363
386.1164, 157.0906
386.5985, 159.2334
387.0806, 160.9646
387.5627, 162.4288
388.0448, 164.0099
388.5269, 165.7826
389.0091, 167.5046
389.4912, 168.9659
389.9733, 170.2473
390.4554, 171.5086
390.9375, 172.6947
391.4196, 173.9524
391.9018, 175.6033
392.3839, 177.5751
392.8660, 179.0867
393.3481, 179.6101
393.8302, 179.6462
394.3123, 180.1701
394.7945, 181.2288
395.2766, 182.5341
395.7587, 183.9322
396.2408, 185.5130
396.7229, 187.3689
397.2050, 189.5247
397.6872, 192.0764
398.1693, 195.1862
398.6514, 198.9002
399.1335, 202.8982
399.6156, 207.3454
400.0977, 211.9687
400.5798, 216.6615
401.0620, 221.3844
401.5441, 226.0420
402.0262, 230.5643
402.5083, 234.9841
402.9904, 239.3650
403.4725, 244.4584
403.9547, 248.6110
404.4368, 251.2282
404.9189, 252.8452
405.4010, 254.2375
405.8831, 255.6167
406.3652, 256.4144
406.8474, 255.8069
407.3295, 253.6659
407.8116, 250.2609
408.2937, 245.3012
408.7758, 239.5322
409.2579, 233.0471
409.7401, 226.0707
410.2222, 219.0508
410.7043, 212.2676
411.1864, 205.0618
411.6685, 198.7058
412.1506, 190.7227
412.6328, 183.1293
413.1149, 175.8653
413.5970, 169.2036
414.0791, 163.4369
414.5612, 158.6579
415.0433, 154.6715
415.5255, 151.2373
416.0076, 148.4167
416.4897, 145.8901
416.9718, 144.1423
417.4539, 142.2671
417.9360, 139.4567
418.4182, 136.0359
418.9003, 133.2208
419.3824, 132.1188
419.8645, 132.2898
420.3466, 131.6586
420.8287, 129.7695
421.3109, 128.0317
421.7930, 126.9702
422.2751, 126.3751
422.7572, 126.1996
423.2393, 126.5540
423.7214, 126.7420
424.2036, 125.7057
424.6857, 123.5151
425.1678, 122.0102
425.6499, 121.9280
426.1320, 122.2563
426.6141, 121.9634
427.0963, 121.1421
427.5784, 120.5216
428.0605, 120.6555
428.5426, 121.0757
429.0247, 120.9686
429.5068, 120.2567
429.9890, 119.6596
430.4711, 119.8155
430.9532, 120.3766
431.4353, 120.1938
431.9174, 118.4943
432.3995, 117.1935
432.8817, 117.7782
433.3638, 119.4042
433.8459, 120.2029
434.3280, 119.5351
434.8101, 118.2721
435.2922, 117.5731
435.7744, 117.5564
436.2565, 117.7266
436.7386, 118.2293
437.2207, 118.7842
437.7028, 119.3142
438.1849, 119.7410
438.6671, 119.8180
439.1492, 119.3217
439.6313, 118.4000
440.1134, 117.9359
440.5955, 118.2169
441.0776, 118.6139
441.5598, 119.3601
442.0418, 120.0404
442.5240, 120.0398
443.0061, 119.2855
443.4882, 118.4835
443.9703, 118.6221
444.4524, 119.9708
444.9345, 120.9990
445.4167, 121.4402
445.8988, 121.8174
446.3809, 122.2408
446.8630, 122.7401
447.3451, 123.3978
447.8272, 124.3176
448.3094, 125.2680
448.7915, 125.5371
449.2736, 124.7383
449.7557, 124.3640
450.2378, 124.8798
450.7199, 125.8898
451.2021, 127.2983
451.6842, 129.0471
452.1663, 130.7642
452.6484, 132.1725
453.1305, 133.3069
453.6126, 134.2538
454.0948, 134.9598
454.5769, 135.6112
455.0590, 136.0843
455.5411, 136.6196
456.0232, 137.7482
456.5053, 139.9030
456.9875, 142.2394
457.4696, 143.8666
457.9517, 144.9977
458.4338, 146.6987
458.9159, 149.4397
459.3980, 152.6763
459.8802, 155.7097
460.3623, 158.5833
460.8444, 161.0668
461.3265, 162.6834
461.8086, 164.1776
462.2907, 166.3732
462.7729, 169.1943
463.2550, 171.8745
463.7371, 173.9376
464.2192, 175.4124
464.7013, 176.5128
465.1834, 177.6580
465.6656, 177.9329
466.1477, 176.5997
466.6298, 174.6362
467.1119, 173.3313
467.5940, 172.8693
468.0761, 172.1098
468.5583, 169.5078
469.0404, 164.5810
469.5225, 160.8067
470.0046, 159.2660
470.4867, 157.7763
470.9688, 155.6644
471.4510, 153.1712
471.9331, 150.7464
472.4152, 148.5910
472.8973, 146.6663
473.3794, 144.9129
473.8615, 143.3462
474.3437, 141.8990
474.8258, 140.8222
475.3079, 139.6492
475.7900, 137.9290
476.2721, 135.7767
476.7542, 133.8127
477.2364, 132.5293
477.7185, 131.6893
478.2006, 130.7341
478.6827, 129.6389
479.1648, 128.5795
479.6469, 127.5538
480.1291, 126.6779
480.6112, 126.1916
481.0933, 126.2804
481.5754, 126.2714
482.0575, 125.5332
482.5396, 124.5339
483.0217, 124.1941
483.5038, 124.7111
483.9860, 125.5874
484.4681, 126.4712
484.9502, 127.3519
485.4323, 127.7371
485.9144, 127.2244
486.3965, 126.6760
486.8787, 126.3284
487.3608, 126.2236
487.8429, 126.4427
488.3250, 127.0167
488.8071, 127.8051
489.2892, 128.5862
489.7714, 129.5186
490.2535, 130.0419
490.7356, 129.8376
491.2177, 129.5908
491.6998, 129.5436
492.1819, 129.7451
492.6641, 130.2312
493.1462, 131.0542
493.6283, 132.1100
494.1104, 133.1427
494.5925, 134.2512
495.0746, 135.0605
495.5568, 135.0706
496.0389, 135.0311
496.5210, 135.3211
497.0031, 136.0219
497.4852, 137.3105
497.9673, 139.8790
498.4495, 143.0852
498.9316, 145.0219
499.4137, 145.4311
499.8958, 145.4671
500.3779, 145.5061
500.8600, 145.7157
501.3422, 146.4042
501.8243, 147.6667
502.3064, 149.2370
502.7885, 151.4068
503.2706, 153.6979
503.7527, 155.2463
504.2349, 155.8574
504.7170, 155.9470
505.1991, 155.9069
505.6812, 155.7357
506.1633, 155.2108
506.6454, 154.2200
507.1276, 153.0470
507.6097, 151.9683
508.0918, 150.7252
508.5739, 148.8139
509.0560, 146.0688
509.5381, 142.9659
510.0203, 140.2215
510.5024, 137.7843
510.9845, 135.8770
511.4666, 134.7247
511.9487, 133.8875
512.4308, 133.4334
512.9130, 133.1401
513.3951, 132.5668
513.8772, 131.4101
514.3593, 130.1031
514.8414, 129.5845
515.3235, 130.0090
515.8057, 129.9863
516.2878, 128.7486
516.7699, 127.4156
517.2520, 127.0091
517.7341, 127.4194
518.2162, 127.7973
518.6984, 127.4589
519.1805, 127.0807
519.6626, 127.8855
520.1447, 129.7591
520.6268, 130.8957
521.1089, 130.1764
521.5911, 128.5107
522.0732, 128.0946
522.5553, 129.4082
523.0374, 130.3070
523.5195, 130.5601
524.0016, 130.1684
524.4838, 128.7819
524.9659, 126.6308
525.4480, 124.6332
525.9301, 123.4780
526.4122, 123.0040
526.8943, 122.3518
527.3765, 121.3016
527.8586, 120.3949
528.3407, 119.8236
528.8228, 119.3008
529.3049, 118.5073
529.7870, 117.4686
530.2692, 116.5651
530.7513, 116.2379
531.2334, 116.3483
531.7155, 115.9835
532.1976, 114.8474
532.6797, 113.9316
533.1619, 113.8039
533.6440, 114.0403
534.1261, 114.2755
534.6082, 114.4681
535.0903, 114.5718
535.5724, 114.7055
536.0546, 114.7008
536.5367, 113.9404
537.0188, 112.2682
537.5009, 110.9803
537.9830, 111.1667
538.4651, 112.5618
538.9473, 113.5476
539.4294, 113.8858
539.9115, 114.1590
540.3936, 114.6545
540.8757, 115.1166
541.3578, 115.1093
541.8400, 114.6073
542.3221, 114.1131
542.8042, 114.1627
543.2863, 114.7665
543.7684, 115.2716
544.2505, 115.6014
544.7326, 115.9164
545.2147, 116.3381
545.6968, 116.7144
546.1790, 116.7230
546.6611, 116.3296
547.1432, 116.1300
547.6253, 116.9956
548.1074, 118.8017
548.5895, 120.0048
549.0717, 120.3036
549.5538, 120.5153
550.0359, 121.2063
550.5180, 122.0995
551.0001, 122.7560
551.4822, 122.9826
551.9644, 123.2613
552.4465, 123.8892
552.9286, 124.7863
553.4107, 125.7798
553.8928, 126.8345
554.3749, 128.0450
554.8571, 129.4914
555.3392, 131.1791
555.8213, 133.0546
556.3034, 135.3532
556.7855, 137.5229
557.2676, 139.0489
557.7498, 140.5603
558.2319, 142.8756
558.7140, 146.1416
559.1961, 149.7093
559.6782, 152.7817
560.1603, 155.3235
560.6425, 158.8722
561.1246, 164.0253
561.6067, 169.3117
562.0888, 174.2134
562.5709, 179.0213
563.0530, 183.9666
563.5352, 189.0739
564.0173, 194.7896
564.4994, 201.7875
564.9815, 209.7130
565.4636, 217.0412
565.9457, 223.3243
566.4279, 230.8045
566.9100, 241.1672
567.3921, 253.9877
567.8742, 267.1752
568.3563, 279.9474
568.8384, 294.3503
569.3206, 310.9328
569.8027, 329.5823
570.2848, 350.1197
570.7669, 372.4846
571.2490, 397.3199
571.7311, 424.7566
572.2133, 455.0172
572.6954, 489.2621
573.1775, 527.8210
573.6596, 570.5485
574.1417, 617.3665
574.6238, 668.3014
575.1060, 725.2986
575.5881, 787.6349
576.0702, 849.5967
576.5523, 909.3845
577.0344, 964.8613
577.5165, 1009.946
577.9987, 1046.572
578.4808, 1064.259
578.9629, 1057.269
579.4450, 1028.026
579.9271, 980.1804
580.4092, 911.8558
580.8914, 838.7213
581.3735, 761.4456
581.8556, 685.6397
582.3377, 615.0489
582.8198, 551.0560
583.3019, 496.5970
583.7841, 453.5591
584.2662, 420.8253
584.7483, 395.2531
585.2304, 379.8181
585.7125, 367.0983
586.1946, 356.7970
586.6768, 349.2155
587.1589, 345.2070
587.6410, 344.0704
588.1231, 344.3545
588.6052, 345.4473
589.0873, 346.7792
589.5695, 347.3332
590.0516, 347.1810
