##NAMES=Tinsleyite
##RRUFFID=R070706
##IDEAL CHEMISTRY=KAl_2_(PO_4_)_2_(OH)&#183;2H_2_O
##LOCALITY=Tip Top mine, Fourmile, Custer District, Custer County, South Dakota, USA
##OWNER=RRUFF
##SOURCE=Michael Scott
##DESCRIPTION=Pinkish red prismatic crystal fragment
##STATUS=The identification of this mineral has been confirmed by single-crystal X-ray diffraction.
##URL=rruff.info/R070706
157.1662, 1359.376
157.6483, 1364.795
158.1304, 1368.832
158.6125, 1369.407
159.0946, 1369.964
159.5768, 1371.945
160.0589, 1375.181
160.5410, 1377.035
161.0231, 1368.461
161.5052, 1361.228
161.9873, 1366.771
162.4695, 1411.089
162.9516, 1450.962
163.4337, 1462.064
163.9158, 1439.485
164.3979, 1416.709
164.8800, 1409.046
165.3622, 1411.019
165.8443, 1413.830
166.3264, 1414.934
166.8085, 1414.792
167.2906, 1412.338
167.7727, 1404.605
168.2549, 1401.683
168.7370, 1414.980
169.2191, 1439.307
169.7012, 1459.601
170.1833, 1462.376
170.6654, 1458.587
171.1476, 1460.749
171.6297, 1480.664
172.1118, 1497.583
172.5939, 1486.983
173.0760, 1452.490
173.5581, 1422.790
174.0403, 1422.329
174.5224, 1439.614
175.0045, 1455.995
175.4866, 1464.464
175.9687, 1468.334
176.4508, 1471.033
176.9330, 1472.541
177.4151, 1473.204
177.8972, 1471.073
178.3793, 1467.955
178.8614, 1468.791
179.3435, 1484.284
179.8257, 1503.425
180.3078, 1504.749
180.7899, 1484.150
181.2720, 1456.701
181.7541, 1439.213
182.2362, 1430.372
182.7184, 1423.355
183.2005, 1412.539
183.6826, 1400.274
184.1647, 1393.469
184.6468, 1395.039
185.1289, 1399.569
185.6111, 1396.914
186.0932, 1387.379
186.5753, 1378.843
187.0574, 1383.804
187.5395, 1397.405
188.0216, 1394.083
188.5037, 1358.664
188.9859, 1308.403
189.4680, 1288.965
189.9501, 1302.788
190.4322, 1324.188
190.9143, 1325.296
191.3964, 1308.106
191.8786, 1297.208
192.3607, 1306.792
192.8428, 1330.106
193.3249, 1332.470
193.8070, 1309.615
194.2891, 1280.245
194.7713, 1269.288
195.2534, 1277.177
195.7355, 1287.847
196.2176, 1296.298
196.6997, 1302.411
197.1818, 1303.502
197.6640, 1297.901
198.1461, 1290.157
198.6282, 1289.364
199.1103, 1296.584
199.5924, 1303.310
200.0745, 1303.971
200.5567, 1298.051
201.0388, 1294.689
201.5209, 1294.899
202.0030, 1297.668
202.4851, 1301.841
202.9672, 1308.851
203.4494, 1311.810
203.9315, 1302.284
204.4136, 1276.914
204.8957, 1262.803
205.3778, 1267.531
205.8599, 1286.027
206.3421, 1292.196
206.8242, 1282.738
207.3063, 1268.972
207.7884, 1260.205
208.2705, 1256.979
208.7526, 1256.584
209.2348, 1258.468
209.7169, 1262.665
210.1990, 1271.946
210.6811, 1291.662
211.1632, 1308.069
211.6453, 1302.516
212.1275, 1265.929
212.6096, 1234.576
213.0917, 1218.027
213.5738, 1217.176
214.0559, 1223.318
214.5380, 1241.046
215.0202, 1261.014
215.5023, 1268.077
215.9844, 1258.294
216.4665, 1244.631
216.9486, 1228.634
217.4307, 1205.886
217.9129, 1201.593
218.3950, 1225.017
218.8771, 1261.377
219.3592, 1279.618
219.8413, 1274.045
220.3234, 1260.887
220.8056, 1245.753
221.2877, 1225.128
221.7698, 1211.983
222.2519, 1207.988
222.7340, 1211.306
223.2161, 1217.073
223.6983, 1229.223
224.1804, 1237.569
224.6625, 1234.354
225.1446, 1211.149
225.6267, 1196.918
226.1088, 1196.677
226.5910, 1207.777
227.0731, 1213.745
227.5552, 1210.005
228.0373, 1206.946
228.5194, 1214.520
229.0015, 1244.722
229.4836, 1258.464
229.9658, 1243.464
230.4479, 1201.907
230.9300, 1179.437
231.4121, 1183.306
231.8942, 1198.274
232.3763, 1212.838
232.8585, 1232.111
233.3406, 1240.386
233.8227, 1230.603
234.3048, 1201.249
234.7869, 1182.580
235.2690, 1178.285
235.7512, 1181.264
236.2333, 1184.673
236.7154, 1192.497
237.1975, 1193.398
237.6796, 1180.825
238.1617, 1150.363
238.6439, 1136.708
239.1260, 1147.130
239.6081, 1169.126
240.0902, 1186.456
240.5723, 1200.733
241.0544, 1207.850
241.5366, 1204.205
242.0187, 1184.398
242.5008, 1175.690
242.9829, 1185.417
243.4650, 1202.366
243.9471, 1205.091
244.4293, 1181.614
244.9114, 1162.616
245.3935, 1161.021
245.8756, 1186.405
246.3577, 1201.242
246.8398, 1201.338
247.3220, 1192.407
247.8041, 1186.989
248.2862, 1186.189
248.7683, 1187.221
249.2504, 1189.097
249.7325, 1192.338
250.2147, 1195.193
250.6968, 1197.525
251.1789, 1199.498
251.6610, 1201.682
252.1431, 1204.621
252.6252, 1207.006
253.1074, 1208.911
253.5895, 1212.843
254.0716, 1209.782
254.5537, 1196.159
255.0358, 1175.528
255.5179, 1160.657
256.0001, 1150.462
256.4822, 1147.680
256.9643, 1156.243
257.4464, 1184.301
257.9285, 1202.433
258.4106, 1205.639
258.8928, 1196.828
259.3749, 1191.365
259.8570, 1191.057
260.3391, 1191.105
260.8212, 1186.162
261.3033, 1170.004
261.7855, 1167.467
262.2676, 1188.239
262.7497, 1226.473
263.2318, 1243.221
263.7139, 1228.567
264.1960, 1208.595
264.6782, 1203.827
265.1603, 1219.415
265.6424, 1235.125
266.1245, 1249.775
266.6066, 1262.648
267.0887, 1267.766
267.5709, 1262.456
268.0530, 1254.201
268.5351, 1249.882
269.0172, 1250.943
269.4993, 1250.308
269.9814, 1245.227
270.4636, 1236.585
270.9457, 1234.527
271.4278, 1240.257
271.9099, 1250.055
272.3920, 1262.365
272.8741, 1279.275
273.3563, 1288.321
273.8384, 1282.994
274.3205, 1265.589
274.8026, 1261.741
275.2847, 1275.034
275.7668, 1293.251
276.2490, 1304.686
276.7311, 1309.283
277.2132, 1306.785
277.6953, 1293.522
278.1774, 1271.462
278.6595, 1261.872
279.1417, 1267.100
279.6238, 1278.229
280.1059, 1286.521
280.5880, 1291.933
281.0701, 1294.800
281.5522, 1292.780
282.0344, 1287.561
282.5165, 1292.661
282.9986, 1310.302
283.4807, 1330.579
283.9628, 1341.500
284.4449, 1342.963
284.9271, 1344.192
285.4092, 1349.206
285.8913, 1356.641
286.3734, 1358.207
286.8555, 1352.645
287.3376, 1346.660
287.8198, 1348.238
288.3019, 1357.079
288.7840, 1368.331
289.2661, 1383.966
289.7482, 1400.849
290.2303, 1404.395
290.7124, 1392.730
291.1945, 1378.352
291.6767, 1375.176
292.1588, 1382.182
292.6409, 1392.317
293.1230, 1406.752
293.6051, 1422.083
294.0872, 1426.643
294.5694, 1419.643
295.0515, 1408.590
295.5336, 1398.162
296.0157, 1389.429
296.4978, 1387.139
296.9799, 1399.879
297.4621, 1419.276
297.9442, 1425.543
298.4263, 1418.173
298.9084, 1406.572
299.3905, 1395.675
299.8727, 1387.494
300.3548, 1388.047
300.8369, 1409.916
301.3190, 1438.620
301.8011, 1450.726
302.2832, 1445.526
302.7654, 1434.553
303.2475, 1426.213
303.7296, 1419.795
304.2117, 1413.549
304.6938, 1401.513
305.1759, 1391.797
305.6581, 1397.648
306.1402, 1419.746
306.6223, 1441.049
307.1044, 1446.043
307.5865, 1441.357
308.0686, 1438.114
308.5508, 1446.587
309.0329, 1454.872
309.5150, 1451.207
309.9971, 1435.247
310.4792, 1417.290
310.9613, 1401.388
311.4435, 1388.219
311.9256, 1378.965
312.4077, 1375.281
312.8898, 1374.745
313.3719, 1377.430
313.8540, 1383.306
314.3362, 1387.257
314.8183, 1385.186
315.3004, 1380.247
315.7825, 1376.046
316.2646, 1374.943
316.7467, 1373.849
317.2289, 1369.831
317.7110, 1362.872
318.1931, 1359.741
318.6752, 1370.570
319.1573, 1383.268
319.6394, 1386.348
320.1216, 1365.360
320.6037, 1345.163
321.0858, 1334.704
321.5679, 1334.120
322.0500, 1332.976
322.5321, 1326.855
323.0143, 1320.224
323.4964, 1316.641
323.9785, 1324.546
324.4606, 1327.397
324.9427, 1318.595
325.4248, 1298.523
325.9070, 1283.735
326.3891, 1280.321
326.8712, 1280.032
327.3533, 1277.226
327.8354, 1269.917
328.3175, 1261.925
328.7997, 1251.941
329.2818, 1240.439
329.7639, 1233.530
330.2460, 1234.002
330.7281, 1236.770
331.2102, 1239.150
331.6924, 1245.594
332.1745, 1244.317
332.6566, 1229.398
333.1387, 1204.176
333.6208, 1191.613
334.1029, 1201.739
334.5851, 1212.037
335.0672, 1206.080
335.5493, 1170.907
336.0314, 1153.257
336.5135, 1165.162
336.9956, 1196.078
337.4778, 1204.024
337.9599, 1179.831
338.4420, 1152.465
338.9241, 1138.515
339.4062, 1140.141
339.8883, 1144.864
340.3705, 1153.299
340.8526, 1163.150
341.3347, 1169.173
341.8168, 1171.300
342.2989, 1169.688
342.7810, 1161.403
343.2632, 1146.382
343.7453, 1141.305
344.2274, 1150.687
344.7095, 1164.419
345.1916, 1161.084
345.6737, 1140.206
346.1559, 1122.114
346.6380, 1119.285
347.1201, 1128.814
347.6022, 1137.920
348.0843, 1146.451
348.5664, 1152.190
349.0486, 1150.974
349.5307, 1143.587
350.0128, 1135.206
350.4949, 1126.107
350.9770, 1118.061
351.4591, 1114.313
351.9413, 1114.939
352.4234, 1120.262
352.9055, 1135.266
353.3876, 1155.838
353.8697, 1170.994
354.3518, 1172.756
354.8340, 1168.475
355.3161, 1167.086
355.7982, 1169.085
356.2803, 1169.310
356.7624, 1159.962
357.2445, 1146.939
357.7267, 1139.594
358.2088, 1145.805
358.6909, 1155.630
359.1730, 1163.804
359.6551, 1170.132
360.1372, 1173.066
360.6194, 1167.874
361.1015, 1160.404
361.5836, 1156.577
362.0657, 1161.042
362.5478, 1166.827
363.0299, 1171.504
363.5121, 1175.167
363.9942, 1179.042
364.4763, 1188.089
364.9584, 1194.802
365.4405, 1193.961
365.9226, 1173.058
366.4048, 1157.278
366.8869, 1155.439
367.3690, 1163.928
367.8511, 1164.968
368.3332, 1145.989
368.8153, 1127.344
369.2975, 1118.885
369.7796, 1129.562
370.2617, 1138.348
370.7438, 1146.319
371.2259, 1152.471
371.7080, 1153.584
372.1901, 1146.088
372.6722, 1138.232
373.1544, 1133.755
373.6365, 1135.239
374.1186, 1132.448
374.6007, 1122.639
375.0828, 1110.475
375.5649, 1105.527
376.0471, 1110.417
376.5292, 1114.939
377.0113, 1114.757
377.4934, 1109.437
377.9755, 1106.652
378.4576, 1107.608
378.9398, 1108.406
379.4219, 1102.506
379.9040, 1089.331
380.3861, 1078.071
380.8682, 1071.890
381.3503, 1070.106
381.8325, 1069.797
382.3146, 1071.122
382.7967, 1072.751
383.2788, 1071.284
383.7609, 1068.230
384.2430, 1071.484
384.7252, 1090.041
385.2073, 1111.220
385.6894, 1108.392
386.1715, 1083.169
386.6536, 1055.625
387.1357, 1036.901
387.6179, 1027.024
388.1000, 1028.432
388.5821, 1049.155
389.0642, 1069.485
389.5463, 1066.297
390.0284, 1045.259
390.5106, 1026.510
390.9927, 1020.780
391.4748, 1022.569
391.9569, 1027.649
392.4390, 1036.577
392.9211, 1045.278
393.4033, 1051.509
393.8854, 1055.903
394.3675, 1059.884
394.8496, 1063.723
395.3317, 1067.379
395.8138, 1070.377
396.2960, 1071.935
396.7781, 1075.616
397.2602, 1087.753
397.7423, 1100.723
398.2244, 1105.002
398.7065, 1087.250
399.1887, 1072.871
399.6708, 1068.758
400.1529, 1076.051
400.6350, 1082.714
401.1171, 1089.264
401.5992, 1094.849
402.0814, 1098.481
402.5635, 1098.491
403.0456, 1099.614
403.5277, 1102.233
404.0098, 1106.420
404.4919, 1113.674
404.9741, 1126.865
405.4562, 1137.716
405.9383, 1136.732
406.4204, 1119.938
406.9025, 1119.091
407.3846, 1143.029
407.8668, 1178.751
408.3489, 1195.264
408.8310, 1191.365
409.3131, 1180.036
409.7952, 1162.915
410.2773, 1142.428
410.7595, 1136.000
411.2416, 1146.276
411.7237, 1163.802
412.2058, 1179.320
412.6879, 1192.180
413.1700, 1200.153
413.6522, 1197.050
414.1343, 1190.094
414.6164, 1193.036
415.0985, 1206.487
415.5806, 1217.696
416.0627, 1213.345
416.5449, 1200.462
417.0270, 1190.029
417.5091, 1188.645
417.9912, 1188.932
418.4733, 1181.959
418.9554, 1170.098
419.4376, 1167.580
419.9197, 1194.308
420.4018, 1226.200
420.8839, 1243.223
421.3660, 1228.098
421.8481, 1217.122
422.3303, 1227.853
422.8124, 1251.275
423.2945, 1262.488
423.7766, 1237.060
424.2587, 1215.093
424.7408, 1214.484
425.2230, 1250.824
425.7051, 1275.513
426.1872, 1280.965
426.6693, 1277.723
427.1514, 1280.793
427.6335, 1295.954
428.1157, 1308.134
428.5978, 1311.217
429.0799, 1304.600
429.5620, 1310.288
430.0441, 1334.666
430.5262, 1360.356
431.0084, 1368.557
431.4905, 1355.818
431.9726, 1349.124
432.4547, 1354.974
432.9368, 1369.402
433.4189, 1379.562
433.9011, 1385.005
434.3832, 1391.231
434.8653, 1402.045
435.3474, 1416.892
435.8295, 1434.474
436.3116, 1455.910
436.7938, 1476.538
437.2759, 1489.741
437.7580, 1496.543
438.2401, 1500.379
438.7222, 1498.497
439.2043, 1496.776
439.6865, 1504.114
440.1686, 1521.694
440.6507, 1539.103
441.1328, 1548.053
441.6149, 1552.458
442.0970, 1557.765
442.5792, 1567.590
443.0613, 1577.265
443.5434, 1582.550
444.0255, 1584.261
444.5076, 1590.699
444.9897, 1608.714
445.4719, 1629.654
445.9540, 1647.984
446.4361, 1659.700
446.9182, 1673.021
447.4003, 1695.967
447.8824, 1721.451
448.3646, 1729.693
448.8467, 1700.752
449.3288, 1677.872
449.8109, 1677.879
450.2930, 1707.908
450.7751, 1731.526
451.2573, 1747.015
451.7394, 1758.382
452.2215, 1771.745
452.7036, 1789.227
453.1857, 1799.593
453.6678, 1797.588
454.1500, 1785.935
454.6320, 1778.287
455.1142, 1774.785
455.5963, 1773.744
456.0784, 1775.753
456.5605, 1779.708
457.0426, 1778.956
457.5247, 1770.497
458.0069, 1760.457
458.4890, 1759.485
458.9711, 1765.471
459.4532, 1769.066
459.9353, 1762.855
460.4174, 1752.062
460.8996, 1743.472
461.3817, 1738.166
461.8638, 1731.740
462.3459, 1719.627
462.8280, 1704.863
463.3102, 1691.863
463.7923, 1683.401
464.2744, 1675.931
464.7565, 1668.907
465.2386, 1662.202
465.7207, 1653.295
466.2029, 1638.212
466.6850, 1623.052
467.1671, 1611.471
467.6492, 1606.142
468.1313, 1601.873
468.6134, 1600.329
469.0956, 1599.618
469.5777, 1594.917
470.0598, 1584.809
470.5419, 1572.849
471.0240, 1558.619
471.5061, 1540.697
471.9883, 1532.589
472.4704, 1537.625
472.9525, 1546.721
473.4346, 1547.794
473.9167, 1540.294
474.3988, 1535.917
474.8810, 1540.328
475.3631, 1548.304
475.8452, 1542.903
476.3273, 1524.279
476.8094, 1505.981
477.2915, 1498.833
477.7737, 1499.509
478.2558, 1502.484
478.7379, 1508.768
479.2200, 1511.438
479.7021, 1497.546
480.1842, 1474.557
480.6664, 1459.614
481.1485, 1470.090
481.6306, 1484.967
482.1127, 1489.038
482.5948, 1480.890
483.0769, 1472.702
483.5591, 1471.373
484.0412, 1471.102
484.5233, 1466.709
485.0054, 1452.986
485.4875, 1439.702
485.9696, 1429.771
486.4518, 1421.939
486.9339, 1409.795
487.4160, 1386.975
487.8981, 1367.259
488.3802, 1356.586
488.8623, 1357.096
489.3445, 1360.794
489.8266, 1371.444
490.3087, 1380.844
490.7908, 1375.577
491.2729, 1353.507
491.7550, 1330.275
492.2372, 1307.083
492.7193, 1286.533
493.2014, 1283.298
493.6835, 1297.991
494.1656, 1313.623
494.6477, 1314.286
495.1299, 1305.398
495.6120, 1302.152
496.0941, 1309.132
496.5762, 1317.561
497.0583, 1319.218
497.5404, 1315.062
498.0226, 1307.469
498.5047, 1287.307
498.9868, 1271.496
499.4689, 1278.219
499.9510, 1310.226
500.4331, 1332.406
500.9153, 1320.633
501.3974, 1297.446
501.8795, 1282.561
502.3616, 1291.689
502.8437, 1296.094
503.3258, 1284.857
503.8080, 1264.024
504.2901, 1258.624
504.7722, 1283.486
505.2543, 1304.910
505.7364, 1306.068
506.2185, 1278.636
506.7007, 1271.416
507.1828, 1292.094
507.6649, 1321.277
508.1470, 1333.731
508.6291, 1328.103
509.1112, 1321.840
509.5934, 1320.287
510.0755, 1320.531
510.5576, 1313.367
511.0397, 1298.954
511.5218, 1283.761
512.0039, 1271.348
512.4860, 1261.655
512.9681, 1253.632
513.4503, 1246.385
513.9324, 1243.903
514.4145, 1258.634
514.8966, 1279.580
515.3787, 1286.890
515.8608, 1256.005
516.3430, 1223.333
516.8251, 1210.525
517.3072, 1217.085
517.7893, 1221.428
518.2714, 1214.898
518.7535, 1206.010
519.2357, 1200.188
519.7178, 1202.572
520.1999, 1201.736
520.6820, 1197.991
521.1641, 1190.939
521.6462, 1178.926
522.1284, 1158.598
522.6105, 1140.532
523.0926, 1128.153
523.5747, 1121.398
524.0568, 1117.348
524.5389, 1117.217
525.0211, 1115.160
525.5032, 1102.807
525.9853, 1082.207
526.4674, 1067.980
526.9495, 1064.397
527.4316, 1065.343
527.9138, 1063.959
528.3959, 1060.042
528.8780, 1052.780
529.3601, 1037.915
529.8422, 1021.768
530.3243, 1011.363
530.8065, 1007.357
531.2886, 1002.226
531.7707, 989.8546
532.2528, 975.4136
532.7349, 963.4362
533.2170, 954.3166
533.6992, 948.7358
534.1813, 949.7768
534.6634, 954.9758
535.1455, 956.1598
535.6276, 952.8190
536.1097, 945.7933
536.5919, 933.5959
537.0740, 914.4855
537.5561, 904.6766
538.0382, 909.3264
538.5203, 914.0815
539.0024, 899.8491
539.4846, 865.0361
539.9667, 841.0112
540.4488, 835.4142
540.9309, 841.6949
541.4130, 850.9068
541.8951, 862.1003
542.3773, 866.3613
542.8594, 851.9670
543.3415, 829.8228
543.8236, 816.6705
544.3057, 814.0451
544.7878, 813.3506
545.2700, 809.8607
545.7521, 804.4081
546.2342, 797.8917
546.7163, 789.7534
547.1984, 781.5454
547.6805, 773.8322
548.1627, 766.5035
548.6448, 758.9328
549.1269, 747.9612
549.6090, 739.7094
550.0911, 738.3444
550.5732, 747.5773
551.0554, 744.8451
551.5375, 721.2864
552.0196, 696.8289
552.5017, 695.7872
552.9838, 723.7448
553.4659, 737.1375
553.9481, 723.5177
554.4302, 696.3606
554.9123, 688.3160
555.3944, 698.5166
555.8765, 709.9514
556.3586, 710.2538
556.8408, 706.1270
557.3229, 710.8298
557.8050, 725.3231
558.2871, 740.0056
558.7692, 747.7264
559.2513, 751.2551
559.7335, 753.9501
560.2156, 757.4197
560.6977, 759.5234
561.1798, 757.8926
561.6619, 754.1443
562.1440, 752.6462
562.6262, 755.4700
563.1083, 759.5457
563.5904, 764.0934
564.0725, 769.3084
564.5546, 773.7374
565.0367, 777.5275
565.5189, 780.3019
566.0010, 779.3730
566.4831, 772.2040
566.9652, 778.8623
567.4473, 807.9707
567.9294, 843.1760
568.4116, 851.6049
568.8937, 835.0392
569.3758, 815.2961
569.8579, 798.8935
570.3400, 787.5327
570.8221, 785.7836
571.3043, 793.4077
571.7864, 802.5416
572.2685, 807.6769
572.7506, 811.4329
573.2327, 817.2365
573.7148, 829.8548
574.1970, 836.7788
574.6791, 825.4651
575.1612, 806.5611
575.6433, 799.1535
576.1254, 823.3791
576.6075, 840.4246
577.0897, 838.9696
577.5718, 819.8000
578.0539, 806.2765
578.5360, 798.5167
579.0181, 796.1719
579.5002, 802.3156
579.9824, 818.1563
580.4645, 823.0292
580.9466, 814.0309
581.4287, 799.0573
581.9108, 786.7496
582.3929, 777.3962
582.8751, 772.3421
583.3572, 772.1816
583.8393, 776.4492
584.3214, 790.2986
584.8035, 810.2709
585.2856, 820.2554
585.7678, 799.4908
586.2499, 773.3802
586.7320, 762.2125
587.2141, 772.6326
587.6962, 780.0939
588.1783, 775.7461
588.6605, 766.6265
589.1426, 759.9070
589.6247, 756.7289
590.1068, 754.6572
590.5889, 753.7580
591.0710, 753.7594
591.5532, 753.3531
592.0353, 751.8164
592.5174, 752.5979
592.9995, 757.6375
593.4816, 766.4956
593.9637, 778.0609
594.4459, 793.0428
594.9280, 803.3608
595.4101, 795.2776
595.8922, 778.1292
596.3743, 771.9352
596.8564, 784.3926
597.3386, 799.8764
597.8207, 805.2814
598.3028, 804.7604
598.7849, 805.8771
599.2670, 814.7791
599.7491, 822.6345
600.2313, 824.6943
600.7134, 821.1699
601.1955, 820.7711
601.6776, 824.1408
602.1597, 830.7136
602.6418, 841.5789
603.1240, 859.8166
603.6061, 870.0605
604.0882, 869.5845
604.5703, 865.6641
605.0524, 867.1669
605.5345, 874.0102
606.0167, 883.5850
606.4988, 896.9231
606.9809, 910.5781
607.4630, 917.8575
607.9451, 919.9653
608.4272, 922.8127
608.9094, 934.0742
609.3915, 945.0196
609.8736, 944.8073
610.3557, 932.3594
610.8378, 923.4593
611.3199, 927.7004
611.8021, 936.6752
612.2842, 943.7529
612.7663, 948.3794
613.2484, 950.3528
613.7305, 947.8796
614.2126, 943.5182
614.6948, 941.5215
615.1769, 941.9233
615.6590, 944.3254
616.1411, 948.1396
616.6232, 953.9107
617.1053, 966.5050
617.5875, 986.4668
618.0696, 1002.714
618.5517, 1003.743
619.0338, 996.1508
619.5159, 995.1844
619.9980, 1002.584
620.4802, 1011.161
620.9623, 1013.684
621.4444, 1014.557
621.9265, 1019.779
622.4086, 1037.715
622.8907, 1051.744
623.3729, 1053.650
623.8550, 1047.633
624.3371, 1044.251
624.8192, 1044.899
625.3013, 1048.038
625.7834, 1055.856
626.2656, 1067.905
626.7477, 1066.438
627.2298, 1044.619
627.7119, 1027.951
628.1940, 1039.904
628.6761, 1077.392
629.1583, 1106.381
629.6404, 1124.570
630.1225, 1133.189
630.6046, 1124.905
631.0867, 1109.047
631.5688, 1106.756
632.0510, 1135.146
632.5331, 1167.135
633.0152, 1183.439
633.4973, 1188.249
633.9794, 1193.228
634.4615, 1203.837
634.9437, 1214.067
635.4258, 1220.589
635.9079, 1222.663
636.3900, 1228.380
636.8721, 1237.846
637.3542, 1250.898
637.8364, 1269.304
638.3185, 1294.777
638.8006, 1311.404
639.2827, 1315.915
639.7648, 1317.591
640.2469, 1332.448
640.7291, 1357.115
641.2112, 1373.972
641.6933, 1372.885
642.1754, 1367.142
642.6575, 1371.743
643.1396, 1384.514
643.6218, 1398.301
644.1039, 1412.991
644.5860, 1425.026
645.0681, 1431.053
645.5502, 1430.209
646.0323, 1432.202
646.5145, 1441.386
646.9966, 1451.463
647.4787, 1459.604
647.9608, 1467.974
648.4429, 1467.832
648.9250, 1456.340
649.4072, 1440.487
649.8893, 1429.299
650.3714, 1422.572
650.8535, 1417.639
651.3356, 1413.566
651.8177, 1411.137
652.2999, 1413.598
652.7820, 1419.351
653.2641, 1422.219
653.7462, 1418.636
654.2283, 1411.236
