##NAMES=Tinticite
##RRUFFID=R070682
##IDEAL CHEMISTRY=Fe^3+^_3_(PO_4_)_2_(OH)_3_&#183;3H_2_O
##LOCALITY=Tintic Standard mine, East Tintic District, East Tintic Mountainsts, Utah County, Utah, USA
##OWNER=RRUFF
##SOURCE=Michael Scott
##DESCRIPTION=Clay-like white fine-grained massive, associated with jarosite, from type find
##STATUS=The identification of this mineral has been confirmed by X-ray diffraction and chemical analysis
##URL=rruff.info/R070682
##MEASURED CHEMISTRY=(Fe^3+^_5.06_Al_0.04_)_Σ=5.09_((P_0.825_S_0.175_)_Σ=1_O_4_)_4_(OH)_4_·6.96H_2_O; OH estimated by charge balance; H_2_O by difference
192.7677, 2581.618
193.2499, 2586.784
193.7320, 2588.975
194.2141, 2588.481
194.6962, 2585.897
195.1783, 2573.561
195.6604, 2568.400
196.1426, 2574.065
196.6247, 2585.998
197.1068, 2600.941
197.5889, 2617.884
198.0710, 2633.698
198.5531, 2636.978
199.0353, 2609.804
199.5174, 2591.706
199.9995, 2593.884
200.4816, 2609.641
200.9637, 2628.740
201.4458, 2647.361
201.9280, 2663.457
202.4101, 2666.853
202.8922, 2646.902
203.3743, 2628.294
203.8564, 2622.330
204.3385, 2625.694
204.8207, 2627.613
205.3028, 2621.010
205.7849, 2607.875
206.2670, 2599.810
206.7491, 2602.906
207.2312, 2605.398
207.7134, 2597.586
208.1955, 2580.905
208.6776, 2567.683
209.1597, 2567.651
209.6418, 2578.265
210.1239, 2585.220
210.6061, 2588.374
211.0882, 2587.472
211.5703, 2581.685
212.0524, 2570.892
212.5345, 2557.314
213.0166, 2541.044
213.4988, 2523.020
213.9809, 2506.299
214.4630, 2496.621
214.9451, 2486.116
215.4272, 2461.340
215.9093, 2418.172
216.3915, 2377.644
216.8736, 2360.096
217.3557, 2356.381
217.8378, 2350.897
218.3199, 2335.859
218.8020, 2316.288
219.2842, 2303.233
219.7663, 2300.864
220.2484, 2295.358
220.7305, 2271.771
221.2126, 2238.398
221.6947, 2212.491
222.1769, 2205.891
222.6590, 2213.269
223.1411, 2219.399
223.6232, 2227.377
224.1053, 2228.056
224.5874, 2208.847
225.0696, 2178.599
225.5517, 2158.192
226.0338, 2167.842
226.5159, 2201.070
226.9980, 2218.709
227.4801, 2207.095
227.9623, 2196.927
228.4444, 2204.417
228.9265, 2225.564
229.4086, 2249.404
229.8907, 2269.276
230.3728, 2285.304
230.8550, 2298.630
231.3371, 2304.668
231.8192, 2312.827
232.3013, 2328.422
232.7834, 2349.788
233.2655, 2371.422
233.7477, 2386.474
234.2298, 2394.399
234.7119, 2413.348
235.1940, 2460.804
235.6761, 2503.789
236.1583, 2527.794
236.6404, 2535.348
237.1225, 2537.864
237.6046, 2546.002
238.0867, 2560.987
238.5688, 2570.018
239.0510, 2571.515
239.5331, 2567.885
240.0152, 2555.994
240.4973, 2538.364
240.9794, 2522.362
241.4615, 2515.368
241.9437, 2518.885
242.4258, 2522.525
242.9079, 2538.685
243.3900, 2544.332
243.8721, 2521.602
244.3542, 2475.742
244.8364, 2428.844
245.3185, 2404.051
245.8006, 2406.411
246.2827, 2406.628
246.7648, 2401.267
247.2469, 2396.817
247.7291, 2399.031
248.2112, 2406.177
248.6933, 2410.308
249.1754, 2401.158
249.6575, 2372.439
250.1396, 2357.912
250.6218, 2372.323
251.1039, 2386.545
251.5860, 2387.895
252.0681, 2375.346
252.5502, 2353.866
253.0323, 2326.680
253.5145, 2288.987
253.9966, 2266.914
254.4787, 2267.160
254.9608, 2274.237
255.4429, 2285.084
255.9250, 2296.743
256.4072, 2303.521
256.8893, 2298.870
257.3714, 2279.759
257.8535, 2261.132
258.3356, 2246.263
258.8177, 2229.085
259.2999, 2204.602
259.7820, 2173.746
260.2641, 2142.585
260.7462, 2117.865
261.2283, 2102.250
261.7104, 2081.062
262.1926, 2046.878
262.6747, 2014.506
263.1568, 1994.894
263.6389, 1986.363
264.1210, 1977.824
264.6031, 1957.449
265.0853, 1921.195
265.5674, 1893.651
266.0495, 1879.824
266.5316, 1868.567
267.0137, 1854.899
267.4958, 1838.447
267.9780, 1820.636
268.4601, 1802.218
268.9422, 1782.218
269.4243, 1768.660
269.9064, 1767.580
270.3885, 1766.214
270.8707, 1758.107
271.3528, 1743.542
271.8349, 1726.067
272.3170, 1708.080
272.7991, 1688.738
273.2813, 1676.545
273.7634, 1673.003
274.2455, 1673.300
274.7276, 1678.047
275.2097, 1685.316
275.6918, 1690.698
276.1740, 1690.913
276.6561, 1686.071
277.1382, 1673.627
277.6203, 1643.669
278.1024, 1617.303
278.5845, 1605.097
279.0667, 1604.623
279.5488, 1606.927
280.0309, 1605.275
280.5130, 1599.574
280.9951, 1595.412
281.4772, 1587.968
281.9594, 1586.363
282.4415, 1598.969
282.9236, 1620.802
283.4057, 1639.992
283.8878, 1648.395
284.3699, 1646.360
284.8521, 1640.618
285.3342, 1626.136
285.8163, 1613.795
286.2984, 1606.707
286.7805, 1604.274
287.2626, 1605.838
287.7448, 1611.733
288.2269, 1620.708
288.7090, 1622.014
289.1911, 1604.599
289.6732, 1592.372
290.1553, 1592.705
290.6375, 1602.007
291.1196, 1614.791
291.6017, 1628.505
292.0838, 1642.066
292.5659, 1649.758
293.0480, 1644.778
293.5302, 1641.878
294.0123, 1646.736
294.4944, 1654.322
294.9765, 1656.339
295.4586, 1648.478
295.9408, 1634.795
296.4229, 1628.448
296.9050, 1637.077
297.3871, 1644.530
297.8692, 1649.457
298.3513, 1652.682
298.8335, 1654.989
299.3156, 1656.699
299.7977, 1658.115
300.2798, 1659.961
300.7619, 1662.289
301.2440, 1665.051
301.7262, 1668.019
302.2083, 1671.503
302.6904, 1675.506
303.1725, 1680.074
303.6546, 1685.813
304.1367, 1694.009
304.6189, 1708.484
305.1010, 1719.097
305.5831, 1724.970
306.0652, 1727.966
306.5473, 1727.066
307.0294, 1723.047
307.5116, 1721.215
307.9937, 1729.875
308.4758, 1755.748
308.9579, 1776.304
309.4400, 1792.108
309.9221, 1803.155
310.4043, 1804.995
310.8864, 1799.663
311.3685, 1797.567
311.8506, 1812.298
312.3327, 1850.844
312.8148, 1878.225
313.2970, 1881.168
313.7791, 1885.946
314.2612, 1908.780
314.7433, 1946.509
315.2254, 1983.744
315.7076, 2005.353
316.1897, 2009.537
316.6718, 2018.532
317.1539, 2033.997
317.6360, 2052.851
318.1181, 2078.232
318.6003, 2106.523
319.0824, 2130.112
319.5645, 2142.553
320.0466, 2144.798
320.5287, 2150.529
321.0108, 2155.857
321.4930, 2169.885
321.9751, 2203.130
322.4572, 2245.032
322.9393, 2278.792
323.4214, 2293.673
323.9035, 2294.451
324.3857, 2300.128
324.8678, 2312.873
325.3499, 2327.736
325.8320, 2342.843
326.3141, 2359.348
326.7962, 2380.070
327.2784, 2406.762
327.7605, 2434.543
328.2426, 2452.249
328.7247, 2454.225
329.2068, 2458.013
329.6889, 2465.109
330.1711, 2476.228
330.6532, 2494.064
331.1353, 2519.437
331.6174, 2545.722
332.0995, 2563.399
332.5816, 2570.981
333.0638, 2576.171
333.5459, 2577.981
334.0280, 2579.267
334.5101, 2583.283
334.9922, 2590.024
335.4743, 2593.923
335.9565, 2586.281
336.4386, 2566.507
336.9207, 2554.667
337.4028, 2558.840
337.8849, 2566.324
338.3670, 2570.612
338.8492, 2571.409
339.3313, 2569.546
339.8134, 2563.938
340.2955, 2555.582
340.7776, 2550.511
341.2597, 2552.036
341.7419, 2551.917
342.2240, 2544.887
342.7061, 2532.352
343.1882, 2517.810
343.6703, 2502.695
344.1524, 2486.625
344.6346, 2469.585
345.1167, 2452.751
345.5988, 2431.263
346.0809, 2395.814
346.5630, 2354.146
347.0451, 2319.525
347.5273, 2300.010
348.0094, 2284.496
348.4915, 2259.947
348.9736, 2226.142
349.4557, 2192.518
349.9378, 2164.626
350.4200, 2139.463
350.9021, 2110.760
351.3842, 2076.816
351.8663, 2041.979
352.3484, 2009.121
352.8305, 1977.833
353.3127, 1946.431
353.7948, 1913.062
354.2769, 1881.037
354.7590, 1856.779
355.2411, 1842.239
355.7232, 1827.321
356.2054, 1809.826
356.6875, 1789.310
357.1696, 1762.892
357.6517, 1728.431
358.1338, 1694.594
358.6159, 1673.642
359.0981, 1667.732
359.5802, 1662.012
360.0623, 1658.032
360.5444, 1651.628
361.0265, 1637.167
361.5086, 1614.458
361.9908, 1590.282
362.4729, 1570.607
362.9550, 1555.780
363.4371, 1542.854
363.9192, 1531.407
364.4013, 1522.048
364.8835, 1515.897
365.3656, 1512.322
365.8477, 1510.276
366.3298, 1509.946
366.8119, 1510.270
367.2940, 1501.013
367.7762, 1469.739
368.2583, 1443.870
368.7404, 1429.301
369.2225, 1423.841
369.7046, 1425.629
370.1867, 1433.959
370.6689, 1445.360
371.1510, 1450.592
371.6331, 1442.282
372.1152, 1438.570
372.5973, 1446.381
373.0794, 1455.124
373.5616, 1454.925
374.0437, 1443.879
374.5258, 1428.384
375.0079, 1416.049
375.4900, 1406.047
375.9721, 1402.201
376.4543, 1418.318
376.9364, 1428.628
377.4185, 1412.051
377.9006, 1375.187
378.3828, 1345.219
378.8649, 1350.827
379.3470, 1389.598
379.8291, 1406.528
380.3112, 1385.404
380.7933, 1362.190
381.2755, 1350.359
381.7576, 1346.129
382.2397, 1342.596
382.7218, 1336.537
383.2039, 1328.884
383.6860, 1320.769
384.1682, 1310.848
384.6503, 1304.593
385.1324, 1312.078
385.6145, 1320.867
386.0966, 1317.056
386.5787, 1295.146
387.0609, 1268.984
387.5430, 1250.424
388.0251, 1239.374
388.5072, 1233.614
388.9893, 1233.714
389.4714, 1238.042
389.9536, 1245.724
390.4357, 1257.198
390.9178, 1265.476
391.3999, 1267.077
391.8820, 1263.273
392.3641, 1255.637
392.8463, 1243.778
393.3284, 1230.980
393.8105, 1219.634
394.2926, 1209.864
394.7747, 1203.008
395.2568, 1202.143
395.7390, 1202.217
396.2211, 1198.761
396.7032, 1191.993
397.1853, 1185.234
397.6674, 1181.307
398.1495, 1179.113
398.6317, 1171.289
399.1138, 1150.163
399.5959, 1133.087
400.0780, 1127.632
400.5601, 1129.393
401.0422, 1130.578
401.5244, 1127.922
402.0065, 1124.236
402.4886, 1125.477
402.9707, 1136.428
403.4528, 1145.331
403.9349, 1152.726
404.4171, 1157.830
404.8992, 1158.680
405.3813, 1155.763
405.8634, 1152.765
406.3455, 1154.071
406.8276, 1160.617
407.3098, 1165.588
407.7919, 1161.040
408.2740, 1162.713
408.7561, 1181.506
409.2382, 1210.857
409.7203, 1236.612
410.2025, 1249.623
410.6846, 1252.581
411.1667, 1254.396
411.6488, 1250.840
412.1309, 1254.560
412.6130, 1273.853
413.0952, 1299.004
413.5773, 1320.645
414.0594, 1336.022
414.5415, 1347.180
415.0236, 1354.920
415.5057, 1358.991
415.9879, 1365.361
416.4700, 1370.944
416.9521, 1384.317
417.4342, 1416.191
417.9163, 1465.514
418.3984, 1511.134
418.8806, 1537.418
419.3627, 1552.483
419.8448, 1574.362
420.3269, 1605.998
420.8090, 1638.246
421.2911, 1664.590
421.7733, 1685.430
422.2554, 1703.157
422.7375, 1709.543
423.2196, 1719.875
423.7017, 1750.786
424.1838, 1797.105
424.6660, 1836.102
425.1481, 1855.007
425.6302, 1861.238
426.1123, 1877.095
426.5944, 1911.398
427.0765, 1940.241
427.5587, 1953.333
428.0408, 1961.754
428.5229, 1979.821
429.0050, 2010.344
429.4871, 2043.718
429.9692, 2067.191
430.4514, 2077.408
430.9335, 2089.656
431.4156, 2110.347
431.8977, 2126.785
432.3798, 2129.747
432.8619, 2122.990
433.3441, 2117.536
433.8262, 2121.899
434.3083, 2133.118
434.7904, 2134.718
435.2725, 2118.406
435.7546, 2105.048
436.2368, 2104.036
436.7189, 2105.532
437.2010, 2097.757
437.6831, 2076.715
438.1652, 2052.862
438.6473, 2043.512
439.1295, 2050.434
439.6116, 2043.426
440.0937, 2005.639
440.5758, 1964.316
441.0579, 1939.776
441.5400, 1930.788
442.0222, 1924.689
442.5043, 1918.649
442.9864, 1910.261
443.4685, 1893.475
443.9506, 1867.136
444.4327, 1839.189
444.9149, 1816.845
445.3970, 1796.597
445.8791, 1767.884
446.3612, 1717.788
446.8433, 1672.663
447.3254, 1652.618
447.8076, 1649.019
448.2897, 1640.148
448.7718, 1617.383
449.2539, 1587.646
449.7360, 1563.434
450.2181, 1548.478
450.7003, 1531.170
451.1824, 1509.722
451.6645, 1486.813
452.1466, 1462.779
452.6287, 1438.803
453.1108, 1418.684
453.5930, 1406.877
454.0751, 1403.418
454.5572, 1391.357
455.0393, 1356.616
455.5214, 1328.198
456.0035, 1315.198
456.4857, 1311.058
456.9678, 1306.498
457.4499, 1297.527
457.9320, 1287.358
458.4141, 1281.855
458.8962, 1282.132
459.3784, 1282.644
459.8605, 1284.745
460.3426, 1284.931
460.8247, 1279.638
461.3069, 1269.407
461.7890, 1259.724
462.2711, 1256.497
462.7532, 1256.409
463.2353, 1248.523
463.7174, 1229.645
464.1996, 1213.259
464.6817, 1212.413
465.1638, 1220.105
465.6459, 1218.604
466.1280, 1198.354
466.6101, 1177.472
467.0923, 1167.991
467.5744, 1167.102
468.0565, 1167.291
468.5386, 1165.925
469.0207, 1164.495
469.5028, 1166.267
469.9850, 1175.401
470.4671, 1176.497
470.9492, 1160.989
471.4313, 1143.183
471.9134, 1132.768
472.3955, 1130.456
472.8777, 1133.434
473.3598, 1140.293
473.8419, 1150.405
474.3240, 1156.358
474.8061, 1155.922
475.2882, 1153.611
475.7704, 1147.289
476.2525, 1140.835
476.7346, 1138.597
477.2167, 1142.031
477.6988, 1148.528
478.1809, 1156.508
478.6631, 1166.771
479.1452, 1169.680
479.6273, 1158.848
480.1094, 1145.837
480.5915, 1134.670
481.0736, 1126.918
481.5558, 1127.686
482.0379, 1149.362
482.5200, 1176.616
483.0021, 1182.572
483.4842, 1166.567
483.9663, 1151.394
484.4485, 1147.593
484.9306, 1153.044
485.4127, 1162.608
485.8948, 1182.185
486.3769, 1193.795
486.8590, 1184.893
487.3412, 1166.843
487.8233, 1154.748
488.3054, 1152.012
488.7875, 1154.795
489.2696, 1159.967
489.7517, 1168.668
490.2339, 1171.227
490.7160, 1163.048
491.1981, 1154.633
491.6802, 1152.261
492.1623, 1152.014
492.6444, 1145.026
493.1266, 1126.323
493.6087, 1104.086
494.0908, 1097.892
494.5729, 1115.036
495.0550, 1127.363
495.5371, 1125.568
496.0193, 1121.819
496.5014, 1124.894
496.9835, 1134.046
497.4656, 1140.380
497.9477, 1135.997
498.4298, 1124.387
498.9120, 1113.214
499.3941, 1101.267
499.8762, 1096.546
500.3583, 1109.264
500.8404, 1131.109
501.3225, 1142.639
501.8047, 1138.193
502.2868, 1131.394
502.7689, 1125.031
503.2510, 1121.745
503.7331, 1130.509
504.2152, 1154.201
504.6974, 1176.045
505.1795, 1174.020
505.6616, 1140.237
506.1437, 1120.672
506.6258, 1125.257
507.1079, 1132.442
507.5901, 1133.059
508.0722, 1128.761
508.5543, 1124.604
509.0364, 1123.352
509.5185, 1123.166
510.0006, 1118.394
510.4828, 1104.619
510.9649, 1097.883
511.4470, 1109.215
511.9291, 1121.403
512.4113, 1122.550
512.8934, 1113.167
513.3755, 1103.469
513.8576, 1101.428
514.3397, 1104.139
514.8218, 1103.495
515.3040, 1098.702
515.7861, 1094.250
516.2682, 1093.383
516.7503, 1094.234
517.2324, 1092.449
517.7145, 1086.942
518.1967, 1080.658
518.6788, 1071.231
519.1609, 1062.956
519.6430, 1066.271
520.1251, 1083.049
520.6072, 1098.257
521.0894, 1094.975
521.5715, 1070.416
522.0536, 1049.472
522.5357, 1029.157
523.0178, 1014.955
523.4999, 1011.968
523.9821, 1015.486
524.4642, 1018.627
524.9463, 1018.410
525.4284, 1016.267
525.9105, 1014.747
526.3926, 1014.190
526.8748, 1012.569
527.3569, 1009.546
527.8390, 1005.399
528.3211, 999.3766
528.8032, 992.1838
529.2853, 986.2319
529.7675, 982.3766
530.2496, 980.6118
530.7317, 980.3151
531.2138, 981.5756
531.6959, 987.7457
532.1780, 1003.007
532.6602, 1021.347
533.1423, 1028.901
533.6244, 1021.860
534.1065, 1017.658
534.5886, 1025.139
535.0707, 1033.287
535.5529, 1029.556
536.0350, 1014.769
536.5171, 1000.708
536.9992, 996.8095
537.4813, 1001.601
537.9634, 1002.070
538.4456, 992.2845
538.9277, 986.4454
539.4098, 991.9750
539.8919, 999.0187
540.3740, 996.2744
540.8561, 982.1504
541.3383, 968.0029
541.8204, 965.9634
542.3025, 974.2905
542.7846, 981.8629
543.2667, 990.5686
543.7488, 992.6172
544.2310, 978.2402
544.7131, 954.2117
545.1952, 933.4326
545.6773, 916.5591
546.1594, 904.8732
546.6415, 900.4099
547.1237, 901.3940
547.6058, 906.1613
548.0879, 914.4570
548.5700, 920.2514
549.0521, 915.4797
549.5342, 897.4093
550.0164, 885.8066
550.4985, 883.9817
550.9806, 883.9210
551.4627, 884.7504
551.9448, 884.7895
552.4269, 881.2996
552.9091, 873.0506
553.3912, 862.9734
553.8733, 854.7371
554.3554, 847.8163
554.8375, 846.9600
555.3196, 857.2593
555.8018, 868.6783
556.2839, 873.7670
556.7660, 874.4122
557.2481, 877.0592
557.7302, 885.0320
558.2123, 895.2150
558.6945, 906.5731
559.1766, 918.0905
559.6587, 923.5108
560.1408, 919.2900
560.6229, 911.6046
561.1050, 910.8322
561.5872, 920.9501
562.0693, 927.0328
562.5514, 922.6680
563.0335, 919.8198
563.5156, 931.5798
563.9977, 950.8939
564.4799, 958.4039
564.9620, 941.7323
565.4441, 912.2328
565.9262, 898.9431
566.4083, 908.4464
566.8904, 914.4307
567.3726, 913.0905
567.8547, 906.4978
568.3368, 893.2346
568.8189, 874.7689
569.3010, 857.9897
569.7831, 850.4478
570.2653, 844.5844
570.7474, 827.7546
571.2295, 800.6143
571.7116, 775.0530
572.1937, 755.5174
572.6758, 741.3636
573.1580, 731.8055
573.6401, 727.8648
574.1222, 725.2121
574.6043, 727.2792
575.0864, 727.4575
575.5685, 719.8073
576.0507, 705.5840
576.5328, 689.1230
577.0149, 672.3010
577.4970, 657.7990
577.9791, 656.2089
578.4612, 675.6588
578.9434, 687.9885
579.4255, 683.4213
579.9076, 673.4902
580.3897, 663.5365
580.8718, 654.4619
581.3539, 647.7031
581.8361, 645.4545
582.3182, 645.3627
582.8003, 643.1965
583.2824, 639.1039
583.7645, 637.2587
584.2466, 640.1773
584.7288, 645.7137
585.2109, 649.5951
585.6930, 653.0613
586.1751, 652.0210
586.6572, 639.2983
587.1393, 627.4195
587.6215, 627.6752
588.1036, 637.4525
588.5857, 646.0287
589.0678, 646.4097
589.5499, 641.4496
590.0320, 639.9146
590.5142, 643.3925
590.9963, 645.6642
591.4784, 645.0955
591.9605, 643.2776
592.4426, 640.1124
592.9247, 636.1443
593.4069, 634.4900
593.8890, 638.4374
594.3711, 644.3715
594.8532, 647.8246
595.3353, 648.9794
595.8174, 649.6038
596.2996, 650.5464
596.7817, 651.0974
597.2638, 649.5445
597.7459, 643.0311
598.2280, 641.2546
598.7101, 650.3343
599.1923, 658.5479
599.6744, 657.0583
600.1565, 649.0571
600.6386, 642.9028
601.1207, 643.1176
601.6028, 647.8727
602.0850, 655.0754
602.5671, 665.9430
603.0492, 671.0408
603.5313, 663.6089
604.0134, 655.9602
604.4955, 658.8892
604.9777, 670.2186
605.4598, 679.9570
605.9419, 687.1924
606.4240, 689.8909
606.9061, 681.4390
607.3882, 666.8897
607.8704, 662.3804
608.3525, 674.1445
608.8346, 690.0583
609.3167, 692.0618
609.7988, 675.2442
610.2809, 664.9720
610.7631, 664.5992
611.2452, 666.5569
611.7273, 670.1507
612.2094, 673.7817
612.6915, 675.2578
613.1736, 673.7196
613.6558, 670.6059
614.1379, 666.9313
614.6200, 662.9191
615.1021, 660.6771
615.5842, 660.7286
616.0663, 661.9721
616.5485, 664.8819
617.0306, 668.4311
617.5127, 668.4733
617.9948, 660.9775
618.4769, 654.5526
618.9590, 655.6727
619.4412, 658.2310
619.9233, 651.6646
620.4054, 635.2711
620.8875, 620.6845
621.3696, 620.5565
621.8517, 633.5653
622.3339, 636.6523
622.8160, 621.5284
623.2981, 610.3422
623.7802, 615.5076
624.2623, 622.8622
624.7444, 615.3925
625.2266, 590.9321
625.7087, 572.8783
626.1908, 584.3598
626.6729, 608.1096
627.1550, 613.7066
627.6371, 600.3683
628.1193, 583.4774
628.6014, 569.6020
629.0835, 560.1241
629.5656, 559.0432
630.0477, 575.4483
630.5298, 585.3371
631.0120, 586.0566
631.4941, 582.6143
631.9762, 576.8039
632.4583, 569.6057
632.9404, 561.8804
633.4225, 553.5464
633.9047, 546.6329
634.3868, 547.0172
634.8689, 555.3464
635.3510, 557.9197
635.8331, 548.6616
636.3152, 537.7474
636.7974, 538.5054
637.2795, 547.6677
637.7616, 546.5212
638.2437, 519.4742
638.7258, 494.6143
639.2079, 488.2351
639.6901, 494.2185
640.1722, 503.7763
640.6543, 513.8248
641.1364, 521.0101
641.6185, 520.6234
642.1006, 512.2754
642.5828, 506.8953
643.0649, 508.3399
643.5470, 506.8412
644.0291, 493.8519
644.5112, 479.4143
644.9933, 476.7412
645.4755, 488.9475
645.9576, 500.0895
646.4397, 499.7692
646.9218, 491.9009
647.4039, 480.1225
647.8860, 465.5645
648.3682, 456.7275
648.8503, 459.3676
649.3324, 469.6515
649.8145, 477.0050
650.2966, 484.4127
650.7787, 483.4150
651.2609, 464.4514
651.7430, 446.1658
652.2251, 440.0109
652.7072, 443.8156
653.1893, 450.1310
653.6714, 456.0634
654.1536, 460.1474
654.6357, 458.9220
655.1178, 452.9112
655.5999, 448.8539
656.0820, 448.4721
656.5641, 449.2657
657.0463, 448.7768
657.5284, 447.1531
658.0105, 447.2482
658.4926, 452.9030
658.9747, 455.7430
659.4568, 451.9828
659.9390, 444.3658
660.4211, 435.4677
660.9032, 426.1638
661.3853, 416.8946
661.8674, 406.7914
662.3495, 397.0881
662.8317, 396.0535
663.3138, 406.2406
663.7959, 417.2104
664.2780, 428.2354
664.7601, 436.0936
665.2422, 436.3088
665.7244, 428.3756
666.2065, 420.6461
666.6887, 415.2126
667.1708, 411.3293
667.6529, 408.4962
668.1350, 406.6866
668.6171, 405.8260
669.0992, 405.8751
669.5814, 407.3588
670.0635, 412.0068
670.5456, 421.3328
671.0277, 425.8849
671.5098, 422.2753
671.9919, 418.1090
672.4741, 418.8094
672.9562, 420.1633
673.4383, 414.0377
673.9204, 395.8729
674.4025, 382.4084
674.8846, 390.6094
675.3668, 407.5967
675.8489, 410.9277
676.3310, 399.7376
676.8131, 389.2818
677.2952, 389.5711
677.7773, 397.2124
678.2595, 401.1625
678.7416, 399.1735
679.2237, 397.6516
679.7058, 395.6827
680.1879, 395.2809
680.6700, 398.8519
681.1522, 404.8782
681.6343, 409.7516
682.1164, 412.5760
682.5985, 412.3653
683.0806, 406.3076
683.5627, 396.2384
684.0449, 387.3572
