##NAMES=Tinzenite
##RRUFFID=R110064
##IDEAL CHEMISTRY=Ca_2_Mn^2+^_4_Al_4_[B_2_Si_8_O_30_](OH)_2_
##LOCALITY=Gambatesa mine, Val Graveglia, Genova, Italy
##OWNER=RRUFF
##SOURCE=Renato & Adriana Pagano
##DESCRIPTION=Parallel aggregates of orange platy crystals
##STATUS=The identification of this mineral has been confirmed by single-crystal X-ray diffraction.
##URL=rruff.info/R110064
179.3488, 317.2304
179.8309, 316.7984
180.3130, 316.8258
180.7951, 317.7699
181.2772, 318.1029
181.7593, 317.2173
182.2415, 316.1940
182.7236, 315.9799
183.2057, 316.7481
183.6878, 317.7821
184.1699, 317.9399
184.6520, 316.3154
185.1342, 315.6606
185.6163, 316.4019
186.0984, 317.9764
186.5805, 319.8434
187.0626, 321.8512
187.5447, 324.1645
188.0269, 326.5796
188.5090, 329.4405
188.9911, 332.4849
189.4732, 335.6750
189.9553, 339.0272
190.4374, 342.4955
190.9196, 346.0548
191.4017, 349.8454
191.8838, 354.2169
192.3659, 359.1743
192.8480, 364.0849
193.3301, 369.0869
193.8123, 373.9040
194.2944, 377.4795
194.7765, 379.1450
195.2586, 379.8480
195.7407, 380.6922
196.2228, 381.6787
196.7050, 382.5988
197.1871, 383.0573
197.6692, 383.1025
198.1513, 383.8007
198.6334, 385.3426
199.1155, 387.7325
199.5977, 391.0654
200.0798, 395.3221
200.5619, 400.0724
201.0440, 405.0633
201.5261, 410.3995
202.0082, 415.4792
202.4904, 419.9232
202.9725, 424.3310
203.4546, 429.2304
203.9367, 434.5872
204.4188, 439.7647
204.9009, 444.2585
205.3831, 448.6040
205.8652, 450.4161
206.3473, 448.6063
206.8294, 445.2959
207.3115, 441.5031
207.7936, 437.4688
208.2758, 432.9118
208.7579, 427.4699
209.2400, 421.0250
209.7221, 413.8159
210.2042, 404.7406
210.6863, 395.8213
211.1685, 388.5875
211.6506, 383.2504
212.1327, 378.7303
212.6148, 373.3938
213.0969, 366.5572
213.5790, 360.4416
214.0612, 355.3109
214.5433, 350.6891
215.0254, 346.1011
215.5075, 341.4841
215.9896, 337.1018
216.4717, 333.4359
216.9539, 330.9882
217.4360, 328.0098
217.9181, 324.2121
218.4002, 319.9962
218.8823, 315.5303
219.3644, 310.8623
219.8466, 306.4289
220.3287, 303.0392
220.8108, 300.9666
221.2929, 298.2431
221.7750, 293.6887
222.2571, 288.6942
222.7393, 285.1143
223.2214, 283.4419
223.7035, 282.5556
224.1856, 281.2300
224.6677, 279.5128
225.1498, 277.6824
225.6320, 275.3568
226.1141, 273.0708
226.5962, 271.7285
227.0783, 271.5511
227.5604, 272.1169
228.0425, 273.3590
228.5247, 275.0948
229.0068, 276.5863
229.4889, 277.7074
229.9710, 278.3634
230.4531, 278.0893
230.9352, 276.2629
231.4174, 274.7407
231.8995, 274.8925
232.3816, 276.4005
232.8637, 278.5793
233.3458, 282.0030
233.8279, 285.9351
234.3101, 287.7180
234.7922, 285.9323
235.2743, 284.2426
235.7564, 284.7140
236.2385, 286.7676
236.7206, 289.2779
237.2028, 291.4721
237.6849, 293.5989
238.1670, 296.9572
238.6491, 302.7668
239.1312, 307.9702
239.6133, 311.1469
240.0955, 313.0028
240.5776, 314.7871
241.0597, 317.2607
241.5418, 320.2303
242.0239, 322.6554
242.5060, 323.9578
242.9882, 325.5154
243.4703, 328.4108
243.9524, 331.6690
244.4345, 333.7885
244.9166, 333.7594
245.3987, 332.1013
245.8809, 331.3088
246.3630, 332.5011
246.8451, 333.1227
247.3272, 332.2918
247.8093, 330.7207
248.2914, 329.3224
248.7736, 328.5915
249.2557, 328.3846
249.7378, 328.1190
250.2199, 327.5644
250.7020, 327.2544
251.1841, 327.7189
251.6663, 328.3116
252.1484, 328.1103
252.6305, 326.6500
253.1126, 324.4795
253.5947, 323.3261
254.0768, 325.2016
254.5590, 325.6617
255.0411, 322.9878
255.5232, 319.3393
256.0053, 317.0856
256.4874, 317.2354
256.9695, 319.0791
257.4517, 320.9013
257.9338, 322.7321
258.4159, 324.5065
258.8980, 326.0364
259.3801, 327.5926
259.8622, 329.5485
260.3444, 332.0223
260.8265, 334.7150
261.3086, 337.0518
261.7907, 338.6642
262.2728, 340.5119
262.7549, 343.0733
263.2371, 345.6561
263.7192, 347.4446
264.2013, 348.2458
264.6834, 348.6585
265.1655, 349.6117
265.6476, 351.5773
266.1298, 352.8831
266.6119, 352.7426
267.0940, 352.3525
267.5761, 352.9027
268.0582, 354.6126
268.5403, 356.7823
269.0225, 358.7398
269.5046, 360.5508
269.9867, 361.4740
270.4688, 360.2651
270.9509, 358.9227
271.4330, 359.2114
271.9152, 361.3154
272.3973, 364.3292
272.8794, 367.8208
273.3615, 371.7896
273.8436, 373.9391
274.3257, 373.4611
274.8079, 371.7088
275.2900, 369.7560
275.7721, 367.6304
276.2542, 364.7035
276.7363, 360.2926
277.2184, 354.5047
277.7006, 348.8920
278.1827, 343.9464
278.6648, 338.8242
279.1469, 332.4320
279.6290, 325.0240
280.1111, 318.5057
280.5933, 314.0811
281.0754, 311.5273
281.5575, 309.3429
282.0396, 307.4075
282.5217, 305.9772
283.0038, 305.4083
283.4860, 305.5707
283.9681, 305.6352
284.4502, 304.7831
284.9323, 304.0635
285.4144, 305.5688
285.8965, 310.0146
286.3787, 314.7965
286.8608, 318.7392
287.3429, 321.8967
287.8250, 324.3548
288.3071, 325.6963
288.7892, 326.9631
289.2714, 329.8001
289.7535, 334.3575
290.2356, 338.8734
290.7177, 342.2049
291.1998, 344.8615
291.6819, 348.3788
292.1641, 353.4252
292.6462, 358.7622
293.1283, 362.7918
293.6104, 365.6847
294.0925, 369.0212
294.5746, 373.1552
295.0568, 378.1860
295.5389, 384.6385
296.0210, 393.0207
296.5031, 401.4738
296.9852, 408.1943
297.4673, 413.7015
297.9495, 419.3534
298.4316, 426.6897
298.9137, 433.9762
299.3958, 438.1706
299.8779, 438.6866
300.3600, 438.6520
300.8422, 439.9317
301.3243, 442.0955
301.8064, 444.4785
302.2885, 446.9522
302.7706, 449.6029
303.2527, 452.6411
303.7349, 456.1136
304.2170, 459.5099
304.6991, 462.8860
305.1812, 465.8652
305.6633, 468.2515
306.1454, 470.5104
306.6276, 470.9046
307.1097, 467.8963
307.5918, 461.5629
308.0739, 452.8276
308.5560, 441.3336
309.0381, 427.9834
309.5203, 413.5265
310.0024, 397.7225
310.4845, 382.8836
310.9666, 371.1928
311.4487, 362.0316
311.9308, 352.1904
312.4130, 340.0453
312.8951, 328.7254
313.3772, 321.2411
313.8593, 317.1508
314.3414, 314.1436
314.8235, 311.0274
315.3057, 308.1354
315.7878, 306.3886
316.2699, 306.1092
316.7520, 306.4248
317.2341, 306.8628
317.7162, 307.3919
318.1984, 307.9551
318.6805, 308.3461
319.1626, 308.8448
319.6447, 310.0873
320.1268, 312.2734
320.6089, 314.2011
321.0911, 314.9004
321.5732, 314.9978
322.0553, 315.4082
322.5374, 316.6439
323.0195, 317.7034
323.5016, 317.5062
323.9838, 316.0468
324.4659, 314.0829
324.9480, 311.4877
325.4301, 308.8186
325.9122, 306.7192
326.3943, 305.2231
326.8765, 304.2016
327.3586, 303.7863
327.8407, 303.8517
328.3228, 303.6479
328.8049, 302.7514
329.2870, 301.9014
329.7692, 301.9482
330.2513, 302.8105
330.7334, 303.6373
331.2155, 303.4650
331.6976, 303.0112
332.1797, 304.0728
332.6619, 307.1103
333.1440, 310.8981
333.6261, 314.9742
334.1082, 319.0784
334.5903, 322.4932
335.0724, 324.2931
335.5546, 325.6128
336.0367, 328.0704
336.5188, 331.7736
337.0009, 335.3792
337.4830, 337.5628
337.9651, 339.3517
338.4473, 342.7484
338.9294, 348.8131
339.4115, 355.1823
339.8936, 359.6957
340.3757, 362.6383
340.8578, 366.0742
341.3400, 371.1011
341.8221, 376.6747
342.3042, 381.2159
342.7863, 384.6412
343.2684, 387.7342
343.7505, 391.3547
344.2327, 394.9143
344.7148, 396.6275
345.1969, 395.5873
345.6790, 394.0699
346.1611, 395.0370
346.6432, 398.0699
347.1254, 400.7732
347.6075, 402.3165
348.0896, 403.2988
348.5717, 404.5565
349.0538, 406.1904
349.5359, 407.3971
350.0181, 407.5507
350.5002, 406.7240
350.9823, 405.5542
351.4644, 405.2311
351.9465, 403.5839
352.4286, 399.2732
352.9108, 392.4098
353.3929, 383.2155
353.8750, 371.3537
354.3571, 357.6520
354.8392, 344.0592
355.3214, 330.1952
355.8035, 317.2308
356.2856, 305.4998
356.7677, 295.0104
357.2498, 285.9904
357.7319, 278.6057
358.2141, 272.0670
358.6962, 264.9152
359.1783, 256.6928
359.6604, 250.7407
360.1425, 249.1619
360.6246, 248.9265
361.1068, 247.1506
361.5889, 243.5955
362.0710, 239.8452
362.5531, 237.0693
363.0352, 235.3288
363.5173, 234.5100
363.9995, 235.6208
364.4816, 236.5620
364.9637, 235.9903
365.4458, 234.4248
365.9279, 233.2329
366.4100, 233.1204
366.8922, 233.8680
367.3743, 234.8089
367.8564, 236.2031
368.3385, 237.4096
368.8206, 238.3643
369.3027, 239.0818
369.7849, 239.3426
370.2670, 239.1327
370.7491, 239.1152
371.2312, 240.2932
371.7133, 243.2696
372.1954, 245.6162
372.6776, 247.1367
373.1597, 248.2439
373.6418, 248.9848
374.1239, 249.5032
374.6060, 250.1059
375.0881, 251.0037
375.5703, 252.2051
376.0524, 254.0501
376.5345, 257.0061
377.0166, 260.0627
377.4987, 263.2961
377.9808, 266.4243
378.4630, 269.0090
378.9451, 270.8451
379.4272, 272.2479
379.9093, 273.9018
380.3914, 275.4271
380.8735, 277.9617
381.3557, 281.9071
381.8378, 286.4843
382.3199, 291.1155
382.8020, 295.7477
383.2841, 300.7022
383.7662, 306.3394
384.2484, 312.7479
384.7305, 319.3641
385.2126, 326.9662
385.6947, 334.0430
386.1768, 340.1999
386.6589, 345.4428
387.1411, 350.0025
387.6232, 354.1502
388.1053, 357.5512
388.5874, 358.8432
389.0695, 357.0977
389.5516, 354.8913
390.0338, 352.9940
390.5159, 350.8871
390.9980, 347.9974
391.4801, 344.1681
391.9622, 339.9612
392.4443, 336.0302
392.9265, 332.4190
393.4086, 328.7040
393.8907, 324.2901
394.3728, 320.3315
394.8549, 317.8681
395.3370, 316.5479
395.8192, 314.9930
396.3013, 311.8088
396.7834, 307.7252
397.2655, 305.3739
397.7476, 305.3777
398.2297, 305.5087
398.7119, 304.3149
399.1940, 302.6282
399.6761, 301.6112
400.1582, 301.8270
400.6403, 302.1725
401.1224, 301.1684
401.6046, 298.9296
402.0867, 297.5931
402.5688, 297.9927
403.0509, 299.3973
403.5330, 300.8535
404.0151, 302.3473
404.4973, 304.1675
404.9794, 306.2041
405.4615, 308.7140
405.9436, 312.2110
406.4257, 316.7683
406.9078, 322.0048
407.3900, 327.6799
407.8721, 333.7960
408.3542, 340.3286
408.8363, 347.0735
409.3184, 354.4004
409.8005, 362.7547
410.2827, 371.9159
410.7648, 381.0070
411.2469, 389.6310
411.7290, 397.9818
412.2111, 406.6136
412.6932, 416.2164
413.1754, 424.3876
413.6575, 431.0732
414.1396, 435.9302
414.6217, 438.3700
415.1038, 438.3710
415.5859, 436.8830
416.0681, 434.9782
416.5502, 432.8190
417.0323, 427.7767
417.5144, 417.6020
417.9965, 407.3973
418.4786, 399.0346
418.9608, 392.1929
419.4429, 385.9522
419.9250, 379.8603
420.4071, 373.9676
420.8892, 368.4297
421.3713, 363.7573
421.8535, 358.7027
422.3356, 352.6172
422.8177, 346.5648
423.2998, 341.2213
423.7819, 336.7460
424.2640, 333.1805
424.7462, 330.7396
425.2283, 329.5207
425.7104, 327.8308
426.1925, 325.2836
426.6746, 322.6490
427.1567, 320.0763
427.6389, 317.5746
428.1210, 315.2367
428.6031, 313.1651
429.0852, 311.0287
429.5673, 308.0677
430.0494, 304.0112
430.5316, 300.1008
431.0137, 296.7576
431.4958, 293.5927
431.9779, 290.1006
432.4600, 286.3560
432.9421, 283.3963
433.4243, 282.2734
433.9064, 282.6494
434.3885, 283.0903
434.8706, 283.5803
435.3527, 284.0208
435.8348, 284.1636
436.3170, 284.2425
436.7991, 284.6919
437.2812, 285.7137
437.7633, 286.9995
438.2454, 288.2593
438.7275, 289.5213
439.2097, 290.9374
439.6918, 292.5211
440.1739, 294.3297
440.6560, 296.5297
441.1381, 299.1537
441.6202, 301.7032
442.1024, 304.1516
442.5845, 306.3890
443.0666, 308.4057
443.5487, 310.1677
444.0308, 311.3219
444.5129, 311.6446
444.9951, 311.1050
445.4772, 309.6021
445.9593, 307.7491
446.4414, 304.4212
446.9235, 298.1289
447.4056, 290.4741
447.8878, 283.7910
448.3699, 278.8766
448.8520, 275.0091
449.3341, 271.0147
449.8162, 266.4612
450.2983, 263.1517
450.7805, 262.0236
451.2626, 261.0828
451.7447, 259.2029
452.2268, 256.6074
452.7089, 254.1363
453.1910, 252.3755
453.6732, 251.1497
454.1553, 249.7190
454.6374, 247.8135
455.1195, 246.1714
455.6016, 245.4045
456.0837, 244.6059
456.5659, 242.8306
457.0480, 239.9743
457.5301, 237.0083
458.0122, 234.9589
458.4943, 233.8017
458.9764, 232.7176
459.4586, 231.9388
459.9407, 230.8267
460.4228, 228.4692
460.9049, 225.6856
461.3870, 224.0056
461.8691, 224.2254
462.3513, 225.3254
462.8334, 226.1972
463.3155, 226.8475
463.7976, 227.4235
464.2797, 227.8817
464.7618, 228.3946
465.2440, 229.1484
465.7261, 230.1339
466.2082, 231.3369
466.6903, 232.9690
467.1724, 234.7050
467.6545, 235.9105
468.1367, 236.6005
468.6188, 237.8877
469.1009, 240.7653
469.5830, 244.7643
470.0651, 247.5769
470.5472, 248.6794
471.0294, 249.4271
471.5115, 249.5967
471.9936, 249.8300
472.4757, 251.0414
472.9578, 253.4290
473.4399, 256.3861
473.9221, 259.2162
474.4042, 261.8957
474.8863, 264.5722
475.3684, 266.9823
475.8505, 269.6859
476.3326, 272.4431
476.8148, 275.7199
477.2969, 280.3902
477.7790, 286.8731
478.2611, 294.4735
478.7432, 301.6471
479.2253, 308.1256
479.7075, 314.8627
480.1896, 322.1341
480.6717, 329.5209
481.1538, 336.9555
481.6359, 344.3306
482.1180, 351.4541
482.6002, 358.6201
483.0823, 365.2923
483.5644, 370.0797
484.0465, 372.9136
484.5286, 374.0255
485.0107, 374.1884
485.4929, 372.1638
485.9750, 366.0591
486.4571, 355.2280
486.9392, 342.7963
487.4213, 329.9108
487.9034, 316.8717
488.3856, 304.2107
488.8677, 291.8149
489.3498, 280.6120
489.8319, 271.4417
490.3140, 264.3813
490.7961, 258.5054
491.2783, 254.7151
491.7604, 251.0904
492.2425, 246.6730
492.7246, 241.8010
493.2067, 236.8506
493.6888, 231.9666
494.1710, 227.7647
494.6531, 225.3178
495.1352, 225.1037
495.6173, 225.2763
496.0994, 226.8274
496.5815, 227.7547
497.0637, 226.3286
497.5458, 223.5647
498.0279, 221.7484
498.5100, 222.2226
498.9921, 224.1259
499.4742, 225.3745
499.9564, 225.9498
500.4385, 225.8772
500.9206, 224.5671
501.4027, 223.0819
501.8848, 221.7852
502.3669, 220.8436
502.8491, 220.6948
503.3312, 222.4608
503.8133, 225.0513
504.2954, 225.2601
504.7775, 222.6698
505.2596, 219.6411
505.7418, 216.8513
506.2239, 214.4899
506.7060, 212.8604
507.1881, 212.1355
507.6702, 211.5043
508.1523, 210.6635
508.6345, 209.6213
509.1166, 208.3141
509.5987, 206.7267
510.0808, 205.1817
510.5629, 204.0114
511.0450, 203.1522
511.5272, 201.8286
512.0093, 199.2619
512.4914, 197.2073
512.9735, 196.4779
513.4556, 196.4230
513.9377, 196.1557
514.4199, 195.4492
514.9020, 194.7270
515.3841, 194.6032
515.8662, 195.2540
516.3483, 195.2958
516.8304, 193.9411
517.3126, 192.8037
517.7947, 192.3457
518.2768, 192.3884
518.7589, 192.7851
519.2410, 193.5100
519.7231, 194.0758
520.2053, 193.6040
520.6874, 192.0012
521.1695, 190.7487
521.6516, 190.1849
522.1337, 189.8348
522.6158, 189.1073
523.0980, 188.2845
523.5801, 188.2268
524.0622, 189.7957
524.5443, 191.7075
525.0264, 192.4905
525.5085, 192.3404
525.9907, 192.4405
526.4728, 193.3321
526.9549, 194.3609
527.4370, 194.3712
527.9191, 193.0901
528.4012, 192.6071
528.8834, 193.8039
529.3655, 195.2839
529.8476, 196.0152
530.3297, 196.1915
530.8118, 196.4888
531.2939, 197.2519
531.7761, 198.4726
532.2582, 200.2389
532.7403, 203.5561
533.2224, 205.5016
533.7045, 205.3292
534.1866, 204.5692
534.6688, 203.7326
535.1509, 203.0904
535.6330, 203.1161
536.1151, 204.3591
536.5972, 206.1621
537.0793, 206.5178
537.5615, 204.9070
538.0436, 203.9930
538.5257, 205.0098
539.0078, 206.7052
539.4899, 208.2746
539.9720, 209.6406
540.4542, 210.2783
540.9363, 209.1763
541.4184, 207.5690
541.9005, 207.4562
542.3826, 208.8233
542.8647, 210.0145
543.3469, 210.1669
543.8290, 209.5968
544.3111, 209.0266
544.7932, 208.1993
545.2753, 207.9493
545.7574, 208.7941
546.2396, 209.9756
546.7217, 211.2184
547.2038, 212.2507
547.6859, 212.2781
548.1680, 210.5942
548.6501, 207.7558
549.1323, 206.2556
549.6144, 206.6945
550.0965, 207.5129
550.5786, 208.7323
551.0607, 210.0605
551.5428, 211.4971
552.0250, 212.9028
552.5071, 213.7695
552.9892, 213.2789
553.4713, 212.1274
553.9534, 212.4821
554.4355, 214.6038
554.9177, 216.9724
555.3998, 219.3652
555.8819, 221.4085
556.3640, 222.4346
556.8461, 222.2461
557.3282, 222.5919
557.8104, 224.7476
558.2925, 227.4509
558.7746, 229.3436
559.2567, 230.3342
559.7388, 230.4701
560.2209, 229.5465
560.7031, 228.1643
561.1852, 228.2309
561.6673, 230.3400
562.1494, 233.1926
562.6315, 238.0591
563.1136, 242.6597
563.5958, 244.7863
564.0779, 244.9606
564.5600, 245.5563
565.0421, 248.3861
565.5242, 252.6409
566.0063, 255.5313
566.4885, 256.5517
566.9706, 257.6358
567.4527, 258.8874
567.9348, 260.6222
568.4169, 263.3316
568.8990, 266.8712
569.3812, 270.3105
569.8633, 273.2665
570.3454, 275.7541
570.8275, 277.7570
571.3096, 279.2793
571.7917, 280.3981
572.2739, 281.0860
572.7560, 281.5036
573.2381, 281.9401
573.7202, 282.4418
574.2023, 282.7964
574.6844, 283.4540
575.1666, 283.5544
575.6487, 282.1937
576.1308, 279.7788
576.6129, 277.2064
577.0950, 274.8892
577.5771, 273.1889
578.0593, 273.1352
578.5414, 275.7038
579.0235, 277.2451
579.5056, 277.1156
579.9877, 276.3358
580.4698, 274.7635
580.9520, 272.9172
581.4341, 271.8031
581.9162, 271.8655
582.3983, 272.8680
582.8804, 274.8111
583.3625, 277.5959
583.8447, 280.0777
584.3268, 281.9475
584.8089, 283.5358
585.2910, 284.9750
585.7731, 286.3205
586.2552, 288.1640
586.7374, 291.5683
587.2195, 294.4266
587.7016, 295.7311
588.1837, 295.7150
588.6658, 294.8737
589.1479, 293.3449
589.6301, 290.7626
590.1122, 286.4380
590.5943, 280.0882
591.0764, 274.7229
591.5585, 271.0457
592.0406, 267.5604
592.5228, 264.5044
593.0049, 261.1653
593.4870, 256.4346
593.9691, 250.0602
594.4512, 243.7087
594.9333, 238.6468
595.4155, 234.8602
595.8976, 232.5771
596.3797, 232.0993
596.8618, 231.8653
597.3439, 231.2112
597.8260, 230.0775
598.3082, 228.3731
598.7903, 225.7944
599.2724, 223.4198
599.7545, 221.3032
600.2366, 219.7408
600.7188, 219.2993
601.2009, 219.8476
601.6830, 220.5872
602.1651, 221.0113
602.6472, 221.1400
603.1293, 221.0216
603.6115, 220.4332
604.0936, 220.0068
604.5757, 219.5710
605.0578, 219.4714
605.5399, 220.2368
606.0220, 221.5614
606.5042, 222.4518
606.9863, 222.0839
607.4684, 221.3942
607.9505, 222.2925
608.4326, 224.7170
608.9147, 226.0177
609.3969, 225.1833
609.8790, 223.6037
610.3611, 222.5996
610.8432, 222.1430
611.3253, 222.1252
611.8074, 223.1788
612.2896, 223.9982
612.7717, 223.7945
613.2538, 222.9196
613.7359, 221.8575
614.2180, 220.7901
614.7001, 219.9138
615.1823, 219.4122
615.6644, 219.2712
616.1465, 219.8242
616.6286, 221.7920
617.1107, 223.4602
617.5928, 224.4321
618.0750, 224.8880
618.5571, 225.0270
619.0392, 224.8821
619.5213, 224.3169
620.0034, 223.0866
620.4855, 221.4004
620.9677, 219.6501
621.4498, 217.8516
621.9319, 216.2085
622.4140, 215.0042
622.8961, 213.8267
623.3782, 211.6476
623.8604, 208.0693
624.3425, 204.8930
624.8246, 202.5183
625.3067, 200.4486
625.7888, 198.5587
626.2709, 196.6805
626.7531, 194.4646
627.2352, 191.7464
627.7173, 188.7390
628.1994, 185.5910
628.6815, 181.9923
629.1636, 179.9985
629.6458, 180.8047
630.1279, 181.8728
630.6100, 182.0031
631.0921, 181.4899
631.5742, 180.8484
632.0563, 180.2232
632.5385, 179.4359
633.0206, 177.7921
633.5027, 176.0395
633.9848, 176.0209
634.4669, 177.9580
634.9490, 179.8813
635.4312, 180.3505
635.9133, 179.6539
636.3954, 179.1526
636.8775, 179.0548
637.3596, 178.8841
637.8417, 178.6877
638.3239, 178.3657
638.8060, 177.7155
639.2881, 176.8616
639.7702, 176.1795
640.2523, 175.9055
640.7344, 175.8946
641.2166, 175.7933
641.6987, 175.5777
642.1808, 175.9306
642.6629, 177.4469
643.1450, 178.8153
643.6271, 178.4256
644.1093, 176.8132
644.5914, 175.9519
645.0735, 176.7562
645.5556, 177.6259
646.0377, 177.9306
646.5198, 177.7990
647.0020, 177.3619
647.4841, 176.6697
647.9662, 175.7400
648.4483, 174.4941
648.9304, 173.0740
649.4125, 172.4960
649.8947, 173.1976
650.3768, 173.9405
650.8589, 174.6076
651.3410, 175.1620
651.8231, 175.5794
652.3052, 175.8563
652.7874, 176.0020
653.2695, 176.1011
653.7516, 175.9943
654.2337, 175.0286
654.7158, 173.5550
655.1979, 173.5493
655.6801, 175.8223
656.1622, 178.1936
656.6443, 178.0725
657.1264, 175.2676
657.6085, 173.6825
658.0906, 173.9477
658.5728, 174.4586
659.0549, 174.8179
659.5370, 175.2467
660.0191, 176.0667
660.5012, 177.2755
660.9833, 178.5361
661.4655, 179.6134
661.9476, 180.5147
662.4297, 181.0394
662.9118, 181.0498
663.3939, 181.8107
663.8760, 184.0058
664.3582, 186.7552
664.8403, 188.9326
665.3224, 190.5984
665.8045, 192.6765
666.2866, 195.9750
666.7687, 199.0291
667.2509, 200.9068
667.7330, 202.0210
668.2151, 202.6263
668.6972, 202.9867
669.1793, 204.3663
669.6614, 208.4201
670.1436, 214.8757
670.6257, 219.7001
671.1078, 222.1343
671.5899, 224.5334
672.0720, 227.1931
672.5541, 230.3524
673.0363, 234.7270
673.5184, 240.1236
674.0005, 244.6347
674.4826, 246.3935
674.9647, 247.7885
675.4468, 251.5689
675.9290, 256.9984
676.4111, 261.7622
