##NAMES=Tinzenite
##RRUFFID=R050251
##IDEAL CHEMISTRY=Ca_2_Mn^2+^_4_Al_4_[B_2_Si_8_O_30_](OH)_2_
##LOCALITY=Tinzen, Sursass Valley, Switzerland
##OWNER=RRUFF
##SOURCE=Marcus Origlieri
##DESCRIPTION=Aggregate of yellowish orange prismatic crystals associated with quartz
##STATUS=The identification of this mineral has been confirmed by X-ray diffraction and chemical analysis
##URL=rruff.info/R050251
##MEASURED CHEMISTRY=(Ca_2.96_Mn_2.84_Fe^2+^_0.14_Mg_0.06_)_Î£=6_Al_4.00_[B_2.00_Si_8.00_O_30_](OH)_2_; H_2_O assumed ideal from stoichiometry; B_2_O_3_ estimated by difference
92.52344, 213.3710
93.00555, 210.9201
93.48767, 210.5672
93.96979, 214.1295
94.45190, 216.0036
94.93402, 214.5157
95.41614, 211.7383
95.89825, 209.0395
96.38037, 206.9139
96.86249, 205.2908
97.34460, 204.3477
97.82672, 204.6178
98.30884, 205.1459
98.79095, 205.3418
99.27307, 205.1030
99.75519, 205.0255
100.2373, 206.4144
100.7194, 209.9186
101.2015, 213.4839
101.6837, 218.2801
102.1658, 222.5378
102.6479, 224.4632
103.1300, 223.4814
103.6121, 220.6765
104.0942, 217.6956
104.5764, 214.5183
105.0585, 211.2176
105.5406, 207.8782
106.0227, 204.4216
106.5048, 200.6530
106.9869, 196.6090
107.4691, 191.9590
107.9512, 186.3886
108.4333, 179.7176
108.9154, 172.5457
109.3975, 165.2881
109.8796, 157.7890
110.3618, 150.8343
110.8439, 144.6658
111.3260, 139.0912
111.8081, 134.0315
112.2902, 129.4653
112.7723, 125.4084
113.2544, 121.9377
113.7366, 118.9981
114.2187, 116.8648
114.7008, 115.9145
115.1829, 115.6875
115.6650, 115.5237
116.1471, 114.9343
116.6293, 113.9140
117.1114, 113.6162
117.5935, 114.3483
118.0756, 115.3737
118.5577, 116.5422
119.0398, 117.7930
119.5220, 119.0581
120.0041, 120.2489
120.4862, 121.3472
120.9683, 122.6079
121.4504, 124.1001
121.9325, 125.7088
122.4147, 127.4774
122.8968, 129.4635
123.3789, 131.1891
123.8610, 131.6356
124.3431, 131.0473
124.8252, 130.9881
125.3074, 132.2307
125.7895, 134.4234
126.2716, 136.6208
126.7537, 138.7494
127.2358, 140.6888
127.7179, 142.3779
128.2001, 143.8168
128.6822, 145.1304
129.1643, 146.2930
129.6464, 147.2582
130.1285, 148.5622
130.6107, 150.5129
131.0928, 152.6978
131.5749, 154.8926
132.0570, 157.0599
132.5391, 159.3606
133.0212, 161.9986
133.5034, 164.9577
133.9855, 168.4005
134.4676, 172.7083
134.9497, 177.2154
135.4318, 181.3778
135.9139, 184.9730
136.3960, 188.1706
136.8782, 191.3949
137.3603, 195.7702
137.8424, 198.8524
138.3245, 200.5373
138.8066, 200.7837
139.2887, 199.4596
139.7709, 196.4632
140.2530, 191.8672
140.7351, 186.0660
141.2172, 177.9895
141.6993, 170.0658
142.1814, 163.2034
142.6636, 157.3704
143.1457, 152.3732
143.6278, 148.3366
144.1099, 145.1243
144.5920, 142.0293
145.0741, 139.3082
145.5563, 136.5008
146.0384, 132.9902
146.5205, 128.6372
147.0026, 124.4022
147.4847, 120.9312
147.9668, 117.9324
148.4490, 115.0698
148.9311, 112.1385
149.4132, 109.3025
149.8953, 107.0237
150.3774, 105.5071
150.8595, 104.2537
151.3417, 103.0302
151.8238, 101.8829
152.3059, 100.8925
152.7880, 100.1259
153.2701, 99.57143
153.7522, 99.11482
154.2344, 98.88358
154.7165, 98.64321
155.1986, 98.29472
155.6807, 97.88158
156.1628, 97.48257
156.6449, 97.12212
157.1271, 96.71817
157.6092, 96.96581
158.0913, 98.63123
158.5734, 100.1664
159.0555, 100.6750
159.5376, 100.2134
160.0198, 99.56216
160.5019, 99.60524
160.9840, 100.6799
161.4661, 101.1231
161.9482, 100.4119
162.4303, 99.42915
162.9125, 98.88860
163.3946, 98.92270
163.8767, 99.21070
164.3588, 99.33437
164.8409, 99.25571
165.3230, 99.41971
165.8052, 100.2725
166.2873, 101.3240
166.7694, 101.7678
167.2515, 101.3370
167.7336, 100.5135
168.2157, 99.77967
168.6979, 99.12876
169.1800, 98.56387
169.6621, 98.24844
170.1442, 98.07073
170.6263, 97.51153
171.1084, 96.22912
171.5906, 94.81130
172.0727, 93.82967
172.5548, 93.24890
173.0369, 92.55097
173.5190, 91.13255
174.0011, 88.92902
174.4833, 87.15964
174.9654, 86.42707
175.4475, 85.88292
175.9296, 85.03893
176.4117, 83.88173
176.8938, 82.80238
177.3760, 82.37925
177.8581, 82.96299
178.3402, 83.13449
178.8223, 82.51196
179.3044, 81.72031
179.7865, 81.02140
180.2687, 80.51511
180.7508, 80.26763
181.2329, 80.43198
181.7150, 81.44460
182.1971, 82.13419
182.6792, 82.29253
183.1614, 82.28894
183.6435, 82.35087
184.1256, 82.56602
184.6077, 82.97269
185.0898, 83.65737
185.5719, 85.04501
186.0541, 86.10659
186.5362, 86.37937
187.0183, 86.46891
187.5004, 87.16505
187.9825, 88.78664
188.4646, 90.86330
188.9468, 92.33717
189.4289, 92.88052
189.9110, 93.60524
190.3931, 94.92811
190.8752, 96.57580
191.3573, 98.05640
191.8395, 99.17271
192.3216, 100.0604
192.8037, 100.9703
193.2858, 101.8952
193.7679, 102.8484
194.2500, 103.9721
194.7322, 105.1670
195.2143, 106.0230
195.6964, 106.2092
196.1785, 106.1608
196.6606, 106.4382
197.1427, 107.0438
197.6249, 107.9563
198.1070, 109.3913
198.5891, 111.3194
199.0712, 112.8434
199.5533, 113.3489
200.0354, 113.5783
200.5176, 114.1763
200.9997, 115.2362
201.4818, 116.3868
201.9639, 117.1973
202.4460, 117.6019
202.9281, 118.0967
203.4103, 118.7387
203.8924, 119.5452
204.3745, 120.6999
204.8566, 122.2235
205.3387, 123.6555
205.8208, 124.3605
206.3030, 124.1967
206.7851, 123.6700
207.2672, 122.6878
207.7493, 121.5107
208.2314, 120.3186
208.7135, 119.1549
209.1957, 117.9316
209.6778, 116.4695
210.1599, 114.5459
210.6420, 112.8192
211.1241, 111.3516
211.6062, 110.0375
212.0884, 108.9033
212.5705, 107.9252
213.0526, 106.8948
213.5347, 105.4061
214.0168, 102.9014
214.4989, 100.7588
214.9811, 99.18995
215.4632, 97.83414
215.9453, 96.31452
216.4274, 94.52140
216.9095, 92.72146
217.3916, 91.40276
217.8737, 90.93245
218.3559, 90.39977
218.8380, 89.81836
219.3201, 89.15246
219.8022, 88.29903
220.2843, 87.22145
220.7664, 86.10487
221.2486, 85.28555
221.7307, 84.81868
222.2128, 84.46562
222.6949, 84.38376
223.1770, 84.34037
223.6591, 83.93834
224.1413, 83.01592
224.6234, 81.96570
225.1055, 81.48418
225.5876, 81.60735
226.0697, 81.75293
226.5518, 81.84187
227.0340, 81.84445
227.5161, 81.67416
227.9982, 81.26652
228.4803, 80.79396
228.9624, 80.35965
229.4445, 79.93899
229.9267, 79.94061
230.4088, 80.85353
230.8909, 82.30039
231.3730, 83.33882
231.8551, 83.67587
232.3372, 83.79650
232.8194, 84.15560
233.3015, 84.72311
233.7836, 85.36195
234.2657, 86.00092
234.7478, 86.65702
235.2299, 87.40638
235.7121, 88.33694
236.1942, 89.24400
236.6763, 89.91587
237.1584, 90.42187
237.6405, 91.02183
238.1227, 91.96798
238.6048, 93.17879
239.0869, 94.19401
239.5690, 94.93400
240.0511, 95.54758
240.5332, 96.00887
241.0154, 96.41228
241.4975, 96.97843
241.9796, 97.93501
242.4617, 99.21921
242.9438, 100.3494
243.4259, 101.4793
243.9081, 102.2116
244.3902, 102.1804
244.8723, 101.6774
245.3544, 101.2427
245.8365, 101.1980
246.3186, 101.5243
246.8008, 102.1012
247.2829, 103.3380
247.7650, 104.3285
248.2471, 104.7760
248.7292, 104.8171
249.2113, 104.6139
249.6935, 104.1744
250.1756, 103.6212
250.6577, 103.8378
251.1398, 105.8448
251.6219, 107.4639
252.1040, 108.0489
252.5862, 108.0076
253.0683, 107.8988
253.5504, 108.0315
254.0325, 108.3937
254.5146, 108.9350
254.9967, 109.9816
255.4789, 110.8335
255.9610, 111.1092
256.4431, 111.2127
256.9252, 111.7446
257.4073, 113.0382
257.8894, 114.8072
258.3716, 115.9946
258.8537, 115.5478
259.3358, 115.7045
259.8179, 117.1643
260.3000, 119.1301
260.7821, 120.5517
261.2643, 120.9589
261.7464, 120.8352
262.2285, 121.4603
262.7106, 124.0984
263.1927, 126.0196
263.6748, 126.6608
264.1570, 126.7378
264.6391, 127.0204
265.1212, 127.7846
265.6033, 128.7922
266.0854, 129.5506
266.5675, 129.7759
267.0497, 130.1884
267.5318, 130.8594
268.0139, 131.6960
268.4960, 132.6561
268.9781, 133.7198
269.4602, 134.8055
269.9424, 135.8449
270.4245, 137.0954
270.9066, 137.5418
271.3887, 136.5884
271.8708, 135.1287
272.3529, 134.0548
272.8351, 133.5268
273.3172, 133.0360
273.7993, 131.9588
274.2814, 130.1182
274.7635, 128.3348
275.2456, 126.7446
275.7278, 125.1455
276.2099, 123.2869
276.6920, 121.1617
277.1741, 119.0829
277.6562, 117.3121
278.1383, 115.8918
278.6205, 114.8123
279.1026, 114.2210
279.5847, 113.8516
280.0668, 113.5625
280.5489, 113.3296
281.0310, 113.0739
281.5132, 112.6888
281.9953, 112.2203
282.4774, 112.0049
282.9595, 111.9755
283.4416, 112.2487
283.9237, 113.0204
284.4059, 114.2222
284.8880, 115.4959
285.3701, 116.7024
285.8522, 117.7775
286.3343, 118.5989
286.8164, 119.2701
287.2986, 119.5822
287.7807, 119.2677
288.2628, 118.4449
288.7449, 117.5778
289.2270, 116.8112
289.7091, 116.1782
290.1913, 115.7183
290.6734, 115.4641
291.1555, 115.2787
291.6376, 115.1213
292.1197, 114.9859
292.6018, 114.7547
293.0840, 114.1994
293.5661, 113.8798
294.0482, 114.8220
294.5303, 117.1191
295.0124, 119.2218
295.4945, 120.4487
295.9767, 121.0403
296.4588, 121.4391
296.9409, 121.6589
297.4230, 121.9006
297.9051, 122.4902
298.3872, 123.3663
298.8694, 124.1031
299.3515, 124.3632
299.8336, 124.4644
300.3157, 124.9962
300.7978, 126.1198
301.2799, 127.2329
301.7621, 127.6603
302.2442, 127.6432
302.7263, 127.8781
303.2084, 128.4921
303.6905, 129.4540
304.1726, 130.9489
304.6548, 133.0499
305.1369, 134.8606
305.6190, 135.7690
306.1011, 135.9888
306.5832, 135.9480
307.0653, 135.5699
307.5475, 135.1002
308.0296, 134.7100
308.5117, 134.4019
308.9938, 134.2208
309.4759, 134.1389
309.9580, 134.2553
310.4402, 134.7074
310.9223, 135.5888
311.4044, 136.5454
311.8865, 137.3174
312.3686, 137.9395
312.8507, 138.5805
313.3329, 139.1551
313.8150, 139.9556
314.2971, 141.3553
314.7792, 143.3606
315.2613, 145.5048
315.7434, 147.5643
316.2256, 149.5889
316.7077, 151.7742
317.1898, 154.2890
317.6719, 156.7179
318.1540, 158.7580
318.6361, 160.4353
319.1183, 161.6760
319.6004, 162.4498
320.0825, 162.7768
320.5646, 162.6298
321.0467, 161.9529
321.5288, 161.0612
322.0110, 160.4327
322.4931, 159.7408
322.9752, 158.1833
323.4573, 155.0582
323.9394, 151.4108
324.4215, 148.2314
324.9037, 145.5378
325.3858, 143.2801
325.8679, 141.7620
326.3500, 140.5413
326.8321, 138.7602
327.3142, 136.0088
327.7964, 133.4361
328.2785, 132.2491
328.7606, 132.1728
329.2427, 131.3741
329.7248, 128.8577
330.2069, 125.8226
330.6891, 123.9582
331.1712, 123.3600
331.6533, 122.9075
332.1354, 121.9242
332.6175, 120.6851
333.0996, 119.9563
333.5818, 120.0394
334.0639, 120.2521
334.5460, 119.7564
335.0281, 118.7027
335.5102, 117.8040
335.9923, 117.3226
336.4745, 117.0870
336.9566, 116.9353
337.4387, 116.8793
337.9208, 116.6861
338.4029, 116.1594
338.8850, 115.3469
339.3671, 114.4252
339.8492, 113.3823
340.3314, 112.2576
340.8135, 111.0700
341.2956, 109.8145
341.7777, 108.5264
342.2598, 107.1966
342.7419, 105.8622
343.2241, 104.5973
343.7062, 103.4000
344.1883, 102.2566
344.6704, 101.1008
345.1525, 99.99032
345.6346, 99.09560
346.1168, 98.49942
346.5989, 98.06295
347.0810, 97.56440
347.5631, 96.98463
348.0452, 96.56096
348.5273, 96.58767
349.0095, 96.70784
349.4916, 96.47493
349.9737, 95.82092
350.4558, 94.86054
350.9379, 93.69834
351.4200, 92.30762
351.9022, 90.62106
352.3843, 88.20336
352.8664, 85.83118
353.3485, 84.33137
353.8306, 83.54366
354.3127, 82.36964
354.7949, 79.96705
355.2770, 76.76250
355.7591, 74.50154
356.2412, 73.60450
356.7233, 72.97755
357.2054, 72.39994
357.6876, 71.80091
358.1697, 70.98919
358.6518, 69.86102
359.1339, 68.64069
359.6160, 67.77240
360.0981, 67.37452
360.5803, 66.95422
361.0624, 66.38107
361.5445, 65.80132
362.0266, 65.32693
362.5087, 64.98549
362.9908, 64.83315
363.4730, 64.96731
363.9551, 65.44198
364.4372, 65.75620
364.9193, 65.88509
365.4014, 65.89211
365.8835, 65.72122
366.3657, 65.44341
366.8478, 65.24188
367.3299, 65.23759
367.8120, 65.40270
368.2941, 65.58494
368.7762, 65.67284
369.2584, 65.90963
369.7405, 66.39687
370.2226, 67.03614
370.7047, 67.73750
371.1868, 68.46897
371.6689, 69.16883
372.1511, 69.74198
372.6332, 70.20412
373.1153, 70.47563
373.5974, 70.32500
374.0795, 70.17784
374.5616, 70.30627
375.0438, 70.73824
375.5259, 71.37868
376.0080, 72.16164
376.4901, 73.10780
376.9722, 73.92271
377.4543, 74.36612
377.9365, 74.93485
378.4186, 75.86960
378.9007, 77.01997
379.3828, 78.11353
379.8649, 78.99851
380.3470, 79.73616
380.8292, 80.51743
381.3113, 81.32808
381.7934, 82.22053
382.2755, 83.21331
382.7576, 84.27200
383.2397, 85.35860
383.7219, 86.47224
384.2040, 87.62977
384.6861, 88.99255
385.1682, 90.80208
385.6503, 91.80693
386.1324, 91.15510
386.6146, 90.41184
387.0967, 90.24948
387.5788, 90.53130
388.0609, 90.75245
388.5430, 90.54707
389.0251, 90.00170
389.5073, 89.51885
389.9894, 89.11841
390.4715, 88.75060
390.9536, 88.44754
391.4357, 88.14413
391.9178, 87.71753
392.4000, 87.10359
392.8821, 86.52818
393.3642, 86.32944
393.8463, 86.54744
394.3284, 86.81771
394.8105, 87.11268
395.2927, 87.40119
395.7748, 87.67033
396.2569, 87.91567
396.7390, 88.12522
397.2211, 88.31504
397.7032, 88.46482
398.1854, 88.48157
398.6675, 88.31141
399.1496, 88.12387
399.6317, 88.13824
400.1138, 88.19973
400.5959, 87.99595
401.0781, 87.25915
401.5602, 86.43924
402.0423, 86.01716
402.5244, 85.98080
403.0065, 86.07694
403.4886, 86.19129
403.9708, 86.41863
404.4529, 86.92240
404.9350, 87.75635
405.4171, 88.55656
405.8992, 89.09171
406.3813, 89.49700
406.8635, 89.96848
407.3456, 90.51908
407.8277, 91.30220
408.3098, 92.52818
408.7919, 94.19308
409.2740, 95.92332
409.7562, 98.04099
410.2383, 99.92641
410.7204, 101.0075
411.2025, 101.4397
411.6846, 102.0034
412.1667, 103.2410
412.6489, 104.7229
413.1310, 105.0033
413.6131, 103.5836
414.0952, 101.9733
414.5773, 100.1459
415.0594, 98.38432
415.5416, 97.14128
416.0237, 96.48246
416.5058, 95.90821
416.9879, 94.77291
417.4700, 92.85390
417.9521, 91.53327
418.4343, 91.06870
418.9164, 90.84264
419.3985, 90.71954
419.8806, 90.60563
420.3627, 90.32407
420.8448, 89.74231
421.3270, 89.01228
421.8091, 88.74192
422.2912, 89.52245
422.7733, 89.90469
423.2554, 89.28564
423.7375, 88.54097
424.2197, 88.48831
424.7018, 89.25821
425.1839, 90.32593
425.6660, 91.15918
426.1481, 91.77971
426.6302, 91.99273
427.1124, 91.21043
427.5945, 90.60010
428.0766, 90.74087
428.5587, 91.33971
429.0408, 91.80839
429.5229, 91.81795
430.0051, 91.53265
430.4872, 91.34425
430.9693, 91.32243
431.4514, 91.16653
431.9335, 90.62276
432.4156, 89.99980
432.8978, 89.50343
433.3799, 89.16541
433.8620, 88.93688
434.3441, 88.89587
434.8262, 88.96275
435.3083, 88.74281
435.7905, 88.09631
436.2726, 87.37859
436.7547, 86.84770
437.2368, 86.44558
437.7189, 86.04955
438.2010, 85.46244
438.6832, 85.01982
439.1653, 85.19910
439.6474, 85.90482
440.1295, 86.43485
440.6116, 86.47660
441.0938, 86.20982
441.5759, 85.97461
442.0580, 85.80263
442.5401, 85.53289
443.0222, 85.14897
443.5043, 84.63148
443.9865, 84.01147
444.4686, 83.28059
444.9507, 82.24918
445.4328, 80.71445
445.9149, 78.67483
446.3970, 76.64726
446.8792, 74.25375
447.3613, 72.28863
447.8434, 71.27734
448.3255, 70.81987
448.8076, 70.24979
449.2897, 69.29883
449.7719, 68.19874
450.2540, 67.37025
450.7361, 66.90086
451.2182, 66.53154
451.7003, 66.38647
452.1824, 66.21957
452.6646, 65.83720
453.1467, 65.29371
453.6288, 64.80722
454.1109, 64.56091
454.5930, 64.48904
455.0751, 64.20486
455.5573, 63.57365
456.0394, 62.94239
456.5215, 62.27535
457.0036, 61.70280
457.4857, 61.36443
457.9678, 61.29081
458.4500, 61.34996
458.9321, 61.37452
459.4142, 61.36689
459.8963, 61.60342
460.3784, 62.43071
460.8605, 63.02248
461.3427, 62.59999
461.8248, 61.60906
462.3069, 61.07591
462.7890, 61.55615
463.2711, 62.48691
463.7532, 63.15223
464.2354, 63.56784
464.7175, 64.12301
465.1996, 65.04649
465.6817, 66.08821
466.1638, 66.91360
466.6459, 67.53445
467.1281, 67.93999
467.6102, 68.06663
468.0923, 68.00405
468.5744, 67.76046
469.0565, 67.35850
469.5386, 67.13547
470.0208, 67.41830
470.5029, 68.11167
470.9850, 68.40250
471.4671, 67.77950
471.9492, 67.43002
472.4313, 67.98400
472.9135, 68.89439
473.3956, 69.38226
473.8777, 69.22868
474.3598, 68.80451
474.8419, 68.59989
475.3240, 68.65781
475.8062, 68.76660
476.2883, 68.83472
476.7704, 69.03788
477.2525, 69.51585
477.7346, 70.17349
478.2167, 70.83838
478.6989, 71.42680
479.1810, 71.94592
479.6631, 72.45530
480.1452, 73.04749
480.6273, 73.36155
481.1094, 73.14301
481.5916, 72.78685
482.0737, 72.56297
482.5558, 72.44687
483.0379, 72.18567
483.5200, 71.48121
484.0021, 70.50294
484.4843, 69.86700
484.9664, 69.72232
485.4485, 69.37634
485.9306, 68.49170
486.4127, 67.18574
486.8948, 65.46980
487.3770, 63.11412
487.8591, 61.12685
488.3412, 60.47871
488.8233, 60.61797
489.3054, 60.21446
489.7875, 58.96051
490.2697, 57.65807
490.7518, 57.10715
491.2339, 57.31306
491.7160, 57.26978
492.1981, 56.65866
492.6802, 56.12624
493.1624, 56.05208
493.6445, 56.27334
494.1266, 56.49169
494.6087, 56.59467
495.0908, 56.58315
495.5729, 56.43804
496.0551, 56.04149
496.5372, 55.83954
497.0193, 55.91189
497.5014, 56.07295
497.9835, 56.21220
498.4656, 56.36385
498.9478, 56.65308
499.4299, 57.17406
499.9120, 57.80899
500.3941, 58.19506
500.8762, 58.19264
501.3583, 58.30079
501.8405, 58.78798
502.3226, 59.27133
502.8047, 59.52531
503.2868, 59.53528
503.7689, 59.37782
504.2510, 59.04305
504.7331, 58.58733
505.2152, 58.17176
505.6974, 57.80334
506.1795, 57.43610
506.6616, 57.02874
507.1437, 56.62127
507.6258, 56.30862
508.1079, 56.15475
508.5901, 55.87870
509.0722, 55.28325
509.5543, 54.48882
510.0364, 53.66734
510.5185, 52.84863
511.0006, 52.05959
511.4828, 51.32223
511.9649, 50.63832
512.4470, 50.02550
512.9291, 49.44546
513.4113, 48.96691
513.8934, 48.60543
514.3755, 48.36338
514.8576, 48.33515
515.3397, 48.51698
515.8218, 48.63652
516.3040, 48.31170
516.7861, 47.44199
517.2682, 46.71593
517.7503, 46.09107
518.2324, 45.66581
518.7145, 45.49300
519.1967, 45.53250
519.6788, 45.76552
520.1609, 46.19787
520.6430, 46.66843
521.1251, 46.92920
521.6072, 46.96720
522.0894, 46.99366
522.5715, 47.07463
523.0536, 47.09900
523.5357, 46.90099
524.0178, 46.57832
524.4999, 46.43870
524.9821, 46.70243
525.4642, 47.09211
525.9463, 47.22544
526.4284, 47.17907
526.9105, 47.46979
527.3926, 48.38078
527.8748, 49.49144
528.3569, 50.15879
528.8390, 50.31977
529.3211, 50.44281
529.8032, 50.60210
530.2853, 50.71078
530.7675, 50.55095
531.2496, 50.27491
531.7317, 50.34241
532.2138, 51.02362
532.6959, 52.08189
533.1780, 52.91305
533.6602, 53.53962
534.1423, 53.87554
534.6244, 53.62084
535.1065, 53.37881
535.5886, 53.54036
536.0707, 54.04577
536.5529, 54.61208
537.0350, 55.06009
537.5171, 55.43357
537.9992, 55.84235
538.4813, 56.29810
538.9634, 56.73457
539.4456, 57.06785
539.9277, 57.42704
540.4098, 58.08584
540.8919, 59.00517
541.3740, 59.48263
541.8561, 58.59211
542.3383, 57.35847
542.8204, 57.51246
543.3025, 59.01976
543.7846, 60.17699
544.2667, 59.98893
544.7488, 59.03765
545.2310, 58.78667
545.7131, 59.55603
546.1952, 60.12069
546.6773, 60.23070
547.1594, 60.11795
547.6415, 59.89000
548.1237, 59.60821
548.6058, 59.39414
549.0879, 59.34437
549.5700, 59.40369
550.0521, 59.34671
550.5342, 59.16101
551.0164, 58.87008
551.4985, 58.46299
551.9806, 57.98170
552.4627, 57.34369
552.9448, 56.62288
553.4269, 56.09950
553.9091, 56.04443
554.3912, 56.30143
554.8733, 56.45155
555.3554, 56.49178
555.8375, 56.44058
556.3196, 56.25562
556.8018, 56.01602
557.2839, 55.82586
557.7660, 55.68938
558.2481, 55.55239
558.7302, 55.35121
559.2123, 55.16381
559.6945, 55.13791
560.1766, 55.24640
560.6587, 55.22963
561.1408, 54.88824
561.6229, 54.40842
562.1050, 54.32197
562.5872, 54.85085
563.0693, 55.45932
563.5514, 56.44441
564.0335, 57.26329
564.5156, 57.42909
564.9977, 57.05312
565.4799, 56.54202
565.9620, 56.11269
566.4441, 55.87691
566.9262, 56.31155
567.4083, 57.80813
567.8904, 58.82307
568.3726, 58.60555
568.8547, 58.14192
569.3368, 57.99961
569.8189, 58.18150
570.3010, 58.47196
570.7831, 58.88683
571.2653, 59.27547
571.7474, 59.37044
572.2295, 59.19615
572.7116, 59.04734
573.1937, 59.00974
573.6758, 59.10431
574.1580, 59.46114
574.6401, 60.19982
575.1222, 60.52827
575.6043, 59.97039
576.0864, 59.34162
576.5685, 59.16470
577.0507, 59.35585
577.5328, 59.64574
578.0149, 59.90755
578.4970, 60.14119
578.9791, 60.37776
579.4612, 60.72630
579.9434, 60.76885
580.4255, 59.86741
580.9076, 59.28129
581.3897, 59.70610
581.8718, 60.79572
582.3539, 61.87856
582.8361, 62.73791
583.3182, 63.29623
583.8003, 63.32477
584.2824, 62.88452
584.7645, 62.56789
