##NAMES=Tinzenite
##RRUFFID=R110064
##IDEAL CHEMISTRY=Ca_2_Mn^2+^_4_Al_4_[B_2_Si_8_O_30_](OH)_2_
##LOCALITY=Gambatesa mine, Val Graveglia, Genova, Italy
##OWNER=RRUFF
##SOURCE=Renato & Adriana Pagano
##DESCRIPTION=Parallel aggregates of orange platy crystals
##STATUS=The identification of this mineral has been confirmed by single-crystal X-ray diffraction.
##URL=rruff.info/R110064
177.7553, 521.0991
178.2374, 521.4557
178.7195, 522.2607
179.2017, 525.1839
179.6838, 529.0288
180.1659, 532.0588
180.6480, 534.3126
181.1301, 535.8513
181.6122, 536.6597
182.0944, 536.8327
182.5765, 536.6211
183.0586, 536.1411
183.5407, 535.3767
184.0228, 533.7789
184.5049, 531.0901
184.9871, 529.0863
185.4692, 530.4694
185.9513, 534.7109
186.4334, 538.9752
186.9155, 542.1663
187.3976, 544.3737
187.8798, 545.7222
188.3619, 546.0419
188.8440, 546.1560
189.3261, 547.0132
189.8082, 548.6075
190.2903, 550.9286
190.7725, 554.4733
191.2546, 558.9714
191.7367, 562.4891
192.2188, 564.8398
192.7009, 566.5341
193.1830, 568.2362
193.6652, 569.9371
194.1473, 571.7280
194.6294, 573.5662
195.1115, 575.4678
195.5936, 577.9069
196.0757, 581.2341
196.5579, 584.5519
197.0400, 585.8572
197.5221, 584.9882
198.0042, 583.9108
198.4863, 583.5128
198.9684, 583.7942
199.4506, 585.0536
199.9327, 587.6794
200.4148, 590.8106
200.8969, 592.2158
201.3790, 591.5448
201.8611, 591.1316
202.3433, 592.6651
202.8254, 596.3749
203.3075, 599.2888
203.7896, 601.1015
204.2717, 602.0504
204.7538, 602.5516
205.2360, 602.4635
205.7181, 602.4119
206.2002, 602.8812
206.6823, 604.0042
207.1644, 604.6744
207.6465, 604.6692
208.1287, 604.2161
208.6108, 603.8431
209.0929, 603.3323
209.5750, 603.4749
210.0571, 605.2307
210.5392, 609.3095
211.0214, 611.5865
211.5035, 611.1720
211.9856, 608.9109
212.4677, 607.7457
212.9498, 608.0204
213.4319, 608.6495
213.9141, 608.8362
214.3962, 608.2031
214.8783, 608.6293
215.3604, 610.7382
215.8425, 613.9675
216.3246, 615.8630
216.8067, 615.9354
217.2889, 615.6480
217.7710, 615.8990
218.2531, 616.8732
218.7352, 617.8141
219.2173, 618.6589
219.6994, 619.4161
220.1816, 619.9997
220.6637, 620.0356
221.1458, 620.5164
221.6279, 622.2775
222.1100, 626.1793
222.5921, 629.1013
223.0743, 630.7078
223.5564, 631.1547
224.0385, 631.0942
224.5206, 630.1573
225.0027, 629.3230
225.4848, 629.0928
225.9670, 629.2531
226.4491, 630.6749
226.9312, 634.0877
227.4133, 638.8842
227.8954, 642.2996
228.3775, 644.0900
228.8597, 644.7850
229.3418, 644.4022
229.8239, 641.9149
230.3060, 640.7396
230.7881, 641.3813
231.2702, 643.5473
231.7524, 645.9720
232.2345, 648.9960
232.7166, 651.7228
233.1987, 653.5497
233.6808, 654.1155
234.1629, 654.5219
234.6451, 654.7341
235.1272, 654.8197
235.6093, 655.0413
236.0914, 655.1236
236.5735, 655.7148
237.0556, 657.2958
237.5378, 660.5387
238.0199, 663.3447
238.5020, 665.6407
238.9841, 667.4530
239.4662, 668.7276
239.9483, 669.2527
240.4305, 669.5754
240.9126, 669.9420
241.3947, 670.2008
241.8768, 670.8889
242.3589, 672.1682
242.8410, 673.8864
243.3232, 675.5583
243.8053, 677.2675
244.2874, 678.7949
244.7695, 680.0380
245.2516, 681.0828
245.7337, 681.5443
246.2159, 680.8134
246.6980, 679.5460
247.1801, 679.9629
247.6622, 682.8370
248.1443, 686.2020
248.6264, 689.2235
249.1086, 692.1711
249.5907, 694.1531
250.0728, 694.9822
250.5549, 694.8962
251.0370, 694.3348
251.5191, 692.5280
252.0013, 691.4933
252.4834, 692.4746
252.9655, 697.0074
253.4476, 699.4039
253.9297, 698.6189
254.4118, 696.1761
254.8940, 695.3806
255.3761, 696.3731
255.8582, 698.7743
256.3403, 702.7928
256.8224, 709.3266
257.3046, 714.3875
257.7867, 717.5587
258.2688, 719.4584
258.7509, 721.1711
259.2330, 722.5411
259.7151, 723.9853
260.1973, 725.8602
260.6794, 728.4777
261.1615, 729.8552
261.6436, 729.4447
262.1257, 728.2658
262.6078, 728.0398
263.0900, 729.0291
263.5721, 730.3965
264.0542, 731.9172
264.5363, 733.6552
265.0184, 735.3283
265.5005, 736.8964
265.9827, 738.5108
266.4648, 740.4827
266.9469, 742.9697
267.4290, 745.3263
267.9111, 747.3149
268.3932, 748.8875
268.8754, 750.6861
269.3575, 752.8255
269.8396, 754.9792
270.3217, 756.5715
270.8038, 757.3445
271.2859, 758.4874
271.7681, 760.4730
272.2502, 763.2401
272.7323, 765.3621
273.2144, 766.5023
273.6965, 767.5963
274.1786, 770.0036
274.6608, 774.2035
275.1429, 777.1629
275.6250, 777.6984
276.1071, 776.2385
276.5892, 776.3159
277.0714, 778.4503
277.5535, 780.6379
278.0356, 780.6858
278.5177, 778.3344
278.9998, 776.4529
279.4819, 775.5215
279.9641, 775.5113
280.4462, 776.7372
280.9283, 779.5484
281.4104, 782.0969
281.8925, 782.6762
282.3746, 781.2635
282.8568, 779.8448
283.3389, 778.5191
283.8210, 777.5968
284.3031, 778.0666
284.7852, 780.0422
285.2673, 782.6492
285.7495, 785.7670
286.2316, 789.2993
286.7137, 791.6251
287.1958, 792.2316
287.6779, 792.0202
288.1600, 792.9077
288.6422, 794.9084
289.1243, 796.9603
289.6064, 797.8215
290.0885, 797.9198
290.5706, 799.8687
291.0527, 804.3867
291.5349, 809.5731
292.0170, 812.3757
292.4991, 812.9006
292.9812, 812.7460
293.4633, 811.7981
293.9454, 810.7501
294.4276, 812.3904
294.9097, 817.3043
295.3918, 822.8856
295.8739, 825.4323
296.3560, 825.5461
296.8381, 826.1824
297.3203, 829.9092
297.8024, 834.8959
298.2845, 836.8154
298.7666, 835.3177
299.2487, 833.5730
299.7308, 835.2465
300.2130, 839.3373
300.6951, 842.9287
301.1772, 844.3439
301.6593, 844.8365
302.1414, 846.2288
302.6235, 848.4908
303.1057, 850.9912
303.5878, 853.2987
304.0699, 855.4534
304.5520, 857.4758
305.0341, 859.2957
305.5162, 861.0596
305.9984, 863.1346
306.4805, 865.4147
306.9626, 867.3000
307.4447, 868.4869
307.9268, 868.9856
308.4089, 868.6071
308.8911, 866.5056
309.3732, 864.7569
309.8553, 865.7508
310.3374, 868.6856
310.8195, 870.8685
311.3016, 869.3859
311.7838, 867.1564
312.2659, 867.0715
312.7480, 870.6389
313.2301, 874.1007
313.7122, 874.6050
314.1943, 873.3876
314.6765, 873.0395
315.1586, 875.2461
315.6407, 878.3162
316.1228, 881.4617
316.6049, 884.7585
317.0870, 887.3059
317.5692, 888.1909
318.0513, 888.1881
318.5334, 888.3704
319.0155, 888.7608
319.4976, 889.6902
319.9797, 891.4809
320.4619, 894.2217
320.9440, 896.9220
321.4261, 899.7133
321.9082, 902.1117
322.3903, 903.6411
322.8724, 903.4483
323.3546, 903.1155
323.8367, 902.9114
324.3188, 902.8516
324.8009, 903.1116
325.2830, 903.8474
325.7651, 904.8422
326.2473, 905.9608
326.7294, 907.1754
327.2115, 908.5688
327.6936, 910.2039
328.1757, 912.0607
328.6578, 914.0507
329.1400, 916.4301
329.6221, 918.7654
330.1042, 920.9022
330.5863, 922.8402
331.0684, 924.5496
331.5505, 925.2231
332.0327, 925.7883
332.5148, 928.5424
332.9969, 936.0238
333.4790, 942.2059
333.9611, 944.5626
334.4432, 941.5187
334.9254, 940.9785
335.4075, 944.1232
335.8896, 948.7252
336.3717, 951.5607
336.8538, 951.6425
337.3359, 952.2868
337.8180, 954.7072
338.3001, 958.8519
338.7823, 961.6246
339.2644, 962.5716
339.7465, 963.0357
340.2286, 964.4254
340.7107, 966.9579
341.1928, 969.1789
341.6750, 970.7435
342.1571, 971.8194
342.6392, 972.8961
343.1213, 973.9887
343.6034, 975.1053
344.0855, 976.2306
344.5677, 977.3645
345.0498, 978.7015
345.5319, 980.3104
346.0140, 982.0450
346.4961, 983.5525
346.9782, 984.8400
347.4604, 986.2931
347.9425, 988.4436
348.4246, 990.9836
348.9067, 992.4332
349.3888, 992.4911
349.8709, 992.5765
350.3531, 994.6891
350.8352, 998.3738
351.3173, 1001.931
351.7994, 1004.899
352.2815, 1007.208
352.7636, 1008.510
353.2458, 1008.796
353.7279, 1008.969
354.2100, 1009.535
354.6921, 1010.532
355.1742, 1012.106
355.6563, 1015.056
356.1385, 1017.800
356.6206, 1018.527
357.1027, 1017.569
357.5848, 1016.595
358.0669, 1016.090
358.5490, 1016.293
359.0312, 1017.652
359.5133, 1020.908
359.9954, 1023.884
360.4775, 1025.075
360.9596, 1025.095
361.4417, 1025.220
361.9239, 1025.519
362.4060, 1026.430
362.8881, 1028.526
363.3702, 1032.201
363.8523, 1035.253
364.3344, 1036.562
364.8166, 1037.016
365.2987, 1037.635
365.7808, 1038.258
366.2629, 1039.453
366.7450, 1041.729
367.2271, 1045.070
367.7093, 1047.809
368.1914, 1049.530
368.6735, 1050.716
369.1556, 1051.664
369.6377, 1050.205
370.1198, 1051.261
370.6020, 1056.918
371.0841, 1065.480
371.5662, 1070.706
372.0483, 1070.277
372.5304, 1069.247
373.0125, 1069.727
373.4947, 1072.411
373.9768, 1074.555
374.4589, 1075.876
374.9410, 1076.905
375.4231, 1078.472
375.9052, 1080.709
376.3874, 1083.221
376.8695, 1086.070
377.3516, 1089.283
377.8337, 1091.587
378.3158, 1092.718
378.7979, 1093.831
379.2801, 1096.401
379.7622, 1100.570
380.2443, 1103.696
380.7264, 1104.955
381.2085, 1105.151
381.6906, 1106.553
382.1728, 1109.166
382.6549, 1111.836
383.1370, 1113.163
383.6191, 1113.731
384.1012, 1116.100
384.5833, 1120.866
385.0655, 1126.305
385.5476, 1129.992
386.0297, 1132.353
386.5118, 1134.775
386.9939, 1138.659
387.4760, 1142.742
387.9582, 1144.924
388.4403, 1145.180
388.9224, 1145.179
389.4045, 1146.295
389.8866, 1148.020
390.3687, 1149.627
390.8509, 1150.581
391.3330, 1151.681
391.8151, 1154.023
392.2972, 1157.186
392.7793, 1159.468
393.2614, 1158.651
393.7436, 1157.503
394.2257, 1158.222
394.7078, 1162.116
395.1899, 1165.575
395.6720, 1166.401
396.1541, 1166.123
396.6363, 1167.204
397.1184, 1171.194
397.6005, 1175.733
398.0826, 1180.503
398.5647, 1185.681
399.0468, 1189.252
399.5290, 1189.725
400.0111, 1189.236
400.4932, 1189.490
400.9753, 1190.740
401.4574, 1192.431
401.9395, 1194.622
402.4217, 1197.243
402.9038, 1199.928
403.3859, 1202.746
403.8680, 1205.539
404.3501, 1208.232
404.8322, 1210.761
405.3144, 1213.373
405.7965, 1216.139
406.2786, 1218.867
406.7607, 1221.034
407.2428, 1222.420
407.7249, 1224.464
408.2071, 1227.851
408.6892, 1232.335
409.1713, 1236.209
409.6534, 1239.395
410.1355, 1242.475
410.6176, 1246.172
411.0998, 1250.326
411.5819, 1253.470
412.0640, 1254.288
412.5461, 1255.723
413.0282, 1265.843
413.5103, 1282.632
413.9925, 1294.516
414.4746, 1290.112
414.9567, 1278.114
415.4388, 1272.547
415.9209, 1274.986
416.4030, 1279.009
416.8852, 1279.561
417.3673, 1278.048
417.8494, 1276.777
418.3315, 1277.147
418.8136, 1277.647
419.2957, 1276.607
419.7779, 1274.465
420.2600, 1273.984
420.7421, 1278.295
421.2242, 1283.650
421.7063, 1287.142
422.1884, 1287.270
422.6706, 1287.545
423.1527, 1288.432
423.6348, 1290.094
424.1169, 1292.813
424.5990, 1298.730
425.0811, 1303.711
425.5633, 1305.975
426.0454, 1304.935
426.5275, 1305.229
427.0096, 1307.522
427.4917, 1310.584
427.9738, 1313.510
428.4560, 1316.572
428.9381, 1318.784
429.4202, 1319.561
429.9023, 1319.471
430.3844, 1320.746
430.8665, 1323.927
431.3487, 1326.912
431.8308, 1328.430
432.3129, 1328.381
432.7950, 1328.806
433.2771, 1329.621
433.7592, 1331.239
434.2414, 1334.954
434.7235, 1340.523
435.2056, 1344.782
435.6877, 1346.082
436.1698, 1345.919
436.6519, 1348.094
437.1341, 1352.438
437.6162, 1355.794
438.0983, 1353.590
438.5804, 1349.380
439.0625, 1350.127
439.5446, 1358.315
440.0268, 1367.004
440.5089, 1369.103
440.9910, 1367.164
441.4731, 1366.388
441.9552, 1370.499
442.4373, 1375.420
442.9195, 1378.269
443.4016, 1379.007
443.8837, 1380.344
444.3658, 1384.423
444.8479, 1388.958
445.3300, 1392.084
445.8122, 1392.059
446.2943, 1392.415
446.7764, 1393.566
447.2585, 1395.506
447.7406, 1398.238
448.2227, 1403.329
448.7049, 1407.639
449.1870, 1409.923
449.6691, 1409.597
450.1512, 1410.848
450.6333, 1414.813
451.1154, 1419.136
451.5976, 1421.401
452.0797, 1420.880
452.5618, 1420.723
453.0439, 1421.325
453.5260, 1422.679
454.0081, 1424.998
454.4903, 1428.444
454.9724, 1431.909
455.4545, 1434.591
455.9366, 1436.648
456.4187, 1439.605
456.9008, 1443.625
457.3830, 1447.705
457.8651, 1450.157
458.3472, 1451.549
458.8293, 1453.783
459.3114, 1458.597
459.7935, 1463.380
460.2757, 1463.302
460.7578, 1459.548
461.2399, 1458.162
461.7220, 1465.720
462.2041, 1475.855
462.6862, 1482.512
463.1684, 1484.477
463.6505, 1484.543
464.1326, 1482.060
464.6147, 1479.139
465.0968, 1478.492
465.5789, 1483.661
466.0611, 1488.500
466.5432, 1490.922
467.0253, 1491.124
467.5074, 1491.778
467.9895, 1492.996
468.4716, 1494.923
468.9538, 1497.700
469.4359, 1501.801
469.9180, 1505.529
470.4001, 1508.162
470.8822, 1510.931
471.3643, 1516.291
471.8465, 1525.896
472.3286, 1533.084
472.8107, 1535.336
473.2928, 1533.645
473.7749, 1534.160
474.2570, 1537.202
474.7392, 1540.704
475.2213, 1542.754
475.7034, 1543.707
476.1855, 1546.185
476.6676, 1550.701
477.1497, 1556.019
477.6319, 1560.642
478.1140, 1564.694
478.5961, 1568.493
479.0782, 1572.254
479.5603, 1575.797
480.0424, 1578.575
480.5246, 1580.740
481.0067, 1583.418
481.4888, 1587.694
481.9709, 1592.567
482.4530, 1597.229
482.9352, 1601.671
483.4173, 1605.480
483.8994, 1608.131
484.3815, 1610.115
484.8636, 1612.155
485.3457, 1614.719
485.8279, 1617.027
486.3100, 1618.900
486.7921, 1620.338
487.2742, 1621.449
487.7563, 1622.560
488.2384, 1623.082
488.7206, 1622.385
489.2027, 1619.228
489.6848, 1618.408
490.1669, 1620.621
490.6490, 1624.534
491.1311, 1628.263
491.6133, 1631.793
492.0954, 1635.015
492.5775, 1637.825
493.0596, 1640.298
493.5417, 1642.746
494.0238, 1645.143
494.5060, 1647.467
494.9881, 1649.245
495.4702, 1650.912
495.9523, 1653.842
496.4344, 1658.389
496.9165, 1663.210
497.3987, 1667.028
497.8808, 1670.166
498.3629, 1673.167
498.8450, 1675.737
499.3271, 1678.707
499.8092, 1683.705
500.2914, 1690.117
500.7735, 1694.130
501.2556, 1691.592
501.7377, 1688.339
502.2198, 1687.952
502.7019, 1692.004
503.1841, 1695.956
503.6662, 1699.485
504.1483, 1702.564
504.6304, 1705.083
505.1125, 1706.596
505.5946, 1708.210
506.0768, 1710.009
506.5589, 1712.025
507.0410, 1714.517
507.5231, 1717.549
508.0052, 1720.810
508.4873, 1724.112
508.9695, 1727.400
509.4516, 1731.340
509.9337, 1736.099
510.4158, 1740.753
510.8979, 1744.254
511.3800, 1746.738
511.8622, 1748.580
512.3443, 1749.490
512.8264, 1750.385
513.3085, 1752.617
513.7906, 1755.945
514.2728, 1759.490
514.7549, 1762.905
515.2370, 1766.253
515.7191, 1769.896
516.2012, 1773.943
516.6833, 1776.964
517.1655, 1777.102
517.6476, 1776.624
518.1297, 1777.472
518.6118, 1780.911
519.0939, 1784.645
519.5760, 1788.646
520.0582, 1792.682
520.5403, 1796.275
521.0224, 1798.648
521.5045, 1801.606
521.9866, 1805.828
522.4688, 1811.318
522.9509, 1816.266
523.4330, 1820.667
523.9151, 1824.556
524.3972, 1827.943
524.8793, 1830.796
525.3615, 1832.878
525.8436, 1833.755
526.3257, 1834.985
526.8078, 1839.797
527.2899, 1847.348
527.7720, 1853.567
528.2542, 1856.203
528.7363, 1857.068
529.2184, 1858.101
529.7005, 1859.376
530.1826, 1861.334
530.6647, 1864.754
531.1469, 1868.682
531.6290, 1872.385
532.1111, 1875.739
532.5932, 1878.990
533.0753, 1882.734
533.5574, 1886.257
534.0396, 1888.754
534.5217, 1889.049
535.0038, 1889.598
535.4859, 1890.024
535.9680, 1890.922
536.4501, 1894.522
536.9323, 1903.012
537.4144, 1910.468
537.8965, 1914.252
538.3786, 1914.231
538.8607, 1915.510
539.3428, 1918.215
539.8250, 1921.724
540.3071, 1925.519
540.7892, 1929.546
541.2713, 1934.077
541.7534, 1939.334
542.2355, 1944.471
542.7177, 1948.239
543.1998, 1950.905
543.6819, 1953.211
544.1640, 1955.242
544.6461, 1957.232
545.1282, 1959.115
545.6104, 1961.030
546.0925, 1963.810
546.5746, 1968.733
547.0567, 1974.076
547.5388, 1978.650
548.0209, 1981.950
548.5031, 1985.591
548.9852, 1990.378
549.4673, 1995.464
549.9494, 1999.961
550.4315, 2003.625
550.9136, 2007.021
551.3958, 2010.177
551.8779, 2013.091
552.3600, 2015.596
552.8421, 2017.468
553.3242, 2019.727
553.8063, 2023.015
554.2885, 2027.149
554.7706, 2030.546
555.2527, 2033.139
555.7348, 2035.753
556.2169, 2039.363
556.6990, 2043.545
557.1812, 2047.143
557.6633, 2049.817
558.1454, 2052.591
558.6275, 2056.931
559.1096, 2061.999
559.5917, 2066.407
560.0739, 2068.858
560.5560, 2071.163
561.0381, 2074.488
561.5202, 2078.496
562.0023, 2081.823
562.4844, 2082.542
562.9666, 2083.844
563.4487, 2087.615
563.9308, 2094.689
564.4129, 2099.883
564.8950, 2102.190
565.3771, 2103.675
565.8593, 2105.995
566.3414, 2109.255
566.8235, 2113.036
567.3056, 2117.661
567.7877, 2122.289
568.2698, 2124.813
568.7520, 2125.445
569.2341, 2127.317
569.7162, 2132.485
570.1983, 2139.113
570.6804, 2143.692
571.1625, 2146.522
571.6447, 2149.663
572.1268, 2156.075
572.6089, 2162.569
573.0910, 2165.163
573.5731, 2162.833
574.0552, 2161.642
574.5374, 2164.693
575.0195, 2170.016
575.5016, 2175.757
575.9837, 2183.500
576.4658, 2189.138
576.9479, 2191.021
577.4301, 2190.828
577.9122, 2191.657
578.3943, 2192.886
578.8764, 2196.437
579.3585, 2203.889
579.8406, 2214.292
580.3228, 2220.849
580.8049, 2223.173
581.2870, 2224.098
581.7691, 2224.411
582.2512, 2224.778
582.7333, 2228.668
583.2155, 2236.694
583.6976, 2244.611
584.1797, 2248.200
584.6617, 2249.208
585.1439, 2250.419
585.6260, 2252.276
586.1081, 2255.176
586.5902, 2260.480
587.0723, 2266.917
587.5544, 2271.924
588.0366, 2272.825
588.5187, 2274.228
589.0008, 2277.949
589.4829, 2283.851
589.9650, 2288.905
590.4471, 2292.437
590.9293, 2295.883
591.4114, 2299.969
591.8935, 2304.871
592.3756, 2308.921
592.8577, 2311.846
593.3398, 2314.638
593.8220, 2318.888
594.3041, 2324.279
594.7862, 2328.016
595.2683, 2329.195
595.7504, 2329.728
596.2325, 2332.429
596.7147, 2336.565
597.1968, 2340.132
597.6789, 2341.574
598.1610, 2342.782
598.6431, 2345.236
599.1252, 2348.706
599.6074, 2352.060
600.0895, 2354.432
600.5716, 2357.007
601.0537, 2360.569
601.5358, 2365.500
602.0179, 2369.590
602.5001, 2372.173
602.9822, 2374.555
603.4643, 2377.826
603.9464, 2382.424
604.4285, 2386.045
604.9106, 2388.001
605.3928, 2390.013
605.8749, 2395.332
606.3570, 2403.701
606.8391, 2411.429
607.3212, 2417.121
607.8033, 2421.901
608.2855, 2427.910
608.7676, 2434.609
609.2497, 2440.289
609.7318, 2443.119
610.2139, 2445.088
610.6960, 2447.740
611.1782, 2451.110
611.6603, 2454.114
612.1424, 2454.938
612.6245, 2456.358
613.1066, 2460.433
613.5887, 2469.571
614.0709, 2476.180
614.5530, 2478.990
615.0351, 2480.553
615.5172, 2483.693
615.9993, 2488.913
616.4814, 2493.520
616.9636, 2496.783
617.4457, 2499.760
617.9278, 2505.519
618.4099, 2513.604
618.8920, 2519.403
619.3741, 2519.107
619.8563, 2516.829
620.3384, 2518.685
620.8205, 2524.080
621.3026, 2530.132
621.7847, 2536.840
622.2668, 2542.376
622.7490, 2544.279
623.2311, 2541.914
623.7132, 2541.595
624.1953, 2547.278
624.6774, 2554.103
625.1595, 2558.664
625.6417, 2559.564
626.1238, 2560.958
626.6059, 2562.857
627.0880, 2565.321
627.5701, 2568.450
628.0522, 2572.286
628.5344, 2576.585
629.0165, 2581.317
629.4986, 2586.453
629.9807, 2592.219
630.4628, 2598.463
630.9449, 2604.275
631.4271, 2608.859
631.9092, 2613.008
632.3913, 2617.603
632.8734, 2622.551
633.3555, 2627.272
633.8376, 2631.271
634.3198, 2635.098
634.8019, 2638.980
635.2840, 2642.824
635.7661, 2647.359
636.2482, 2653.256
636.7303, 2659.412
637.2125, 2665.133
637.6946, 2670.440
638.1767, 2675.333
638.6588, 2679.679
639.1409, 2683.904
639.6230, 2688.948
640.1052, 2694.721
640.5873, 2698.955
641.0694, 2700.424
641.5515, 2701.198
642.0336, 2704.566
642.5157, 2709.802
642.9979, 2714.861
643.4800, 2718.111
643.9621, 2721.272
644.4442, 2725.730
644.9263, 2731.255
645.4084, 2736.328
645.8906, 2741.030
646.3727, 2744.634
646.8548, 2745.605
647.3369, 2742.920
647.8190, 2745.988
648.3011, 2758.167
648.7833, 2771.040
649.2654, 2777.553
649.7475, 2777.100
650.2296, 2778.678
650.7117, 2782.873
651.1938, 2788.797
651.6760, 2796.191
652.1581, 2804.470
652.6402, 2811.435
653.1223, 2815.928
653.6044, 2820.147
654.0865, 2826.708
654.5687, 2834.427
655.0508, 2841.061
655.5329, 2844.615
656.0150, 2848.215
656.4971, 2852.636
656.9792, 2857.985
657.4614, 2864.762
657.9435, 2874.622
658.4256, 2883.512
658.9077, 2889.650
659.3898, 2893.196
659.8719, 2898.822
660.3541, 2907.143
660.8362, 2914.599
661.3183, 2918.271
661.8004, 2918.952
662.2825, 2919.799
662.7646, 2920.980
663.2468, 2922.533
663.7289, 2924.305
664.2110, 2926.564
664.6931, 2929.579
665.1752, 2933.245
665.6573, 2938.227
666.1395, 2945.836
666.6216, 2954.609
667.1037, 2962.734
667.5858, 2970.551
668.0679, 2976.851
668.5500, 2980.592
669.0322, 2983.147
669.5143, 2987.699
669.9964, 2994.820
670.4785, 3001.028
670.9606, 3004.604
671.4427, 3006.997
671.9249, 3012.785
672.4070, 3021.534
672.8891, 3029.686
673.3712, 3033.828
673.8533, 3036.951
674.3354, 3042.646
674.8176, 3050.808
