##NAMES=Tiptopite
##RRUFFID=R070609
##IDEAL CHEMISTRY=K_2_(Li,Na,Ca)_6_(Be_6_P_6_)O_24_(OH)_2_&#183;1.3H_2_O
##LOCALITY=Tip Top mine, Custer County, South Dakota, USA
##OWNER=RRUFF
##SOURCE=Dakota Matrix Minerals
##DESCRIPTION=Radiating colorless prismatic crystals
##STATUS=The identification of this mineral has been confirmed by single-crystal X-ray diffraction.
##URL=rruff.info/R070609
91.28729, 1363.089
91.76941, 1413.453
92.25153, 1474.467
92.73364, 1531.204
93.21576, 1575.580
93.69788, 1609.714
94.17999, 1642.008
94.66211, 1681.911
95.14423, 1730.698
95.62634, 1786.105
96.10846, 1853.111
96.59058, 1923.254
97.07269, 1989.453
97.55481, 2049.354
98.03693, 2105.651
98.51904, 2164.302
99.00116, 2227.512
99.48328, 2288.869
99.96539, 2350.083
100.4475, 2409.190
100.9296, 2452.507
101.4117, 2447.508
101.8939, 2415.174
102.3760, 2377.518
102.8581, 2325.607
103.3402, 2276.821
103.8223, 2247.581
104.3044, 2239.475
104.7866, 2236.568
105.2687, 2234.033
105.7508, 2230.011
106.2329, 2221.266
106.7150, 2207.278
107.1972, 2187.679
107.6793, 2160.490
108.1614, 2122.574
108.6435, 2079.665
109.1256, 2029.109
109.6077, 1974.756
110.0899, 1925.893
110.5720, 1893.301
111.0541, 1881.762
111.5362, 1865.629
112.0183, 1839.026
112.5004, 1812.241
112.9826, 1790.191
113.4647, 1773.997
113.9468, 1762.239
114.4289, 1753.034
114.9110, 1755.474
115.3931, 1747.280
115.8753, 1720.982
116.3574, 1687.004
116.8395, 1655.267
117.3216, 1630.363
117.8037, 1612.204
118.2858, 1601.698
118.7680, 1605.228
119.2501, 1607.856
119.7322, 1602.262
120.2143, 1591.042
120.6964, 1583.738
121.1785, 1588.758
121.6607, 1604.274
122.1428, 1611.435
122.6249, 1605.555
123.1070, 1594.140
123.5891, 1582.786
124.0712, 1571.579
124.5534, 1561.771
125.0355, 1555.688
125.5176, 1552.104
125.9997, 1547.769
126.4818, 1538.687
126.9639, 1527.605
127.4461, 1523.829
127.9282, 1534.221
128.4103, 1544.562
128.8924, 1543.340
129.3745, 1531.940
129.8566, 1520.532
130.3387, 1518.558
130.8209, 1527.379
131.3030, 1534.551
131.7851, 1540.996
132.2672, 1543.564
132.7493, 1538.294
133.2314, 1524.718
133.7136, 1508.318
134.1957, 1497.760
134.6778, 1493.775
135.1599, 1495.475
135.6420, 1507.829
136.1241, 1522.568
136.6063, 1531.317
137.0884, 1529.974
137.5705, 1521.676
138.0526, 1519.137
138.5347, 1528.950
139.0169, 1537.888
139.4990, 1546.445
139.9811, 1552.766
140.4632, 1553.116
140.9453, 1544.073
141.4274, 1525.935
141.9096, 1514.711
142.3917, 1511.414
142.8738, 1512.350
143.3559, 1516.766
143.8380, 1524.212
144.3201, 1533.573
144.8023, 1545.564
145.2844, 1560.368
145.7665, 1566.697
146.2486, 1554.357
146.7307, 1537.987
147.2128, 1534.267
147.6950, 1547.274
148.1771, 1565.193
148.6592, 1575.671
149.1413, 1579.823
149.6234, 1579.865
150.1055, 1570.809
150.5877, 1557.608
151.0698, 1555.268
151.5519, 1571.732
152.0340, 1594.160
152.5161, 1610.276
152.9982, 1620.082
153.4804, 1625.951
153.9625, 1629.088
154.4446, 1629.466
154.9267, 1628.227
155.4088, 1621.134
155.8909, 1615.396
156.3731, 1616.678
156.8552, 1626.379
157.3373, 1639.731
157.8194, 1651.191
158.3015, 1662.130
158.7836, 1667.078
159.2658, 1658.497
159.7479, 1647.308
160.2300, 1644.426
160.7121, 1654.939
161.1942, 1672.481
161.6763, 1677.890
162.1585, 1658.160
162.6406, 1642.989
163.1227, 1639.153
163.6048, 1641.923
164.0869, 1645.091
164.5690, 1644.807
165.0512, 1641.575
165.5333, 1640.713
166.0154, 1643.185
166.4975, 1647.020
166.9796, 1655.558
167.4617, 1665.475
167.9439, 1669.315
168.4260, 1659.966
168.9081, 1635.778
169.3902, 1621.354
169.8723, 1623.317
170.3544, 1627.254
170.8366, 1627.423
171.3187, 1622.930
171.8008, 1613.953
172.2829, 1599.610
172.7650, 1578.120
173.2471, 1560.996
173.7293, 1552.985
174.2114, 1546.689
174.6935, 1535.081
175.1756, 1516.792
175.6577, 1496.454
176.1398, 1480.026
176.6220, 1467.905
177.1041, 1454.300
177.5862, 1432.415
178.0683, 1409.439
178.5504, 1399.582
179.0325, 1409.707
179.5147, 1425.051
179.9968, 1425.567
180.4789, 1411.430
180.9610, 1396.734
181.4431, 1391.233
181.9252, 1391.503
182.4074, 1382.711
182.8895, 1354.368
183.3716, 1322.616
183.8537, 1305.655
184.3358, 1305.143
184.8179, 1308.270
185.3001, 1306.083
185.7822, 1298.561
186.2643, 1288.727
186.7464, 1273.356
187.2285, 1258.702
187.7106, 1250.473
188.1928, 1250.208
188.6749, 1252.578
189.1570, 1250.679
189.6391, 1242.884
190.1212, 1237.164
190.6033, 1238.759
191.0855, 1241.563
191.5676, 1240.444
192.0497, 1233.373
192.5318, 1223.607
193.0139, 1217.448
193.4960, 1216.652
193.9782, 1216.201
194.4603, 1215.134
194.9424, 1213.781
195.4245, 1212.278
195.9066, 1210.606
196.3887, 1209.142
196.8709, 1209.229
197.3530, 1212.970
197.8351, 1215.515
198.3172, 1217.020
198.7993, 1216.719
199.2814, 1212.606
199.7636, 1202.891
200.2457, 1189.355
200.7278, 1184.182
201.2099, 1200.899
201.6920, 1212.529
202.1741, 1212.435
202.6563, 1203.938
203.1384, 1193.328
203.6205, 1184.872
204.1026, 1178.420
204.5847, 1169.979
205.0668, 1151.288
205.5490, 1138.904
206.0311, 1143.113
206.5132, 1158.892
206.9953, 1173.168
207.4774, 1175.669
207.9595, 1165.654
208.4417, 1156.618
208.9238, 1149.222
209.4059, 1141.983
209.8880, 1134.336
210.3701, 1126.247
210.8522, 1117.536
211.3344, 1107.383
211.8165, 1095.514
212.2986, 1089.553
212.7807, 1095.644
213.2628, 1102.460
213.7449, 1101.441
214.2271, 1092.446
214.7092, 1082.558
215.1913, 1078.874
215.6734, 1082.437
216.1555, 1081.843
216.6376, 1072.469
217.1198, 1061.484
217.6019, 1055.454
218.0840, 1055.232
218.5661, 1057.153
219.0482, 1057.203
219.5303, 1055.449
220.0125, 1057.062
220.4946, 1069.251
220.9767, 1082.333
221.4588, 1082.616
221.9409, 1066.564
222.4230, 1047.780
222.9052, 1042.074
223.3873, 1047.446
223.8694, 1050.771
224.3515, 1045.593
224.8336, 1037.114
225.3158, 1033.805
225.7979, 1037.210
226.2800, 1044.808
226.7621, 1056.587
227.2442, 1071.561
227.7263, 1083.715
228.2085, 1089.427
228.6906, 1090.747
229.1727, 1091.419
229.6548, 1090.286
230.1369, 1092.021
230.6190, 1101.989
231.1012, 1118.771
231.5833, 1135.860
232.0654, 1149.356
232.5475, 1160.462
233.0296, 1173.125
233.5117, 1187.274
233.9939, 1204.121
234.4760, 1227.573
234.9581, 1255.807
235.4402, 1278.940
235.9223, 1286.700
236.4044, 1282.451
236.8866, 1284.751
237.3687, 1296.723
237.8508, 1314.966
238.3329, 1338.657
238.8150, 1366.581
239.2971, 1393.097
239.7793, 1411.691
240.2614, 1423.576
240.7435, 1441.698
241.2256, 1471.517
241.7077, 1503.369
242.1898, 1533.189
242.6720, 1560.292
243.1541, 1583.146
243.6362, 1596.610
244.1183, 1601.096
244.6004, 1614.933
245.0825, 1648.492
245.5647, 1682.925
246.0468, 1710.185
246.5289, 1729.878
247.0110, 1743.737
247.4931, 1754.408
247.9752, 1762.121
248.4574, 1759.727
248.9395, 1744.743
249.4216, 1720.049
249.9037, 1682.484
250.3858, 1634.782
250.8679, 1587.121
251.3501, 1549.390
251.8322, 1522.618
252.3143, 1492.466
252.7964, 1454.467
253.2785, 1416.814
253.7606, 1382.256
254.2428, 1350.902
254.7249, 1322.046
255.2070, 1295.463
255.6891, 1271.238
256.1712, 1247.346
256.6534, 1221.381
257.1355, 1197.986
257.6176, 1182.252
258.0997, 1171.853
258.5818, 1158.851
259.0639, 1133.771
259.5461, 1094.668
260.0282, 1064.530
260.5103, 1050.475
260.9924, 1040.231
261.4745, 1029.912
261.9566, 1019.674
262.4388, 1011.955
262.9209, 1011.094
263.4030, 1018.596
263.8851, 1014.628
264.3672, 979.5667
264.8493, 949.9916
265.3315, 940.3673
265.8136, 947.4910
266.2957, 959.5039
266.7778, 967.1923
267.2599, 970.4649
267.7420, 971.2482
268.2242, 968.4604
268.7063, 963.9370
269.1884, 957.6136
269.6705, 949.9003
270.1526, 941.1268
270.6347, 930.4873
271.1169, 917.7855
271.5990, 912.8340
272.0811, 927.1891
272.5632, 938.8326
273.0453, 939.3163
273.5274, 932.1932
274.0096, 926.4177
274.4917, 929.6624
274.9738, 941.4275
275.4559, 945.1671
275.9380, 930.4706
276.4201, 917.2790
276.9023, 910.4167
277.3844, 908.5361
277.8665, 908.4913
278.3486, 908.2003
278.8307, 907.7678
279.3128, 908.4753
279.7950, 913.1525
280.2771, 915.9378
280.7592, 914.2401
281.2413, 909.9885
281.7234, 906.5863
282.2055, 906.4407
282.6877, 908.6343
283.1698, 907.1438
283.6519, 893.5643
284.1340, 886.2952
284.6161, 891.4371
285.0982, 904.2420
285.5804, 918.5205
286.0625, 931.0579
286.5446, 942.0374
287.0267, 952.8419
287.5088, 967.8078
287.9909, 976.1709
288.4731, 971.7537
288.9552, 961.6976
289.4373, 953.8007
289.9194, 951.7892
290.4015, 954.7228
290.8836, 960.7365
291.3658, 977.5992
291.8479, 985.0659
292.3300, 967.4828
292.8121, 946.0005
293.2942, 946.2380
293.7763, 978.4620
294.2585, 1024.149
294.7406, 1041.155
295.2227, 1007.157
295.7048, 983.8753
296.1869, 981.4355
296.6690, 988.4599
297.1512, 996.6547
297.6333, 1003.210
298.1154, 1008.463
298.5975, 1012.976
299.0796, 1016.844
299.5617, 1019.676
300.0439, 1020.750
300.5260, 1021.428
301.0081, 1023.104
301.4902, 1025.886
301.9723, 1028.205
302.4544, 1026.663
302.9366, 1017.808
303.4187, 1015.944
303.9008, 1026.104
304.3829, 1039.546
304.8650, 1051.955
305.3471, 1062.735
305.8293, 1073.512
306.3114, 1087.115
306.7935, 1105.074
307.2756, 1118.358
307.7577, 1127.223
308.2398, 1130.806
308.7220, 1122.281
309.2041, 1105.823
309.6862, 1095.706
310.1683, 1107.227
310.6504, 1141.607
311.1325, 1169.959
311.6147, 1188.616
312.0968, 1204.481
312.5789, 1217.391
313.0610, 1229.375
313.5431, 1244.929
314.0252, 1268.703
314.5074, 1299.285
314.9895, 1324.214
315.4716, 1337.254
315.9537, 1352.692
316.4358, 1376.561
316.9179, 1405.905
317.4001, 1435.557
317.8822, 1462.714
318.3643, 1488.167
318.8464, 1515.131
319.3285, 1546.747
319.8106, 1573.598
320.2928, 1586.240
320.7749, 1594.987
321.2570, 1613.179
321.7391, 1647.949
322.2212, 1691.173
322.7033, 1726.710
323.1855, 1751.530
323.6676, 1778.323
324.1497, 1816.008
324.6318, 1855.265
325.1139, 1886.942
325.5960, 1907.551
326.0782, 1924.901
326.5603, 1948.680
327.0424, 1979.438
327.5245, 2011.680
328.0066, 2050.447
328.4887, 2085.343
328.9709, 2105.439
329.4530, 2108.869
329.9351, 2109.828
330.4172, 2126.083
330.8993, 2155.884
331.3814, 2167.299
331.8636, 2145.031
332.3457, 2111.878
332.8278, 2087.619
333.3099, 2071.977
333.7920, 2056.370
334.2741, 2034.091
334.7563, 2007.370
335.2384, 1986.446
335.7205, 1978.117
336.2026, 1964.434
336.6847, 1923.238
337.1668, 1862.119
337.6490, 1810.103
338.1311, 1790.020
338.6132, 1782.658
339.0953, 1752.932
339.5774, 1695.255
340.0595, 1631.835
340.5417, 1576.259
341.0238, 1527.169
341.5059, 1482.639
341.9880, 1442.608
342.4701, 1406.790
342.9522, 1376.879
343.4344, 1352.733
343.9165, 1326.745
344.3986, 1291.281
344.8807, 1252.118
345.3628, 1225.796
345.8449, 1224.050
346.3271, 1221.094
346.8092, 1196.000
347.2913, 1155.561
347.7734, 1125.400
348.2555, 1117.978
348.7376, 1124.915
349.2198, 1127.009
349.7019, 1123.462
350.1840, 1118.164
350.6661, 1108.735
351.1482, 1099.090
351.6303, 1098.695
352.1125, 1111.668
352.5946, 1125.608
353.0767, 1119.761
353.5588, 1085.633
354.0409, 1058.541
354.5230, 1041.778
355.0052, 1032.914
355.4873, 1031.361
355.9694, 1036.467
356.4515, 1044.583
356.9336, 1052.402
357.4157, 1060.166
357.8979, 1065.483
358.3800, 1066.248
358.8621, 1066.683
359.3442, 1069.964
359.8263, 1075.240
360.3084, 1078.994
360.7906, 1078.203
361.2727, 1073.212
361.7548, 1071.386
362.2369, 1069.349
362.7190, 1073.885
363.2011, 1095.825
363.6833, 1123.797
364.1654, 1137.649
364.6475, 1126.351
365.1296, 1100.608
365.6117, 1094.608
366.0938, 1128.737
366.5760, 1154.387
367.0581, 1166.069
367.5402, 1169.225
368.0223, 1164.837
368.5044, 1154.403
368.9865, 1146.350
369.4687, 1156.505
369.9508, 1195.945
370.4329, 1222.307
370.9150, 1223.496
371.3971, 1220.394
371.8792, 1223.167
372.3614, 1232.705
372.8435, 1244.964
373.3256, 1256.462
373.8077, 1267.146
374.2898, 1278.786
374.7719, 1292.377
375.2541, 1305.754
375.7362, 1319.009
376.2183, 1331.360
376.7004, 1341.461
377.1825, 1348.900
377.6646, 1353.363
378.1468, 1352.584
378.6289, 1343.142
379.1110, 1337.228
379.5931, 1341.383
380.0752, 1351.371
380.5573, 1364.676
381.0395, 1383.662
381.5216, 1398.341
382.0037, 1391.757
382.4858, 1363.786
382.9679, 1346.922
383.4500, 1360.721
383.9322, 1382.734
384.4143, 1382.747
384.8964, 1356.534
385.3785, 1334.137
385.8606, 1337.361
386.3427, 1356.910
386.8249, 1368.082
387.3070, 1364.105
387.7891, 1356.691
388.2712, 1360.878
388.7533, 1375.456
389.2354, 1383.710
389.7176, 1376.502
390.1997, 1364.859
390.6818, 1359.761
391.1639, 1361.845
391.6460, 1366.397
392.1281, 1370.394
392.6103, 1373.917
393.0924, 1377.974
393.5745, 1382.922
394.0566, 1387.944
394.5387, 1396.305
395.0208, 1404.411
395.5030, 1402.684
395.9851, 1385.424
396.4672, 1360.066
396.9493, 1346.946
397.4314, 1363.233
397.9135, 1369.445
398.3957, 1354.242
398.8778, 1333.461
399.3599, 1323.576
399.8420, 1327.705
400.3241, 1335.847
400.8062, 1334.530
401.2884, 1320.028
401.7705, 1308.914
402.2526, 1305.103
402.7347, 1300.580
403.2168, 1288.954
403.6989, 1272.905
404.1811, 1260.921
404.6632, 1260.625
405.1453, 1270.023
405.6274, 1271.767
406.1095, 1260.557
406.5916, 1248.672
407.0738, 1236.787
407.5559, 1227.002
408.0380, 1222.100
408.5201, 1223.462
409.0022, 1228.786
409.4843, 1235.778
409.9665, 1245.606
410.4486, 1250.984
410.9307, 1246.996
411.4128, 1239.795
411.8949, 1233.217
412.3770, 1227.689
412.8592, 1223.000
413.3413, 1218.895
413.8234, 1215.508
414.3055, 1213.188
414.7876, 1211.625
415.2697, 1211.948
415.7519, 1216.907
416.2340, 1224.947
416.7161, 1230.751
417.1982, 1230.834
417.6803, 1229.350
418.1624, 1231.108
418.6446, 1235.988
419.1267, 1239.888
419.6088, 1239.114
420.0909, 1236.380
420.5730, 1240.823
421.0551, 1256.584
421.5373, 1272.831
422.0194, 1285.432
422.5015, 1296.119
422.9836, 1307.339
423.4657, 1319.784
423.9478, 1334.255
424.4300, 1352.232
424.9121, 1376.273
425.3942, 1397.613
425.8763, 1413.016
426.3584, 1428.357
426.8405, 1448.625
427.3227, 1473.082
427.8048, 1496.469
428.2869, 1513.491
428.7690, 1524.541
429.2511, 1543.142
429.7332, 1577.051
430.2154, 1610.551
430.6975, 1643.438
431.1796, 1673.339
431.6617, 1696.857
432.1438, 1712.310
432.6259, 1723.487
433.1081, 1737.892
433.5902, 1756.844
434.0723, 1774.610
434.5544, 1791.733
435.0365, 1806.366
435.5186, 1815.288
436.0008, 1819.102
436.4829, 1824.209
436.9650, 1842.070
437.4471, 1867.441
437.9292, 1869.846
438.4113, 1836.186
438.8935, 1803.977
439.3756, 1807.912
439.8577, 1831.069
440.3398, 1838.262
440.8219, 1808.971
441.3040, 1770.081
441.7862, 1748.286
442.2683, 1741.689
442.7504, 1734.911
443.2325, 1723.003
443.7146, 1705.388
444.1967, 1680.161
444.6789, 1646.218
445.1610, 1609.561
445.6431, 1563.503
446.1252, 1519.359
446.6074, 1496.632
447.0895, 1497.712
447.5716, 1499.741
448.0537, 1477.560
448.5358, 1426.594
449.0179, 1383.544
449.5001, 1349.466
449.9822, 1320.802
450.4643, 1299.764
450.9464, 1282.829
451.4285, 1262.392
451.9106, 1233.764
452.3928, 1201.815
452.8749, 1182.396
453.3570, 1186.998
453.8391, 1184.124
454.3212, 1166.511
454.8033, 1143.941
455.2855, 1121.448
455.7676, 1100.892
456.2497, 1085.472
456.7318, 1083.495
457.2139, 1094.377
457.6960, 1088.711
458.1782, 1052.188
458.6603, 1018.470
459.1424, 1008.785
459.6245, 1014.836
460.1066, 1019.385
460.5887, 1015.970
461.0709, 1008.224
461.5530, 999.1801
462.0351, 988.9384
462.5172, 981.6118
462.9993, 979.8444
463.4814, 981.0682
463.9636, 980.8856
464.4457, 979.4054
464.9278, 976.4438
465.4099, 970.6680
465.8920, 963.8893
466.3741, 958.7670
466.8563, 955.7112
467.3384, 953.0460
467.8205, 948.9268
468.3026, 943.1086
468.7847, 940.2295
469.2668, 944.2706
469.7490, 946.6157
470.2311, 942.2938
470.7132, 934.3275
471.1953, 928.2583
471.6774, 926.7473
472.1595, 927.6899
472.6417, 925.9550
473.1238, 918.8068
473.6059, 914.8934
474.0880, 920.2845
474.5701, 924.3553
475.0522, 916.7532
475.5344, 899.5341
476.0165, 886.2957
476.4986, 892.3680
476.9807, 912.9995
477.4628, 919.4265
477.9449, 905.7286
478.4271, 890.5438
478.9092, 882.8730
479.3913, 879.5198
479.8734, 876.7599
480.3555, 874.1522
480.8376, 871.1540
481.3198, 866.2642
481.8019, 860.3298
482.2840, 857.3072
482.7661, 859.0119
483.2482, 862.2212
483.7303, 862.5865
484.2125, 859.8209
484.6946, 857.7813
485.1767, 858.3451
485.6588, 858.7215
486.1409, 854.5399
486.6230, 847.5228
487.1052, 846.0966
487.5873, 857.2078
488.0694, 876.0056
488.5515, 879.8127
489.0336, 843.7866
489.5157, 823.5563
489.9979, 834.5542
490.4800, 855.7893
490.9621, 869.1972
491.4442, 870.6944
491.9263, 866.5009
492.4084, 862.8470
492.8906, 859.8296
493.3727, 855.2852
493.8548, 841.7860
494.3369, 837.1058
494.8190, 857.5301
495.3011, 889.3914
495.7833, 908.0244
496.2654, 900.8754
496.7475, 882.9158
497.2296, 871.1345
497.7117, 865.3065
498.1938, 861.5917
498.6760, 859.8275
499.1581, 858.4354
499.6402, 853.8129
500.1223, 845.3129
500.6044, 842.2212
501.0865, 849.0182
501.5687, 860.9408
502.0508, 876.3319
502.5329, 893.5648
503.0150, 905.8323
503.4971, 907.8898
503.9792, 901.4722
504.4614, 896.8146
504.9435, 893.5720
505.4256, 892.5336
505.9077, 896.5717
506.3898, 901.3665
506.8719, 900.8190
507.3541, 894.5316
507.8362, 889.7416
508.3183, 897.3031
508.8004, 919.1266
509.2825, 927.7645
509.7646, 906.6418
510.2468, 893.4317
510.7289, 910.9393
511.2110, 943.6273
511.6931, 964.4998
512.1752, 959.7114
512.6573, 948.2153
513.1395, 954.7807
513.6216, 977.9351
514.1037, 995.7971
514.5858, 999.8724
515.0679, 1000.686
515.5500, 1014.279
516.0322, 1040.489
516.5143, 1057.822
516.9964, 1054.210
517.4785, 1045.392
517.9606, 1044.484
518.4427, 1051.028
518.9249, 1059.061
519.4070, 1065.304
519.8891, 1070.063
520.3712, 1074.425
520.8533, 1081.305
521.3354, 1083.616
521.8176, 1074.387
522.2997, 1065.225
522.7818, 1069.630
523.2639, 1086.111
523.7460, 1098.548
524.2281, 1090.094
524.7103, 1063.268
525.1924, 1042.699
525.6745, 1028.630
526.1566, 1020.861
526.6387, 1027.046
527.1208, 1035.875
527.6030, 1032.567
528.0851, 1011.886
528.5672, 987.8034
529.0493, 971.7610
529.5314, 961.5070
530.0135, 949.5609
530.4957, 934.1926
530.9778, 918.5709
531.4599, 904.8710
531.9420, 893.3738
532.4241, 885.5555
532.9063, 885.0465
533.3884, 884.5857
533.8705, 878.5303
534.3526, 870.3996
534.8347, 867.9769
535.3168, 874.3477
535.7990, 883.8013
536.2811, 886.0238
536.7632, 877.0105
537.2453, 871.5514
537.7274, 874.1199
538.2095, 875.8098
538.6917, 868.2344
539.1738, 856.6442
539.6559, 854.7982
540.1380, 873.9512
540.6201, 900.6669
541.1022, 906.2261
541.5844, 887.9262
542.0665, 876.6122
542.5486, 883.1854
543.0307, 899.1379
543.5128, 914.8907
543.9949, 930.3452
544.4771, 945.8538
544.9592, 963.7114
545.4413, 980.2018
545.9234, 988.7590
546.4055, 990.8533
546.8876, 996.8691
547.3698, 1013.248
547.8519, 1037.563
548.3340, 1061.148
548.8161, 1079.510
549.2982, 1103.388
549.7803, 1141.270
550.2625, 1178.950
550.7446, 1201.813
551.2267, 1211.546
551.7088, 1223.182
552.1909, 1249.675
552.6730, 1288.793
553.1552, 1327.084
553.6373, 1363.272
554.1194, 1401.628
554.6015, 1450.798
555.0836, 1499.478
555.5657, 1532.300
556.0479, 1544.419
556.5300, 1562.661
557.0121, 1611.205
557.4942, 1674.792
557.9763, 1725.359
558.4584, 1759.005
558.9406, 1785.902
559.4227, 1811.456
559.9048, 1836.332
560.3869, 1867.279
560.8690, 1916.355
561.3511, 1955.272
561.8333, 1969.390
562.3154, 1974.923
562.7975, 1991.849
563.2796, 2022.927
563.7617, 2053.288
564.2438, 2067.013
564.7260, 2064.116
565.2081, 2057.950
565.6902, 2050.942
566.1723, 2036.491
566.6544, 2012.692
567.1365, 1980.915
567.6187, 1943.508
568.1008, 1901.696
568.5829, 1850.249
569.0650, 1780.627
569.5471, 1697.989
570.0292, 1615.521
570.5114, 1533.082
570.9935, 1461.534
571.4756, 1413.992
571.9577, 1387.897
572.4398, 1348.456
572.9219, 1283.844
573.4041, 1220.618
573.8862, 1164.992
574.3683, 1116.560
574.8504, 1074.532
575.3325, 1038.740
575.8146, 1009.417
576.2968, 988.4760
576.7789, 976.6450
577.2610, 960.7717
577.7431, 935.1976
578.2252, 913.5018
578.7073, 902.1944
579.1895, 896.6226
579.6716, 890.9304
580.1537, 883.6537
580.6358, 875.7074
581.1179, 868.6030
581.6000, 861.5393
582.0822, 851.1696
582.5643, 836.3663
583.0464, 822.2818
583.5285, 812.9541
584.0106, 808.3862
584.4927, 806.0164
584.9749, 806.6842
585.4570, 808.3536
585.9391, 810.5796
586.4212, 813.3912
586.9033, 818.1570
587.3854, 824.6208
587.8676, 828.5446
588.3497, 823.2850
