##NAMES=Titanite
##RRUFFID=R040033
##IDEAL CHEMISTRY=CaTi^4+^SiO_5_
##LOCALITY=Brazil
##OWNER=RRUFF
##SOURCE=University of Arizona Mineral Museum
##DESCRIPTION=Green flattened wedge-shaped single crystals
##STATUS=The identification of this mineral has been confirmed by X-ray diffraction and chemical analysis
##URL=rruff.info/R040033
##MEASURED CHEMISTRY=(Ca_0.97_Fe^3+^_0.03_)_Σ=1_(Ti_0.97_Al_0.03_)_Σ=1_Si_1.00_O_5_; Fe^3+^ assigned for charge balance
136.3146, 3611.718
136.7967, 3630.513
137.2789, 3659.188
137.7610, 3697.380
138.2431, 3746.130
138.7252, 3807.613
139.2073, 3882.303
139.6894, 3967.750
140.1716, 4061.806
140.6537, 4163.838
141.1358, 4286.296
141.6179, 4434.578
142.1000, 4600.189
142.5821, 4772.819
143.0643, 4974.995
143.5464, 5140.854
144.0285, 5249.616
144.5106, 5307.163
144.9927, 5288.984
145.4748, 5173.751
145.9570, 4987.547
146.4391, 4806.687
146.9212, 4615.464
147.4033, 4445.928
147.8854, 4310.691
148.3675, 4215.855
148.8497, 4146.727
149.3318, 4108.194
149.8139, 4096.800
150.2960, 4097.147
150.7781, 4109.125
151.2602, 4132.711
151.7424, 4167.781
152.2245, 4215.486
152.7066, 4272.829
153.1887, 4338.844
153.6708, 4413.171
154.1529, 4498.724
154.6351, 4601.753
155.1172, 4713.146
155.5993, 4826.545
156.0814, 4941.046
156.5635, 5059.137
157.0456, 5185.195
157.5278, 5318.116
158.0099, 5444.076
158.4920, 5560.425
158.9741, 5669.793
159.4562, 5775.024
159.9383, 5886.225
160.4205, 5985.112
160.9026, 6068.666
161.3847, 6137.278
161.8668, 6182.418
162.3489, 6198.199
162.8310, 6190.096
163.3132, 6164.433
163.7953, 6119.482
164.2774, 6060.607
164.7595, 5989.482
165.2416, 5905.451
165.7237, 5812.547
166.2059, 5705.192
166.6880, 5590.561
167.1701, 5479.614
167.6522, 5376.723
168.1343, 5279.264
168.6164, 5184.204
169.0985, 5089.620
169.5807, 5003.049
170.0628, 4932.010
170.5449, 4872.328
171.0270, 4816.540
171.5091, 4756.429
171.9912, 4700.697
172.4734, 4658.304
172.9555, 4631.559
173.4376, 4614.144
173.9197, 4602.658
174.4018, 4596.384
174.8839, 4593.570
175.3661, 4595.888
175.8482, 4600.190
176.3303, 4601.405
176.8124, 4596.899
177.2945, 4593.640
177.7766, 4601.521
178.2588, 4618.157
178.7409, 4633.409
179.2230, 4638.968
179.7051, 4639.106
180.1872, 4641.313
180.6693, 4646.436
181.1515, 4654.870
181.6336, 4670.563
182.1157, 4692.125
182.5978, 4709.570
183.0799, 4713.532
183.5620, 4707.962
184.0442, 4703.835
184.5263, 4704.229
185.0084, 4705.677
185.4905, 4701.042
185.9726, 4690.588
186.4547, 4680.585
186.9369, 4677.642
187.4190, 4679.804
187.9011, 4678.627
188.3832, 4671.157
188.8653, 4660.556
189.3474, 4651.718
189.8296, 4644.433
190.3117, 4643.290
190.7938, 4653.563
191.2759, 4674.312
191.7580, 4697.920
192.2401, 4722.738
192.7223, 4749.542
193.2044, 4781.245
193.6865, 4818.414
194.1686, 4858.300
194.6507, 4898.247
195.1328, 4938.232
195.6150, 4979.445
196.0971, 5022.339
196.5792, 5066.227
197.0613, 5107.585
197.5434, 5145.372
198.0255, 5184.772
198.5077, 5231.372
198.9898, 5285.717
199.4719, 5337.566
199.9540, 5384.354
200.4361, 5426.487
200.9182, 5467.161
201.4004, 5505.927
201.8825, 5544.015
202.3646, 5582.650
202.8467, 5621.523
203.3288, 5661.247
203.8109, 5702.958
204.2931, 5746.038
204.7752, 5784.860
205.2573, 5819.070
205.7394, 5849.979
206.2215, 5878.681
206.7036, 5904.696
207.1858, 5929.673
207.6679, 5954.085
208.1500, 5977.862
208.6321, 5999.680
209.1142, 6018.891
209.5963, 6037.345
210.0785, 6057.743
210.5606, 6081.190
211.0427, 6101.894
211.5248, 6118.272
212.0069, 6130.430
212.4890, 6140.921
212.9712, 6147.477
213.4533, 6156.002
213.9354, 6173.133
214.4175, 6200.603
214.8996, 6232.231
215.3817, 6268.875
215.8639, 6310.241
216.3460, 6344.126
216.8281, 6365.882
217.3102, 6386.366
217.7923, 6417.819
218.2744, 6463.802
218.7565, 6512.372
219.2387, 6560.660
219.7208, 6609.117
220.2029, 6655.792
220.6850, 6700.632
221.1671, 6743.228
221.6492, 6781.707
222.1314, 6813.949
222.6135, 6847.709
223.0956, 6883.543
223.5777, 6921.846
224.0598, 6964.603
224.5419, 7014.546
225.0241, 7066.352
225.5062, 7115.134
225.9883, 7159.142
226.4704, 7203.102
226.9525, 7247.260
227.4346, 7292.236
227.9168, 7335.561
228.3989, 7374.680
228.8810, 7414.841
229.3631, 7460.843
229.8452, 7514.655
230.3273, 7571.772
230.8095, 7633.638
231.2916, 7700.745
231.7737, 7759.897
232.2558, 7812.675
232.7379, 7855.970
233.2200, 7887.520
233.7022, 7913.366
234.1843, 7915.267
234.6664, 7884.479
235.1485, 7820.904
235.6306, 7757.105
236.1127, 7690.251
236.5949, 7625.198
237.0770, 7564.889
237.5591, 7504.044
238.0412, 7458.257
238.5233, 7431.509
239.0054, 7423.794
239.4876, 7426.550
239.9697, 7437.513
240.4518, 7461.327
240.9339, 7503.151
241.4160, 7568.900
241.8981, 7640.588
242.3803, 7713.309
242.8624, 7787.785
243.3445, 7876.991
243.8266, 7989.098
244.3087, 8107.410
244.7908, 8218.119
245.2730, 8317.442
245.7551, 8416.818
246.2372, 8519.894
246.7193, 8625.681
247.2014, 8722.055
247.6835, 8807.731
248.1657, 8884.269
248.6478, 8952.366
249.1299, 9015.384
249.6120, 9063.682
250.0941, 9096.196
250.5762, 9113.084
251.0584, 9114.881
251.5405, 9099.909
252.0226, 9072.295
252.5047, 9034.625
252.9868, 8985.065
253.4689, 8930.182
253.9511, 8872.759
254.4332, 8810.888
254.9153, 8734.553
255.3974, 8641.156
255.8795, 8537.990
256.3616, 8431.201
256.8438, 8322.287
257.3259, 8204.186
257.8080, 8073.922
258.2901, 7934.715
258.7722, 7794.571
259.2543, 7654.052
259.7365, 7510.477
260.2186, 7357.676
260.7007, 7192.509
261.1828, 7031.487
261.6649, 6874.896
262.1470, 6723.444
262.6292, 6573.951
263.1113, 6426.038
263.5934, 6282.567
264.0755, 6146.154
264.5576, 6017.177
265.0397, 5889.050
265.5219, 5758.219
266.0040, 5629.664
266.4861, 5511.863
266.9682, 5408.026
267.4503, 5309.270
267.9324, 5214.290
268.4146, 5121.974
268.8967, 5032.267
269.3788, 4944.852
269.8609, 4860.475
270.3430, 4782.611
270.8251, 4712.408
271.3073, 4645.223
271.7894, 4578.756
272.2715, 4511.851
272.7536, 4457.224
273.2357, 4417.471
273.7178, 4386.875
274.2000, 4356.642
274.6821, 4326.454
275.1642, 4298.495
275.6463, 4273.254
276.1284, 4250.706
276.6105, 4231.370
277.0927, 4214.950
277.5748, 4202.361
278.0569, 4195.431
278.5390, 4194.630
279.0211, 4195.711
279.5032, 4196.228
279.9854, 4197.028
280.4675, 4206.334
280.9496, 4225.208
281.4317, 4249.164
281.9138, 4273.316
282.3959, 4297.567
282.8781, 4325.187
283.3602, 4356.605
283.8423, 4392.282
284.3244, 4433.867
284.8065, 4481.968
285.2886, 4533.244
285.7708, 4584.708
286.2529, 4636.429
286.7350, 4690.911
287.2171, 4750.915
287.6992, 4812.604
288.1813, 4864.442
288.6635, 4906.489
289.1456, 4941.996
289.6277, 4973.240
290.1098, 5000.170
290.5919, 5021.795
291.0740, 5038.214
291.5562, 5049.207
292.0383, 5054.133
292.5204, 5053.060
293.0025, 5046.528
293.4846, 5029.397
293.9667, 5006.232
294.4489, 4992.643
294.9310, 4990.712
295.4131, 4998.690
295.8952, 5012.023
296.3773, 5031.948
296.8594, 5065.903
297.3416, 5122.723
297.8237, 5196.659
298.3058, 5272.922
298.7879, 5350.178
299.2700, 5434.117
299.7521, 5532.165
300.2343, 5642.166
300.7164, 5752.435
301.1985, 5859.790
301.6806, 5964.563
302.1627, 6064.597
302.6448, 6160.390
303.1270, 6255.317
303.6091, 6358.188
304.0912, 6462.502
304.5733, 6559.676
305.0554, 6641.767
305.5375, 6716.275
306.0197, 6792.666
306.5018, 6870.044
306.9839, 6938.440
307.4660, 6980.771
307.9481, 7010.990
308.4302, 7048.675
308.9124, 7102.897
309.3945, 7164.543
309.8766, 7225.846
310.3587, 7288.176
310.8408, 7355.720
311.3229, 7429.798
311.8051, 7511.548
312.2872, 7601.026
312.7693, 7702.784
313.2514, 7805.573
313.7335, 7909.806
314.2156, 8011.470
314.6978, 8100.267
315.1799, 8177.237
315.6620, 8236.321
316.1441, 8273.271
316.6262, 8290.917
317.1083, 8278.227
317.5905, 8225.740
318.0726, 8140.544
318.5547, 8033.822
319.0368, 7903.813
319.5189, 7757.793
320.0010, 7596.997
320.4832, 7417.563
320.9653, 7240.521
321.4474, 7065.260
321.9295, 6897.758
322.4116, 6745.005
322.8937, 6608.261
323.3759, 6486.842
323.8580, 6381.473
324.3401, 6293.377
324.8222, 6215.918
325.3043, 6147.737
325.7864, 6090.136
326.2686, 6044.118
326.7507, 6013.089
327.2328, 5989.931
327.7149, 5974.616
328.1970, 5966.997
328.6791, 5964.315
329.1613, 5973.120
329.6434, 5981.556
330.1255, 5983.503
330.6076, 5972.179
331.0897, 5964.255
331.5718, 5963.669
332.0540, 5966.530
332.5361, 5962.158
333.0182, 5951.734
333.5003, 5932.464
333.9824, 5902.700
334.4645, 5859.706
334.9467, 5814.125
335.4288, 5766.875
335.9109, 5716.695
336.3930, 5662.285
336.8751, 5601.983
337.3572, 5540.376
337.8394, 5478.691
338.3215, 5417.650
338.8036, 5350.989
339.2857, 5275.240
339.7678, 5199.682
340.2499, 5132.469
340.7320, 5075.118
341.2141, 5024.081
341.6963, 4979.869
342.1784, 4941.595
342.6605, 4904.454
343.1426, 4867.331
343.6247, 4837.906
344.1068, 4824.388
344.5890, 4826.354
345.0711, 4832.317
345.5532, 4840.930
346.0353, 4852.148
346.5174, 4864.388
346.9995, 4877.813
347.4817, 4897.003
347.9638, 4930.812
348.4459, 4973.616
348.9280, 5006.691
349.4101, 5029.534
349.8922, 5038.823
350.3744, 5030.490
350.8565, 5004.962
351.3386, 4963.053
351.8207, 4906.588
352.3028, 4833.897
352.7849, 4740.008
353.2671, 4624.032
353.7492, 4493.304
354.2313, 4344.715
354.7134, 4187.380
355.1955, 4034.804
355.6776, 3891.851
356.1598, 3757.171
356.6419, 3625.922
357.1240, 3499.292
357.6061, 3383.660
358.0882, 3286.072
358.5703, 3199.616
359.0525, 3119.262
359.5346, 3044.851
360.0167, 2973.887
360.4988, 2904.837
360.9809, 2838.512
361.4630, 2777.439
361.9452, 2724.471
362.4273, 2675.607
362.9094, 2629.055
363.3915, 2584.868
363.8736, 2541.392
364.3557, 2498.139
364.8379, 2455.620
365.3200, 2414.667
365.8021, 2376.625
366.2842, 2338.878
366.7663, 2301.059
367.2484, 2263.001
367.7306, 2225.349
368.2127, 2188.947
368.6948, 2152.631
369.1769, 2115.284
369.6590, 2072.866
370.1411, 2034.362
370.6233, 2001.243
371.1054, 1972.373
371.5875, 1943.341
372.0696, 1913.914
372.5517, 1884.984
373.0338, 1856.661
373.5160, 1828.638
373.9981, 1801.989
374.4802, 1777.208
374.9623, 1753.079
375.4444, 1727.497
375.9265, 1698.746
376.4087, 1672.655
376.8908, 1651.515
377.3729, 1635.065
377.8550, 1618.177
378.3371, 1600.590
378.8192, 1583.643
379.3014, 1569.243
379.7835, 1557.379
380.2656, 1545.312
380.7477, 1531.745
381.2298, 1518.380
381.7119, 1509.845
382.1941, 1506.272
382.6762, 1504.148
383.1583, 1500.829
383.6404, 1496.953
384.1225, 1495.596
384.6046, 1497.534
385.0868, 1500.232
385.5689, 1500.949
386.0510, 1499.804
386.5331, 1497.295
387.0152, 1492.620
387.4973, 1487.150
387.9795, 1483.574
388.4616, 1481.921
388.9437, 1478.863
389.4258, 1471.587
389.9079, 1461.355
390.3900, 1450.012
390.8722, 1437.883
391.3543, 1425.150
391.8364, 1411.885
392.3185, 1398.256
392.8006, 1384.419
393.2827, 1369.077
393.7649, 1354.422
394.2470, 1342.235
394.7291, 1333.228
395.2112, 1325.392
395.6933, 1316.502
396.1754, 1308.630
396.6576, 1304.892
397.1397, 1309.259
397.6218, 1314.787
398.1039, 1318.779
398.5860, 1320.786
399.0681, 1325.289
399.5503, 1333.489
400.0324, 1343.946
400.5145, 1355.431
400.9966, 1366.657
401.4787, 1380.831
401.9608, 1398.785
402.4430, 1419.918
402.9251, 1441.826
403.4072, 1463.956
403.8893, 1487.820
404.3714, 1513.760
404.8535, 1541.841
405.3357, 1572.419
405.8178, 1605.434
406.2999, 1640.523
406.7820, 1677.339
407.2641, 1716.135
407.7462, 1755.075
408.2284, 1793.539
408.7105, 1831.375
409.1926, 1871.355
409.6747, 1913.538
410.1568, 1957.463
410.6389, 2002.990
411.1211, 2049.761
411.6032, 2097.643
412.0853, 2146.289
412.5674, 2197.136
413.0495, 2255.073
413.5316, 2319.446
414.0138, 2385.055
414.4959, 2449.317
414.9780, 2513.859
415.4601, 2579.803
415.9422, 2647.745
416.4243, 2718.173
416.9065, 2793.659
417.3886, 2871.812
417.8707, 2947.531
418.3528, 3019.528
418.8349, 3088.906
419.3170, 3159.747
419.7992, 3230.778
420.2813, 3292.514
420.7634, 3343.266
421.2455, 3383.209
421.7276, 3412.576
422.2097, 3431.881
422.6919, 3440.221
423.1740, 3439.279
423.6561, 3426.974
424.1382, 3399.981
424.6203, 3351.144
425.1024, 3294.874
425.5846, 3232.926
426.0667, 3165.415
426.5488, 3095.796
427.0309, 3022.933
427.5130, 2948.165
427.9951, 2871.440
428.4773, 2788.892
428.9594, 2712.870
429.4415, 2644.705
429.9236, 2583.610
430.4057, 2526.895
430.8878, 2475.435
431.3700, 2426.697
431.8521, 2378.295
432.3342, 2330.240
432.8163, 2292.062
433.2984, 2265.116
433.7805, 2243.376
434.2627, 2219.860
434.7448, 2195.020
435.2269, 2173.605
435.7090, 2157.092
436.1911, 2144.043
436.6732, 2131.002
437.1554, 2118.270
437.6375, 2108.986
438.1196, 2107.874
438.6017, 2110.787
439.0838, 2109.833
439.5659, 2103.005
440.0480, 2098.344
440.5302, 2104.231
441.0123, 2116.639
441.4944, 2128.815
441.9765, 2139.602
442.4586, 2147.986
442.9407, 2151.034
443.4229, 2149.735
443.9050, 2152.194
444.3871, 2163.418
444.8692, 2178.394
445.3513, 2193.728
445.8334, 2207.423
446.3156, 2224.159
446.7977, 2244.257
447.2798, 2267.884
447.7619, 2295.384
448.2440, 2328.714
448.7261, 2363.583
449.2083, 2398.142
449.6904, 2432.311
450.1725, 2470.783
450.6546, 2513.703
451.1367, 2560.153
451.6188, 2609.926
452.1010, 2664.675
452.5831, 2717.510
453.0652, 2766.453
453.5473, 2815.414
454.0294, 2876.150
454.5115, 2950.365
454.9937, 3024.542
455.4758, 3092.181
455.9579, 3154.710
456.4400, 3221.111
456.9221, 3291.941
457.4042, 3366.410
457.8864, 3444.620
458.3685, 3526.214
458.8506, 3613.035
459.3327, 3705.791
459.8148, 3802.183
460.2969, 3901.858
460.7791, 4003.929
461.2612, 4102.331
461.7433, 4192.320
462.2254, 4278.438
462.7075, 4363.849
463.1896, 4449.958
463.6718, 4532.157
464.1539, 4614.079
464.6360, 4687.993
465.1181, 4744.688
465.6002, 4778.960
466.0823, 4799.044
466.5645, 4808.074
467.0466, 4804.661
467.5287, 4783.368
468.0108, 4747.569
468.4929, 4689.595
468.9750, 4604.644
469.4572, 4487.399
469.9393, 4363.960
470.4214, 4236.064
470.9035, 4101.222
471.3856, 3954.145
471.8677, 3787.753
472.3499, 3630.741
472.8320, 3486.157
473.3141, 3352.768
473.7962, 3223.354
474.2783, 3097.287
474.7604, 2979.960
475.2426, 2874.899
475.7247, 2781.144
476.2068, 2695.916
476.6889, 2618.657
477.1710, 2549.759
477.6531, 2490.889
478.1353, 2440.823
478.6174, 2396.204
479.0995, 2355.854
479.5816, 2320.397
480.0637, 2290.532
480.5458, 2266.268
481.0280, 2248.333
481.5101, 2241.492
481.9922, 2238.264
482.4743, 2232.139
482.9564, 2221.369
483.4385, 2213.056
483.9207, 2210.045
484.4028, 2211.012
484.8849, 2214.630
485.3670, 2223.766
485.8491, 2232.025
486.3312, 2238.329
486.8134, 2242.824
487.2955, 2246.212
487.7776, 2245.252
488.2597, 2247.110
488.7418, 2255.790
489.2239, 2273.584
489.7061, 2286.448
490.1882, 2292.549
490.6703, 2296.461
491.1524, 2303.915
491.6345, 2315.684
492.1166, 2324.930
492.5988, 2329.420
493.0809, 2331.603
493.5630, 2338.876
494.0451, 2351.049
494.5272, 2361.103
495.0093, 2363.692
495.4915, 2361.373
495.9736, 2359.557
496.4557, 2358.461
496.9378, 2358.447
497.4199, 2362.547
497.9020, 2367.321
498.3842, 2366.875
498.8663, 2354.969
499.3484, 2343.898
499.8305, 2342.776
500.3126, 2348.660
500.7947, 2354.026
501.2769, 2354.944
501.7590, 2355.818
502.2411, 2358.847
502.7232, 2364.516
503.2053, 2370.163
503.6874, 2374.164
504.1696, 2378.788
504.6517, 2385.676
505.1338, 2396.161
505.6159, 2406.329
506.0980, 2414.806
506.5801, 2423.248
507.0623, 2435.581
507.5444, 2452.585
508.0265, 2471.586
508.5086, 2492.628
508.9907, 2515.232
509.4728, 2534.571
509.9550, 2550.029
510.4371, 2566.482
510.9192, 2589.034
511.4013, 2616.315
511.8834, 2642.466
512.3655, 2666.610
512.8477, 2690.082
513.3298, 2713.936
513.8119, 2738.348
514.2940, 2763.694
514.7761, 2790.723
515.2582, 2818.343
515.7404, 2845.413
516.2225, 2872.252
516.7046, 2901.127
517.1867, 2935.561
517.6688, 2970.623
518.1509, 3002.624
518.6331, 3028.740
519.1152, 3057.549
519.5973, 3091.178
520.0794, 3127.781
520.5615, 3164.357
521.0436, 3200.205
521.5258, 3237.426
522.0079, 3277.398
522.4900, 3319.028
522.9721, 3356.445
523.4542, 3386.870
523.9363, 3419.044
524.4185, 3458.187
524.9006, 3504.436
525.3827, 3548.946
525.8648, 3591.505
526.3469, 3634.707
526.8290, 3680.934
527.3112, 3730.154
527.7933, 3782.653
528.2754, 3839.333
528.7575, 3898.838
529.2396, 3961.599
529.7217, 4027.014
530.2039, 4091.952
530.6860, 4154.188
531.1681, 4216.428
531.6502, 4281.786
532.1323, 4350.620
532.6144, 4421.047
533.0966, 4496.741
533.5787, 4571.399
534.0608, 4641.306
534.5429, 4700.446
535.0250, 4762.711
535.5071, 4831.563
535.9893, 4902.534
536.4714, 4968.170
536.9535, 5029.169
537.4356, 5083.194
537.9177, 5128.361
538.3998, 5165.917
538.8820, 5201.089
539.3641, 5233.714
539.8462, 5263.029
540.3283, 5289.356
540.8104, 5312.044
541.2925, 5326.417
541.7747, 5331.775
542.2568, 5331.521
542.7389, 5330.874
543.2210, 5327.403
543.7031, 5314.427
544.1852, 5285.860
544.6674, 5254.148
545.1495, 5233.149
545.6316, 5218.344
546.1137, 5198.405
546.5958, 5165.873
547.0779, 5128.890
547.5601, 5090.481
548.0422, 5050.826
548.5243, 5012.728
549.0064, 4979.655
549.4885, 4946.249
549.9706, 4909.526
550.4528, 4872.289
550.9349, 4825.869
551.4170, 4765.405
551.8991, 4698.651
552.3812, 4637.483
552.8633, 4584.228
553.3455, 4526.901
553.8276, 4462.192
554.3097, 4391.699
554.7918, 4317.370
555.2739, 4240.446
555.7560, 4168.751
556.2382, 4110.304
556.7203, 4060.276
557.2024, 4007.592
557.6845, 3951.671
558.1666, 3897.081
558.6487, 3847.473
559.1309, 3801.865
559.6130, 3759.921
560.0951, 3721.278
560.5772, 3686.035
561.0593, 3655.947
561.5414, 3628.887
562.0236, 3601.563
562.5057, 3566.105
562.9878, 3537.263
563.4699, 3521.541
563.9520, 3517.645
564.4341, 3511.019
564.9163, 3497.297
565.3984, 3486.950
565.8805, 3485.735
566.3626, 3495.227
566.8447, 3503.471
567.3268, 3508.913
567.8090, 3517.582
568.2911, 3538.208
568.7732, 3569.622
569.2553, 3598.758
569.7374, 3621.415
570.2195, 3644.601
570.7017, 3678.479
571.1838, 3721.942
571.6659, 3770.604
572.1480, 3824.881
572.6301, 3882.233
573.1122, 3940.164
573.5944, 3999.352
574.0765, 4061.645
574.5586, 4131.063
575.0407, 4201.304
575.5228, 4268.143
576.0049, 4326.736
576.4871, 4392.786
576.9692, 4469.402
577.4513, 4553.139
577.9334, 4642.704
578.4155, 4736.916
578.8976, 4836.729
579.3798, 4942.653
579.8619, 5054.011
580.3440, 5165.468
580.8261, 5276.035
581.3082, 5394.063
581.7903, 5524.158
582.2725, 5663.577
582.7546, 5800.037
583.2367, 5934.116
583.7188, 6075.077
584.2009, 6229.374
584.6830, 6393.112
585.1652, 6562.858
585.6473, 6739.794
586.1294, 6915.404
586.6115, 7078.466
587.0936, 7242.406
587.5757, 7419.295
588.0578, 7619.721
588.5399, 7824.465
589.0220, 8031.870
589.5042, 8241.137
589.9863, 8450.415
590.4684, 8654.569
590.9505, 8863.462
591.4326, 9081.331
591.9147, 9306.666
592.3969, 9524.126
592.8790, 9730.892
593.3611, 9941.986
593.8432, 10172.96
594.3253, 10416.18
594.8074, 10651.29
595.2896, 10877.00
595.7717, 11100.01
596.2538, 11327.10
596.7359, 11556.28
597.2180, 11785.74
597.7001, 12010.77
598.1823, 12234.56
598.6644, 12462.70
599.1465, 12689.52
599.6286, 12906.13
600.1107, 13101.63
600.5928, 13291.78
601.0750, 13487.19
601.5571, 13683.69
602.0392, 13856.22
602.5213, 13993.22
603.0034, 14123.85
603.4855, 14262.05
603.9677, 14411.35
604.4498, 14530.66
604.9319, 14617.52
605.4140, 14684.37
605.8961, 14740.62
606.3782, 14786.15
606.8604, 14816.17
607.3425, 14831.10
607.8246, 14827.15
608.3067, 14794.13
608.7888, 14738.99
609.2709, 14677.78
609.7531, 14624.31
610.2352, 14557.56
610.7173, 14458.15
611.1994, 14333.84
611.6815, 14205.22
612.1636, 14086.52
612.6458, 13956.62
613.1279, 13801.12
613.6100, 13620.61
614.0921, 13446.55
614.5742, 13285.62
615.0563, 13120.00
615.5385, 12938.08
616.0206, 12734.23
616.5027, 12538.93
616.9848, 12355.20
617.4669, 12171.74
617.9490, 11976.92
618.4312, 11773.47
618.9133, 11581.50
619.3954, 11405.41
619.8775, 11235.65
620.3596, 11060.90
620.8417, 10882.22
621.3239, 10705.83
621.8060, 10532.44
622.2881, 10359.12
622.7702, 10181.18
623.2523, 10000.73
623.7344, 9826.572
624.2166, 9662.049
624.6987, 9502.590
625.1808, 9348.496
625.6629, 9199.284
626.1450, 9051.494
626.6271, 8903.265
627.1093, 8756.719
627.5914, 8613.775
628.0735, 8474.830
628.5556, 8331.595
629.0377, 8182.752
629.5198, 8036.858
630.0020, 7906.091
630.4841, 7785.896
630.9662, 7660.815
631.4483, 7523.850
