##NAMES=Titanite
##RRUFFID=R050039
##IDEAL CHEMISTRY=CaTi^4+^SiO_5_
##LOCALITY=Kingman, Arizona, USA
##OWNER=RRUFF
##SOURCE=University of Arizona Mineral Museum
##DESCRIPTION=Black fragment from a single crystal
##STATUS=The identification of this mineral has been confirmed by X-ray diffraction and chemical analysis
##URL=rruff.info/R050039
##MEASURED CHEMISTRY=(Ca_0.95_Y_0.05_)(Ti_0.85_Al_0.10_Fe^3+^_0.06_)Si_1.00_O_4_(O_0.93_F_0.07_)
174.2498, 9321.266
174.7319, 9357.956
175.2140, 9407.407
175.6961, 9463.161
176.1783, 9517.208
176.6604, 9571.450
177.1425, 9616.403
177.6246, 9629.617
178.1067, 9616.255
178.5888, 9610.830
179.0710, 9648.949
179.5531, 9713.300
180.0352, 9764.225
180.5173, 9786.342
180.9994, 9796.207
181.4815, 9817.396
181.9637, 9850.034
182.4458, 9892.011
182.9279, 9945.509
183.4100, 10008.16
183.8921, 10072.04
184.3742, 10136.00
184.8564, 10199.41
185.3385, 10259.08
185.8206, 10315.45
186.3027, 10368.77
186.7848, 10418.03
187.2669, 10463.89
187.7491, 10512.82
188.2312, 10568.51
188.7133, 10628.85
189.1954, 10686.32
189.6775, 10739.66
190.1596, 10794.30
190.6418, 10858.20
191.1239, 10930.96
191.6060, 11006.69
192.0881, 11082.10
192.5702, 11157.84
193.0524, 11241.40
193.5345, 11334.77
194.0166, 11430.19
194.4987, 11508.24
194.9808, 11566.93
195.4629, 11638.39
195.9451, 11745.59
196.4272, 11888.87
196.9093, 12007.77
197.3914, 12092.14
197.8735, 12165.16
198.3556, 12273.59
198.8378, 12421.49
199.3199, 12576.09
199.8020, 12722.85
200.2841, 12860.82
200.7662, 12982.15
201.2483, 13077.36
201.7305, 13163.87
202.2126, 13285.90
202.6947, 13448.20
203.1768, 13628.27
203.6589, 13818.79
204.1410, 14021.00
204.6232, 14210.78
205.1053, 14379.83
205.5874, 14537.70
206.0695, 14717.07
206.5516, 14921.99
207.0337, 15137.83
207.5159, 15360.46
207.9980, 15589.61
208.4801, 15804.10
208.9622, 15989.75
209.4443, 16158.80
209.9264, 16377.44
210.4086, 16663.79
210.8907, 16964.58
211.3728, 17229.32
211.8549, 17441.80
212.3370, 17682.35
212.8191, 17970.79
213.3013, 18299.51
213.7834, 18626.08
214.2655, 18946.98
214.7476, 19272.84
215.2297, 19609.94
215.7118, 19965.72
216.1940, 20320.82
216.6761, 20665.75
217.1582, 21003.34
217.6403, 21370.64
218.1224, 21778.79
218.6045, 22196.00
219.0867, 22585.71
219.5688, 22919.52
220.0509, 23287.92
220.5330, 23709.68
221.0151, 24191.59
221.4972, 24659.03
221.9794, 25107.02
222.4615, 25550.55
222.9436, 26013.83
223.4257, 26511.29
223.9078, 27004.78
224.3899, 27476.96
224.8721, 27931.89
225.3542, 28394.10
225.8363, 28871.64
226.3184, 29352.56
226.8005, 29829.58
227.2827, 30290.40
227.7648, 30766.01
228.2469, 31274.00
228.7290, 31821.87
229.2111, 32325.72
229.6932, 32756.69
230.1754, 33161.05
230.6575, 33608.83
231.1396, 34126.48
231.6217, 34635.55
232.1038, 35113.52
232.5859, 35555.05
233.0681, 35995.14
233.5502, 36441.27
234.0323, 36878.82
234.5144, 37292.15
234.9965, 37672.61
235.4786, 38038.37
235.9608, 38394.99
236.4429, 38737.04
236.9250, 39074.67
237.4071, 39406.75
237.8892, 39732.73
238.3713, 40057.16
238.8535, 40407.21
239.3356, 40709.23
239.8177, 40924.42
240.2998, 41016.40
240.7819, 41168.48
241.2640, 41423.65
241.7462, 41716.35
242.2283, 41932.66
242.7104, 42037.39
243.1925, 42123.71
243.6746, 42225.84
244.1567, 42360.31
244.6389, 42455.80
245.1210, 42513.10
245.6031, 42531.23
246.0852, 42502.32
246.5673, 42401.50
247.0494, 42296.21
247.5316, 42214.59
248.0137, 42173.56
248.4958, 42099.53
248.9779, 41994.87
249.4600, 41855.98
249.9421, 41679.76
250.4243, 41466.32
250.9064, 41213.52
251.3885, 40916.70
251.8706, 40564.66
252.3527, 40201.97
252.8348, 39837.12
253.3170, 39457.60
253.7991, 39037.48
254.2812, 38565.97
254.7633, 38083.42
255.2454, 37606.69
255.7275, 37150.08
256.2097, 36659.38
256.6918, 36126.30
257.1739, 35570.50
257.6560, 35019.48
258.1381, 34468.16
258.6202, 33929.83
259.1024, 33405.21
259.5845, 32902.90
260.0666, 32399.79
260.5487, 31892.79
261.0308, 31388.35
261.5129, 30874.18
261.9951, 30349.60
262.4772, 29827.28
262.9593, 29316.53
263.4414, 28811.61
263.9235, 28323.81
264.4056, 27843.64
264.8878, 27383.86
265.3699, 26963.00
265.8520, 26592.64
266.3341, 26217.69
266.8162, 25803.69
267.2983, 25342.56
267.7805, 24920.66
268.2626, 24553.69
268.7447, 24212.42
269.2268, 23839.39
269.7089, 23419.21
270.1910, 23024.00
270.6732, 22682.23
271.1553, 22400.56
271.6374, 22126.20
272.1195, 21863.31
272.6016, 21600.97
273.0837, 21324.97
273.5659, 21028.07
274.0480, 20748.55
274.5301, 20507.81
275.0122, 20309.11
275.4943, 20078.60
275.9764, 19803.15
276.4586, 19520.63
276.9407, 19290.48
277.4228, 19120.46
277.9049, 18959.81
278.3870, 18793.27
278.8691, 18621.00
279.3513, 18442.82
279.8334, 18253.54
280.3155, 18071.75
280.7976, 17928.24
281.2798, 17825.90
281.7619, 17723.25
282.2440, 17603.47
282.7261, 17469.21
283.2082, 17339.75
283.6903, 17214.88
284.1725, 17095.52
284.6546, 16977.56
285.1367, 16862.65
285.6188, 16768.06
286.1009, 16710.02
286.5830, 16678.35
287.0652, 16627.97
287.5473, 16557.49
288.0294, 16479.51
288.5115, 16404.28
288.9936, 16332.08
289.4757, 16268.22
289.9579, 16215.55
290.4400, 16171.83
290.9221, 16132.64
291.4042, 16098.69
291.8863, 16060.35
292.3684, 15994.72
292.8506, 15912.07
293.3327, 15857.40
293.8148, 15861.02
294.2969, 15891.66
294.7790, 15883.34
295.2611, 15835.90
295.7433, 15786.02
296.2254, 15763.04
296.7075, 15762.33
297.1896, 15771.92
297.6717, 15792.70
298.1538, 15818.27
298.6360, 15839.05
299.1181, 15855.46
299.6002, 15870.38
300.0823, 15883.59
300.5644, 15897.31
301.0465, 15915.48
301.5287, 15937.64
302.0108, 15966.46
302.4929, 16010.49
302.9750, 16066.95
303.4571, 16117.44
303.9392, 16140.57
304.4214, 16153.34
304.9035, 16181.97
305.3856, 16243.54
305.8677, 16303.93
306.3498, 16320.18
306.8319, 16305.53
307.3141, 16307.28
307.7962, 16368.50
308.2783, 16452.43
308.7604, 16523.74
309.2425, 16570.31
309.7246, 16611.23
310.2068, 16658.07
310.6889, 16708.83
311.1710, 16758.86
311.6531, 16799.53
312.1352, 16842.56
312.6173, 16897.50
313.0995, 16968.48
313.5816, 17041.90
314.0637, 17112.51
314.5458, 17181.43
315.0279, 17251.28
315.5100, 17321.08
315.9922, 17393.59
316.4743, 17469.83
316.9564, 17549.54
317.4385, 17634.63
317.9206, 17726.26
318.4027, 17823.52
318.8849, 17925.11
319.3670, 18031.85
319.8491, 18141.86
320.3312, 18258.18
320.8133, 18384.51
321.2954, 18497.82
321.7776, 18582.15
322.2597, 18656.55
322.7418, 18741.30
323.2239, 18862.29
323.7060, 18970.97
324.1881, 19044.74
324.6703, 19078.04
325.1524, 19141.34
325.6345, 19258.40
326.1166, 19396.55
326.5987, 19530.95
327.0808, 19682.63
327.5630, 19805.17
328.0451, 19880.42
328.5272, 19911.23
329.0093, 19960.89
329.4914, 20040.88
329.9735, 20128.06
330.4557, 20208.64
330.9378, 20290.16
331.4199, 20350.13
331.9020, 20371.48
332.3841, 20367.62
332.8662, 20409.88
333.3484, 20530.77
333.8305, 20647.87
334.3126, 20717.67
334.7947, 20731.92
335.2768, 20718.63
335.7589, 20665.06
336.2411, 20592.49
336.7232, 20557.63
337.2053, 20573.29
337.6874, 20590.00
338.1695, 20581.82
338.6516, 20545.08
339.1338, 20516.27
339.6159, 20497.21
340.0980, 20484.69
340.5801, 20475.79
341.0622, 20471.11
341.5443, 20463.47
342.0265, 20454.69
342.5086, 20442.83
342.9907, 20404.03
343.4728, 20334.25
343.9549, 20254.64
344.4370, 20190.31
344.9192, 20140.56
345.4013, 20095.95
345.8834, 20053.94
346.3655, 20015.17
346.8476, 19987.85
347.3297, 19972.73
347.8119, 19951.76
348.2940, 19893.37
348.7761, 19813.57
349.2582, 19765.10
349.7403, 19784.27
350.2225, 19818.31
350.7046, 19784.33
351.1867, 19689.29
351.6688, 19589.07
352.1509, 19527.49
352.6331, 19485.39
353.1152, 19431.00
353.5973, 19346.65
354.0794, 19268.39
354.5615, 19243.73
355.0436, 19254.94
355.5258, 19247.99
356.0079, 19180.17
356.4900, 19088.45
356.9721, 19001.35
357.4542, 18920.29
357.9363, 18853.92
358.4185, 18813.69
358.9006, 18790.72
359.3827, 18769.71
359.8648, 18758.20
360.3469, 18736.36
360.8290, 18684.40
361.3112, 18593.70
361.7933, 18524.11
362.2754, 18519.93
362.7575, 18536.60
363.2396, 18525.63
363.7217, 18448.72
364.2039, 18370.61
364.6860, 18298.84
365.1681, 18233.63
365.6502, 18200.84
366.1323, 18237.04
366.6144, 18285.80
367.0966, 18308.22
367.5787, 18278.47
368.0608, 18252.25
368.5429, 18234.98
369.0250, 18224.50
369.5071, 18209.20
369.9893, 18177.81
370.4714, 18154.65
370.9535, 18150.43
371.4356, 18163.42
371.9177, 18202.21
372.3998, 18282.46
372.8820, 18380.94
373.3641, 18441.00
373.8462, 18446.66
374.3283, 18454.96
374.8104, 18488.27
375.2925, 18548.64
375.7747, 18612.94
376.2568, 18679.70
376.7389, 18754.36
377.2210, 18844.72
377.7031, 18951.42
378.1852, 19065.73
378.6674, 19195.77
379.1495, 19330.94
379.6316, 19418.94
380.1137, 19453.39
380.5958, 19491.92
381.0779, 19595.44
381.5601, 19753.21
382.0422, 19902.06
382.5243, 20024.73
383.0064, 20140.03
383.4885, 20286.19
383.9706, 20459.87
384.4528, 20626.02
384.9349, 20761.17
385.4170, 20874.41
385.8991, 20979.52
386.3812, 21074.30
386.8633, 21178.34
387.3455, 21318.63
387.8276, 21482.29
388.3097, 21642.46
388.7918, 21786.95
389.2739, 21919.89
389.7560, 22038.74
390.2382, 22141.40
390.7203, 22253.42
391.2024, 22399.04
391.6845, 22557.50
392.1666, 22706.75
392.6487, 22834.88
393.1309, 22955.67
393.6130, 23074.38
394.0951, 23190.96
394.5772, 23297.60
395.0593, 23388.95
395.5414, 23472.06
396.0236, 23550.43
396.5057, 23622.94
396.9878, 23693.00
397.4699, 23759.08
397.9520, 23822.38
398.4341, 23886.15
398.9163, 23954.45
399.3984, 24018.87
399.8805, 24074.16
400.3626, 24112.49
400.8447, 24167.58
401.3268, 24258.58
401.8090, 24352.11
402.2911, 24398.02
402.7732, 24377.50
403.2553, 24357.50
403.7374, 24356.99
404.2195, 24374.58
404.7017, 24382.93
405.1838, 24378.54
405.6659, 24374.49
406.1480, 24387.45
406.6301, 24417.93
407.1122, 24434.69
407.5944, 24429.88
408.0765, 24410.41
408.5586, 24390.60
409.0407, 24370.38
409.5228, 24351.72
410.0049, 24338.81
410.4871, 24328.71
410.9692, 24313.22
411.4513, 24291.57
411.9334, 24264.02
412.4155, 24229.89
412.8976, 24189.40
413.3798, 24144.73
413.8619, 24087.29
414.3440, 24030.92
414.8261, 23996.63
415.3082, 23984.37
415.7903, 23961.52
416.2725, 23903.85
416.7546, 23824.72
417.2367, 23736.52
417.7188, 23616.01
418.2009, 23519.45
418.6830, 23494.16
419.1652, 23520.33
419.6473, 23526.35
420.1294, 23482.07
420.6115, 23415.93
421.0937, 23337.97
421.5758, 23234.49
422.0579, 23155.10
422.5400, 23120.87
423.0221, 23111.28
423.5042, 23091.79
423.9864, 23039.66
424.4685, 23002.36
424.9506, 22999.88
425.4327, 23037.50
425.9148, 23039.43
426.3969, 22983.87
426.8791, 22917.47
427.3612, 22879.53
427.8433, 22873.28
428.3254, 22887.08
428.8075, 22926.27
429.2896, 22981.95
429.7718, 23021.83
430.2539, 23043.43
430.7360, 23062.94
431.2181, 23086.61
431.7002, 23114.86
432.1823, 23153.93
432.6645, 23204.24
433.1466, 23265.26
433.6287, 23340.29
434.1108, 23426.50
434.5929, 23510.42
435.0750, 23578.32
435.5572, 23643.24
436.0393, 23732.21
436.5214, 23844.19
437.0035, 23957.52
437.4856, 24065.86
437.9677, 24160.93
438.4499, 24226.51
438.9320, 24240.80
439.4141, 24254.82
439.8962, 24314.28
440.3783, 24402.47
440.8604, 24478.14
441.3426, 24508.98
441.8247, 24531.83
442.3068, 24573.16
442.7889, 24644.56
443.2710, 24692.11
443.7531, 24691.76
444.2353, 24663.91
444.7174, 24631.05
445.1995, 24597.23
445.6816, 24557.91
446.1637, 24507.59
446.6458, 24448.46
447.1280, 24401.23
447.6101, 24391.61
448.0922, 24365.26
448.5743, 24291.22
449.0564, 24154.61
449.5385, 24005.37
450.0207, 23839.29
450.5028, 23666.79
450.9849, 23507.80
451.4670, 23364.88
451.9491, 23230.78
452.4312, 23113.11
452.9134, 23005.93
453.3955, 22849.53
453.8776, 22638.28
454.3597, 22422.21
454.8418, 22256.28
455.3239, 22129.63
455.8061, 22006.37
456.2882, 21881.86
456.7703, 21748.93
457.2524, 21585.29
457.7345, 21400.30
458.2166, 21228.22
458.6988, 21107.72
459.1809, 21003.22
459.6630, 20873.14
460.1451, 20707.39
460.6272, 20550.05
461.1093, 20436.09
461.5915, 20345.15
462.0736, 20254.29
462.5557, 20150.28
463.0378, 20050.40
463.5199, 19962.03
464.0020, 19884.82
464.4842, 19811.94
464.9663, 19735.43
465.4484, 19668.63
465.9305, 19620.77
466.4126, 19620.61
466.8947, 19586.85
467.3769, 19493.96
467.8590, 19378.90
468.3411, 19302.88
468.8232, 19285.43
469.3053, 19268.65
469.7874, 19232.88
470.2696, 19180.31
470.7517, 19157.00
471.2338, 19172.03
471.7159, 19188.47
472.1980, 19167.95
472.6801, 19111.53
473.1623, 19072.84
473.6444, 19062.94
474.1265, 19066.46
474.6086, 19063.46
475.0907, 19052.89
475.5728, 19027.77
476.0550, 18955.43
476.5371, 18876.13
477.0192, 18868.85
477.5013, 18936.92
477.9834, 19006.99
478.4655, 19017.35
478.9477, 18997.33
479.4298, 18985.31
479.9119, 18998.10
480.3940, 19014.56
480.8761, 19026.95
481.3582, 19034.77
481.8404, 19036.41
482.3225, 19023.24
482.8046, 19010.42
483.2867, 19005.76
483.7688, 19013.02
484.2509, 19017.57
484.7331, 19005.61
485.2152, 18996.98
485.6973, 19011.42
486.1794, 19064.58
486.6615, 19114.47
487.1436, 19156.34
487.6258, 19190.75
488.1079, 19221.09
488.5900, 19248.50
489.0721, 19267.98
489.5542, 19265.79
490.0363, 19241.35
490.5185, 19261.90
491.0006, 19336.89
491.4827, 19430.59
491.9648, 19495.44
492.4470, 19536.53
492.9291, 19580.41
493.4112, 19635.77
493.8933, 19698.11
494.3754, 19759.73
494.8575, 19821.38
495.3397, 19883.88
495.8218, 19944.97
496.3039, 20009.72
496.7860, 20082.94
497.2681, 20167.05
497.7502, 20257.09
498.2324, 20356.89
498.7145, 20459.72
499.1966, 20558.37
499.6787, 20624.86
500.1608, 20711.86
500.6429, 20849.53
501.1251, 21033.65
501.6072, 21193.21
502.0893, 21319.75
502.5714, 21425.90
503.0535, 21508.53
503.5356, 21522.59
504.0178, 21626.23
504.4999, 21856.31
504.9820, 22141.86
505.4641, 22376.09
505.9462, 22546.97
506.4283, 22725.54
506.9105, 22932.95
507.3926, 23161.94
507.8747, 23380.01
508.3568, 23586.95
508.8389, 23802.52
509.3210, 24050.23
509.8032, 24321.30
510.2853, 24592.16
510.7674, 24857.46
511.2495, 25132.85
511.7316, 25446.04
512.2137, 25781.91
512.6959, 26104.53
513.1780, 26383.54
513.6601, 26660.75
514.1422, 26962.31
514.6243, 27286.61
515.1064, 27620.33
515.5886, 27953.29
516.0707, 28299.02
516.5528, 28663.98
517.0349, 29062.79
517.5170, 29458.58
517.9991, 29829.21
518.4813, 30199.61
518.9634, 30603.53
519.4455, 31076.86
519.9276, 31519.60
520.4097, 31896.51
520.8918, 32218.46
521.3740, 32614.20
521.8561, 33107.93
522.3382, 33595.25
522.8203, 33988.48
523.3024, 34293.01
523.7845, 34670.20
524.2667, 35144.34
524.7488, 35641.46
525.2309, 36093.34
525.7130, 36506.71
526.1951, 36895.00
526.6772, 37260.99
527.1594, 37612.54
527.6415, 37950.82
528.1236, 38276.64
528.6057, 38602.34
529.0878, 38943.66
529.5699, 39278.34
530.0521, 39591.86
530.5342, 39892.18
531.0163, 40139.88
531.4984, 40294.26
531.9805, 40404.25
532.4626, 40522.79
532.9448, 40686.56
533.4269, 40823.44
533.9090, 40931.32
534.3911, 41007.13
534.8732, 41029.48
535.3553, 40971.46
535.8375, 40911.44
536.3196, 40902.04
536.8017, 40950.10
537.2838, 40888.43
537.7659, 40695.28
538.2480, 40461.95
538.7302, 40296.79
539.2123, 40184.93
539.6944, 40028.16
540.1765, 39788.50
540.6586, 39525.26
541.1407, 39315.91
541.6229, 39149.82
542.1050, 38985.37
542.5871, 38793.81
543.0692, 38597.82
543.5513, 38420.33
544.0334, 38263.92
544.5156, 38111.29
544.9977, 37954.74
545.4798, 37798.48
545.9619, 37646.87
546.4440, 37492.01
546.9261, 37354.66
547.4083, 37238.13
547.8904, 37140.69
548.3725, 37061.85
548.8546, 37011.20
549.3367, 36962.67
549.8188, 36911.30
550.3010, 36856.99
550.7831, 36797.89
551.2652, 36732.68
551.7473, 36666.71
552.2294, 36597.01
552.7115, 36526.08
553.1937, 36484.01
553.6758, 36474.87
554.1579, 36487.66
554.6400, 36522.06
555.1221, 36568.89
555.6042, 36601.44
556.0864, 36610.04
556.5685, 36600.94
557.0506, 36566.40
557.5327, 36515.43
558.0148, 36482.24
558.4969, 36510.67
558.9791, 36541.53
559.4612, 36537.50
559.9433, 36489.82
560.4254, 36433.42
560.9075, 36349.00
561.3896, 36273.44
561.8718, 36239.47
562.3539, 36285.97
562.8360, 36307.27
563.3181, 36287.36
563.8002, 36241.46
564.2823, 36210.05
564.7645, 36201.13
565.2466, 36169.72
565.7287, 36077.55
566.2108, 35946.95
566.6929, 35903.70
567.1750, 35951.50
567.6572, 36011.33
568.1393, 36037.74
568.6214, 36024.80
569.1035, 35945.84
569.5856, 35779.92
570.0677, 35614.62
570.5499, 35519.52
571.0320, 35472.13
571.5141, 35435.98
571.9962, 35401.80
572.4783, 35372.20
572.9604, 35350.82
573.4426, 35336.14
573.9247, 35319.75
574.4068, 35298.26
574.8889, 35276.57
575.3710, 35249.93
575.8531, 35209.16
576.3353, 35215.05
576.8174, 35281.36
577.2995, 35373.88
577.7816, 35473.01
578.2637, 35582.65
578.7458, 35638.90
579.2280, 35608.99
579.7101, 35564.93
580.1922, 35656.41
580.6743, 35860.73
581.1564, 36049.61
581.6385, 36143.57
582.1207, 36199.57
582.6028, 36281.40
583.0849, 36388.27
583.5670, 36519.10
584.0491, 36701.55
584.5313, 36889.43
585.0134, 37039.66
585.4955, 37126.15
585.9776, 37238.40
586.4597, 37426.47
586.9418, 37640.06
587.4240, 37818.96
587.9061, 37927.70
588.3882, 38056.48
588.8703, 38221.23
589.3524, 38410.46
589.8345, 38589.55
590.3167, 38754.82
590.7988, 38926.61
591.2809, 39123.99
591.7630, 39335.31
592.2451, 39479.71
592.7272, 39554.80
593.2094, 39620.99
593.6915, 39730.91
594.1736, 39867.20
594.6557, 39999.14
595.1378, 40119.84
595.6199, 40233.48
596.1021, 40352.88
596.5842, 40463.89
597.0663, 40546.63
597.5485, 40571.03
598.0306, 40589.69
598.5127, 40631.05
598.9948, 40683.54
599.4769, 40696.44
599.9590, 40645.21
600.4412, 40581.04
600.9233, 40516.83
601.4054, 40451.55
601.8875, 40402.98
602.3696, 40382.30
602.8517, 40351.48
603.3339, 40276.48
603.8160, 40159.52
604.2981, 40033.22
604.7802, 39901.19
605.2623, 39764.32
605.7444, 39637.23
606.2266, 39507.45
606.7087, 39347.54
607.1908, 39124.16
607.6729, 38887.38
608.1550, 38669.73
608.6371, 38469.84
609.1193, 38275.74
609.6014, 38103.18
610.0835, 37918.93
610.5656, 37698.68
611.0477, 37431.20
611.5298, 37207.94
612.0120, 37083.73
612.4941, 36954.55
612.9762, 36745.63
613.4583, 36427.55
613.9404, 36141.17
614.4225, 35901.12
614.9047, 35680.39
615.3868, 35431.37
615.8689, 35155.44
616.3510, 34900.15
616.8331, 34685.66
617.3152, 34490.98
617.7974, 34287.16
618.2795, 34075.67
618.7616, 33851.89
619.2437, 33579.48
619.7258, 33320.42
620.2079, 33131.64
620.6901, 33016.13
621.1722, 32890.33
621.6543, 32722.07
622.1364, 32535.66
622.6185, 32348.94
623.1006, 32168.06
623.5828, 31969.67
624.0649, 31728.80
624.5470, 31493.36
625.0291, 31325.88
625.5112, 31237.69
625.9933, 31160.03
626.4755, 31089.17
626.9576, 31012.04
627.4397, 30903.53
627.9218, 30764.54
628.4039, 30602.01
628.8860, 30375.88
629.3682, 30150.30
629.8503, 30031.06
630.3324, 30005.63
630.8145, 29982.57
631.2966, 29914.01
631.7787, 29825.47
632.2609, 29731.38
632.7430, 29629.73
633.2251, 29537.86
633.7072, 29443.51
634.1893, 29371.51
634.6714, 29348.77
635.1536, 29423.20
635.6357, 29435.44
636.1178, 29350.10
636.5999, 29222.74
637.0820, 29166.13
637.5641, 29184.41
638.0463, 29173.32
638.5284, 29076.63
639.0105, 28949.19
639.4926, 28902.93
639.9747, 28928.02
640.4568, 28967.73
640.9390, 28997.26
641.4211, 29019.50
641.9032, 29033.88
642.3853, 29040.37
642.8674, 29052.33
643.3495, 29072.77
643.8317, 29102.09
644.3138, 29143.70
644.7959, 29222.15
645.2780, 29262.39
645.7601, 29236.79
646.2422, 29197.15
646.7244, 29208.74
647.2065, 29282.47
647.6886, 29351.34
648.1707, 29404.61
648.6528, 29445.04
649.1349, 29475.42
649.6171, 29496.83
650.0992, 29517.99
650.5813, 29544.07
651.0634, 29571.42
651.5455, 29588.35
652.0276, 29599.39
652.5098, 29628.27
652.9919, 29718.83
653.4740, 29807.04
653.9561, 29845.37
654.4382, 29818.15
654.9203, 29809.41
655.4025, 29830.23
655.8846, 29871.96
656.3667, 29932.92
656.8488, 30025.02
657.3309, 30102.39
657.8130, 30166.00
658.2952, 30210.91
658.7773, 30222.21
659.2594, 30202.96
659.7415, 30188.68
660.2236, 30189.45
660.7057, 30198.10
661.1879, 30201.46
661.6700, 30203.91
662.1521, 30217.85
662.6342, 30283.45
663.1163, 30332.88
663.5984, 30305.66
664.0806, 30212.51
664.5627, 30146.70
665.0448, 30156.33
665.5269, 30176.23
666.0090, 30180.52
666.4911, 30168.15
666.9733, 30147.47
667.4554, 30117.61
667.9375, 30081.14
668.4196, 30038.87
668.9017, 29990.78
669.3839, 29941.49
669.8660, 29891.18
