##NAMES=Titanite
##RRUFFID=R040033
##IDEAL CHEMISTRY=CaTi^4+^SiO_5_
##LOCALITY=Brazil
##OWNER=RRUFF
##SOURCE=University of Arizona Mineral Museum
##DESCRIPTION=Green flattened wedge-shaped single crystals
##STATUS=The identification of this mineral has been confirmed by X-ray diffraction and chemical analysis
##URL=rruff.info/R040033
##MEASURED CHEMISTRY=(Ca_0.97_Fe^3+^_0.03_)_Σ=1_(Ti_0.97_Al_0.03_)_Σ=1_Si_1.00_O_5_; Fe^3+^ assigned for charge balance
106.0809, 3567.484
106.5630, 3588.739
107.0451, 3612.874
107.5272, 3635.589
108.0093, 3654.411
108.4915, 3671.230
108.9736, 3686.509
109.4557, 3699.716
109.9378, 3712.371
110.4199, 3729.345
110.9020, 3755.518
111.3842, 3779.206
111.8663, 3798.902
112.3484, 3814.176
112.8305, 3824.684
113.3126, 3830.260
113.7947, 3830.909
114.2769, 3825.048
114.7590, 3805.623
115.2411, 3786.808
115.7232, 3776.424
116.2053, 3772.479
116.6874, 3765.725
117.1695, 3745.529
117.6517, 3706.431
118.1338, 3678.242
118.6159, 3664.622
119.0980, 3658.935
119.5801, 3656.256
120.0622, 3655.587
120.5444, 3657.080
121.0265, 3661.370
121.5086, 3668.161
121.9907, 3676.938
122.4728, 3688.515
122.9549, 3702.013
123.4371, 3714.929
123.9192, 3725.436
124.4013, 3736.852
124.8834, 3752.568
125.3655, 3772.749
125.8476, 3794.176
126.3298, 3814.640
126.8119, 3833.987
127.2940, 3852.721
127.7761, 3872.169
128.2582, 3890.165
128.7404, 3905.952
129.2225, 3919.353
129.7046, 3929.207
130.1867, 3933.024
130.6688, 3927.234
131.1509, 3921.735
131.6331, 3916.912
132.1152, 3913.404
132.5973, 3912.004
133.0794, 3913.133
133.5615, 3916.249
134.0436, 3919.082
134.5258, 3916.861
135.0079, 3919.637
135.4900, 3927.963
135.9721, 3942.296
136.4542, 3963.249
136.9363, 3991.355
137.4184, 4026.719
137.9006, 4067.571
138.3827, 4114.184
138.8648, 4164.850
139.3469, 4217.364
139.8290, 4272.245
140.3111, 4334.138
140.7933, 4407.796
141.2754, 4493.233
141.7575, 4581.362
142.2396, 4677.214
142.7217, 4772.690
143.2038, 4863.225
143.6860, 4951.851
144.1681, 5021.246
144.6502, 5052.876
145.1323, 5055.000
145.6144, 5037.574
146.0965, 4992.729
146.5787, 4929.999
147.0608, 4878.375
147.5429, 4839.302
148.0250, 4813.524
148.5071, 4798.621
148.9892, 4794.588
149.4714, 4801.442
149.9535, 4818.676
150.4356, 4846.071
150.9177, 4886.740
151.3998, 4945.654
151.8819, 5015.172
152.3641, 5093.580
152.8462, 5180.874
153.3283, 5277.798
153.8104, 5386.394
154.2925, 5507.935
154.7746, 5637.668
155.2568, 5776.588
155.7389, 5921.314
156.2210, 6070.909
156.7031, 6224.279
157.1852, 6379.638
157.6673, 6534.283
158.1495, 6689.769
158.6316, 6839.732
159.1137, 6991.476
159.5958, 7135.250
160.0779, 7263.130
160.5600, 7373.177
161.0422, 7463.942
161.5243, 7531.015
162.0064, 7579.717
162.4885, 7600.043
162.9706, 7584.957
163.4527, 7540.001
163.9349, 7475.716
164.4170, 7395.686
164.8991, 7296.883
165.3812, 7173.837
165.8633, 7021.513
166.3454, 6862.988
166.8276, 6707.754
167.3097, 6556.341
167.7918, 6406.702
168.2739, 6254.145
168.7560, 6107.897
169.2381, 5977.835
169.7203, 5866.565
170.2024, 5767.888
170.6845, 5674.703
171.1666, 5586.582
171.6487, 5508.877
172.1308, 5447.552
172.6130, 5395.923
173.0951, 5349.669
173.5772, 5307.232
174.0593, 5271.030
174.5414, 5246.375
175.0235, 5238.854
175.5057, 5231.964
175.9878, 5220.118
176.4699, 5207.899
176.9520, 5199.200
177.4341, 5195.805
177.9162, 5197.205
178.3984, 5202.081
178.8805, 5214.806
179.3626, 5225.551
179.8447, 5232.299
180.3268, 5236.728
180.8089, 5240.719
181.2911, 5245.225
181.7732, 5250.435
182.2553, 5257.557
182.7374, 5267.486
183.2195, 5278.428
183.7016, 5294.825
184.1838, 5311.842
184.6659, 5320.070
185.1480, 5312.704
185.6301, 5291.757
186.1122, 5278.158
186.5943, 5275.939
187.0765, 5275.081
187.5586, 5270.682
188.0407, 5264.075
188.5228, 5259.865
189.0049, 5260.739
189.4870, 5267.113
189.9692, 5277.683
190.4513, 5290.834
190.9334, 5309.014
191.4155, 5335.334
191.8976, 5369.320
192.3797, 5405.405
192.8619, 5438.209
193.3440, 5470.829
193.8261, 5511.129
194.3082, 5564.394
194.7903, 5622.667
195.2724, 5678.579
195.7546, 5732.255
196.2367, 5782.305
196.7188, 5824.193
197.2009, 5862.454
197.6830, 5903.017
198.1651, 5948.295
198.6473, 5996.355
199.1294, 6044.084
199.6115, 6090.849
200.0936, 6138.790
200.5757, 6188.882
201.0578, 6240.678
201.5400, 6294.446
202.0221, 6350.994
202.5042, 6408.733
202.9863, 6463.767
203.4684, 6514.352
203.9505, 6564.159
204.4327, 6613.548
204.9148, 6663.269
205.3969, 6715.344
205.8790, 6772.319
206.3611, 6831.716
206.8432, 6881.651
207.3254, 6910.720
207.8075, 6943.544
208.2896, 6988.842
208.7717, 7040.620
209.2538, 7090.880
209.7359, 7134.642
210.2181, 7172.092
210.7002, 7203.042
211.1823, 7219.750
211.6644, 7237.685
212.1465, 7261.831
212.6286, 7289.165
213.1108, 7313.786
213.5929, 7331.435
214.0750, 7342.859
214.5571, 7358.427
215.0392, 7379.912
215.5213, 7403.279
216.0035, 7427.599
216.4856, 7452.944
216.9677, 7479.389
217.4498, 7507.175
217.9319, 7536.116
218.4140, 7566.328
218.8961, 7598.077
219.3783, 7630.212
219.8604, 7659.872
220.3425, 7689.077
220.8246, 7724.967
221.3067, 7774.613
221.7888, 7834.601
222.2710, 7881.898
222.7531, 7908.069
223.2352, 7931.197
223.7173, 7958.689
224.1994, 7990.493
224.6815, 8026.524
225.1637, 8069.524
225.6458, 8115.696
226.1279, 8151.840
226.6100, 8170.444
227.0921, 8186.655
227.5742, 8211.881
228.0564, 8245.049
228.5385, 8275.842
229.0206, 8296.361
229.5027, 8311.620
229.9848, 8332.549
230.4669, 8363.171
230.9491, 8395.185
231.4312, 8422.935
231.9133, 8446.502
232.3954, 8464.803
232.8775, 8478.183
233.3596, 8484.714
233.8418, 8481.832
234.3239, 8467.828
234.8060, 8447.075
235.2881, 8422.388
235.7702, 8393.238
236.2523, 8365.076
236.7345, 8337.078
237.2166, 8312.975
237.6987, 8296.478
238.1808, 8288.420
238.6629, 8287.861
239.1451, 8291.848
239.6272, 8298.525
240.1093, 8319.576
240.5914, 8363.218
241.0735, 8420.444
241.5556, 8487.279
242.0378, 8563.136
242.5199, 8645.707
243.0020, 8734.229
243.4841, 8829.558
243.9662, 8925.806
244.4483, 9018.967
244.9305, 9114.779
245.4126, 9220.671
245.8947, 9337.244
246.3768, 9454.896
246.8589, 9560.798
247.3410, 9652.887
247.8232, 9738.705
248.3053, 9822.111
248.7874, 9898.418
249.2695, 9968.135
249.7516, 10029.80
250.2337, 10076.65
250.7159, 10097.45
251.1980, 10083.47
251.6801, 10066.11
252.1622, 10052.61
252.6443, 10031.65
253.1264, 9995.878
253.6086, 9944.806
254.0907, 9883.227
254.5728, 9817.890
255.0549, 9751.457
255.5370, 9670.889
256.0191, 9576.107
256.5013, 9470.010
256.9834, 9351.666
257.4655, 9222.804
257.9476, 9089.271
258.4297, 8958.814
258.9118, 8835.809
259.3940, 8694.838
259.8761, 8527.656
260.3582, 8354.056
260.8403, 8181.830
261.3224, 8012.867
261.8045, 7845.145
262.2867, 7675.538
262.7688, 7503.121
263.2509, 7338.791
263.7330, 7187.021
264.2151, 7038.514
264.6972, 6887.189
265.1794, 6734.904
265.6615, 6585.267
266.1436, 6441.755
266.6257, 6303.829
267.1078, 6177.110
267.5899, 6066.369
268.0721, 5958.241
268.5542, 5844.028
269.0363, 5727.081
269.5184, 5616.868
270.0005, 5521.104
270.4826, 5438.692
270.9648, 5357.973
271.4469, 5275.502
271.9290, 5197.772
272.4111, 5129.202
272.8932, 5067.521
273.3753, 5006.074
273.8575, 4940.568
274.3396, 4873.146
274.8217, 4815.397
275.3038, 4766.624
275.7859, 4725.545
276.2680, 4694.919
276.7502, 4671.714
277.2323, 4649.055
277.7144, 4623.379
278.1965, 4597.046
278.6786, 4577.681
279.1607, 4566.549
279.6429, 4558.021
280.1250, 4549.566
280.6071, 4542.788
281.0892, 4540.371
281.5713, 4543.143
282.0534, 4551.129
282.5356, 4565.656
283.0177, 4587.370
283.4998, 4610.927
283.9819, 4633.821
284.4640, 4658.020
284.9461, 4687.644
285.4283, 4724.487
285.9104, 4763.385
286.3925, 4796.099
286.8746, 4821.771
287.3567, 4851.167
287.8388, 4892.943
288.3210, 4937.272
288.8031, 4971.201
289.2852, 4992.472
289.7673, 5005.910
290.2494, 5016.829
290.7315, 5025.120
291.2137, 5024.040
291.6958, 5006.558
292.1779, 4982.390
292.6600, 4959.403
293.1421, 4938.209
293.6242, 4923.683
294.1064, 4920.903
294.5885, 4929.152
295.0706, 4942.274
295.5527, 4955.146
296.0348, 4975.859
296.5169, 5012.467
296.9991, 5064.713
297.4812, 5125.649
297.9633, 5191.079
298.4454, 5262.770
298.9275, 5342.972
299.4096, 5435.556
299.8918, 5532.375
300.3739, 5628.066
300.8560, 5723.138
301.3381, 5819.988
301.8202, 5922.026
302.3023, 6024.896
302.7845, 6123.008
303.2666, 6216.444
303.7487, 6303.698
304.2308, 6382.701
304.7129, 6454.171
305.1950, 6521.564
305.6772, 6586.910
306.1593, 6646.922
306.6414, 6697.434
307.1235, 6738.835
307.6056, 6774.562
308.0877, 6805.348
308.5699, 6831.728
309.0520, 6853.500
309.5341, 6868.389
310.0162, 6884.328
310.4983, 6913.478
310.9804, 6953.692
311.4626, 6989.231
311.9447, 7011.419
312.4268, 7027.104
312.9089, 7048.404
313.3910, 7078.156
313.8731, 7105.527
314.3553, 7122.622
314.8374, 7130.124
315.3195, 7128.621
315.8016, 7119.564
316.2837, 7100.602
316.7658, 7069.375
317.2480, 7025.823
317.7301, 6970.667
318.2122, 6902.307
318.6943, 6821.659
319.1764, 6733.539
319.6585, 6636.495
320.1407, 6534.357
320.6228, 6427.085
321.1049, 6315.971
321.5870, 6208.177
322.0691, 6106.494
322.5512, 6011.359
323.0334, 5920.299
323.5155, 5831.661
323.9976, 5753.326
324.4797, 5693.597
324.9618, 5648.257
325.4439, 5604.142
325.9261, 5555.579
326.4082, 5510.857
326.8903, 5481.907
327.3724, 5468.270
327.8545, 5457.116
328.3366, 5441.854
328.8188, 5426.835
329.3009, 5420.026
329.7830, 5423.453
330.2651, 5431.153
330.7472, 5440.944
331.2293, 5451.476
331.7115, 5453.669
332.1936, 5440.936
332.6757, 5421.951
333.1578, 5407.221
333.6399, 5397.182
334.1220, 5382.411
334.6042, 5356.991
335.0863, 5320.936
335.5684, 5279.108
336.0505, 5229.370
336.5326, 5176.213
337.0147, 5123.320
337.4969, 5069.729
337.9790, 5010.496
338.4611, 4941.973
338.9432, 4867.819
339.4253, 4795.418
339.9074, 4725.761
340.3896, 4655.938
340.8717, 4582.948
341.3538, 4509.226
341.8359, 4439.467
342.3180, 4374.753
342.8001, 4314.059
343.2822, 4255.857
343.7643, 4200.019
344.2465, 4146.640
344.7286, 4094.923
345.2107, 4046.092
345.6928, 4002.323
346.1749, 3963.692
346.6570, 3926.998
347.1392, 3888.837
347.6213, 3849.397
348.1034, 3815.903
348.5855, 3793.011
349.0676, 3771.997
349.5497, 3748.878
350.0319, 3722.908
350.5140, 3692.792
350.9961, 3657.913
351.4782, 3617.830
351.9603, 3571.213
352.4424, 3516.427
352.9246, 3458.365
353.4067, 3396.400
353.8888, 3332.205
354.3709, 3269.175
354.8530, 3208.619
355.3351, 3149.361
355.8173, 3088.934
356.2994, 3024.338
356.7815, 2964.911
357.2636, 2913.316
357.7457, 2866.210
358.2278, 2820.281
358.7100, 2775.071
359.1921, 2732.172
359.6742, 2694.262
360.1563, 2662.432
360.6384, 2628.874
361.1205, 2592.581
361.6027, 2555.682
362.0848, 2518.107
362.5669, 2480.798
363.0490, 2445.994
363.5311, 2415.939
364.0132, 2389.593
364.4954, 2358.777
364.9775, 2318.665
365.4596, 2280.167
365.9417, 2246.578
366.4238, 2215.623
366.9059, 2184.321
367.3881, 2151.306
367.8702, 2117.208
368.3523, 2083.120
368.8344, 2048.435
369.3165, 2014.930
369.7986, 1982.846
370.2808, 1951.532
370.7629, 1921.097
371.2450, 1891.186
371.7271, 1860.302
372.2092, 1826.593
372.6913, 1788.798
373.1735, 1755.035
373.6556, 1727.916
374.1377, 1702.037
374.6198, 1676.505
375.1019, 1650.699
375.5840, 1624.107
376.0662, 1596.195
376.5483, 1567.493
377.0304, 1541.187
377.5125, 1519.355
377.9946, 1497.098
378.4767, 1471.954
378.9589, 1447.019
379.4410, 1425.968
379.9231, 1409.890
380.4052, 1395.914
380.8873, 1379.048
381.3694, 1357.606
381.8516, 1338.998
382.3337, 1322.879
382.8158, 1310.439
383.2979, 1304.270
383.7800, 1303.171
384.2621, 1302.349
384.7443, 1297.373
385.2264, 1288.714
385.7085, 1282.190
386.1906, 1279.491
386.6727, 1276.555
387.1548, 1272.794
387.6370, 1267.583
388.1191, 1259.612
388.6012, 1247.547
389.0833, 1233.976
389.5654, 1224.641
390.0475, 1221.248
390.5297, 1214.252
391.0118, 1196.256
391.4939, 1175.894
391.9760, 1160.299
392.4581, 1150.495
392.9402, 1141.968
393.4224, 1131.006
393.9045, 1118.055
394.3866, 1105.669
394.8687, 1093.614
395.3508, 1083.251
395.8329, 1075.866
396.3151, 1070.938
396.7972, 1067.031
397.2793, 1062.739
397.7614, 1059.569
398.2435, 1059.492
398.7256, 1062.535
399.2078, 1068.650
399.6899, 1079.086
400.1720, 1092.236
400.6541, 1104.109
401.1362, 1112.891
401.6183, 1123.457
402.1005, 1139.058
402.5826, 1158.655
403.0647, 1179.847
403.5468, 1202.206
404.0289, 1224.869
404.5110, 1245.832
404.9932, 1264.444
405.4753, 1287.162
405.9574, 1318.223
406.4395, 1351.887
406.9216, 1382.240
407.4037, 1409.088
407.8859, 1435.880
408.3680, 1465.011
408.8501, 1496.523
409.3322, 1528.872
409.8143, 1561.538
410.2964, 1595.728
410.7786, 1632.914
411.2607, 1671.802
411.7428, 1709.793
412.2249, 1745.495
412.7070, 1781.766
413.1891, 1824.336
413.6713, 1877.534
414.1534, 1929.530
414.6355, 1978.005
415.1176, 2027.031
415.5997, 2079.464
416.0818, 2135.358
416.5640, 2193.140
417.0461, 2251.899
417.5282, 2311.595
418.0103, 2367.315
418.4924, 2411.224
418.9745, 2459.521
419.4567, 2520.755
419.9388, 2587.096
420.4209, 2649.385
420.9030, 2703.055
421.3851, 2748.370
421.8672, 2785.216
422.3494, 2813.487
422.8315, 2833.369
423.3136, 2844.775
423.7957, 2848.704
424.2778, 2845.714
424.7599, 2835.725
425.2421, 2818.066
425.7242, 2791.605
426.2063, 2756.607
426.6884, 2715.723
427.1705, 2664.653
427.6526, 2614.979
428.1348, 2572.299
428.6169, 2533.642
429.0990, 2494.511
429.5811, 2452.908
430.0632, 2411.494
430.5453, 2373.089
431.0275, 2337.683
431.5096, 2305.755
431.9917, 2277.114
432.4738, 2252.817
432.9559, 2233.649
433.4380, 2219.563
433.9202, 2206.926
434.4023, 2194.624
434.8844, 2182.500
435.3665, 2169.736
435.8486, 2155.937
436.3307, 2144.039
436.8129, 2135.452
437.2950, 2130.884
437.7771, 2131.439
438.2592, 2141.096
438.7413, 2151.604
439.2234, 2158.215
439.7056, 2162.269
440.1877, 2166.895
440.6698, 2173.201
441.1519, 2180.682
441.6340, 2188.681
442.1161, 2197.231
442.5983, 2206.260
443.0804, 2212.898
443.5625, 2222.150
444.0446, 2239.298
444.5267, 2263.354
445.0089, 2288.573
445.4910, 2310.437
445.9731, 2329.589
446.4552, 2352.617
446.9373, 2381.285
447.4194, 2412.198
447.9016, 2444.643
448.3837, 2479.265
448.8658, 2517.065
449.3479, 2558.124
449.8300, 2601.107
450.3121, 2643.549
450.7943, 2684.532
451.2764, 2728.431
451.7585, 2774.361
452.2406, 2824.265
452.7227, 2879.612
453.2048, 2939.511
453.6870, 3002.140
454.1691, 3066.896
454.6512, 3132.941
455.1333, 3198.813
455.6154, 3263.100
456.0975, 3331.240
456.5797, 3407.879
457.0618, 3487.609
457.5439, 3566.953
458.0260, 3644.933
458.5081, 3725.582
458.9902, 3811.971
459.4724, 3903.054
459.9545, 3996.111
460.4366, 4091.368
460.9187, 4187.717
461.4008, 4286.703
461.8829, 4386.334
462.3651, 4480.798
462.8472, 4568.384
463.3293, 4651.898
463.8114, 4735.792
464.2935, 4817.997
464.7756, 4892.931
465.2578, 4960.651
465.7399, 5014.750
466.2220, 5042.217
466.7041, 5041.709
467.1862, 5023.615
467.6683, 4991.162
468.1505, 4939.762
468.6326, 4866.571
469.1147, 4770.886
469.5968, 4651.707
470.0789, 4506.079
470.5610, 4336.907
471.0432, 4166.375
471.5253, 3993.124
472.0074, 3818.754
472.4895, 3638.477
472.9716, 3459.633
473.4537, 3289.343
473.9359, 3129.966
474.4180, 2980.328
474.9001, 2839.301
475.3822, 2707.082
475.8643, 2588.138
476.3464, 2488.457
476.8286, 2397.466
477.3107, 2311.488
477.7928, 2231.943
478.2749, 2161.533
478.7570, 2101.643
479.2391, 2050.571
479.7213, 2006.750
480.2034, 1970.406
480.6855, 1938.073
481.1676, 1909.611
481.6497, 1884.274
482.1318, 1859.931
482.6140, 1837.037
483.0961, 1819.895
483.5782, 1813.301
484.0603, 1812.468
484.5424, 1809.735
485.0245, 1804.774
485.5067, 1800.836
485.9888, 1799.836
486.4709, 1801.040
486.9530, 1802.034
487.4351, 1801.467
487.9172, 1803.586
488.3994, 1811.638
488.8815, 1822.475
489.3636, 1831.633
489.8457, 1838.349
490.3278, 1845.023
490.8099, 1854.258
491.2921, 1866.192
491.7742, 1875.998
492.2563, 1881.888
492.7384, 1888.014
493.2205, 1895.574
493.7026, 1904.129
494.1848, 1913.616
494.6669, 1923.856
495.1490, 1933.176
495.6311, 1938.332
496.1132, 1937.165
496.5953, 1938.781
497.0775, 1946.055
497.5596, 1953.460
498.0417, 1958.595
498.5238, 1962.160
499.0059, 1966.116
499.4880, 1971.803
499.9702, 1977.924
500.4523, 1981.528
500.9344, 1982.140
501.4165, 1983.171
501.8986, 1984.248
502.3807, 1987.393
502.8629, 1995.805
503.3450, 2009.149
503.8271, 2020.263
504.3092, 2021.548
504.7913, 2020.314
505.2734, 2029.031
505.7556, 2048.304
506.2377, 2068.723
506.7198, 2085.141
507.2019, 2098.820
507.6840, 2113.631
508.1661, 2129.843
508.6482, 2146.498
509.1303, 2162.878
509.6125, 2179.834
510.0946, 2197.803
510.5767, 2217.055
511.0588, 2238.838
511.5409, 2265.014
512.0231, 2295.524
512.5052, 2320.877
512.9873, 2333.666
513.4694, 2350.125
513.9515, 2375.473
514.4337, 2405.017
514.9158, 2432.912
515.3979, 2457.666
515.8800, 2482.641
516.3621, 2513.203
516.8442, 2550.079
517.3264, 2583.902
517.8085, 2612.867
518.2906, 2641.350
518.7727, 2671.285
519.2548, 2702.144
519.7369, 2732.667
520.2191, 2761.987
520.7012, 2792.406
521.1833, 2826.963
521.6654, 2865.254
522.1475, 2904.340
522.6296, 2943.902
523.1118, 2983.264
523.5939, 3019.754
524.0760, 3054.006
524.5581, 3093.503
525.0402, 3143.632
525.5223, 3195.730
526.0045, 3244.135
526.4866, 3289.292
526.9687, 3332.645
527.4508, 3374.061
527.9329, 3417.159
528.4150, 3469.022
528.8972, 3534.053
529.3793, 3597.650
529.8614, 3659.992
530.3435, 3720.482
530.8256, 3777.524
531.3077, 3832.612
531.7899, 3889.300
532.2720, 3949.686
532.7541, 4012.943
533.2362, 4077.525
533.7183, 4145.377
534.2004, 4209.762
534.6826, 4267.888
535.1647, 4323.587
535.6468, 4378.852
536.1289, 4433.723
536.6110, 4486.222
537.0931, 4534.866
537.5753, 4580.468
538.0574, 4624.790
538.5395, 4668.110
539.0216, 4706.202
539.5037, 4736.622
539.9858, 4761.331
540.4680, 4784.042
540.9501, 4805.374
541.4322, 4823.158
541.9143, 4836.492
542.3964, 4846.257
542.8785, 4853.013
543.3607, 4856.963
543.8428, 4858.737
544.3249, 4858.877
544.8070, 4856.861
545.2891, 4850.784
545.7712, 4841.858
546.2534, 4826.510
546.7355, 4801.468
547.2176, 4772.616
547.6997, 4744.450
548.1818, 4717.040
548.6639, 4687.384
549.1461, 4653.897
549.6282, 4616.163
550.1103, 4573.030
550.5924, 4523.763
551.0745, 4470.612
551.5566, 4411.571
552.0388, 4349.806
552.5209, 4287.739
553.0030, 4225.517
553.4851, 4161.117
553.9672, 4092.800
554.4493, 4021.212
554.9315, 3945.363
555.4136, 3865.198
555.8957, 3787.800
556.3778, 3718.134
556.8599, 3653.456
557.3420, 3587.150
557.8242, 3517.002
558.3063, 3450.590
558.7884, 3390.552
559.2705, 3334.310
559.7526, 3279.152
560.2347, 3225.699
560.7169, 3177.301
561.1990, 3137.248
561.6811, 3103.321
562.1632, 3065.338
562.6453, 3017.728
563.1274, 2975.981
563.6096, 2943.347
564.0917, 2915.281
564.5738, 2889.292
565.0559, 2864.718
565.5380, 2840.971
566.0201, 2815.705
566.5023, 2791.860
566.9844, 2777.531
567.4665, 2773.357
567.9486, 2774.292
568.4307, 2778.014
568.9128, 2786.725
569.3950, 2802.715
569.8771, 2826.255
570.3592, 2854.266
570.8413, 2886.761
571.3234, 2922.747
571.8055, 2960.143
572.2877, 2999.608
572.7698, 3044.471
573.2519, 3096.482
573.7340, 3154.582
574.2161, 3215.363
574.6982, 3278.167
575.1804, 3345.649
575.6625, 3419.120
576.1446, 3495.490
576.6267, 3571.720
577.1088, 3649.037
577.5909, 3731.621
578.0731, 3821.784
578.5552, 3917.870
579.0373, 4016.616
579.5194, 4117.958
580.0015, 4221.296
580.4836, 4325.972
580.9658, 4432.908
581.4479, 4541.554
581.9300, 4652.742
582.4121, 4770.005
582.8942, 4895.562
583.3763, 5027.233
583.8585, 5163.815
584.3406, 5304.293
584.8227, 5445.270
585.3048, 5584.941
585.7869, 5727.860
586.2690, 5879.861
586.7512, 6042.542
587.2333, 6207.490
587.7154, 6376.759
588.1975, 6546.492
588.6796, 6716.510
589.1617, 6886.244
589.6438, 7053.724
590.1259, 7217.621
590.6080, 7385.608
591.0901, 7569.519
591.5723, 7771.612
592.0544, 7967.034
592.5365, 8147.589
593.0186, 8331.339
593.5007, 8528.150
593.9828, 8731.539
594.4650, 8933.991
594.9471, 9132.295
595.4292, 9330.241
595.9113, 9529.313
596.3934, 9728.789
596.8755, 9925.375
597.3577, 10118.32
597.8398, 10307.48
598.3219, 10493.27
598.8040, 10674.98
599.2861, 10849.37
599.7682, 11014.01
600.2504, 11175.90
600.7325, 11340.79
601.2146, 11501.27
