##NAMES=Titanite
##RRUFFID=R050472
##IDEAL CHEMISTRY=CaTi^4+^SiO_5_
##LOCALITY=Turner's Island, Lake Clear, Wadawaska, Ontario, Canada
##OWNER=RRUFF
##SOURCE=California Institute of Technology
##DESCRIPTION=Brown flattened wedge-shaped crystal
##STATUS=The identification of this mineral has been confirmed by X-ray diffraction and chemical analysis
##URL=rruff.info/R050472
##MEASURED CHEMISTRY=(Ca_0.99_Na_0.01_)(Ti_0.81_Al_0.09_Fe^3+^_0.07_Nb_0.03_)Si_1.00_O_4_(O_0.80_F_0.20_)
91.00781, 17.18147
91.48993, 17.21406
91.97205, 17.22762
92.45416, 17.11579
92.93628, 16.98871
93.41840, 17.07997
93.90051, 17.41891
94.38263, 17.99775
94.86475, 18.87870
95.34686, 20.05954
95.82898, 21.33193
96.31110, 22.43627
96.79321, 23.41361
97.27533, 24.67465
97.75745, 26.30436
98.23956, 28.26938
98.72168, 30.40134
99.20380, 32.68074
99.68591, 35.12014
100.1680, 37.61682
100.6501, 40.03385
101.1323, 43.08569
101.6144, 47.08910
102.0965, 52.12602
102.5786, 57.05617
103.0607, 61.74733
103.5428, 66.48428
104.0250, 71.84573
104.5071, 77.85307
104.9892, 84.37688
105.4713, 91.41850
105.9534, 99.41125
106.4355, 106.9080
106.9177, 113.4607
107.3998, 119.4935
107.8819, 126.6202
108.3640, 136.1558
108.8461, 145.6484
109.3282, 154.0807
109.8104, 160.4295
110.2925, 166.7090
110.7746, 172.7348
111.2567, 178.5679
111.7388, 184.9451
112.2209, 192.0279
112.7031, 199.5590
113.1852, 207.4463
113.6673, 215.1755
114.1494, 223.6616
114.6315, 233.3528
115.1136, 244.3720
115.5958, 255.6380
116.0779, 266.8268
116.5600, 278.0896
117.0421, 289.5464
117.5242, 301.8041
118.0063, 313.9745
118.4885, 325.5768
118.9706, 336.4247
119.4527, 347.4865
119.9348, 359.6028
120.4169, 372.2450
120.8990, 384.6445
121.3812, 396.1655
121.8633, 407.3077
122.3454, 418.4764
122.8275, 429.9604
123.3096, 441.1138
123.7917, 451.4646
124.2739, 461.0356
124.7560, 469.9110
125.2381, 477.4004
125.7202, 484.3737
126.2023, 492.2294
126.6844, 501.5353
127.1666, 511.6066
127.6487, 521.5214
128.1308, 531.3439
128.6129, 541.3141
129.0950, 551.6510
129.5771, 562.3750
130.0593, 573.6382
130.5414, 585.5504
131.0235, 597.9034
131.5056, 609.3085
131.9877, 617.3273
132.4698, 622.7740
132.9520, 629.8380
133.4341, 638.4455
133.9162, 647.2682
134.3983, 655.5543
134.8804, 663.4816
135.3625, 672.8173
135.8447, 683.7994
136.3268, 695.6501
136.8089, 707.5344
137.2910, 719.4952
137.7731, 731.5917
138.2552, 744.3025
138.7374, 757.8055
139.2195, 769.9112
139.7016, 780.4495
140.1837, 789.9388
140.6658, 799.7217
141.1479, 811.0540
141.6301, 820.0237
142.1122, 824.7976
142.5943, 824.5563
143.0764, 822.3977
143.5585, 818.2281
144.0406, 812.2533
144.5228, 804.8339
145.0049, 795.2220
145.4870, 785.1888
145.9691, 775.7345
146.4512, 766.2607
146.9333, 758.1501
147.4155, 751.6611
147.8976, 746.6376
148.3797, 742.1682
148.8618, 737.7657
149.3439, 734.2083
149.8260, 731.9839
150.3082, 732.2039
150.7903, 732.4752
151.2724, 732.4393
151.7545, 732.0688
152.2366, 732.1804
152.7188, 732.3469
153.2009, 733.1888
153.6830, 735.2050
154.1651, 739.9898
154.6472, 744.4124
155.1293, 747.7559
155.6115, 749.9736
156.0936, 751.4700
156.5757, 750.8787
157.0578, 750.0899
157.5399, 751.1869
158.0220, 757.1711
158.5042, 762.9835
158.9863, 766.6267
159.4684, 767.6552
159.9505, 768.1833
160.4326, 768.2144
160.9147, 768.2574
161.3969, 769.0635
161.8790, 772.0220
162.3611, 775.0052
162.8432, 776.7468
163.3253, 776.6957
163.8074, 776.5385
164.2896, 777.0668
164.7717, 778.0135
165.2538, 778.8545
165.7359, 779.2065
166.2180, 779.4207
166.7001, 779.8526
167.1823, 780.8080
167.6644, 781.3918
168.1465, 780.6603
168.6286, 779.0234
169.1107, 777.6454
169.5928, 777.8528
170.0750, 778.3618
170.5571, 777.6002
171.0392, 774.2676
171.5213, 771.1923
172.0034, 771.4979
172.4855, 774.4697
172.9677, 776.9125
173.4498, 776.0521
173.9319, 773.6013
174.4140, 772.0168
174.8961, 772.2480
175.3782, 773.2474
175.8604, 773.7385
176.3425, 773.8271
176.8246, 774.3710
177.3067, 776.7678
177.7888, 780.0656
178.2709, 782.2596
178.7531, 782.4317
179.2352, 781.4901
179.7173, 780.2843
180.1994, 778.8443
180.6815, 778.2256
181.1636, 780.2094
181.6458, 783.9258
182.1279, 786.6721
182.6100, 786.9713
183.0921, 786.0300
183.5742, 786.5028
184.0563, 788.4411
184.5385, 790.5645
185.0206, 791.2582
185.5027, 790.8693
185.9848, 791.0549
186.4669, 792.6154
186.9490, 795.1398
187.4312, 797.5593
187.9133, 799.8353
188.3954, 801.9515
188.8775, 803.5223
189.3596, 804.6500
189.8417, 806.4477
190.3239, 809.6196
190.8060, 813.8984
191.2881, 817.8898
191.7702, 821.5977
192.2523, 824.8819
192.7344, 827.4332
193.2166, 829.2483
193.6987, 831.0024
194.1808, 832.8859
194.6629, 834.9141
195.1450, 837.2928
195.6271, 840.0242
196.1093, 843.1019
196.5914, 846.5687
197.0735, 850.4385
197.5556, 854.4734
198.0377, 858.6454
198.5198, 862.9879
199.0020, 867.0539
199.4841, 870.7781
199.9662, 874.3311
200.4483, 878.0500
200.9304, 881.9446
201.4125, 885.9078
201.8947, 889.7765
202.3768, 893.4969
202.8589, 897.9460
203.3410, 903.4855
203.8231, 909.3126
204.3052, 913.6479
204.7874, 916.1639
205.2695, 918.7059
205.7516, 922.2755
206.2337, 927.1201
206.7158, 931.1864
207.1979, 934.0412
207.6801, 936.5354
208.1622, 940.5302
208.6443, 946.4813
209.1264, 952.5878
209.6085, 958.0419
210.0906, 962.7316
210.5728, 967.1888
211.0549, 971.0303
211.5370, 974.9013
212.0191, 980.2164
212.5012, 987.3098
212.9833, 995.1376
213.4655, 1003.353
213.9476, 1012.328
214.4297, 1020.395
214.9118, 1027.023
215.3939, 1032.983
215.8760, 1040.205
216.3581, 1048.351
216.8403, 1058.328
217.3224, 1071.335
217.8045, 1089.817
218.2866, 1103.699
218.7687, 1110.838
219.2508, 1113.910
219.7330, 1119.931
220.2151, 1129.730
220.6972, 1140.844
221.1793, 1152.139
221.6614, 1163.972
222.1435, 1175.107
222.6257, 1185.103
223.1078, 1194.529
223.5899, 1205.380
224.0720, 1218.517
224.5541, 1231.777
225.0362, 1244.307
225.5184, 1255.338
226.0005, 1267.459
226.4826, 1281.539
226.9647, 1296.584
227.4468, 1310.172
227.9289, 1321.663
228.4111, 1332.598
228.8932, 1343.504
229.3753, 1353.778
229.8574, 1365.599
230.3395, 1379.954
230.8216, 1395.553
231.3038, 1409.268
231.7859, 1421.396
232.2680, 1431.029
232.7501, 1437.212
233.2322, 1437.264
233.7143, 1440.112
234.1965, 1447.919
234.6786, 1458.109
235.1607, 1463.261
235.6428, 1460.379
236.1249, 1456.768
236.6070, 1455.853
237.0892, 1459.767
237.5713, 1461.520
238.0534, 1460.248
238.5355, 1457.019
239.0176, 1454.594
239.4997, 1453.370
239.9819, 1452.326
240.4640, 1451.009
240.9461, 1449.150
241.4282, 1447.659
241.9103, 1446.668
242.3924, 1446.015
242.8746, 1445.314
243.3567, 1444.560
243.8388, 1443.795
244.3209, 1442.997
244.8030, 1442.039
245.2851, 1441.494
245.7673, 1441.586
246.2494, 1442.024
246.7315, 1442.252
247.2136, 1442.591
247.6957, 1442.237
248.1778, 1440.947
248.6600, 1438.849
249.1421, 1435.313
249.6242, 1429.484
250.1063, 1422.645
250.5884, 1417.505
251.0705, 1415.459
251.5527, 1412.677
252.0348, 1407.596
252.5169, 1399.383
252.9990, 1391.788
253.4811, 1385.339
253.9632, 1379.061
254.4454, 1371.350
254.9275, 1361.873
255.4096, 1351.479
255.8917, 1340.123
256.3738, 1327.445
256.8560, 1315.854
257.3381, 1305.697
257.8202, 1296.254
258.3023, 1286.169
258.7844, 1275.228
259.2665, 1264.368
259.7487, 1253.945
260.2308, 1244.142
260.7129, 1233.777
261.1950, 1222.534
261.6771, 1211.115
262.1592, 1200.481
262.6414, 1190.830
263.1235, 1181.692
263.6056, 1173.097
264.0877, 1164.995
264.5698, 1157.157
265.0519, 1149.765
265.5341, 1142.427
266.0162, 1134.580
266.4983, 1126.185
266.9804, 1117.504
267.4625, 1108.075
267.9446, 1098.014
268.4268, 1090.155
268.9089, 1085.210
269.3910, 1081.477
269.8731, 1077.110
270.3552, 1071.813
270.8373, 1067.212
271.3195, 1063.822
271.8016, 1061.509
272.2837, 1058.776
272.7658, 1055.548
273.2479, 1051.974
273.7300, 1047.743
274.2122, 1042.544
274.6943, 1038.774
275.1764, 1037.161
275.6585, 1037.387
276.1406, 1037.942
276.6227, 1038.962
277.1049, 1039.889
277.5870, 1039.956
278.0691, 1039.008
278.5512, 1039.060
279.0333, 1040.502
279.5154, 1043.127
279.9976, 1046.221
280.4797, 1049.743
280.9618, 1053.979
281.4439, 1059.646
281.9260, 1066.737
282.4081, 1072.871
282.8903, 1077.277
283.3724, 1081.057
283.8545, 1087.141
284.3366, 1095.721
284.8187, 1104.600
285.3008, 1112.008
285.7830, 1118.188
286.2651, 1125.420
286.7472, 1134.337
287.2293, 1143.664
287.7114, 1150.707
288.1935, 1155.480
288.6757, 1160.395
289.1578, 1167.397
289.6399, 1175.914
290.1220, 1182.422
290.6041, 1186.418
291.0862, 1189.511
291.5684, 1194.448
292.0505, 1200.964
292.5326, 1206.409
293.0147, 1208.813
293.4968, 1209.145
293.9789, 1210.530
294.4611, 1213.171
294.9432, 1216.060
295.4253, 1217.718
295.9074, 1218.504
296.3895, 1219.900
296.8716, 1222.812
297.3538, 1226.715
297.8359, 1230.362
298.3180, 1233.746
298.8001, 1237.745
299.2822, 1244.374
299.7643, 1252.441
300.2465, 1258.654
300.7286, 1260.255
301.2107, 1260.438
301.6928, 1263.741
302.1749, 1269.996
302.6570, 1277.089
303.1392, 1283.534
303.6213, 1289.621
304.1034, 1295.697
304.5855, 1301.982
305.0676, 1308.251
305.5497, 1314.571
306.0319, 1320.842
306.5140, 1326.885
306.9961, 1332.043
307.4782, 1337.002
307.9603, 1342.774
308.4424, 1350.003
308.9246, 1357.192
309.4067, 1362.831
309.8888, 1367.384
310.3709, 1372.314
310.8530, 1379.111
311.3351, 1386.168
311.8173, 1391.912
312.2994, 1395.716
312.7815, 1399.574
313.2636, 1405.357
313.7457, 1411.937
314.2278, 1417.321
314.7100, 1420.477
315.1921, 1422.273
315.6742, 1423.068
316.1563, 1422.827
316.6384, 1422.154
317.1205, 1421.512
317.6027, 1420.547
318.0848, 1418.812
318.5669, 1415.904
319.0490, 1412.425
319.5311, 1408.796
320.0132, 1405.060
320.4954, 1400.170
320.9775, 1392.538
321.4596, 1384.264
321.9417, 1377.244
322.4238, 1372.782
322.9059, 1368.635
323.3881, 1364.335
323.8702, 1359.927
324.3523, 1355.622
324.8344, 1351.209
325.3165, 1347.090
325.7986, 1343.463
326.2808, 1339.803
326.7629, 1337.297
327.2450, 1336.863
327.7271, 1337.871
328.2092, 1337.818
328.6913, 1335.711
329.1735, 1333.401
329.6556, 1331.501
330.1377, 1329.645
330.6198, 1328.926
331.1019, 1330.203
331.5840, 1332.338
332.0662, 1333.081
332.5483, 1330.986
333.0304, 1329.555
333.5125, 1330.243
333.9946, 1333.726
334.4767, 1335.589
334.9589, 1335.000
335.4410, 1333.577
335.9231, 1333.525
336.4052, 1335.588
336.8873, 1337.080
337.3694, 1337.309
337.8516, 1336.342
338.3336, 1334.852
338.8158, 1332.322
339.2979, 1330.418
339.7800, 1331.119
340.2621, 1334.935
340.7442, 1337.920
341.2263, 1339.338
341.7085, 1339.477
342.1906, 1339.203
342.6727, 1338.559
343.1548, 1337.245
343.6369, 1334.401
344.1190, 1330.212
344.6012, 1327.799
345.0833, 1328.086
345.5654, 1329.122
346.0475, 1327.519
346.5296, 1323.373
347.0117, 1318.067
347.4939, 1312.255
347.9760, 1305.906
348.4581, 1298.911
348.9402, 1291.324
349.4223, 1282.798
349.9044, 1272.761
350.3866, 1261.305
350.8687, 1248.665
351.3508, 1234.203
351.8329, 1218.823
352.3150, 1204.177
352.7971, 1190.155
353.2793, 1175.325
353.7614, 1156.780
354.2435, 1136.736
354.7256, 1118.751
355.2077, 1104.714
355.6898, 1092.066
356.1720, 1078.754
356.6541, 1064.839
357.1362, 1050.717
357.6183, 1036.148
358.1004, 1021.566
358.5826, 1007.332
359.0647, 993.4880
359.5468, 980.0598
360.0289, 966.8640
360.5110, 954.1039
360.9931, 942.1188
361.4753, 931.5200
361.9574, 921.4984
362.4395, 911.8516
362.9216, 902.6648
363.4037, 893.1644
363.8858, 882.3757
364.3680, 871.4593
364.8501, 861.5982
365.3322, 853.5165
365.8143, 846.1781
366.2964, 839.7517
366.7785, 834.1728
367.2607, 828.0428
367.7428, 820.3622
368.2249, 812.6354
368.7070, 805.7493
369.1891, 800.1105
369.6712, 794.8666
370.1534, 790.1622
370.6355, 785.8072
371.1176, 781.2027
371.5997, 776.0644
372.0818, 770.9974
372.5639, 766.2108
373.0461, 761.7477
373.5282, 757.1346
374.0103, 751.7298
374.4924, 745.0518
374.9745, 745.5194
375.4566, 745.1902
375.9388, 744.1113
376.4209, 739.7974
376.9030, 739.8453
377.3851, 738.2578
377.8672, 736.6802
378.3493, 737.5717
378.8315, 734.1416
379.3136, 735.1559
379.7957, 734.5087
380.2778, 734.7390
380.7599, 733.3234
381.2420, 732.5212
381.7242, 733.5263
382.2063, 733.6556
382.6884, 732.3627
383.1705, 733.1258
383.6526, 730.4392
384.1347, 730.9307
384.6169, 732.8390
385.0990, 732.0346
385.5811, 733.2311
386.0632, 733.7765
386.5453, 731.0781
387.0274, 734.2410
387.5096, 734.9844
387.9917, 733.2410
388.4738, 736.4468
388.9559, 735.2180
389.4380, 735.6812
389.9201, 737.4375
390.4023, 738.0101
390.8844, 740.6562
391.3665, 741.4622
391.8486, 743.2249
392.3307, 746.0043
392.8128, 748.2536
393.2950, 750.2881
393.7771, 752.3588
394.2592, 754.5670
394.7413, 756.5923
395.2234, 758.3209
395.7055, 759.7738
396.1877, 760.9891
396.6698, 761.0468
397.1519, 761.7471
397.6340, 763.7952
398.1161, 767.3513
398.5982, 771.0212
399.0804, 775.0624
399.5625, 778.9943
400.0446, 782.4730
400.5267, 785.4233
401.0088, 788.0366
401.4909, 789.8032
401.9731, 791.2035
402.4552, 794.2744
402.9373, 799.9108
403.4194, 805.7706
403.9015, 810.4857
404.3836, 813.3463
404.8658, 818.1105
405.3479, 825.4379
405.8300, 833.6869
406.3121, 840.3569
406.7942, 845.1960
407.2763, 850.1073
407.7585, 855.5865
408.2406, 861.6390
408.7227, 868.3732
409.2048, 875.8381
409.6869, 883.2432
410.1690, 889.9935
410.6512, 896.0505
411.1333, 901.3721
411.6154, 905.6200
412.0975, 909.7581
412.5796, 915.6373
413.0617, 922.9310
413.5439, 930.0845
414.0260, 936.3875
414.5081, 942.0378
414.9902, 947.0378
415.4723, 951.3583
415.9544, 955.7773
416.4366, 961.5366
416.9187, 967.6438
417.4008, 972.5886
417.8829, 975.7656
418.3650, 977.6996
418.8471, 978.5965
419.3293, 978.4850
419.8114, 977.5897
420.2935, 975.0530
420.7756, 972.3650
421.2577, 970.8389
421.7398, 972.2264
422.2220, 971.7392
422.7041, 966.8669
423.1862, 959.6736
423.6683, 953.8665
424.1504, 951.9772
424.6325, 949.3512
425.1147, 944.6946
425.5968, 937.7491
426.0789, 930.5253
426.5610, 922.2567
427.0431, 914.3991
427.5252, 908.5118
428.0074, 906.1507
428.4895, 901.9954
428.9716, 894.8221
429.4537, 885.7458
429.9358, 878.3866
430.4179, 873.0127
430.9001, 868.4345
431.3822, 864.4735
431.8643, 861.1516
432.3464, 856.6129
432.8285, 850.4798
433.3106, 844.3537
433.7928, 840.3926
434.2749, 838.4015
434.7570, 836.7838
435.2391, 835.2448
435.7212, 833.6268
436.2033, 831.4972
436.6855, 828.9260
437.1676, 826.3879
437.6497, 824.0577
438.1318, 822.0395
438.6139, 820.5756
439.0960, 819.8182
439.5782, 819.2023
440.0603, 817.9542
440.5424, 816.5361
441.0245, 815.8278
441.5066, 816.9523
441.9887, 818.2623
442.4709, 818.8489
442.9530, 818.6879
443.4351, 818.1789
443.9172, 817.0821
444.3993, 815.9141
444.8814, 815.0605
445.3636, 814.6347
445.8457, 814.4315
446.3278, 815.0287
446.8099, 815.8307
447.2920, 815.3354
447.7741, 811.6570
448.2563, 808.7714
448.7384, 808.1251
449.2205, 810.0713
449.7026, 811.4307
450.1847, 812.1555
450.6668, 812.3611
451.1490, 812.0891
451.6311, 811.2518
452.1132, 810.2424
452.5953, 808.9252
453.0774, 807.6149
453.5595, 807.2001
454.0417, 807.7543
454.5238, 808.4902
455.0059, 809.0867
455.4880, 809.5170
455.9701, 809.4915
456.4522, 808.8894
456.9344, 808.5501
457.4165, 809.6331
457.8986, 811.7326
458.3807, 813.6735
458.8628, 814.9756
459.3449, 816.0927
459.8271, 817.5592
460.3092, 819.3163
460.7913, 821.1305
461.2734, 822.8371
461.7555, 824.5547
462.2376, 826.3964
462.7198, 828.3594
463.2019, 830.4544
463.6840, 832.9560
464.1661, 835.4770
464.6482, 837.5490
465.1303, 837.9638
465.6125, 839.0286
466.0946, 841.8034
466.5767, 846.0739
467.0588, 849.5883
467.5409, 851.5605
468.0230, 853.3029
468.5052, 855.4208
468.9873, 858.2426
469.4694, 860.6204
469.9515, 862.3662
470.4336, 863.8400
470.9157, 865.6350
471.3979, 867.9258
471.8800, 869.9261
472.3621, 871.3561
472.8442, 872.3478
473.3263, 873.6842
473.8084, 875.4388
474.2906, 876.9570
474.7727, 877.2090
475.2548, 876.6427
475.7369, 877.8121
476.2190, 881.3561
476.7011, 885.1074
477.1833, 886.1047
477.6654, 885.1781
478.1475, 884.6120
478.6296, 885.6378
479.1117, 887.2886
479.5938, 888.9772
480.0760, 890.5975
480.5581, 891.3922
481.0402, 890.3425
481.5223, 888.6599
482.0044, 887.2411
482.4865, 886.1765
482.9687, 885.6288
483.4508, 886.2283
483.9329, 887.2341
484.4150, 887.5827
484.8971, 887.0042
485.3792, 885.8375
485.8614, 883.9090
486.3435, 881.2853
486.8256, 878.8922
487.3077, 876.9313
487.7898, 874.9949
488.2719, 872.8369
488.7541, 870.4050
489.2362, 868.1150
489.7183, 866.1385
490.2004, 864.0738
490.6825, 861.2363
491.1646, 857.5579
491.6468, 853.5630
492.1289, 849.0031
492.6110, 844.4205
493.0931, 841.5500
493.5752, 840.3553
494.0573, 838.9877
494.5395, 835.8215
495.0216, 831.5621
495.5037, 827.7104
495.9858, 824.6360
496.4679, 821.2644
496.9500, 816.0704
497.4322, 810.0436
497.9143, 804.9174
498.3964, 802.1859
498.8785, 799.8127
499.3606, 796.6169
499.8427, 792.7594
500.3249, 789.2204
500.8070, 786.1599
501.2891, 783.6044
501.7712, 781.7843
502.2533, 781.2606
502.7354, 779.9323
503.2176, 776.7802
503.6997, 773.2003
504.1818, 770.6341
504.6639, 769.6819
505.1460, 768.5621
505.6281, 766.7567
506.1103, 764.6115
506.5924, 763.7223
507.0745, 764.4145
507.5566, 765.1793
508.0387, 764.9626
508.5208, 763.8596
509.0030, 764.2498
509.4851, 766.4349
509.9672, 768.4213
510.4493, 767.2842
510.9314, 764.0582
511.4135, 762.3152
511.8957, 763.3243
512.3778, 765.5876
512.8599, 767.8796
513.3420, 770.0839
513.8242, 771.8304
514.3063, 772.3138
514.7884, 772.7403
515.2705, 773.9084
515.7526, 775.8663
516.2347, 778.6295
516.7169, 783.1204
517.1990, 787.8688
517.6811, 791.7141
518.1632, 792.8953
518.6453, 795.2813
519.1274, 800.0079
519.6096, 806.0487
520.0917, 811.4834
520.5738, 815.8782
521.0559, 820.3196
521.5380, 824.9980
522.0201, 829.9240
522.5023, 835.2958
522.9844, 841.1804
523.4665, 847.4108
523.9486, 853.8088
524.4307, 860.4166
524.9128, 867.7274
525.3950, 875.8866
525.8771, 884.1256
526.3592, 891.3946
526.8413, 897.7977
527.3234, 903.9863
527.8055, 910.0699
528.2877, 916.0565
528.7698, 921.5114
529.2519, 926.7198
529.7340, 933.1232
530.2161, 943.3510
530.6982, 953.8322
531.1804, 961.7932
531.6625, 966.3547
532.1446, 970.8885
532.6267, 976.5743
533.1088, 982.6732
533.5909, 988.4147
534.0731, 993.9525
534.5552, 998.8811
535.0373, 1002.721
535.5194, 1006.008
536.0015, 1010.592
536.4836, 1017.787
536.9658, 1023.479
537.4479, 1025.780
537.9300, 1024.852
538.4121, 1024.759
538.8942, 1025.706
539.3763, 1026.557
539.8585, 1026.066
540.3406, 1024.510
540.8227, 1023.711
541.3048, 1024.108
541.7869, 1024.492
542.2690, 1022.934
542.7512, 1020.158
543.2333, 1017.990
543.7154, 1017.530
544.1975, 1017.697
544.6796, 1017.897
545.1617, 1018.056
545.6439, 1017.834
546.1260, 1016.735
546.6081, 1015.475
547.0902, 1014.158
547.5723, 1012.411
548.0544, 1012.352
548.5366, 1016.197
549.0187, 1020.774
549.5008, 1023.145
549.9829, 1020.908
550.4650, 1020.926
550.9471, 1024.474
551.4293, 1030.224
551.9114, 1035.266
552.3935, 1039.544
552.8756, 1043.351
553.3577, 1046.355
553.8398, 1048.983
554.3220, 1053.298
554.8041, 1059.352
555.2862, 1066.253
555.7683, 1073.902
556.2504, 1081.821
556.7325, 1088.957
557.2147, 1094.944
557.6968, 1101.375
558.1789, 1109.740
558.6610, 1119.406
559.1431, 1129.346
559.6252, 1139.224
560.1074, 1149.234
560.5895, 1159.252
561.0716, 1169.454
561.5537, 1180.213
562.0358, 1192.520
562.5179, 1204.639
563.0001, 1215.615
563.4822, 1225.173
563.9643, 1236.188
564.4464, 1249.999
564.9285, 1263.406
565.4106, 1273.646
565.8928, 1280.045
566.3749, 1288.150
566.8570, 1298.811
567.3391, 1310.568
567.8212, 1322.070
568.3033, 1333.155
568.7855, 1341.761
569.2676, 1346.613
569.7497, 1349.316
570.2318, 1352.240
570.7139, 1355.165
571.1960, 1357.377
571.6782, 1358.805
572.1603, 1359.064
572.6424, 1357.602
573.1245, 1354.295
573.6066, 1350.475
574.0887, 1346.839
574.5709, 1342.756
575.0530, 1337.673
575.5351, 1330.014
576.0172, 1323.513
576.4993, 1319.390
576.9814, 1315.943
577.4636, 1310.405
577.9457, 1302.115
578.4278, 1293.395
578.9099, 1284.438
579.3920, 1275.724
579.8741, 1269.329
580.3563, 1265.399
580.8384, 1262.198
581.3205, 1259.212
581.8026, 1256.095
582.2847, 1251.686
582.7668, 1245.904
583.2490, 1240.270
583.7311, 1236.243
584.2132, 1233.073
584.6953, 1229.629
585.1774, 1225.273
585.6595, 1221.588
