##NAMES=Titanite
##RRUFFID=R050124
##IDEAL CHEMISTRY=CaTi^4+^SiO_5_
##LOCALITY=Capelinha, Minas Gerais, Brazil
##OWNER=RRUFF
##SOURCE=Carlos and Paulo Vasconcelos
##DESCRIPTION=Yellow tabular crystal
##STATUS=The identification of this mineral has been confirmed by X-ray diffraction and chemical analysis
##URL=rruff.info/R050124
##MEASURED CHEMISTRY=Ca_1.00_(Ti_0.93_Al_0.05_Fe^3+^_0.02_)Si_1.00_O_4_(O)_1.00_
94.30859, 1122.177
94.79071, 1067.410
95.27283, 1058.091
95.75494, 1098.371
96.23706, 1170.804
96.71918, 1254.464
97.20129, 1347.887
97.68341, 1451.509
98.16553, 1566.356
98.64764, 1691.225
99.12976, 1823.459
99.61188, 1961.520
100.0940, 2107.594
100.5761, 2275.304
101.0582, 2467.348
101.5403, 2666.960
102.0225, 2863.672
102.5046, 3054.262
102.9867, 3248.904
103.4688, 3450.850
103.9509, 3657.917
104.4330, 3867.751
104.9152, 4081.156
105.3973, 4290.984
105.8794, 4485.967
106.3615, 4667.764
106.8436, 4834.562
107.3257, 4985.072
107.8079, 5114.349
108.2900, 5243.949
108.7721, 5355.773
109.2542, 5473.001
109.7363, 5632.060
110.2184, 5833.073
110.7006, 6075.269
111.1827, 6357.845
111.6648, 6684.980
112.1469, 7042.308
112.6290, 7445.259
113.1111, 7872.953
113.5933, 8298.469
114.0754, 8716.405
114.5575, 9129.029
115.0396, 9535.756
115.5217, 9942.305
116.0038, 10341.90
116.4860, 10725.25
116.9681, 11098.34
117.4502, 11482.54
117.9323, 11886.65
118.4144, 12303.90
118.8965, 12729.89
119.3786, 13185.41
119.8608, 13629.04
120.3429, 14043.67
120.8250, 14430.18
121.3071, 14778.92
121.7892, 15094.43
122.2713, 15370.30
122.7535, 15598.84
123.2356, 15749.33
123.7177, 15868.48
124.1998, 15986.42
124.6819, 16104.98
125.1640, 16234.06
125.6462, 16382.53
126.1283, 16548.76
126.6104, 16729.38
127.0925, 16909.98
127.5746, 17108.73
128.0567, 17350.36
128.5389, 17637.97
129.0210, 17964.58
129.5031, 18332.41
129.9852, 18735.70
130.4673, 19141.56
130.9494, 19536.16
131.4316, 19912.86
131.9137, 20189.76
132.3958, 20349.72
132.8779, 20501.82
133.3600, 20657.58
133.8421, 20816.19
134.3243, 20966.22
134.8064, 21092.80
135.2885, 21198.20
135.7706, 21321.19
136.2527, 21469.36
136.7348, 21634.69
137.2170, 21790.94
137.6991, 21936.44
138.1812, 22085.65
138.6633, 22246.39
139.1454, 22418.09
139.6275, 22604.61
140.1097, 22799.95
140.5918, 23007.89
141.0739, 23247.60
141.5560, 23510.73
142.0381, 23814.55
142.5202, 24185.37
143.0023, 24639.31
143.4845, 25107.47
143.9666, 25595.99
144.4487, 26111.58
144.9308, 26525.87
145.4129, 26880.43
145.8951, 27103.21
146.3772, 27117.31
146.8593, 26851.19
147.3414, 26494.36
147.8235, 26055.48
148.3056, 25488.94
148.7878, 25047.87
149.2699, 24751.38
149.7520, 24565.72
150.2341, 24447.31
150.7162, 24395.36
151.1983, 24406.14
151.6805, 24475.68
152.1626, 24592.82
152.6447, 24792.34
153.1268, 25091.27
153.6089, 25471.12
154.0910, 25897.93
154.5732, 26349.27
155.0553, 26865.95
155.5374, 27459.12
156.0195, 28134.46
156.5016, 28871.43
156.9837, 29683.07
157.4659, 30550.89
157.9480, 31439.91
158.4301, 32357.37
158.9122, 33275.24
159.3943, 34176.04
159.8764, 35084.22
160.3586, 35932.21
160.8407, 36724.38
161.3228, 37447.34
161.8049, 38062.56
162.2870, 38569.74
162.7691, 38958.82
163.2513, 39224.23
163.7334, 39370.32
164.2155, 39386.56
164.6976, 39252.64
165.1797, 38980.14
165.6618, 38612.33
166.1440, 38137.13
166.6261, 37594.59
167.1082, 37018.01
167.5903, 36387.76
168.0724, 35756.48
168.5545, 35141.33
169.0367, 34545.85
169.5188, 33992.15
170.0009, 33494.17
170.4830, 33048.20
170.9651, 32635.00
171.4472, 32236.76
171.9293, 31880.23
172.4115, 31585.02
172.8936, 31350.64
173.3757, 31171.70
173.8578, 31051.77
174.3399, 30985.23
174.8220, 30962.76
175.3042, 30996.02
175.7863, 31062.75
176.2684, 31146.78
176.7505, 31247.60
177.2326, 31349.70
177.7147, 31426.29
178.1969, 31493.19
178.6790, 31583.33
179.1611, 31735.91
179.6432, 31909.57
180.1253, 32032.15
180.6074, 32099.34
181.0896, 32166.66
181.5717, 32300.58
182.0538, 32481.49
182.5359, 32652.81
183.0180, 32793.23
183.5001, 32904.90
183.9823, 32988.02
184.4644, 33041.66
184.9465, 33070.18
185.4286, 33079.99
185.9107, 33069.68
186.3928, 33030.50
186.8750, 32946.44
187.3571, 32830.21
187.8392, 32716.34
188.3213, 32605.63
188.8034, 32500.47
189.2855, 32400.69
189.7677, 32307.87
190.2498, 32234.96
190.7319, 32176.29
191.2140, 32138.97
191.6961, 32167.44
192.1782, 32269.10
192.6604, 32414.99
193.1425, 32567.11
193.6246, 32724.94
194.1067, 32888.77
194.5888, 33058.54
195.0709, 33232.88
195.5531, 33413.17
196.0352, 33603.98
196.5173, 33795.21
196.9994, 33966.24
197.4815, 34114.83
197.9636, 34268.93
198.4458, 34443.82
198.9279, 34639.43
199.4100, 34841.80
199.8921, 35051.31
200.3742, 35267.32
200.8563, 35484.88
201.3385, 35703.36
201.8206, 35937.13
202.3027, 36197.13
202.7848, 36486.37
203.2669, 36775.65
203.7490, 37063.94
204.2311, 37355.35
204.7133, 37664.52
205.1954, 37999.39
205.6775, 38321.57
206.1596, 38616.01
206.6417, 38884.99
207.1238, 39117.15
207.6060, 39307.57
208.0881, 39468.29
208.5702, 39629.77
209.0523, 39801.05
209.5344, 39945.28
210.0165, 40040.74
210.4987, 40079.85
210.9808, 40105.56
211.4629, 40120.23
211.9450, 40120.57
212.4271, 40093.07
212.9092, 40024.05
213.3914, 39960.18
213.8735, 39926.18
214.3556, 39930.54
214.8377, 39932.58
215.3198, 39928.05
215.8019, 39923.15
216.2841, 39931.55
216.7662, 39952.31
217.2483, 39989.38
217.7304, 40045.10
218.2125, 40119.61
218.6946, 40212.30
219.1768, 40328.91
219.6589, 40460.97
220.1410, 40590.82
220.6231, 40709.11
221.1052, 40843.36
221.5873, 41012.26
222.0695, 41231.04
222.5516, 41435.49
223.0337, 41621.62
223.5158, 41792.88
223.9979, 41966.39
224.4800, 42136.17
224.9622, 42315.19
225.4443, 42507.57
225.9264, 42718.98
226.4085, 42934.16
226.8906, 43161.49
227.3727, 43389.45
227.8549, 43600.53
228.3370, 43782.62
228.8191, 43964.77
229.3012, 44161.27
229.7833, 44375.20
230.2654, 44592.43
230.7476, 44815.04
231.2297, 45039.54
231.7118, 45261.02
232.1939, 45494.39
232.6760, 45700.50
233.1581, 45862.27
233.6402, 45962.77
234.1224, 46063.34
234.6045, 46181.46
235.0866, 46292.74
235.5687, 46342.87
236.0508, 46308.79
236.5329, 46250.04
237.0151, 46183.89
237.4972, 46100.56
237.9793, 46035.86
238.4614, 45981.32
238.9435, 45948.42
239.4256, 45956.43
239.9078, 45993.74
240.3899, 46090.46
240.8720, 46259.16
241.3541, 46507.52
241.8362, 46801.79
242.3183, 47140.63
242.8005, 47530.37
243.2826, 47985.27
243.7647, 48501.29
244.2468, 49082.54
244.7289, 49740.27
245.2110, 50494.66
245.6932, 51243.62
246.1753, 51979.79
246.6574, 52715.18
247.1395, 53472.81
247.6216, 54255.90
248.1037, 55041.25
248.5859, 55837.48
249.0680, 56653.80
249.5501, 57386.03
250.0322, 58022.43
250.5143, 58582.64
250.9964, 59095.97
251.4786, 59581.14
251.9607, 59984.73
252.4428, 60289.74
252.9249, 60486.77
253.4070, 60650.95
253.8891, 60809.63
254.3713, 60910.67
254.8534, 60887.64
255.3355, 60713.13
255.8176, 60472.97
256.2997, 60193.95
256.7818, 59882.77
257.2639, 59453.26
257.7461, 58890.06
258.2282, 58223.08
258.7103, 57489.06
259.1924, 56679.40
259.6745, 55805.14
260.1566, 54887.46
260.6388, 53914.20
261.1209, 52870.23
261.6030, 51732.96
262.0851, 50541.49
262.5672, 49339.50
263.0493, 48105.64
263.5315, 46885.71
264.0136, 45679.79
264.4957, 44496.38
264.9778, 43358.81
265.4599, 42283.75
265.9420, 41243.25
266.4242, 40228.96
266.9063, 39225.51
267.3884, 38264.88
267.8705, 37343.79
268.3526, 36471.43
268.8347, 35677.16
269.3169, 34980.57
269.7990, 34332.44
270.2811, 33685.55
270.7632, 33028.71
271.2453, 32439.67
271.7274, 31930.60
272.2096, 31489.46
272.6917, 31053.34
273.1738, 30612.07
273.6559, 30192.23
274.1380, 29810.34
274.6201, 29465.06
275.1023, 29145.26
275.5844, 28848.82
276.0665, 28580.27
276.5486, 28337.22
277.0307, 28120.28
277.5128, 27933.92
277.9950, 27786.65
278.4771, 27681.19
278.9592, 27579.49
279.4413, 27475.07
279.9234, 27380.07
280.4055, 27316.46
280.8877, 27284.46
281.3698, 27278.41
281.8519, 27300.72
282.3340, 27351.17
282.8161, 27405.01
283.2982, 27459.43
283.7804, 27523.28
284.2625, 27612.09
284.7446, 27726.65
285.2267, 27845.62
285.7088, 27956.32
286.1909, 28062.14
286.6731, 28189.94
287.1552, 28341.86
287.6373, 28507.10
288.1194, 28682.98
288.6015, 28868.08
289.0836, 29025.71
289.5658, 29150.18
290.0479, 29237.59
290.5300, 29272.22
291.0121, 29253.16
291.4942, 29189.63
291.9763, 29085.89
292.4585, 28944.25
292.9406, 28768.37
293.4227, 28548.22
293.9048, 28304.72
294.3869, 28076.29
294.8690, 27861.97
295.3512, 27678.82
295.8333, 27521.32
296.3154, 27401.90
296.7975, 27356.23
297.2796, 27391.71
297.7617, 27504.79
298.2439, 27699.35
298.7260, 27971.16
299.2081, 28300.01
299.6902, 28689.65
300.1723, 29121.98
300.6544, 29579.71
301.1366, 30058.43
301.6187, 30553.42
302.1008, 31072.74
302.5829, 31604.09
303.0650, 32121.07
303.5471, 32620.84
304.0293, 33087.57
304.5114, 33493.89
304.9935, 33838.11
305.4756, 34135.40
305.9577, 34399.60
306.4398, 34630.22
306.9220, 34828.95
307.4041, 34987.37
307.8862, 35119.66
308.3683, 35245.34
308.8504, 35364.18
309.3326, 35468.73
309.8147, 35528.81
310.2968, 35574.02
310.7789, 35649.58
311.2610, 35776.11
311.7431, 35937.77
312.2252, 36123.29
312.7073, 36333.23
313.1895, 36573.29
313.6716, 36856.96
314.1537, 37169.46
314.6358, 37493.98
315.1179, 37866.15
315.6000, 38206.32
316.0822, 38482.93
316.5643, 38695.98
317.0464, 38844.87
317.5285, 38946.63
318.0106, 38973.61
318.4927, 38903.95
318.9749, 38715.78
319.4570, 38459.05
319.9391, 38131.07
320.4212, 37747.55
320.9033, 37338.30
321.3854, 36890.76
321.8676, 36436.17
322.3497, 35983.57
322.8318, 35523.54
323.3139, 35096.49
323.7960, 34683.92
324.2781, 34317.21
324.7603, 34034.46
325.2424, 33876.54
325.7245, 33771.64
326.2066, 33700.53
326.6887, 33661.09
327.1708, 33664.97
327.6530, 33726.13
328.1351, 33825.74
328.6172, 33946.96
329.0993, 34096.32
329.5814, 34260.25
330.0635, 34441.89
330.5457, 34640.80
331.0278, 34840.89
331.5099, 35055.04
331.9920, 35261.29
332.4741, 35444.07
332.9562, 35625.46
333.4384, 35750.55
333.9205, 35813.40
334.4026, 35816.65
334.8847, 35772.01
335.3668, 35678.12
335.8489, 35536.25
336.3311, 35347.95
336.8132, 35113.16
337.2953, 34825.74
337.7774, 34479.40
338.2595, 34086.84
338.7416, 33678.68
339.2238, 33252.38
339.7059, 32809.52
340.1880, 32352.51
340.6701, 31881.41
341.1522, 31397.83
341.6343, 30891.12
342.1165, 30387.12
342.5986, 29905.47
343.0807, 29444.09
343.5628, 29012.52
344.0449, 28608.92
344.5270, 28236.30
345.0092, 27879.09
345.4913, 27531.24
345.9734, 27220.04
346.4555, 26974.27
346.9376, 26789.87
347.4197, 26613.85
347.9019, 26438.10
348.3840, 26266.32
348.8661, 26093.79
349.3482, 25922.25
349.8303, 25768.57
350.3124, 25664.11
350.7946, 25584.04
351.2767, 25464.67
351.7588, 25297.74
352.2409, 25092.08
352.7230, 24856.60
353.2051, 24590.21
353.6873, 24283.55
354.1694, 23922.75
354.6515, 23526.50
355.1336, 23110.47
355.6157, 22669.56
356.0978, 22238.46
356.5800, 21838.03
357.0621, 21460.69
357.5442, 21094.95
358.0263, 20731.39
358.5084, 20384.62
358.9905, 20066.99
359.4727, 19775.88
359.9548, 19488.98
360.4369, 19178.32
360.9190, 18878.08
361.4011, 18621.94
361.8832, 18437.97
362.3654, 18257.76
362.8475, 18048.15
363.3296, 17820.64
363.8117, 17598.51
364.2938, 17388.59
364.7759, 17189.48
365.2581, 17006.25
365.7402, 16846.10
366.2223, 16671.75
366.7044, 16462.14
367.1865, 16239.35
367.6686, 16024.56
368.1508, 15832.42
368.6329, 15639.53
369.1150, 15441.19
369.5971, 15237.25
370.0792, 15032.45
370.5613, 14830.41
371.0435, 14626.87
371.5256, 14419.89
372.0077, 14208.94
372.4898, 13994.19
372.9719, 13770.97
373.4540, 13542.35
373.9361, 13317.50
374.4182, 13102.02
374.9004, 12885.13
375.3825, 12660.42
375.8646, 12425.75
376.3467, 12199.10
376.8288, 11981.98
377.3109, 11768.34
377.7931, 11544.33
378.2752, 11305.96
378.7573, 11071.06
379.2394, 10839.89
379.7215, 10615.52
380.2036, 10405.44
380.6858, 10214.65
381.1679, 10031.80
381.6500, 9843.804
382.1321, 9651.641
382.6142, 9490.480
383.0963, 9370.139
383.5785, 9276.531
384.0606, 9180.704
384.5427, 9084.946
385.0248, 8995.238
385.5069, 8913.877
385.9890, 8842.214
386.4712, 8788.781
386.9533, 8756.638
387.4354, 8728.862
387.9175, 8690.813
388.3996, 8644.160
388.8817, 8592.146
389.3639, 8538.526
389.8460, 8479.420
390.3281, 8410.826
390.8102, 8332.874
391.2923, 8245.611
391.7744, 8144.975
392.2566, 8036.047
392.7387, 7922.136
393.2208, 7801.461
393.7029, 7680.712
394.1850, 7560.729
394.6671, 7442.515
395.1493, 7327.315
395.6314, 7212.450
396.1135, 7103.370
396.5956, 7001.813
397.0777, 6906.615
397.5598, 6820.521
398.0420, 6744.390
398.5241, 6677.468
399.0062, 6618.875
399.4883, 6564.498
399.9704, 6522.333
400.4525, 6496.572
400.9347, 6486.593
401.4168, 6481.761
401.8989, 6482.006
402.3810, 6487.340
402.8631, 6497.341
403.3452, 6509.021
403.8274, 6531.444
404.3095, 6566.102
404.7916, 6610.938
405.2737, 6660.927
405.7558, 6715.578
406.2379, 6776.979
406.7201, 6845.450
407.2022, 6920.820
407.6843, 7009.666
408.1664, 7113.121
408.6485, 7225.425
409.1306, 7338.340
409.6128, 7452.338
410.0949, 7571.083
410.5770, 7695.510
411.0591, 7825.806
411.5412, 7956.440
412.0233, 8088.737
412.5055, 8234.881
412.9876, 8405.592
413.4697, 8596.760
413.9518, 8796.455
414.4339, 9000.737
414.9160, 9215.829
415.3982, 9452.447
415.8803, 9702.938
416.3624, 9959.771
416.8445, 10214.27
417.3266, 10475.23
417.8087, 10756.87
418.2909, 11056.42
418.7730, 11366.48
419.2551, 11687.81
419.7372, 12012.32
420.2193, 12328.33
420.7014, 12633.42
421.1836, 12928.66
421.6657, 13216.46
422.1478, 13491.76
422.6299, 13747.35
423.1120, 13997.49
423.5941, 14211.99
424.0763, 14370.30
424.5584, 14468.11
425.0405, 14536.18
425.5226, 14578.95
426.0047, 14593.14
426.4868, 14574.80
426.9690, 14510.57
427.4511, 14431.69
427.9332, 14339.67
428.4153, 14236.13
428.8974, 14127.50
429.3795, 14007.01
429.8617, 13893.31
430.3438, 13799.34
430.8259, 13731.40
431.3080, 13651.93
431.7901, 13552.79
432.2722, 13453.72
432.7544, 13384.16
433.2365, 13346.84
433.7186, 13315.62
434.2007, 13278.35
434.6828, 13241.37
435.1649, 13232.82
435.6470, 13253.71
436.1292, 13283.29
436.6113, 13299.45
437.0934, 13309.83
437.5755, 13340.03
438.0576, 13397.25
438.5397, 13467.09
439.0219, 13532.58
439.5040, 13596.52
439.9861, 13666.03
440.4682, 13748.89
440.9503, 13837.22
441.4324, 13923.86
441.9146, 14008.60
442.3967, 14093.43
442.8788, 14166.35
443.3609, 14246.76
443.8430, 14353.01
444.3251, 14505.86
444.8073, 14666.27
445.2894, 14816.66
445.7715, 14964.01
446.2536, 15126.45
446.7357, 15308.61
447.2178, 15502.28
447.7000, 15717.63
448.1821, 15939.26
448.6642, 16182.66
449.1463, 16440.49
449.6284, 16723.22
450.1105, 17044.74
450.5927, 17418.96
451.0748, 17807.88
451.5569, 18210.58
452.0390, 18624.54
452.5211, 19055.82
453.0032, 19499.32
453.4854, 19964.92
453.9675, 20450.81
454.4496, 20958.92
454.9317, 21495.99
455.4138, 22059.91
455.8959, 22652.31
456.3781, 23273.70
456.8602, 23926.18
457.3423, 24606.19
457.8244, 25299.64
458.3065, 26025.82
458.7886, 26810.61
459.2708, 27660.52
459.7529, 28532.19
460.2350, 29413.57
460.7171, 30308.34
461.1992, 31242.50
461.6813, 32217.13
462.1635, 33207.76
462.6456, 34219.43
463.1277, 35238.13
463.6098, 36249.07
464.0919, 37281.09
464.5740, 38267.48
465.0562, 39206.71
465.5383, 40086.29
466.0204, 40858.48
466.5025, 41549.86
466.9846, 42110.83
467.4667, 42516.65
467.9489, 42797.23
468.4310, 42864.05
468.9131, 42714.48
469.3952, 42346.47
469.8773, 41751.65
470.3594, 40881.13
470.8416, 39848.79
471.3237, 38652.24
471.8058, 37310.73
472.2879, 35880.52
472.7700, 34342.14
473.2521, 32773.70
473.7343, 31226.74
474.2164, 29699.56
474.6985, 28218.20
475.1806, 26771.01
475.6627, 25393.89
476.1448, 24111.51
476.6270, 22923.01
477.1091, 21823.15
477.5912, 20811.10
478.0733, 19885.23
478.5554, 19047.96
479.0375, 18294.39
479.5197, 17615.21
480.0018, 17005.35
480.4839, 16456.21
480.9660, 15958.96
481.4481, 15514.00
481.9302, 15112.94
482.4124, 14755.68
482.8945, 14437.47
483.3766, 14149.93
483.8587, 13884.96
484.3408, 13651.99
484.8229, 13461.35
485.3051, 13309.27
485.7872, 13171.34
486.2693, 13038.31
486.7514, 12919.61
487.2335, 12822.21
487.7156, 12748.93
488.1978, 12687.22
488.6799, 12639.79
489.1620, 12601.28
489.6441, 12564.97
490.1262, 12528.58
490.6083, 12499.91
491.0905, 12483.15
491.5726, 12475.45
492.0547, 12462.50
492.5368, 12443.49
493.0189, 12425.53
493.5010, 12412.85
493.9832, 12405.48
494.4653, 12403.14
494.9474, 12406.83
495.4295, 12411.41
495.9116, 12410.51
496.3937, 12405.75
496.8758, 12401.37
497.3579, 12397.91
497.8401, 12396.12
498.3222, 12396.41
498.8043, 12398.73
499.2864, 12403.31
499.7685, 12418.54
500.2506, 12430.00
500.7328, 12421.87
501.2149, 12388.00
501.6970, 12364.24
502.1791, 12371.80
502.6612, 12391.69
503.1433, 12405.99
503.6255, 12398.44
504.1076, 12401.07
504.5897, 12421.18
505.0718, 12454.57
505.5539, 12488.51
506.0360, 12517.58
506.5182, 12556.85
507.0003, 12612.67
507.4824, 12685.88
507.9645, 12760.55
508.4466, 12833.77
508.9287, 12914.58
509.4109, 13014.62
509.8930, 13133.68
510.3751, 13250.41
510.8572, 13362.88
511.3393, 13471.82
511.8214, 13577.10
512.3036, 13680.64
512.7857, 13793.35
513.2678, 13922.41
513.7499, 14062.56
514.2321, 14210.30
514.7142, 14363.59
515.1963, 14515.39
515.6784, 14660.14
516.1605, 14801.32
516.6426, 14941.64
517.1248, 15080.26
517.6069, 15222.21
518.0890, 15375.10
518.5711, 15532.01
519.0532, 15680.81
519.5353, 15801.24
520.0175, 15934.42
520.4996, 16093.16
520.9817, 16273.97
521.4638, 16460.94
521.9459, 16659.40
522.4280, 16857.81
522.9102, 17046.15
523.3923, 17220.88
523.8744, 17410.90
524.3565, 17620.42
524.8386, 17838.60
525.3207, 18051.01
525.8029, 18255.90
526.2849, 18471.65
526.7670, 18698.33
527.2491, 18940.42
527.7313, 19203.67
528.2134, 19487.24
528.6955, 19781.71
529.1776, 20081.63
529.6597, 20386.18
530.1418, 20692.67
530.6240, 20996.03
531.1061, 21310.75
531.5882, 21640.56
532.0703, 21984.05
532.5524, 22340.71
533.0345, 22710.12
533.5167, 23087.12
533.9988, 23470.18
534.4809, 23857.10
534.9630, 24242.56
535.4451, 24632.43
535.9272, 25017.56
536.4094, 25403.17
536.8915, 25786.66
537.3736, 26152.01
537.8557, 26499.84
538.3378, 26835.29
538.8199, 27162.11
539.3021, 27480.71
539.7842, 27788.22
540.2663, 28089.53
540.7484, 28374.38
541.2305, 28630.85
541.7126, 28861.75
542.1948, 29072.65
542.6769, 29263.05
543.1590, 29433.65
543.6411, 29576.86
544.1232, 29696.08
544.6053, 29803.32
545.0875, 29911.94
545.5696, 30009.21
546.0517, 30083.32
546.5338, 30134.40
547.0159, 30166.19
547.4980, 30185.71
547.9802, 30184.07
548.4623, 30153.70
548.9444, 30085.19
549.4265, 30002.29
549.9086, 29913.26
550.3907, 29809.56
550.8729, 29678.20
551.3550, 29517.10
551.8371, 29330.84
552.3192, 29119.14
552.8013, 28882.96
553.2834, 28631.61
553.7656, 28367.43
554.2477, 28074.38
554.7298, 27732.64
555.2119, 27345.15
555.6940, 26958.86
556.1761, 26572.37
556.6583, 26187.92
557.1404, 25802.42
557.6225, 25419.74
558.1046, 25058.13
558.5867, 24726.28
559.0688, 24399.78
559.5510, 24049.08
560.0331, 23689.95
560.5152, 23346.11
560.9973, 23027.59
561.4794, 22726.30
561.9615, 22451.11
562.4437, 22198.91
562.9258, 21932.11
563.4079, 21627.96
563.8900, 21319.33
564.3721, 21025.02
564.8542, 20748.98
565.3364, 20465.94
565.8185, 20176.52
566.3006, 19887.04
566.7827, 19602.92
567.2648, 19324.95
567.7469, 19061.41
568.2291, 18809.51
568.7112, 18578.91
569.1933, 18382.74
569.6754, 18221.58
570.1575, 18089.59
570.6396, 17978.96
571.1218, 17898.58
571.6039, 17866.08
572.0860, 17880.08
572.5681, 17927.44
573.0502, 17999.29
573.5323, 18099.87
574.0145, 18235.49
574.4966, 18406.69
574.9787, 18607.15
575.4608, 18829.61
575.9429, 19080.83
576.4250, 19364.89
576.9072, 19695.93
577.3893, 20043.93
577.8714, 20398.07
578.3535, 20765.86
578.8356, 21151.84
579.3177, 21552.40
579.7999, 21978.55
580.2820, 22440.46
580.7641, 22933.81
581.2462, 23440.20
581.7283, 23959.17
582.2104, 24498.02
582.6926, 25063.66
583.1747, 25653.55
583.6568, 26256.68
584.1389, 26877.17
584.6210, 27520.36
585.1031, 28185.19
585.5853, 28873.32
586.0674, 29582.63
586.5495, 30307.82
587.0316, 31058.86
587.5137, 31856.16
587.9958, 32686.09
588.4780, 33528.27
588.9601, 34363.92
589.4422, 35225.29
589.9243, 36140.66
590.4064, 37102.46
