##NAMES=Titanite
##RRUFFID=R050472
##IDEAL CHEMISTRY=CaTi^4+^SiO_5_
##LOCALITY=Turner's Island, Lake Clear, Wadawaska, Ontario, Canada
##OWNER=RRUFF
##SOURCE=California Institute of Technology
##DESCRIPTION=Brown flattened wedge-shaped crystal
##STATUS=The identification of this mineral has been confirmed by X-ray diffraction and chemical analysis
##URL=rruff.info/R050472
##MEASURED CHEMISTRY=(Ca_0.99_Na_0.01_)(Ti_0.81_Al_0.09_Fe^3+^_0.07_Nb_0.03_)Si_1.00_O_4_(O_0.80_F_0.20_)
95.22955, 414.0229
95.71167, 414.9110
96.19379, 413.7797
96.67590, 410.9425
97.15803, 408.4161
97.64014, 407.2295
98.12226, 406.4300
98.60438, 404.1389
99.08649, 399.2988
99.56861, 393.7028
100.0507, 390.1544
100.5328, 388.3604
101.0150, 386.6320
101.4971, 383.5961
101.9792, 379.1837
102.4613, 375.3552
102.9434, 373.1788
103.4255, 371.6440
103.9077, 370.0492
104.3898, 368.1282
104.8719, 366.1786
105.3540, 364.9204
105.8361, 365.0677
106.3182, 364.5771
106.8004, 362.7195
107.2825, 360.1302
107.7646, 357.4668
108.2467, 355.0860
108.7288, 352.9785
109.2109, 351.2080
109.6931, 349.9177
110.1752, 348.7738
110.6573, 347.6016
111.1394, 346.4739
111.6215, 345.6731
112.1037, 345.5662
112.5858, 346.3267
113.0679, 345.9884
113.5500, 343.2527
114.0321, 340.4097
114.5142, 339.4507
114.9964, 340.6844
115.4785, 342.2675
115.9606, 341.7569
116.4427, 339.2849
116.9248, 337.3451
117.4069, 336.9124
117.8891, 337.3761
118.3712, 337.4859
118.8533, 336.9637
119.3354, 336.0574
119.8175, 334.9117
120.2996, 333.5527
120.7818, 332.3559
121.2639, 331.6496
121.7460, 331.4493
122.2281, 331.2815
122.7102, 331.1013
123.1923, 330.9062
123.6745, 330.5778
124.1566, 330.1269
124.6387, 329.8304
125.1208, 330.2284
125.6029, 332.0183
126.0850, 332.9803
126.5672, 332.2635
127.0493, 331.1771
127.5314, 330.9352
128.0135, 331.9981
128.4956, 333.7469
128.9778, 334.4509
129.4599, 332.6454
129.9420, 331.3538
130.4241, 331.0105
130.9062, 331.2801
131.3883, 331.6351
131.8705, 331.7727
132.3526, 331.7934
132.8347, 332.2641
133.3168, 333.4643
133.7989, 334.7257
134.2810, 335.8533
134.7632, 336.8373
135.2453, 337.6228
135.7274, 338.0485
136.2095, 338.2672
136.6916, 338.8055
137.1737, 339.9141
137.6559, 341.2188
138.1380, 342.2793
138.6201, 343.0130
139.1022, 343.9019
139.5843, 345.4129
140.0664, 347.2705
140.5486, 349.1295
141.0307, 351.1423
141.5128, 353.0240
141.9949, 353.8013
142.4770, 352.7926
142.9591, 351.6217
143.4413, 351.3835
143.9234, 351.5200
144.4055, 350.9577
144.8876, 348.7261
145.3697, 344.8173
145.8518, 341.4554
146.3340, 338.8380
146.8161, 336.6610
147.2982, 335.0233
147.7803, 333.8032
148.2624, 332.7054
148.7445, 331.3548
149.2267, 329.4792
149.7088, 328.6334
150.1909, 329.5727
150.6730, 330.6943
151.1551, 331.0441
151.6372, 330.5269
152.1194, 329.7407
152.6015, 329.4328
153.0836, 329.8929
153.5657, 330.0738
154.0478, 329.6439
154.5300, 329.0917
155.0121, 328.9166
155.4942, 329.2529
155.9763, 329.8718
156.4584, 330.5855
156.9405, 331.4775
157.4227, 331.9189
157.9048, 331.4052
158.3869, 330.3328
158.8690, 329.5514
159.3511, 329.3370
159.8332, 329.4026
160.3154, 329.3495
160.7975, 329.1671
161.2796, 329.0883
161.7617, 329.2755
162.2438, 329.7172
162.7259, 330.2578
163.2081, 331.0716
163.6902, 331.7977
164.1723, 332.1749
164.6544, 332.1813
165.1365, 331.9512
165.6186, 331.6014
166.1008, 331.1207
166.5829, 330.5799
167.0650, 329.5099
167.5471, 328.6926
168.0292, 328.8497
168.5113, 330.1105
168.9935, 331.7616
169.4756, 332.5619
169.9577, 331.8907
170.4398, 331.5345
170.9219, 331.8964
171.4040, 332.4332
171.8862, 332.6201
172.3683, 332.2769
172.8504, 331.7072
173.3325, 331.6385
173.8146, 332.7432
174.2967, 333.5804
174.7789, 333.8994
175.2610, 334.0009
175.7431, 334.2393
176.2252, 334.7796
176.7073, 335.5295
177.1894, 336.1839
177.6716, 336.5413
178.1537, 337.0568
178.6358, 337.9443
179.1179, 339.0460
179.6000, 340.0462
180.0822, 340.7479
180.5643, 341.2979
181.0464, 342.1573
181.5285, 343.5055
182.0106, 344.8537
182.4927, 345.9759
182.9749, 346.9037
183.4570, 347.7601
183.9391, 348.5324
184.4212, 349.3223
184.9033, 350.2896
185.3854, 351.4513
185.8676, 352.7668
186.3497, 354.3103
186.8318, 356.0931
187.3139, 357.7110
187.7960, 358.8826
188.2781, 359.8271
188.7603, 360.7027
189.2424, 361.4501
189.7245, 362.3427
190.2066, 363.8331
190.6887, 366.1089
191.1708, 368.3108
191.6530, 369.8749
192.1351, 371.3453
192.6172, 373.2555
193.0993, 375.8323
193.5814, 378.7384
194.0635, 381.2484
194.5457, 383.1021
195.0278, 385.0625
195.5099, 387.2708
195.9920, 389.6479
196.4741, 392.1792
196.9562, 394.8712
197.4384, 397.5974
197.9205, 399.9790
198.4026, 401.4700
198.8847, 403.3629
199.3668, 405.9819
199.8489, 409.0030
200.3311, 410.4335
200.8132, 414.9731
201.2953, 418.5626
201.7774, 421.2530
202.2595, 420.3514
202.7417, 424.0886
203.2238, 425.9664
203.7059, 427.7681
204.1880, 432.1576
204.6701, 431.7785
205.1522, 436.1270
205.6344, 438.5887
206.1165, 441.9137
206.5986, 443.3684
207.0807, 445.4008
207.5628, 449.3041
208.0449, 452.1715
208.5271, 452.9797
209.0092, 456.0186
209.4913, 459.4872
209.9734, 463.8546
210.4555, 467.9994
210.9376, 471.5568
211.4198, 474.5833
211.9019, 477.2238
212.3840, 479.4405
212.8661, 481.3570
213.3482, 483.3614
213.8303, 485.5361
214.3125, 487.6502
214.7946, 489.3355
215.2767, 490.7327
215.7588, 492.6039
216.2409, 495.5118
216.7230, 498.9694
217.2052, 502.0899
217.6873, 504.8189
218.1694, 507.2649
218.6515, 509.3168
219.1336, 511.0073
219.6157, 513.0270
220.0979, 516.2527
220.5800, 519.5294
221.0621, 521.3771
221.5442, 521.3214
222.0263, 521.1335
222.5084, 522.8663
222.9906, 526.7590
223.4727, 530.0228
223.9548, 531.3554
224.4369, 531.9331
224.9190, 532.4072
225.4011, 532.8812
225.8833, 533.5587
226.3654, 534.9596
226.8475, 537.4063
227.3296, 538.9716
227.8117, 538.3307
228.2939, 537.2567
228.7760, 536.8813
229.2581, 537.4201
229.7402, 538.1936
230.2223, 538.2265
230.7044, 537.2008
231.1866, 536.4480
231.6687, 536.6069
232.1508, 536.7177
232.6329, 536.3641
233.1150, 535.3956
233.5971, 533.6921
234.0793, 530.8738
234.5614, 526.1564
235.0435, 522.2905
235.5256, 519.8188
236.0077, 517.7212
236.4898, 515.4711
236.9720, 512.9457
237.4541, 510.2530
237.9362, 507.5599
238.4183, 505.0216
238.9004, 502.1008
239.3825, 498.4539
239.8647, 494.7678
240.3468, 491.5124
240.8289, 488.7270
241.3110, 486.1728
241.7931, 483.5275
242.2752, 480.8019
242.7574, 477.9617
243.2395, 474.5172
243.7216, 471.3341
244.2037, 469.2484
244.6858, 468.2145
245.1679, 467.2640
245.6501, 465.2897
246.1322, 461.9552
246.6143, 458.8575
247.0964, 455.6434
247.5785, 452.8825
248.0606, 451.2873
248.5428, 450.7583
249.0249, 450.2237
249.5070, 448.6019
249.9891, 445.6608
250.4712, 443.0981
250.9533, 440.8148
251.4355, 438.9496
251.9176, 437.7586
252.3997, 437.1817
252.8818, 436.7054
253.3639, 435.9012
253.8461, 434.7573
254.3282, 433.7584
254.8103, 433.1128
255.2924, 432.4456
255.7745, 431.3324
256.2566, 429.8353
256.7387, 428.6513
257.2209, 428.4759
257.7030, 429.0821
258.1851, 428.9076
258.6672, 426.9089
259.1493, 424.9723
259.6314, 424.5605
260.1136, 425.5457
260.5957, 426.7050
261.0778, 427.5225
261.5599, 427.8844
262.0420, 427.6698
262.5241, 426.1733
263.0063, 424.9291
263.4884, 425.3634
263.9705, 427.2688
264.4526, 428.7924
264.9348, 428.8269
265.4169, 428.0890
265.8990, 428.0262
266.3811, 428.8775
266.8632, 429.9290
267.3453, 430.5528
267.8275, 430.8408
268.3096, 431.5426
268.7917, 433.0271
269.2738, 435.0077
269.7559, 437.0035
270.2380, 438.9865
270.7202, 441.1152
271.2023, 443.6409
271.6844, 446.4802
272.1665, 449.1132
272.6486, 451.4795
273.1307, 453.4615
273.6129, 454.7101
274.0950, 455.2501
274.5771, 456.3387
275.0592, 459.2741
275.5413, 463.6834
276.0234, 467.2525
276.5056, 469.0370
276.9877, 470.7196
277.4698, 473.6932
277.9519, 477.7481
278.4340, 481.8517
278.9161, 485.2841
279.3983, 488.2196
279.8804, 491.4739
280.3625, 494.9491
280.8446, 499.0078
281.3267, 504.2562
281.8088, 510.1750
282.2910, 515.5554
282.7731, 519.1956
283.2552, 521.8011
283.7373, 525.9464
284.2194, 532.7079
284.7015, 538.9733
285.1837, 542.8762
285.6658, 545.5275
286.1479, 548.6444
286.6300, 553.2123
287.1121, 558.4832
287.5942, 562.5319
288.0764, 564.5535
288.5585, 567.2792
289.0406, 572.6837
289.5227, 578.8508
290.0048, 583.6988
290.4869, 586.4525
290.9691, 587.9440
291.4512, 589.5671
291.9333, 591.4188
292.4154, 593.0963
292.8975, 594.0101
293.3796, 594.9955
293.8618, 596.9192
294.3439, 599.9991
294.8260, 603.2394
295.3081, 605.2873
295.7902, 605.9073
296.2723, 606.4435
296.7545, 607.0098
297.2366, 607.6130
297.7187, 608.2607
298.2008, 608.9485
298.6829, 609.6599
299.1650, 610.3995
299.6472, 611.1814
300.1293, 611.8511
300.6114, 612.8779
301.0935, 613.2995
301.5756, 612.2805
302.0577, 610.1650
302.5399, 608.1151
303.0220, 607.2651
303.5041, 607.5331
303.9862, 606.9875
304.4683, 605.3206
304.9504, 603.0939
305.4326, 599.7753
305.9147, 596.1415
306.3968, 593.6943
306.8789, 593.7125
307.3610, 595.4034
307.8431, 595.2289
308.3253, 591.8697
308.8074, 588.6489
309.2895, 586.6251
309.7716, 585.1918
310.2537, 583.6755
310.7358, 581.7798
311.2180, 579.6053
311.7001, 577.3600
312.1822, 574.9284
312.6643, 572.6365
313.1465, 570.8409
313.6286, 569.0070
314.1107, 566.6551
314.5928, 563.6605
315.0749, 560.3068
315.5570, 557.0303
316.0392, 553.9230
316.5213, 550.5506
317.0034, 546.5031
317.4855, 542.4373
317.9676, 538.7688
318.4497, 535.5007
318.9319, 532.3228
319.4140, 528.9794
319.8961, 525.4872
320.3782, 521.7392
320.8603, 517.2011
321.3424, 512.9381
321.8246, 509.4893
322.3067, 506.6611
322.7888, 503.8650
323.2709, 500.5969
323.7530, 496.9915
324.2351, 494.2159
324.7173, 492.9882
325.1994, 491.6034
325.6815, 489.4624
326.1636, 486.8642
326.6457, 484.1697
327.1278, 481.5280
327.6100, 478.9926
328.0921, 476.6387
328.5742, 474.3338
329.0563, 472.5274
329.5384, 471.7786
330.0205, 471.2551
330.5027, 469.9784
330.9848, 467.6732
331.4669, 465.4856
331.9490, 465.4868
332.4311, 468.5320
332.9132, 470.0013
333.3954, 467.6734
333.8775, 464.6883
334.3596, 462.5288
334.8417, 461.3593
335.3238, 460.7201
335.8059, 460.3074
336.2881, 460.1245
336.7702, 459.9324
337.2523, 459.8004
337.7344, 459.5672
338.2165, 459.0253
338.6986, 458.3257
339.1808, 457.8017
339.6629, 457.6506
340.1450, 457.8329
340.6271, 458.2568
341.1092, 459.1281
341.5913, 459.8318
342.0735, 460.1143
342.5556, 460.1258
343.0377, 459.9594
343.5198, 459.5663
344.0019, 459.2629
344.4840, 459.7707
344.9662, 461.4105
345.4483, 462.4657
345.9304, 461.8517
346.4125, 460.7672
346.8946, 460.0101
347.3767, 459.7042
347.8589, 459.4984
348.3410, 459.0358
348.8231, 458.3230
349.3052, 457.7452
349.7873, 457.6389
350.2694, 457.3300
350.7516, 456.1120
351.2337, 454.2207
351.7158, 452.6814
352.1979, 452.6827
352.6800, 453.5432
353.1621, 452.8309
353.6443, 449.8841
354.1264, 446.7823
354.6085, 444.6496
355.0906, 443.1783
355.5727, 442.0319
356.0548, 441.3527
356.5370, 440.6491
357.0191, 438.9498
357.5012, 436.1131
357.9833, 433.9990
358.4654, 433.9630
358.9475, 434.7425
359.4297, 434.7631
359.9118, 433.7400
360.3939, 432.6797
360.8760, 432.3477
361.3581, 432.6321
361.8402, 433.0198
362.3224, 433.5612
362.8045, 433.8942
363.2866, 433.4346
363.7687, 432.2821
364.2509, 431.4629
364.7330, 431.4212
365.2151, 431.9499
365.6972, 432.7587
366.1793, 433.8524
366.6614, 435.0718
367.1436, 436.3566
367.6257, 437.6798
368.1078, 438.9518
368.5899, 440.1762
369.0720, 441.3443
369.5541, 442.1488
370.0363, 442.7319
370.5184, 444.1573
371.0005, 447.2944
371.4826, 451.2513
371.9647, 453.8730
372.4468, 454.4609
372.9290, 455.5993
373.4111, 458.7661
373.8932, 463.0725
374.3753, 466.7372
374.8574, 469.2155
375.3395, 471.4750
375.8217, 474.7646
376.3038, 479.1962
376.7859, 483.6112
377.2680, 487.8947
377.7501, 492.1279
378.2322, 496.2396
378.7144, 500.2907
379.1965, 504.6471
379.6786, 509.5946
380.1607, 515.1226
380.6428, 521.0615
381.1249, 527.2808
381.6071, 533.9246
382.0892, 541.3994
382.5713, 549.3251
383.0534, 556.9388
383.5355, 563.9406
384.0176, 570.5759
384.4998, 577.4363
384.9819, 584.6232
385.4640, 591.9279
385.9461, 599.0637
386.4282, 606.4776
386.9103, 614.8448
387.3925, 624.0579
387.8746, 633.0866
388.3567, 640.5277
388.8388, 645.9021
389.3209, 653.2327
389.8030, 663.7297
390.2852, 674.6534
390.7673, 685.3973
391.2494, 695.7466
391.7315, 705.3799
392.2136, 714.0290
392.6957, 722.0927
393.1779, 730.9736
393.6600, 741.2499
394.1421, 751.5964
394.6242, 762.1973
395.1063, 772.6881
395.5884, 782.5446
396.0706, 791.7270
396.5527, 800.6055
397.0348, 809.9116
397.5169, 819.9730
397.9990, 828.9337
398.4811, 835.2889
398.9633, 841.8108
399.4454, 850.1232
399.9275, 859.5703
400.4096, 868.4255
400.8917, 875.3690
401.3738, 880.8209
401.8560, 886.6108
402.3381, 893.0613
402.8202, 899.2211
403.3023, 905.2833
403.7844, 910.7700
404.2665, 915.0930
404.7487, 918.0515
405.2308, 920.2253
405.7129, 922.3860
406.1950, 924.5964
406.6771, 925.9252
407.1592, 925.8182
407.6414, 925.1191
408.1235, 924.7855
408.6056, 924.6016
409.0877, 923.3582
409.5698, 919.5778
410.0519, 914.3652
410.5341, 910.7138
411.0162, 909.3477
411.4983, 907.0236
411.9804, 900.6840
412.4626, 892.3170
412.9447, 885.3643
413.4268, 881.1613
413.9089, 877.1261
414.3910, 871.0928
414.8731, 863.4066
415.3553, 855.7422
415.8374, 848.6741
416.3195, 841.7804
416.8016, 834.4987
417.2837, 826.8821
417.7658, 818.8329
418.2480, 810.2377
418.7301, 801.2520
419.2122, 791.7691
419.6943, 781.8281
420.1764, 772.1282
420.6585, 763.2737
421.1407, 755.2077
421.6228, 747.3381
422.1049, 739.6301
422.5870, 732.0428
423.0691, 725.0176
423.5512, 718.0340
424.0334, 709.8815
424.5155, 700.0727
424.9976, 689.5510
425.4797, 680.1334
425.9618, 672.1807
426.4439, 664.8161
426.9261, 658.1559
427.4082, 651.9447
427.8903, 646.4430
428.3724, 641.3401
428.8545, 635.5717
429.3366, 628.0703
429.8188, 618.9329
430.3009, 611.2220
430.7830, 606.4813
431.2651, 601.5013
431.7472, 595.4266
432.2293, 588.9844
432.7115, 583.1362
433.1936, 578.2376
433.6757, 573.9432
434.1578, 569.7935
434.6399, 565.8527
435.1220, 561.8470
435.6042, 557.8622
436.0863, 553.7255
436.5684, 549.0847
437.0505, 544.1650
437.5326, 539.6081
438.0147, 535.8612
438.4969, 532.8323
438.9790, 530.3994
439.4611, 529.0328
439.9432, 527.0710
440.4253, 523.1011
440.9074, 518.4965
441.3896, 514.7181
441.8717, 512.1367
442.3538, 509.9337
442.8359, 507.4171
443.3180, 504.6416
443.8001, 502.0461
444.2823, 499.7086
444.7644, 497.5630
445.2465, 495.5695
445.7286, 493.6982
446.2107, 491.9364
446.6928, 490.5016
447.1750, 489.0223
447.6571, 486.9402
448.1392, 484.3427
448.6213, 482.0197
449.1034, 480.3725
449.5855, 479.3077
450.0677, 478.6244
450.5498, 478.5295
451.0319, 478.3018
451.5140, 477.9523
451.9961, 477.2826
452.4782, 475.8052
452.9604, 473.5040
453.4425, 471.2503
453.9246, 469.9628
454.4067, 469.7438
454.8888, 469.4610
455.3709, 469.2007
455.8531, 468.8022
456.3352, 468.0444
456.8173, 467.1446
457.2994, 466.5285
457.7815, 466.3995
458.2636, 466.4268
458.7458, 465.8890
459.2279, 464.5078
459.7100, 463.1206
460.1921, 461.1846
460.6742, 459.7198
461.1564, 459.6216
461.6385, 460.6328
462.1206, 461.6815
462.6027, 461.9034
463.0848, 461.4844
463.5670, 461.4123
464.0491, 461.8305
464.5312, 462.3009
465.0133, 462.8673
465.4954, 463.3057
465.9775, 463.3557
466.4597, 462.9435
466.9418, 462.3070
467.4239, 461.4505
467.9060, 460.4727
468.3881, 460.1218
468.8702, 460.7764
469.3524, 461.5471
469.8345, 461.3908
470.3166, 460.6997
470.7987, 460.6752
471.2808, 462.2736
471.7629, 464.1561
472.2451, 465.1134
472.7272, 465.2792
473.2093, 465.2746
473.6914, 465.2791
474.1735, 465.3941
474.6556, 465.8330
475.1378, 466.5987
475.6199, 467.6001
476.1020, 469.0195
476.5841, 470.5356
477.0662, 471.9245
477.5483, 473.1363
478.0305, 474.1535
478.5126, 474.9214
478.9947, 475.4854
479.4768, 476.2390
479.9589, 477.2508
480.4410, 478.3788
480.9232, 479.7953
481.4053, 481.2194
481.8874, 482.2082
482.3695, 482.7292
482.8516, 483.3380
483.3337, 484.8727
483.8159, 487.5348
484.2980, 489.3849
484.7801, 489.6357
485.2622, 489.9344
485.7443, 490.8544
486.2264, 492.1923
486.7086, 493.6783
487.1907, 495.2891
487.6728, 496.6842
488.1549, 497.1045
488.6370, 496.4498
489.1191, 496.5668
489.6013, 498.4662
490.0834, 500.5912
490.5655, 501.4205
491.0476, 501.1440
491.5297, 501.0507
492.0118, 502.0334
492.4940, 503.2724
492.9761, 503.5327
493.4582, 502.8534
493.9403, 502.4448
494.4224, 503.0300
494.9045, 504.1855
495.3867, 504.7691
495.8688, 504.4595
496.3509, 504.4838
496.8330, 505.5775
497.3151, 506.8834
497.7972, 507.4325
498.2794, 507.1540
498.7615, 506.6147
499.2436, 506.2748
499.7257, 506.1239
500.2078, 505.9840
500.6899, 505.8216
501.1721, 505.7073
501.6542, 505.9114
502.1363, 506.0410
502.6184, 505.6068
503.1005, 504.5143
503.5826, 503.1524
504.0648, 501.9348
504.5469, 500.8477
505.0290, 500.0654
505.5111, 499.6144
505.9932, 499.4717
506.4753, 500.0409
506.9575, 500.7868
507.4396, 500.8251
507.9217, 499.7453
508.4038, 498.1595
508.8859, 496.8187
509.3680, 495.6950
509.8502, 494.2736
510.3323, 492.1522
510.8144, 490.1601
511.2965, 489.4137
511.7787, 489.6505
512.2607, 489.3808
512.7429, 487.8318
513.2250, 485.9523
513.7071, 484.4591
514.1892, 483.3310
514.6713, 482.3141
515.1534, 481.2496
515.6356, 480.3736
516.1177, 480.2384
516.5998, 481.5857
517.0819, 481.9774
517.5640, 480.6783
518.0461, 478.9619
518.5283, 477.6242
519.0104, 476.6632
519.4925, 475.7491
519.9746, 474.6567
520.4567, 473.4622
520.9388, 472.4479
521.4210, 471.6469
521.9031, 470.9708
522.3852, 470.4884
522.8673, 470.0412
523.3494, 469.6750
523.8315, 469.2910
524.3137, 468.4965
524.7958, 466.6588
525.2779, 464.2166
525.7600, 462.9010
526.2421, 463.0481
526.7242, 463.0597
527.2064, 462.1314
527.6885, 460.7323
528.1706, 459.3806
528.6527, 458.0815
529.1348, 457.0326
529.6169, 456.4604
530.0991, 456.1580
530.5812, 455.8158
531.0633, 455.3954
531.5454, 454.8889
532.0275, 454.2484
532.5096, 453.5171
532.9918, 453.0105
533.4739, 452.9422
533.9560, 452.7903
534.4381, 452.1411
534.9202, 451.5186
535.4024, 451.7592
535.8845, 452.8632
536.3666, 453.7859
536.8488, 453.3705
537.3309, 451.6214
537.8130, 450.4489
538.2951, 449.9940
538.7772, 449.9881
539.2593, 450.8231
539.7415, 451.8132
540.2236, 452.0457
540.7057, 451.3189
541.1878, 450.6734
541.6699, 451.5770
542.1520, 453.6890
542.6342, 454.4093
543.1163, 452.9702
543.5984, 451.5819
544.0805, 452.0705
544.5626, 453.5199
545.0447, 454.1934
545.5269, 453.5070
546.0090, 452.7051
546.4911, 452.5450
546.9732, 452.7653
547.4553, 452.7765
547.9374, 452.4496
548.4196, 452.3283
548.9017, 453.0499
549.3838, 454.6498
549.8659, 455.5024
550.3480, 455.1201
550.8301, 454.7192
551.3123, 454.5455
551.7944, 454.5769
552.2765, 454.7569
552.7586, 455.0728
553.2407, 455.5663
553.7228, 456.2998
554.2050, 457.2802
554.6871, 458.4060
555.1692, 460.0968
555.6513, 461.3078
556.1334, 461.1046
556.6155, 460.4823
557.0977, 460.8706
557.5798, 462.7587
558.0619, 464.8010
558.5440, 465.6299
559.0261, 465.5818
559.5082, 465.9927
559.9904, 467.1352
560.4725, 468.2862
560.9546, 468.7155
561.4367, 468.6689
561.9188, 469.3660
562.4009, 471.3745
562.8831, 473.4239
563.3652, 474.8378
563.8473, 476.1029
564.3294, 477.8935
564.8115, 480.3490
565.2936, 483.2744
565.7758, 486.6341
566.2579, 490.4463
566.7400, 492.9090
567.2221, 492.4576
567.7042, 492.5020
568.1863, 493.7327
568.6685, 495.6514
569.1506, 498.0212
569.6327, 500.6612
570.1148, 502.8992
570.5969, 503.7252
571.0790, 503.4333
571.5612, 503.9476
572.0433, 505.5280
572.5254, 507.2289
573.0075, 508.4582
573.4896, 509.5666
573.9717, 511.1759
574.4539, 513.5170
574.9360, 515.6652
575.4181, 517.1018
575.9002, 518.1259
576.3823, 519.0568
576.8644, 519.9670
577.3466, 520.9855
577.8287, 522.1786
578.3108, 523.5771
578.7929, 525.3312
579.2750, 527.5413
579.7571, 530.0065
580.2393, 532.9102
580.7214, 535.9056
581.2035, 538.7719
581.6856, 541.4604
582.1677, 544.0562
582.6498, 546.6277
583.1320, 549.1223
583.6141, 551.2197
584.0962, 552.7070
584.5783, 554.5567
585.0604, 557.3693
585.5425, 560.4083
586.0247, 562.8905
586.5068, 564.8839
586.9889, 567.3230
587.4710, 570.9410
587.9531, 575.0082
588.4352, 578.6818
588.9174, 582.0043
589.3995, 585.3415
589.8816, 588.8016
