##NAMES=Titanite
##RRUFFID=R120030
##IDEAL CHEMISTRY=CaTi^4+^SiO_5_
##LOCALITY=Zagi Mountain, Hameed Abad Kafoor Dheri, Peshawar, Khyber Pakhtunkhwa, Pakistan
##OWNER=RRUFF
##SOURCE=Donald Doell
##DESCRIPTION=Brown flattened octahedra
##STATUS=The identification of this mineral has been confirmed by single-crystal X-ray diffraction.
##URL=rruff.info/R120030
91.12140, 0.0000000E+00
91.60352, 5809.400
92.08563, 5613.248
92.56775, 5590.142
93.04987, 5836.988
93.53198, 6128.281
94.01410, 6325.186
94.49622, 6434.322
94.97833, 6496.299
95.46045, 6544.447
95.94257, 6579.159
96.42468, 6594.407
96.90680, 6590.798
97.38892, 6581.015
97.87103, 6570.989
98.35315, 6552.489
98.83527, 6517.284
99.31738, 6474.188
99.79950, 6420.484
100.2816, 6377.230
100.7637, 6348.079
101.2458, 6323.465
101.7280, 6294.132
102.2101, 6256.720
102.6922, 6217.733
103.1743, 6188.073
103.6564, 6167.204
104.1385, 6145.614
104.6207, 6118.764
105.1028, 6087.917
105.5849, 6057.028
106.0670, 6024.781
106.5491, 5993.171
107.0313, 5964.864
107.5134, 5940.130
107.9955, 5915.926
108.4776, 5889.149
108.9597, 5859.125
109.4418, 5828.379
109.9240, 5797.460
110.4061, 5766.036
110.8882, 5733.847
111.3703, 5700.694
111.8524, 5666.995
112.3345, 5634.027
112.8167, 5603.274
113.2988, 5571.176
113.7809, 5536.344
114.2630, 5500.149
114.7451, 5464.407
115.2272, 5430.758
115.7094, 5398.595
116.1915, 5361.859
116.6736, 5316.114
117.1557, 5270.575
117.6378, 5227.633
118.1199, 5187.352
118.6021, 5149.462
119.0842, 5114.515
119.5663, 5082.678
120.0484, 5048.167
120.5305, 5007.825
121.0126, 4966.503
121.4948, 4928.775
121.9769, 4895.369
122.4590, 4863.451
122.9411, 4830.790
123.4232, 4797.523
123.9053, 4763.911
124.3875, 4730.671
124.8696, 4697.212
125.3517, 4661.693
125.8338, 4621.546
126.3159, 4582.592
126.7980, 4548.612
127.2802, 4519.089
127.7623, 4491.903
128.2444, 4465.457
128.7265, 4439.866
129.2086, 4415.072
129.6907, 4391.875
130.1729, 4368.886
130.6550, 4345.481
131.1371, 4321.622
131.6192, 4297.786
132.1013, 4274.089
132.5834, 4247.327
133.0656, 4227.463
133.5477, 4216.978
134.0298, 4210.686
134.5119, 4205.437
134.9940, 4200.014
135.4761, 4194.219
135.9583, 4187.590
136.4404, 4175.757
136.9225, 4168.746
137.4046, 4168.093
137.8867, 4172.381
138.3688, 4179.631
138.8510, 4188.918
139.3331, 4200.764
139.8152, 4217.232
140.2973, 4242.652
140.7794, 4265.616
141.2615, 4282.188
141.7437, 4292.517
142.2258, 4297.551
142.7079, 4297.285
143.1900, 4291.340
143.6721, 4280.651
144.1542, 4263.501
144.6364, 4243.681
145.1185, 4224.067
145.6006, 4204.418
146.0827, 4186.497
146.5648, 4170.635
147.0469, 4157.115
147.5291, 4146.964
148.0112, 4141.328
148.4933, 4138.469
148.9754, 4134.182
149.4575, 4126.417
149.9396, 4120.965
150.4218, 4118.844
150.9039, 4119.817
151.3860, 4123.920
151.8681, 4131.625
152.3502, 4142.444
152.8323, 4151.687
153.3145, 4156.248
153.7966, 4162.207
154.2787, 4173.075
154.7608, 4186.366
155.2429, 4196.892
155.7250, 4200.020
156.2072, 4194.833
156.6893, 4195.810
157.1714, 4206.006
157.6535, 4218.114
158.1356, 4231.037
158.6177, 4243.676
159.0999, 4253.808
159.5820, 4259.311
160.0641, 4259.403
160.5462, 4257.433
161.0283, 4253.697
161.5104, 4247.901
161.9926, 4239.854
162.4747, 4229.563
162.9568, 4216.966
163.4389, 4201.689
163.9210, 4183.796
164.4031, 4164.626
164.8853, 4143.495
165.3674, 4121.478
165.8495, 4100.893
166.3316, 4082.585
166.8137, 4063.963
167.2958, 4040.750
167.7780, 4014.372
168.2601, 3991.034
168.7422, 3975.894
169.2243, 3966.768
169.7064, 3954.519
170.1885, 3934.245
170.6707, 3916.057
171.1528, 3906.489
171.6349, 3904.484
172.1170, 3905.129
172.5991, 3904.845
173.0812, 3903.540
173.5634, 3903.173
174.0455, 3900.496
174.5276, 3901.843
175.0097, 3912.148
175.4918, 3930.210
175.9739, 3950.030
176.4561, 3964.981
176.9382, 3973.776
177.4203, 3982.193
177.9024, 3987.404
178.3845, 3994.368
178.8666, 4006.855
179.3488, 4024.653
179.8309, 4044.262
180.3130, 4060.803
180.7951, 4073.316
181.2772, 4084.333
181.7593, 4089.035
182.2415, 4095.415
182.7236, 4111.476
183.2057, 4138.403
183.6878, 4168.606
184.1699, 4190.497
184.6520, 4198.827
185.1342, 4208.341
185.6163, 4219.086
186.0984, 4231.184
186.5805, 4244.616
187.0626, 4259.354
187.5447, 4275.806
188.0269, 4295.328
188.5090, 4318.651
188.9911, 4341.507
189.4732, 4360.484
189.9553, 4378.731
190.4374, 4402.316
190.9196, 4434.581
191.4017, 4469.708
191.8838, 4499.818
192.3659, 4524.849
192.8480, 4548.076
193.3301, 4569.043
193.8123, 4588.870
194.2944, 4611.813
194.7765, 4638.736
195.2586, 4669.755
195.7407, 4705.984
196.2228, 4747.455
196.7050, 4786.721
197.1871, 4816.138
197.6692, 4836.291
198.1513, 4860.462
198.6334, 4894.452
199.1155, 4930.798
199.5977, 4964.104
200.0798, 4994.251
200.5619, 5024.554
201.0440, 5058.954
201.5261, 5098.490
202.0082, 5136.712
202.4904, 5170.264
202.9725, 5204.373
203.4546, 5242.839
203.9367, 5285.651
204.4188, 5329.202
204.9009, 5368.190
205.3831, 5400.019
205.8652, 5435.154
206.3473, 5475.545
206.8294, 5517.695
207.3115, 5560.089
207.7936, 5602.120
208.2758, 5643.645
208.7579, 5683.560
209.2400, 5718.446
209.7221, 5759.632
210.2042, 5808.684
210.6863, 5861.453
211.1685, 5915.797
211.6506, 5971.081
212.1327, 6027.390
212.6148, 6085.155
213.0969, 6142.642
213.5790, 6205.214
214.0612, 6274.207
214.5433, 6346.735
215.0254, 6421.392
215.5075, 6497.291
215.9896, 6575.600
216.4717, 6657.266
216.9539, 6743.698
217.4360, 6831.999
217.9181, 6920.820
218.4002, 7012.285
218.8823, 7110.654
219.3644, 7216.728
219.8466, 7325.115
220.3287, 7427.831
220.8108, 7524.055
221.2929, 7622.526
221.7750, 7726.570
222.2571, 7832.702
222.7393, 7936.029
223.2214, 8034.961
223.7035, 8133.658
224.1856, 8239.083
224.6677, 8350.462
225.1498, 8455.846
225.6320, 8550.045
226.1141, 8636.867
226.5962, 8722.635
227.0783, 8808.953
227.5604, 8892.678
228.0425, 8971.240
228.5247, 9044.962
229.0068, 9115.678
229.4889, 9187.072
229.9710, 9255.079
230.4531, 9310.727
230.9352, 9351.497
231.4174, 9381.966
231.8995, 9405.197
232.3816, 9421.854
232.8637, 9432.439
233.3458, 9439.316
233.8279, 9440.557
234.3101, 9429.150
234.7922, 9401.694
235.2743, 9366.088
235.7564, 9326.479
236.2385, 9283.449
236.7206, 9237.797
237.2028, 9191.343
237.6849, 9142.959
238.1670, 9086.725
238.6491, 9020.551
239.1312, 8948.662
239.6133, 8869.907
240.0955, 8787.736
240.5776, 8706.911
241.0597, 8631.240
241.5418, 8559.156
242.0239, 8484.502
242.5060, 8403.329
242.9882, 8324.688
243.4703, 8253.823
243.9524, 8186.176
244.4345, 8114.952
244.9166, 8036.243
245.3987, 7950.995
245.8809, 7865.045
246.3630, 7776.202
246.8451, 7689.665
247.3272, 7607.419
247.8093, 7527.591
248.2914, 7448.604
248.7736, 7369.603
249.2557, 7290.263
249.7378, 7210.189
250.2199, 7128.327
250.7020, 7046.542
251.1841, 6964.732
251.6663, 6883.655
252.1484, 6805.661
252.6305, 6731.519
253.1126, 6659.645
253.5947, 6582.904
254.0768, 6493.187
254.5590, 6409.276
255.0411, 6334.136
255.5232, 6264.505
256.0053, 6196.181
256.4874, 6127.648
256.9695, 6059.882
257.4517, 5995.355
257.9338, 5938.467
258.4159, 5879.377
258.8980, 5814.304
259.3801, 5748.448
259.8622, 5686.890
260.3444, 5631.395
260.8265, 5579.763
261.3086, 5527.962
261.7907, 5473.381
262.2728, 5422.522
262.7549, 5375.959
263.2371, 5332.634
263.7192, 5291.876
264.2013, 5253.353
264.6834, 5217.034
265.1655, 5182.548
265.6476, 5148.641
266.1298, 5121.333
266.6119, 5103.790
267.0940, 5091.106
267.5761, 5078.619
268.0582, 5065.414
268.5403, 5054.316
269.0225, 5049.274
269.5046, 5052.298
269.9867, 5052.755
270.4688, 5043.797
270.9509, 5036.353
271.4330, 5041.663
271.9152, 5060.556
272.3973, 5082.728
272.8794, 5097.460
273.3615, 5104.255
273.8436, 5119.015
274.3257, 5145.190
274.8079, 5177.212
275.2900, 5211.725
275.7721, 5248.384
276.2542, 5285.387
276.7363, 5320.938
277.2184, 5355.591
277.7006, 5394.377
278.1827, 5437.917
278.6648, 5484.816
279.1469, 5533.392
279.6290, 5583.798
280.1111, 5638.319
280.5933, 5698.583
281.0754, 5764.464
281.5575, 5833.609
282.0396, 5907.808
282.5217, 5982.868
283.0038, 6055.654
283.4860, 6126.863
283.9681, 6200.740
284.4502, 6279.089
284.9323, 6361.696
285.4144, 6447.354
285.8965, 6536.503
286.3787, 6627.268
286.8608, 6719.222
287.3429, 6811.877
287.8250, 6905.142
288.3071, 6999.474
288.7892, 7093.547
289.2714, 7185.926
289.7535, 7276.405
290.2356, 7365.443
290.7177, 7454.551
291.1998, 7542.470
291.6819, 7626.452
292.1641, 7704.927
292.6462, 7781.314
293.1283, 7860.048
293.6104, 7940.599
294.0925, 8019.923
294.5746, 8098.088
295.0568, 8173.721
295.5389, 8243.406
296.0210, 8305.693
296.5031, 8365.009
296.9852, 8426.217
297.4673, 8487.979
297.9495, 8546.328
298.4316, 8600.222
298.9137, 8649.666
299.3958, 8693.729
299.8779, 8731.750
300.3600, 8767.663
300.8422, 8805.686
301.3243, 8842.966
301.8064, 8873.436
302.2885, 8895.058
302.7706, 8910.397
303.2527, 8923.750
303.7349, 8935.624
304.2170, 8938.799
304.6991, 8926.905
305.1812, 8905.060
305.6633, 8880.567
306.1454, 8854.834
306.6276, 8825.216
307.1097, 8789.888
307.5918, 8748.936
308.0739, 8701.633
308.5560, 8646.846
309.0381, 8586.186
309.5203, 8521.936
310.0024, 8453.623
310.4845, 8384.200
310.9666, 8314.628
311.4487, 8245.302
311.9308, 8179.390
312.4130, 8119.999
312.8951, 8060.983
313.3772, 7997.189
313.8593, 7928.997
314.3414, 7860.417
314.8235, 7793.234
315.3057, 7727.022
315.7878, 7660.552
316.2699, 7595.460
316.7520, 7526.514
317.2341, 7448.294
317.7162, 7363.927
318.1984, 7278.913
318.6805, 7196.468
319.1626, 7114.315
319.6447, 7027.554
320.1268, 6934.837
320.6089, 6844.623
321.0911, 6763.370
321.5732, 6686.750
322.0553, 6608.958
322.5374, 6526.569
323.0195, 6445.783
323.5016, 6374.436
323.9838, 6312.159
324.4659, 6251.456
324.9480, 6189.476
325.4301, 6128.055
325.9122, 6068.809
326.3943, 6010.629
326.8765, 5958.215
327.3586, 5917.118
327.8407, 5885.430
328.3228, 5853.406
328.8049, 5818.043
329.2870, 5782.915
329.7692, 5752.169
330.2513, 5725.492
330.7334, 5698.930
331.2155, 5669.982
331.6976, 5639.940
332.1797, 5611.733
332.6619, 5585.696
333.1440, 5561.426
333.6261, 5539.089
334.1082, 5518.291
334.5903, 5498.188
335.0724, 5478.335
335.5546, 5459.319
336.0367, 5442.696
336.5188, 5428.857
337.0009, 5414.042
337.4830, 5395.804
337.9651, 5375.150
338.4473, 5354.060
338.9294, 5332.309
339.4115, 5310.884
339.8936, 5288.580
340.3757, 5266.188
340.8578, 5250.959
341.3400, 5247.958
341.8221, 5251.230
342.3042, 5250.975
342.7863, 5246.444
343.2684, 5242.715
343.7505, 5242.509
344.2327, 5244.915
344.7148, 5247.417
345.1969, 5248.972
345.6790, 5251.886
346.1611, 5258.556
346.6432, 5268.532
347.1254, 5282.644
347.6075, 5304.399
348.0896, 5328.795
348.5717, 5348.692
349.0538, 5363.417
349.5359, 5378.481
350.0181, 5399.284
350.5002, 5424.016
350.9823, 5444.401
351.4644, 5460.583
351.9465, 5471.683
352.4286, 5475.149
352.9108, 5472.246
353.3929, 5469.256
353.8750, 5469.681
354.3571, 5471.339
354.8392, 5468.442
355.3214, 5458.679
355.8035, 5450.255
356.2856, 5447.922
356.7677, 5448.591
357.2498, 5446.795
357.7319, 5440.926
358.2141, 5432.504
358.6962, 5422.425
359.1783, 5409.762
359.6604, 5401.362
360.1425, 5402.088
360.6246, 5404.884
361.1068, 5403.483
361.5889, 5397.245
362.0710, 5388.541
362.5531, 5379.237
363.0352, 5369.203
363.5173, 5357.521
363.9995, 5342.481
364.4816, 5327.595
364.9637, 5314.324
365.4458, 5302.554
365.9279, 5291.685
366.4100, 5281.327
366.8922, 5271.840
367.3743, 5264.746
367.8564, 5262.521
368.3385, 5258.960
368.8206, 5251.901
369.3027, 5243.654
369.7849, 5237.028
370.2670, 5232.792
370.7491, 5229.478
371.2312, 5224.810
371.7133, 5217.251
372.1954, 5213.546
372.6776, 5214.857
373.1597, 5218.694
373.6418, 5222.970
374.1239, 5228.146
374.6060, 5236.496
375.0881, 5250.070
375.5703, 5268.745
376.0524, 5289.160
376.5345, 5308.737
377.0166, 5333.036
377.4987, 5364.171
377.9808, 5400.753
378.4630, 5440.726
378.9451, 5483.146
379.4272, 5528.623
379.9093, 5578.109
380.3914, 5628.552
380.8735, 5689.789
381.3557, 5765.961
381.8378, 5848.854
382.3199, 5930.474
382.8020, 6011.268
383.2841, 6099.520
383.7662, 6204.856
384.2484, 6329.623
384.7305, 6457.774
385.2126, 6585.909
385.6947, 6721.745
386.1768, 6866.704
386.6589, 7021.564
387.1411, 7187.381
387.6232, 7365.383
388.1053, 7555.383
388.5874, 7755.553
389.0695, 7967.953
389.5516, 8186.942
390.0338, 8404.137
390.5159, 8631.105
390.9980, 8878.143
391.4801, 9148.711
391.9622, 9436.361
392.4443, 9735.526
392.9265, 10045.53
393.4086, 10368.54
393.8907, 10705.51
394.3728, 11055.92
394.8549, 11416.72
395.3370, 11788.81
395.8192, 12173.31
396.3013, 12574.38
396.7834, 12989.15
397.2655, 13404.57
397.7476, 13818.48
398.2297, 14236.54
398.7119, 14663.33
399.1940, 15096.22
399.6761, 15532.24
400.1582, 15974.02
400.6403, 16411.57
401.1224, 16835.55
401.6046, 17248.97
402.0867, 17647.77
402.5688, 18035.20
403.0509, 18400.93
403.5330, 18737.30
404.0151, 19044.72
404.4973, 19329.33
404.9794, 19602.57
405.4615, 19852.30
405.9436, 20057.38
406.4257, 20213.70
406.9078, 20331.18
407.3900, 20415.47
407.8721, 20463.46
408.3542, 20472.77
408.8363, 20437.04
409.3184, 20367.95
409.8005, 20271.72
410.2827, 20148.13
410.7648, 19998.31
411.2469, 19824.30
411.7290, 19622.08
412.2111, 19377.25
412.6932, 19082.62
413.1754, 18773.48
413.6575, 18453.30
414.1396, 18123.31
414.6217, 17782.50
415.1038, 17431.63
415.5859, 17071.17
416.0681, 16701.07
416.5502, 16320.86
417.0323, 15935.22
417.5144, 15534.14
417.9965, 15139.13
418.4786, 14759.56
418.9608, 14393.07
419.4429, 14030.09
419.9250, 13665.92
420.4071, 13303.97
420.8892, 12953.26
421.3713, 12621.64
421.8535, 12292.99
422.3356, 11962.41
422.8177, 11635.90
423.2998, 11318.98
423.7819, 11011.43
424.2640, 10712.81
424.7462, 10420.89
425.2283, 10133.56
425.7104, 9867.802
426.1925, 9637.904
426.6746, 9415.963
427.1567, 9194.544
427.6389, 8975.446
428.1210, 8762.948
428.6031, 8558.269
429.0852, 8363.220
429.5673, 8183.986
430.0494, 8022.931
430.5316, 7868.037
431.0137, 7715.186
431.4958, 7570.229
431.9779, 7439.176
432.4600, 7321.789
432.9421, 7213.134
433.4243, 7111.172
433.9064, 7015.270
434.3885, 6921.520
434.8706, 6828.231
435.3527, 6739.869
435.8348, 6657.302
436.3170, 6581.462
436.7991, 6514.695
437.2812, 6459.473
437.7633, 6411.249
438.2454, 6367.808
438.7275, 6328.366
439.2097, 6288.337
439.6918, 6245.199
440.1739, 6202.542
440.6560, 6166.054
441.1381, 6135.458
441.6202, 6107.478
442.1024, 6082.439
442.5845, 6058.947
443.0666, 6034.229
443.5487, 6008.411
444.0308, 5987.228
444.5129, 5976.442
444.9951, 5974.556
445.4772, 5966.366
445.9593, 5945.801
446.4414, 5927.054
446.9235, 5916.307
447.4056, 5909.536
447.8878, 5899.811
448.3699, 5884.862
448.8520, 5869.234
449.3341, 5860.315
449.8162, 5862.359
450.2983, 5859.051
450.7805, 5847.088
451.2626, 5833.712
451.7447, 5822.583
452.2268, 5813.258
452.7089, 5803.406
453.1910, 5791.462
453.6732, 5777.932
454.1553, 5764.993
454.6374, 5752.692
455.1195, 5740.931
455.6016, 5728.983
456.0837, 5717.930
456.5659, 5709.187
457.0480, 5702.757
457.5301, 5696.954
458.0122, 5690.128
458.4943, 5682.265
458.9764, 5674.275
459.4586, 5666.967
459.9407, 5658.262
460.4228, 5646.914
460.9049, 5633.679
461.3870, 5619.559
461.8691, 5603.996
462.3513, 5589.210
462.8334, 5578.121
463.3155, 5570.654
463.7976, 5565.415
464.2797, 5564.548
464.7618, 5562.586
465.2440, 5550.757
465.7261, 5528.817
466.2082, 5510.753
466.6903, 5503.659
467.1724, 5501.603
467.6545, 5499.362
468.1367, 5496.140
468.6188, 5487.832
469.1009, 5470.404
469.5830, 5446.038
470.0651, 5425.353
470.5472, 5408.482
471.0294, 5394.634
471.5115, 5386.468
471.9936, 5380.037
472.4757, 5370.250
472.9578, 5355.858
473.4399, 5338.743
473.9221, 5320.458
474.4042, 5299.756
474.8863, 5285.396
475.3684, 5280.165
475.8505, 5277.338
476.3326, 5275.989
476.8148, 5275.051
477.2969, 5271.761
477.7790, 5264.542
478.2611, 5258.357
478.7432, 5265.034
479.2253, 5289.506
479.7075, 5312.861
480.1896, 5330.669
480.6717, 5348.755
481.1538, 5369.831
481.6359, 5394.077
482.1180, 5420.944
482.6002, 5451.056
483.0823, 5483.110
483.5644, 5513.243
484.0465, 5540.093
484.5286, 5569.651
485.0107, 5607.375
485.4929, 5647.778
485.9750, 5683.559
486.4571, 5712.399
486.9392, 5743.682
487.4213, 5784.237
487.9034, 5831.204
488.3856, 5878.663
488.8677, 5926.284
489.3498, 5972.307
489.8319, 6015.255
490.3140, 6054.983
490.7961, 6091.904
491.2783, 6124.198
491.7604, 6155.985
492.2425, 6187.786
492.7246, 6220.821
493.2067, 6258.781
493.6888, 6302.835
494.1710, 6347.875
494.6531, 6385.172
495.1352, 6411.955
495.6173, 6439.360
496.0994, 6470.672
496.5815, 6499.357
497.0637, 6520.145
497.5458, 6535.847
498.0279, 6552.916
498.5100, 6575.168
498.9921, 6600.081
499.4742, 6622.172
499.9564, 6642.077
500.4385, 6657.147
500.9206, 6661.510
501.4027, 6665.359
501.8848, 6676.857
502.3669, 6694.696
502.8491, 6709.483
503.3312, 6713.589
503.8133, 6710.292
504.2954, 6708.923
504.7775, 6710.556
505.2596, 6709.134
505.7418, 6700.911
506.2239, 6688.405
506.7060, 6674.417
507.1881, 6658.064
507.6702, 6644.815
508.1523, 6642.735
508.6345, 6643.827
509.1166, 6633.349
509.5987, 6609.036
510.0808, 6581.300
510.5629, 6558.065
511.0450, 6539.063
511.5272, 6519.604
512.0093, 6501.992
512.4914, 6481.132
512.9735, 6451.495
513.4556, 6419.323
513.9377, 6393.569
514.4199, 6376.398
514.9020, 6361.356
515.3841, 6340.576
515.8662, 6313.264
516.3483, 6286.063
516.8304, 6259.824
517.3126, 6232.888
517.7947, 6203.708
518.2768, 6173.964
518.7589, 6146.558
519.2410, 6122.759
519.7231, 6099.716
520.2053, 6071.827
520.6874, 6038.479
521.1695, 6010.091
521.6516, 5989.348
522.1337, 5972.400
522.6158, 5957.489
523.0980, 5943.938
523.5801, 5929.695
524.0622, 5913.011
524.5443, 5896.433
525.0264, 5882.672
525.5085, 5871.454
525.9907, 5861.982
526.4728, 5854.280
526.9549, 5847.484
527.4370, 5840.658
527.9191, 5834.032
528.4012, 5825.774
528.8834, 5812.222
529.3655, 5799.989
529.8476, 5794.759
530.3297, 5794.857
530.8118, 5794.708
531.2939, 5791.206
531.7761, 5786.187
532.2582, 5784.264
532.7403, 5785.492
533.2224, 5789.880
533.7045, 5800.667
534.1866, 5811.208
534.6688, 5817.006
535.1509, 5818.919
535.6330, 5820.465
536.1151, 5823.507
536.5972, 5828.315
537.0793, 5836.826
537.5615, 5850.757
538.0436, 5861.267
538.5257, 5864.847
539.0078, 5864.490
539.4899, 5859.785
539.9720, 5851.521
540.4542, 5850.267
540.9363, 5869.396
541.4184, 5894.544
541.9005, 5902.721
542.3826, 5894.058
542.8647, 5886.940
543.3469, 5891.548
543.8290, 5903.175
544.3111, 5909.643
544.7932, 5909.006
545.2753, 5908.560
545.7574, 5909.188
546.2396, 5910.440
546.7217, 5912.953
547.2038, 5915.965
547.6859, 5916.590
548.1680, 5912.428
548.6501, 5904.978
549.1323, 5900.943
549.6144, 5901.630
550.0965, 5903.708
550.5786, 5910.479
551.0607, 5915.567
551.5428, 5913.329
552.0250, 5904.276
552.5071, 5893.901
552.9892, 5885.683
553.4713, 5879.252
553.9534, 5874.003
554.4355, 5870.501
554.9177, 5865.309
555.3998, 5857.036
555.8819, 5846.194
556.3640, 5832.698
556.8461, 5815.882
557.3282, 5801.897
557.8104, 5793.712
558.2925, 5789.185
558.7746, 5786.287
559.2567, 5784.720
559.7388, 5784.869
560.2209, 5787.788
560.7031, 5791.273
561.1852, 5788.251
561.6673, 5766.898
562.1494, 5755.848
562.6315, 5762.931
563.1136, 5774.603
563.5958, 5780.597
564.0779, 5781.616
564.5600, 5784.555
565.0421, 5794.584
565.5242, 5809.595
566.0063, 5822.113
566.4885, 5830.217
566.9706, 5841.201
567.4527, 5859.565
567.9348, 5879.306
568.4169, 5894.761
568.8990, 5906.707
569.3812, 5922.844
569.8633, 5950.327
570.3454, 5982.525
570.8275, 6007.661
571.3096, 6026.513
571.7917, 6052.186
572.2739, 6091.866
572.7560, 6139.205
573.2381, 6183.229
573.7202, 6223.223
574.2023, 6263.893
574.6844, 6307.070
575.1666, 6350.114
575.6487, 6390.314
576.1308, 6428.905
576.6129, 6468.988
577.0950, 6512.346
577.5771, 6558.424
578.0593, 6605.797
578.5414, 6652.985
579.0235, 6705.466
579.5056, 6766.217
579.9877, 6829.940
580.4698, 6895.085
580.9520, 6961.242
581.4341, 7028.669
581.9162, 7097.607
582.3983, 7167.551
582.8804, 7235.690
583.3625, 7302.966
583.8447, 7377.887
584.3268, 7464.734
584.8089, 7554.136
585.2910, 7634.108
585.7731, 7705.973
586.2552, 7782.738
586.7374, 7867.863
587.2195, 7955.763
587.7016, 8043.120
588.1837, 8131.095
588.6658, 8220.825
