##NAMES=Titanite
##RRUFFID=R100136
##IDEAL CHEMISTRY=CaTi^4+^SiO_5_
##LOCALITY=Baja California, Mexico
##OWNER=RRUFF
##SOURCE=William W. Pinch
##DESCRIPTION=Yellow cut gemstone, full of inclusions
##STATUS=The identification of this mineral has been confirmed by single-crystal X-ray diffraction.
##URL=rruff.info/R100136
90.60547, 11145.16
91.08759, 10887.00
91.56970, 10839.92
92.05182, 10926.12
92.53394, 11208.64
93.01605, 11481.93
93.49817, 11685.76
93.98029, 11839.12
94.46240, 11953.20
94.94452, 12024.90
95.42664, 12061.60
95.90874, 12070.79
96.39086, 12058.06
96.87298, 12032.12
97.35509, 11990.52
97.83721, 11909.11
98.31933, 11839.66
98.80145, 11784.84
99.28356, 11741.62
99.76568, 11708.60
100.2478, 11684.61
100.7299, 11669.61
101.2120, 11665.71
101.6941, 11670.35
102.1763, 11689.46
102.6584, 11730.49
103.1405, 11783.57
103.6226, 11835.18
104.1047, 11877.73
104.5868, 11912.33
105.0690, 11945.74
105.5511, 11975.74
106.0332, 12005.39
106.5153, 12036.36
106.9974, 12068.15
107.4795, 12098.74
107.9617, 12125.73
108.4438, 12149.67
108.9259, 12173.84
109.4080, 12200.75
109.8901, 12227.06
110.3722, 12247.72
110.8544, 12261.01
111.3365, 12271.90
111.8186, 12288.67
112.3007, 12306.28
112.7828, 12313.64
113.2649, 12306.29
113.7471, 12283.99
114.2292, 12244.23
114.7113, 12177.13
115.1934, 12098.71
115.6755, 12011.04
116.1576, 11916.51
116.6397, 11819.66
117.1219, 11722.88
117.6040, 11621.44
118.0861, 11535.36
118.5682, 11465.68
119.0503, 11406.80
119.5324, 11356.36
120.0146, 11313.58
120.4967, 11277.99
120.9788, 11249.13
121.4609, 11226.27
121.9430, 11213.50
122.4251, 11210.70
122.9073, 11217.83
123.3894, 11235.68
123.8715, 11264.97
124.3536, 11303.66
124.8357, 11347.09
125.3178, 11392.57
125.8000, 11445.47
126.2821, 11510.41
126.7642, 11585.28
127.2463, 11662.25
127.7284, 11743.76
128.2105, 11820.72
128.6927, 11881.96
129.1748, 11927.76
129.6569, 11956.83
130.1390, 11966.92
130.6211, 11957.11
131.1032, 11933.60
131.5854, 11893.04
132.0675, 11842.23
132.5496, 11785.03
133.0317, 11720.89
133.5138, 11653.77
133.9959, 11592.04
134.4781, 11534.83
134.9602, 11485.22
135.4423, 11438.25
135.9244, 11398.91
136.4065, 11373.61
136.8886, 11365.99
137.3708, 11375.83
137.8529, 11400.69
138.3350, 11440.77
138.8171, 11496.93
139.2992, 11570.63
139.7813, 11661.18
140.2635, 11768.13
140.7456, 11891.63
141.2277, 12034.18
141.7098, 12177.91
142.1919, 12332.01
142.6740, 12479.48
143.1561, 12622.42
143.6383, 12756.12
144.1204, 12859.87
144.6025, 12913.26
145.0846, 12908.83
145.5667, 12860.06
146.0488, 12742.36
146.5310, 12591.62
147.0131, 12438.14
147.4952, 12283.55
147.9773, 12143.62
148.4594, 12031.60
148.9415, 11943.81
149.4237, 11893.58
149.9058, 11884.63
150.3879, 11916.92
150.8700, 11989.53
151.3521, 12101.21
151.8342, 12263.91
152.3164, 12471.90
152.7985, 12724.57
153.2806, 13027.14
153.7627, 13384.37
154.2448, 13797.09
154.7269, 14251.13
155.2091, 14749.37
155.6912, 15289.70
156.1733, 15876.16
156.6554, 16509.49
157.1375, 17175.97
157.6196, 17868.18
158.1018, 18601.51
158.5839, 19314.49
159.0660, 20025.64
159.5481, 20705.63
160.0302, 21342.71
160.5123, 21930.21
160.9945, 22455.68
161.4766, 22895.60
161.9587, 23264.91
162.4408, 23507.40
162.9229, 23624.93
163.4050, 23627.70
163.8871, 23515.36
164.3693, 23288.71
164.8514, 22964.29
165.3335, 22574.70
165.8156, 22091.04
166.2977, 21585.06
166.7798, 21046.18
167.2620, 20490.13
167.7441, 19938.39
168.2262, 19397.25
168.7083, 18873.37
169.1904, 18391.64
169.6725, 17943.95
170.1547, 17536.93
170.6368, 17177.51
171.1189, 16863.06
171.6010, 16585.16
172.0831, 16340.81
172.5652, 16136.68
173.0474, 15966.65
173.5295, 15835.04
174.0116, 15729.25
174.4937, 15641.97
174.9758, 15572.97
175.4579, 15522.80
175.9401, 15503.63
176.4222, 15499.06
176.9043, 15491.55
177.3864, 15476.64
177.8685, 15461.29
178.3506, 15452.49
178.8328, 15448.96
179.3149, 15457.41
179.7970, 15486.73
180.2791, 15525.42
180.7612, 15565.36
181.2433, 15604.43
181.7255, 15641.09
182.2076, 15673.19
182.6897, 15704.44
183.1718, 15722.38
183.6539, 15725.17
184.1360, 15715.98
184.6181, 15698.42
185.1003, 15674.37
185.5824, 15642.12
186.0645, 15595.67
186.5466, 15521.06
187.0287, 15447.71
187.5108, 15375.21
187.9930, 15307.70
188.4751, 15248.04
188.9572, 15197.61
189.4393, 15158.43
189.9214, 15143.64
190.4035, 15161.45
190.8857, 15194.52
191.3678, 15241.43
191.8499, 15301.53
192.3320, 15375.60
192.8141, 15465.14
193.2962, 15568.40
193.7784, 15673.67
194.2605, 15778.13
194.7426, 15886.71
195.2247, 16002.90
195.7068, 16125.06
196.1889, 16249.75
196.6711, 16375.97
197.1532, 16502.38
197.6353, 16623.56
198.1174, 16732.45
198.5995, 16843.38
199.0816, 16962.62
199.5638, 17090.60
200.0459, 17227.94
200.5280, 17375.58
201.0101, 17535.41
201.4922, 17704.24
201.9743, 17887.88
202.4565, 18075.66
202.9386, 18258.79
203.4207, 18437.59
203.9028, 18616.64
204.3849, 18801.31
204.8670, 18986.28
205.3492, 19162.83
205.8313, 19330.60
206.3134, 19487.92
206.7955, 19632.29
207.2776, 19764.16
207.7597, 19880.77
208.2419, 19976.43
208.7240, 20057.84
209.2061, 20128.77
209.6882, 20190.29
210.1703, 20242.06
210.6524, 20283.29
211.1346, 20313.07
211.6167, 20332.84
212.0988, 20334.87
212.5809, 20331.60
213.0630, 20335.06
213.5451, 20350.29
214.0273, 20373.32
214.5094, 20394.56
214.9915, 20408.75
215.4736, 20431.54
215.9557, 20464.30
216.4378, 20506.06
216.9200, 20554.93
217.4021, 20609.63
217.8842, 20673.47
218.3663, 20756.03
218.8484, 20873.41
219.3305, 20987.57
219.8127, 21090.25
220.2948, 21189.56
220.7769, 21296.06
221.2590, 21414.58
221.7411, 21539.19
222.2232, 21652.26
222.7054, 21744.95
223.1875, 21835.24
223.6696, 21924.95
224.1517, 22012.71
224.6338, 22097.35
225.1159, 22178.71
225.5980, 22255.18
226.0802, 22321.91
226.5623, 22373.70
227.0444, 22421.16
227.5265, 22466.56
228.0086, 22507.55
228.4907, 22540.49
228.9729, 22563.86
229.4550, 22578.76
229.9371, 22587.26
230.4192, 22592.72
230.9013, 22587.47
231.3834, 22567.72
231.8656, 22537.02
232.3477, 22501.94
232.8298, 22465.77
233.3119, 22423.25
233.7940, 22361.50
234.2761, 22284.22
234.7583, 22186.58
235.2404, 22057.12
235.7225, 21908.00
236.2046, 21754.90
236.6867, 21597.56
237.1688, 21449.61
237.6510, 21332.96
238.1331, 21244.16
238.6152, 21181.77
239.0973, 21139.37
239.5794, 21123.40
240.0615, 21145.45
240.5437, 21205.82
241.0258, 21313.79
241.5079, 21484.46
241.9900, 21713.22
242.4721, 21978.22
242.9542, 22271.01
243.4364, 22592.78
243.9185, 22948.19
244.4006, 23341.22
244.8827, 23764.09
245.3648, 24212.09
245.8469, 24681.94
246.3290, 25154.10
246.8112, 25630.64
247.2933, 26101.47
247.7754, 26547.62
248.2575, 26967.06
248.7396, 27355.19
249.2217, 27716.97
249.7039, 28051.03
250.1860, 28344.63
250.6681, 28592.42
251.1502, 28793.92
251.6323, 28951.38
252.1144, 29063.23
252.5966, 29126.13
253.0787, 29143.65
253.5608, 29119.34
254.0429, 29059.54
254.5250, 28967.41
255.0071, 28842.94
255.4893, 28685.59
255.9714, 28501.64
256.4535, 28269.10
256.9356, 27986.87
257.4177, 27659.08
257.8998, 27288.85
258.3820, 26876.57
258.8641, 26425.32
259.3462, 25944.44
259.8283, 25426.92
260.3104, 24887.85
260.7925, 24320.51
261.2747, 23737.99
261.7568, 23158.33
262.2389, 22586.05
262.7210, 22023.36
263.2031, 21468.31
263.6852, 20916.89
264.1674, 20381.29
264.6495, 19862.42
265.1316, 19359.60
265.6137, 18874.78
266.0958, 18409.12
266.5779, 17962.69
267.0601, 17537.48
267.5422, 17137.56
268.0243, 16757.57
268.5064, 16396.65
268.9885, 16050.98
269.4706, 15718.95
269.9528, 15399.79
270.4349, 15094.76
270.9170, 14805.82
271.3991, 14535.73
271.8812, 14282.18
272.3633, 14044.66
272.8455, 13820.65
273.3276, 13608.35
273.8097, 13407.08
274.2918, 13220.08
274.7739, 13053.24
275.2560, 12912.50
275.7382, 12780.91
276.2202, 12654.93
276.7024, 12538.08
277.1845, 12431.13
277.6666, 12334.50
278.1487, 12249.44
278.6308, 12177.71
279.1129, 12121.36
279.5951, 12072.75
280.0772, 12030.75
280.5593, 11995.50
281.0414, 11966.50
281.5235, 11944.10
282.0056, 11929.42
282.4878, 11923.57
282.9699, 11926.77
283.4520, 11938.39
283.9341, 11957.19
284.4162, 11984.18
284.8983, 12021.95
285.3805, 12068.71
285.8626, 12121.06
286.3447, 12177.46
286.8268, 12237.57
287.3089, 12289.94
287.7910, 12340.74
288.2732, 12378.21
288.7553, 12402.51
289.2374, 12410.40
289.7195, 12396.72
290.2016, 12358.46
290.6837, 12296.34
291.1659, 12210.79
291.6480, 12088.59
292.1301, 11959.09
292.6122, 11812.51
293.0943, 11664.90
293.5764, 11534.42
294.0586, 11428.33
294.5407, 11349.87
295.0228, 11307.86
295.5049, 11296.67
295.9870, 11333.60
296.4691, 11427.02
296.9513, 11565.73
297.4334, 11741.72
297.9155, 11951.06
298.3976, 12189.67
298.8797, 12451.14
299.3618, 12746.66
299.8440, 13048.37
300.3261, 13360.05
300.8082, 13673.14
301.2903, 13987.54
301.7724, 14300.20
302.2545, 14604.86
302.7367, 14896.99
303.2188, 15176.45
303.7009, 15432.75
304.1830, 15667.10
304.6651, 15881.07
305.1472, 16072.79
305.6294, 16244.05
306.1115, 16401.36
306.5936, 16549.72
307.0757, 16689.44
307.5578, 16817.18
308.0399, 16930.17
308.5221, 17036.60
309.0042, 17137.93
309.4863, 17235.44
309.9684, 17328.39
310.4505, 17414.58
310.9326, 17496.91
311.4148, 17593.51
311.8969, 17710.93
312.3790, 17833.10
312.8611, 17970.19
313.3432, 18106.99
313.8253, 18222.23
314.3075, 18306.01
314.7896, 18361.10
315.2717, 18394.04
315.7538, 18424.78
316.2359, 18403.63
316.7180, 18312.50
317.2001, 18173.61
317.6823, 18010.25
318.1644, 17828.60
318.6465, 17622.75
319.1286, 17381.04
319.6107, 17087.16
320.0928, 16794.97
320.5750, 16497.11
321.0571, 16204.52
321.5392, 15919.47
322.0213, 15645.72
322.5034, 15390.24
322.9855, 15161.23
323.4677, 14957.48
323.9498, 14789.46
324.4319, 14654.73
324.9140, 14550.82
325.3961, 14478.09
325.8782, 14435.12
326.3604, 14418.57
326.8425, 14427.43
327.3246, 14460.76
327.8067, 14509.32
328.2888, 14576.10
328.7709, 14652.44
329.2531, 14739.73
329.7352, 14834.57
330.2173, 14933.90
330.6994, 15036.83
331.1815, 15139.23
331.6636, 15230.39
332.1458, 15314.77
332.6279, 15380.72
333.1100, 15429.40
333.5921, 15458.48
334.0742, 15466.54
334.5563, 15452.78
335.0385, 15415.70
335.5206, 15353.61
336.0027, 15265.09
336.4848, 15148.01
336.9669, 15000.61
337.4490, 14828.66
337.9312, 14629.47
338.4133, 14406.26
338.8954, 14172.67
339.3775, 13941.54
339.8596, 13702.99
340.3417, 13474.53
340.8239, 13215.91
341.3060, 12958.34
341.7881, 12705.68
342.2702, 12459.34
342.7523, 12222.01
343.2344, 11996.00
343.7166, 11781.12
344.1987, 11578.93
344.6808, 11395.27
345.1629, 11218.73
345.6450, 11046.32
346.1271, 10882.71
346.6093, 10733.39
347.0914, 10601.26
347.5735, 10483.01
348.0556, 10375.84
348.5377, 10285.70
349.0198, 10195.98
349.5020, 10104.77
349.9841, 10015.29
350.4662, 9932.783
350.9483, 9856.556
351.4304, 9779.771
351.9125, 9695.624
352.3947, 9603.649
352.8768, 9508.355
353.3589, 9408.588
353.8410, 9306.920
354.3231, 9202.204
354.8052, 9096.432
355.2874, 8992.348
355.7695, 8892.042
356.2516, 8795.578
356.7337, 8700.952
357.2158, 8606.009
357.6979, 8516.417
358.1800, 8434.785
358.6621, 8357.801
359.1443, 8282.433
359.6264, 8207.116
360.1085, 8133.035
360.5906, 8062.063
361.0727, 7995.791
361.5548, 7928.456
362.0370, 7860.218
362.5191, 7790.484
363.0012, 7718.039
363.4833, 7642.779
363.9654, 7567.903
364.4475, 7498.159
364.9297, 7434.289
365.4118, 7362.560
365.8939, 7277.149
366.3760, 7189.631
366.8581, 7103.628
367.3402, 7019.386
367.8224, 6937.064
368.3045, 6858.267
368.7866, 6780.919
369.2687, 6698.649
369.7508, 6611.018
370.2329, 6519.447
370.7151, 6420.591
371.1972, 6320.083
371.6793, 6221.989
372.1614, 6128.319
372.6435, 6037.045
373.1256, 5946.523
373.6078, 5856.915
374.0899, 5768.387
374.5720, 5681.581
375.0541, 5595.288
375.5362, 5508.905
376.0183, 5422.034
376.5005, 5334.936
376.9826, 5246.810
377.4647, 5158.163
377.9468, 5069.765
378.4289, 4980.457
378.9110, 4894.107
379.3932, 4812.432
379.8753, 4735.322
380.3574, 4663.250
380.8395, 4594.724
381.3216, 4532.692
381.8037, 4481.606
382.2859, 4441.431
382.7680, 4408.229
383.2501, 4380.701
383.7322, 4359.808
384.2143, 4345.478
384.6964, 4338.397
385.1786, 4335.841
385.6607, 4337.576
386.1428, 4342.774
386.6249, 4350.047
387.1070, 4360.052
387.5891, 4369.335
388.0713, 4374.374
388.5534, 4375.542
389.0355, 4371.922
389.5176, 4362.587
389.9997, 4348.840
390.4818, 4331.904
390.9640, 4311.782
391.4461, 4288.064
391.9282, 4259.950
392.4103, 4227.831
392.8924, 4194.836
393.3745, 4157.709
393.8567, 4123.218
394.3388, 4094.164
394.8209, 4069.605
395.3030, 4047.714
395.7851, 4027.409
396.2672, 4010.501
396.7494, 4000.306
397.2315, 3999.162
397.7136, 3999.716
398.1957, 4000.571
398.6778, 4003.718
399.1599, 4011.188
399.6420, 4022.921
400.1241, 4037.105
400.6063, 4052.194
401.0884, 4068.243
401.5705, 4085.720
402.0526, 4105.333
402.5347, 4125.437
403.0168, 4145.290
403.4990, 4165.432
403.9811, 4186.742
404.4632, 4209.583
404.9453, 4233.549
405.4274, 4257.450
405.9095, 4279.634
406.3917, 4304.599
406.8738, 4332.591
407.3559, 4362.879
407.8380, 4394.269
408.3201, 4427.093
408.8022, 4463.530
409.2844, 4506.309
409.7665, 4555.444
410.2486, 4607.992
410.7307, 4662.775
411.2128, 4722.624
411.6949, 4785.090
412.1771, 4853.687
412.6592, 4934.043
413.1413, 5029.173
413.6234, 5136.667
414.1055, 5250.537
414.5876, 5369.250
415.0698, 5501.030
415.5519, 5647.647
416.0340, 5807.932
416.5161, 5982.022
416.9982, 6170.866
417.4803, 6372.121
417.9625, 6586.534
418.4446, 6812.806
418.9267, 7050.005
419.4088, 7301.906
419.8909, 7555.791
420.3730, 7808.343
420.8552, 8055.504
421.3373, 8286.045
421.8194, 8501.752
422.3015, 8693.471
422.7836, 8852.144
423.2657, 8977.343
423.7479, 9065.831
424.2300, 9115.365
424.7121, 9124.776
425.1942, 9099.082
425.6763, 9037.623
426.1584, 8948.983
426.6406, 8828.235
427.1227, 8684.907
427.6048, 8532.744
428.0869, 8372.302
428.5690, 8211.933
429.0511, 8059.492
429.5333, 7915.142
430.0154, 7773.772
430.4975, 7629.897
430.9796, 7493.871
431.4617, 7370.401
431.9438, 7259.909
432.4260, 7162.333
432.9081, 7078.442
433.3902, 7006.721
433.8723, 6944.375
434.3544, 6894.010
434.8365, 6849.738
435.3187, 6809.221
435.8008, 6776.083
436.2829, 6755.623
436.7650, 6747.061
437.2471, 6743.596
437.7292, 6739.050
438.2114, 6733.321
438.6935, 6729.932
439.1756, 6725.841
439.6577, 6727.679
440.1398, 6739.565
440.6219, 6757.568
441.1040, 6776.641
441.5862, 6794.599
442.0683, 6812.596
442.5504, 6832.968
443.0325, 6857.267
443.5146, 6879.489
443.9967, 6894.712
444.4789, 6911.459
444.9610, 6932.019
445.4431, 6957.612
445.9252, 6991.009
446.4073, 7035.071
446.8894, 7088.146
447.3716, 7142.533
447.8537, 7194.327
448.3358, 7257.172
448.8179, 7340.747
449.3000, 7437.234
449.7821, 7538.790
450.2643, 7642.829
450.7464, 7756.646
451.2285, 7884.612
451.7106, 8027.289
452.1927, 8183.969
452.6748, 8353.328
453.1570, 8537.494
453.6391, 8739.791
454.1212, 8958.270
454.6033, 9193.350
455.0854, 9443.230
455.5675, 9709.838
456.0497, 9995.262
456.5318, 10298.90
457.0139, 10622.98
457.4960, 10968.09
457.9781, 11335.50
458.4602, 11733.07
458.9424, 12160.88
459.4245, 12611.15
459.9066, 13080.83
460.3887, 13571.93
460.8708, 14088.93
461.3529, 14631.30
461.8351, 15191.14
462.3172, 15767.04
462.7993, 16356.23
463.2814, 16943.86
463.7635, 17551.98
464.2456, 18133.34
464.7278, 18694.77
465.2099, 19220.91
465.6920, 19700.95
466.1741, 20131.75
466.6562, 20489.85
467.1383, 20742.62
467.6205, 20900.36
468.1026, 20923.07
468.5847, 20791.54
469.0668, 20536.91
469.5489, 20155.54
470.0310, 19657.35
470.5132, 19063.14
470.9953, 18372.22
471.4774, 17606.19
471.9595, 16811.00
472.4416, 15978.23
472.9237, 15151.42
473.4059, 14334.26
473.8880, 13542.00
474.3701, 12785.90
474.8522, 12071.26
475.3343, 11398.80
475.8164, 10769.82
476.2986, 10188.14
476.7807, 9656.813
477.2628, 9179.626
477.7449, 8746.997
478.2270, 8357.717
478.7091, 8010.435
479.1913, 7693.495
479.6734, 7410.397
480.1555, 7153.554
480.6376, 6920.555
481.1197, 6711.155
481.6018, 6524.826
482.0839, 6361.658
482.5660, 6218.729
483.0482, 6091.709
483.5303, 5983.060
484.0124, 5887.007
484.4945, 5803.862
484.9766, 5732.298
485.4587, 5672.947
485.9409, 5624.294
486.4230, 5583.185
486.9051, 5547.573
487.3872, 5518.552
487.8693, 5500.112
488.3514, 5497.411
488.8336, 5495.828
489.3157, 5491.904
489.7978, 5490.420
490.2799, 5494.813
490.7620, 5504.961
491.2441, 5518.564
491.7263, 5534.572
492.2084, 5552.457
492.6905, 5569.445
493.1726, 5584.853
493.6547, 5600.985
494.1368, 5620.173
494.6190, 5639.787
495.1011, 5657.239
495.5832, 5672.037
496.0653, 5684.908
496.5474, 5695.427
497.0295, 5704.300
497.5117, 5713.994
497.9938, 5725.292
498.4759, 5735.477
498.9580, 5741.425
499.4401, 5744.097
499.9222, 5748.892
500.4044, 5758.615
500.8865, 5767.931
501.3686, 5769.262
501.8507, 5768.823
502.3328, 5783.106
502.8149, 5818.297
503.2971, 5857.064
503.7792, 5873.367
504.2613, 5857.217
504.7434, 5855.011
505.2255, 5871.843
505.7076, 5895.948
506.1898, 5923.271
506.6719, 5953.437
507.1540, 5986.500
507.6361, 6022.477
508.1182, 6061.906
508.6003, 6105.950
509.0825, 6155.636
509.5646, 6207.373
510.0467, 6260.612
510.5288, 6315.813
511.0109, 6374.531
511.4930, 6435.909
511.9752, 6496.829
512.4573, 6553.604
512.9394, 6609.796
513.4215, 6675.124
513.9036, 6751.406
514.3857, 6826.817
514.8679, 6896.695
515.3500, 6963.967
515.8321, 7032.101
516.3142, 7101.260
516.7963, 7170.205
517.2784, 7236.736
517.7606, 7303.812
518.2427, 7376.563
518.7248, 7455.197
519.2069, 7535.104
519.6890, 7613.518
520.1711, 7690.857
520.6533, 7766.445
521.1354, 7836.183
521.6175, 7910.375
522.0996, 7993.888
522.5817, 8080.532
523.0638, 8161.614
523.5460, 8236.709
524.0281, 8314.962
524.5102, 8405.185
524.9923, 8506.677
525.4744, 8608.060
525.9565, 8706.810
526.4387, 8807.819
526.9208, 8909.484
527.4029, 9015.513
527.8850, 9128.975
528.3671, 9250.761
528.8492, 9380.311
529.3314, 9516.038
529.8135, 9658.151
530.2956, 9813.393
530.7777, 9986.340
531.2598, 10162.84
531.7419, 10331.89
532.2241, 10498.73
532.7062, 10675.18
533.1883, 10865.06
533.6704, 11060.46
534.1525, 11260.90
534.6346, 11462.83
535.1168, 11659.50
535.5989, 11849.06
536.0810, 12036.13
536.5631, 12224.94
537.0452, 12416.23
537.5273, 12600.09
538.0095, 12777.77
538.4916, 12947.93
538.9737, 13115.10
539.4558, 13273.55
539.9379, 13415.25
540.4200, 13537.50
540.9022, 13644.63
541.3843, 13741.47
541.8664, 13828.26
542.3485, 13903.84
542.8306, 13960.57
543.3127, 14013.32
543.7948, 14066.87
544.2769, 14119.23
544.7590, 14167.79
545.2411, 14212.24
545.7233, 14249.24
546.2054, 14273.14
546.6875, 14284.50
547.1696, 14291.61
547.6517, 14299.17
548.1339, 14296.08
548.6160, 14269.81
549.0981, 14225.19
549.5802, 14172.39
550.0623, 14120.32
550.5444, 14053.30
551.0266, 13960.16
551.5087, 13844.27
551.9908, 13713.46
552.4729, 13570.21
552.9550, 13410.30
553.4371, 13227.29
553.9193, 13016.82
554.4014, 12804.17
554.8835, 12587.45
555.3656, 12371.22
555.8477, 12156.46
556.3298, 11942.06
556.8120, 11728.30
557.2941, 11514.24
557.7762, 11303.36
558.2583, 11099.09
558.7404, 10903.09
559.2225, 10708.51
559.7047, 10514.30
560.1868, 10325.08
560.6689, 10144.76
561.1510, 9969.627
561.6331, 9791.697
562.1152, 9609.065
562.5974, 9423.535
563.0795, 9236.612
563.5616, 9048.142
564.0437, 8857.585
564.5258, 8663.716
565.0079, 8468.692
565.4901, 8271.837
565.9722, 8074.318
566.4543, 7887.938
566.9364, 7709.758
567.4185, 7546.037
567.9006, 7397.784
568.3828, 7266.193
568.8649, 7150.936
569.3470, 7052.892
569.8291, 6972.998
570.3112, 6913.847
570.7933, 6875.456
571.2755, 6853.901
571.7576, 6849.798
572.2397, 6863.494
572.7218, 6894.706
573.2039, 6943.026
573.6860, 7009.851
574.1682, 7095.486
574.6503, 7192.435
575.1324, 7292.134
575.6145, 7396.858
576.0966, 7517.870
576.5787, 7657.265
577.0609, 7806.714
577.5430, 7959.414
578.0251, 8118.712
578.5072, 8289.279
578.9893, 8470.512
579.4714, 8664.585
579.9536, 8878.069
580.4357, 9101.690
580.9178, 9324.314
581.3999, 9544.716
581.8820, 9771.897
582.3641, 10012.03
582.8463, 10265.31
583.3284, 10534.85
583.8105, 10828.16
584.2926, 11129.77
584.7747, 11443.04
585.2568, 11761.56
585.7390, 12076.56
586.2211, 12391.11
586.7032, 12719.76
587.1853, 13074.10
587.6674, 13449.28
588.1495, 13828.48
588.6317, 14212.04
589.1138, 14600.91
