##NAMES=Titanite
##RRUFFID=R050124
##IDEAL CHEMISTRY=CaTi^4+^SiO_5_
##LOCALITY=Capelinha, Minas Gerais, Brazil
##OWNER=RRUFF
##SOURCE=Carlos and Paulo Vasconcelos
##DESCRIPTION=Yellow tabular crystal
##STATUS=The identification of this mineral has been confirmed by X-ray diffraction and chemical analysis
##URL=rruff.info/R050124
##MEASURED CHEMISTRY=Ca_1.00_(Ti_0.93_Al_0.05_Fe^3+^_0.02_)Si_1.00_O_4_(O)_1.00_
94.09991, 0.0000000E+00
94.58203, 14840.08
95.06415, 14789.64
95.54626, 15003.99
96.02838, 15304.84
96.51050, 15544.59
96.99261, 15763.53
97.47473, 15945.64
97.95685, 16091.28
98.43896, 16206.13
98.92108, 16305.85
99.40320, 16395.09
99.88531, 16479.05
100.3674, 16578.61
100.8495, 16711.72
101.3317, 16813.76
101.8138, 16903.72
102.2959, 16992.78
102.7780, 17091.82
103.2601, 17209.35
103.7422, 17346.66
104.2244, 17486.66
104.7065, 17634.93
105.1886, 17779.95
105.6707, 17915.09
106.1528, 18037.87
106.6349, 18150.68
107.1171, 18258.35
107.5992, 18359.66
108.0813, 18456.04
108.5634, 18541.67
109.0455, 18620.19
109.5276, 18697.10
110.0098, 18773.94
110.4919, 18851.86
110.9740, 18933.42
111.4561, 19020.86
111.9382, 19106.55
112.4203, 19189.50
112.9025, 19269.00
113.3846, 19337.71
113.8667, 19388.91
114.3488, 19427.09
114.8309, 19457.35
115.3130, 19477.22
115.7952, 19493.37
116.2773, 19515.04
116.7594, 19541.70
117.2415, 19575.20
117.7236, 19608.57
118.2057, 19649.27
118.6879, 19709.21
119.1700, 19799.89
119.6521, 19915.62
120.1342, 20011.55
120.6163, 20053.05
121.0984, 20108.04
121.5806, 20196.73
122.0627, 20312.24
122.5448, 20437.18
123.0269, 20556.01
123.5090, 20665.48
123.9911, 20787.49
124.4732, 20926.18
124.9554, 21070.06
125.4375, 21213.43
125.9196, 21355.14
126.4017, 21499.03
126.8838, 21652.27
127.3659, 21821.29
127.8481, 21974.89
128.3302, 22114.20
128.8123, 22237.22
129.2944, 22342.14
129.7765, 22428.12
130.2586, 22497.41
130.7408, 22550.81
131.2229, 22590.50
131.7050, 22618.45
132.1871, 22628.96
132.6692, 22626.67
133.1513, 22627.62
133.6335, 22632.20
134.1156, 22647.65
134.5977, 22676.60
135.0798, 22718.99
135.5619, 22777.79
136.0440, 22851.66
136.5262, 22938.28
137.0083, 23056.56
137.4904, 23225.08
137.9725, 23420.16
138.4546, 23628.43
138.9367, 23844.82
139.4189, 24075.38
139.9010, 24333.05
140.3831, 24628.69
140.8652, 24932.61
141.3473, 25239.44
141.8294, 25549.47
142.3116, 25865.54
142.7937, 26191.61
143.2758, 26517.78
143.7579, 26810.68
144.2400, 27087.75
144.7221, 27306.24
145.2043, 27447.49
145.6864, 27526.57
146.1685, 27560.80
146.6506, 27556.35
147.1327, 27517.45
147.6148, 27507.03
148.0970, 27513.30
148.5791, 27550.74
149.0612, 27618.60
149.5433, 27720.26
150.0254, 27870.12
150.5075, 28079.42
150.9896, 28356.09
151.4718, 28673.65
151.9539, 29015.90
152.4360, 29409.25
152.9181, 29884.65
153.4002, 30444.33
153.8823, 31066.56
154.3645, 31744.71
154.8466, 32473.35
155.3287, 33240.34
155.8108, 34041.68
156.2929, 34881.17
156.7750, 35779.01
157.2572, 36769.12
157.7393, 37766.01
158.2214, 38732.65
158.7035, 39665.98
159.1856, 40558.30
159.6677, 41424.81
160.1499, 42259.26
160.6320, 42981.98
161.1141, 43597.09
161.5962, 44069.60
162.0783, 44391.37
162.5604, 44564.18
163.0426, 44591.39
163.5247, 44467.78
164.0068, 44181.34
164.4889, 43802.44
164.9710, 43311.55
165.4531, 42755.20
165.9353, 42130.96
166.4174, 41452.91
166.8995, 40746.55
167.3816, 40043.84
167.8637, 39325.85
168.3458, 38665.07
168.8280, 38051.41
169.3101, 37492.76
169.7922, 36998.14
170.2743, 36568.91
170.7564, 36201.91
171.2385, 35891.07
171.7207, 35649.64
172.2028, 35449.56
172.6849, 35286.93
173.1670, 35165.79
173.6491, 35095.98
174.1312, 35082.32
174.6133, 35107.55
175.0955, 35149.07
175.5776, 35205.91
176.0597, 35272.15
176.5418, 35349.85
177.0239, 35435.89
177.5060, 35524.18
177.9882, 35612.67
178.4703, 35704.05
178.9524, 35802.88
179.4345, 35909.61
179.9166, 36018.80
180.3987, 36125.97
180.8809, 36232.27
181.3630, 36342.90
181.8451, 36461.82
182.3272, 36583.86
182.8093, 36712.63
183.2914, 36849.30
183.7736, 36966.61
184.2557, 37033.98
184.7378, 37046.52
185.2199, 37047.14
185.7020, 37034.85
186.1841, 37018.95
186.6663, 37007.05
187.1484, 37000.29
187.6305, 36989.41
188.1126, 36955.47
188.5947, 36880.20
189.0768, 36832.13
189.5590, 36805.82
190.0411, 36812.90
190.5232, 36865.91
191.0053, 36968.09
191.4874, 37107.80
191.9695, 37265.38
192.4517, 37444.63
192.9338, 37637.52
193.4159, 37852.13
193.8980, 38075.31
194.3801, 38294.48
194.8622, 38506.23
195.3443, 38716.45
195.8265, 38939.23
196.3086, 39198.52
196.7907, 39444.20
197.2728, 39659.52
197.7549, 39866.25
198.2370, 40088.96
198.7192, 40337.46
199.2013, 40606.10
199.6834, 40877.56
200.1655, 41148.83
200.6476, 41427.30
201.1297, 41710.02
201.6119, 42000.88
202.0940, 42304.31
202.5761, 42621.65
203.0582, 42950.49
203.5403, 43284.81
204.0224, 43625.63
204.5046, 43968.52
204.9867, 44316.85
205.4688, 44665.35
205.9509, 45006.46
206.4330, 45342.81
206.9151, 45657.84
207.3973, 45925.15
207.8794, 46139.35
208.3615, 46326.65
208.8436, 46503.98
209.3257, 46668.47
209.8078, 46804.00
210.2900, 46897.43
210.7721, 46960.61
211.2542, 47016.52
211.7363, 47068.26
212.2184, 47102.75
212.7005, 47098.09
213.1827, 47054.00
213.6648, 47023.01
214.1469, 47026.54
214.6290, 47047.27
215.1111, 47065.03
215.5932, 47075.43
216.0754, 47103.69
216.5575, 47184.61
217.0396, 47325.99
217.5217, 47464.71
218.0038, 47577.24
218.4859, 47687.51
218.9680, 47805.25
219.4502, 47933.07
219.9323, 48076.73
220.4144, 48249.76
220.8965, 48464.27
221.3786, 48668.87
221.8607, 48847.98
222.3429, 49021.95
222.8250, 49200.70
223.3071, 49388.02
223.7892, 49583.70
224.2713, 49790.61
224.7534, 50019.55
225.2356, 50234.66
225.7177, 50428.04
226.1998, 50614.99
226.6819, 50803.38
227.1640, 50995.03
227.6461, 51190.34
228.1283, 51389.74
228.6104, 51605.18
229.0925, 51801.40
229.5746, 51978.80
230.0567, 52140.15
230.5388, 52283.48
231.0210, 52409.91
231.5031, 52529.69
231.9852, 52662.80
232.4673, 52838.45
232.9494, 52961.33
233.4315, 53006.18
233.9137, 53019.38
234.3958, 53024.14
234.8779, 53029.76
235.3600, 53050.37
235.8421, 53106.30
236.3242, 53211.07
236.8064, 53327.30
237.2885, 53451.74
237.7706, 53589.68
238.2527, 53737.48
238.7348, 53896.48
239.2169, 54085.06
239.6991, 54324.20
240.1812, 54624.41
240.6633, 54967.44
241.1454, 55353.57
241.6275, 55782.71
242.1096, 56258.01
242.5918, 56776.80
243.0739, 57342.19
243.5560, 57954.46
244.0381, 58616.84
244.5202, 59315.88
245.0023, 60080.99
245.4845, 60870.42
245.9666, 61643.51
246.4487, 62395.16
246.9308, 63124.76
247.4129, 63832.34
247.8950, 64519.71
248.3772, 65167.43
248.8593, 65785.67
249.3414, 66357.09
249.8235, 66860.73
250.3056, 67295.69
250.7877, 67663.34
251.2699, 67962.05
251.7520, 68189.78
252.2341, 68327.83
252.7162, 68354.56
253.1983, 68296.63
253.6804, 68194.64
254.1626, 68056.17
254.6447, 67833.49
255.1268, 67479.16
255.6089, 67015.99
256.0910, 66461.67
256.5731, 65808.65
257.0552, 65073.39
257.5374, 64281.59
258.0195, 63439.17
258.5016, 62513.26
258.9837, 61431.26
259.4658, 60262.01
259.9479, 59076.72
260.4301, 57901.99
260.9122, 56707.21
261.3943, 55441.80
261.8764, 54085.05
262.3585, 52726.90
262.8406, 51394.95
263.3228, 50089.52
263.8049, 48814.88
264.2870, 47570.00
264.7691, 46360.08
265.2512, 45196.42
265.7333, 44072.13
266.2155, 43006.07
266.6976, 42025.98
267.1797, 41091.67
267.6618, 40170.41
268.1439, 39255.52
268.6260, 38379.22
269.1082, 37585.85
269.5903, 36881.57
270.0724, 36217.37
270.5545, 35585.30
271.0366, 34993.55
271.5187, 34460.37
272.0009, 33985.84
272.4830, 33538.83
272.9651, 33074.77
273.4472, 32582.90
273.9293, 32138.87
274.4114, 31773.62
274.8936, 31442.96
275.3757, 31126.83
275.8578, 30825.89
276.3399, 30547.92
276.8220, 30300.98
277.3041, 30086.93
277.7863, 29897.79
278.2684, 29739.83
278.7505, 29604.39
279.2326, 29495.93
279.7147, 29410.32
280.1968, 29335.88
280.6790, 29262.00
281.1611, 29187.93
281.6432, 29131.76
282.1253, 29102.25
282.6074, 29084.31
283.0895, 29070.75
283.5717, 29065.26
284.0538, 29077.58
284.5359, 29117.57
285.0180, 29182.27
285.5001, 29237.81
285.9822, 29280.74
286.4644, 29316.47
286.9465, 29347.93
287.4286, 29372.65
287.9107, 29390.04
288.3928, 29401.93
288.8749, 29401.61
289.3571, 29359.64
289.8392, 29265.05
290.3213, 29135.77
290.8034, 28973.11
291.2855, 28780.36
291.7676, 28552.76
292.2498, 28288.21
292.7319, 28004.74
293.2140, 27746.75
293.6961, 27503.31
294.1782, 27307.77
294.6603, 27145.78
295.1425, 27036.30
295.6246, 26992.79
296.1067, 27020.37
296.5888, 27119.70
297.0709, 27296.96
297.5530, 27579.77
298.0351, 27895.70
298.5172, 28229.82
298.9994, 28598.30
299.4815, 29026.74
299.9636, 29513.38
300.4457, 30025.21
300.9278, 30528.50
301.4099, 31030.82
301.8921, 31498.10
302.3742, 31954.62
302.8563, 32367.84
303.3384, 32713.65
303.8205, 32998.82
304.3026, 33248.68
304.7848, 33488.39
305.2669, 33723.86
305.7490, 33903.34
306.2311, 33991.62
306.7132, 34063.57
307.1953, 34136.98
307.6775, 34213.96
308.1596, 34289.76
308.6417, 34359.42
309.1238, 34425.55
309.6059, 34516.62
310.0880, 34662.44
310.5702, 34801.77
311.0523, 34904.09
311.5344, 34997.55
312.0165, 35129.07
312.4986, 35324.29
312.9807, 35558.63
313.4629, 35759.20
313.9450, 35908.89
314.4271, 36039.84
314.9092, 36154.36
315.3913, 36251.25
315.8734, 36336.91
316.3556, 36411.55
316.8377, 36455.92
317.3198, 36434.54
317.8019, 36324.41
318.2840, 36181.86
318.7661, 36000.70
319.2483, 35796.15
319.7304, 35570.54
320.2125, 35328.60
320.6946, 35083.72
321.1767, 34851.18
321.6588, 34629.77
322.1410, 34421.61
322.6231, 34206.27
323.1052, 34018.76
323.5873, 33874.82
324.0694, 33773.32
324.5515, 33707.30
325.0337, 33670.30
325.5158, 33662.49
325.9979, 33690.54
326.4800, 33768.83
326.9621, 33868.51
327.4442, 33982.22
327.9264, 34113.01
328.4085, 34270.18
328.8906, 34460.50
329.3727, 34674.15
329.8548, 34870.41
330.3369, 35051.51
330.8191, 35207.86
331.3012, 35340.75
331.7833, 35448.41
332.2654, 35532.54
332.7475, 35592.77
333.2296, 35622.63
333.7118, 35611.70
334.1939, 35567.40
334.6760, 35459.98
335.1581, 35282.77
335.6402, 35058.97
336.1223, 34807.43
336.6045, 34527.89
337.0866, 34204.41
337.5687, 33807.88
338.0508, 33324.90
338.5329, 32842.75
339.0150, 32377.18
339.4972, 31899.89
339.9793, 31395.48
340.4614, 30870.32
340.9435, 30334.17
341.4256, 29794.21
341.9077, 29252.17
342.3898, 28730.56
342.8719, 28236.63
343.3541, 27750.73
343.8362, 27258.96
344.3183, 26775.24
344.8004, 26317.43
345.2825, 25894.15
345.7646, 25502.31
346.2468, 25135.03
346.7289, 24796.82
347.2110, 24477.51
347.6931, 24176.91
348.1752, 23889.82
348.6573, 23609.83
349.1395, 23335.60
349.6216, 23075.80
350.1037, 22843.89
350.5858, 22649.84
351.0679, 22448.96
351.5500, 22230.61
352.0322, 22013.72
352.5143, 21803.73
352.9964, 21602.73
353.4785, 21410.19
353.9606, 21224.84
354.4427, 21047.37
354.9249, 20885.39
355.4070, 20761.13
355.8891, 20624.12
356.3712, 20445.16
356.8533, 20244.96
357.3354, 20055.21
357.8176, 19891.41
358.2997, 19748.34
358.7818, 19618.78
359.2639, 19511.98
359.7460, 19393.11
360.2281, 19243.91
360.7103, 19083.78
361.1924, 18928.64
361.6745, 18782.65
362.1566, 18636.61
362.6387, 18480.25
363.1208, 18312.21
363.6030, 18141.89
364.0851, 17967.20
364.5672, 17792.65
365.0493, 17625.77
365.5314, 17464.58
366.0135, 17295.66
366.4957, 17106.43
366.9778, 16901.68
367.4599, 16701.92
367.9420, 16512.97
368.4241, 16320.07
368.9063, 16114.73
369.3884, 15900.42
369.8705, 15679.75
370.3526, 15449.12
370.8347, 15218.67
371.3168, 15007.41
371.7990, 14819.40
372.2811, 14617.43
372.7632, 14376.49
373.2453, 14117.37
373.7274, 13867.08
374.2095, 13629.46
374.6917, 13392.00
375.1738, 13145.35
375.6559, 12890.96
376.1380, 12635.21
376.6201, 12380.86
377.1022, 12121.21
377.5844, 11843.58
378.0665, 11551.24
378.5486, 11260.02
379.0307, 10975.99
379.5128, 10697.47
379.9949, 10418.86
380.4771, 10137.14
380.9592, 9869.504
381.4413, 9628.545
381.9234, 9412.541
382.4055, 9212.970
382.8876, 9028.853
383.3698, 8859.410
383.8519, 8704.893
384.3340, 8565.075
384.8161, 8435.634
385.2982, 8314.666
385.7803, 8204.629
386.2624, 8116.927
386.7445, 8056.931
387.2267, 7996.007
387.7088, 7924.521
388.1909, 7848.212
388.6730, 7776.772
389.1551, 7711.964
389.6372, 7645.530
390.1194, 7567.794
390.6015, 7476.651
391.0836, 7386.929
391.5657, 7299.749
392.0478, 7213.341
392.5299, 7126.502
393.0121, 7039.429
393.4942, 6952.568
393.9763, 6865.106
394.4584, 6778.513
394.9405, 6699.990
395.4226, 6629.117
395.9048, 6566.590
396.3869, 6510.265
396.8690, 6463.163
397.3511, 6428.830
397.8332, 6408.431
398.3153, 6399.144
398.7975, 6396.415
399.2796, 6397.420
399.7617, 6414.353
400.2438, 6452.858
400.7259, 6499.723
401.2080, 6546.734
401.6902, 6594.970
402.1723, 6650.334
402.6544, 6717.877
403.1365, 6796.952
403.6186, 6879.343
404.1007, 6960.172
404.5829, 7051.106
405.0650, 7155.729
405.5471, 7270.418
406.0292, 7391.620
406.5113, 7518.155
406.9934, 7648.402
407.4756, 7780.933
407.9577, 7913.957
408.4398, 8054.418
408.9219, 8204.596
409.4040, 8361.661
409.8861, 8524.349
410.3683, 8693.049
410.8504, 8868.331
411.3325, 9049.794
411.8146, 9238.510
412.2967, 9436.467
412.7788, 9643.525
413.2610, 9862.308
413.7431, 10098.45
414.2252, 10345.09
414.7073, 10591.18
415.1894, 10830.34
415.6715, 11077.46
416.1537, 11357.03
416.6358, 11670.57
417.1179, 11984.41
417.6000, 12287.25
418.0821, 12590.68
418.5642, 12911.14
419.0464, 13248.69
419.5285, 13581.36
420.0106, 13898.27
420.4927, 14202.48
420.9748, 14502.22
421.4569, 14803.17
421.9391, 15082.90
422.4212, 15333.21
422.9033, 15548.65
423.3854, 15712.41
423.8675, 15810.18
424.3496, 15866.53
424.8318, 15891.98
425.3139, 15888.96
425.7960, 15864.57
426.2781, 15820.33
426.7602, 15758.87
427.2423, 15683.66
427.7245, 15595.96
428.2066, 15494.91
428.6887, 15369.26
429.1708, 15236.75
429.6529, 15108.97
430.1350, 14990.22
430.6172, 14890.33
431.0992, 14819.14
431.5814, 14777.37
432.0635, 14740.31
432.5456, 14700.81
433.0277, 14672.83
433.5098, 14664.75
433.9919, 14670.00
434.4741, 14675.31
434.9562, 14675.12
435.4383, 14679.78
435.9204, 14710.31
436.4025, 14778.14
436.8846, 14853.03
437.3668, 14937.24
437.8489, 15025.39
438.3310, 15110.43
438.8131, 15195.43
439.2952, 15290.30
439.7773, 15402.93
440.2595, 15532.86
440.7416, 15675.86
441.2237, 15831.81
441.7058, 16002.49
442.1879, 16190.11
442.6700, 16389.05
443.1522, 16592.19
443.6343, 16797.22
444.1164, 17012.63
444.5985, 17251.30
445.0806, 17512.04
445.5627, 17794.64
446.0449, 18095.84
446.5270, 18423.18
447.0091, 18782.21
447.4912, 19170.41
447.9733, 19581.61
448.4554, 20022.38
448.9376, 20482.17
449.4197, 20940.95
449.9018, 21398.97
450.3839, 21868.86
450.8660, 22352.82
451.3481, 22856.94
451.8303, 23386.44
452.3124, 23946.89
452.7945, 24523.61
453.2766, 25112.80
453.7587, 25711.61
454.2408, 26317.72
454.7230, 26929.40
455.2051, 27555.77
455.6872, 28203.64
456.1693, 28877.21
456.6514, 29579.50
457.1335, 30319.60
457.6157, 31083.92
458.0978, 31854.02
458.5799, 32641.29
459.0620, 33470.67
459.5441, 34353.77
460.0262, 35278.06
460.5084, 36193.68
460.9905, 37085.04
461.4726, 37992.42
461.9547, 38935.13
462.4368, 39879.34
462.9189, 40808.98
463.4011, 41714.41
463.8832, 42583.17
464.3653, 43412.23
464.8474, 44197.09
465.3295, 44866.06
465.8116, 45447.68
466.2938, 45857.07
466.7759, 46102.26
467.2580, 46164.32
467.7401, 46027.33
468.2222, 45685.68
468.7043, 45131.53
469.1865, 44347.64
469.6686, 43331.95
470.1507, 42136.54
470.6328, 40707.29
471.1149, 39150.01
471.5970, 37493.00
472.0792, 35762.73
472.5613, 34015.09
473.0434, 32236.21
473.5255, 30476.93
474.0076, 28798.21
474.4897, 27199.87
474.9719, 25690.99
475.4540, 24276.85
475.9361, 22960.90
476.4182, 21738.10
476.9003, 20604.59
477.3824, 19565.34
477.8645, 18632.27
478.3466, 17782.58
478.8288, 16999.75
479.3109, 16278.16
479.7930, 15622.91
480.2751, 15036.11
480.7572, 14520.26
481.2393, 14054.24
481.7215, 13651.68
482.2036, 13279.51
482.6857, 12920.67
483.1678, 12588.89
483.6499, 12303.48
484.1320, 12069.88
484.6142, 11870.30
485.0963, 11681.78
485.5784, 11501.47
486.0605, 11347.18
486.5426, 11225.27
487.0247, 11119.08
487.5069, 11025.59
487.9890, 10942.99
488.4711, 10868.58
488.9532, 10801.24
489.4353, 10743.43
489.9174, 10703.55
490.3996, 10687.33
490.8817, 10669.70
491.3638, 10642.12
491.8459, 10616.06
492.3280, 10597.14
492.8102, 10585.57
493.2923, 10579.49
493.7744, 10579.40
494.2565, 10583.46
494.7386, 10588.28
495.2207, 10594.17
495.7029, 10598.28
496.1850, 10595.16
496.6671, 10592.28
497.1492, 10602.18
497.6313, 10628.40
498.1134, 10653.90
498.5956, 10667.68
499.0777, 10676.72
499.5598, 10692.47
500.0419, 10716.61
500.5240, 10743.93
501.0061, 10770.65
501.4883, 10796.68
501.9704, 10821.57
502.4525, 10838.88
502.9346, 10862.42
503.4167, 10896.76
503.8988, 10939.53
504.3810, 10987.61
504.8631, 11040.12
505.3452, 11097.18
505.8273, 11158.43
506.3094, 11222.35
506.7915, 11297.99
507.2737, 11395.76
507.7558, 11494.43
508.2379, 11586.55
508.7200, 11675.18
509.2021, 11765.61
509.6842, 11860.60
510.1664, 11958.72
510.6485, 12055.70
511.1306, 12149.00
511.6127, 12256.71
512.0948, 12392.81
512.5769, 12532.78
513.0590, 12654.99
513.5411, 12765.33
514.0233, 12885.09
514.5054, 13027.43
514.9875, 13181.19
515.4696, 13327.83
515.9517, 13467.78
516.4338, 13616.07
516.9160, 13780.44
517.3981, 13952.43
517.8802, 14118.24
518.3623, 14274.23
518.8444, 14441.29
519.3265, 14629.72
519.8087, 14826.85
520.2908, 15020.73
520.7729, 15211.95
521.2550, 15410.10
521.7371, 15621.07
522.2192, 15844.16
522.7014, 16076.82
523.1835, 16333.63
523.6656, 16580.69
524.1477, 16796.65
524.6298, 17016.61
525.1119, 17273.04
525.5941, 17566.39
526.0762, 17868.97
526.5583, 18160.53
527.0404, 18442.21
527.5225, 18721.21
528.0046, 18979.68
528.4868, 19273.73
528.9689, 19648.24
529.4510, 20047.01
529.9331, 20414.22
530.4152, 20739.92
530.8973, 21063.96
531.3795, 21415.83
531.8616, 21788.47
532.3437, 22162.02
532.8258, 22535.08
533.3079, 22907.67
533.7900, 23283.29
534.2722, 23659.69
534.7543, 24028.58
535.2364, 24389.12
535.7185, 24745.10
536.2006, 25100.08
536.6827, 25451.25
537.1649, 25794.32
537.6470, 26129.42
538.1291, 26451.50
538.6112, 26758.95
539.0933, 27051.94
539.5754, 27317.56
540.0576, 27543.36
540.5397, 27757.36
541.0218, 27965.40
541.5039, 28165.93
541.9860, 28361.18
542.4681, 28549.68
542.9503, 28717.13
543.4324, 28844.52
543.9145, 28931.50
544.3966, 29002.63
544.8787, 29056.27
545.3608, 29095.45
545.8430, 29125.16
546.3251, 29141.94
546.8072, 29140.82
547.2893, 29120.63
547.7714, 29081.57
548.2535, 29033.32
548.7357, 28967.55
549.2178, 28847.80
549.6999, 28661.98
550.1820, 28451.65
550.6641, 28256.06
551.1462, 28067.44
551.6284, 27831.00
552.1105, 27523.13
552.5926, 27192.90
553.0747, 26863.03
553.5568, 26521.88
554.0389, 26146.00
554.5211, 25729.84
555.0032, 25301.88
555.4853, 24895.08
555.9674, 24512.44
556.4495, 24116.15
556.9316, 23686.32
557.4138, 23261.06
557.8959, 22841.82
558.3780, 22436.38
558.8601, 22058.54
559.3422, 21711.40
559.8243, 21374.74
560.3065, 21027.56
560.7886, 20669.60
561.2707, 20318.49
561.7528, 19978.57
562.2349, 19636.12
562.7170, 19274.74
563.1992, 18907.72
563.6813, 18562.13
564.1634, 18253.68
564.6455, 17941.25
565.1276, 17588.96
565.6097, 17218.64
566.0919, 16870.74
566.5740, 16552.90
567.0561, 16256.76
567.5382, 15969.89
568.0203, 15694.43
568.5024, 15471.11
568.9846, 15310.76
569.4667, 15180.19
569.9488, 15064.14
570.4309, 14977.31
570.9130, 14938.10
571.3951, 14948.33
571.8773, 14993.30
572.3594, 15054.89
572.8415, 15135.46
573.3236, 15276.43
573.8057, 15497.72
574.2878, 15744.76
574.7700, 15998.76
575.2521, 16269.43
575.7342, 16562.21
576.2163, 16878.23
576.6984, 17222.75
577.1805, 17606.15
577.6627, 18018.32
578.1448, 18438.58
578.6269, 18864.02
579.1090, 19312.45
579.5911, 19796.95
580.0732, 20309.06
580.5554, 20836.22
581.0375, 21374.43
581.5196, 21930.07
582.0017, 22488.38
582.4838, 23074.25
582.9659, 23713.77
583.4481, 24401.42
583.9302, 25094.12
584.4123, 25764.27
584.8944, 26422.98
585.3765, 27124.42
585.8586, 27877.96
586.3408, 28649.82
586.8229, 29436.57
587.3050, 30235.14
587.7871, 31051.08
588.2692, 31880.65
588.7513, 32715.02
589.2334, 33541.59
589.7155, 34377.68
590.1976, 35254.50
