##NAMES=Titantaramellite
##RRUFFID=R060315
##IDEAL CHEMISTRY=Ba_4_(Ti^4+^,Fe^3+^,Mg)_4_(O,OH)_2_[B_2_Si_8_O_27_]Cl_x_
##LOCALITY=Esquire #1 claim, Rush Creek, Fresno County, California, USA
##OWNER=RRUFF
##SOURCE=Michael Scott
##DESCRIPTION=Brown colored subhedral blebs associated with quartz, diopside and sanbornite
##STATUS=The identification of this mineral has been confirmed by single-crystal X-ray diffraction.
##URL=rruff.info/R060315
93.46167, 2787.638
93.94379, 2791.420
94.42590, 2785.040
94.90802, 2772.947
95.39014, 2752.535
95.87225, 2722.615
96.35437, 2691.224
96.83649, 2663.904
97.31860, 2638.825
97.80072, 2613.433
98.28284, 2582.752
98.76495, 2546.276
99.24707, 2514.766
99.72919, 2490.684
100.2113, 2469.843
100.6934, 2451.361
101.1755, 2434.583
101.6577, 2418.982
102.1398, 2403.738
102.6219, 2388.283
103.1040, 2375.807
103.5861, 2366.589
104.0682, 2358.651
104.5504, 2350.915
105.0325, 2343.141
105.5146, 2335.454
105.9967, 2327.642
106.4788, 2318.653
106.9609, 2311.893
107.4431, 2309.268
107.9252, 2308.362
108.4073, 2305.757
108.8894, 2299.992
109.3715, 2292.734
109.8536, 2286.819
110.3358, 2282.085
110.8179, 2278.288
111.3000, 2275.499
111.7821, 2273.650
112.2642, 2272.214
112.7463, 2271.635
113.2285, 2270.980
113.7106, 2269.152
114.1927, 2265.698
114.6748, 2261.769
115.1569, 2259.101
115.6390, 2258.238
116.1212, 2257.146
116.6033, 2254.898
117.0854, 2252.230
117.5675, 2249.841
118.0496, 2248.063
118.5317, 2246.787
119.0139, 2245.569
119.4960, 2244.447
119.9781, 2243.305
120.4602, 2241.916
120.9423, 2240.474
121.4244, 2239.368
121.9066, 2238.949
122.3887, 2239.301
122.8708, 2239.061
123.3529, 2237.697
123.8350, 2236.348
124.3171, 2235.513
124.7993, 2235.220
125.2814, 2235.255
125.7635, 2235.477
126.2456, 2235.959
126.7277, 2236.057
127.2098, 2235.421
127.6920, 2234.531
128.1741, 2233.750
128.6562, 2233.079
129.1383, 2232.809
129.6204, 2233.989
130.1025, 2236.466
130.5847, 2237.684
131.0668, 2234.947
131.5489, 2229.758
132.0310, 2227.763
132.5131, 2232.515
132.9952, 2238.263
133.4774, 2239.656
133.9595, 2236.648
134.4416, 2232.952
134.9237, 2232.115
135.4058, 2234.645
135.8879, 2236.615
136.3701, 2236.778
136.8522, 2236.534
137.3343, 2236.643
137.8164, 2237.307
138.2985, 2238.242
138.7806, 2239.086
139.2628, 2240.413
139.7449, 2240.472
140.2270, 2238.260
140.7091, 2235.330
141.1912, 2232.828
141.6733, 2231.281
142.1555, 2230.741
142.6376, 2231.469
143.1197, 2235.154
143.6018, 2238.261
144.0839, 2240.370
144.5660, 2241.644
145.0482, 2242.357
145.5303, 2242.634
146.0124, 2242.487
146.4945, 2242.057
146.9766, 2240.223
147.4587, 2239.217
147.9409, 2240.664
148.4230, 2244.069
148.9051, 2247.142
149.3872, 2248.287
149.8693, 2247.645
150.3514, 2247.106
150.8336, 2246.110
151.3157, 2245.597
151.7978, 2246.973
152.2799, 2250.602
152.7620, 2253.772
153.2441, 2253.428
153.7263, 2251.231
154.2084, 2249.932
154.6905, 2251.159
155.1726, 2253.799
155.6547, 2255.366
156.1368, 2255.439
156.6190, 2255.111
157.1011, 2254.786
157.5832, 2254.546
158.0653, 2254.571
158.5474, 2255.098
159.0295, 2256.069
159.5117, 2256.802
159.9938, 2257.489
160.4759, 2257.661
160.9580, 2256.559
161.4401, 2254.689
161.9222, 2253.297
162.4044, 2253.630
162.8865, 2256.042
163.3686, 2258.128
163.8507, 2260.545
164.3328, 2262.136
164.8149, 2261.990
165.2971, 2260.292
165.7792, 2258.089
166.2613, 2256.590
166.7434, 2256.123
167.2255, 2255.514
167.7076, 2254.064
168.1898, 2252.965
168.6719, 2253.461
169.1540, 2255.681
169.6361, 2258.282
170.1182, 2259.363
170.6003, 2258.282
171.0825, 2257.140
171.5646, 2255.661
172.0467, 2254.313
172.5288, 2253.852
173.0109, 2254.591
173.4930, 2255.646
173.9752, 2255.432
174.4573, 2253.881
174.9394, 2252.238
175.4215, 2250.857
175.9036, 2249.629
176.3857, 2248.305
176.8679, 2246.725
177.3500, 2245.126
177.8321, 2243.583
178.3142, 2241.974
178.7963, 2241.185
179.2784, 2242.062
179.7606, 2244.428
180.2427, 2246.967
180.7248, 2250.441
181.2069, 2252.858
181.6890, 2252.025
182.1711, 2247.666
182.6533, 2242.838
183.1354, 2240.606
183.6175, 2241.308
184.0996, 2241.988
184.5817, 2241.101
185.0638, 2240.576
185.5460, 2242.035
186.0281, 2245.759
186.5102, 2250.006
186.9923, 2252.254
187.4744, 2251.753
187.9565, 2251.149
188.4387, 2250.502
188.9208, 2250.037
189.4029, 2249.884
189.8850, 2250.089
190.3671, 2250.658
190.8492, 2251.729
191.3314, 2254.181
191.8135, 2255.603
192.2956, 2254.977
192.7777, 2253.816
193.2598, 2253.539
193.7419, 2254.689
194.2241, 2256.671
194.7062, 2258.049
195.1883, 2256.815
195.6704, 2257.401
196.1525, 2262.375
196.6346, 2268.418
197.1168, 2271.130
197.5989, 2268.480
198.0810, 2262.689
198.5631, 2260.245
199.0452, 2264.129
199.5273, 2267.168
200.0095, 2267.875
200.4916, 2267.062
200.9737, 2266.102
201.4558, 2265.658
201.9379, 2265.310
202.4200, 2263.702
202.9022, 2260.210
203.3843, 2256.877
203.8664, 2254.195
204.3485, 2252.192
204.8306, 2250.924
205.3127, 2250.350
205.7949, 2250.696
206.2770, 2252.507
206.7591, 2256.813
207.2412, 2260.302
207.7233, 2260.555
208.2054, 2258.031
208.6876, 2255.544
209.1697, 2254.162
209.6518, 2253.466
210.1339, 2252.735
210.6160, 2251.900
211.0981, 2251.167
211.5803, 2251.120
212.0624, 2251.770
212.5445, 2251.230
213.0266, 2247.048
213.5087, 2242.513
213.9908, 2241.075
214.4730, 2243.636
214.9551, 2247.177
215.4372, 2248.020
215.9193, 2245.574
216.4014, 2244.180
216.8836, 2246.278
217.3657, 2249.244
217.8478, 2251.540
218.3299, 2252.792
218.8120, 2253.270
219.2941, 2252.747
219.7763, 2250.196
220.2584, 2250.115
220.7405, 2255.721
221.2226, 2262.409
221.7047, 2267.069
222.1868, 2268.859
222.6690, 2269.036
223.1511, 2269.609
223.6332, 2271.087
224.1153, 2271.738
224.5974, 2270.605
225.0795, 2269.234
225.5617, 2268.692
226.0438, 2269.294
226.5259, 2270.710
227.0080, 2272.368
227.4901, 2274.169
227.9722, 2276.501
228.4544, 2280.499
228.9365, 2284.309
229.4186, 2286.161
229.9007, 2285.677
230.3828, 2284.128
230.8649, 2283.743
231.3471, 2285.637
231.8292, 2286.955
232.3113, 2286.944
232.7934, 2286.825
233.2755, 2287.556
233.7576, 2289.402
234.2398, 2292.089
234.7219, 2295.212
235.2040, 2299.617
235.6861, 2302.817
236.1682, 2304.218
236.6503, 2304.762
237.1325, 2305.029
237.6146, 2305.218
238.0967, 2305.646
238.5788, 2306.822
239.0609, 2309.063
239.5430, 2311.410
240.0252, 2314.293
240.5073, 2317.040
240.9894, 2318.803
241.4715, 2319.394
241.9536, 2319.575
242.4357, 2320.426
242.9179, 2322.196
243.4000, 2323.520
243.8821, 2323.544
244.3642, 2323.402
244.8463, 2324.760
245.3284, 2328.045
245.8106, 2331.265
246.2927, 2331.569
246.7748, 2328.801
247.2569, 2327.328
247.7390, 2329.310
248.2211, 2332.260
248.7033, 2333.185
249.1854, 2331.552
249.6675, 2328.556
250.1496, 2324.366
250.6317, 2319.300
251.1138, 2316.300
251.5960, 2317.856
252.0781, 2321.005
252.5602, 2321.557
253.0423, 2318.747
253.5244, 2315.632
254.0065, 2315.716
254.4887, 2317.754
254.9708, 2318.159
255.4529, 2314.095
255.9350, 2308.688
256.4171, 2306.673
256.8992, 2308.782
257.3813, 2311.556
257.8635, 2312.440
258.3456, 2312.307
258.8277, 2312.605
259.3098, 2314.195
259.7919, 2316.145
260.2740, 2317.016
260.7562, 2316.591
261.2383, 2315.978
261.7204, 2315.403
262.2025, 2315.098
262.6846, 2315.459
263.1667, 2316.696
263.6489, 2318.511
264.1310, 2320.598
264.6131, 2323.026
265.0952, 2325.420
265.5773, 2327.795
266.0594, 2329.981
266.5416, 2331.753
267.0237, 2332.995
267.5058, 2333.999
267.9879, 2335.300
268.4700, 2337.094
268.9521, 2338.344
269.4343, 2337.554
269.9164, 2336.699
270.3985, 2337.749
270.8806, 2341.344
271.3627, 2345.213
271.8448, 2346.073
272.3270, 2343.148
272.8091, 2341.250
273.2912, 2343.231
273.7733, 2345.495
274.2554, 2345.474
274.7375, 2342.787
275.2197, 2339.561
275.7018, 2338.290
276.1839, 2339.309
276.6660, 2340.066
277.1481, 2340.625
277.6302, 2340.481
278.1124, 2338.901
278.5945, 2336.047
279.0766, 2333.173
279.5587, 2331.953
280.0408, 2332.753
280.5229, 2331.944
281.0051, 2326.768
281.4872, 2322.196
281.9693, 2321.091
282.4514, 2322.727
282.9335, 2324.178
283.4156, 2322.779
283.8978, 2318.462
284.3799, 2314.516
284.8620, 2310.531
285.3441, 2307.415
285.8262, 2305.966
286.3083, 2305.625
286.7905, 2305.178
287.2726, 2303.629
287.7547, 2301.160
288.2368, 2299.652
288.7189, 2300.195
289.2010, 2300.425
289.6832, 2299.384
290.1653, 2297.691
290.6474, 2296.309
291.1295, 2295.822
291.6116, 2296.022
292.0938, 2296.102
292.5759, 2296.357
293.0580, 2296.024
293.5401, 2294.515
294.0222, 2292.585
294.5043, 2291.121
294.9865, 2290.529
295.4686, 2290.460
295.9507, 2290.033
296.4328, 2288.895
296.9149, 2288.045
297.3970, 2287.279
297.8792, 2286.975
298.3613, 2287.614
298.8434, 2289.296
299.3255, 2291.490
299.8076, 2293.413
300.2897, 2295.244
300.7719, 2296.298
301.2540, 2296.217
301.7361, 2295.715
302.2182, 2294.909
302.7003, 2293.989
303.1824, 2293.507
303.6646, 2294.262
304.1467, 2296.683
304.6288, 2298.790
305.1109, 2300.638
305.5930, 2302.159
306.0751, 2303.007
306.5573, 2303.396
307.0394, 2304.040
307.5215, 2305.805
308.0036, 2308.880
308.4857, 2310.380
308.9678, 2308.583
309.4500, 2306.835
309.9321, 2306.019
310.4142, 2305.986
310.8963, 2306.240
311.3784, 2306.439
311.8605, 2306.632
312.3427, 2307.188
312.8248, 2308.515
313.3069, 2309.767
313.7890, 2311.283
314.2711, 2312.503
314.7532, 2312.428
315.2354, 2310.489
315.7175, 2307.673
316.1996, 2307.031
316.6817, 2311.067
317.1638, 2313.309
317.6459, 2312.363
318.1281, 2309.919
318.6102, 2307.002
319.0923, 2304.068
319.5744, 2301.788
320.0565, 2301.615
320.5386, 2305.219
321.0208, 2307.015
321.5029, 2305.161
321.9850, 2302.929
322.4671, 2302.977
322.9492, 2305.215
323.4313, 2306.994
323.9135, 2304.806
324.3956, 2297.260
324.8777, 2292.822
325.3598, 2294.563
325.8419, 2296.542
326.3240, 2296.191
326.8062, 2294.057
327.2883, 2292.206
327.7704, 2292.260
328.2525, 2294.127
328.7346, 2296.147
329.2167, 2299.942
329.6989, 2301.949
330.1810, 2299.983
330.6631, 2296.036
331.1452, 2292.980
331.6273, 2292.368
332.1094, 2293.632
332.5916, 2295.155
333.0737, 2297.645
333.5558, 2299.122
334.0379, 2298.566
334.5200, 2297.371
335.0021, 2296.649
335.4843, 2296.784
335.9664, 2297.781
336.4485, 2299.943
336.9306, 2304.013
337.4127, 2306.995
337.8948, 2308.387
338.3770, 2308.819
338.8591, 2308.124
339.3412, 2306.551
339.8233, 2305.146
340.3055, 2305.374
340.7876, 2307.543
341.2697, 2308.136
341.7518, 2305.281
342.2339, 2302.607
342.7160, 2301.325
343.1982, 2301.345
343.6803, 2302.283
344.1624, 2304.253
344.6445, 2306.879
345.1266, 2308.097
345.6087, 2306.786
346.0909, 2305.899
346.5730, 2307.092
347.0551, 2308.989
347.5372, 2309.861
348.0193, 2308.981
348.5014, 2306.905
348.9836, 2304.379
349.4657, 2301.091
349.9478, 2298.458
350.4299, 2297.339
350.9120, 2296.711
351.3941, 2295.988
351.8763, 2295.045
352.3584, 2293.825
352.8405, 2292.115
353.3226, 2289.884
353.8047, 2288.015
354.2868, 2287.050
354.7690, 2286.022
355.2511, 2284.069
355.7332, 2281.425
356.2153, 2279.155
356.6974, 2278.694
357.1795, 2279.286
357.6617, 2277.589
358.1438, 2272.300
358.6259, 2267.392
359.1080, 2265.576
359.5901, 2265.517
360.0722, 2265.129
360.5544, 2263.550
361.0365, 2261.459
361.5186, 2259.616
362.0007, 2257.983
362.4828, 2257.020
362.9649, 2257.774
363.4471, 2258.798
363.9292, 2258.348
364.4113, 2256.021
364.8934, 2253.213
365.3755, 2250.613
365.8576, 2248.317
366.3398, 2246.993
366.8219, 2247.214
367.3040, 2247.839
367.7861, 2247.509
368.2682, 2246.336
368.7503, 2245.522
369.2325, 2246.718
369.7146, 2248.234
370.1967, 2246.440
370.6788, 2240.452
371.1609, 2234.744
371.6430, 2233.074
372.1252, 2234.539
372.6073, 2236.098
373.0894, 2238.228
373.5715, 2239.642
374.0536, 2238.800
374.5357, 2236.062
375.0179, 2233.493
375.5000, 2231.972
375.9821, 2231.397
376.4642, 2231.519
376.9463, 2232.595
377.4284, 2233.673
377.9106, 2234.859
378.3927, 2235.726
378.8748, 2235.058
379.3569, 2232.339
379.8390, 2229.620
380.3211, 2229.929
380.8033, 2234.063
381.2854, 2236.534
381.7675, 2236.576
382.2496, 2235.090
382.7317, 2231.636
383.2138, 2226.758
383.6960, 2223.326
384.1781, 2223.695
384.6602, 2227.586
385.1423, 2230.858
385.6244, 2234.519
386.1065, 2236.568
386.5887, 2235.076
387.0708, 2231.731
387.5529, 2229.556
388.0350, 2229.922
388.5171, 2231.512
388.9992, 2231.392
389.4814, 2227.424
389.9635, 2225.028
390.4456, 2225.856
390.9277, 2227.152
391.4098, 2226.645
391.8919, 2224.081
392.3741, 2220.668
392.8562, 2217.583
393.3383, 2214.812
393.8204, 2212.503
394.3025, 2210.775
394.7846, 2209.362
395.2668, 2208.823
395.7489, 2208.462
396.2310, 2206.885
396.7131, 2203.148
397.1952, 2198.073
397.6773, 2194.520
398.1595, 2193.166
398.6416, 2192.305
399.1237, 2191.392
399.6058, 2190.978
400.0879, 2191.993
400.5700, 2194.470
401.0522, 2196.900
401.5343, 2197.083
402.0164, 2194.435
402.4985, 2193.022
402.9806, 2194.622
403.4627, 2195.932
403.9449, 2194.928
404.4270, 2192.417
404.9091, 2190.682
405.3912, 2191.548
405.8733, 2193.999
406.3554, 2195.048
406.8376, 2194.826
407.3197, 2192.806
407.8018, 2186.384
408.2839, 2179.188
408.7660, 2175.285
409.2481, 2175.935
409.7303, 2178.070
410.2124, 2178.952
410.6945, 2178.620
411.1766, 2177.489
411.6587, 2174.806
412.1408, 2172.478
412.6230, 2172.803
413.1051, 2175.378
413.5872, 2177.131
414.0693, 2176.352
414.5514, 2174.121
415.0335, 2171.607
415.5157, 2168.717
415.9978, 2167.378
416.4799, 2170.039
416.9620, 2175.030
417.4441, 2177.142
417.9262, 2174.699
418.4084, 2171.323
418.8905, 2168.466
419.3726, 2166.242
419.8547, 2165.123
420.3368, 2165.412
420.8189, 2166.412
421.3011, 2167.153
421.7832, 2167.786
422.2653, 2167.605
422.7474, 2165.611
423.2295, 2163.409
423.7116, 2162.499
424.1938, 2162.895
424.6759, 2163.469
425.1580, 2163.213
425.6401, 2162.246
426.1222, 2162.859
426.6043, 2167.481
427.0865, 2170.594
427.5686, 2169.714
428.0507, 2166.839
428.5328, 2164.466
429.0149, 2163.585
429.4970, 2164.182
429.9792, 2166.470
430.4613, 2172.012
430.9434, 2175.802
431.4255, 2178.396
431.9076, 2179.145
432.3897, 2176.350
432.8719, 2171.139
433.3540, 2166.854
433.8361, 2166.328
434.3182, 2168.986
434.8003, 2170.624
435.2824, 2170.595
435.7646, 2170.508
436.2467, 2170.878
436.7288, 2171.360
437.2109, 2171.401
437.6930, 2170.819
438.1751, 2170.407
438.6573, 2171.179
439.1394, 2173.187
439.6215, 2175.817
440.1036, 2180.485
440.5857, 2184.003
441.0678, 2183.001
441.5500, 2178.845
442.0321, 2176.721
442.5142, 2181.169
442.9963, 2188.534
443.4784, 2191.872
443.9605, 2190.723
444.4427, 2189.122
444.9248, 2189.046
445.4069, 2189.748
445.8890, 2189.439
446.3711, 2186.891
446.8532, 2186.584
447.3354, 2193.786
447.8175, 2204.700
448.2996, 2210.663
448.7817, 2209.417
449.2638, 2205.146
449.7459, 2201.599
450.2281, 2198.823
450.7102, 2197.887
451.1923, 2200.312
451.6744, 2203.266
452.1565, 2204.327
452.6386, 2204.328
453.1208, 2206.285
453.6029, 2212.038
454.0850, 2219.879
454.5671, 2225.062
455.0492, 2223.904
455.5313, 2225.083
456.0135, 2231.525
456.4956, 2238.453
456.9777, 2241.597
457.4598, 2240.764
457.9419, 2239.033
458.4240, 2239.221
458.9062, 2241.356
459.3883, 2244.306
459.8704, 2249.943
460.3525, 2254.283
460.8346, 2255.523
461.3167, 2255.334
461.7989, 2256.152
462.2810, 2258.936
462.7631, 2261.835
463.2452, 2261.917
463.7273, 2258.833
464.2094, 2254.867
464.6916, 2249.229
465.1737, 2243.733
465.6558, 2239.306
466.1379, 2235.902
466.6200, 2233.130
467.1021, 2231.228
467.5843, 2229.613
468.0664, 2226.906
468.5485, 2222.892
469.0306, 2219.338
469.5127, 2217.648
469.9948, 2216.525
470.4770, 2213.891
470.9591, 2209.311
471.4412, 2204.662
471.9233, 2200.706
472.4054, 2197.371
472.8875, 2194.605
473.3697, 2192.419
473.8518, 2190.610
474.3339, 2188.898
474.8160, 2187.352
475.2981, 2186.800
475.7802, 2189.425
476.2624, 2190.722
476.7445, 2187.747
477.2266, 2182.133
477.7087, 2177.052
478.1908, 2173.725
478.6729, 2171.219
479.1551, 2167.830
479.6372, 2162.784
480.1193, 2158.610
480.6014, 2155.878
481.0835, 2153.349
481.5656, 2149.513
482.0478, 2145.235
482.5299, 2143.073
483.0120, 2145.020
483.4941, 2149.756
483.9762, 2152.284
484.4583, 2152.111
484.9405, 2150.666
485.4226, 2147.320
485.9047, 2143.563
486.3868, 2140.559
486.8689, 2138.451
487.3510, 2136.660
487.8332, 2134.524
488.3153, 2132.252
488.7974, 2130.903
489.2795, 2130.790
489.7616, 2130.924
490.2437, 2130.623
490.7259, 2130.190
491.2080, 2130.197
491.6901, 2131.111
492.1722, 2131.733
492.6543, 2130.573
493.1364, 2128.394
493.6186, 2127.727
494.1007, 2129.505
494.5828, 2131.624
495.0649, 2131.456
495.5470, 2128.706
496.0291, 2127.022
496.5113, 2127.685
496.9934, 2128.359
497.4755, 2127.623
497.9576, 2125.805
498.4397, 2123.741
498.9218, 2121.817
499.4040, 2120.142
499.8861, 2118.999
500.3682, 2118.653
500.8503, 2118.404
501.3324, 2118.460
501.8145, 2118.415
502.2967, 2117.623
502.7788, 2116.441
503.2609, 2116.156
503.7430, 2118.022
504.2251, 2121.042
504.7072, 2121.059
505.1894, 2116.613
505.6715, 2112.493
506.1536, 2108.912
506.6357, 2106.782
507.1178, 2107.926
507.5999, 2112.287
508.0821, 2115.907
508.5642, 2114.900
509.0463, 2110.930
509.5284, 2109.155
510.0105, 2110.338
510.4926, 2111.678
510.9748, 2111.625
511.4569, 2110.445
511.9390, 2108.811
512.4211, 2106.471
512.9032, 2104.204
513.3853, 2102.211
513.8674, 2100.587
514.3495, 2099.548
514.8317, 2099.127
515.3138, 2099.188
515.7959, 2099.704
516.2780, 2100.731
516.7601, 2101.180
517.2422, 2100.979
517.7244, 2100.375
518.2065, 2098.801
518.6886, 2097.095
519.1707, 2096.460
519.6528, 2097.312
520.1349, 2099.119
520.6171, 2101.507
521.0992, 2105.252
521.5813, 2106.454
522.0634, 2102.409
522.5455, 2098.429
523.0276, 2096.893
523.5098, 2096.738
523.9919, 2095.575
524.4740, 2091.925
524.9561, 2088.023
525.4382, 2087.513
525.9203, 2090.459
526.4025, 2093.025
526.8846, 2094.414
527.3667, 2094.988
527.8488, 2094.837
528.3309, 2094.089
528.8130, 2093.635
529.2952, 2093.755
529.7773, 2094.250
530.2594, 2095.453
530.7415, 2097.023
531.2236, 2097.358
531.7057, 2095.577
532.1879, 2092.696
532.6700, 2090.583
533.1521, 2089.165
533.6342, 2088.851
534.1163, 2090.643
534.5984, 2092.707
535.0806, 2094.236
535.5627, 2095.001
536.0448, 2094.581
536.5269, 2092.565
537.0090, 2089.791
537.4911, 2089.065
537.9733, 2091.980
538.4554, 2093.391
538.9375, 2090.915
539.4196, 2088.290
539.9017, 2087.848
540.3839, 2089.468
540.8660, 2091.687
541.3481, 2094.203
541.8302, 2096.343
542.3123, 2096.273
542.7944, 2093.767
543.2766, 2091.128
543.7587, 2089.031
544.2408, 2087.487
544.7229, 2086.475
545.2050, 2086.026
545.6871, 2085.826
546.1693, 2085.822
546.6514, 2085.989
547.1335, 2086.184
547.6156, 2086.463
548.0977, 2087.304
548.5798, 2089.136
549.0620, 2091.497
549.5441, 2092.830
550.0262, 2092.344
550.5083, 2091.769
550.9904, 2090.662
551.4725, 2089.773
551.9547, 2090.050
552.4368, 2091.175
552.9189, 2091.672
553.4010, 2090.127
553.8831, 2087.467
554.3652, 2087.946
554.8474, 2093.531
555.3295, 2097.306
555.8116, 2096.684
556.2937, 2094.170
556.7758, 2090.810
557.2579, 2086.917
557.7401, 2083.694
558.2222, 2081.587
558.7043, 2080.716
559.1864, 2081.924
559.6685, 2085.232
560.1506, 2087.661
560.6328, 2087.450
561.1149, 2085.752
561.5970, 2085.186
562.0791, 2086.243
562.5612, 2086.589
563.0433, 2085.032
563.5255, 2083.148
564.0076, 2082.471
564.4897, 2082.797
564.9718, 2082.719
565.4539, 2081.270
565.9360, 2079.006
566.4182, 2077.899
566.9003, 2078.991
567.3824, 2079.294
567.8645, 2078.301
568.3466, 2076.848
568.8287, 2075.247
569.3109, 2073.642
569.7930, 2072.240
570.2751, 2070.969
570.7572, 2070.181
571.2393, 2071.307
571.7214, 2074.662
572.2036, 2075.916
572.6857, 2072.317
573.1678, 2067.515
573.6499, 2066.218
574.1320, 2068.314
574.6141, 2069.497
575.0963, 2067.439
575.5784, 2064.908
576.0605, 2064.297
576.5426, 2065.317
577.0247, 2066.876
577.5068, 2068.585
577.9890, 2069.915
578.4711, 2069.825
578.9532, 2067.772
579.4353, 2065.630
579.9174, 2062.745
580.3995, 2060.434
580.8817, 2059.370
581.3638, 2059.353
581.8459, 2060.188
582.3280, 2061.897
582.8101, 2063.505
583.2922, 2062.807
583.7744, 2059.507
584.2565, 2058.429
584.7386, 2061.369
585.2207, 2064.994
585.7029, 2067.269
586.1850, 2068.385
586.6671, 2068.739
587.1492, 2068.327
587.6313, 2067.299
588.1135, 2064.864
588.5956, 2061.973
589.0777, 2061.132
