##NAMES=Titanowodginite
##RRUFFID=R061033
##IDEAL CHEMISTRY=Mn^2+^Ti^4+^Ta^5+^_2_O_8_
##LOCALITY=Tanco pegmatite, Manitoba, Canada
##OWNER=RRUFF
##SOURCE=Michael Scott
##DESCRIPTION=Black crystal fragments embedded in beryl and associated with muscovite
##STATUS=The identification of this mineral has been confirmed only by single crystal X-ray diffraction.
##URL=rruff.info/R061033
126.8313, 1856.166
127.3135, 2017.120
127.7956, 2198.941
128.2777, 2383.867
128.7598, 2556.509
129.2419, 2718.239
129.7240, 2882.919
130.2061, 3068.582
130.6883, 3249.588
131.1704, 3405.481
131.6525, 3534.458
132.1346, 3635.298
132.6167, 3716.865
133.0988, 3787.822
133.5810, 3791.769
134.0631, 3670.967
134.5452, 3495.325
135.0273, 3302.621
135.5094, 3100.648
135.9915, 2901.115
136.4737, 2718.372
136.9558, 2548.491
137.4379, 2411.577
137.9200, 2315.139
138.4021, 2248.803
138.8842, 2205.386
139.3664, 2182.665
139.8485, 2180.631
140.3306, 2200.673
140.8127, 2248.900
141.2948, 2311.003
141.7769, 2382.223
142.2591, 2463.697
142.7412, 2557.748
143.2233, 2665.769
143.7054, 2784.411
144.1875, 2903.141
144.6696, 3030.165
145.1518, 3144.213
145.6339, 3239.636
146.1160, 3321.848
146.5981, 3397.366
147.0802, 3469.741
147.5623, 3537.562
148.0445, 3595.608
148.5266, 3650.177
149.0087, 3684.731
149.4908, 3700.359
149.9729, 3694.405
150.4550, 3661.663
150.9371, 3597.741
151.4193, 3506.736
151.9014, 3411.946
152.3835, 3288.715
152.8656, 3188.991
153.3477, 3129.225
153.8298, 3098.601
154.3120, 3080.077
154.7941, 3063.664
155.2762, 3049.334
155.7583, 3037.812
156.2404, 3029.353
156.7225, 3023.003
157.2047, 3020.952
157.6868, 3020.828
158.1689, 3016.113
158.6510, 3000.757
159.1331, 2976.810
159.6152, 2977.344
160.0974, 3028.154
160.5795, 3072.021
161.0616, 3083.313
161.5437, 3071.523
162.0258, 3062.455
162.5079, 3074.105
162.9901, 3104.802
163.4722, 3126.530
163.9543, 3147.659
164.4364, 3154.023
164.9185, 3133.649
165.4007, 3092.049
165.8828, 3045.344
166.3649, 3002.630
166.8470, 2964.501
167.3291, 2932.552
167.8112, 2910.282
168.2934, 2890.029
168.7755, 2864.569
169.2576, 2836.800
169.7397, 2819.553
170.2218, 2825.225
170.7039, 2850.007
171.1861, 2855.162
171.6682, 2828.100
172.1503, 2795.302
172.6324, 2770.028
173.1145, 2751.653
173.5966, 2733.147
174.0788, 2708.807
174.5609, 2680.470
175.0430, 2659.825
175.5251, 2656.525
176.0072, 2652.155
176.4893, 2631.771
176.9714, 2598.070
177.4536, 2567.970
177.9357, 2551.726
178.4178, 2549.092
178.8999, 2550.729
179.3820, 2563.370
179.8641, 2574.524
180.3463, 2575.603
180.8284, 2567.272
181.3105, 2554.987
181.7926, 2538.613
182.2747, 2521.688
182.7568, 2515.660
183.2390, 2527.328
183.7211, 2544.113
184.2032, 2561.545
184.6853, 2578.768
185.1674, 2587.314
185.6495, 2578.329
186.1317, 2557.419
186.6138, 2544.833
187.0959, 2546.364
187.5780, 2550.815
188.0601, 2550.556
188.5422, 2545.979
189.0244, 2541.252
189.5065, 2541.212
189.9886, 2541.151
190.4707, 2529.631
190.9528, 2493.581
191.4349, 2461.092
191.9171, 2456.157
192.3992, 2476.386
192.8813, 2498.615
193.3634, 2512.566
193.8455, 2520.534
194.3276, 2528.811
194.8098, 2537.779
195.2919, 2546.701
195.7740, 2557.871
196.2561, 2570.332
196.7382, 2574.201
197.2203, 2559.292
197.7025, 2536.634
198.1846, 2528.352
198.6667, 2542.457
199.1488, 2556.415
199.6309, 2552.647
200.1130, 2533.319
200.5951, 2514.929
201.0773, 2502.291
201.5594, 2495.718
202.0415, 2494.013
202.5236, 2498.110
203.0057, 2504.648
203.4878, 2514.810
203.9700, 2527.039
204.4521, 2531.549
204.9342, 2521.505
205.4163, 2505.074
205.8984, 2495.291
206.3805, 2493.613
206.8627, 2492.874
207.3448, 2487.969
207.8269, 2480.066
208.3090, 2474.895
208.7911, 2476.257
209.2732, 2478.509
209.7554, 2474.482
210.2375, 2463.834
210.7196, 2450.468
211.2017, 2432.477
211.6838, 2412.704
212.1659, 2401.400
212.6481, 2402.500
213.1302, 2411.254
213.6123, 2423.897
214.0944, 2440.885
214.5765, 2453.422
215.0586, 2456.281
215.5408, 2451.646
216.0229, 2443.720
216.5050, 2430.594
216.9871, 2419.992
217.4692, 2424.326
217.9513, 2442.217
218.4335, 2453.971
218.9156, 2444.755
219.3977, 2425.002
219.8798, 2416.979
220.3619, 2426.370
220.8440, 2441.150
221.3262, 2450.095
221.8083, 2454.229
222.2904, 2457.716
222.7725, 2462.469
223.2546, 2467.193
223.7367, 2469.969
224.2189, 2470.624
224.7010, 2469.198
225.1831, 2463.930
225.6652, 2455.994
226.1473, 2450.343
226.6294, 2450.094
227.1115, 2451.696
227.5937, 2450.240
228.0758, 2445.119
228.5579, 2440.442
229.0400, 2439.925
229.5221, 2442.518
230.0042, 2444.268
230.4864, 2441.394
230.9685, 2439.592
231.4506, 2448.668
231.9327, 2468.386
232.4148, 2479.435
232.8969, 2463.069
233.3791, 2428.728
233.8612, 2410.833
234.3433, 2423.078
234.8254, 2441.221
235.3075, 2449.892
235.7896, 2449.764
236.2718, 2444.302
236.7539, 2431.034
237.2360, 2416.179
237.7181, 2416.600
238.2002, 2445.255
238.6823, 2470.875
239.1645, 2473.000
239.6466, 2457.911
240.1287, 2446.125
240.6108, 2446.634
241.0929, 2455.007
241.5750, 2461.344
242.0572, 2466.220
242.5393, 2468.542
243.0214, 2465.624
243.5035, 2460.079
243.9856, 2457.038
244.4677, 2458.242
244.9499, 2462.558
245.4320, 2469.246
245.9141, 2480.444
246.3962, 2486.945
246.8783, 2483.796
247.3604, 2475.880
247.8426, 2468.749
248.3247, 2463.556
248.8068, 2461.369
249.2889, 2464.914
249.7710, 2476.864
250.2531, 2482.793
250.7352, 2471.887
251.2174, 2460.142
251.6995, 2465.499
252.1816, 2489.434
252.6637, 2516.318
253.1458, 2530.867
253.6279, 2530.922
254.1101, 2527.389
254.5922, 2513.963
255.0743, 2502.189
255.5564, 2500.987
256.0385, 2509.172
256.5207, 2518.853
257.0028, 2524.171
257.4849, 2525.087
257.9670, 2523.989
258.4491, 2515.736
258.9312, 2511.066
259.4134, 2514.716
259.8955, 2525.347
260.3776, 2540.943
260.8597, 2561.640
261.3418, 2584.638
261.8239, 2593.896
262.3060, 2572.427
262.7881, 2557.599
263.2703, 2560.743
263.7524, 2573.058
264.2345, 2582.611
264.7166, 2584.102
265.1987, 2580.056
265.6808, 2576.802
266.1630, 2575.589
266.6451, 2573.493
267.1272, 2568.488
267.6093, 2563.640
268.0914, 2561.701
268.5735, 2563.446
269.0557, 2567.852
269.5378, 2574.518
270.0199, 2589.529
270.5020, 2592.560
270.9841, 2575.862
271.4662, 2555.678
271.9484, 2539.098
272.4305, 2528.192
272.9126, 2524.274
273.3947, 2530.435
273.8768, 2549.080
274.3589, 2561.050
274.8411, 2561.934
275.3232, 2559.922
275.8053, 2556.218
276.2874, 2551.750
276.7695, 2547.750
277.2516, 2544.996
277.7338, 2543.459
278.2159, 2543.132
278.6980, 2545.682
279.1801, 2547.174
279.6622, 2541.797
280.1443, 2535.845
280.6265, 2539.749
281.1086, 2560.695
281.5907, 2589.675
282.0728, 2604.388
282.5549, 2599.321
283.0370, 2593.585
283.5192, 2594.035
284.0013, 2595.534
284.4834, 2592.869
284.9655, 2584.324
285.4476, 2574.419
285.9297, 2568.757
286.4119, 2567.727
286.8940, 2566.884
287.3761, 2562.688
287.8582, 2560.738
288.3403, 2567.683
288.8224, 2583.547
289.3046, 2596.914
289.7867, 2598.081
290.2688, 2589.152
290.7509, 2580.006
291.2330, 2570.303
291.7151, 2563.306
292.1973, 2563.746
292.6794, 2569.685
293.1615, 2572.930
293.6436, 2569.029
294.1257, 2560.824
294.6078, 2550.662
295.0900, 2537.359
295.5721, 2530.317
296.0542, 2541.146
296.5363, 2563.583
297.0184, 2578.796
297.5005, 2584.113
297.9827, 2581.670
298.4648, 2567.388
298.9469, 2543.914
299.4290, 2528.568
299.9111, 2532.079
300.3932, 2547.894
300.8754, 2557.518
301.3575, 2558.531
301.8396, 2558.448
302.3217, 2563.323
302.8038, 2568.410
303.2859, 2562.572
303.7681, 2540.997
304.2502, 2514.919
304.7323, 2502.414
305.2144, 2507.740
305.6965, 2515.999
306.1786, 2531.641
306.6608, 2546.517
307.1429, 2551.940
307.6250, 2547.482
308.1071, 2541.114
308.5892, 2541.197
309.0714, 2549.292
309.5535, 2551.947
310.0356, 2548.204
310.5177, 2541.102
310.9998, 2528.497
311.4819, 2513.486
311.9640, 2502.990
312.4461, 2501.909
312.9283, 2508.322
313.4104, 2510.438
313.8925, 2504.825
314.3746, 2498.694
314.8567, 2492.937
315.3388, 2487.124
315.8210, 2480.131
316.3031, 2471.599
316.7852, 2463.316
317.2673, 2459.869
317.7494, 2466.529
318.2315, 2464.364
318.7137, 2440.170
319.1958, 2416.108
319.6779, 2406.945
320.1600, 2413.167
320.6421, 2423.869
321.1242, 2430.475
321.6064, 2432.980
322.0885, 2428.777
322.5706, 2406.578
323.0527, 2392.141
323.5348, 2405.563
324.0169, 2435.699
324.4991, 2456.520
324.9812, 2448.934
325.4633, 2427.290
325.9454, 2422.832
326.4275, 2440.037
326.9096, 2456.232
327.3918, 2460.550
327.8739, 2457.451
328.3560, 2451.334
328.8381, 2440.937
329.3202, 2432.076
329.8023, 2430.262
330.2845, 2434.500
330.7666, 2439.898
331.2487, 2446.289
331.7308, 2451.369
332.2129, 2451.773
332.6950, 2447.589
333.1772, 2441.206
333.6593, 2430.816
334.1414, 2419.684
334.6235, 2412.346
335.1056, 2409.478
335.5877, 2408.479
336.0699, 2406.538
336.5520, 2403.635
337.0341, 2405.570
337.5162, 2415.666
337.9983, 2427.317
338.4804, 2440.351
338.9626, 2452.363
339.4447, 2456.590
339.9268, 2448.296
340.4089, 2431.310
340.8910, 2420.731
341.3731, 2420.849
341.8553, 2422.475
342.3374, 2425.147
342.8195, 2428.916
343.3016, 2435.389
343.7837, 2444.457
344.2658, 2451.960
344.7480, 2450.963
345.2301, 2437.156
345.7122, 2428.039
346.1943, 2423.100
346.6764, 2422.996
347.1585, 2434.053
347.6407, 2451.328
348.1228, 2460.465
348.6049, 2446.250
349.0870, 2415.328
349.5691, 2408.920
350.0512, 2446.403
350.5334, 2474.822
351.0155, 2467.529
351.4976, 2444.972
351.9797, 2431.234
352.4618, 2434.877
352.9439, 2447.411
353.4261, 2461.973
353.9082, 2478.812
354.3903, 2485.814
354.8724, 2472.334
355.3545, 2454.902
355.8366, 2453.921
356.3188, 2470.031
356.8009, 2480.206
357.2830, 2468.268
357.7651, 2444.529
358.2472, 2425.774
358.7293, 2413.664
359.2115, 2410.078
359.6936, 2420.662
360.1757, 2443.533
360.6578, 2457.167
361.1399, 2453.442
361.6220, 2447.172
362.1041, 2446.284
362.5862, 2449.816
363.0684, 2454.196
363.5505, 2457.517
364.0326, 2461.178
364.5147, 2469.010
364.9968, 2487.427
365.4789, 2500.785
365.9611, 2506.079
366.4432, 2507.219
366.9253, 2504.983
367.4074, 2500.876
367.8895, 2500.522
368.3716, 2511.244
368.8538, 2535.368
369.3359, 2553.934
369.8180, 2560.411
370.3001, 2567.837
370.7822, 2583.015
371.2643, 2601.677
371.7465, 2615.254
372.2286, 2618.098
372.7107, 2615.279
373.1928, 2619.775
373.6749, 2634.277
374.1570, 2648.690
374.6392, 2660.067
375.1213, 2670.519
375.6034, 2682.149
376.0855, 2695.243
376.5676, 2707.118
377.0497, 2717.645
377.5319, 2725.642
378.0140, 2723.350
378.4961, 2704.958
378.9782, 2686.824
379.4603, 2687.161
379.9424, 2699.967
380.4246, 2706.294
380.9067, 2695.612
381.3888, 2681.425
381.8709, 2676.510
382.3530, 2679.524
382.8351, 2681.506
383.3173, 2678.023
383.7994, 2670.741
384.2815, 2664.181
384.7636, 2658.528
385.2457, 2653.167
385.7278, 2645.156
386.2100, 2638.859
386.6921, 2641.183
387.1742, 2652.499
387.6563, 2664.605
388.1384, 2668.512
388.6205, 2663.189
389.1027, 2657.018
389.5848, 2645.499
390.0669, 2637.866
390.5490, 2641.735
391.0311, 2650.874
391.5132, 2653.865
391.9954, 2644.211
392.4775, 2627.755
392.9596, 2618.276
393.4417, 2617.727
393.9238, 2618.638
394.4059, 2620.340
394.8881, 2622.502
395.3702, 2625.160
395.8523, 2628.228
396.3344, 2631.043
396.8165, 2634.981
397.2986, 2638.495
397.7808, 2633.740
398.2629, 2616.447
398.7450, 2602.148
399.2271, 2606.866
399.7092, 2622.285
400.1913, 2628.888
400.6735, 2617.299
401.1556, 2603.067
401.6377, 2596.948
402.1198, 2596.964
402.6019, 2596.881
403.0840, 2594.292
403.5662, 2591.174
404.0483, 2591.320
404.5304, 2597.357
405.0125, 2599.671
405.4946, 2593.521
405.9767, 2586.774
406.4589, 2586.171
406.9410, 2591.082
407.4231, 2596.427
407.9052, 2598.660
408.3873, 2597.788
408.8694, 2593.561
409.3516, 2579.394
409.8336, 2570.630
410.3158, 2569.881
410.7979, 2575.347
411.2800, 2587.987
411.7621, 2607.501
412.2442, 2625.228
412.7263, 2630.422
413.2085, 2622.557
413.6906, 2610.491
414.1727, 2588.111
414.6548, 2570.581
415.1369, 2566.975
415.6190, 2574.940
416.1012, 2588.284
416.5833, 2612.653
417.0654, 2635.022
417.5475, 2635.025
418.0296, 2614.218
418.5117, 2596.450
418.9939, 2592.102
419.4760, 2596.210
419.9581, 2599.271
420.4402, 2601.497
420.9223, 2602.525
421.4044, 2598.044
421.8866, 2594.751
422.3687, 2601.530
422.8508, 2618.362
423.3329, 2637.792
423.8150, 2654.932
424.2971, 2669.455
424.7793, 2668.463
425.2614, 2622.808
425.7435, 2595.707
426.2256, 2613.175
426.7077, 2650.505
427.1898, 2678.740
427.6720, 2687.755
428.1541, 2685.957
428.6362, 2684.345
429.1183, 2683.217
429.6004, 2680.142
430.0826, 2673.691
430.5647, 2666.529
431.0468, 2659.664
431.5289, 2653.245
432.0110, 2647.709
432.4931, 2645.497
432.9753, 2642.432
433.4574, 2629.285
433.9395, 2606.356
434.4216, 2591.518
434.9037, 2594.980
435.3858, 2607.129
435.8680, 2609.343
436.3501, 2598.140
436.8322, 2592.383
437.3143, 2604.149
437.7964, 2619.287
438.2785, 2622.099
438.7607, 2611.984
439.2428, 2598.810
439.7249, 2589.922
440.2070, 2585.138
440.6891, 2582.110
441.1712, 2579.474
441.6534, 2580.335
442.1355, 2592.080
442.6176, 2604.032
443.0997, 2602.254
443.5818, 2584.103
444.0639, 2563.034
444.5461, 2555.296
445.0282, 2561.490
445.5103, 2570.566
445.9924, 2588.375
446.4745, 2600.150
446.9566, 2596.226
447.4388, 2581.849
447.9209, 2566.585
448.4030, 2550.317
448.8851, 2539.052
449.3672, 2545.421
449.8493, 2565.129
450.3315, 2570.780
450.8136, 2549.494
451.2957, 2521.468
451.7778, 2518.090
452.2599, 2544.859
452.7420, 2558.278
453.2242, 2541.571
453.7063, 2520.663
454.1884, 2512.390
454.6705, 2515.904
455.1526, 2525.841
455.6347, 2540.329
456.1169, 2554.228
456.5990, 2549.718
457.0811, 2507.841
457.5632, 2480.262
458.0453, 2476.388
458.5274, 2481.682
459.0095, 2489.249
459.4916, 2496.832
459.9738, 2501.831
460.4559, 2500.931
460.9380, 2495.885
461.4201, 2493.854
461.9022, 2496.118
462.3843, 2496.726
462.8665, 2489.568
463.3486, 2480.747
463.8307, 2479.508
464.3128, 2488.269
464.7949, 2498.733
465.2770, 2512.183
465.7592, 2522.836
466.2413, 2516.636
466.7234, 2491.908
467.2055, 2469.185
467.6876, 2467.471
468.1697, 2486.397
468.6519, 2497.716
469.1340, 2501.040
469.6161, 2498.418
470.0982, 2483.847
470.5803, 2466.387
471.0624, 2457.014
471.5446, 2458.760
472.0267, 2466.034
472.5088, 2473.032
472.9909, 2480.071
473.4730, 2483.628
473.9551, 2483.303
474.4373, 2479.700
474.9194, 2473.071
475.4015, 2463.809
475.8836, 2451.384
476.3657, 2431.971
476.8478, 2416.983
477.3300, 2421.771
477.8121, 2441.567
478.2942, 2456.412
478.7763, 2461.558
479.2584, 2459.545
479.7405, 2452.021
480.2227, 2438.169
480.7048, 2425.044
481.1869, 2402.999
481.6690, 2391.434
482.1511, 2414.193
482.6332, 2452.963
483.1154, 2468.851
483.5975, 2444.513
484.0796, 2402.006
484.5617, 2383.067
485.0438, 2396.235
485.5259, 2407.361
486.0081, 2412.431
486.4902, 2418.048
486.9723, 2429.687
487.4544, 2444.133
487.9365, 2453.539
488.4186, 2453.960
488.9008, 2447.546
489.3829, 2433.619
489.8650, 2412.841
490.3471, 2399.615
490.8292, 2398.821
491.3113, 2406.526
491.7935, 2421.728
492.2756, 2445.650
492.7577, 2458.507
493.2398, 2451.519
493.7219, 2437.644
494.2040, 2423.486
494.6862, 2410.299
495.1683, 2398.930
495.6504, 2389.609
496.1325, 2383.570
496.6146, 2384.509
497.0967, 2397.590
497.5789, 2406.379
498.0610, 2410.418
498.5431, 2410.265
499.0252, 2400.565
499.5073, 2386.304
499.9894, 2381.597
500.4716, 2398.656
500.9537, 2424.550
501.4358, 2438.129
501.9179, 2439.245
502.4000, 2431.537
502.8821, 2410.237
503.3643, 2388.040
503.8464, 2385.613
504.3285, 2404.099
504.8106, 2415.054
505.2927, 2409.379
505.7748, 2397.236
506.2570, 2383.344
506.7391, 2369.540
507.2212, 2358.617
507.7033, 2351.772
508.1854, 2349.908
508.6675, 2356.243
509.1496, 2377.657
509.6317, 2392.008
510.1139, 2397.075
510.5960, 2396.711
511.0781, 2387.433
511.5602, 2374.020
512.0424, 2369.061
512.5245, 2383.250
513.0066, 2403.838
513.4887, 2409.358
513.9708, 2400.153
514.4529, 2391.476
514.9351, 2387.624
515.4172, 2386.443
515.8993, 2384.646
516.3814, 2381.896
516.8635, 2383.571
517.3456, 2397.431
517.8278, 2409.506
518.3099, 2408.645
518.7920, 2398.838
519.2741, 2390.114
519.7562, 2386.969
520.2383, 2387.206
520.7205, 2387.196
521.2026, 2387.802
521.6847, 2385.486
522.1668, 2374.235
522.6489, 2365.757
523.1310, 2367.443
523.6132, 2375.305
524.0953, 2380.315
524.5774, 2377.486
525.0595, 2373.007
525.5416, 2374.305
526.0237, 2380.480
526.5059, 2388.022
526.9880, 2397.748
527.4701, 2402.944
527.9522, 2393.934
528.4343, 2369.219
528.9164, 2355.103
529.3986, 2354.530
529.8807, 2361.200
530.3628, 2382.245
530.8449, 2405.627
531.3270, 2410.406
531.8091, 2391.130
532.2913, 2366.143
532.7734, 2360.698
533.2554, 2376.833
533.7375, 2386.875
534.2197, 2386.284
534.7018, 2386.426
535.1839, 2394.244
535.6660, 2405.160
536.1481, 2411.967
536.6302, 2411.627
537.1124, 2412.095
537.5945, 2421.327
538.0766, 2434.537
538.5587, 2440.760
539.0408, 2438.511
539.5229, 2436.839
540.0051, 2443.313
540.4872, 2456.825
540.9693, 2467.573
541.4514, 2475.451
541.9335, 2480.694
542.4156, 2483.506
542.8978, 2483.534
543.3799, 2476.465
543.8620, 2464.571
544.3441, 2459.817
544.8262, 2476.563
545.3083, 2506.700
545.7905, 2519.800
546.2726, 2512.045
546.7547, 2507.749
547.2368, 2519.897
547.7189, 2536.944
548.2010, 2539.900
548.6832, 2525.781
549.1653, 2521.261
549.6474, 2538.717
550.1295, 2564.500
550.6116, 2591.992
551.0938, 2617.791
551.5759, 2634.260
552.0580, 2636.977
552.5401, 2632.062
553.0222, 2633.165
553.5043, 2644.164
553.9865, 2650.717
554.4686, 2650.578
554.9507, 2647.390
555.4328, 2636.463
555.9149, 2624.131
556.3970, 2625.261
556.8792, 2651.031
557.3613, 2680.562
557.8434, 2691.345
558.3255, 2687.289
558.8076, 2680.890
559.2897, 2673.804
559.7719, 2672.515
560.2540, 2686.356
560.7361, 2715.319
561.2182, 2728.302
561.7003, 2706.417
562.1824, 2693.996
562.6646, 2714.097
563.1467, 2742.276
563.6288, 2747.711
564.1109, 2727.045
564.5930, 2706.369
565.0751, 2713.202
565.5573, 2741.187
566.0394, 2756.710
566.5215, 2758.065
567.0036, 2753.132
567.4857, 2740.479
567.9678, 2726.351
568.4500, 2718.672
568.9321, 2716.953
569.4142, 2724.462
569.8963, 2755.750
570.3784, 2786.077
570.8605, 2786.875
571.3427, 2766.689
571.8248, 2756.658
572.3069, 2772.956
572.7890, 2803.278
573.2711, 2822.739
573.7532, 2828.512
574.2354, 2832.667
574.7175, 2834.188
575.1996, 2835.597
575.6817, 2840.075
576.1638, 2844.964
576.6459, 2843.394
577.1281, 2828.460
577.6102, 2817.676
578.0923, 2834.901
578.5744, 2865.957
579.0565, 2872.849
579.5386, 2848.803
580.0208, 2824.548
580.5029, 2826.463
580.9850, 2851.611
581.4671, 2870.760
581.9492, 2884.798
582.4313, 2890.978
582.9135, 2881.170
583.3956, 2869.084
583.8777, 2868.941
584.3598, 2879.229
584.8419, 2884.587
585.3240, 2870.009
585.8062, 2847.305
586.2883, 2843.057
586.7704, 2857.012
587.2525, 2863.959
587.7346, 2851.888
588.2167, 2837.746
588.6989, 2847.621
589.1810, 2887.331
589.6631, 2906.700
590.1452, 2889.268
590.6273, 2867.780
591.1094, 2850.596
591.5916, 2841.106
592.0737, 2845.940
592.5558, 2866.037
593.0379, 2889.016
593.5200, 2901.869
594.0021, 2904.885
594.4843, 2902.200
594.9664, 2892.546
595.4485, 2880.725
595.9306, 2866.132
596.4127, 2852.198
596.8948, 2844.917
597.3770, 2845.895
597.8591, 2847.058
598.3412, 2842.412
598.8233, 2839.866
599.3054, 2849.447
599.7875, 2867.526
600.2697, 2882.000
600.7518, 2886.656
601.2339, 2885.801
601.7160, 2887.332
602.1981, 2891.559
602.6802, 2897.207
603.1624, 2909.099
603.6445, 2915.880
604.1266, 2908.129
604.6087, 2892.294
605.0908, 2879.333
605.5729, 2869.298
606.0551, 2867.632
606.5372, 2888.479
607.0193, 2914.617
607.5014, 2913.909
607.9835, 2887.172
608.4656, 2869.860
608.9478, 2888.904
609.4299, 2932.368
609.9120, 2955.931
610.3941, 2951.956
610.8762, 2944.770
611.3583, 2934.779
611.8405, 2923.851
612.3226, 2908.866
612.8047, 2893.592
613.2868, 2889.166
613.7689, 2906.540
614.2510, 2925.764
614.7332, 2924.120
615.2153, 2911.085
615.6974, 2910.814
616.1795, 2928.270
616.6616, 2950.369
617.1437, 2966.304
617.6259, 2976.332
618.1080, 2983.579
618.5901, 2991.021
619.0722, 2990.769
619.5543, 2970.664
620.0364, 2951.833
620.5186, 2951.633
621.0007, 2968.615
621.4828, 2988.631
621.9649, 3009.337
622.4470, 3023.990
622.9291, 3019.477
623.4113, 3000.564
623.8934, 2986.525
