##NAMES=Titantaramellite
##RRUFFID=R080041
##IDEAL CHEMISTRY=Ba_4_(Ti^4+^,Fe^3+^,Mg)_4_(O,OH)_2_[B_2_Si_8_O_27_]Cl_x_
##LOCALITY=La Madrelena mine, Tres Pozos, Municipio de Tecate, Baja California Norte, Mexico
##OWNER=RRUFF
##SOURCE=Michael Scott
##DESCRIPTION=Black grains associated with pink gillespite and quartz
##STATUS=The identification of this mineral has been confirmed only by single crystal X-ray diffraction.
##URL=rruff.info/R080041
93.40265, 0.0000000E+00
93.88477, 1.062541
94.36688, 1.047561
94.84900, 1.050295
95.33112, 1.069647
95.81323, 1.100431
96.29535, 1.139269
96.77747, 1.187246
97.25958, 1.250291
97.74170, 1.331393
98.22382, 1.423680
98.70593, 1.508953
99.18805, 1.586083
99.67017, 1.676340
100.1523, 1.800611
100.6344, 1.959935
101.1165, 2.105446
101.5986, 2.215149
102.0807, 2.308624
102.5629, 2.476614
103.0450, 2.744988
103.5271, 3.035188
104.0092, 3.270046
104.4913, 3.426151
104.9734, 3.602060
105.4556, 3.845929
105.9377, 4.164520
106.4198, 4.354563
106.9019, 4.344087
107.3840, 4.255605
107.8661, 4.236924
108.3483, 4.312833
108.8304, 4.428329
109.3125, 4.578258
109.7946, 4.786136
110.2767, 4.968771
110.7588, 5.072257
111.2410, 5.157670
111.7231, 5.332499
112.2052, 5.705732
112.6873, 6.083528
113.1694, 6.399937
113.6515, 6.627294
114.1337, 6.835882
114.6158, 7.026756
115.0979, 7.203362
115.5800, 7.380055
116.0621, 7.581084
116.5442, 7.769707
117.0264, 7.921339
117.5085, 8.030649
117.9906, 8.106703
118.4727, 8.129787
118.9548, 8.109717
119.4369, 8.111886
119.9191, 8.164303
120.4012, 8.253800
120.8833, 8.366004
121.3654, 8.525000
121.8475, 8.684730
122.3296, 8.812762
122.8118, 8.908300
123.2939, 8.999191
123.7760, 9.150934
124.2581, 9.306263
124.7402, 9.372849
125.2223, 9.182496
125.7045, 8.935650
126.1866, 8.872219
126.6687, 9.025299
127.1508, 9.249423
127.6329, 9.404486
128.1150, 9.509923
128.5972, 9.635604
129.0793, 9.863691
129.5614, 10.13361
130.0435, 10.30743
130.5256, 10.35030
131.0077, 10.34272
131.4899, 10.40016
131.9720, 10.51904
132.4541, 10.64691
132.9362, 10.72247
133.4183, 10.73407
133.9004, 10.71531
134.3826, 10.65304
134.8647, 10.57056
135.3468, 10.52067
135.8289, 10.50266
136.3110, 10.51277
136.7931, 10.55680
137.2753, 10.63545
137.7574, 10.71397
138.2395, 10.80117
138.7216, 10.88429
139.2037, 10.87408
139.6858, 10.73761
140.1680, 10.59035
140.6501, 10.55947
141.1322, 10.67908
141.6143, 10.77719
142.0964, 10.80773
142.5785, 10.76810
143.0607, 10.75231
143.5428, 10.77409
144.0249, 10.80377
144.5070, 10.79464
144.9891, 10.70532
145.4712, 10.65912
145.9534, 10.70199
146.4355, 10.86325
146.9176, 10.99493
147.3997, 11.11108
147.8818, 11.19369
148.3639, 11.20602
148.8461, 11.06087
149.3282, 10.94718
149.8103, 10.93693
150.2924, 11.11230
150.7745, 11.22645
151.2566, 11.24878
151.7388, 11.20839
152.2209, 11.18109
152.7030, 11.13523
153.1851, 11.12633
153.6672, 11.17827
154.1493, 11.36160
154.6315, 11.51031
155.1136, 11.53192
155.5957, 11.30943
156.0778, 11.48292
156.5599, 11.56196
157.0420, 11.55163
157.5242, 11.18426
158.0063, 11.27794
158.4884, 11.18685
158.9705, 11.08818
159.4526, 11.18187
159.9347, 11.22513
160.4169, 11.28156
160.8990, 11.34898
161.3811, 11.42579
161.8632, 11.55523
162.3453, 11.65289
162.8274, 11.69841
163.3096, 11.69104
163.7917, 11.62389
164.2738, 11.40238
164.7559, 11.15474
165.2380, 11.00739
165.7201, 11.08589
166.2023, 11.20753
166.6844, 11.28160
167.1665, 11.30530
167.6486, 11.32281
168.1307, 11.33849
168.6128, 11.36657
169.0949, 11.42566
169.5771, 11.58290
170.0592, 11.73522
170.5413, 11.80287
171.0234, 11.77941
171.5055, 11.71675
171.9876, 11.63020
172.4698, 11.53051
172.9519, 11.43682
173.4340, 11.32587
173.9161, 11.24103
174.3982, 11.24873
174.8803, 11.36830
175.3625, 11.48434
175.8446, 11.48116
176.3267, 11.39344
176.8088, 11.30502
177.2909, 11.26997
177.7730, 11.25705
178.2552, 11.21402
178.7373, 11.12582
179.2194, 11.04399
179.7015, 11.03078
180.1836, 11.07331
180.6657, 11.12218
181.1479, 11.16362
181.6300, 11.19017
182.1121, 11.17422
182.5942, 11.09615
183.0763, 11.01918
183.5584, 11.05254
184.0406, 11.17881
184.5227, 11.27990
185.0048, 11.23678
185.4869, 11.10636
185.9690, 11.06827
186.4511, 11.17894
186.9333, 11.33742
187.4154, 11.36953
187.8975, 11.28111
188.3796, 11.16766
188.8617, 11.06843
189.3438, 10.99144
189.8260, 10.98433
190.3081, 11.07987
190.7902, 11.21712
191.2723, 11.26042
191.7544, 11.20765
192.2365, 11.13712
192.7187, 11.09315
193.2008, 11.07709
193.6829, 11.10650
194.1650, 11.20596
194.6471, 11.33727
195.1292, 11.39138
195.6114, 11.36487
196.0935, 11.30114
196.5756, 11.21079
197.0577, 11.09482
197.5398, 11.03926
198.0219, 11.07908
198.5041, 11.18308
198.9862, 11.22502
199.4683, 11.19266
199.9504, 11.15779
200.4325, 11.18874
200.9146, 11.28917
201.3968, 11.38780
201.8789, 11.48139
202.3610, 11.56099
202.8431, 11.57085
203.3252, 11.49574
203.8073, 11.40115
204.2895, 11.34338
204.7716, 11.32578
205.2537, 11.32475
205.7358, 11.34737
206.2179, 11.38553
206.7000, 11.36493
207.1822, 11.25786
207.6643, 11.16104
208.1464, 11.19319
208.6285, 11.39729
209.1106, 11.52268
209.5927, 11.49086
210.0749, 11.31947
210.5570, 11.21572
211.0391, 11.18595
211.5212, 11.21292
212.0033, 11.30161
212.4854, 11.48501
212.9676, 11.60826
213.4497, 11.62059
213.9318, 11.52768
214.4139, 11.47441
214.8960, 11.47397
215.3781, 11.49138
215.8603, 11.49621
216.3424, 11.49245
216.8245, 11.46087
217.3066, 11.37768
217.7887, 11.24397
218.2708, 11.19503
218.7529, 11.26354
219.2351, 11.37279
219.7172, 11.44104
220.1993, 11.45336
220.6814, 11.46485
221.1635, 11.48049
221.6456, 11.50013
222.1278, 11.56190
222.6099, 11.70315
223.0920, 11.84286
223.5741, 11.88755
224.0562, 11.79398
224.5383, 11.70686
225.0205, 11.66053
225.5026, 11.65679
225.9847, 11.62294
226.4668, 11.52566
226.9489, 11.43477
227.4310, 11.43311
227.9132, 11.57237
228.3953, 11.68994
228.8774, 11.73958
229.3595, 11.71820
229.8416, 11.75541
230.3237, 11.89325
230.8059, 12.04666
231.2880, 12.13061
231.7701, 12.12188
232.2522, 12.08887
232.7343, 12.03258
233.2164, 11.95051
233.6986, 11.90481
234.1807, 11.89369
234.6628, 11.92036
235.1449, 11.99759
235.6270, 12.16718
236.1091, 12.30291
236.5913, 12.38079
237.0734, 12.39946
237.5555, 12.38792
238.0376, 12.31154
238.5197, 12.24020
239.0018, 12.24545
239.4840, 12.36952
239.9661, 12.48970
240.4482, 12.57774
240.9303, 12.63421
241.4124, 12.73663
241.8945, 12.92740
242.3767, 13.11905
242.8588, 13.22381
243.3409, 13.17886
243.8230, 13.17010
244.3051, 13.24869
244.7872, 13.41035
245.2694, 13.49328
245.7515, 13.45126
246.2336, 13.38221
246.7157, 13.36760
247.1978, 13.43293
247.6799, 13.50406
248.1621, 13.58229
248.6442, 13.66448
249.1263, 13.68689
249.6084, 13.59537
250.0905, 13.51159
250.5726, 13.54309
251.0548, 13.77394
251.5369, 13.93330
252.0190, 13.93093
252.5011, 13.62823
252.9832, 13.91805
253.4653, 14.11343
253.9475, 14.21945
254.4296, 13.96842
254.9117, 14.17843
255.3938, 14.20368
255.8759, 14.22135
256.3580, 14.49625
256.8401, 14.49661
257.3223, 14.43764
257.8044, 14.35697
258.2865, 14.35475
258.7686, 14.48129
259.2507, 14.55082
259.7328, 14.52657
260.2150, 14.43367
260.6971, 14.37114
261.1792, 14.33762
261.6613, 14.33842
262.1434, 14.38041
262.6255, 14.47186
263.1077, 14.58348
263.5898, 14.73165
264.0719, 14.89301
264.5540, 14.98630
265.0361, 14.98834
265.5182, 14.97365
266.0004, 14.96323
266.4825, 14.92922
266.9646, 15.02091
267.4467, 15.30396
267.9288, 15.68286
268.4109, 15.88488
268.8931, 15.85726
269.3752, 15.80008
269.8573, 15.82040
270.3394, 15.94643
270.8215, 16.00562
271.3036, 15.97269
271.7858, 15.89206
272.2679, 15.85625
272.7500, 15.87168
273.2321, 15.90716
273.7142, 15.95768
274.1964, 16.02804
274.6785, 16.06595
275.1606, 16.05555
275.6427, 16.03503
276.1248, 16.07792
276.6069, 16.19894
277.0891, 16.31035
277.5712, 16.38280
278.0533, 16.41637
278.5354, 16.40484
279.0175, 16.33476
279.4996, 16.24852
279.9818, 16.21545
280.4639, 16.24314
280.9460, 16.25373
281.4281, 16.21302
281.9102, 16.12693
282.3923, 16.05506
282.8745, 15.99626
283.3566, 15.95515
283.8387, 15.95615
284.3208, 16.00117
284.8029, 16.00123
285.2850, 15.91132
285.7672, 15.75620
286.2493, 15.65541
286.7314, 15.61772
287.2135, 15.58306
287.6956, 15.47194
288.1777, 15.29166
288.6599, 15.16305
289.1420, 15.13791
289.6241, 15.17088
290.1062, 15.13205
290.5883, 15.01814
291.0704, 14.87665
291.5526, 14.73524
292.0347, 14.59522
292.5168, 14.46604
292.9989, 14.34169
293.4810, 14.23656
293.9631, 14.18538
294.4453, 14.18608
294.9274, 14.19809
295.4095, 14.20236
295.8916, 14.19544
296.3737, 14.16164
296.8558, 14.09003
297.3380, 14.00865
297.8201, 13.94129
298.3022, 13.89214
298.7843, 13.88861
299.2664, 13.99781
299.7485, 14.15966
300.2307, 14.23144
300.7128, 14.18419
301.1949, 14.10419
301.6770, 14.09040
302.1591, 14.12694
302.6412, 14.15991
303.1234, 14.15048
303.6055, 14.12495
304.0876, 14.12267
304.5697, 14.14814
305.0518, 14.18216
305.5339, 14.20767
306.0161, 14.22859
306.4982, 14.25252
306.9803, 14.28874
307.4624, 14.32613
307.9445, 14.34913
308.4266, 14.35706
308.9088, 14.36807
309.3909, 14.41198
309.8730, 14.46356
310.3551, 14.48691
310.8372, 14.42244
311.3193, 14.35940
311.8015, 14.36854
312.2836, 14.44442
312.7657, 14.53629
313.2478, 14.65185
313.7299, 14.75323
314.2120, 14.80065
314.6942, 14.73117
315.1763, 14.66595
315.6584, 14.68304
316.1405, 14.76284
316.6226, 14.82938
317.1047, 14.84522
317.5869, 14.83847
318.0690, 14.82670
318.5511, 14.80680
319.0332, 14.79424
319.5153, 14.79177
319.9974, 14.80071
320.4796, 14.82404
320.9617, 14.89247
321.4438, 14.95218
321.9259, 14.96559
322.4080, 14.89868
322.8901, 14.87564
323.3723, 14.96500
323.8544, 15.10524
324.3365, 15.20901
324.8186, 15.21986
325.3007, 15.22895
325.7828, 15.26735
326.2650, 15.34383
326.7471, 15.40787
327.2292, 15.46132
327.7113, 15.49763
328.1934, 15.51057
328.6755, 15.44694
329.1577, 15.41717
329.6398, 15.45318
330.1219, 15.55456
330.6040, 15.62712
331.0861, 15.63944
331.5682, 15.64694
332.0504, 15.68675
332.5325, 15.78130
333.0146, 15.87099
333.4967, 15.94750
333.9788, 16.01550
334.4609, 16.09745
334.9431, 16.21015
335.4252, 16.31425
335.9073, 16.39085
336.3894, 16.44246
336.8715, 16.46021
337.3536, 16.43491
337.8358, 16.38241
338.3179, 16.32562
338.8000, 16.24860
339.2821, 16.21422
339.7642, 16.26780
340.2463, 16.42302
340.7284, 16.50451
341.2105, 16.48256
341.6927, 16.43950
342.1748, 16.50089
342.6569, 16.68250
343.1390, 16.83695
343.6211, 16.91679
344.1032, 16.92978
344.5854, 16.89472
345.0675, 16.79572
345.5496, 16.73510
346.0317, 16.86229
346.5138, 17.15582
346.9959, 17.34889
347.4781, 17.35631
347.9602, 17.25788
348.4423, 17.23688
348.9244, 17.29076
349.4065, 17.34088
349.8886, 17.31222
350.3708, 17.23527
350.8529, 17.20310
351.3350, 17.23672
351.8171, 17.29493
352.2992, 17.32860
352.7813, 17.34166
353.2635, 17.34933
353.7456, 17.37329
354.2277, 17.39183
354.7098, 17.36406
355.1919, 17.28355
355.6740, 17.20082
356.1562, 17.15546
356.6383, 17.13928
357.1204, 17.13702
357.6025, 17.15759
358.0846, 17.17843
358.5667, 17.17951
359.0489, 17.16188
359.5310, 17.14142
360.0131, 17.12076
360.4952, 17.10477
360.9773, 17.10316
361.4594, 17.17631
361.9416, 17.19136
362.4237, 17.05065
362.9058, 16.79571
363.3879, 16.55746
363.8700, 16.34573
364.3521, 16.19134
364.8343, 16.13163
365.3164, 16.23351
365.7985, 16.27983
366.2806, 16.17470
366.7627, 15.99165
367.2448, 15.84987
367.7270, 15.80676
368.2091, 15.76982
368.6912, 15.71437
369.1733, 15.63854
369.6554, 15.55197
370.1375, 15.45584
370.6197, 15.34875
371.1018, 15.22652
371.5839, 15.05721
372.0660, 14.91716
372.5481, 14.83052
373.0302, 14.78812
373.5124, 14.71625
373.9945, 14.59135
374.4766, 14.46773
374.9587, 14.37804
375.4408, 14.33582
375.9229, 14.28882
376.4051, 14.23628
376.8872, 14.17635
377.3693, 14.09588
377.8514, 13.98151
378.3335, 13.89518
378.8156, 13.88131
379.2978, 13.94166
379.7799, 13.95305
380.2620, 13.91687
380.7441, 13.82867
381.2262, 13.64268
381.7083, 13.36486
382.1905, 13.16111
382.6726, 13.09123
383.1547, 13.12571
383.6368, 13.21345
384.1189, 13.35600
384.6010, 13.47269
385.0832, 13.47977
385.5653, 13.40854
386.0474, 13.34551
386.5295, 13.30695
387.0116, 13.28127
387.4937, 13.24494
387.9759, 13.20613
388.4580, 13.19399
388.9401, 13.28085
389.4222, 13.37710
389.9043, 13.36695
390.3864, 13.23462
390.8686, 13.06783
391.3507, 12.90486
391.8328, 12.75415
392.3149, 12.63023
392.7970, 12.52646
393.2791, 12.46293
393.7613, 12.47858
394.2434, 12.56100
394.7255, 12.61547
395.2076, 12.61164
395.6897, 12.55876
396.1718, 12.45611
396.6540, 12.23753
397.1361, 12.07225
397.6182, 12.03363
398.1003, 12.07656
398.5824, 12.09870
399.0645, 12.08994
399.5467, 12.05202
400.0288, 11.97041
400.5109, 11.81260
400.9930, 11.72196
401.4751, 11.74956
401.9572, 11.81417
402.4394, 11.83123
402.9215, 11.75938
403.4036, 11.71033
403.8857, 11.72101
404.3678, 11.77897
404.8499, 11.76001
405.3321, 11.62485
405.8142, 11.48579
406.2963, 11.41159
406.7784, 11.40595
407.2605, 11.45236
407.7426, 11.57481
408.2248, 11.71672
408.7069, 11.77144
409.1890, 11.73537
409.6711, 11.64371
410.1532, 11.45408
410.6353, 11.20590
411.1175, 11.16178
411.5996, 11.34604
412.0817, 11.55223
412.5638, 11.52222
413.0459, 11.32424
413.5280, 11.21397
414.0102, 11.12223
414.4923, 11.32324
414.9744, 11.43103
415.4565, 11.45066
415.9386, 11.11448
416.4207, 11.24055
416.9029, 11.18307
417.3850, 11.11924
417.8671, 11.31385
418.3492, 11.03568
418.8313, 11.22865
419.3134, 11.23525
419.7956, 11.32892
420.2777, 11.23791
420.7598, 11.20553
421.2419, 11.36033
421.7240, 11.41338
422.2061, 11.30584
422.6883, 11.41227
423.1704, 11.13978
423.6525, 11.20209
424.1346, 11.40954
424.6167, 11.31742
425.0988, 11.43334
425.5810, 11.47171
426.0631, 11.15334
426.5452, 11.45871
427.0273, 11.49608
427.5094, 11.25823
427.9915, 11.54592
428.4737, 11.34862
428.9558, 11.32609
429.4379, 11.43537
429.9200, 11.40972
430.4021, 11.59995
430.8842, 11.58460
431.3664, 11.55199
431.8485, 11.60123
432.3306, 11.42320
432.8127, 11.67027
433.2948, 11.62901
433.7769, 11.73290
434.2591, 11.87064
434.7412, 11.75978
435.2233, 11.91460
435.7054, 11.66053
436.1875, 11.75083
436.6696, 11.80540
437.1518, 12.08053
437.6339, 11.83332
438.1160, 11.91896
438.5981, 12.14701
439.0802, 12.17871
439.5623, 12.29423
440.0444, 12.16642
440.5266, 12.26958
441.0087, 12.31061
441.4908, 12.57168
441.9729, 12.66122
442.4550, 12.54365
442.9371, 12.42818
443.4193, 12.70988
443.9014, 12.61751
444.3835, 12.72881
444.8656, 12.63223
445.3477, 12.71741
445.8298, 12.80094
446.3120, 12.97826
446.7941, 12.87614
447.2762, 13.13927
447.7583, 13.19322
448.2404, 13.31036
448.7225, 13.42182
449.2047, 13.25219
449.6868, 13.31520
450.1689, 13.71060
450.6510, 13.60216
451.1331, 13.70366
451.6152, 13.87695
452.0974, 14.05671
452.5795, 14.26109
453.0616, 14.44624
453.5437, 14.55903
454.0258, 14.58601
454.5079, 14.61959
454.9901, 14.65890
455.4722, 14.72995
455.9543, 14.95523
456.4364, 15.34100
456.9185, 15.68081
457.4006, 15.78489
457.8828, 15.73662
458.3649, 15.83508
458.8470, 16.11595
459.3291, 16.43006
459.8112, 16.60757
460.2933, 16.69332
460.7755, 16.78763
461.2576, 16.92404
461.7397, 17.08940
462.2218, 17.28621
462.7039, 17.50848
463.1860, 17.71793
463.6682, 17.87443
464.1503, 18.02596
464.6324, 18.21834
465.1145, 18.48602
465.5966, 18.71516
466.0787, 18.89437
466.5609, 19.00571
467.0430, 19.02275
467.5251, 18.78057
468.0072, 18.61160
468.4893, 18.64939
468.9714, 18.87683
469.4536, 18.98029
469.9357, 18.89928
470.4178, 18.75887
470.8999, 18.62102
471.3820, 18.48504
471.8641, 18.35451
472.3463, 18.23322
472.8284, 18.11380
473.3105, 17.98465
473.7926, 17.84869
474.2747, 17.68827
474.7568, 17.49327
475.2390, 17.27036
475.7211, 17.03639
476.2032, 16.78806
476.6853, 16.56517
477.1674, 16.39942
477.6495, 16.28141
478.1317, 16.19277
478.6138, 16.14018
479.0959, 16.08002
479.5780, 15.96644
480.0601, 15.80744
480.5422, 15.62453
481.0244, 15.36117
481.5065, 15.12515
481.9886, 15.01614
482.4707, 15.02399
482.9528, 15.05972
483.4349, 15.15507
483.9171, 15.21451
484.3992, 15.15438
484.8813, 14.89378
485.3634, 14.66007
485.8455, 14.50626
486.3276, 14.41075
486.8098, 14.34276
487.2919, 14.33477
487.7740, 14.31519
488.2561, 14.27012
488.7382, 14.20047
489.2203, 14.12434
489.7025, 14.02727
490.1846, 13.94728
490.6667, 13.91279
491.1488, 13.93389
491.6309, 13.95220
492.1130, 13.97065
492.5952, 13.97696
493.0773, 13.93302
493.5594, 13.83951
494.0415, 13.79538
494.5236, 13.85759
495.0057, 13.97674
495.4879, 14.03277
495.9700, 14.02933
496.4521, 14.02216
496.9342, 14.07763
497.4163, 14.14660
497.8984, 14.14621
498.3806, 14.05616
498.8627, 13.94396
499.3448, 13.82235
499.8269, 13.71944
500.3090, 13.67617
500.7911, 13.75155
501.2733, 13.84672
501.7554, 13.95295
502.2375, 14.05559
502.7196, 14.08206
503.2017, 13.94256
503.6838, 13.78117
504.1660, 13.66131
504.6481, 13.57211
505.1302, 13.56236
505.6123, 13.71768
506.0944, 13.88956
506.5765, 13.89230
507.0587, 13.63085
507.5408, 13.45524
508.0229, 13.46033
508.5050, 13.57825
508.9871, 13.54729
509.4692, 13.34305
509.9514, 13.15906
510.4335, 13.12212
510.9156, 13.20425
511.3977, 13.25105
511.8798, 13.25805
512.3619, 13.24483
512.8441, 13.22389
513.3262, 13.19808
513.8083, 13.17892
514.2904, 13.18827
514.7725, 13.17276
515.2546, 13.02250
515.7368, 12.80300
516.2189, 12.67981
516.7010, 12.84023
517.1831, 13.03157
517.6652, 13.10581
518.1473, 13.04969
518.6295, 12.96605
519.1116, 12.83597
519.5937, 12.71754
520.0758, 12.65337
520.5579, 12.70470
521.0400, 12.73391
521.5222, 12.73345
522.0043, 12.71429
522.4864, 12.70220
522.9685, 12.72133
523.4506, 12.68688
523.9327, 12.54404
524.4149, 12.31973
524.8970, 12.23617
525.3791, 12.31585
525.8612, 12.42157
526.3433, 12.45147
526.8254, 12.41831
527.3076, 12.38455
527.7897, 12.35007
528.2718, 12.34350
528.7539, 12.44579
529.2360, 12.60189
529.7181, 12.67795
530.2003, 12.54862
530.6824, 12.39692
531.1645, 12.39187
531.6466, 12.50291
532.1287, 12.61688
532.6108, 12.70078
533.0930, 12.75668
533.5751, 12.78374
534.0572, 12.77871
534.5393, 12.76136
535.0214, 12.70647
535.5035, 12.65721
535.9857, 12.65649
536.4678, 12.79618
536.9499, 12.83286
537.4320, 12.68698
537.9141, 12.45483
538.3962, 12.38358
538.8784, 12.52120
539.3605, 12.66782
539.8426, 12.76182
540.3247, 12.80565
540.8068, 12.79492
541.2889, 12.72564
541.7711, 12.64543
542.2532, 12.55574
542.7353, 12.48566
543.2174, 12.55397
543.6995, 12.80647
544.1816, 13.05503
544.6638, 13.09022
545.1459, 12.98960
545.6280, 12.89383
546.1101, 12.85769
546.5922, 12.84470
547.0743, 12.85423
547.5565, 12.87434
548.0386, 12.86016
548.5207, 12.73543
549.0028, 12.62456
549.4849, 12.58951
549.9670, 12.65149
550.4492, 12.72101
550.9313, 12.79997
551.4134, 12.88147
551.8955, 12.96645
552.3776, 13.06916
552.8597, 13.13258
553.3419, 13.14385
553.8240, 13.12212
554.3061, 13.09950
554.7882, 13.07520
555.2703, 13.06614
555.7524, 13.09554
556.2346, 13.13782
556.7167, 13.13262
557.1988, 13.07992
557.6809, 12.97864
558.1630, 12.75020
558.6451, 12.50185
559.1273, 12.40392
559.6094, 12.49358
560.0915, 12.61603
560.5736, 12.72372
561.0557, 12.78939
561.5378, 12.78159
562.0200, 12.59604
562.5021, 12.44163
562.9842, 12.40101
563.4663, 12.43350
563.9484, 12.41543
564.4305, 12.28941
564.9127, 12.17752
565.3948, 12.12826
565.8769, 12.14346
566.3590, 12.08599
566.8411, 11.92748
567.3232, 11.75912
567.8054, 11.63766
568.2875, 11.56279
568.7696, 11.53156
569.2517, 11.55529
569.7338, 11.57906
570.2159, 11.51818
570.6981, 11.39665
571.1802, 11.29064
571.6623, 11.23276
572.1444, 11.19133
572.6265, 11.13681
573.1086, 11.07081
573.5908, 10.99814
574.0729, 10.86572
574.5550, 10.77128
575.0371, 10.82089
575.5192, 11.02815
576.0013, 11.12318
576.4835, 10.92017
576.9656, 10.67042
577.4477, 10.53439
577.9298, 10.57405
578.4119, 10.61700
578.8940, 10.67570
579.3762, 10.72548
579.8583, 10.72011
580.3404, 10.64301
580.8225, 10.60036
581.3046, 10.62745
581.7867, 10.69323
582.2689, 10.71821
582.7510, 10.70391
583.2331, 10.67640
583.7152, 10.65119
584.1973, 10.62161
584.6794, 10.55880
585.1616, 10.46547
585.6437, 10.41103
586.1258, 10.45692
586.6079, 10.55764
587.0900, 10.68037
587.5721, 10.84368
588.0542, 10.96398
588.5363, 11.00835
