##NAMES=Titanite
##RRUFFID=R100136
##IDEAL CHEMISTRY=CaTi^4+^SiO_5_
##LOCALITY=Baja California, Mexico
##OWNER=RRUFF
##SOURCE=William W. Pinch
##DESCRIPTION=Yellow cut gemstone, full of inclusions
##STATUS=The identification of this mineral has been confirmed by single-crystal X-ray diffraction.
##URL=rruff.info/R100136
91.03516, 179.8420
91.51727, 178.1015
91.99939, 179.6122
92.48151, 183.3572
92.96362, 186.4563
93.44574, 186.8820
93.92786, 185.6832
94.40997, 185.1996
94.89210, 185.7555
95.37421, 186.5345
95.85633, 185.9116
96.33845, 183.9742
96.82056, 182.6232
97.30268, 183.6279
97.78480, 186.7001
98.26691, 188.9401
98.74903, 189.8965
99.23115, 189.8549
99.71326, 189.3295
100.1954, 188.1149
100.6775, 187.2204
101.1596, 187.6031
101.6417, 189.5221
102.1239, 191.4384
102.6060, 192.9931
103.0881, 194.2462
103.5702, 196.1338
104.0523, 199.2712
104.5344, 202.3145
105.0166, 203.7034
105.4987, 202.2423
105.9808, 201.2542
106.4629, 201.7484
106.9450, 204.2908
107.4271, 205.7225
107.9093, 205.2392
108.3914, 203.9368
108.8735, 203.4556
109.3556, 204.5670
109.8377, 205.7914
110.3198, 206.6575
110.8020, 206.5756
111.2841, 207.2581
111.7662, 209.2082
112.2483, 211.9721
112.7304, 214.5469
113.2125, 217.5152
113.6947, 219.8005
114.1768, 220.7968
114.6589, 219.1340
115.1410, 217.9291
115.6231, 218.0805
116.1052, 219.3273
116.5874, 220.6931
117.0695, 222.0455
117.5516, 223.2835
118.0337, 224.3153
118.5158, 225.0242
118.9980, 225.6133
119.4801, 225.8631
119.9622, 225.8557
120.4443, 226.5271
120.9264, 228.8294
121.4085, 232.0004
121.8907, 235.1146
122.3728, 237.7914
122.8549, 240.2457
123.3370, 242.3006
123.8191, 243.9056
124.3012, 246.2157
124.7834, 249.8349
125.2655, 254.8307
125.7476, 261.3784
126.2297, 269.6002
126.7118, 279.3510
127.1939, 289.8455
127.6761, 300.6735
128.1582, 314.0568
128.6403, 333.1227
129.1224, 357.2771
129.6045, 383.6531
130.0867, 409.3515
130.5688, 436.0685
131.0509, 467.9759
131.5330, 505.9182
132.0151, 549.0112
132.4972, 595.3469
132.9794, 644.9221
133.4615, 700.0441
133.9436, 760.1770
134.4257, 826.1813
134.9078, 901.6525
135.3899, 987.1514
135.8721, 1082.888
136.3542, 1190.139
136.8363, 1307.595
137.3184, 1443.052
137.8005, 1598.105
138.2826, 1772.707
138.7648, 1979.587
139.2469, 2224.658
139.7290, 2506.214
140.2111, 2794.434
140.6932, 3091.203
141.1753, 3395.913
141.6575, 3709.179
142.1396, 4045.436
142.6217, 4359.837
143.1038, 4643.688
143.5859, 4899.299
144.0681, 5126.742
144.5502, 5334.002
145.0323, 5507.926
145.5144, 5634.415
145.9965, 5695.529
146.4786, 5734.490
146.9608, 5752.799
147.4429, 5739.384
147.9250, 5753.389
148.4071, 5788.813
148.8892, 5853.948
149.3713, 5959.461
149.8535, 6103.841
150.3356, 6291.820
150.8177, 6526.011
151.2998, 6811.831
151.7819, 7132.214
152.2640, 7493.651
152.7462, 7890.281
153.2283, 8304.809
153.7104, 8745.567
154.1925, 9196.857
154.6746, 9653.932
155.1567, 10122.63
155.6389, 10575.28
156.1210, 11022.13
156.6031, 11453.25
157.0852, 11849.47
157.5673, 12205.82
158.0495, 12525.75
158.5316, 12814.04
159.0137, 13066.96
159.4958, 13290.83
159.9779, 13481.39
160.4600, 13643.98
160.9422, 13796.13
161.4243, 13940.91
161.9064, 14078.79
162.3885, 14209.49
162.8706, 14334.10
163.3527, 14452.27
163.8349, 14571.59
164.3170, 14688.28
164.7991, 14784.30
165.2812, 14848.02
165.7633, 14888.60
166.2454, 14914.26
166.7276, 14928.23
167.2097, 14927.26
167.6918, 14905.89
168.1739, 14865.70
168.6560, 14818.58
169.1381, 14770.66
169.6203, 14639.59
170.1024, 14552.23
170.5845, 14332.56
171.0666, 14118.64
171.5487, 13919.75
172.0309, 13736.16
172.5130, 13564.56
172.9951, 13402.25
173.4772, 13250.38
173.9593, 13110.29
174.4414, 12982.32
174.9236, 12866.49
175.4057, 12765.50
175.8878, 12678.01
176.3699, 12601.95
176.8520, 12535.31
177.3341, 12477.35
177.8163, 12426.83
178.2984, 12385.99
178.7805, 12351.15
179.2626, 12315.69
179.7447, 12279.48
180.2268, 12248.00
180.7090, 12223.96
181.1911, 12208.66
181.6732, 12207.18
182.1553, 12231.28
182.6374, 12269.49
183.1195, 12296.80
183.6017, 12312.22
184.0838, 12321.43
184.5659, 12331.10
185.0480, 12340.64
185.5301, 12347.51
186.0123, 12353.25
186.4944, 12355.51
186.9765, 12345.13
187.4586, 12320.08
187.9407, 12288.16
188.4228, 12256.29
188.9050, 12225.04
189.3871, 12200.76
189.8692, 12187.36
190.3513, 12183.94
190.8334, 12185.45
191.3155, 12190.58
191.7977, 12203.43
192.2798, 12233.46
192.7619, 12280.67
193.2440, 12331.19
193.7261, 12375.78
194.2082, 12415.76
194.6904, 12468.30
195.1725, 12535.71
195.6546, 12613.42
196.1367, 12689.42
196.6188, 12763.43
197.1009, 12843.85
197.5831, 12937.11
198.0652, 13043.90
198.5473, 13147.80
199.0294, 13245.75
199.5115, 13343.15
199.9937, 13453.04
200.4758, 13575.43
200.9579, 13700.00
201.4400, 13819.15
201.9221, 13932.18
202.4042, 14048.03
202.8864, 14168.35
203.3685, 14290.30
203.8506, 14408.37
204.3327, 14521.59
204.8148, 14630.08
205.2969, 14733.87
205.7791, 14833.08
206.2612, 14926.93
206.7433, 15016.37
207.2254, 15099.71
207.7075, 15171.94
208.1896, 15232.00
208.6718, 15284.77
209.1539, 15333.34
209.6360, 15377.38
210.1181, 15417.23
210.6002, 15452.72
211.0823, 15484.53
211.5645, 15513.60
212.0466, 15538.90
212.5287, 15565.11
213.0108, 15593.83
213.4929, 15624.12
213.9750, 15661.67
214.4572, 15706.29
214.9393, 15758.55
215.4214, 15821.45
215.9035, 15895.48
216.3856, 15979.66
216.8678, 16071.94
217.3499, 16173.64
217.8320, 16281.50
218.3141, 16393.79
218.7962, 16511.18
219.2783, 16635.05
219.7605, 16762.76
220.2426, 16898.71
220.7247, 17044.68
221.2068, 17202.22
221.6889, 17363.46
222.1710, 17527.31
222.6532, 17694.52
223.1353, 17861.65
223.6174, 18030.42
224.0995, 18199.89
224.5816, 18369.26
225.0637, 18539.85
225.5459, 18711.71
226.0280, 18882.52
226.5101, 19055.89
226.9922, 19237.78
227.4743, 19435.62
227.9564, 19632.75
228.4386, 19822.96
228.9207, 19996.32
229.4028, 20178.68
229.8849, 20376.70
230.3670, 20582.45
230.8492, 20780.35
231.3313, 20967.11
231.8134, 21147.93
232.2955, 21329.48
232.7776, 21517.46
233.2597, 21688.64
233.7419, 21852.20
234.2240, 21997.52
234.7061, 22089.81
235.1882, 22112.70
235.6703, 22108.81
236.1524, 22095.07
236.6346, 22071.22
237.1167, 22035.94
237.5988, 21973.04
238.0809, 21904.26
238.5630, 21878.38
239.0451, 21895.34
239.5273, 21955.30
240.0094, 22059.44
240.4915, 22213.09
240.9736, 22397.04
241.4557, 22612.23
241.9378, 22857.42
242.4200, 23130.66
242.9021, 23442.06
243.3842, 23770.07
243.8663, 24109.21
244.3484, 24464.10
244.8306, 24818.79
245.3127, 25178.37
245.7948, 25532.04
246.2769, 25859.88
246.7590, 26162.73
247.2411, 26433.20
247.7233, 26672.08
248.2054, 26887.05
248.6875, 27043.45
249.1696, 27136.78
249.6517, 27174.15
250.1338, 27166.11
250.6160, 27116.02
251.0981, 27014.61
251.5802, 26858.28
252.0623, 26643.30
252.5444, 26388.85
253.0265, 26092.59
253.5087, 25760.80
253.9908, 25407.64
254.4729, 25029.33
254.9550, 24633.38
255.4371, 24219.50
255.9192, 23790.95
256.4014, 23348.26
256.8835, 22885.97
257.3656, 22414.77
257.8477, 21932.74
258.3298, 21433.30
258.8120, 20934.64
259.2941, 20437.93
259.7762, 19941.09
260.2583, 19444.35
260.7404, 18939.26
261.2225, 18438.36
261.7047, 17938.72
262.1868, 17431.00
262.6689, 16945.25
263.1510, 16485.53
263.6331, 16055.01
264.1152, 15626.48
264.5974, 15198.36
265.0795, 14778.79
265.5616, 14388.50
266.0437, 14026.37
266.5258, 13677.83
267.0079, 13341.04
267.4901, 13013.97
267.9722, 12706.01
268.4543, 12416.83
268.9364, 12141.56
269.4185, 11874.00
269.9006, 11611.96
270.3828, 11368.45
270.8649, 11143.22
271.3470, 10936.75
271.8291, 10749.05
272.3112, 10580.85
272.7933, 10423.08
273.2755, 10269.19
273.7576, 10117.30
274.2397, 9978.689
274.7218, 9856.377
275.2039, 9748.104
275.6860, 9647.639
276.1682, 9553.730
276.6503, 9468.828
277.1324, 9394.145
277.6145, 9330.547
278.0966, 9276.241
278.5787, 9231.894
279.0609, 9196.563
279.5430, 9166.547
280.0251, 9141.512
280.5072, 9126.605
280.9893, 9127.261
281.4715, 9143.487
281.9536, 9159.652
282.4357, 9173.236
282.9178, 9190.105
283.3999, 9219.065
283.8820, 9259.963
284.3642, 9312.876
284.8463, 9379.875
285.3284, 9460.312
285.8105, 9544.361
286.2926, 9631.993
286.7747, 9723.497
287.2569, 9822.391
287.7390, 9928.095
288.2211, 10029.08
288.7032, 10122.96
289.1853, 10208.50
289.6674, 10282.73
290.1496, 10346.38
290.6317, 10397.44
291.1138, 10432.99
291.5959, 10453.76
292.0780, 10462.70
292.5602, 10456.19
293.0423, 10440.64
293.5244, 10430.01
294.0065, 10424.35
294.4886, 10426.50
294.9707, 10433.33
295.4529, 10448.90
295.9350, 10486.21
296.4171, 10545.07
296.8992, 10631.42
297.3813, 10758.02
297.8634, 10922.94
298.3456, 11113.74
298.8277, 11322.79
299.3098, 11548.94
299.7919, 11789.40
300.2740, 12042.10
300.7561, 12308.73
301.2383, 12587.52
301.7204, 12879.47
302.2025, 13170.62
302.6846, 13459.60
303.1667, 13742.25
303.6488, 14019.90
304.1310, 14291.94
304.6131, 14552.98
305.0952, 14795.20
305.5773, 15019.27
306.0594, 15226.07
306.5415, 15417.48
307.0237, 15592.58
307.5058, 15751.38
307.9879, 15891.74
308.4700, 16023.09
308.9521, 16146.71
309.4343, 16267.27
309.9164, 16395.59
310.3985, 16532.04
310.8806, 16682.21
311.3627, 16847.63
311.8448, 17029.72
312.3270, 17234.52
312.8091, 17470.34
313.2912, 17729.74
313.7733, 18003.93
314.2554, 18310.49
314.7375, 18613.25
315.2197, 18908.11
315.7018, 19192.71
316.1839, 19426.84
316.6660, 19603.27
317.1481, 19717.06
317.6302, 19763.23
318.1124, 19748.56
318.5945, 19658.72
319.0766, 19476.01
319.5587, 19210.88
320.0408, 18898.44
320.5229, 18519.60
321.0051, 18117.56
321.4872, 17710.81
321.9693, 17290.73
322.4514, 16896.42
322.9335, 16531.47
323.4156, 16198.10
323.8978, 15900.61
324.3799, 15641.53
324.8620, 15416.86
325.3441, 15223.65
325.8262, 15061.55
326.3083, 14937.74
326.7905, 14867.39
327.2726, 14830.69
327.7547, 14804.03
328.2368, 14780.40
328.7189, 14772.80
329.2010, 14787.89
329.6832, 14827.72
330.1653, 14865.99
330.6474, 14903.66
331.1295, 14939.09
331.6116, 14972.12
332.0938, 15009.62
332.5759, 15033.95
333.0580, 15043.98
333.5401, 15039.36
334.0222, 15017.75
334.5043, 14980.40
334.9865, 14924.14
335.4686, 14846.47
335.9507, 14745.54
336.4328, 14626.66
336.9149, 14487.57
337.3970, 14329.90
337.8792, 14162.95
338.3613, 13982.81
338.8434, 13798.08
339.3255, 13609.99
339.8076, 13417.12
340.2898, 13226.18
340.7719, 13033.68
341.2540, 12846.62
341.7361, 12670.15
342.2182, 12507.36
342.7003, 12354.64
343.1825, 12210.82
343.6646, 12076.14
344.1467, 11961.27
344.6288, 11865.33
345.1109, 11788.26
345.5930, 11728.50
346.0752, 11686.78
346.5573, 11663.17
347.0394, 11659.62
347.5215, 11672.00
348.0036, 11695.00
348.4857, 11728.22
348.9679, 11762.17
349.4500, 11795.65
349.9321, 11824.92
350.4142, 11842.06
350.8963, 11849.90
351.3784, 11835.80
351.8606, 11786.30
352.3427, 11702.04
352.8248, 11582.92
353.3069, 11423.41
353.7890, 11232.35
354.2711, 11014.67
354.7533, 10770.14
355.2354, 10513.84
355.7175, 10253.25
356.1996, 9992.765
356.6817, 9739.979
357.1638, 9488.080
357.6460, 9252.639
358.1281, 9045.996
358.6102, 8867.744
359.0923, 8700.260
359.5744, 8534.960
360.0565, 8376.949
360.5387, 8231.418
361.0208, 8103.877
361.5029, 7983.475
361.9850, 7866.342
362.4671, 7753.171
362.9492, 7647.760
363.4314, 7557.827
363.9135, 7471.381
364.3956, 7381.383
364.8777, 7283.763
365.3598, 7189.227
365.8419, 7100.553
366.3241, 7016.223
366.8062, 6934.542
367.2883, 6856.732
367.7704, 6780.099
368.2526, 6703.340
368.7347, 6625.486
369.2168, 6551.639
369.6989, 6483.419
370.1810, 6417.849
370.6631, 6351.531
371.1453, 6280.538
371.6274, 6214.552
372.1095, 6155.181
372.5916, 6101.466
373.0737, 6048.994
373.5558, 5996.696
374.0380, 5946.525
374.5201, 5898.271
375.0022, 5850.940
375.4843, 5810.631
375.9664, 5778.860
376.4485, 5753.074
376.9307, 5726.789
377.4128, 5698.987
377.8949, 5675.903
378.3770, 5660.604
378.8591, 5652.886
379.3412, 5648.089
379.8234, 5645.902
380.3055, 5647.842
380.7876, 5656.482
381.2697, 5671.656
381.7518, 5688.487
382.2339, 5704.094
382.7161, 5721.743
383.1982, 5750.562
383.6803, 5790.101
384.1624, 5834.226
384.6445, 5878.440
385.1266, 5923.448
385.6088, 5971.713
386.0909, 6024.365
386.5730, 6077.560
387.0551, 6127.179
387.5372, 6173.063
388.0193, 6215.646
388.5015, 6257.685
388.9836, 6294.632
389.4657, 6321.651
389.9478, 6338.417
390.4299, 6346.841
390.9120, 6345.758
391.3942, 6337.852
391.8763, 6326.410
392.3584, 6311.959
392.8405, 6294.842
393.3226, 6275.136
393.8047, 6252.894
394.2869, 6228.315
394.7690, 6199.724
395.2511, 6170.044
395.7332, 6140.685
396.2154, 6110.482
396.6975, 6083.700
397.1796, 6062.097
397.6617, 6044.109
398.1438, 6027.179
398.6259, 6011.061
399.1081, 5995.646
399.5902, 5980.688
400.0723, 5965.950
400.5544, 5952.646
401.0365, 5938.023
401.5186, 5926.708
402.0008, 5923.296
402.4829, 5933.789
402.9650, 5940.216
403.4471, 5937.932
403.9292, 5930.068
404.4113, 5930.081
404.8935, 5939.634
405.3756, 5953.146
405.8577, 5967.292
406.3398, 5981.266
406.8219, 6001.153
407.3040, 6027.295
407.7862, 6059.114
408.2683, 6095.943
408.7504, 6137.802
409.2325, 6186.099
409.7146, 6241.508
410.1967, 6303.483
410.6789, 6373.358
411.1610, 6451.180
411.6431, 6537.904
412.1252, 6633.925
412.6073, 6738.954
413.0894, 6851.875
413.5716, 6970.047
414.0537, 7095.875
414.5358, 7230.438
415.0179, 7373.304
415.5000, 7527.958
415.9821, 7697.254
416.4643, 7876.557
416.9464, 8061.757
417.4285, 8251.660
417.9106, 8445.971
418.3927, 8648.208
418.8748, 8853.828
419.3570, 9053.786
419.8391, 9253.187
420.3212, 9440.657
420.8033, 9619.891
421.2854, 9786.738
421.7675, 9925.989
422.2497, 10038.35
422.7318, 10118.42
423.2139, 10162.63
423.6960, 10171.43
424.1781, 10143.38
424.6602, 10075.66
425.1424, 9971.331
425.6245, 9834.642
426.1066, 9652.589
426.5887, 9457.743
427.0709, 9255.824
427.5530, 9046.763
428.0351, 8834.565
428.5172, 8613.026
428.9993, 8393.283
429.4814, 8181.125
429.9636, 7974.786
430.4457, 7782.563
430.9278, 7605.320
431.4099, 7442.302
431.8920, 7291.556
432.3741, 7151.244
432.8563, 7027.310
433.3384, 6923.519
433.8205, 6838.389
434.3026, 6766.680
434.7847, 6708.711
435.2668, 6658.523
435.7490, 6607.694
436.2311, 6558.809
436.7132, 6523.315
437.1953, 6506.275
437.6774, 6500.959
438.1595, 6499.931
438.6417, 6502.995
439.1238, 6509.314
439.6059, 6517.092
440.0880, 6528.569
440.5701, 6547.292
441.0522, 6574.576
441.5344, 6603.317
442.0165, 6627.944
442.4986, 6651.835
442.9807, 6679.000
443.4628, 6709.919
443.9449, 6745.168
444.4271, 6784.576
444.9092, 6828.305
445.3913, 6877.763
445.8734, 6932.804
446.3555, 6992.825
446.8376, 7057.905
447.3198, 7131.467
447.8019, 7203.366
448.2840, 7269.635
448.7661, 7335.048
449.2482, 7406.008
449.7303, 7482.533
450.2125, 7563.380
450.6946, 7647.761
451.1767, 7736.462
451.6588, 7834.929
452.1409, 7945.474
452.6230, 8062.241
453.1052, 8179.407
453.5873, 8297.580
454.0694, 8421.559
454.5515, 8551.054
455.0337, 8687.265
455.5158, 8830.793
455.9979, 8982.410
456.4800, 9134.954
456.9621, 9283.845
457.4442, 9433.485
457.9264, 9594.979
458.4085, 9767.553
458.8906, 9951.294
459.3727, 10145.19
459.8548, 10349.32
460.3369, 10559.01
460.8191, 10774.09
461.3012, 10998.82
461.7833, 11241.09
462.2654, 11496.10
462.7475, 11752.64
463.2296, 12013.03
463.7118, 12271.16
464.1939, 12529.17
464.6760, 12789.57
465.1581, 13027.42
465.6402, 13240.96
466.1223, 13423.56
466.6045, 13567.34
467.0866, 13680.61
467.5687, 13742.53
468.0508, 13755.64
468.5329, 13716.78
469.0150, 13617.35
469.4972, 13455.30
469.9793, 13238.19
470.4614, 12965.12
470.9435, 12634.86
471.4256, 12273.27
471.9077, 11874.67
472.3899, 11456.64
472.8720, 11028.82
473.3541, 10583.31
473.8362, 10160.26
474.3183, 9762.697
474.8004, 9387.991
475.2826, 9028.960
475.7647, 8686.212
476.2468, 8369.144
476.7289, 8084.210
477.2110, 7826.858
477.6931, 7592.217
478.1753, 7379.048
478.6574, 7187.131
479.1395, 7018.390
479.6216, 6870.173
480.1037, 6739.158
480.5858, 6625.923
481.0680, 6526.300
481.5501, 6438.593
482.0322, 6362.049
482.5143, 6295.989
482.9964, 6242.048
483.4786, 6196.995
483.9607, 6159.439
484.4428, 6129.667
484.9249, 6107.227
485.4070, 6093.705
485.8892, 6086.768
486.3713, 6085.114
486.8534, 6091.438
487.3355, 6098.706
487.8176, 6106.411
488.2997, 6115.029
488.7819, 6125.865
489.2640, 6139.447
489.7461, 6154.115
490.2282, 6169.782
490.7103, 6186.366
491.1924, 6200.619
491.6746, 6212.162
492.1567, 6223.036
492.6388, 6234.721
493.1209, 6247.261
493.6030, 6260.630
494.0851, 6275.958
494.5673, 6289.358
495.0494, 6293.815
495.5315, 6291.116
496.0136, 6287.607
496.4957, 6287.310
496.9778, 6287.165
497.4600, 6283.549
497.9421, 6276.680
498.4242, 6268.673
498.9063, 6261.584
499.3884, 6253.478
499.8705, 6241.885
500.3527, 6224.300
500.8348, 6208.551
501.3169, 6197.884
501.7990, 6190.875
502.2811, 6185.492
502.7632, 6180.541
503.2454, 6178.280
503.7275, 6179.755
504.2096, 6184.727
504.6917, 6190.333
505.1738, 6194.180
505.6559, 6201.898
506.1381, 6215.959
506.6202, 6236.058
507.1023, 6264.277
507.5844, 6301.059
508.0665, 6345.158
508.5486, 6395.138
509.0308, 6451.295
509.5129, 6510.180
509.9950, 6570.521
510.4771, 6633.603
510.9592, 6704.616
511.4413, 6782.626
511.9235, 6862.304
512.4056, 6938.100
512.8877, 7013.882
513.3698, 7096.590
513.8519, 7186.734
514.3340, 7282.440
514.8162, 7386.762
515.2983, 7494.227
515.7804, 7598.003
516.2625, 7690.061
516.7446, 7786.322
517.2267, 7893.001
517.7089, 8008.255
518.1910, 8126.452
518.6731, 8250.895
519.1552, 8374.621
519.6373, 8492.060
520.1194, 8602.588
520.6016, 8721.256
521.0837, 8850.896
521.5658, 8983.804
522.0479, 9114.808
522.5300, 9242.262
523.0121, 9368.487
523.4943, 9492.274
523.9764, 9616.521
524.4585, 9746.541
524.9406, 9880.115
525.4227, 10020.39
525.9048, 10168.99
526.3870, 10324.12
526.8691, 10484.97
527.3513, 10652.29
527.8334, 10825.39
528.3155, 11003.18
528.7976, 11188.93
529.2797, 11386.75
529.7618, 11597.57
530.2440, 11824.58
530.7261, 12069.68
531.2082, 12331.22
531.6903, 12602.41
532.1724, 12889.24
532.6545, 13179.75
533.1367, 13474.55
533.6188, 13772.06
534.1009, 14077.97
534.5830, 14403.57
535.0651, 14724.89
535.5472, 15032.28
536.0294, 15328.78
536.5115, 15609.87
536.9936, 15878.96
537.4757, 16128.12
537.9578, 16350.17
538.4399, 16546.60
538.9221, 16720.97
539.4042, 16880.20
539.8863, 17009.63
540.3684, 17081.35
540.8505, 17097.39
541.3326, 17081.60
541.8148, 17042.29
542.2969, 16978.32
542.7790, 16882.67
543.2611, 16757.31
543.7432, 16615.59
544.2253, 16460.28
544.7075, 16296.58
545.1896, 16127.22
545.6717, 15950.53
546.1538, 15779.99
546.6359, 15627.88
547.1180, 15482.62
547.6002, 15333.87
548.0823, 15167.49
548.5644, 15010.66
549.0465, 14870.92
549.5286, 14743.48
550.0107, 14614.94
550.4929, 14482.56
550.9750, 14353.10
551.4571, 14230.20
551.9392, 14113.32
552.4213, 13991.18
552.9034, 13862.87
553.3856, 13729.94
553.8677, 13592.09
554.3498, 13449.79
554.8319, 13308.91
555.3140, 13170.17
555.7961, 13031.81
556.2783, 12891.97
556.7604, 12751.74
557.2425, 12616.13
557.7246, 12491.93
558.2067, 12367.68
558.6888, 12232.85
559.1710, 12089.41
559.6531, 11945.08
560.1352, 11800.54
560.6173, 11660.06
561.0994, 11529.22
561.5815, 11408.70
562.0637, 11289.03
562.5458, 11162.21
563.0279, 11039.86
563.5100, 10928.75
563.9921, 10831.22
564.4742, 10739.89
564.9564, 10653.90
565.4385, 10574.50
565.9206, 10502.92
566.4027, 10438.29
566.8848, 10387.83
567.3669, 10353.38
567.8491, 10335.03
568.3312, 10336.72
568.8133, 10357.98
569.2954, 10389.34
569.7775, 10422.52
570.2596, 10462.23
570.7418, 10517.80
571.2239, 10590.53
571.7060, 10670.81
572.1881, 10752.85
572.6702, 10837.69
573.1523, 10927.97
573.6345, 11025.86
574.1166, 11124.93
574.5987, 11218.78
575.0808, 11311.95
575.5629, 11413.89
576.0450, 11525.34
576.5272, 11644.25
577.0093, 11768.52
577.4914, 11898.21
577.9735, 12038.00
578.4556, 12186.18
578.9377, 12345.89
579.4199, 12521.60
579.9020, 12711.37
580.3841, 12911.00
580.8662, 13119.08
581.3483, 13341.49
581.8304, 13579.74
582.3126, 13834.76
582.7947, 14111.08
583.2768, 14411.85
583.7589, 14727.18
584.2410, 15045.21
584.7231, 15370.07
585.2053, 15709.95
585.6874, 16068.80
586.1696, 16442.67
586.6517, 16833.48
587.1338, 17238.33
587.6159, 17645.69
588.0980, 18044.18
588.5801, 18450.98
589.0623, 18875.29
589.5444, 19318.51
