##NAMES=Titanite
##RRUFFID=R120030
##IDEAL CHEMISTRY=CaTi^4+^SiO_5_
##LOCALITY=Zagi Mountain, Hameed Abad Kafoor Dheri, Peshawar, Khyber Pakhtunkhwa, Pakistan
##OWNER=RRUFF
##SOURCE=Donald Doell
##DESCRIPTION=Brown flattened octahedra
##STATUS=The identification of this mineral has been confirmed by single-crystal X-ray diffraction.
##URL=rruff.info/R120030
90.01007, 0.0000000E+00
90.49219, 69.41330
90.97430, 69.08556
91.45642, 69.27822
91.93854, 69.92168
92.42065, 70.43626
92.90277, 70.29085
93.38489, 69.66484
93.86700, 68.96048
94.34912, 68.18904
94.83124, 67.47012
95.31335, 67.24741
95.79547, 67.60558
96.27759, 67.83652
96.75970, 66.77492
97.24182, 64.54116
97.72394, 62.74020
98.20605, 62.15838
98.68817, 62.71531
99.17029, 63.43923
99.65240, 64.34995
100.1345, 65.38145
100.6166, 66.50951
101.0988, 67.84465
101.5809, 68.83711
102.0630, 69.12511
102.5451, 68.58566
103.0272, 67.92587
103.5093, 67.05282
103.9915, 66.10471
104.4736, 65.68502
104.9557, 66.05324
105.4378, 66.58101
105.9199, 66.83573
106.4020, 66.66817
106.8842, 66.50638
107.3663, 66.39219
107.8484, 66.32671
108.3305, 66.27978
108.8126, 66.03731
109.2947, 65.93660
109.7769, 66.29276
110.2590, 67.95280
110.7411, 69.21024
111.2232, 69.59442
111.7053, 68.81410
112.1874, 68.42290
112.6696, 69.02879
113.1517, 69.95137
113.6338, 70.30895
114.1159, 69.14061
114.5980, 68.06746
115.0801, 67.76180
115.5623, 68.71018
116.0444, 69.44211
116.5265, 69.42203
117.0086, 68.91150
117.4907, 68.45409
117.9728, 68.17564
118.4550, 68.04927
118.9371, 68.06113
119.4192, 68.22081
119.9013, 68.49797
120.3834, 68.85778
120.8655, 69.31454
121.3477, 69.92702
121.8298, 71.19099
122.3119, 72.45824
122.7940, 73.00461
123.2761, 72.09963
123.7582, 70.85201
124.2404, 70.07887
124.7225, 69.77307
125.2046, 69.84646
125.6867, 70.62856
126.1688, 71.72375
126.6509, 72.40600
127.1331, 71.97021
127.6152, 71.10471
128.0973, 70.85788
128.5794, 71.26003
129.0615, 71.91428
129.5436, 72.44421
130.0258, 72.88301
130.5079, 73.36111
130.9900, 74.00179
131.4721, 74.73438
131.9542, 75.37877
132.4363, 75.93969
132.9185, 76.37788
133.4006, 76.59445
133.8827, 76.59046
134.3648, 76.53733
134.8469, 76.36264
135.3290, 76.10664
135.8112, 76.42328
136.2933, 77.48586
136.7754, 78.98386
137.2575, 80.31776
137.7396, 81.54414
138.2217, 82.36876
138.7039, 82.36046
139.1860, 81.30553
139.6681, 80.99188
140.1502, 81.82069
140.6323, 83.50104
141.1144, 84.85738
141.5966, 85.92732
142.0787, 86.60319
142.5608, 86.64230
143.0429, 85.62714
143.5250, 85.12916
144.0071, 85.29338
144.4893, 86.12521
144.9714, 88.10246
145.4535, 92.47245
145.9356, 96.75844
146.4177, 98.34536
146.8998, 94.94766
147.3820, 92.52570
147.8641, 92.69950
148.3462, 96.10292
148.8283, 97.58587
149.3104, 95.25323
149.7925, 91.89584
150.2747, 90.73718
150.7568, 93.51183
151.2389, 96.71308
151.7210, 99.63718
152.2031, 102.1066
152.6852, 104.8047
153.1674, 107.6779
153.6495, 110.8153
154.1316, 114.3595
154.6137, 117.6379
155.0958, 121.9111
155.5779, 127.4188
156.0601, 133.7510
156.5422, 142.2811
157.0243, 153.6972
157.5064, 167.3926
157.9885, 182.1928
158.4706, 197.0974
158.9528, 213.5980
159.4349, 232.2516
159.9170, 252.6169
160.3991, 276.0813
160.8812, 303.4453
161.3633, 334.2525
161.8455, 367.3046
162.3276, 401.0699
162.8097, 437.4135
163.2918, 478.2331
163.7739, 523.9344
164.2560, 573.7010
164.7382, 628.2914
165.2203, 687.0266
165.7024, 747.3060
166.1845, 808.2110
166.6666, 870.2292
167.1487, 933.2330
167.6309, 1000.566
168.1130, 1066.350
168.5951, 1126.110
169.0772, 1180.552
169.5593, 1232.237
170.0414, 1283.182
170.5236, 1332.281
171.0057, 1377.504
171.4878, 1416.839
171.9699, 1453.781
172.4520, 1490.287
172.9341, 1526.527
173.4163, 1562.674
173.8984, 1596.654
174.3805, 1631.191
174.8626, 1669.642
175.3447, 1712.874
175.8268, 1761.494
176.3090, 1817.505
176.7911, 1880.468
177.2732, 1946.770
177.7553, 2004.968
178.2374, 2054.546
178.7195, 2103.792
179.2017, 2156.460
179.6838, 2211.478
180.1659, 2266.196
180.6480, 2321.113
181.1301, 2376.113
181.6122, 2432.375
182.0944, 2489.731
182.5765, 2546.141
183.0586, 2601.958
183.5407, 2656.223
184.0228, 2709.917
184.5049, 2762.855
184.9871, 2814.054
185.4692, 2860.628
185.9513, 2903.562
186.4334, 2945.540
186.9155, 2987.948
187.3976, 3030.629
187.8798, 3074.045
188.3619, 3118.251
188.8440, 3162.373
189.3261, 3203.529
189.8082, 3242.324
190.2903, 3282.071
190.7725, 3324.732
191.2546, 3370.395
191.7367, 3415.787
192.2188, 3460.671
192.7009, 3505.958
193.1830, 3552.756
193.6652, 3600.884
194.1473, 3648.664
194.6294, 3694.318
195.1115, 3738.050
195.5936, 3782.489
196.0757, 3827.764
196.5579, 3873.810
197.0400, 3921.458
197.5221, 3971.058
198.0042, 4018.522
198.4863, 4060.941
198.9684, 4098.076
199.4506, 4137.726
199.9327, 4180.860
200.4148, 4225.649
200.8969, 4267.642
201.3790, 4307.072
201.8611, 4344.908
202.3433, 4381.867
202.8254, 4418.042
203.3075, 4452.882
203.7896, 4486.060
204.2717, 4517.743
204.7538, 4548.239
205.2360, 4577.840
205.7181, 4604.975
206.2002, 4627.647
206.6823, 4644.802
207.1644, 4664.025
207.6465, 4686.546
208.1287, 4710.998
208.6108, 4733.808
209.0929, 4754.234
209.5750, 4775.010
210.0571, 4798.131
210.5392, 4824.667
211.0214, 4848.802
211.5035, 4868.958
211.9856, 4886.754
212.4677, 4908.198
212.9498, 4933.517
213.4319, 4962.362
213.9140, 4995.120
214.3962, 5032.464
214.8783, 5071.826
215.3604, 5112.632
215.8425, 5155.360
216.3246, 5200.125
216.8067, 5247.473
217.2889, 5296.460
217.7710, 5346.931
218.2531, 5398.988
218.7352, 5452.235
219.2173, 5505.975
219.6994, 5561.459
220.1816, 5621.320
220.6637, 5685.725
221.1458, 5755.424
221.6279, 5830.458
222.1100, 5912.723
222.5921, 5996.758
223.0743, 6082.801
223.5564, 6170.300
224.0385, 6260.995
224.5206, 6352.423
225.0027, 6447.866
225.4848, 6548.963
225.9670, 6654.350
226.4491, 6767.471
226.9312, 6891.727
227.4133, 7024.229
227.8954, 7157.152
228.3775, 7285.502
228.8597, 7417.872
229.3418, 7558.237
229.8239, 7708.458
230.3060, 7861.529
230.7881, 8016.021
231.2702, 8172.822
231.7524, 8330.895
232.2345, 8491.135
232.7166, 8648.157
233.1987, 8796.824
233.6808, 8935.444
234.1629, 9068.143
234.6451, 9194.893
235.1272, 9316.182
235.6093, 9436.760
236.0914, 9556.294
236.5735, 9675.494
237.0556, 9793.961
237.5378, 9908.005
238.0199, 10029.65
238.5020, 10159.84
238.9841, 10298.88
239.4662, 10442.55
239.9483, 10590.86
240.4305, 10744.62
240.9126, 10906.45
241.3947, 11080.60
241.8768, 11254.36
242.3589, 11428.29
242.8410, 11600.90
243.3232, 11771.09
243.8053, 11940.13
244.2874, 12103.90
244.7695, 12259.47
245.2516, 12410.95
245.7337, 12547.18
246.2159, 12668.97
246.6980, 12775.18
247.1801, 12861.44
247.6622, 12932.30
248.1443, 12977.27
248.6264, 12990.39
249.1086, 12967.60
249.5907, 12923.60
250.0728, 12860.37
250.5549, 12775.86
251.0370, 12663.63
251.5191, 12518.89
252.0013, 12354.25
252.4834, 12172.17
252.9655, 11971.50
253.4476, 11761.39
253.9297, 11537.91
254.4118, 11307.43
254.8940, 11078.06
255.3761, 10847.57
255.8582, 10620.94
256.3403, 10401.21
256.8224, 10188.87
257.3046, 9982.597
257.7867, 9782.236
258.2688, 9589.611
258.7509, 9409.572
259.2330, 9244.796
259.7151, 9090.553
260.1973, 8944.204
260.6794, 8807.990
261.1615, 8681.449
261.6436, 8567.277
262.1257, 8461.977
262.6078, 8360.540
263.0900, 8264.341
263.5721, 8171.381
264.0542, 8083.341
264.5363, 8000.449
265.0184, 7915.422
265.5005, 7828.532
265.9827, 7737.974
266.4648, 7638.485
266.9469, 7528.570
267.4290, 7416.297
267.9111, 7304.491
268.3932, 7194.242
268.8754, 7071.839
269.3575, 6935.011
269.8396, 6789.493
270.3217, 6643.396
270.8038, 6496.504
271.2859, 6350.921
271.7681, 6207.872
272.2502, 6067.893
272.7323, 5929.432
273.2144, 5793.704
273.6965, 5661.760
274.1786, 5534.913
274.6608, 5411.328
275.1429, 5296.789
275.6250, 5193.287
276.1071, 5100.542
276.5892, 5011.842
277.0714, 4927.611
277.5535, 4850.283
278.0356, 4783.216
278.5177, 4726.881
278.9998, 4675.596
279.4819, 4628.281
279.9641, 4584.901
280.4462, 4547.453
280.9283, 4516.014
281.4104, 4489.671
281.8925, 4468.390
282.3746, 4452.246
282.8568, 4436.981
283.3389, 4421.749
283.8210, 4407.244
284.3031, 4395.376
284.7852, 4386.300
285.2673, 4379.191
285.7495, 4373.593
286.2316, 4369.548
286.7137, 4366.961
287.1958, 4366.235
287.6779, 4366.464
288.1600, 4366.461
288.6422, 4366.245
289.1243, 4363.893
289.6064, 4357.087
290.0885, 4346.634
290.5706, 4337.063
291.0527, 4328.633
291.5349, 4321.250
292.0170, 4315.054
292.4991, 4309.948
292.9812, 4304.966
293.4633, 4297.851
293.9454, 4290.279
294.4276, 4287.929
294.9097, 4291.371
295.3918, 4298.965
295.8739, 4308.578
296.3560, 4320.460
296.8381, 4336.231
297.3203, 4356.429
297.8024, 4380.901
298.2845, 4409.595
298.7666, 4442.654
299.2487, 4479.958
299.7308, 4523.751
300.2130, 4572.552
300.6951, 4621.330
301.1772, 4666.808
301.6593, 4711.586
302.1414, 4760.060
302.6235, 4811.767
303.1057, 4865.788
303.5878, 4921.899
304.0699, 4979.416
304.5520, 5036.002
305.0341, 5091.200
305.5162, 5144.776
305.9984, 5195.389
306.4805, 5243.367
306.9626, 5294.286
307.4447, 5351.434
307.9268, 5413.571
308.4089, 5477.402
308.8911, 5538.239
309.3732, 5606.611
309.8553, 5691.424
310.3374, 5790.550
310.8195, 5898.997
311.3016, 6011.184
311.7838, 6131.238
312.2659, 6265.367
312.7480, 6417.531
313.2301, 6575.717
313.7122, 6735.809
314.1943, 6898.519
314.6765, 7061.852
315.1586, 7234.212
315.6407, 7400.082
316.1228, 7553.616
316.6049, 7694.745
317.0870, 7816.549
317.5692, 7921.556
318.0513, 8003.377
318.5334, 8052.138
319.0155, 8057.108
319.4976, 8035.084
319.9797, 7987.814
320.4619, 7914.043
320.9440, 7834.072
321.4261, 7750.755
321.9082, 7665.987
322.3903, 7581.879
322.8724, 7491.741
323.3546, 7409.327
323.8367, 7337.116
324.3188, 7275.217
324.8009, 7224.352
325.2830, 7186.575
325.7651, 7159.268
326.2473, 7140.931
326.7294, 7132.414
327.2115, 7131.980
327.6936, 7140.641
328.1757, 7157.850
328.6578, 7180.730
329.1400, 7211.541
329.6221, 7246.338
330.1042, 7284.030
330.5863, 7327.520
331.0684, 7369.462
331.5505, 7409.536
332.0327, 7447.778
332.5148, 7484.120
332.9969, 7520.397
333.4790, 7551.866
333.9611, 7577.560
334.4432, 7597.547
334.9254, 7610.103
335.4075, 7613.595
335.8896, 7610.501
336.3717, 7604.798
336.8538, 7598.733
337.3359, 7584.206
337.8180, 7557.206
338.3001, 7518.143
338.7823, 7481.094
339.2644, 7447.251
339.7465, 7414.236
340.2286, 7378.732
340.7107, 7340.022
341.1928, 7305.429
341.6750, 7276.154
342.1571, 7252.666
342.6392, 7239.257
343.1213, 7236.743
343.6034, 7239.688
344.0855, 7242.643
344.5677, 7245.962
345.0498, 7259.772
345.5319, 7286.734
346.0140, 7322.229
346.4961, 7359.118
346.9782, 7397.169
347.4604, 7434.591
347.9425, 7469.167
348.4246, 7502.030
348.9067, 7538.730
349.3888, 7581.469
349.8709, 7618.644
350.3531, 7639.796
350.8352, 7644.413
351.3173, 7630.704
351.7994, 7596.736
352.2815, 7544.074
352.7636, 7474.827
353.2458, 7388.918
353.7279, 7287.034
354.2100, 7162.748
354.6921, 7023.805
355.1742, 6884.092
355.6563, 6746.231
356.1385, 6608.968
356.6206, 6467.510
357.1027, 6323.172
357.5848, 6186.510
358.0669, 6061.874
358.5490, 5947.324
359.0312, 5841.952
359.5133, 5745.766
359.9954, 5655.737
360.4775, 5570.633
360.9596, 5489.974
361.4417, 5414.078
361.9239, 5341.349
362.4060, 5273.915
362.8881, 5214.163
363.3702, 5163.597
363.8523, 5113.905
364.3344, 5058.892
364.8166, 5004.538
365.2987, 4957.276
365.7808, 4923.513
366.2629, 4893.381
366.7450, 4864.318
367.2271, 4836.252
367.7093, 4811.621
368.1914, 4791.223
368.6735, 4773.937
369.1556, 4758.918
369.6377, 4746.147
370.1198, 4735.900
370.6020, 4727.385
371.0841, 4721.219
371.5662, 4719.858
372.0483, 4724.660
372.5304, 4732.509
373.0125, 4742.401
373.4947, 4754.746
373.9768, 4767.408
374.4589, 4779.163
374.9410, 4792.353
375.4231, 4810.575
375.9052, 4834.597
376.3874, 4862.082
376.8695, 4892.451
377.3516, 4926.157
377.8337, 4961.347
378.3158, 4998.311
378.7979, 5037.508
379.2801, 5079.337
379.7622, 5124.307
380.2443, 5169.347
380.7264, 5213.371
381.2085, 5258.140
381.6906, 5309.685
382.1728, 5367.831
382.6549, 5427.888
383.1370, 5485.478
383.6191, 5541.865
384.1012, 5599.935
384.5833, 5660.560
385.0655, 5722.750
385.5476, 5784.664
386.0297, 5847.019
386.5118, 5909.297
386.9939, 5972.819
387.4760, 6036.203
387.9582, 6098.042
388.4403, 6158.878
388.9224, 6217.692
389.4045, 6272.866
389.8866, 6325.256
390.3687, 6376.490
390.8509, 6427.320
391.3330, 6476.267
391.8151, 6524.127
392.2972, 6570.026
392.7793, 6611.151
393.2614, 6643.202
393.7436, 6671.610
394.2257, 6700.956
394.7078, 6732.453
395.1899, 6763.139
395.6720, 6794.698
396.1541, 6824.215
396.6363, 6847.038
397.1184, 6856.419
397.6005, 6864.065
398.0826, 6874.338
398.5647, 6888.061
399.0468, 6899.076
399.5290, 6907.351
400.0111, 6912.345
400.4932, 6913.584
400.9753, 6907.575
401.4574, 6902.604
401.9395, 6900.251
402.4217, 6899.741
402.9038, 6897.116
403.3859, 6890.594
403.8680, 6884.647
404.3501, 6881.677
404.8322, 6882.768
405.3144, 6883.116
405.7965, 6882.431
406.2786, 6881.327
406.7607, 6880.307
407.2428, 6878.970
407.7249, 6879.888
408.2071, 6884.499
408.6892, 6892.186
409.1713, 6898.442
409.6534, 6902.775
410.1355, 6908.530
410.6176, 6919.389
411.0998, 6934.640
411.5819, 6949.905
412.0640, 6963.910
412.5461, 6978.242
413.0282, 6995.796
413.5103, 7016.288
413.9925, 7038.404
414.4746, 7061.624
414.9567, 7086.129
415.4388, 7111.802
415.9209, 7138.841
416.4030, 7167.196
416.8852, 7198.124
417.3673, 7230.475
417.8494, 7262.436
418.3315, 7293.818
418.8136, 7324.581
419.2957, 7355.437
419.7779, 7386.065
420.2600, 7415.876
420.7421, 7449.245
421.2242, 7478.861
421.7063, 7498.716
422.1884, 7507.251
422.6706, 7508.112
423.1527, 7504.108
423.6348, 7492.885
424.1169, 7470.178
424.5990, 7433.925
425.0811, 7387.103
425.5633, 7329.837
426.0454, 7261.759
426.5275, 7185.879
427.0096, 7099.979
427.4917, 7006.904
427.9738, 6908.126
428.4560, 6801.473
428.9381, 6693.763
429.4202, 6585.348
429.9023, 6477.834
430.3844, 6370.192
430.8665, 6261.723
431.3487, 6156.954
431.8308, 6057.100
432.3129, 5962.351
432.7950, 5876.978
433.2771, 5801.981
433.7592, 5734.944
434.2414, 5671.040
434.7235, 5610.654
435.2056, 5558.110
435.6877, 5515.198
436.1698, 5480.893
436.6519, 5452.980
437.1341, 5431.500
437.6162, 5415.653
438.0983, 5404.503
438.5804, 5398.443
439.0625, 5397.558
439.5446, 5401.123
440.0268, 5412.414
440.5089, 5437.108
440.9910, 5471.720
441.4731, 5508.620
441.9552, 5542.733
442.4373, 5579.581
442.9195, 5623.774
443.4016, 5675.266
443.8837, 5728.730
444.3658, 5783.560
444.8479, 5838.672
445.3300, 5892.671
445.8122, 5947.836
446.2943, 5999.062
446.7764, 6047.009
447.2585, 6090.680
447.7406, 6127.548
448.2227, 6159.538
448.7049, 6182.603
449.1870, 6196.058
449.6691, 6200.003
450.1512, 6193.483
450.6333, 6176.002
451.1154, 6148.952
451.5976, 6113.096
452.0797, 6068.125
452.5618, 6016.809
453.0439, 5958.309
453.5260, 5894.769
454.0081, 5828.520
454.4903, 5759.021
454.9724, 5688.927
455.4545, 5616.955
455.9366, 5544.563
456.4187, 5478.190
456.9008, 5419.080
457.3830, 5362.749
457.8651, 5304.202
458.3472, 5244.706
458.8293, 5191.552
459.3114, 5147.913
459.7935, 5110.062
460.2757, 5073.035
460.7578, 5037.135
461.2399, 5003.258
461.7220, 4971.800
462.2041, 4942.648
462.6862, 4916.294
463.1684, 4893.139
463.6505, 4871.750
464.1326, 4852.388
464.6147, 4834.468
465.0968, 4816.893
465.5789, 4799.776
466.0611, 4783.202
466.5432, 4767.188
467.0253, 4751.825
467.5074, 4736.792
467.9895, 4723.743
468.4716, 4709.703
468.9538, 4693.094
469.4359, 4672.137
469.9180, 4652.900
470.4001, 4635.593
470.8822, 4619.573
471.3643, 4604.046
471.8465, 4589.469
472.3286, 4573.882
472.8107, 4556.824
473.2928, 4538.448
473.7749, 4517.455
474.2570, 4493.290
474.7392, 4469.818
475.2213, 4449.858
475.7034, 4433.159
476.1855, 4417.973
476.6676, 4404.066
477.1497, 4391.903
477.6319, 4382.620
478.1140, 4375.808
478.5961, 4370.212
479.0782, 4364.680
479.5603, 4360.490
480.0424, 4360.182
480.5246, 4363.256
481.0067, 4365.678
481.4888, 4363.343
481.9709, 4360.050
482.4530, 4359.121
482.9352, 4361.430
483.4173, 4365.434
483.8994, 4371.906
484.3815, 4379.352
484.8636, 4385.452
485.3457, 4387.950
485.8279, 4390.764
486.3100, 4395.299
486.7921, 4401.613
487.2742, 4406.981
487.7563, 4411.469
488.2384, 4415.151
488.7206, 4417.928
489.2027, 4419.308
489.6848, 4421.449
490.1669, 4424.984
490.6490, 4428.737
491.1311, 4430.669
491.6133, 4430.500
492.0954, 4430.425
492.5775, 4431.533
493.0596, 4433.085
493.5417, 4432.745
494.0238, 4430.487
494.5060, 4425.790
494.9881, 4415.856
495.4702, 4403.241
495.9523, 4394.771
496.4344, 4392.025
496.9165, 4390.174
497.3987, 4384.130
497.8808, 4375.532
498.3629, 4367.603
498.8450, 4363.552
499.3271, 4359.066
499.8092, 4351.347
500.2914, 4340.684
500.7735, 4329.274
501.2556, 4315.052
501.7377, 4302.373
502.2198, 4294.334
502.7019, 4293.419
503.1841, 4291.505
503.6662, 4284.674
504.1483, 4277.634
504.6304, 4276.041
505.1125, 4283.235
505.5946, 4290.370
506.0768, 4295.330
506.5589, 4299.091
507.0410, 4306.522
507.5231, 4317.549
508.0052, 4332.236
508.4873, 4351.347
508.9695, 4374.645
509.4516, 4399.214
509.9337, 4424.755
510.4158, 4452.542
510.8979, 4483.074
511.3800, 4516.969
511.8622, 4556.021
512.3443, 4601.615
512.8264, 4651.369
513.3085, 4702.275
513.7906, 4755.073
514.2728, 4812.388
514.7549, 4876.686
515.2370, 4945.554
515.7191, 5016.288
516.2012, 5088.866
516.6833, 5166.827
517.1655, 5253.200
517.6476, 5345.739
518.1297, 5442.513
518.6118, 5541.175
519.0939, 5646.563
519.5760, 5759.639
520.0582, 5879.674
520.5403, 6007.749
521.0224, 6144.182
521.5045, 6286.000
521.9866, 6432.070
522.4688, 6583.014
522.9509, 6739.667
523.4330, 6902.826
523.9151, 7071.716
524.3972, 7246.418
524.8793, 7426.173
525.3615, 7610.701
525.8436, 7800.717
526.3257, 7996.948
526.8078, 8201.898
527.2899, 8413.666
527.7720, 8620.043
528.2542, 8811.978
528.7363, 8996.374
529.2184, 9186.491
529.7005, 9379.163
530.1826, 9566.629
530.6647, 9747.117
531.1469, 9917.753
531.6290, 10079.56
532.1111, 10232.52
532.5932, 10372.54
533.0753, 10498.08
533.5574, 10610.42
534.0396, 10708.81
534.5217, 10798.63
535.0038, 10869.47
535.4859, 10918.62
535.9680, 10948.39
536.4501, 10965.82
536.9323, 10970.51
537.4144, 10963.70
537.8965, 10946.13
538.3786, 10918.00
538.8607, 10875.63
539.3428, 10818.68
539.8250, 10749.21
540.3071, 10664.80
540.7892, 10568.20
541.2713, 10475.66
541.7534, 10390.87
542.2355, 10309.06
542.7177, 10222.32
543.1998, 10132.32
543.6819, 10046.70
544.1640, 9966.790
544.6461, 9895.519
545.1282, 9834.196
545.6104, 9783.428
546.0925, 9744.740
546.5746, 9720.039
547.0567, 9707.024
547.5388, 9704.413
548.0209, 9712.780
548.5031, 9729.554
548.9852, 9754.758
549.4673, 9787.920
549.9494, 9828.665
550.4315, 9880.115
550.9136, 9933.947
551.3958, 9990.156
551.8779, 10048.08
552.3600, 10105.14
552.8421, 10161.98
553.3242, 10216.76
553.8063, 10271.01
554.2885, 10323.37
554.7706, 10363.05
555.2527, 10389.94
555.7348, 10405.65
556.2169, 10411.84
556.6990, 10407.98
557.1812, 10393.42
557.6633, 10368.83
558.1454, 10330.83
558.6275, 10275.02
559.1096, 10203.92
559.5917, 10120.59
560.0739, 10022.35
560.5560, 9917.206
561.0381, 9807.693
561.5202, 9694.874
562.0023, 9578.934
562.4844, 9455.825
562.9666, 9332.593
563.4487, 9212.577
563.9308, 9095.771
564.4129, 8983.157
564.8950, 8872.287
565.3771, 8768.103
565.8593, 8673.269
566.3414, 8587.481
566.8235, 8510.969
567.3056, 8442.900
567.7877, 8384.010
568.2698, 8335.246
568.7520, 8296.226
569.2341, 8267.127
569.7162, 8249.509
570.1983, 8240.629
570.6804, 8234.836
571.1625, 8232.685
571.6447, 8237.053
572.1268, 8247.973
572.6089, 8267.523
573.0910, 8299.081
573.5731, 8344.359
574.0552, 8393.244
574.5374, 8440.706
575.0195, 8490.316
575.5016, 8545.536
575.9837, 8605.825
576.4658, 8672.752
576.9479, 8747.304
577.4301, 8828.450
577.9122, 8914.783
578.3943, 9007.009
578.8764, 9104.202
579.3585, 9206.189
579.8406, 9312.797
580.3228, 9424.514
580.8049, 9541.908
581.2870, 9659.876
581.7691, 9775.689
582.2512, 9889.982
582.7333, 10007.25
583.2155, 10128.53
583.6975, 10250.65
584.1796, 10371.69
584.6617, 10494.19
585.1439, 10623.63
585.6260, 10764.58
586.1081, 10907.68
586.5902, 11052.58
587.0723, 11195.70
587.5544, 11327.22
