##NAMES=Titanite
##RRUFFID=R100025
##IDEAL CHEMISTRY=CaTi^4+^SiO_5_
##LOCALITY=Kharan, Balochistan, Pakistan
##OWNER=RRUFF
##SOURCE=Ikram Mineralogy
##DESCRIPTION=Bluish-gray flattened wedge-shaped crystals
##STATUS=The identification of this mineral has been confirmed by single-crystal X-ray diffraction.
##URL=rruff.info/R100025
90.97430, 35.65830
91.45642, 35.49418
91.93854, 35.89698
92.42065, 36.52338
92.90277, 36.84483
93.38489, 36.79276
93.86700, 36.61218
94.34912, 36.53020
94.83124, 36.55086
95.31335, 36.70401
95.79547, 37.01682
96.27759, 37.47832
96.75970, 38.11707
97.24182, 39.04937
97.72394, 40.01550
98.20605, 40.41005
98.68817, 40.18843
99.17029, 39.75591
99.65240, 39.37887
100.1345, 39.05524
100.6166, 38.80973
101.0988, 38.67617
101.5809, 38.63428
102.0630, 38.48185
102.5451, 38.15599
103.0272, 37.82899
103.5093, 37.65181
103.9915, 37.57434
104.4736, 37.80021
104.9557, 38.55906
105.4378, 40.08054
105.9199, 40.77924
106.4020, 40.14406
106.8842, 38.94017
107.3663, 38.51786
107.8484, 39.48965
108.3305, 40.54031
108.8126, 41.23555
109.2947, 41.49650
109.7769, 41.52996
110.2590, 40.98992
110.7411, 40.16107
111.2232, 39.94205
111.7053, 41.15479
112.1874, 42.41300
112.6696, 43.08521
113.1517, 42.39456
113.6338, 41.88769
114.1159, 41.74985
114.5980, 41.96612
115.0801, 42.42552
115.5623, 43.61105
116.0444, 44.78492
116.5265, 45.37455
117.0086, 44.44729
117.4907, 43.60360
117.9728, 43.61210
118.4550, 44.52171
118.9371, 45.26641
119.4192, 45.13381
119.9013, 44.61593
120.3834, 44.34197
120.8655, 44.32102
121.3477, 44.79468
121.8298, 46.16320
122.3119, 48.63538
122.7940, 51.01126
123.2761, 52.15572
123.7582, 52.54069
124.2404, 53.21716
124.7225, 54.61737
125.2046, 56.67425
125.6867, 59.28506
126.1688, 62.45293
126.6509, 66.15948
127.1331, 70.52455
127.6152, 75.47840
128.0973, 80.67417
128.5794, 85.59895
129.0615, 90.58134
129.5436, 96.37337
130.0258, 103.1076
130.5079, 110.7654
130.9900, 119.3196
131.4721, 128.6968
131.9542, 139.4212
132.4363, 151.4273
132.9185, 164.9019
133.4006, 181.1980
133.8827, 201.2638
134.3648, 224.2005
134.8469, 248.2426
135.3290, 273.3524
135.8112, 299.8526
136.2933, 328.0691
136.7754, 358.2138
137.2575, 388.7182
137.7396, 419.3614
138.2217, 449.6274
138.7039, 479.9227
139.1860, 510.0804
139.6681, 540.6118
140.1502, 573.0927
140.6323, 607.5599
141.1144, 642.7614
141.5966, 677.8349
142.0787, 711.8047
142.5608, 749.4941
143.0429, 791.7960
143.5250, 837.1976
144.0071, 882.8013
144.4893, 930.6238
144.9714, 974.7216
145.4535, 1011.198
145.9356, 1035.494
146.4177, 1061.928
146.8998, 1090.701
147.3820, 1121.814
147.8641, 1156.627
148.3462, 1195.108
148.8283, 1236.865
149.3104, 1282.285
149.7925, 1333.744
150.2747, 1385.485
150.7568, 1436.274
151.2389, 1486.235
151.7210, 1536.987
152.2031, 1587.313
152.6852, 1638.622
153.1674, 1692.367
153.6495, 1749.770
154.1316, 1807.928
154.6137, 1866.261
155.0958, 1924.741
155.5779, 1984.545
156.0601, 2045.156
156.5422, 2107.583
157.0243, 2171.989
157.5064, 2237.524
157.9885, 2305.908
158.4706, 2377.890
158.9528, 2453.676
159.4349, 2531.505
159.9170, 2614.929
160.3991, 2698.980
160.8812, 2777.913
161.3633, 2849.930
161.8455, 2916.601
162.3276, 2979.367
162.8097, 3038.082
163.2918, 3090.187
163.7739, 3136.121
164.2560, 3170.655
164.7382, 3171.369
165.2203, 3151.150
165.7024, 3122.981
166.1845, 3090.110
166.6666, 3052.621
167.1487, 3011.798
167.6309, 2965.597
168.1130, 2916.041
168.5951, 2868.251
169.0772, 2822.685
169.5593, 2780.278
170.0414, 2741.899
170.5236, 2707.734
171.0057, 2676.927
171.4878, 2647.463
171.9699, 2620.035
172.4520, 2597.506
172.9341, 2581.825
173.4163, 2571.337
173.8984, 2564.253
174.3805, 2560.391
174.8626, 2559.254
175.3447, 2560.933
175.8268, 2565.058
176.3090, 2570.106
176.7911, 2574.885
177.2732, 2579.852
177.7553, 2585.814
178.2374, 2593.401
178.7195, 2601.562
179.2017, 2608.948
179.6838, 2615.678
180.1659, 2622.305
180.6480, 2628.922
181.1301, 2635.772
181.6122, 2643.779
182.0944, 2654.395
182.5765, 2665.412
183.0586, 2672.730
183.5407, 2676.277
184.0228, 2679.329
184.5049, 2684.660
184.9871, 2691.877
185.4692, 2699.477
185.9513, 2707.879
186.4334, 2716.066
186.9155, 2720.662
187.3976, 2721.270
187.8798, 2722.667
188.3619, 2729.898
188.8440, 2742.462
189.3261, 2756.780
189.8082, 2772.339
190.2903, 2788.790
190.7725, 2804.636
191.2546, 2819.807
191.7367, 2835.823
192.2188, 2855.434
192.7009, 2878.589
193.1830, 2901.136
193.6652, 2920.554
194.1473, 2937.819
194.6294, 2958.105
195.1115, 2981.688
195.5936, 3007.301
196.0757, 3034.161
196.5579, 3062.366
197.0400, 3089.166
197.5221, 3112.458
198.0042, 3132.521
198.4863, 3155.252
198.9684, 3180.709
199.4506, 3208.572
199.9327, 3238.657
200.4148, 3271.395
200.8969, 3303.619
201.3790, 3334.213
201.8611, 3362.968
202.3433, 3391.753
202.8254, 3420.473
203.3075, 3449.390
203.7896, 3478.993
204.2717, 3509.823
204.7538, 3539.095
205.2360, 3566.104
205.7181, 3591.031
206.2002, 3611.269
206.6823, 3625.539
207.1644, 3636.639
207.6465, 3650.254
208.1287, 3667.376
208.6108, 3683.176
209.0929, 3695.128
209.5750, 3702.532
210.0571, 3710.419
210.5392, 3719.058
211.0214, 3728.191
211.5035, 3737.048
211.9856, 3745.146
212.4677, 3754.274
212.9498, 3765.638
213.4319, 3779.867
213.9140, 3792.999
214.3962, 3803.755
214.8783, 3814.228
215.3604, 3829.681
215.8425, 3852.414
216.3246, 3875.063
216.8067, 3893.880
217.2889, 3906.648
217.7710, 3922.507
218.2531, 3942.667
218.7352, 3965.272
219.2173, 3986.361
219.6994, 4005.329
220.1816, 4023.962
220.6637, 4043.486
221.1458, 4064.554
221.6279, 4084.814
222.1100, 4104.319
222.5921, 4123.126
223.0743, 4141.886
223.5564, 4160.427
224.0385, 4179.252
224.5206, 4198.113
225.0027, 4216.963
225.4848, 4236.883
225.9670, 4257.807
226.4491, 4279.714
226.9312, 4303.127
227.4133, 4328.667
227.8954, 4354.495
228.3775, 4379.085
228.8597, 4402.091
229.3418, 4425.508
229.8239, 4449.616
230.3060, 4473.958
230.7881, 4496.842
231.2702, 4519.021
231.7524, 4538.729
232.2345, 4554.998
232.7166, 4568.037
233.1987, 4577.591
233.6808, 4583.694
234.1629, 4586.318
234.6451, 4585.680
235.1272, 4583.376
235.6093, 4575.658
236.0914, 4560.303
236.5735, 4533.897
237.0556, 4507.602
237.5378, 4478.951
238.0199, 4451.301
238.5020, 4433.200
238.9841, 4426.440
239.4662, 4426.417
239.9483, 4431.573
240.4305, 4442.979
240.9126, 4456.920
241.3947, 4473.835
241.8768, 4493.053
242.3589, 4512.594
242.8410, 4530.098
243.3232, 4551.263
243.8053, 4579.186
244.2874, 4618.480
244.7695, 4653.350
245.2516, 4683.141
245.7337, 4708.978
246.2159, 4733.646
246.6980, 4759.047
247.1801, 4780.458
247.6622, 4796.964
248.1443, 4810.452
248.6264, 4813.423
249.1086, 4802.716
249.5907, 4783.195
250.0728, 4765.604
250.5549, 4755.123
251.0370, 4737.836
251.5191, 4707.468
252.0013, 4660.869
252.4834, 4612.372
252.9655, 4562.889
253.4476, 4511.315
253.9297, 4455.883
254.4118, 4397.201
254.8940, 4334.532
255.3761, 4267.286
255.8582, 4194.325
256.3403, 4120.210
256.8224, 4045.659
257.3046, 3969.417
257.7867, 3890.894
258.2688, 3808.930
258.7509, 3725.911
259.2330, 3643.091
259.7151, 3559.830
260.1973, 3477.499
260.6794, 3396.683
261.1615, 3317.990
261.6436, 3244.796
262.1257, 3178.078
262.6078, 3112.987
263.0900, 3048.311
263.5721, 2983.091
264.0542, 2921.940
264.5363, 2864.059
265.0184, 2810.410
265.5005, 2760.871
265.9827, 2717.004
266.4648, 2673.752
266.9469, 2629.629
267.4290, 2584.718
267.9111, 2542.398
268.3932, 2503.130
268.8754, 2466.199
269.3575, 2431.236
269.8396, 2398.321
270.3217, 2365.794
270.8038, 2332.712
271.2859, 2299.030
271.7681, 2269.532
272.2502, 2245.002
272.7323, 2223.052
273.2144, 2202.036
273.6965, 2181.839
274.1786, 2162.625
274.6608, 2143.988
275.1429, 2126.212
275.6250, 2110.986
276.1071, 2098.790
276.5892, 2087.823
277.0714, 2076.197
277.5535, 2063.466
278.0356, 2053.906
278.5177, 2049.198
278.9998, 2048.054
279.4819, 2044.665
279.9641, 2038.298
280.4462, 2032.697
280.9283, 2030.993
281.4104, 2033.297
281.8925, 2036.727
282.3746, 2040.906
282.8568, 2045.892
283.3389, 2051.879
283.8210, 2058.886
284.3031, 2066.652
284.7852, 2074.384
285.2673, 2082.145
285.7495, 2092.996
286.2316, 2107.883
286.7137, 2125.110
287.1958, 2141.422
287.6779, 2156.772
288.1600, 2171.673
288.6422, 2187.166
289.1243, 2202.936
289.6064, 2215.430
290.0885, 2223.948
290.5706, 2230.622
291.0527, 2238.985
291.5349, 2248.918
292.0170, 2258.482
292.4991, 2266.104
292.9812, 2272.445
293.4633, 2278.840
293.9454, 2284.911
294.4276, 2293.180
294.9097, 2307.091
295.3918, 2326.197
295.8739, 2348.028
296.3560, 2370.898
296.8381, 2395.630
297.3203, 2423.867
297.8024, 2455.612
298.2845, 2489.671
298.7666, 2525.642
299.2487, 2562.790
299.7308, 2599.965
300.2130, 2636.768
300.6951, 2673.275
301.1772, 2710.609
301.6593, 2748.628
302.1414, 2785.080
302.6235, 2816.710
303.1057, 2845.208
303.5878, 2873.189
304.0699, 2902.726
304.5520, 2931.700
305.0341, 2958.107
305.5162, 2981.876
305.9984, 3003.333
306.4805, 3021.438
306.9626, 3037.497
307.4447, 3053.171
307.9268, 3070.370
308.4089, 3085.591
308.8911, 3094.810
309.3732, 3099.034
309.8553, 3102.492
310.3374, 3106.693
310.8195, 3111.780
311.3016, 3117.820
311.7838, 3124.718
312.2659, 3132.789
312.7480, 3142.554
313.2301, 3153.632
313.7122, 3165.219
314.1943, 3178.459
314.6765, 3191.289
315.1586, 3202.047
315.6407, 3209.964
316.1228, 3217.722
316.6049, 3228.551
317.0870, 3239.766
317.5692, 3246.813
318.0513, 3250.712
318.5334, 3247.968
319.0155, 3236.061
319.4976, 3213.991
319.9797, 3187.618
320.4619, 3155.245
320.9440, 3120.604
321.4261, 3088.310
321.9082, 3059.615
322.3903, 3032.880
322.8724, 3007.302
323.3546, 2982.845
323.8367, 2961.298
324.3188, 2942.829
324.8009, 2927.496
325.2830, 2915.545
325.7651, 2906.460
326.2473, 2901.297
326.7294, 2901.871
327.2115, 2907.480
327.6936, 2912.379
328.1757, 2913.391
328.6578, 2915.721
329.1400, 2922.047
329.6221, 2937.555
330.1042, 2949.956
330.5863, 2959.254
331.0684, 2965.377
331.5505, 2967.929
332.0327, 2965.234
332.5148, 2960.886
332.9969, 2956.453
333.4790, 2953.265
333.9611, 2946.610
334.4432, 2936.989
334.9254, 2923.501
335.4075, 2904.421
335.8896, 2877.656
336.3717, 2849.265
336.8538, 2821.785
337.3359, 2795.408
337.8180, 2765.341
338.3001, 2731.325
338.7823, 2694.176
339.2644, 2654.446
339.7465, 2610.790
340.2286, 2569.535
340.7107, 2533.221
341.1928, 2500.621
341.6750, 2466.359
342.1571, 2429.130
342.6392, 2393.226
343.1213, 2361.358
343.6034, 2333.775
344.0855, 2309.778
344.5677, 2289.917
345.0498, 2273.138
345.5319, 2256.668
346.0140, 2240.384
346.4961, 2227.855
346.9782, 2222.452
347.4604, 2223.106
347.9425, 2224.854
348.4246, 2227.214
348.9067, 2230.790
349.3888, 2236.836
349.8709, 2245.093
350.3531, 2254.012
350.8352, 2264.923
351.3173, 2275.510
351.7994, 2281.798
352.2815, 2283.654
352.7636, 2280.714
353.2458, 2273.792
353.7279, 2261.799
354.2100, 2242.344
354.6921, 2212.609
355.1742, 2176.381
355.6563, 2135.929
356.1385, 2091.612
356.6206, 2045.728
357.1027, 1997.061
357.5848, 1948.834
358.0669, 1904.174
358.5490, 1864.391
359.0312, 1827.866
359.5133, 1794.086
359.9954, 1762.672
360.4775, 1731.998
360.9596, 1699.898
361.4417, 1669.216
361.9239, 1641.681
362.4060, 1618.027
362.8881, 1596.207
363.3702, 1577.125
363.8523, 1559.087
364.3344, 1539.498
364.8166, 1515.717
365.2987, 1491.800
365.7808, 1469.744
366.2629, 1449.579
366.7450, 1429.988
367.2271, 1411.433
367.7093, 1393.068
368.1914, 1374.149
368.6735, 1354.393
369.1556, 1334.187
369.6377, 1313.289
370.1198, 1291.792
370.6020, 1272.063
371.0841, 1254.959
371.5662, 1238.751
372.0483, 1222.705
372.5304, 1206.536
373.0125, 1190.810
373.4947, 1175.815
373.9768, 1161.318
374.4589, 1146.530
374.9410, 1131.173
375.4231, 1116.018
375.9052, 1101.154
376.3874, 1086.474
376.8695, 1072.714
377.3516, 1060.087
377.8337, 1047.798
378.3158, 1033.896
378.7979, 1017.865
379.2801, 1003.867
379.7622, 993.4368
380.2443, 985.8299
380.7264, 976.9268
381.2085, 966.4961
381.6906, 956.6885
382.1728, 949.4017
382.6549, 944.3577
383.1370, 940.3685
383.6191, 937.4037
384.1012, 935.0012
384.5833, 932.2458
385.0655, 929.2203
385.5476, 926.5663
386.0297, 924.5594
386.5118, 923.1600
386.9939, 922.5541
387.4760, 922.9223
387.9582, 922.9721
388.4403, 921.3406
388.9224, 918.4811
389.4045, 915.3685
389.8866, 912.9462
390.3687, 910.0446
390.8509, 905.1659
391.3330, 898.5258
391.8151, 892.2938
392.2972, 888.4467
392.7793, 885.3654
393.2614, 881.4017
393.7436, 875.2722
394.2257, 869.5011
394.7078, 865.4886
395.1899, 862.7195
395.6720, 859.8380
396.1541, 855.4260
396.6363, 851.6042
397.1184, 849.5938
397.6005, 850.1691
398.0826, 850.5206
398.5647, 849.6518
399.0468, 848.5374
399.5290, 848.3577
400.0111, 849.4473
400.4932, 851.2115
400.9753, 853.3344
401.4574, 855.8361
401.9395, 859.9011
402.4217, 866.1628
402.9038, 873.3338
403.3859, 880.5274
403.8680, 887.4034
404.3501, 895.1197
404.8322, 903.6838
405.3144, 913.1305
405.7965, 923.3837
406.2786, 934.6337
406.7607, 946.2147
407.2428, 957.4407
407.7249, 968.2916
408.2071, 981.1767
408.6892, 996.1700
409.1713, 1013.136
409.6534, 1032.520
410.1355, 1054.147
410.6176, 1075.924
411.0998, 1097.272
411.5819, 1118.529
412.0640, 1140.319
412.5461, 1162.484
413.0282, 1185.861
413.5103, 1210.971
413.9925, 1237.432
414.4746, 1264.936
414.9567, 1293.724
415.4388, 1322.844
415.9209, 1351.191
416.4030, 1379.232
416.8852, 1408.963
417.3673, 1441.654
417.8494, 1475.812
418.3315, 1511.020
418.8136, 1546.951
419.2957, 1582.714
419.7779, 1618.640
420.2600, 1653.521
420.7421, 1685.556
421.2242, 1714.494
421.7063, 1740.650
422.1884, 1766.226
422.6706, 1789.814
423.1527, 1807.079
423.6348, 1815.960
424.1169, 1818.945
424.5990, 1817.155
425.0811, 1810.637
425.5633, 1799.285
426.0454, 1781.103
426.5275, 1759.112
427.0096, 1737.046
427.4917, 1718.285
427.9738, 1694.293
428.4560, 1661.295
428.9381, 1619.617
429.4202, 1583.361
429.9023, 1554.015
430.3844, 1528.062
430.8665, 1503.513
431.3487, 1480.269
431.8308, 1458.843
432.3129, 1439.115
432.7950, 1421.421
433.2771, 1406.783
433.7592, 1395.317
434.2414, 1386.727
434.7235, 1381.625
435.2056, 1379.396
435.6877, 1377.354
436.1698, 1375.393
436.6519, 1374.835
437.1341, 1377.552
437.6162, 1382.739
438.0983, 1388.479
438.5804, 1394.628
439.0625, 1400.581
439.5446, 1405.060
440.0268, 1408.586
440.5089, 1413.033
440.9910, 1419.386
441.4731, 1427.220
441.9552, 1436.745
442.4373, 1448.279
442.9195, 1459.302
443.4016, 1467.539
443.8837, 1474.858
444.3658, 1483.528
444.8479, 1495.560
445.3300, 1507.701
445.8122, 1518.408
446.2943, 1527.924
446.7764, 1539.340
447.2585, 1554.008
447.7406, 1569.970
448.2227, 1586.402
448.7049, 1603.219
449.1870, 1620.269
449.6691, 1636.805
450.1512, 1653.877
450.6333, 1672.875
451.1154, 1694.559
451.5976, 1716.764
452.0797, 1738.138
452.5618, 1759.030
453.0439, 1784.162
453.5260, 1813.929
454.0081, 1845.159
454.4903, 1875.041
454.9724, 1903.370
455.4545, 1933.407
455.9366, 1965.291
456.4187, 1998.984
456.9008, 2033.964
457.3830, 2070.592
457.8651, 2107.625
458.3472, 2144.780
458.8293, 2182.421
459.3114, 2222.712
459.7935, 2265.302
460.2757, 2307.964
460.7578, 2347.469
461.2399, 2385.894
461.7220, 2426.276
462.2041, 2471.518
462.6862, 2516.074
463.1684, 2556.795
463.6505, 2594.358
464.1326, 2629.361
464.6147, 2662.178
465.0968, 2692.587
465.5789, 2720.192
466.0611, 2745.193
466.5432, 2766.103
467.0253, 2785.374
467.5074, 2798.697
467.9895, 2802.384
468.4716, 2793.408
468.9538, 2778.394
469.4359, 2758.339
469.9180, 2732.782
470.4001, 2699.555
470.8822, 2657.886
471.3643, 2610.354
471.8465, 2557.933
472.3286, 2500.684
472.8107, 2437.566
473.2928, 2368.568
473.7749, 2295.846
474.2570, 2221.575
474.7392, 2145.792
475.2213, 2073.101
475.7034, 2004.804
476.1855, 1939.761
476.6676, 1875.006
477.1497, 1810.580
477.6319, 1749.932
478.1140, 1694.044
478.5961, 1642.918
479.0782, 1596.891
479.5603, 1556.056
480.0424, 1519.050
480.5246, 1484.608
481.0067, 1453.323
481.4888, 1425.915
481.9709, 1402.504
482.4530, 1382.795
482.9352, 1367.334
483.4173, 1355.579
483.8994, 1345.815
484.3815, 1337.648
484.8636, 1331.177
485.3457, 1326.535
485.8279, 1323.853
486.3100, 1322.359
486.7921, 1322.379
487.2742, 1323.365
487.7563, 1324.819
488.2384, 1326.221
488.7206, 1329.092
489.2027, 1334.042
489.6848, 1340.512
490.1669, 1346.571
490.6490, 1352.224
491.1311, 1357.316
491.6133, 1361.289
492.0954, 1364.202
492.5775, 1368.751
493.0596, 1375.211
493.5417, 1382.088
494.0238, 1387.685
494.5060, 1392.258
494.9881, 1396.893
495.4702, 1401.882
495.9523, 1406.949
496.4344, 1411.410
496.9165, 1415.472
497.3987, 1419.898
497.8808, 1425.979
498.3629, 1432.150
498.8450, 1436.745
499.3271, 1439.618
499.8092, 1442.208
500.2914, 1444.518
500.7735, 1447.279
501.2556, 1451.268
501.7377, 1457.898
502.2198, 1464.211
502.7019, 1469.275
503.1841, 1473.554
503.6662, 1478.363
504.1483, 1484.284
504.6304, 1490.322
505.1125, 1495.830
505.5946, 1500.625
506.0768, 1507.412
506.5589, 1516.781
507.0410, 1527.247
507.5231, 1537.425
508.0052, 1547.001
508.4873, 1558.355
508.9695, 1571.891
509.4516, 1586.774
509.9337, 1601.374
510.4158, 1615.724
510.8979, 1630.396
511.3800, 1645.431
511.8622, 1661.134
512.3443, 1678.676
512.8264, 1697.838
513.3085, 1717.493
513.7906, 1736.780
514.2728, 1755.990
514.7549, 1775.471
515.2370, 1795.244
515.7191, 1815.439
516.2012, 1836.081
516.6833, 1857.153
517.1655, 1878.965
517.6476, 1901.976
518.1297, 1925.384
518.6118, 1949.037
519.0939, 1972.920
519.5760, 1996.928
520.0582, 2019.587
520.5403, 2043.487
521.0224, 2069.567
521.5045, 2098.702
521.9866, 2127.821
522.4688, 2156.817
522.9509, 2185.896
523.4330, 2215.993
523.9151, 2247.425
524.3972, 2277.938
524.8793, 2306.158
525.3615, 2333.500
525.8436, 2364.278
526.3257, 2398.597
526.8078, 2434.160
527.2899, 2471.509
527.7720, 2509.290
528.2542, 2542.788
528.7363, 2571.530
529.2184, 2601.286
529.7005, 2637.181
530.1826, 2676.595
530.6647, 2715.956
531.1469, 2753.622
531.6290, 2791.524
532.1111, 2830.569
532.5932, 2870.315
533.0753, 2909.700
533.5574, 2949.434
534.0396, 2988.111
534.5217, 3026.000
535.0038, 3062.780
535.4859, 3097.333
535.9680, 3129.339
536.4501, 3159.056
536.9323, 3186.857
537.4144, 3214.206
537.8965, 3236.022
538.3786, 3251.437
538.8607, 3262.384
539.3428, 3271.535
539.8250, 3279.097
540.3071, 3283.308
540.7892, 3283.277
541.2713, 3279.942
541.7534, 3275.698
542.2355, 3270.435
542.7177, 3262.793
543.1998, 3250.828
543.6819, 3236.211
544.1640, 3221.697
544.6461, 3207.536
545.1282, 3192.410
545.6104, 3174.426
546.0925, 3155.507
546.5746, 3137.948
547.0567, 3124.649
547.5388, 3109.603
548.0209, 3089.987
548.5031, 3067.382
548.9852, 3044.864
549.4673, 3023.946
549.9494, 3002.020
550.4315, 2978.411
550.9136, 2953.130
551.3958, 2927.126
551.8779, 2900.278
552.3600, 2872.855
552.8421, 2844.764
553.3242, 2816.002
553.8063, 2786.537
554.2885, 2756.230
554.7706, 2725.609
555.2527, 2695.663
555.7348, 2666.176
556.2169, 2635.437
556.6990, 2602.167
557.1812, 2568.908
557.6633, 2539.980
558.1454, 2514.527
558.6275, 2489.233
559.1096, 2461.179
559.5917, 2433.431
560.0739, 2408.781
560.5560, 2387.314
561.0381, 2367.892
561.5202, 2351.310
562.0023, 2336.044
562.4844, 2320.993
562.9666, 2304.948
563.4487, 2290.602
563.9308, 2277.216
564.4129, 2265.880
564.8950, 2258.604
565.3771, 2256.800
565.8593, 2255.767
566.3414, 2253.444
566.8235, 2251.192
567.3056, 2255.616
567.7877, 2267.156
568.2698, 2281.990
568.7520, 2297.906
569.2341, 2315.233
569.7162, 2336.179
570.1983, 2360.714
570.6804, 2387.594
571.1625, 2414.266
571.6447, 2442.587
572.1268, 2475.692
572.6089, 2515.746
573.0910, 2558.322
573.5731, 2600.877
574.0552, 2644.181
574.5374, 2690.531
575.0195, 2742.009
575.5016, 2794.862
575.9837, 2846.796
576.4658, 2898.038
576.9479, 2954.686
577.4301, 3019.833
577.9122, 3086.034
578.3943, 3150.164
578.8764, 3210.703
579.3585, 3276.369
579.8406, 3347.945
580.3228, 3422.936
580.8049, 3498.649
581.2870, 3574.861
581.7691, 3654.368
582.2512, 3737.536
582.7333, 3822.972
583.2155, 3909.359
583.6975, 3995.578
584.1796, 4082.616
584.6617, 4168.867
585.1439, 4256.330
585.6260, 4346.904
586.1081, 4440.307
586.5902, 4535.259
587.0723, 4635.290
587.5544, 4732.948
588.0366, 4825.094
588.5187, 4909.342
589.0008, 4994.510
589.4829, 5082.907
