##NAMES=Titanite
##RRUFFID=R050039
##IDEAL CHEMISTRY=CaTi^4+^SiO_5_
##LOCALITY=Kingman, Arizona, USA
##OWNER=RRUFF
##SOURCE=University of Arizona Mineral Museum
##DESCRIPTION=Black fragment from a single crystal
##STATUS=The identification of this mineral has been confirmed by X-ray diffraction and chemical analysis
##URL=rruff.info/R050039
##MEASURED CHEMISTRY=(Ca_0.95_Y_0.05_)(Ti_0.85_Al_0.10_Fe^3+^_0.06_)Si_1.00_O_4_(O_0.93_F_0.07_)
157.6603, 28585.87
158.1424, 28743.39
158.6245, 28919.80
159.1066, 29115.60
159.5887, 29338.29
160.0709, 29592.93
160.5530, 29873.88
161.0351, 30178.13
161.5172, 30511.07
161.9993, 30841.59
162.4814, 31146.96
162.9636, 31432.97
163.4457, 31712.81
163.9278, 31997.29
164.4099, 32274.83
164.8920, 32521.27
165.3741, 32732.97
165.8563, 32921.38
166.3384, 33084.77
166.8205, 33231.68
167.3026, 33375.61
167.7847, 33526.45
168.2668, 33676.93
168.7490, 33813.96
169.2311, 33941.70
169.7132, 34045.92
170.1953, 34111.93
170.6774, 34153.23
171.1595, 34188.41
171.6417, 34221.48
172.1238, 34255.74
172.6059, 34300.24
173.0880, 34358.79
173.5701, 34420.61
174.0522, 34478.09
174.5344, 34536.16
175.0165, 34600.71
175.4986, 34672.81
175.9807, 34754.65
176.4628, 34857.72
176.9449, 35000.42
177.4271, 35130.00
177.9092, 35224.92
178.3913, 35296.93
178.8734, 35358.44
179.3555, 35410.66
179.8376, 35461.73
180.3197, 35538.15
180.8019, 35653.34
181.2840, 35771.55
181.7661, 35872.14
182.2482, 35971.18
182.7303, 36091.71
183.2124, 36250.32
183.6946, 36429.01
184.1767, 36576.82
184.6588, 36684.78
185.1409, 36772.43
185.6230, 36830.68
186.1051, 36879.94
186.5873, 36942.75
187.0694, 37029.39
187.5515, 37136.11
188.0336, 37257.25
188.5157, 37401.33
188.9978, 37544.32
189.4800, 37679.68
189.9621, 37810.93
190.4442, 37946.93
190.9263, 38091.89
191.4084, 38234.46
191.8905, 38339.30
192.3727, 38356.92
192.8548, 38428.78
193.3369, 38611.55
193.8190, 38834.99
194.3011, 39031.23
194.7832, 39173.12
195.2654, 39285.26
195.7475, 39416.76
196.2296, 39567.31
196.7117, 39743.30
197.1938, 39970.85
197.6759, 40206.12
198.1581, 40411.86
198.6402, 40576.02
199.1223, 40708.58
199.6044, 40823.86
200.0865, 40905.31
200.5686, 41003.43
201.0508, 41123.57
201.5329, 41258.14
202.0150, 41414.02
202.4971, 41589.65
202.9792, 41753.20
203.4613, 41847.50
203.9435, 41832.65
204.4256, 41836.28
204.9077, 41854.80
205.3898, 41896.76
205.8719, 41973.99
206.3540, 42086.24
206.8362, 42216.84
207.3183, 42349.93
207.8004, 42499.60
208.2825, 42610.52
208.7646, 42656.93
209.2467, 42689.69
209.7289, 42733.91
210.2110, 42794.17
210.6931, 42863.29
211.1752, 42931.30
211.6573, 42992.22
212.1395, 43073.79
212.6216, 43183.91
213.1037, 43305.62
213.5858, 43436.72
214.0679, 43573.10
214.5500, 43707.24
215.0322, 43832.34
215.5143, 43948.12
215.9964, 44053.88
216.4785, 44141.90
216.9606, 44227.74
217.4427, 44317.25
217.9249, 44409.96
218.4070, 44503.16
218.8891, 44594.86
219.3712, 44685.07
219.8533, 44773.00
220.3354, 44855.06
220.8176, 44938.31
221.2997, 45037.79
221.7818, 45139.82
222.2639, 45217.88
222.7460, 45251.15
223.2281, 45243.54
223.7103, 45234.37
224.1924, 45214.86
224.6745, 45203.88
225.1566, 45206.78
225.6387, 45220.27
226.1208, 45243.45
226.6030, 45278.42
227.0851, 45316.43
227.5672, 45318.63
228.0493, 45246.77
228.5314, 45189.23
229.0135, 45169.88
229.4957, 45168.77
229.9778, 45160.39
230.4599, 45132.74
230.9420, 45098.54
231.4241, 45090.88
231.9062, 45130.12
232.3884, 45162.02
232.8705, 45182.40
233.3526, 45192.18
233.8347, 45190.52
234.3168, 45177.40
234.7989, 45157.52
235.2811, 45138.18
235.7632, 45118.15
236.2453, 45101.82
236.7274, 45092.93
237.2095, 45084.88
237.6916, 45076.26
238.1738, 45065.50
238.6559, 45047.15
239.1380, 45008.98
239.6201, 44940.04
240.1022, 44892.14
240.5843, 44877.66
241.0665, 44875.89
241.5486, 44888.94
242.0307, 44909.96
242.5128, 44917.78
242.9949, 44887.07
243.4770, 44813.80
243.9592, 44749.45
244.4413, 44693.40
244.9234, 44647.65
245.4055, 44608.54
245.8876, 44579.82
246.3697, 44573.12
246.8519, 44610.49
247.3340, 44682.00
247.8161, 44692.04
248.2982, 44583.91
248.7803, 44488.11
249.2624, 44472.84
249.7446, 44495.10
250.2267, 44478.66
250.7088, 44367.86
251.1909, 44207.92
251.6730, 44137.05
252.1551, 44203.68
252.6373, 44262.20
253.1194, 44255.29
253.6015, 44221.20
254.0836, 44204.65
254.5657, 44226.14
255.0478, 44253.95
255.5300, 44224.41
256.0121, 44112.52
256.4942, 44039.19
256.9763, 44080.11
257.4584, 44149.82
257.9406, 44193.38
258.4227, 44199.45
258.9048, 44176.42
259.3869, 44118.50
259.8690, 44022.93
260.3511, 43956.33
260.8333, 43955.58
261.3154, 43966.59
261.7975, 43947.16
262.2796, 43897.50
262.7617, 43848.64
263.2438, 43826.80
263.7260, 43826.55
264.2081, 43816.34
264.6902, 43790.33
265.1723, 43757.48
265.6544, 43718.77
266.1365, 43677.64
266.6187, 43647.10
267.1008, 43646.00
267.5829, 43657.32
268.0650, 43641.61
268.5471, 43591.07
269.0292, 43536.27
269.5114, 43483.48
269.9935, 43442.09
270.4756, 43434.93
270.9577, 43492.91
271.4398, 43567.02
271.9219, 43601.25
272.4041, 43594.68
272.8862, 43578.92
273.3683, 43564.90
273.8504, 43553.48
274.3325, 43547.19
274.8146, 43552.50
275.2968, 43551.34
275.7789, 43513.77
276.2610, 43454.16
276.7431, 43437.54
277.2252, 43502.03
277.7073, 43599.71
278.1895, 43646.56
278.6716, 43632.55
279.1537, 43626.73
279.6358, 43652.64
280.1179, 43703.12
280.6000, 43774.02
281.0822, 43868.75
281.5643, 43958.30
282.0464, 44006.76
282.5285, 44011.62
283.0106, 44004.25
283.4927, 43963.46
283.9749, 43927.39
284.4570, 43936.84
284.9391, 43992.48
285.4212, 44059.24
285.9033, 44111.50
286.3854, 44148.39
286.8676, 44175.51
287.3497, 44168.33
287.8318, 44175.84
288.3139, 44238.65
288.7960, 44337.28
289.2781, 44415.50
289.7603, 44438.81
290.2424, 44423.86
290.7245, 44440.66
291.2066, 44519.39
291.6887, 44590.20
292.1708, 44635.98
292.6530, 44670.62
293.1351, 44710.33
293.6172, 44760.93
294.0993, 44820.04
294.5814, 44883.55
295.0635, 44955.66
295.5457, 45024.66
296.0278, 45083.12
296.5099, 45143.57
296.9920, 45215.25
297.4741, 45298.86
297.9562, 45386.76
298.4384, 45468.89
298.9205, 45540.56
299.4026, 45641.90
299.8847, 45794.22
300.3668, 45953.78
300.8489, 46113.21
301.3311, 46268.73
301.8131, 46414.92
302.2953, 46547.51
302.7774, 46669.05
303.2595, 46791.77
303.7416, 46909.89
304.2237, 47038.72
304.7058, 47201.93
305.1880, 47367.39
305.6701, 47500.29
306.1522, 47587.52
306.6343, 47643.71
307.1164, 47682.67
307.5985, 47690.15
308.0807, 47733.19
308.5628, 47853.57
309.0449, 47993.21
309.5270, 48121.64
310.0091, 48235.36
310.4912, 48341.90
310.9734, 48448.76
311.4555, 48555.32
311.9376, 48656.49
312.4197, 48769.72
312.9018, 48848.01
313.3839, 48839.90
313.8661, 48776.37
314.3482, 48738.47
314.8303, 48770.31
315.3124, 48846.68
315.7945, 48928.80
316.2766, 49018.21
316.7588, 49103.77
317.2409, 49178.57
317.7230, 49244.90
318.2051, 49306.02
318.6872, 49360.29
319.1693, 49412.23
319.6515, 49467.12
320.1336, 49522.86
320.6157, 49571.85
321.0978, 49612.76
321.5799, 49643.15
322.0620, 49653.82
322.5442, 49640.11
323.0263, 49638.36
323.5084, 49678.34
323.9905, 49727.74
324.4726, 49739.72
324.9547, 49706.58
325.4369, 49662.78
325.9190, 49641.91
326.4011, 49646.92
326.8832, 49639.62
327.3653, 49605.08
327.8474, 49572.33
328.3296, 49573.07
328.8117, 49591.57
329.2938, 49576.64
329.7759, 49493.82
330.2580, 49362.04
330.7401, 49269.86
331.2223, 49291.46
331.7044, 49260.03
332.1865, 49108.29
332.6686, 48917.78
333.1507, 48781.59
333.6328, 48726.35
334.1150, 48703.35
334.5971, 48639.46
335.0792, 48519.11
335.5613, 48399.48
336.0434, 48281.54
336.5255, 48163.64
337.0077, 48048.23
337.4898, 47933.27
337.9719, 47809.17
338.4540, 47660.25
338.9361, 47494.69
339.4182, 47393.21
339.9004, 47425.97
340.3825, 47419.42
340.8646, 47288.46
341.3467, 47105.94
341.8288, 46966.08
342.3109, 46907.02
342.7931, 46886.10
343.2752, 46844.09
343.7573, 46779.33
344.2394, 46703.77
344.7215, 46609.21
345.2036, 46513.04
345.6858, 46430.66
346.1679, 46362.25
346.6500, 46293.08
347.1321, 46203.29
347.6142, 46105.80
348.0963, 46042.50
348.5785, 46028.07
349.0606, 46014.52
349.5427, 45961.53
350.0248, 45878.64
350.5069, 45791.89
350.9890, 45702.80
351.4712, 45613.35
351.9533, 45517.38
352.4354, 45418.92
352.9175, 45344.04
353.3996, 45314.92
353.8817, 45305.52
354.3639, 45243.22
354.8460, 45113.01
355.3281, 44976.41
355.8102, 44828.76
356.2923, 44690.10
356.7744, 44598.19
357.2566, 44557.25
357.7387, 44520.37
358.2208, 44431.71
358.7029, 44276.50
359.1850, 44150.81
359.6671, 44077.53
360.1493, 44006.84
360.6314, 43920.79
361.1135, 43819.66
361.5956, 43705.84
362.0777, 43578.44
362.5598, 43445.08
363.0420, 43333.79
363.5241, 43261.08
364.0062, 43184.88
364.4883, 43092.96
364.9704, 43000.34
365.4525, 42918.64
365.9347, 42850.92
366.4168, 42793.25
366.8989, 42744.07
367.3810, 42703.50
367.8631, 42661.85
368.3452, 42613.82
368.8274, 42570.80
369.3095, 42537.07
369.7916, 42512.04
370.2737, 42495.78
370.7558, 42499.24
371.2379, 42502.53
371.7201, 42468.10
372.2022, 42392.77
372.6843, 42309.86
373.1664, 42220.82
373.6485, 42140.88
374.1306, 42097.74
374.6128, 42106.73
375.0949, 42100.37
375.5770, 42027.70
376.0591, 41917.87
376.5412, 41832.18
377.0233, 41785.27
377.5055, 41745.28
377.9876, 41677.91
378.4697, 41579.67
378.9518, 41493.62
379.4339, 41416.77
379.9160, 41355.62
380.3982, 41332.70
380.8803, 41330.87
381.3624, 41302.23
381.8445, 41218.54
382.3266, 41098.92
382.8087, 40999.28
383.2909, 40915.61
383.7730, 40862.16
384.2551, 40872.00
384.7372, 40890.43
385.2193, 40864.68
385.7014, 40791.70
386.1836, 40714.62
386.6657, 40680.48
387.1478, 40691.95
387.6299, 40696.75
388.1120, 40684.41
388.5941, 40677.69
389.0763, 40686.59
389.5584, 40705.08
390.0405, 40724.74
390.5226, 40743.55
391.0047, 40757.71
391.4868, 40755.21
391.9690, 40732.46
392.4511, 40729.11
392.9332, 40775.26
393.4153, 40827.04
393.8974, 40833.17
394.3795, 40794.09
394.8617, 40774.02
395.3438, 40830.02
395.8259, 40916.29
396.3080, 40947.65
396.7901, 40913.70
397.2722, 40881.65
397.7544, 40903.75
398.2365, 40967.56
398.7186, 41002.67
399.2007, 40979.32
399.6828, 40960.93
400.1649, 40973.68
400.6471, 41007.07
401.1292, 41048.52
401.6113, 41094.19
402.0934, 41132.59
402.5755, 41142.20
403.0576, 41096.37
403.5398, 41106.33
404.0219, 41222.75
404.5040, 41339.98
404.9861, 41397.53
405.4682, 41409.96
405.9503, 41422.80
406.4325, 41464.41
406.9146, 41528.82
407.3967, 41596.77
407.8788, 41676.74
408.3609, 41742.12
408.8430, 41754.04
409.3252, 41772.88
409.8073, 41856.63
410.2894, 42010.70
410.7715, 42176.54
411.2536, 42311.62
411.7357, 42417.55
412.2179, 42492.61
412.7000, 42524.42
413.1821, 42554.14
413.6642, 42614.48
414.1463, 42692.76
414.6284, 42761.63
415.1106, 42793.46
415.5927, 42842.70
416.0748, 42979.37
416.5569, 43169.79
417.0390, 43303.52
417.5211, 43337.28
418.0033, 43320.61
418.4854, 43324.91
418.9675, 43357.93
419.4496, 43386.72
419.9317, 43393.84
420.4138, 43409.81
420.8960, 43472.60
421.3781, 43565.62
421.8602, 43634.17
422.3423, 43641.59
422.8244, 43600.45
423.3065, 43563.47
423.7887, 43516.42
424.2708, 43497.77
424.7529, 43532.84
425.2350, 43580.63
425.7171, 43605.63
426.1992, 43604.27
426.6814, 43600.35
427.1635, 43625.21
427.6456, 43674.26
428.1277, 43685.30
428.6098, 43635.82
429.0919, 43591.51
429.5741, 43591.17
430.0562, 43615.90
430.5383, 43639.92
431.0204, 43657.94
431.5025, 43672.40
431.9846, 43684.06
432.4668, 43693.65
432.9489, 43705.34
433.4310, 43722.05
433.9131, 43734.57
434.3952, 43727.95
434.8773, 43699.18
435.3595, 43685.22
435.8416, 43697.66
436.3237, 43716.84
436.8058, 43727.52
437.2879, 43734.91
437.7701, 43758.52
438.2522, 43810.08
438.7343, 43871.87
439.2164, 43898.11
439.6985, 43872.09
440.1806, 43838.14
440.6628, 43786.19
441.1449, 43736.55
441.6270, 43702.40
442.1091, 43683.23
442.5912, 43669.79
443.0733, 43652.05
443.5555, 43636.02
444.0376, 43649.96
444.5197, 43707.28
445.0018, 43757.14
445.4839, 43780.33
445.9660, 43786.14
446.4482, 43780.00
446.9303, 43761.35
447.4124, 43740.20
447.8945, 43714.35
448.3766, 43691.92
448.8587, 43693.50
449.3409, 43723.07
449.8230, 43760.39
450.3051, 43794.80
450.7872, 43824.04
451.2693, 43832.72
451.7514, 43794.64
452.2336, 43768.06
452.7157, 43782.27
453.1978, 43815.80
453.6799, 43845.73
454.1620, 43863.30
454.6441, 43857.02
455.1263, 43803.13
455.6084, 43683.88
456.0905, 43618.23
456.5726, 43670.67
457.0547, 43713.02
457.5368, 43695.79
458.0190, 43645.52
458.5011, 43606.52
458.9832, 43597.36
459.4653, 43606.32
459.9474, 43617.82
460.4295, 43631.76
460.9117, 43654.34
461.3938, 43698.36
461.8759, 43735.12
462.3580, 43731.91
462.8401, 43696.57
463.3222, 43669.59
463.8044, 43663.37
464.2865, 43668.86
464.7686, 43693.79
465.2507, 43727.21
465.7328, 43720.98
466.2149, 43647.92
466.6971, 43546.82
467.1792, 43495.13
467.6613, 43525.37
468.1434, 43538.56
468.6255, 43529.66
469.1076, 43508.55
469.5898, 43476.05
470.0719, 43436.43
470.5540, 43398.94
471.0361, 43369.71
471.5182, 43345.18
472.0003, 43312.45
472.4825, 43265.75
472.9646, 43227.26
473.4467, 43241.33
473.9288, 43235.79
474.4109, 43139.96
474.8930, 42962.54
475.3752, 42805.06
475.8573, 42738.06
476.3394, 42723.18
476.8215, 42698.24
477.3036, 42661.77
477.7857, 42621.57
478.2679, 42576.23
478.7500, 42534.07
479.2321, 42519.40
479.7142, 42548.78
480.1963, 42560.46
480.6784, 42538.94
481.1606, 42497.27
481.6427, 42432.30
482.1248, 42353.96
482.6069, 42301.24
483.0890, 42308.88
483.5711, 42359.87
484.0533, 42356.18
484.5354, 42249.95
485.0175, 42166.96
485.4996, 42141.51
485.9817, 42131.86
486.4638, 42103.53
486.9460, 42053.91
487.4281, 42006.22
487.9102, 41981.81
488.3923, 41973.05
488.8744, 41958.29
489.3565, 41937.83
489.8387, 41909.06
490.3208, 41872.40
490.8029, 41824.85
491.2850, 41759.77
491.7671, 41667.11
492.2492, 41585.84
492.7314, 41543.21
493.2135, 41511.61
493.6956, 41453.06
494.1777, 41368.46
494.6598, 41293.14
495.1419, 41255.40
495.6241, 41249.26
496.1062, 41235.40
496.5883, 41216.42
497.0704, 41184.93
497.5525, 41130.76
498.0346, 41070.82
498.5168, 41017.93
498.9989, 40974.05
499.4810, 40935.07
499.9631, 40897.21
500.4452, 40861.46
500.9273, 40832.54
501.4095, 40811.11
501.8916, 40794.38
502.3737, 40788.79
502.8558, 40782.28
503.3379, 40751.51
503.8200, 40686.13
504.3022, 40639.34
504.7843, 40647.40
505.2664, 40675.26
505.7485, 40685.30
506.2306, 40674.31
506.7127, 40652.20
507.1949, 40624.70
507.6770, 40592.53
508.1591, 40558.50
508.6412, 40502.11
509.1233, 40475.40
509.6054, 40513.89
510.0876, 40556.32
510.5697, 40550.96
511.0518, 40502.37
511.5339, 40456.43
512.0161, 40451.85
512.4982, 40469.92
512.9803, 40456.83
513.4624, 40407.84
513.9445, 40354.85
514.4266, 40295.50
514.9088, 40249.88
515.3909, 40250.79
515.8730, 40303.00
516.3551, 40338.45
516.8372, 40329.78
517.3193, 40300.50
517.8015, 40265.88
518.2836, 40229.59
518.7657, 40197.05
519.2478, 40171.16
519.7299, 40151.47
520.2120, 40136.16
520.6942, 40118.32
521.1763, 40118.98
521.6584, 40155.73
522.1405, 40192.22
522.6226, 40208.27
523.1047, 40207.83
523.5869, 40207.16
524.0690, 40219.66
524.5511, 40225.62
525.0332, 40186.66
525.5153, 40103.09
525.9974, 40014.46
526.4796, 39908.62
526.9617, 39835.61
527.4438, 39878.88
527.9259, 40022.04
528.4080, 40122.57
528.8901, 40139.59
529.3723, 40129.69
529.8544, 40119.70
530.3365, 40108.34
530.8186, 40086.29
531.3007, 40050.94
531.7828, 40019.41
532.2650, 40018.25
532.7471, 40054.73
533.2292, 40076.70
533.7113, 40098.37
534.1934, 40086.72
534.6755, 39990.39
535.1577, 39871.37
535.6398, 39820.53
536.1219, 39868.88
536.6040, 39937.04
537.0861, 39954.29
537.5682, 39932.04
538.0504, 39903.85
538.5325, 39872.73
539.0146, 39844.89
539.4967, 39832.69
539.9788, 39826.94
540.4609, 39783.05
540.9431, 39636.68
541.4252, 39543.61
541.9073, 39588.04
542.3894, 39665.60
542.8715, 39678.29
543.3536, 39617.53
543.8358, 39526.58
544.3179, 39433.20
544.8000, 39343.89
545.2821, 39294.05
545.7642, 39305.94
546.2463, 39296.41
546.7285, 39234.35
547.2106, 39149.87
547.6927, 39050.88
548.1748, 38942.86
548.6569, 38866.13
549.1390, 38873.87
549.6211, 38897.30
550.1032, 38856.35
550.5853, 38761.84
551.0674, 38663.59
551.5496, 38578.13
552.0317, 38511.27
552.5138, 38476.11
552.9959, 38491.80
553.4780, 38473.24
553.9601, 38404.90
554.4423, 38324.11
554.9244, 38234.79
555.4065, 38146.29
555.8886, 38076.80
556.3707, 38033.48
556.8528, 37986.17
557.3350, 37882.19
557.8171, 37732.72
558.2992, 37635.51
558.7813, 37612.75
559.2634, 37600.88
559.7455, 37565.13
560.2277, 37506.75
560.7098, 37433.39
561.1919, 37327.19
561.6740, 37237.07
562.1561, 37206.53
562.6382, 37182.52
563.1204, 37088.73
563.6025, 36933.90
564.0846, 36803.79
564.5667, 36763.87
565.0488, 36790.09
565.5309, 36785.87
566.0131, 36737.92
566.4952, 36693.35
566.9773, 36691.07
567.4594, 36668.31
567.9415, 36562.08
568.4236, 36391.98
568.9058, 36252.69
569.3879, 36194.99
569.8700, 36174.98
570.3521, 36163.34
570.8342, 36153.16
571.3163, 36112.18
571.7985, 36027.18
572.2806, 35943.56
572.7627, 35920.97
573.2448, 35969.06
573.7269, 35985.96
574.2090, 35958.38
574.6912, 35917.30
575.1733, 35860.78
575.6554, 35799.78
576.1375, 35749.17
576.6196, 35710.63
577.1017, 35666.33
577.5839, 35594.18
578.0660, 35503.32
578.5481, 35421.45
579.0302, 35348.09
579.5123, 35293.83
579.9944, 35270.98
580.4766, 35263.88
580.9587, 35243.04
581.4408, 35207.20
581.9229, 35166.77
582.4050, 35114.50
582.8871, 35066.17
583.3693, 35037.77
583.8514, 35021.18
584.3335, 35000.91
584.8156, 34970.19
585.2977, 34922.70
585.7798, 34836.54
586.2620, 34705.36
586.7441, 34614.95
587.2262, 34585.49
587.7083, 34569.46
588.1904, 34545.24
588.6725, 34514.99
589.1547, 34481.53
589.6368, 34444.43
590.1189, 34405.81
590.6010, 34361.38
591.0831, 34318.76
591.5652, 34287.52
592.0474, 34268.31
592.5295, 34257.72
593.0116, 34253.89
593.4937, 34256.45
593.9758, 34266.47
594.4579, 34294.20
594.9401, 34304.92
595.4222, 34279.26
595.9043, 34250.73
596.3864, 34241.41
596.8685, 34242.41
597.3506, 34226.90
597.8328, 34173.05
598.3149, 34123.30
598.7970, 34131.29
599.2791, 34171.96
599.7612, 34175.68
600.2433, 34128.95
600.7255, 34072.68
601.2076, 34039.47
601.6897, 34027.77
602.1718, 34024.82
602.6539, 34020.72
603.1360, 34040.49
603.6182, 34120.93
604.1003, 34197.99
604.5824, 34218.86
605.0645, 34189.17
605.5466, 34149.77
606.0287, 34114.49
606.5109, 34095.14
606.9930, 34125.84
607.4751, 34197.40
607.9572, 34231.64
608.4393, 34203.25
608.9214, 34156.25
609.4036, 34132.13
609.8857, 34131.05
610.3678, 34135.85
610.8499, 34160.06
611.3320, 34172.50
611.8141, 34148.61
612.2963, 34120.38
612.7784, 34122.05
613.2605, 34155.30
613.7426, 34196.79
614.2247, 34230.07
614.7068, 34258.14
615.1890, 34295.28
615.6711, 34343.19
616.1532, 34355.26
616.6353, 34298.43
617.1174, 34236.49
617.5995, 34252.47
618.0817, 34348.40
618.5638, 34404.82
619.0459, 34379.03
619.5280, 34357.13
620.0101, 34379.18
620.4922, 34420.35
620.9744, 34451.69
621.4565, 34466.04
621.9386, 34466.93
622.4207, 34448.29
622.9028, 34422.67
623.3849, 34451.68
623.8671, 34549.89
624.3492, 34614.52
624.8313, 34594.96
625.3134, 34551.23
625.7955, 34559.82
626.2776, 34617.22
626.7598, 34660.26
627.2419, 34665.61
627.7240, 34670.46
628.2061, 34703.94
628.6882, 34744.39
629.1703, 34748.34
629.6525, 34712.11
630.1346, 34687.96
630.6167, 34738.73
631.0988, 34843.76
631.5809, 34882.39
632.0630, 34839.27
632.5452, 34786.80
633.0273, 34719.99
633.5094, 34679.23
633.9915, 34732.32
634.4736, 34872.46
634.9557, 34960.70
635.4379, 34941.10
635.9200, 34892.18
636.4021, 34833.64
636.8842, 34783.58
637.3663, 34776.12
637.8484, 34814.54
638.3306, 34858.11
638.8127, 34864.73
639.2948, 34841.42
639.7769, 34833.07
640.2590, 34846.00
640.7411, 34850.11
641.2233, 34823.43
641.7054, 34797.60
642.1875, 34811.87
642.6696, 34862.30
643.1517, 34899.52
643.6339, 34904.50
644.1160, 34903.25
644.5981, 34917.28
645.0802, 34931.49
645.5623, 34918.04
646.0444, 34873.82
646.5266, 34823.14
647.0087, 34786.54
647.4908, 34763.79
647.9729, 34758.24
648.4550, 34776.97
648.9371, 34782.88
649.4193, 34751.25
649.9014, 34720.31
650.3835, 34743.30
650.8656, 34808.49
651.3477, 34829.52
651.8298, 34745.05
652.3120, 34666.90
652.7941, 34662.11
653.2762, 34687.57
