##NAMES=Titanowodginite
##RRUFFID=R061033
##IDEAL CHEMISTRY=Mn^2+^Ti^4+^Ta^5+^_2_O_8_
##LOCALITY=Tanco pegmatite, Manitoba, Canada
##OWNER=RRUFF
##SOURCE=Michael Scott
##DESCRIPTION=Black crystal fragments embedded in beryl and associated with muscovite
##STATUS=The identification of this mineral has been confirmed only by single crystal X-ray diffraction.
##URL=rruff.info/R061033
119.5937, 952.3932
120.0758, 1003.003
120.5579, 1040.574
121.0400, 1078.404
121.5221, 1130.364
122.0043, 1202.760
122.4864, 1270.580
122.9685, 1312.620
123.4506, 1334.244
123.9327, 1350.656
124.4148, 1372.354
124.8969, 1393.972
125.3791, 1406.895
125.8612, 1405.255
126.3433, 1399.308
126.8254, 1401.248
127.3075, 1410.737
127.7896, 1423.433
128.2718, 1439.990
128.7539, 1457.858
129.2360, 1468.526
129.7181, 1467.696
130.2002, 1458.097
130.6823, 1446.015
131.1645, 1431.393
131.6466, 1414.455
132.1287, 1393.411
132.6108, 1368.763
133.0929, 1346.776
133.5750, 1329.086
134.0572, 1315.848
134.5393, 1311.437
135.0214, 1318.225
135.5035, 1330.405
135.9856, 1333.823
136.4677, 1326.252
136.9499, 1321.928
137.4320, 1333.855
137.9141, 1365.294
138.3962, 1387.423
138.8783, 1397.474
139.3604, 1395.642
139.8426, 1379.809
140.3247, 1342.405
140.8068, 1304.654
141.2889, 1287.598
141.7710, 1300.337
142.2531, 1309.852
142.7353, 1307.667
143.2174, 1292.226
143.6995, 1282.320
144.1816, 1278.936
144.6637, 1280.405
145.1458, 1285.386
145.6280, 1300.729
146.1101, 1309.979
146.5922, 1307.443
147.0743, 1288.629
147.5564, 1267.861
148.0385, 1240.774
148.5207, 1211.871
149.0028, 1193.249
149.4849, 1192.249
149.9670, 1195.781
150.4491, 1198.212
150.9312, 1203.537
151.4134, 1203.379
151.8955, 1192.383
152.3776, 1172.734
152.8597, 1162.328
153.3418, 1174.216
153.8239, 1189.183
154.3061, 1194.388
154.7882, 1180.870
155.2703, 1165.050
155.7524, 1149.149
156.2345, 1133.182
156.7166, 1118.927
157.1988, 1104.011
157.6809, 1091.861
158.1630, 1086.294
158.6451, 1096.385
159.1272, 1106.511
159.6093, 1109.570
160.0915, 1101.900
160.5736, 1096.877
161.0557, 1100.564
161.5378, 1109.741
162.0199, 1118.576
162.5020, 1127.958
162.9841, 1134.326
163.4663, 1135.495
163.9484, 1130.310
164.4305, 1121.254
164.9126, 1105.039
165.3947, 1084.696
165.8768, 1070.381
166.3590, 1071.245
166.8411, 1078.787
167.3232, 1085.319
167.8053, 1089.197
168.2874, 1091.003
168.7695, 1089.614
169.2517, 1085.492
169.7338, 1082.996
170.2159, 1088.901
170.6980, 1097.362
171.1801, 1100.458
171.6622, 1088.322
172.1444, 1073.378
172.6265, 1068.753
173.1086, 1075.287
173.5907, 1081.978
174.0728, 1076.540
174.5549, 1064.275
175.0371, 1057.039
175.5192, 1064.833
176.0013, 1079.310
176.4834, 1090.541
176.9655, 1098.001
177.4476, 1100.551
177.9298, 1091.965
178.4119, 1075.379
178.8940, 1064.046
179.3761, 1069.342
179.8582, 1084.623
180.3403, 1097.001
180.8225, 1104.033
181.3046, 1108.700
181.7867, 1116.005
182.2688, 1125.465
182.7509, 1133.211
183.2330, 1134.831
183.7152, 1132.127
184.1973, 1131.416
184.6794, 1136.008
185.1615, 1141.704
185.6436, 1137.841
186.1257, 1124.101
186.6079, 1110.729
187.0900, 1108.335
187.5721, 1115.202
188.0542, 1121.347
188.5363, 1123.305
189.0184, 1122.545
189.5006, 1123.274
189.9827, 1125.366
190.4648, 1129.720
190.9469, 1140.559
191.4290, 1157.190
191.9111, 1168.008
192.3932, 1166.089
192.8754, 1153.426
193.3575, 1144.376
193.8396, 1139.543
194.3217, 1136.702
194.8038, 1133.414
195.2859, 1129.750
195.7681, 1124.376
196.2502, 1113.343
196.7323, 1097.011
197.2144, 1092.558
197.6965, 1104.054
198.1786, 1122.271
198.6608, 1128.432
199.1429, 1120.631
199.6250, 1111.074
200.1071, 1106.986
200.5892, 1108.819
201.0714, 1108.388
201.5535, 1104.050
202.0356, 1097.708
202.5177, 1095.090
202.9998, 1096.933
203.4819, 1099.733
203.9641, 1101.127
204.4462, 1100.939
204.9283, 1100.180
205.4104, 1098.312
205.8925, 1095.993
206.3746, 1096.975
206.8568, 1102.378
207.3389, 1108.410
207.8210, 1112.187
208.3031, 1113.732
208.7852, 1113.061
209.2673, 1109.307
209.7495, 1102.928
210.2316, 1099.709
210.7137, 1101.504
211.1958, 1103.477
211.6779, 1099.996
212.1600, 1088.949
212.6422, 1079.389
213.1243, 1074.368
213.6064, 1074.171
214.0885, 1069.508
214.5706, 1057.306
215.0527, 1044.220
215.5349, 1039.899
216.0170, 1048.311
216.4991, 1055.213
216.9812, 1055.204
217.4633, 1046.434
217.9454, 1043.734
218.4276, 1050.613
218.9097, 1060.613
219.3918, 1062.384
219.8739, 1050.306
220.3560, 1041.571
220.8381, 1044.715
221.3203, 1066.277
221.8024, 1073.584
222.2845, 1059.369
222.7666, 1034.853
223.2487, 1023.746
223.7308, 1031.359
224.2129, 1043.515
224.6951, 1055.576
225.1772, 1070.252
225.6593, 1077.778
226.1414, 1075.301
226.6235, 1066.389
227.1056, 1061.250
227.5878, 1062.267
228.0699, 1063.343
228.5520, 1061.089
229.0341, 1052.711
229.5162, 1047.342
229.9983, 1045.480
230.4805, 1046.815
230.9626, 1050.774
231.4447, 1060.350
231.9268, 1068.540
232.4089, 1070.543
232.8910, 1061.269
233.3732, 1057.116
233.8553, 1062.041
234.3374, 1073.710
234.8195, 1077.921
235.3016, 1069.688
235.7837, 1060.147
236.2659, 1057.218
236.7480, 1066.667
237.2301, 1070.883
237.7122, 1065.260
238.1943, 1051.419
238.6764, 1045.411
239.1586, 1051.917
239.6407, 1061.094
240.1228, 1065.204
240.6049, 1060.981
241.0870, 1058.209
241.5691, 1059.111
242.0513, 1063.444
242.5334, 1064.351
243.0155, 1058.759
243.4976, 1052.885
243.9797, 1052.316
244.4618, 1059.775
244.9440, 1067.257
245.4261, 1073.827
245.9082, 1079.466
246.3903, 1083.017
246.8724, 1083.127
247.3545, 1082.451
247.8367, 1084.074
248.3188, 1090.974
248.8009, 1094.159
249.2830, 1089.540
249.7651, 1076.455
250.2472, 1072.703
250.7294, 1084.005
251.2115, 1099.154
251.6936, 1105.900
252.1757, 1100.980
252.6578, 1094.004
253.1399, 1086.393
253.6220, 1077.999
254.1042, 1070.647
254.5863, 1062.808
255.0684, 1057.576
255.5505, 1059.435
256.0326, 1072.087
256.5147, 1084.491
256.9969, 1094.822
257.4790, 1103.348
257.9611, 1106.524
258.4432, 1101.712
258.9253, 1094.110
259.4074, 1089.892
259.8896, 1088.191
260.3717, 1091.995
260.8538, 1104.662
261.3359, 1128.333
261.8180, 1141.704
262.3001, 1140.696
262.7823, 1133.743
263.2644, 1133.080
263.7465, 1141.696
264.2286, 1149.010
264.7107, 1150.622
265.1928, 1145.470
265.6750, 1145.842
266.1571, 1154.640
266.6392, 1165.615
267.1213, 1169.183
267.6034, 1162.694
268.0855, 1156.443
268.5677, 1153.623
269.0498, 1154.421
269.5319, 1156.911
270.0140, 1161.439
270.4961, 1167.291
270.9782, 1174.533
271.4604, 1184.785
271.9425, 1190.764
272.4246, 1187.988
272.9067, 1175.522
273.3888, 1168.456
273.8709, 1167.276
274.3531, 1170.691
274.8352, 1177.558
275.3173, 1188.410
275.7994, 1200.010
276.2815, 1210.815
276.7636, 1220.604
277.2458, 1234.040
277.7279, 1253.313
278.2100, 1271.962
278.6921, 1278.146
279.1742, 1269.955
279.6563, 1263.562
280.1385, 1265.590
280.6206, 1275.743
281.1027, 1288.741
281.5848, 1306.156
282.0669, 1322.652
282.5490, 1327.983
283.0312, 1321.318
283.5133, 1317.543
283.9954, 1324.395
284.4775, 1340.875
284.9596, 1354.813
285.4417, 1366.277
285.9239, 1375.362
286.4060, 1380.014
286.8881, 1380.381
287.3702, 1384.638
287.8523, 1400.336
288.3344, 1424.404
288.8166, 1437.802
289.2987, 1439.441
289.7808, 1435.413
290.2629, 1432.964
290.7450, 1431.839
291.2271, 1429.511
291.7093, 1424.570
292.1914, 1417.544
292.6735, 1410.019
293.1556, 1402.067
293.6377, 1394.103
294.1198, 1387.464
294.6020, 1381.649
295.0841, 1374.210
295.5662, 1363.270
296.0483, 1350.019
296.5304, 1336.566
297.0125, 1322.764
297.4947, 1310.952
297.9768, 1305.786
298.4589, 1305.187
298.9410, 1302.756
299.4231, 1294.275
299.9052, 1282.672
300.3873, 1271.882
300.8694, 1261.771
301.3516, 1254.825
301.8337, 1254.365
302.3158, 1258.737
302.7979, 1264.175
303.2800, 1272.039
303.7621, 1278.726
304.2443, 1277.724
304.7264, 1268.973
305.2085, 1261.815
305.6906, 1266.608
306.1727, 1277.463
306.6548, 1284.760
307.1370, 1285.580
307.6191, 1280.724
308.1012, 1267.525
308.5833, 1246.828
309.0654, 1228.984
309.5475, 1222.642
310.0297, 1222.911
310.5118, 1223.682
310.9939, 1225.141
311.4760, 1224.544
311.9581, 1218.720
312.4402, 1208.195
312.9224, 1198.428
313.4045, 1193.126
313.8866, 1189.597
314.3687, 1185.280
314.8508, 1178.927
315.3329, 1172.051
315.8151, 1165.847
316.2972, 1159.947
316.7793, 1152.604
317.2614, 1139.394
317.7435, 1126.402
318.2256, 1118.422
318.7078, 1123.131
319.1899, 1125.672
319.6720, 1117.618
320.1541, 1102.250
320.6362, 1093.570
321.1183, 1104.558
321.6005, 1117.877
322.0826, 1123.033
322.5647, 1110.032
323.0468, 1099.319
323.5289, 1095.177
324.0110, 1096.236
324.4932, 1097.815
324.9753, 1099.398
325.4574, 1101.149
325.9395, 1103.323
326.4216, 1108.573
326.9037, 1110.265
327.3859, 1105.442
327.8680, 1096.661
328.3501, 1090.616
328.8322, 1086.259
329.3143, 1085.767
329.7964, 1091.042
330.2786, 1108.770
330.7607, 1117.917
331.2428, 1114.038
331.7249, 1102.875
332.2070, 1095.223
332.6891, 1092.883
333.1713, 1091.481
333.6534, 1088.462
334.1355, 1081.259
334.6176, 1083.868
335.0997, 1103.165
335.5818, 1126.803
336.0640, 1135.181
336.5461, 1120.946
337.0282, 1108.693
337.5103, 1107.096
337.9924, 1117.010
338.4745, 1120.790
338.9567, 1116.201
339.4388, 1109.083
339.9209, 1106.814
340.4030, 1110.248
340.8851, 1113.996
341.3672, 1117.346
341.8494, 1119.972
342.3315, 1117.834
342.8136, 1109.815
343.2957, 1101.395
343.7778, 1098.646
344.2599, 1101.473
344.7421, 1104.022
345.2242, 1105.674
345.7063, 1105.636
346.1884, 1099.042
346.6705, 1085.442
347.1526, 1074.461
347.6348, 1077.436
348.1169, 1090.915
348.5990, 1100.871
349.0811, 1103.111
349.5632, 1101.520
350.0453, 1102.235
350.5275, 1104.958
351.0096, 1107.210
351.4917, 1106.485
351.9738, 1104.207
352.4559, 1103.147
352.9380, 1103.941
353.4202, 1105.760
353.9023, 1108.562
354.3844, 1111.895
354.8665, 1114.212
355.3486, 1116.178
355.8307, 1116.009
356.3129, 1109.599
356.7950, 1093.933
357.2771, 1082.350
357.7592, 1088.389
358.2413, 1104.918
358.7234, 1118.540
359.2056, 1120.569
359.6877, 1119.681
360.1698, 1121.902
360.6519, 1128.355
361.1340, 1133.070
361.6161, 1131.746
362.0982, 1127.755
362.5804, 1125.198
363.0625, 1124.862
363.5446, 1126.552
364.0267, 1132.675
364.5088, 1143.543
364.9909, 1148.178
365.4731, 1135.085
365.9552, 1119.596
366.4373, 1114.127
366.9194, 1132.300
367.4015, 1147.589
367.8836, 1155.267
368.3658, 1155.852
368.8479, 1156.217
369.3300, 1153.312
369.8121, 1152.723
370.2942, 1157.543
370.7763, 1170.083
371.2585, 1184.453
371.7406, 1200.964
372.2227, 1219.043
372.7048, 1238.635
373.1869, 1265.273
373.6690, 1284.325
374.1512, 1286.012
374.6333, 1260.448
375.1154, 1251.104
375.5975, 1264.104
376.0796, 1287.438
376.5617, 1297.195
377.0439, 1289.798
377.5260, 1284.167
378.0081, 1289.487
378.4902, 1305.532
378.9723, 1315.450
379.4544, 1318.339
379.9366, 1318.200
380.4187, 1319.096
380.9008, 1321.088
381.3829, 1325.172
381.8650, 1332.573
382.3471, 1342.055
382.8293, 1349.991
383.3114, 1356.424
383.7935, 1361.596
384.2756, 1365.342
384.7577, 1367.967
385.2398, 1370.059
385.7220, 1370.278
386.2041, 1371.877
386.6862, 1381.641
387.1683, 1397.996
387.6504, 1411.995
388.1325, 1415.489
388.6147, 1413.999
389.0968, 1414.044
389.5789, 1416.263
390.0610, 1421.605
390.5431, 1434.023
391.0252, 1450.266
391.5074, 1462.926
391.9895, 1468.026
392.4716, 1469.005
392.9537, 1466.565
393.4358, 1459.650
393.9179, 1456.292
394.4001, 1461.170
394.8822, 1470.906
395.3643, 1481.241
395.8464, 1495.070
396.3285, 1505.493
396.8106, 1507.489
397.2928, 1500.565
397.7749, 1499.250
398.2570, 1512.740
398.7391, 1528.191
399.2212, 1536.166
399.7033, 1527.666
400.1855, 1522.776
400.6676, 1525.841
401.1497, 1534.520
401.6318, 1536.124
402.1139, 1522.850
402.5960, 1512.605
403.0782, 1516.130
403.5603, 1541.366
404.0424, 1558.338
404.5245, 1565.181
405.0066, 1564.485
405.4887, 1559.474
405.9709, 1547.735
406.4530, 1540.903
406.9351, 1546.825
407.4172, 1565.074
407.8993, 1573.010
408.3814, 1569.033
408.8636, 1559.732
409.3457, 1550.785
409.8278, 1542.466
410.3099, 1538.787
410.7920, 1543.212
411.2741, 1551.938
411.7563, 1557.693
412.2384, 1560.431
412.7205, 1557.889
413.2026, 1542.550
413.6847, 1521.103
414.1668, 1508.218
414.6490, 1509.019
415.1311, 1515.278
415.6132, 1521.480
416.0953, 1526.734
416.5774, 1528.012
417.0595, 1523.324
417.5417, 1514.242
418.0238, 1499.639
418.5059, 1477.200
418.9880, 1460.435
419.4701, 1464.283
419.9522, 1476.531
420.4344, 1479.874
420.9165, 1455.397
421.3986, 1433.370
421.8807, 1427.549
422.3628, 1439.164
422.8449, 1447.385
423.3270, 1446.467
423.8091, 1441.649
424.2913, 1436.721
424.7734, 1426.476
425.2555, 1423.075
425.7376, 1432.562
426.2197, 1450.475
426.7018, 1458.249
427.1840, 1449.588
427.6661, 1438.989
428.1482, 1433.602
428.6303, 1436.976
429.1124, 1433.831
429.5945, 1421.329
430.0767, 1405.384
430.5588, 1396.688
431.0409, 1397.270
431.5230, 1395.214
432.0051, 1384.776
432.4872, 1367.460
432.9694, 1355.500
433.4515, 1349.136
433.9336, 1345.611
434.4157, 1341.631
434.8978, 1337.857
435.3799, 1338.527
435.8621, 1347.235
436.3442, 1357.507
436.8263, 1356.124
437.3084, 1345.217
437.7905, 1337.048
438.2726, 1343.625
438.7548, 1356.115
439.2369, 1363.822
439.7190, 1365.887
440.2011, 1360.351
440.6832, 1335.326
441.1653, 1302.987
441.6475, 1284.217
442.1296, 1302.649
442.6117, 1324.543
443.0938, 1330.092
443.5759, 1318.312
444.0580, 1308.147
444.5402, 1306.393
445.0223, 1308.751
445.5044, 1311.983
445.9865, 1321.571
446.4686, 1325.162
446.9507, 1317.204
447.4329, 1301.009
447.9150, 1289.821
448.3971, 1284.967
448.8792, 1283.740
449.3613, 1285.908
449.8434, 1293.636
450.3256, 1297.301
450.8077, 1295.267
451.2898, 1290.745
451.7719, 1288.167
452.2540, 1287.805
452.7361, 1288.374
453.2183, 1289.975
453.7004, 1292.238
454.1825, 1293.036
454.6646, 1292.236
455.1467, 1290.848
455.6288, 1289.176
456.1110, 1287.483
456.5931, 1287.445
457.0752, 1289.950
457.5573, 1292.956
458.0394, 1294.651
458.5215, 1294.662
459.0037, 1291.323
459.4858, 1278.093
459.9679, 1263.675
460.4500, 1259.927
460.9321, 1268.062
461.4142, 1278.499
461.8964, 1288.260
462.3785, 1295.573
462.8606, 1298.289
463.3427, 1292.463
463.8248, 1285.009
464.3069, 1275.984
464.7891, 1266.582
465.2712, 1263.808
465.7533, 1280.409
466.2354, 1295.951
466.7175, 1298.619
467.1996, 1275.581
467.6818, 1261.239
468.1639, 1261.233
468.6460, 1268.474
469.1281, 1271.815
469.6102, 1268.725
470.0923, 1266.256
470.5745, 1267.569
471.0566, 1272.500
471.5387, 1268.386
472.0208, 1250.306
472.5029, 1234.677
472.9850, 1240.673
473.4672, 1269.197
473.9493, 1281.923
474.4314, 1268.665
474.9135, 1244.416
475.3956, 1240.799
475.8777, 1255.845
476.3599, 1267.792
476.8420, 1257.990
477.3241, 1238.305
477.8062, 1233.498
478.2883, 1245.605
478.7704, 1259.697
479.2526, 1263.879
479.7347, 1261.497
480.2168, 1257.666
480.6989, 1253.027
481.1810, 1248.483
481.6631, 1243.760
482.1453, 1239.285
482.6274, 1236.877
483.1095, 1242.023
483.5916, 1245.885
484.0737, 1241.934
484.5558, 1223.179
485.0379, 1212.023
485.5201, 1214.233
486.0022, 1224.968
486.4843, 1238.089
486.9664, 1261.129
487.4485, 1275.931
487.9306, 1276.298
488.4128, 1263.749
488.8949, 1257.900
489.3770, 1262.145
489.8591, 1266.137
490.3412, 1261.321
490.8233, 1246.463
491.3055, 1236.814
491.7876, 1234.353
492.2697, 1236.033
492.7518, 1237.848
493.2339, 1239.666
493.7160, 1240.266
494.1982, 1238.454
494.6803, 1235.197
495.1624, 1233.229
495.6445, 1232.436
496.1266, 1229.930
496.6087, 1218.984
497.0909, 1206.359
497.5730, 1201.718
498.0551, 1210.168
498.5372, 1221.940
499.0193, 1235.251
499.5014, 1247.240
499.9836, 1251.596
500.4657, 1235.933
500.9478, 1220.993
501.4299, 1216.871
501.9120, 1225.942
502.3941, 1233.446
502.8763, 1238.790
503.3584, 1240.839
503.8405, 1238.075
504.3226, 1221.723
504.8047, 1215.767
505.2868, 1227.177
505.7690, 1248.772
506.2511, 1259.785
506.7332, 1257.958
507.2153, 1251.684
507.6974, 1242.747
508.1795, 1231.519
508.6617, 1226.308
509.1438, 1228.559
509.6259, 1230.571
510.1080, 1220.482
510.5901, 1201.883
511.0722, 1191.404
511.5544, 1196.148
512.0365, 1206.947
512.5186, 1211.885
513.0007, 1212.368
513.4828, 1213.632
513.9650, 1220.685
514.4471, 1228.698
514.9292, 1232.889
515.4113, 1232.335
515.8934, 1231.568
516.3755, 1233.676
516.8576, 1236.235
517.3397, 1236.779
517.8218, 1232.069
518.3040, 1228.279
518.7861, 1228.031
519.2682, 1230.062
519.7503, 1228.549
520.2324, 1219.350
520.7145, 1211.616
521.1967, 1209.258
521.6788, 1213.322
522.1609, 1217.513
522.6430, 1223.023
523.1251, 1226.687
523.6072, 1223.328
524.0894, 1212.501
524.5715, 1204.299
525.0536, 1201.013
525.5357, 1201.444
526.0178, 1203.676
526.4999, 1207.578
526.9821, 1211.646
527.4642, 1215.141
527.9463, 1218.171
528.4284, 1221.642
528.9105, 1225.850
529.3926, 1227.268
529.8748, 1219.874
530.3569, 1209.225
530.8390, 1202.357
531.3211, 1204.975
531.8032, 1207.874
532.2853, 1206.520
532.7675, 1202.556
533.2496, 1201.224
533.7317, 1206.503
534.2138, 1211.993
534.6959, 1214.787
535.1780, 1213.651
535.6602, 1215.880
536.1423, 1225.157
536.6244, 1233.956
537.1065, 1234.159
537.5886, 1222.772
538.0707, 1214.680
538.5529, 1212.388
539.0350, 1214.074
539.5171, 1214.348
539.9992, 1213.137
540.4813, 1215.797
540.9634, 1227.960
541.4456, 1245.779
541.9277, 1259.605
542.4098, 1269.232
542.8919, 1275.203
543.3740, 1275.587
543.8561, 1273.132
544.3383, 1271.709
544.8204, 1272.588
545.3025, 1274.210
545.7846, 1273.905
546.2667, 1273.774
546.7488, 1278.201
547.2310, 1296.273
547.7131, 1311.823
548.1952, 1317.246
548.6773, 1310.865
549.1594, 1309.400
549.6415, 1317.522
550.1237, 1326.729
550.6058, 1330.905
551.0879, 1326.563
551.5700, 1327.857
552.0521, 1338.124
552.5342, 1351.089
553.0164, 1354.247
553.4985, 1346.925
553.9806, 1340.588
554.4627, 1336.834
554.9448, 1337.939
555.4269, 1354.891
555.9091, 1386.635
556.3912, 1415.029
556.8733, 1424.925
557.3554, 1423.540
557.8375, 1419.975
558.3196, 1414.987
558.8018, 1410.584
559.2839, 1405.982
559.7660, 1403.341
560.2481, 1405.488
560.7302, 1420.410
561.2123, 1432.842
561.6945, 1435.942
562.1766, 1431.384
562.6587, 1430.683
563.1408, 1440.491
563.6229, 1447.668
564.1050, 1444.917
564.5872, 1427.718
565.0693, 1425.016
565.5514, 1442.070
566.0335, 1464.388
566.5156, 1475.041
566.9977, 1473.649
567.4799, 1475.982
567.9620, 1485.968
568.4441, 1499.420
568.9262, 1511.402
569.4083, 1521.057
569.8904, 1523.131
570.3726, 1505.948
570.8547, 1484.627
571.3368, 1479.133
571.8189, 1489.419
572.3010, 1498.751
572.7831, 1494.031
573.2653, 1485.710
573.7474, 1483.344
574.2295, 1494.083
574.7116, 1501.073
575.1937, 1492.799
575.6758, 1480.534
576.1580, 1483.002
576.6401, 1515.121
577.1222, 1541.088
577.6043, 1553.832
578.0864, 1554.598
578.5685, 1550.615
579.0507, 1540.362
579.5328, 1530.416
580.0149, 1524.145
580.4970, 1521.513
580.9791, 1522.308
581.4612, 1526.909
581.9434, 1532.422
582.4255, 1536.091
582.9076, 1538.079
583.3897, 1538.582
583.8718, 1536.858
584.3539, 1534.876
584.8361, 1533.221
585.3182, 1532.535
585.8003, 1534.482
586.2824, 1542.714
586.7645, 1551.139
587.2466, 1557.607
587.7288, 1562.050
588.2109, 1562.929
588.6930, 1553.110
589.1751, 1545.194
589.6572, 1547.576
590.1393, 1569.464
590.6215, 1578.737
591.1036, 1570.911
591.5857, 1555.488
592.0678, 1546.819
592.5499, 1545.280
593.0320, 1543.958
593.5142, 1539.782
593.9963, 1535.553
594.4784, 1541.580
594.9605, 1555.883
595.4426, 1563.355
595.9247, 1542.102
596.4069, 1515.458
596.8890, 1515.516
597.3711, 1546.499
597.8532, 1573.549
598.3353, 1578.769
598.8174, 1571.088
599.2996, 1557.920
599.7817, 1531.418
600.2638, 1512.991
600.7459, 1507.660
601.2280, 1511.971
601.7101, 1520.925
602.1923, 1539.744
602.6744, 1553.254
603.1565, 1556.576
603.6386, 1551.246
604.1207, 1544.887
604.6028, 1536.248
605.0850, 1533.914
605.5671, 1551.920
606.0492, 1582.040
606.5313, 1589.223
607.0134, 1570.034
607.4955, 1545.745
607.9777, 1531.718
608.4598, 1526.842
608.9419, 1530.124
609.4240, 1546.960
609.9061, 1562.455
610.3882, 1567.203
610.8704, 1564.946
611.3525, 1563.122
611.8346, 1562.082
612.3167, 1563.374
612.7988, 1569.377
613.2809, 1579.673
613.7631, 1584.455
614.2452, 1580.110
614.7273, 1576.415
615.2094, 1580.286
615.6915, 1592.953
616.1736, 1598.683
616.6558, 1595.705
