##NAMES=Titanite
##RRUFFID=R050114
##IDEAL CHEMISTRY=CaTi^4+^SiO_5_
##LOCALITY=Isthak Valley Iskardu, Northern Areas Gilgit, Pakistan
##OWNER=RRUFF
##SOURCE=Syed Shah
##DESCRIPTION=Yellowish-brown fragment
##STATUS=The identification of this mineral has been confirmed by X-ray diffraction and chemical analysis
##URL=rruff.info/R050114
##MEASURED CHEMISTRY=(Ca_0.99_Na_0.01_)(Ti_0.96_Al_0.03_Fe^3+^_0.01_)Si_1.00_O_4_(O_0.95_F_0.05_)
112.4203, 4367.206
112.9025, 4330.319
113.3846, 4296.817
113.8667, 4272.726
114.3488, 4255.430
114.8309, 4241.427
115.3130, 4230.080
115.7952, 4221.786
116.2773, 4219.673
116.7594, 4230.016
117.2415, 4230.634
117.7236, 4200.701
118.2057, 4159.822
118.6879, 4133.511
119.1700, 4139.380
119.6521, 4171.945
120.1342, 4190.600
120.6163, 4179.574
121.0984, 4168.861
121.5805, 4164.191
122.0627, 4165.553
122.5448, 4171.444
123.0269, 4181.115
123.5090, 4195.608
123.9911, 4207.038
124.4732, 4209.756
124.9554, 4214.562
125.4375, 4228.181
125.9196, 4250.688
126.4017, 4276.679
126.8838, 4300.154
127.3659, 4320.114
127.8481, 4339.272
128.3302, 4363.344
128.8123, 4384.381
129.2944, 4390.742
129.7765, 4377.269
130.2586, 4357.628
130.7408, 4353.534
131.2229, 4364.446
131.7050, 4378.252
132.1871, 4391.027
132.6692, 4403.079
133.1513, 4415.944
133.6335, 4431.778
134.1156, 4446.646
134.5977, 4454.500
135.0798, 4454.059
135.5619, 4456.545
136.0440, 4474.715
136.5262, 4511.188
137.0083, 4545.757
137.4904, 4570.516
137.9725, 4592.954
138.4546, 4617.836
138.9367, 4646.540
139.4189, 4677.059
139.9010, 4705.601
140.3831, 4730.989
140.8652, 4755.997
141.3473, 4782.160
141.8294, 4807.672
142.3116, 4830.226
142.7937, 4848.758
143.2758, 4864.133
143.7579, 4880.667
144.2400, 4906.348
144.7221, 4924.335
145.2043, 4924.623
145.6864, 4916.044
146.1685, 4915.126
146.6506, 4934.351
147.1327, 4971.059
147.6148, 4986.095
148.0969, 4958.957
148.5791, 4934.767
149.0612, 4934.459
149.5433, 4956.152
150.0254, 4984.861
150.5075, 5009.869
150.9896, 5031.963
151.4718, 5058.112
151.9539, 5096.877
152.4360, 5134.901
152.9181, 5155.296
153.4002, 5154.321
153.8823, 5156.112
154.3645, 5182.617
154.8466, 5226.854
155.3287, 5277.554
155.8108, 5341.220
156.2929, 5408.160
156.7750, 5454.264
157.2572, 5469.461
157.7393, 5479.585
158.2214, 5503.809
158.7035, 5536.073
159.1856, 5562.437
159.6677, 5570.964
160.1499, 5562.825
160.6320, 5559.072
161.1141, 5566.596
161.5962, 5572.000
162.0783, 5575.656
162.5604, 5574.106
163.0426, 5559.202
163.5247, 5519.091
164.0068, 5446.448
164.4889, 5387.583
164.9710, 5351.436
165.4531, 5320.406
165.9353, 5286.672
166.4174, 5249.831
166.8995, 5214.039
167.3816, 5184.880
167.8637, 5165.140
168.3458, 5145.252
168.8279, 5125.052
169.3101, 5104.865
169.7922, 5082.668
170.2743, 5058.708
170.7564, 5038.516
171.2385, 5031.052
171.7206, 5044.349
172.2028, 5052.651
172.6849, 5046.943
173.1670, 5038.562
173.6491, 5042.881
174.1312, 5065.733
174.6133, 5095.058
175.0955, 5107.233
175.5776, 5098.934
176.0597, 5097.500
176.5418, 5112.310
177.0239, 5139.690
177.5060, 5172.784
177.9882, 5212.237
178.4703, 5252.803
178.9524, 5288.835
179.4345, 5320.794
179.9166, 5347.542
180.3987, 5361.260
180.8809, 5364.934
181.3630, 5383.734
181.8451, 5435.488
182.3272, 5496.165
182.8093, 5545.459
183.2914, 5581.536
183.7736, 5609.775
184.2557, 5631.850
184.7378, 5646.094
185.2199, 5667.003
185.7020, 5700.174
186.1841, 5739.992
186.6663, 5785.959
187.1484, 5837.610
187.6305, 5890.253
188.1126, 5936.600
188.5947, 5971.849
189.0768, 6012.784
189.5589, 6064.734
190.0411, 6120.038
190.5232, 6172.564
191.0053, 6220.725
191.4874, 6269.471
191.9695, 6329.871
192.4516, 6414.058
192.9338, 6489.467
193.4159, 6550.754
193.8980, 6606.090
194.3801, 6660.091
194.8622, 6715.198
195.3443, 6774.733
195.8265, 6846.451
196.3086, 6949.262
196.7907, 7043.375
197.2728, 7127.322
197.7549, 7202.647
198.2370, 7268.266
198.7192, 7323.182
199.2013, 7373.630
199.6834, 7436.049
200.1655, 7509.075
200.6476, 7594.738
201.1297, 7701.182
201.6119, 7819.361
202.0940, 7935.997
202.5761, 8046.609
203.0582, 8148.405
203.5403, 8229.310
204.0224, 8274.503
204.5046, 8332.397
204.9867, 8430.576
205.4688, 8555.563
205.9509, 8673.063
206.4330, 8768.563
206.9151, 8848.270
207.3972, 8924.527
207.8794, 8994.060
208.3615, 9068.219
208.8436, 9156.829
209.3257, 9257.239
209.8078, 9355.262
210.2899, 9444.104
210.7721, 9528.750
211.2542, 9616.489
211.7363, 9708.287
212.2184, 9799.710
212.7005, 9886.090
213.1826, 9967.562
213.6648, 10048.88
214.1469, 10130.09
214.6290, 10213.24
215.1111, 10301.25
215.5932, 10395.11
216.0753, 10488.59
216.5575, 10574.38
217.0396, 10650.46
217.5217, 10729.50
218.0038, 10820.78
218.4859, 10912.34
218.9680, 10998.12
219.4502, 11076.70
219.9323, 11146.86
220.4144, 11204.50
220.8965, 11244.01
221.3786, 11290.12
221.8607, 11348.58
222.3429, 11412.62
222.8250, 11483.58
223.3071, 11560.27
223.7892, 11631.37
224.2713, 11677.79
224.7534, 11686.32
225.2356, 11700.76
225.7177, 11739.77
226.1998, 11773.93
226.6819, 11778.62
227.1640, 11750.34
227.6461, 11708.66
228.1283, 11684.24
228.6104, 11687.71
229.0925, 11689.23
229.5746, 11697.91
230.0567, 11699.28
230.5388, 11680.96
231.0210, 11641.00
231.5031, 11588.64
231.9852, 11536.27
232.4673, 11481.49
232.9494, 11432.90
233.4315, 11402.63
233.9137, 11370.52
234.3958, 11320.69
234.8779, 11249.83
235.3600, 11165.06
235.8421, 11075.50
236.3242, 10977.82
236.8064, 10883.10
237.2885, 10792.85
237.7706, 10704.08
238.2527, 10612.98
238.7348, 10518.92
239.2169, 10427.46
239.6991, 10347.98
240.1812, 10285.88
240.6633, 10213.51
241.1454, 10116.72
241.6275, 10016.50
242.1096, 9934.306
242.5918, 9874.333
243.0739, 9819.690
243.5560, 9749.507
244.0381, 9661.275
244.5202, 9589.060
245.0023, 9549.977
245.4845, 9520.822
245.9666, 9479.935
246.4487, 9424.355
246.9308, 9355.845
247.4129, 9269.435
247.8950, 9167.236
248.3771, 9074.821
248.8593, 8997.859
249.3414, 8931.589
249.8235, 8876.503
250.3056, 8834.596
250.7877, 8785.659
251.2698, 8703.671
251.7520, 8599.681
252.2341, 8507.338
252.7162, 8443.350
253.1983, 8390.130
253.6804, 8325.194
254.1625, 8245.459
254.6447, 8167.577
255.1268, 8111.994
255.6089, 8065.127
256.0910, 8000.961
256.5731, 7902.143
257.0552, 7790.333
257.5374, 7693.602
258.0195, 7613.528
258.5016, 7540.680
258.9837, 7471.440
259.4658, 7405.865
259.9479, 7345.437
260.4301, 7293.039
260.9122, 7242.474
261.3943, 7183.970
261.8764, 7114.965
262.3585, 7048.793
262.8406, 6986.809
263.3228, 6932.786
263.8049, 6893.943
264.2870, 6874.864
264.7691, 6862.591
265.2512, 6835.925
265.7333, 6788.609
266.2155, 6756.896
266.6976, 6763.138
267.1797, 6784.021
267.6618, 6804.328
268.1439, 6820.380
268.6260, 6837.539
269.1082, 6865.311
269.5903, 6907.525
270.0724, 6940.763
270.5545, 6941.574
271.0366, 6943.890
271.5187, 6970.208
272.0009, 7023.479
272.4830, 7087.912
272.9651, 7146.481
273.4472, 7197.374
273.9293, 7252.600
274.4114, 7319.146
274.8936, 7386.376
275.3757, 7452.119
275.8578, 7514.601
276.3399, 7571.045
276.8220, 7607.937
277.3041, 7616.710
277.7863, 7667.533
278.2684, 7815.205
278.7505, 7963.083
279.2326, 8066.600
279.7147, 8134.606
280.1968, 8207.077
280.6789, 8322.735
281.1610, 8484.032
281.6432, 8621.076
282.1253, 8709.772
282.6074, 8796.146
283.0895, 8892.501
283.5716, 8997.519
284.0537, 9104.810
284.5359, 9209.902
285.0180, 9313.186
285.5001, 9419.798
285.9822, 9541.472
286.4643, 9651.740
286.9464, 9729.562
287.4286, 9794.558
287.9107, 9879.043
288.3928, 10004.59
288.8749, 10157.94
289.3570, 10279.09
289.8391, 10328.65
290.3213, 10396.45
290.8034, 10519.20
291.2855, 10658.53
291.7676, 10767.25
292.2497, 10823.12
292.7318, 10847.29
293.2140, 10895.02
293.6961, 10990.78
294.1782, 11072.56
294.6603, 11121.05
295.1424, 11162.10
295.6245, 11222.87
296.1067, 11310.54
296.5888, 11405.78
297.0709, 11473.81
297.5530, 11491.79
298.0351, 11525.38
298.5172, 11589.86
298.9994, 11657.29
299.4815, 11712.99
299.9636, 11752.54
300.4457, 11775.89
300.9278, 11780.64
301.4099, 11757.53
301.8921, 11746.09
302.3742, 11763.78
302.8563, 11776.17
303.3384, 11765.97
303.8205, 11733.17
304.3026, 11687.19
304.7848, 11636.80
305.2669, 11582.02
305.7490, 11517.15
306.2311, 11426.80
306.7132, 11342.28
307.1953, 11288.74
307.6775, 11249.73
308.1596, 11187.16
308.6417, 11070.66
309.1238, 10907.73
309.6059, 10778.60
310.0880, 10719.26
310.5702, 10655.92
311.0523, 10581.28
311.5344, 10493.86
312.0165, 10389.46
312.4986, 10265.11
312.9807, 10129.52
313.4629, 10006.86
313.9450, 9897.831
314.4271, 9804.851
314.9092, 9747.704
315.3913, 9697.145
315.8734, 9621.690
316.3556, 9511.271
316.8377, 9384.122
317.3198, 9273.440
317.8019, 9194.559
318.2840, 9104.999
318.7661, 8996.472
319.2483, 8884.488
319.7304, 8777.089
320.2125, 8676.872
320.6946, 8585.385
321.1767, 8506.696
321.6588, 8447.192
322.1409, 8372.723
322.6230, 8259.665
323.1052, 8155.146
323.5873, 8085.903
324.0694, 8046.122
324.5515, 8013.411
325.0336, 7969.149
325.5157, 7913.532
325.9979, 7861.231
326.4800, 7811.787
326.9621, 7766.466
327.4442, 7731.418
327.9263, 7700.225
328.4084, 7661.762
328.8906, 7609.154
329.3727, 7546.980
329.8548, 7493.817
330.3369, 7448.054
330.8190, 7415.637
331.3011, 7405.952
331.7833, 7405.356
332.2654, 7400.807
332.7475, 7387.391
333.2296, 7367.787
333.7117, 7346.634
334.1938, 7322.689
334.6760, 7299.547
335.1581, 7279.105
335.6402, 7258.133
336.1223, 7234.451
336.6044, 7207.657
337.0865, 7178.375
337.5687, 7144.635
338.0508, 7102.156
338.5329, 7077.374
339.0150, 7093.514
339.4971, 7104.868
339.9792, 7087.029
340.4614, 7048.090
340.9435, 7012.802
341.4256, 7001.742
341.9077, 7012.131
342.3898, 7009.330
342.8719, 6983.869
343.3541, 6954.677
343.8362, 6916.752
344.3183, 6880.068
344.8004, 6858.885
345.2825, 6860.761
345.7646, 6877.574
346.2468, 6887.926
346.7289, 6885.457
347.2110, 6888.553
347.6931, 6900.374
348.1752, 6917.135
348.6573, 6939.682
349.1395, 6966.888
349.6216, 6989.559
350.1037, 6992.787
350.5858, 6969.902
351.0679, 6953.676
351.5500, 6942.427
352.0322, 6941.166
352.5143, 6958.210
352.9964, 6989.406
353.4785, 7020.944
353.9606, 7043.065
354.4427, 7055.714
354.9249, 7058.258
355.4070, 7045.206
355.8891, 7028.279
356.3712, 7007.862
356.8533, 6987.358
357.3354, 6970.624
357.8176, 6958.212
358.2997, 6953.316
358.7818, 6968.268
359.2639, 7017.302
359.7460, 7050.793
360.2281, 7041.116
360.7103, 7018.418
361.1924, 7009.684
361.6745, 7021.972
362.1566, 7038.242
362.6387, 7033.049
363.1208, 7002.987
363.6029, 6991.980
364.0851, 7028.521
364.5672, 7066.812
365.0493, 7071.625
365.5314, 7047.662
366.0135, 7029.041
366.4956, 7045.276
366.9778, 7088.207
367.4599, 7118.936
367.9420, 7128.632
368.4241, 7140.725
368.9062, 7170.176
369.3883, 7210.679
369.8705, 7251.857
370.3526, 7287.900
370.8347, 7324.630
371.3168, 7372.611
371.7989, 7433.309
372.2810, 7493.061
372.7632, 7539.455
373.2453, 7586.225
373.7274, 7649.816
374.2095, 7733.930
374.6916, 7826.250
375.1737, 7915.211
375.6559, 8003.610
376.1380, 8106.919
376.6201, 8232.868
377.1022, 8368.909
377.5843, 8498.234
378.0664, 8621.948
378.5486, 8763.009
379.0307, 8938.203
379.5128, 9131.898
379.9949, 9317.863
380.4770, 9493.140
380.9591, 9677.705
381.4413, 9886.558
381.9234, 10118.35
382.4055, 10359.86
382.8876, 10611.32
383.3697, 10873.53
383.8518, 11150.08
384.3340, 11438.24
384.8161, 11731.51
385.2982, 12023.30
385.7803, 12321.36
386.2624, 12638.85
386.7445, 12980.15
387.2267, 13324.51
387.7088, 13663.93
388.1909, 14006.17
388.6730, 14360.81
389.1551, 14731.61
389.6372, 15109.38
390.1194, 15485.52
390.6015, 15858.79
391.0836, 16233.61
391.5657, 16610.41
392.0478, 16986.73
392.5299, 17360.80
393.0121, 17732.96
393.4942, 18105.97
393.9763, 18485.53
394.4584, 18866.20
394.9405, 19222.58
395.4226, 19533.89
395.9048, 19846.05
396.3869, 20170.10
396.8690, 20497.68
397.3511, 20829.31
397.8332, 21161.80
398.3153, 21478.94
398.7975, 21749.69
399.2796, 21953.11
399.7617, 22168.21
400.2438, 22424.36
400.7259, 22665.41
401.2080, 22860.85
401.6902, 23011.46
402.1723, 23129.96
402.6544, 23225.70
403.1365, 23298.97
403.6186, 23353.60
404.1007, 23405.64
404.5828, 23415.37
405.0649, 23369.13
405.5471, 23280.19
406.0292, 23166.96
406.5113, 23036.19
406.9934, 22875.77
407.4755, 22656.21
407.9576, 22358.63
408.4398, 22058.82
408.9219, 21777.60
409.4040, 21483.50
409.8861, 21155.81
410.3682, 20795.87
410.8503, 20422.75
411.3325, 20058.83
411.8146, 19696.85
412.2967, 19287.62
412.7788, 18796.21
413.2609, 18314.32
413.7430, 17876.75
414.2252, 17470.73
414.7073, 17082.64
415.1894, 16711.67
415.6715, 16341.85
416.1536, 15943.05
416.6357, 15512.81
417.1179, 15104.84
417.6000, 14739.47
418.0821, 14397.20
418.5642, 14053.25
419.0463, 13707.28
419.5284, 13372.91
420.0106, 13053.23
420.4927, 12750.42
420.9748, 12473.48
421.4569, 12223.99
421.9390, 11991.47
422.4211, 11770.16
422.9033, 11559.31
423.3854, 11356.38
423.8675, 11165.67
424.3496, 10979.36
424.8317, 10791.66
425.3138, 10603.64
425.7960, 10420.61
426.2781, 10245.88
426.7602, 10076.16
427.2423, 9901.537
427.7244, 9712.026
428.2065, 9550.138
428.6887, 9439.181
429.1708, 9350.741
429.6529, 9255.396
430.1350, 9150.444
430.6171, 9050.855
431.0992, 8969.053
431.5814, 8905.651
432.0635, 8851.006
432.5456, 8819.036
433.0277, 8778.632
433.5098, 8707.425
433.9919, 8623.887
434.4741, 8557.700
434.9562, 8521.166
435.4383, 8504.217
435.9204, 8487.543
436.4025, 8473.801
436.8846, 8454.616
437.3668, 8420.589
437.8489, 8389.636
438.3310, 8372.055
438.8131, 8368.049
439.2952, 8374.095
439.7773, 8390.346
440.2595, 8414.408
440.7416, 8421.251
441.2237, 8398.384
441.7058, 8375.777
442.1879, 8355.984
442.6700, 8342.850
443.1522, 8340.404
443.6343, 8350.041
444.1164, 8369.692
444.5985, 8404.449
445.0806, 8456.966
445.5627, 8483.956
446.0448, 8446.246
446.5269, 8418.248
447.0091, 8461.491
447.4912, 8558.763
447.9733, 8641.741
448.4554, 8669.917
448.9375, 8665.163
449.4196, 8664.798
449.9018, 8669.106
450.3839, 8674.466
450.8660, 8671.983
451.3481, 8674.109
451.8302, 8706.647
452.3123, 8786.706
452.7945, 8849.291
453.2766, 8844.412
453.7587, 8800.688
454.2408, 8775.139
454.7229, 8780.130
455.2050, 8800.536
455.6872, 8824.278
456.1693, 8851.634
456.6514, 8873.327
457.1335, 8883.723
457.6156, 8893.746
458.0977, 8912.901
458.5799, 8936.862
459.0620, 8953.842
459.5441, 8957.980
460.0262, 8952.711
460.5083, 8945.467
460.9904, 8918.128
461.4726, 8919.189
461.9547, 8981.668
462.4368, 9047.640
462.9189, 9069.440
463.4010, 9048.455
463.8831, 9020.790
464.3653, 9019.415
464.8474, 9041.408
465.3295, 9038.461
465.8116, 8989.437
466.2937, 8941.346
466.7758, 8909.778
467.2580, 8881.414
467.7401, 8840.800
468.2222, 8783.423
468.7043, 8717.352
469.1864, 8656.429
469.6685, 8602.547
470.1507, 8529.086
470.6328, 8417.267
471.1149, 8304.086
471.5970, 8210.543
472.0791, 8131.902
472.5612, 8055.214
473.0434, 7977.438
473.5255, 7895.590
474.0076, 7799.362
474.4897, 7688.016
474.9718, 7589.115
475.4539, 7511.858
475.9361, 7454.787
476.4182, 7418.427
476.9003, 7406.451
477.3824, 7387.229
477.8645, 7335.677
478.3466, 7275.709
478.8288, 7244.144
479.3109, 7244.218
479.7930, 7248.350
480.2751, 7233.680
480.7572, 7204.695
481.2393, 7196.525
481.7215, 7218.260
482.2036, 7246.835
482.6857, 7282.545
483.1678, 7318.864
483.6499, 7345.400
484.1320, 7359.691
484.6142, 7370.922
485.0963, 7389.443
485.5784, 7412.729
486.0605, 7456.077
486.5426, 7539.228
487.0247, 7620.330
487.5068, 7684.992
487.9890, 7736.522
488.4711, 7781.586
488.9532, 7822.733
489.4353, 7862.881
489.9174, 7907.786
490.3995, 7958.338
490.8817, 8009.841
491.3638, 8059.978
491.8459, 8112.321
492.3280, 8171.727
492.8101, 8236.155
493.2922, 8296.906
493.7744, 8349.525
494.2565, 8394.734
494.7386, 8431.022
495.2207, 8455.625
495.7028, 8488.911
496.1849, 8545.055
496.6671, 8612.938
497.1492, 8675.715
497.6313, 8732.657
498.1134, 8785.086
498.5955, 8829.780
499.0776, 8871.664
499.5598, 8921.767
500.0419, 8981.636
500.5240, 9036.146
501.0061, 9071.375
501.4882, 9088.680
501.9703, 9109.323
502.4525, 9137.753
502.9346, 9163.691
503.4167, 9176.598
503.8988, 9187.812
504.3809, 9218.451
504.8630, 9273.033
505.3452, 9327.790
505.8273, 9350.027
506.3094, 9332.747
506.7915, 9319.457
507.2736, 9309.629
507.7557, 9304.306
508.2379, 9307.766
508.7200, 9315.091
509.2021, 9319.062
509.6842, 9316.550
510.1663, 9308.890
510.6484, 9295.427
511.1306, 9273.936
511.6127, 9263.087
512.0948, 9275.525
512.5769, 9289.142
513.0590, 9292.398
513.5411, 9285.094
514.0233, 9267.470
514.5054, 9234.409
514.9875, 9194.849
515.4696, 9156.157
515.9517, 9119.134
516.4338, 9101.627
516.9160, 9120.428
517.3981, 9150.647
517.8802, 9146.622
518.3623, 9103.866
518.8444, 9064.946
519.3265, 9044.420
519.8087, 9028.095
520.2908, 9002.710
520.7729, 8968.477
521.2550, 8932.967
521.7371, 8901.262
522.2192, 8871.657
522.7014, 8837.194
523.1835, 8776.067
523.6656, 8740.111
524.1477, 8761.488
524.6298, 8786.645
525.1119, 8766.485
525.5941, 8702.779
526.0762, 8636.614
526.5583, 8601.905
527.0404, 8595.262
527.5225, 8593.797
528.0046, 8600.635
528.4868, 8606.581
528.9689, 8615.266
529.4510, 8618.225
529.9331, 8601.919
530.4152, 8564.446
530.8973, 8531.398
531.3795, 8528.972
531.8616, 8546.275
532.3437, 8548.726
532.8258, 8530.541
533.3079, 8513.972
533.7900, 8515.145
534.2722, 8528.745
534.7543, 8537.116
535.2364, 8539.209
535.7185, 8537.428
536.2006, 8527.213
536.6827, 8515.771
537.1649, 8514.685
537.6470, 8525.879
538.1291, 8542.406
538.6112, 8559.172
539.0933, 8576.318
539.5754, 8582.420
540.0576, 8570.816
540.5397, 8556.865
541.0218, 8537.589
541.5039, 8520.586
541.9860, 8517.375
542.4681, 8529.602
542.9503, 8543.911
543.4324, 8541.621
543.9145, 8521.660
544.3966, 8517.161
544.8787, 8543.999
545.3608, 8561.943
545.8430, 8548.628
546.3251, 8519.222
546.8071, 8494.661
547.2892, 8481.772
547.7714, 8468.272
548.2535, 8441.494
548.7356, 8405.291
549.2177, 8371.913
549.6998, 8343.562
550.1819, 8318.457
550.6641, 8295.929
551.1462, 8275.710
551.6283, 8254.345
552.1104, 8232.724
552.5925, 8208.883
553.0746, 8178.601
553.5568, 8146.770
554.0389, 8122.460
554.5210, 8107.335
555.0031, 8093.224
555.4852, 8071.197
555.9673, 8041.147
556.4495, 8004.341
556.9316, 7940.246
557.4137, 7892.417
557.8958, 7886.502
558.3779, 7895.404
558.8600, 7886.590
559.3422, 7850.577
559.8243, 7802.138
560.3064, 7750.942
560.7885, 7698.286
561.2706, 7670.158
561.7527, 7678.322
562.2349, 7689.598
562.7170, 7678.621
563.1991, 7658.722
563.6812, 7651.765
564.1633, 7665.420
564.6454, 7682.706
565.1276, 7694.196
565.6097, 7701.700
566.0918, 7708.462
566.5739, 7715.094
567.0560, 7720.331
567.5381, 7720.171
568.0203, 7715.700
568.5024, 7733.815
568.9845, 7790.684
569.4666, 7846.215
569.9487, 7892.263
570.4308, 7932.987
570.9130, 7969.363
571.3951, 8003.858
571.8772, 8044.450
572.3593, 8098.793
572.8414, 8166.721
573.3235, 8246.852
573.8057, 8344.182
574.2878, 8444.612
574.7699, 8544.004
575.2520, 8644.163
575.7341, 8746.948
576.2162, 8852.796
576.6984, 8956.386
577.1805, 9045.906
577.6626, 9132.465
578.1447, 9242.269
578.6268, 9377.696
579.1089, 9522.625
579.5911, 9672.122
580.0732, 9821.503
580.5553, 9957.563
581.0374, 10063.80
581.5195, 10192.24
582.0016, 10371.75
582.4838, 10563.94
582.9659, 10733.32
583.4480, 10879.50
583.9301, 11016.52
584.4122, 11153.41
584.8943, 11292.73
585.3765, 11447.49
585.8586, 11623.90
586.3407, 11801.71
586.8228, 11970.48
587.3049, 12145.67
587.7870, 12348.02
588.2692, 12568.70
588.7513, 12773.60
589.2334, 12935.58
589.7155, 13078.39
590.1976, 13238.73
590.6797, 13417.09
591.1619, 13607.88
591.6440, 13814.19
592.1261, 14023.00
592.6082, 14213.82
593.0903, 14386.84
593.5724, 14566.48
594.0546, 14757.66
594.5367, 14954.60
595.0188, 15156.82
595.5009, 15362.72
595.9830, 15574.06
596.4651, 15792.10
596.9473, 15996.55
597.4294, 16150.71
597.9115, 16236.25
598.3936, 16358.29
598.8757, 16545.20
599.3578, 16739.52
599.8400, 16936.69
600.3221, 17126.32
600.8042, 17294.18
601.2863, 17434.43
601.7684, 17565.36
602.2505, 17706.66
602.7327, 17854.68
603.2148, 17986.75
603.6969, 18095.57
604.1790, 18213.72
604.6611, 18370.13
605.1432, 18551.92
605.6254, 18718.38
606.1075, 18873.42
606.5896, 19006.48
607.0717, 19093.07
607.5538, 19168.19
608.0359, 19274.18
