##NAMES=Tobermorite
##RRUFFID=R060147
##IDEAL CHEMISTRY=Ca_5_Si_6_O_16_(OH)_2_&#183;nH_2_O
##LOCALITY=Crestmore Quarries, Riverside County, California
##OWNER=RRUFF
##SOURCE=University of Arizona Mineral Museum
##DESCRIPTION=White fibers bundled in divergent tufts
##STATUS=The identification of this mineral has been confirmed by X-ray diffraction and chemical analysis
##URL=rruff.info/R060147
##MEASURED CHEMISTRY=(Ca_4.91_Al_0.06_[box]_0.03_)_Σ=5_Si_6.00_O_16_(OH)_2_·5H_2_O ; H not measured but estimated by difference
92.02539, 380.8603
92.50751, 385.5621
92.98962, 390.5446
93.47174, 390.6119
93.95386, 388.4194
94.43597, 383.1884
94.91809, 374.8191
95.40021, 364.4375
95.88232, 354.1707
96.36444, 343.6603
96.84656, 333.8165
97.32867, 324.7365
97.81078, 316.6021
98.29290, 309.7720
98.77502, 304.5191
99.25713, 300.6532
99.73925, 295.7744
100.2214, 289.0677
100.7035, 282.4170
101.1856, 276.4997
101.6677, 271.3869
102.1498, 266.8917
102.6320, 262.7910
103.1141, 258.9829
103.5962, 255.9296
104.0783, 253.5415
104.5604, 251.8606
105.0425, 251.2746
105.5247, 252.0995
106.0068, 253.2248
106.4889, 252.5901
106.9710, 250.1441
107.4531, 247.2360
107.9352, 244.5046
108.4173, 241.8420
108.8995, 238.5650
109.3816, 233.7332
109.8637, 228.6813
110.3458, 224.7489
110.8279, 222.1071
111.3100, 220.3750
111.7922, 219.2347
112.2743, 218.8614
112.7564, 218.5406
113.2385, 217.9869
113.7206, 217.4158
114.2027, 217.0798
114.6849, 217.1296
115.1670, 217.3764
115.6491, 217.1522
116.1312, 216.0418
116.6133, 214.8786
117.0954, 213.8063
117.5776, 212.7720
118.0597, 211.6227
118.5418, 210.2046
119.0239, 208.5014
119.5060, 207.4941
119.9881, 207.3158
120.4703, 207.5296
120.9524, 208.1178
121.4345, 208.9957
121.9166, 209.9632
122.3987, 210.9100
122.8808, 211.8363
123.3630, 212.2047
123.8451, 211.7209
124.3272, 210.8294
124.8093, 209.9266
125.2914, 209.0667
125.7735, 208.2152
126.2557, 207.1932
126.7378, 206.0573
127.2199, 205.2803
127.7020, 205.3897
128.1841, 206.0591
128.6662, 206.1602
129.1483, 205.0305
129.6305, 203.8971
130.1126, 203.7549
130.5947, 204.5362
131.0768, 205.5171
131.5589, 206.4161
132.0410, 207.3788
132.5232, 207.0555
133.0053, 203.6527
133.4874, 199.9890
133.9695, 197.4569
134.4516, 196.3350
134.9337, 196.0529
135.4159, 195.7482
135.8980, 195.2660
136.3801, 195.0846
136.8622, 195.5718
137.3443, 196.1384
137.8264, 196.2293
138.3086, 195.6428
138.7907, 194.6485
139.2728, 194.0002
139.7549, 194.1888
140.2370, 194.1684
140.7191, 193.8163
141.2013, 193.2161
141.6834, 192.4393
142.1655, 191.4868
142.6476, 190.4497
143.1297, 189.7483
143.6118, 189.4940
144.0939, 189.3746
144.5761, 189.3739
145.0582, 189.4486
145.5403, 189.3820
146.0224, 188.9715
146.5045, 188.3391
146.9866, 187.8670
147.4688, 187.5542
147.9509, 187.4207
148.4330, 187.5354
148.9151, 187.9305
149.3972, 188.3726
149.8793, 188.9987
150.3615, 189.5352
150.8436, 189.5386
151.3257, 188.5939
151.8078, 187.1421
152.2899, 186.2626
152.7720, 186.3547
153.2542, 186.3072
153.7363, 185.5733
154.2184, 184.4420
154.7005, 183.3249
155.1826, 182.4496
155.6647, 181.8099
156.1469, 181.3739
156.6290, 181.3797
157.1111, 181.3747
157.5932, 181.3170
158.0753, 181.1590
158.5574, 180.8126
159.0396, 180.1575
159.5217, 179.1230
160.0038, 178.4467
160.4859, 178.4277
160.9680, 178.4431
161.4501, 178.2780
161.9323, 177.9069
162.4144, 177.3912
162.8965, 176.7940
163.3786, 176.1021
163.8607, 175.3242
164.3428, 174.4091
164.8250, 173.4553
165.3071, 172.4740
165.7892, 171.4784
166.2713, 170.6139
166.7534, 170.1244
167.2355, 170.0849
167.7177, 169.8666
168.1998, 169.1980
168.6819, 168.3853
169.1640, 167.9066
169.6461, 167.9415
170.1282, 168.0072
170.6104, 167.5902
171.0925, 166.7596
171.5746, 165.4578
172.0567, 163.0616
172.5388, 160.1087
173.0209, 158.3290
173.5031, 158.6726
173.9852, 159.4043
174.4673, 158.8139
174.9494, 157.0366
175.4315, 155.3394
175.9136, 154.7939
176.3958, 155.3517
176.8779, 155.6274
177.3600, 155.5975
177.8421, 155.0283
178.3242, 153.4665
178.8063, 151.0252
179.2885, 148.6191
179.7706, 147.2758
180.2527, 147.2659
180.7348, 147.1495
181.2169, 146.5861
181.6990, 146.0714
182.1812, 145.9791
182.6633, 146.3156
183.1454, 146.7173
183.6275, 146.6103
184.1096, 145.5404
184.5917, 144.9352
185.0738, 143.1534
185.5560, 145.3783
186.0381, 146.7400
186.5202, 147.2849
187.0023, 144.5669
187.4844, 146.0623
187.9665, 145.8692
188.4487, 145.6069
188.9308, 147.6954
189.4129, 145.4520
189.8950, 147.5031
190.3771, 147.8400
190.8592, 147.3427
191.3414, 148.9610
191.8235, 149.7162
192.3056, 149.6547
192.7877, 146.3303
193.2698, 147.2192
193.7519, 146.4197
194.2341, 145.5508
194.7162, 147.0328
195.1983, 144.1829
195.6804, 145.6276
196.1625, 145.3580
196.6446, 145.8730
197.1268, 141.2694
197.6089, 138.2269
198.0910, 136.1989
198.5731, 134.9664
199.0552, 134.1503
199.5373, 133.7532
200.0195, 133.5823
200.5016, 133.6485
200.9837, 133.8973
201.4658, 134.0442
201.9479, 133.9760
202.4300, 133.7924
202.9122, 133.5690
203.3943, 133.2917
203.8764, 133.1322
204.3585, 133.3488
204.8406, 133.9387
205.3227, 134.2785
205.8048, 133.9486
206.2870, 133.5101
206.7691, 133.4437
207.2512, 133.7952
207.7333, 134.1167
208.2154, 133.8396
208.6975, 132.8279
209.1797, 132.0260
209.6618, 131.6209
210.1439, 131.4578
210.6260, 131.6085
211.1081, 132.0384
211.5902, 132.4442
212.0724, 132.3840
212.5545, 131.6659
213.0366, 131.0593
213.5187, 130.6485
214.0008, 130.3337
214.4829, 130.1179
214.9651, 129.9753
215.4472, 129.7932
215.9293, 129.3532
216.4114, 128.3330
216.8935, 127.7484
217.3756, 127.7262
217.8578, 127.9614
218.3399, 128.4006
218.8220, 128.9636
219.3041, 129.3996
219.7862, 129.2702
220.2683, 126.3973
220.7505, 128.1049
221.2326, 128.9493
221.7147, 128.9770
222.1968, 125.7418
222.6789, 126.7200
223.1610, 126.0096
223.6432, 125.2300
224.1253, 126.8012
224.6074, 124.0406
225.0895, 125.5745
225.5716, 126.0601
226.0537, 126.5508
226.5358, 126.5750
227.0180, 126.4579
227.5001, 126.6957
227.9822, 127.5092
228.4643, 127.9407
228.9464, 127.5262
229.4285, 126.8895
229.9107, 126.7541
230.3928, 127.2921
230.8749, 128.0399
231.3570, 128.4008
231.8391, 128.3436
232.3212, 128.2902
232.8034, 128.2932
233.2855, 128.3390
233.7676, 128.3809
234.2497, 128.3945
234.7318, 128.5035
235.2139, 129.0085
235.6961, 129.8474
236.1782, 130.3811
236.6603, 130.2955
237.1424, 129.8539
237.6245, 129.3135
238.1066, 128.5676
238.5888, 128.1908
239.0709, 129.1451
239.5530, 131.0123
240.0351, 132.4995
240.5172, 133.1046
240.9993, 133.0583
241.4815, 132.6328
241.9636, 131.5951
242.4457, 130.8367
242.9278, 131.4236
243.4099, 132.7736
243.8920, 133.6661
244.3742, 133.3040
244.8563, 132.1786
245.3384, 131.4147
245.8205, 131.1247
246.3026, 130.9579
246.7847, 130.6767
247.2668, 130.3794
247.7490, 130.2672
248.2311, 130.6259
248.7132, 131.1339
249.1953, 130.9085
249.6774, 129.5527
250.1595, 128.2578
250.6417, 127.5166
251.1238, 127.1267
251.6059, 126.8722
252.0880, 126.6960
252.5701, 126.5452
253.0522, 126.3073
253.5344, 126.0526
254.0165, 125.5500
254.4986, 124.4624
254.9807, 123.2341
255.4628, 122.3507
255.9449, 122.0404
256.4271, 122.1337
256.9092, 122.2629
257.3913, 122.4818
257.8734, 122.6293
258.3555, 122.7740
258.8376, 122.8028
259.3198, 122.4921
259.8019, 121.7482
260.2840, 120.9197
260.7661, 120.8187
261.2482, 122.0637
261.7303, 122.8560
262.2125, 122.8486
262.6946, 122.4721
263.1767, 121.9675
263.6588, 121.4374
264.1409, 121.0338
264.6230, 121.0754
265.1052, 121.9365
265.5873, 122.5123
266.0694, 122.4536
266.5515, 122.3327
267.0336, 122.6688
267.5157, 123.5322
267.9979, 124.4989
268.4800, 124.8820
268.9621, 124.1857
269.4442, 123.9915
269.9263, 124.5639
270.4084, 125.3385
270.8906, 126.0574
271.3727, 126.6308
271.8548, 126.9904
272.3369, 126.9806
272.8190, 126.3001
273.3011, 126.2996
273.7833, 127.4574
274.2654, 128.7553
274.7475, 129.7314
275.2296, 130.3092
275.7117, 130.5425
276.1938, 130.4305
276.6760, 129.8607
277.1581, 129.6584
277.6402, 130.0963
278.1223, 130.5594
278.6044, 130.6868
279.0865, 130.5602
279.5686, 130.5529
280.0508, 131.0139
280.5329, 131.9621
281.0150, 132.3934
281.4971, 131.8301
281.9792, 131.3447
282.4613, 131.4132
282.9435, 131.8847
283.4256, 132.3843
283.9077, 132.6986
284.3898, 132.8132
284.8719, 132.5664
285.3540, 131.3479
285.8362, 130.5024
286.3183, 130.6562
286.8004, 131.4005
287.2825, 131.9916
287.7646, 132.0413
288.2467, 131.6964
288.7289, 131.4641
289.2110, 131.4559
289.6931, 131.4150
290.1752, 131.2418
290.6573, 131.0302
291.1394, 130.9302
291.6216, 131.0046
292.1037, 131.1670
292.5858, 131.2476
293.0679, 131.2716
293.5500, 131.1641
294.0321, 130.8527
294.5143, 130.4343
294.9964, 129.9970
295.4785, 129.5634
295.9606, 129.1506
296.4427, 128.7700
296.9248, 128.3903
297.4070, 128.1716
297.8891, 128.2854
298.3712, 128.4637
298.8533, 128.4774
299.3354, 128.2912
299.8175, 127.9842
300.2997, 127.6043
300.7818, 127.1281
301.2639, 126.8052
301.7460, 126.7134
302.2281, 126.7109
302.7102, 126.7383
303.1924, 126.7776
303.6745, 126.7897
304.1566, 126.7566
304.6387, 126.6678
305.1208, 126.4576
305.6029, 125.7750
306.0851, 125.3143
306.5672, 125.5830
307.0493, 126.3993
307.5314, 127.1997
308.0135, 127.7117
308.4956, 127.9248
308.9778, 127.7793
309.4599, 126.8353
309.9420, 126.1383
310.4241, 126.2155
310.9062, 126.7576
311.3883, 127.1883
311.8705, 127.2796
312.3526, 127.1142
312.8347, 126.8168
313.3168, 126.2286
313.7989, 125.8877
314.2810, 126.1685
314.7632, 126.6640
315.2453, 126.7297
315.7274, 126.1682
316.2095, 125.5332
316.6916, 125.6939
317.1737, 126.9620
317.6559, 127.6095
318.1380, 126.9488
318.6201, 125.9372
319.1022, 125.4306
319.5843, 125.5405
320.0664, 125.9558
320.5485, 126.4723
321.0306, 127.0950
321.5128, 127.4009
321.9949, 127.4323
322.4770, 127.1286
322.9591, 126.2346
323.4412, 124.8863
323.9233, 123.6543
324.4055, 122.9193
324.8876, 122.6365
325.3697, 122.4518
325.8518, 122.3374
326.3339, 122.3297
326.8160, 122.5272
327.2982, 122.8401
327.7803, 123.1181
328.2624, 123.3237
328.7445, 123.3720
329.2266, 122.9607
329.7087, 121.6295
330.1909, 120.7255
330.6730, 121.0427
331.1551, 121.7360
331.6372, 121.5961
332.1193, 120.2623
332.6014, 118.4742
333.0836, 117.3050
333.5657, 117.0807
334.0478, 116.5223
334.5299, 115.2245
335.0120, 113.8216
335.4941, 112.8343
335.9763, 112.3224
336.4584, 112.0184
336.9405, 111.7005
337.4226, 111.3671
337.9047, 111.0020
338.3868, 110.3706
338.8690, 109.9226
339.3511, 110.1511
339.8332, 110.8065
340.3153, 111.0847
340.7974, 110.4108
341.2795, 108.9876
341.7617, 108.1337
342.2438, 108.4833
342.7259, 108.5686
343.2080, 107.6822
343.6901, 106.4186
344.1722, 104.9902
344.6544, 105.7417
345.1365, 106.2025
345.6186, 106.3883
346.1007, 105.4755
346.5828, 105.9813
347.0649, 105.9186
347.5471, 105.8327
348.0292, 106.5382
348.5113, 105.7851
348.9934, 106.4781
349.4755, 106.5938
349.9576, 106.9738
350.4398, 106.7817
350.9219, 106.7662
351.4040, 107.5057
351.8861, 107.8503
352.3682, 107.9198
352.8503, 106.8907
353.3325, 107.2803
353.8146, 107.1013
354.2967, 106.8991
354.7788, 107.4883
355.2609, 106.6190
355.7430, 107.1957
356.2252, 107.1952
356.7073, 107.4588
357.1894, 107.1504
357.6715, 107.0187
358.1536, 107.4592
358.6357, 107.5829
359.1179, 107.2087
359.5999, 107.4891
360.0821, 106.5999
360.5642, 106.7370
361.0463, 107.3171
361.5284, 106.9716
362.0105, 107.2625
362.4926, 107.3110
362.9748, 107.1388
363.4569, 106.3906
363.9390, 105.5362
364.4211, 104.9633
364.9032, 104.6675
365.3853, 104.5045
365.8675, 104.3666
366.3496, 104.2614
366.8317, 104.2856
367.3138, 104.8207
367.7959, 104.9743
368.2780, 104.2638
368.7602, 103.1847
369.2423, 102.3604
369.7244, 102.0687
370.2065, 102.0602
370.6886, 101.8472
371.1707, 101.3593
371.6529, 100.8370
372.1350, 100.2517
372.6171, 99.68856
373.0992, 99.21523
373.5813, 98.83601
374.0634, 98.47386
374.5456, 98.02470
375.0277, 97.47998
375.5098, 97.04977
375.9919, 96.74767
376.4740, 96.56815
376.9561, 96.63247
377.4383, 96.81176
377.9204, 96.80367
378.4025, 96.32946
378.8846, 95.60900
379.3667, 95.29324
379.8488, 95.53769
380.3310, 95.78687
380.8131, 95.77852
381.2952, 95.67715
381.7773, 95.65864
382.2594, 95.78284
382.7415, 95.92338
383.2237, 95.95127
383.7058, 95.86703
384.1879, 95.01200
384.6700, 95.73357
385.1521, 96.10989
385.6342, 96.15952
386.1164, 94.90394
386.5985, 95.33376
387.0806, 95.08815
387.5627, 94.81484
388.0448, 95.48186
388.5269, 94.41615
389.0091, 95.06824
389.4912, 95.03462
389.9733, 95.31484
390.4554, 94.91547
390.9375, 94.72601
391.4196, 95.21635
391.9018, 95.33027
392.3839, 94.85266
392.8660, 95.15283
393.3481, 94.06336
393.8302, 94.19333
394.3123, 94.84941
394.7945, 94.40597
395.2766, 94.71856
395.7587, 94.74322
396.2408, 94.53743
396.7229, 94.30607
397.2050, 94.04700
397.6872, 94.72826
398.1693, 93.67677
398.6514, 94.34312
399.1335, 94.32374
399.6156, 94.61821
400.0977, 94.23308
400.5798, 94.05785
401.0620, 94.56242
401.5441, 94.69060
402.0262, 94.22723
402.5083, 94.54165
402.9904, 93.46642
403.4725, 93.61063
403.9547, 94.28094
404.4368, 93.85175
404.9189, 94.17859
405.4010, 94.21749
405.8831, 92.94784
406.3652, 93.37791
406.8474, 94.01546
407.3295, 94.30781
407.8116, 94.27345
408.2937, 92.93391
408.7758, 93.27975
409.2579, 92.95016
409.7401, 92.59285
410.2222, 93.17590
410.7043, 92.02619
411.1864, 92.59434
411.6685, 92.47675
412.1506, 92.67299
412.6328, 92.18961
413.1149, 91.91618
413.5970, 92.32255
414.0791, 92.35250
414.5612, 91.79092
415.0433, 92.00712
415.5255, 90.83365
416.0076, 90.87964
416.4897, 91.45176
416.9718, 90.92435
417.4539, 91.15298
417.9360, 90.43996
418.4182, 91.14919
418.9003, 91.92120
419.3824, 92.24637
419.8645, 92.24021
420.3466, 92.48582
420.8287, 93.22983
421.3109, 93.69799
421.7930, 93.25607
422.2751, 92.52190
422.7572, 92.22784
423.2393, 92.63103
423.7214, 93.22775
424.2036, 93.38466
424.6857, 93.12993
425.1678, 93.25152
425.6499, 94.18319
426.1320, 95.21738
426.6141, 95.65667
427.0963, 95.57072
427.5784, 95.49353
428.0605, 95.77642
428.5426, 96.15276
429.0247, 96.09129
429.5068, 95.52848
429.9890, 95.16020
430.4711, 95.52102
430.9532, 96.39905
431.4353, 97.03297
431.9174, 97.34962
432.3995, 97.52823
432.8817, 97.45998
433.3638, 97.33495
433.8459, 97.65229
434.3280, 98.61451
434.8101, 99.73380
435.2922, 100.3057
435.7744, 100.1527
436.2565, 100.1339
436.7386, 100.3219
437.2207, 100.6157
437.7028, 100.9729
438.1849, 101.3756
438.6671, 101.8064
439.1492, 102.2650
439.6313, 102.7295
440.1134, 103.0592
440.5955, 102.9573
441.0776, 103.0910
441.5598, 103.7650
442.0418, 104.5919
442.5240, 105.2026
443.0061, 105.4891
443.4882, 105.5392
443.9703, 105.4387
444.4524, 105.1504
444.9345, 104.8876
445.4167, 104.5874
445.8988, 104.3776
446.3809, 104.5707
446.8630, 104.8635
447.3451, 104.6072
447.8272, 103.3233
448.3094, 101.5391
448.7915, 100.6605
449.2736, 101.0371
449.7557, 101.3218
450.2378, 101.1374
450.7199, 100.7721
451.2021, 100.4668
451.6842, 100.2328
452.1663, 99.80760
452.6484, 98.70108
453.1305, 97.16291
453.6126, 96.51231
454.0948, 97.28599
454.5769, 97.85680
455.0590, 96.55740
455.5411, 94.36095
456.0232, 93.00655
456.5053, 93.22443
456.9875, 93.91397
457.4696, 94.35752
457.9517, 94.53348
458.4338, 94.29965
458.9159, 93.51878
459.3980, 92.47997
459.8802, 91.55653
460.3623, 90.72385
460.8444, 90.10460
461.3265, 89.74680
461.8086, 89.59710
462.2907, 89.78017
462.7729, 90.20277
463.2550, 90.34425
463.7371, 89.76492
464.2192, 88.66099
464.7013, 88.16244
465.1834, 88.93123
465.6656, 89.41832
466.1477, 89.18089
466.6298, 88.66914
467.1119, 88.22879
467.5940, 88.00224
468.0761, 87.49335
468.5583, 88.42593
469.0404, 89.01322
469.5225, 89.27382
470.0046, 88.22923
470.4867, 88.87002
470.9688, 88.83538
471.4510, 88.77307
471.9331, 89.65106
472.4152, 88.79630
472.8973, 89.65938
473.3794, 90.47192
473.8615, 90.66613
474.3437, 90.50481
474.8258, 89.33117
475.3079, 88.39430
475.7900, 88.79572
476.2721, 90.31049
476.7542, 91.54347
477.2364, 91.32695
477.7185, 90.29158
478.2006, 89.92778
478.6827, 90.34890
479.1648, 90.81531
479.6469, 91.04735
480.1291, 91.03156
480.6112, 90.72124
481.0933, 89.96671
481.5754, 89.33476
482.0575, 89.26252
482.5396, 89.47364
483.0217, 89.43730
483.5038, 89.04240
483.9860, 88.55138
484.4681, 88.27107
484.9502, 88.20576
485.4323, 87.65947
485.9144, 85.80553
486.3965, 84.37605
486.8787, 84.51740
487.3608, 85.52043
487.8429, 86.04690
488.3250, 85.56204
488.8071, 84.55325
489.2892, 83.88056
489.7714, 83.66125
490.2535, 83.49410
490.7356, 83.42833
491.2177, 83.36018
491.6998, 83.33253
492.1819, 83.25971
492.6641, 82.89651
493.1462, 82.00599
493.6283, 80.90341
494.1104, 80.63796
494.5925, 81.66511
495.0746, 82.29209
495.5568, 81.73389
496.0389, 80.90321
496.5210, 80.48244
497.0031, 80.49342
497.4852, 80.39233
497.9673, 79.63958
498.4495, 78.49775
498.9316, 77.63927
499.4137, 77.05988
499.8958, 76.91171
500.3779, 77.60542
500.8600, 78.69188
501.3422, 79.22869
501.8243, 78.99853
502.3064, 78.59280
502.7885, 78.19921
503.2706, 77.85544
503.7527, 77.65430
504.2349, 77.61866
504.7170, 77.61657
505.1991, 77.53383
505.6812, 77.36684
506.1633, 77.09591
506.6454, 76.43812
507.1276, 75.99979
507.6097, 76.08996
508.0918, 76.51862
508.5739, 77.08419
509.0560, 77.69405
509.5381, 78.15042
510.0203, 78.08833
510.5024, 77.31121
510.9845, 76.68919
511.4666, 76.23919
511.9487, 75.93047
512.4308, 75.75674
512.9130, 75.71606
513.3951, 75.79417
513.8772, 75.97044
514.3593, 76.30480
514.8414, 77.15111
515.3235, 78.69558
515.8057, 79.29203
516.2878, 77.87102
516.7699, 76.05446
517.2520, 75.06693
517.7341, 74.88946
518.2162, 75.24783
518.6984, 76.47585
519.1805, 77.92214
519.6626, 78.75728
520.1447, 78.99111
520.6268, 78.95316
521.1089, 78.71783
521.5911, 78.40015
522.0732, 78.28309
522.5553, 78.42152
523.0374, 78.55245
523.5195, 78.72599
524.0016, 78.80955
524.4838, 78.56593
524.9659, 78.07225
525.4480, 77.72198
525.9301, 77.81880
526.4122, 78.26719
526.8943, 78.57842
527.3765, 78.65823
527.8586, 78.72351
528.3407, 78.80387
528.8228, 78.87133
529.3049, 78.84448
529.7870, 78.75221
530.2692, 78.77661
530.7513, 79.17088
531.2334, 79.83111
531.7155, 80.14584
532.1976, 80.08371
532.6797, 79.74350
533.1619, 78.69177
533.6440, 77.61547
534.1261, 77.38025
534.6082, 78.23150
535.0903, 78.96713
535.5724, 78.57085
536.0546, 77.54990
536.5367, 77.06481
537.0188, 77.29454
537.5009, 77.50251
537.9830, 77.05997
538.4651, 76.13924
538.9473, 75.71994
539.4294, 76.28690
539.9115, 76.69463
540.3936, 76.46412
540.8757, 75.97520
541.3578, 75.86961
541.8400, 76.18848
542.3221, 76.13115
542.8042, 74.68398
543.2863, 71.80032
543.7684, 70.44579
544.2505, 72.41499
544.7326, 73.80820
545.2147, 73.43968
545.6968, 72.35666
546.1790, 71.69642
546.6611, 71.75212
547.1432, 72.09527
547.6253, 72.34116
548.1074, 72.48949
548.5895, 72.51988
549.0717, 72.41799
549.5538, 72.22855
550.0359, 71.90498
550.5180, 71.52857
551.0001, 71.19654
551.4822, 70.87319
551.9644, 70.72440
552.4465, 71.16036
552.9286, 71.78564
553.4107, 71.60982
553.8928, 70.42223
554.3749, 69.21980
554.8571, 68.89438
555.3392, 69.42825
555.8213, 70.02489
556.3034, 70.99642
556.7855, 71.64463
557.2676, 71.57656
557.7498, 71.19376
558.2319, 70.94839
558.7140, 70.95445
559.1961, 71.08002
559.6782, 71.22350
560.1603, 71.38777
560.6425, 71.30605
561.1246, 70.92052
561.6067, 70.35490
562.0888, 69.33083
562.5709, 68.32412
563.0530, 67.90090
563.5352, 68.20737
564.0173, 68.83273
564.4994, 69.63835
564.9815, 70.49102
565.4636, 70.93640
565.9457, 70.90707
566.4279, 70.59293
566.9100, 70.00655
567.3921, 69.24406
567.8742, 68.62907
568.3563, 67.99571
568.8384, 67.77893
569.3206, 68.48973
569.8027, 69.51472
570.2848, 70.13958
570.7669, 70.24929
571.2490, 70.05016
571.7311, 69.65083
572.2133, 69.10804
572.6954, 69.08373
573.1775, 70.36260
573.6596, 71.07282
574.1417, 70.49431
574.6238, 69.60094
575.1060, 69.26758
575.5881, 69.56992
576.0702, 69.96507
576.5523, 70.01152
577.0344, 69.78943
577.5165, 69.54341
577.9987, 69.22224
578.4808, 69.12521
578.9629, 69.64451
579.4450, 70.27702
579.9271, 70.25545
580.4092, 69.46280
580.8914, 68.77213
581.3735, 68.50085
581.8556, 68.50471
582.3377, 68.68279
582.8198, 68.99833
583.3019, 69.35514
583.7841, 69.70729
584.2662, 70.04063
584.7483, 70.32554
585.2304, 70.69786
585.7125, 70.77759
