##NAMES=Todorokite
##RRUFFID=R070257
##IDEAL CHEMISTRY=(Na,Ca,K,Ba,Sr)_1-x_(Mn^4+^,Mn^3+^,Mg,Al)_6_O_12_&#183;3-4H_2_O
##LOCALITY=Todoroki mine, Shiribeshi Province, Hokkaido Island, Japan
##OWNER=RRUFF
##SOURCE=Michael Scott
##DESCRIPTION=Black fibrous fine grains
##STATUS=The identification of this mineral is not yet confirmed.
##URL=rruff.info/R070257
203.9435, 3740.866
204.4256, 3741.669
204.9077, 3758.597
205.3898, 3777.507
205.8719, 3787.108
206.3540, 3785.979
206.8362, 3782.776
207.3183, 3792.025
207.8004, 3825.464
208.2825, 3840.402
208.7646, 3822.934
209.2467, 3799.958
209.7289, 3786.873
210.2110, 3785.364
210.6931, 3787.029
211.1752, 3780.472
211.6573, 3760.022
212.1395, 3752.816
212.6216, 3769.607
213.1037, 3789.442
213.5858, 3804.605
214.0679, 3813.573
214.5500, 3816.903
215.0322, 3813.364
215.5143, 3800.663
215.9964, 3796.711
216.4785, 3811.209
216.9606, 3825.321
217.4427, 3829.336
217.9249, 3826.222
218.4070, 3826.224
218.8891, 3839.046
219.3712, 3865.220
219.8533, 3884.834
220.3354, 3893.896
220.8176, 3899.804
221.2997, 3902.067
221.7818, 3902.642
222.2639, 3904.945
222.7460, 3911.718
223.2281, 3922.393
223.7103, 3930.289
224.1924, 3935.066
224.6745, 3937.002
225.1566, 3934.267
225.6387, 3929.125
226.1208, 3924.614
226.6030, 3922.426
227.0851, 3922.342
227.5672, 3923.164
228.0493, 3921.344
228.5314, 3925.927
229.0135, 3948.838
229.4957, 3974.734
229.9778, 3981.946
230.4599, 3959.885
230.9420, 3925.137
231.4241, 3922.188
231.9062, 3984.903
232.3884, 4020.556
232.8705, 4000.887
233.3526, 3962.347
233.8347, 3932.854
234.3168, 3922.279
234.7989, 3928.223
235.2811, 3951.297
235.7632, 4008.216
236.2453, 4041.769
236.7274, 4032.749
237.2095, 4012.241
237.6916, 3998.117
238.1738, 3994.839
238.6559, 3999.050
239.1380, 4008.860
239.6201, 4027.719
240.1022, 4039.228
240.5843, 4039.263
241.0665, 4034.748
241.5486, 4025.619
242.0307, 4013.758
242.5128, 4004.662
242.9949, 4004.175
243.4770, 4012.963
243.9592, 4022.624
244.4413, 4037.709
244.9234, 4049.206
245.4055, 4052.383
245.8876, 4049.016
246.3697, 4044.037
246.8519, 4040.984
247.3340, 4039.478
247.8161, 4036.023
248.2982, 4027.446
248.7803, 4021.283
249.2624, 4020.064
249.7446, 4022.701
250.2267, 4027.718
250.7088, 4035.038
251.1909, 4043.475
251.6730, 4049.148
252.1551, 4049.823
252.6373, 4052.388
253.1194, 4063.080
253.6015, 4074.983
254.0836, 4079.049
254.5657, 4070.563
255.0478, 4058.707
255.5300, 4059.053
256.0121, 4074.776
256.4942, 4090.723
256.9763, 4103.550
257.4584, 4114.386
257.9406, 4123.703
258.4227, 4131.543
258.9048, 4138.665
259.3869, 4148.222
259.8690, 4160.700
260.3511, 4163.334
260.8333, 4140.908
261.3154, 4119.328
261.7975, 4121.550
262.2796, 4146.619
262.7617, 4168.891
263.2438, 4161.813
263.7260, 4132.717
264.2081, 4126.882
264.6902, 4160.934
265.1723, 4200.749
265.6544, 4223.054
266.1365, 4230.850
266.6187, 4232.726
267.1008, 4230.743
267.5829, 4225.947
268.0650, 4220.894
268.5471, 4216.266
269.0292, 4209.386
269.5114, 4194.699
269.9935, 4176.791
270.4756, 4163.747
270.9577, 4159.281
271.4398, 4159.198
271.9219, 4158.343
272.4041, 4156.606
272.8862, 4158.501
273.3683, 4168.401
273.8504, 4182.526
274.3325, 4193.112
274.8146, 4197.974
275.2968, 4202.660
275.7789, 4212.118
276.2610, 4224.902
276.7431, 4235.190
277.2252, 4240.955
277.7073, 4243.151
278.1895, 4242.736
278.6716, 4238.955
279.1537, 4236.542
279.6358, 4236.768
280.1179, 4239.576
280.6000, 4244.671
281.0822, 4251.903
281.5643, 4262.093
282.0464, 4278.361
282.5285, 4301.572
283.0106, 4318.657
283.4927, 4327.801
283.9749, 4330.388
284.4570, 4324.212
284.9391, 4310.255
285.4212, 4298.770
285.9033, 4299.486
286.3854, 4312.084
286.8676, 4316.696
287.3497, 4302.888
287.8318, 4291.937
288.3139, 4298.197
288.7960, 4316.118
289.2781, 4330.090
289.7603, 4331.214
290.2424, 4322.316
290.7245, 4315.051
291.2066, 4308.718
291.6887, 4304.701
292.1708, 4302.153
292.6530, 4302.424
293.1351, 4309.631
293.6172, 4324.960
294.0993, 4341.230
294.5814, 4345.002
295.0635, 4324.836
295.5457, 4313.659
296.0278, 4319.323
296.5099, 4327.665
296.9920, 4327.573
297.4741, 4318.649
297.9562, 4308.559
298.4384, 4304.695
298.9205, 4307.125
299.4026, 4315.840
299.8847, 4342.858
300.3668, 4364.011
300.8489, 4365.680
301.3311, 4354.968
301.8131, 4348.080
302.2953, 4356.483
302.7774, 4376.431
303.2595, 4388.775
303.7416, 4390.473
304.2237, 4388.243
304.7058, 4378.584
305.1880, 4368.298
305.6701, 4365.843
306.1522, 4374.568
306.6343, 4387.596
307.1164, 4393.462
307.5985, 4390.332
308.0807, 4386.771
308.5628, 4380.166
309.0449, 4376.536
309.5270, 4382.954
310.0091, 4398.799
310.4912, 4412.413
310.9734, 4409.741
311.4555, 4392.954
311.9376, 4387.921
312.4197, 4406.819
312.9018, 4422.410
313.3839, 4412.230
313.8661, 4385.409
314.3482, 4365.898
314.8303, 4367.105
315.3124, 4381.042
315.7945, 4395.834
316.2766, 4412.316
316.7588, 4424.630
317.2409, 4427.884
317.7230, 4425.168
318.2051, 4421.180
318.6872, 4415.010
319.1693, 4410.206
319.6515, 4407.774
320.1336, 4408.462
320.6157, 4418.395
321.0978, 4445.458
321.5799, 4473.361
322.0620, 4471.182
322.5442, 4433.993
323.0263, 4405.323
323.5084, 4401.951
323.9905, 4411.933
324.4726, 4421.927
324.9547, 4429.668
325.4369, 4433.487
325.9190, 4429.725
326.4011, 4417.292
326.8832, 4415.820
327.3653, 4436.876
327.8474, 4457.844
328.3296, 4462.700
328.8117, 4456.239
329.2938, 4455.280
329.7759, 4470.708
330.2580, 4497.481
330.7401, 4512.232
331.2223, 4504.371
331.7044, 4497.577
332.1865, 4493.080
332.6686, 4491.360
333.1507, 4495.605
333.6328, 4505.924
334.1150, 4514.577
334.5971, 4508.040
335.0792, 4475.563
335.5613, 4457.454
336.0434, 4468.715
336.5255, 4479.367
337.0077, 4469.260
337.4898, 4443.518
337.9719, 4422.560
338.4540, 4423.933
338.9361, 4444.835
339.4182, 4460.149
339.9004, 4467.633
340.3825, 4472.229
340.8646, 4472.153
341.3467, 4471.588
341.8288, 4475.496
342.3109, 4485.702
342.7931, 4501.146
343.2752, 4524.593
343.7573, 4559.112
344.2394, 4579.302
344.7215, 4568.097
345.2036, 4548.658
345.6858, 4538.443
346.1679, 4538.350
346.6500, 4542.226
347.1321, 4549.417
347.6142, 4557.577
348.0963, 4558.909
348.5785, 4550.528
349.0606, 4541.972
349.5427, 4543.722
350.0248, 4551.697
350.5069, 4553.414
350.9890, 4536.690
351.4712, 4520.845
351.9533, 4523.104
352.4354, 4541.006
352.9175, 4562.889
353.3996, 4586.096
353.8817, 4606.657
354.3639, 4612.118
354.8460, 4596.396
355.3281, 4582.146
355.8102, 4571.667
356.2923, 4566.494
356.7744, 4573.163
357.2566, 4591.851
357.7387, 4607.313
358.2208, 4600.007
358.7029, 4562.101
359.1850, 4546.046
359.6671, 4569.149
360.1493, 4593.485
360.6314, 4601.241
361.1135, 4596.921
361.5956, 4593.448
362.0777, 4598.724
362.5598, 4609.429
363.0420, 4613.150
363.5241, 4604.366
364.0062, 4597.212
364.4883, 4594.222
364.9704, 4592.830
365.4525, 4590.642
365.9347, 4587.262
366.4168, 4584.376
366.8989, 4583.678
367.3810, 4585.174
367.8631, 4588.928
368.3452, 4597.511
368.8274, 4605.294
369.3095, 4607.127
369.7916, 4606.000
370.2737, 4608.983
370.7558, 4619.380
371.2379, 4635.769
371.7201, 4661.179
372.2022, 4698.086
372.6843, 4718.856
373.1664, 4700.264
373.6485, 4665.319
374.1306, 4650.102
374.6128, 4660.185
375.0949, 4673.696
375.5770, 4678.129
376.0591, 4678.183
376.5412, 4685.594
377.0233, 4703.957
377.5055, 4720.265
377.9876, 4720.612
378.4697, 4702.989
378.9518, 4684.797
379.4339, 4658.052
379.9160, 4638.167
380.3982, 4638.402
380.8803, 4653.670
381.3624, 4670.398
381.8445, 4681.816
382.3266, 4687.661
382.8087, 4686.926
383.2909, 4664.616
383.7730, 4655.904
384.2551, 4675.816
384.7372, 4700.125
385.2193, 4708.255
385.7014, 4673.184
386.1836, 4704.887
386.6657, 4723.338
387.1478, 4729.251
387.6299, 4685.070
388.1120, 4705.575
388.5941, 4700.157
389.0763, 4693.676
389.5584, 4723.285
390.0405, 4686.391
390.5226, 4715.427
391.0047, 4718.146
391.4868, 4732.909
391.9690, 4721.589
392.4511, 4718.326
392.9332, 4741.154
393.4153, 4749.535
393.8974, 4735.213
394.3795, 4750.742
394.8617, 4712.937
395.3438, 4721.933
395.8259, 4751.122
396.3080, 4738.111
396.7901, 4754.118
397.2722, 4759.072
397.7544, 4713.804
398.2365, 4755.879
398.7186, 4760.181
399.2007, 4725.698
399.6828, 4764.780
400.1649, 4735.644
400.6471, 4730.858
401.1292, 4744.396
401.6113, 4738.832
402.0934, 4763.385
402.5755, 4758.924
403.0576, 4751.870
403.5398, 4756.130
404.0219, 4728.332
404.5040, 4760.007
404.9861, 4751.057
405.4682, 4762.300
405.9503, 4778.121
406.4325, 4758.895
406.9146, 4776.772
407.3967, 4737.110
407.8788, 4745.593
408.3609, 4748.892
408.8430, 4782.965
409.3252, 4743.583
409.8073, 4750.729
410.2894, 4777.686
410.7715, 4776.922
411.2536, 4787.749
411.7357, 4764.264
412.2179, 4773.013
412.7000, 4772.876
413.1821, 4803.440
413.6642, 4809.768
414.1463, 4786.866
414.6284, 4764.087
415.1106, 4796.862
415.5927, 4776.983
416.0748, 4785.076
416.5569, 4787.185
417.0390, 4790.295
417.5211, 4793.596
418.0033, 4797.028
418.4854, 4800.685
418.9675, 4805.025
419.4496, 4807.802
419.9317, 4807.623
420.4138, 4806.910
420.8960, 4806.357
421.3781, 4806.614
421.8602, 4808.900
422.3423, 4814.018
422.8244, 4821.812
423.3065, 4832.231
423.7887, 4854.074
424.2708, 4864.175
424.7529, 4850.072
425.2350, 4831.200
425.7171, 4823.027
426.1992, 4827.779
426.6814, 4838.005
427.1635, 4850.570
427.6456, 4864.500
428.1277, 4864.482
428.6098, 4840.464
429.0919, 4821.908
429.5741, 4829.777
430.0562, 4851.026
430.5383, 4865.976
431.0204, 4866.590
431.5025, 4867.444
431.9846, 4890.017
432.4668, 4924.479
432.9489, 4930.246
433.4310, 4890.604
433.9131, 4841.463
434.3952, 4826.877
434.8773, 4851.083
435.3595, 4868.233
435.8416, 4868.606
436.3237, 4867.916
436.8058, 4878.699
437.2879, 4896.453
437.7701, 4907.226
438.2522, 4903.219
438.7343, 4892.232
439.2164, 4895.047
439.6985, 4926.583
440.1806, 4945.127
440.6628, 4940.737
441.1449, 4932.413
441.6270, 4934.448
442.1091, 4944.909
442.5912, 4950.630
443.0733, 4938.454
443.5555, 4915.078
444.0376, 4907.926
444.5197, 4922.483
445.0018, 4937.918
445.4839, 4946.200
445.9660, 4951.603
446.4482, 4957.341
446.9303, 4963.445
447.4124, 4972.543
447.8945, 4994.020
448.3766, 5018.124
448.8587, 5019.639
449.3409, 4993.610
449.8230, 4968.782
450.3051, 4971.728
450.7872, 4997.795
451.2693, 5000.295
451.7514, 4951.760
452.2336, 4913.463
452.7157, 4911.801
453.1978, 4930.222
453.6799, 4946.823
454.1620, 4954.894
454.6441, 4959.107
455.1263, 4965.083
455.6084, 4972.741
456.0905, 4982.569
456.5726, 5004.830
457.0547, 5018.386
457.5368, 5008.713
458.0190, 4987.909
458.5011, 4976.023
458.9832, 4982.374
459.4653, 4996.267
459.9474, 5003.200
460.4295, 5003.073
460.9117, 5000.160
461.3938, 4990.703
461.8759, 4985.064
462.3580, 4998.619
462.8401, 5026.511
463.3222, 5042.082
463.8044, 5026.304
464.2865, 5004.512
464.7686, 4999.822
465.2507, 5009.125
465.7328, 5018.117
466.2149, 5020.286
466.6971, 5020.039
467.1792, 5026.022
467.6613, 5042.174
468.1434, 5056.625
468.6255, 5073.874
469.1076, 5085.637
469.5898, 5082.896
470.0719, 5069.742
470.5540, 5058.667
471.0361, 5058.277
471.5182, 5063.221
472.0003, 5054.674
472.4825, 5022.206
472.9646, 5004.957
473.4467, 5028.570
473.9288, 5057.914
474.4109, 5069.139
474.8930, 5062.382
475.3752, 5055.559
475.8573, 5058.531
476.3394, 5068.097
476.8215, 5081.790
477.3036, 5099.571
477.7857, 5110.909
478.2679, 5110.120
478.7500, 5099.883
479.2321, 5085.047
479.7142, 5061.604
480.1963, 5044.295
480.6784, 5039.045
481.1606, 5039.034
481.6427, 5037.124
482.1248, 5033.676
482.6069, 5033.971
483.0890, 5041.555
483.5711, 5056.622
484.0533, 5082.934
484.5354, 5145.357
485.0175, 5176.657
485.4996, 5142.828
485.9817, 5095.438
486.4638, 5074.346
486.9460, 5083.851
487.4281, 5104.839
487.9102, 5131.141
488.3923, 5157.068
488.8744, 5160.718
489.3565, 5137.389
489.8387, 5118.609
490.3208, 5124.109
490.8029, 5142.289
491.2850, 5147.286
491.7671, 5132.900
492.2492, 5123.479
492.7314, 5133.883
493.2135, 5149.837
493.6956, 5153.250
494.1777, 5143.729
494.6598, 5135.029
495.1419, 5138.271
495.6241, 5150.886
496.1062, 5156.220
496.5883, 5149.790
497.0704, 5141.862
497.5525, 5129.192
498.0346, 5118.389
498.5168, 5114.834
498.9989, 5119.077
499.4810, 5128.624
499.9631, 5148.056
500.4452, 5170.933
500.9273, 5165.106
501.4095, 5119.589
501.8916, 5093.019
502.3737, 5125.331
502.8558, 5183.325
503.3379, 5213.337
503.8200, 5208.771
504.3022, 5199.790
504.7843, 5197.068
505.2664, 5196.147
505.7485, 5191.116
506.2306, 5182.135
506.7127, 5173.452
507.1949, 5167.102
507.6770, 5164.356
508.1591, 5171.325
508.6412, 5205.079
509.1233, 5223.170
509.6054, 5210.699
510.0876, 5192.335
510.5697, 5184.308
511.0518, 5188.044
511.5339, 5197.890
512.0161, 5211.308
512.4982, 5226.927
512.9803, 5242.354
513.4624, 5258.383
513.9445, 5268.714
514.4266, 5270.552
514.9088, 5265.762
515.3909, 5254.387
515.8730, 5235.227
516.3551, 5224.420
516.8372, 5232.894
517.3193, 5247.329
517.8015, 5257.090
518.2836, 5261.642
518.7657, 5262.394
519.2478, 5259.708
519.7299, 5255.328
520.2120, 5253.417
520.6942, 5254.960
521.1763, 5257.191
521.6584, 5263.334
522.1405, 5267.105
522.6226, 5261.589
523.1047, 5250.914
523.5869, 5246.137
524.0690, 5254.581
524.5511, 5268.338
525.0332, 5273.162
525.5153, 5269.139
525.9974, 5270.427
526.4796, 5283.436
526.9617, 5297.785
527.4438, 5300.247
527.9259, 5292.527
528.4080, 5289.366
528.8901, 5294.890
529.3723, 5303.468
529.8544, 5313.895
530.3365, 5324.575
530.8186, 5333.845
531.3007, 5341.006
531.7828, 5342.899
532.2650, 5333.511
532.7471, 5309.581
533.2292, 5294.282
533.7113, 5284.180
534.1934, 5287.720
534.6755, 5322.884
535.1577, 5367.000
535.6398, 5387.530
536.1219, 5373.620
536.6040, 5351.055
537.0861, 5343.064
537.5682, 5345.710
538.0504, 5345.492
538.5325, 5340.135
539.0146, 5337.724
539.4967, 5345.477
539.9788, 5360.856
540.4609, 5370.936
540.9431, 5373.585
541.4252, 5374.653
541.9073, 5377.006
542.3894, 5377.229
542.8715, 5367.979
543.3536, 5351.548
543.8358, 5341.372
544.3179, 5349.444
544.8000, 5371.104
545.2821, 5386.082
545.7642, 5393.072
546.2463, 5396.979
546.7285, 5401.019
547.2106, 5400.579
547.6927, 5386.785
548.1748, 5361.601
548.6569, 5346.558
549.1390, 5358.830
549.6211, 5380.543
550.1032, 5392.209
550.5853, 5395.682
551.0674, 5400.951
551.5496, 5412.344
552.0317, 5425.939
552.5138, 5435.470
552.9959, 5439.976
553.4780, 5443.607
553.9601, 5442.918
554.4423, 5445.159
554.9244, 5459.903
555.4065, 5477.441
555.8886, 5478.292
556.3707, 5454.650
556.8528, 5432.190
557.3350, 5451.045
557.8171, 5504.062
558.2992, 5529.938
558.7813, 5516.723
559.2634, 5496.160
559.7455, 5485.091
560.2277, 5483.326
560.7098, 5488.772
561.1919, 5507.862
561.6740, 5522.853
562.1561, 5526.968
562.6382, 5524.997
563.1204, 5516.964
563.6025, 5506.423
564.0846, 5507.558
564.5667, 5533.710
565.0488, 5574.332
565.5309, 5585.119
566.0131, 5550.009
566.4952, 5525.693
566.9773, 5530.693
567.4594, 5542.525
567.9415, 5546.982
568.4236, 5545.475
568.9058, 5547.879
569.3879, 5562.916
569.8700, 5579.602
570.3521, 5583.804
570.8342, 5579.937
571.3163, 5585.080
571.7985, 5605.321
572.2806, 5627.260
572.7627, 5634.988
573.2448, 5627.536
573.7269, 5614.874
574.2090, 5585.226
574.6912, 5564.504
575.1733, 5560.604
575.6554, 5568.240
576.1375, 5586.387
576.6196, 5612.826
577.1017, 5632.730
577.5839, 5625.272
578.0660, 5600.620
578.5481, 5594.891
579.0302, 5610.495
579.5123, 5628.819
579.9944, 5644.470
580.4766, 5655.222
580.9587, 5653.387
581.4408, 5633.672
581.9229, 5625.295
582.4050, 5646.318
582.8871, 5667.188
583.3693, 5665.703
583.8514, 5648.707
584.3335, 5631.509
584.8156, 5621.077
585.2977, 5620.060
585.7798, 5637.488
586.2620, 5676.040
586.7441, 5700.084
587.2262, 5701.290
587.7083, 5699.061
588.1904, 5704.520
588.6725, 5713.837
589.1547, 5721.747
589.6368, 5729.649
590.1189, 5730.587
590.6010, 5712.996
591.0831, 5690.993
591.5652, 5685.773
592.0474, 5696.339
592.5295, 5704.310
593.0116, 5697.124
593.4937, 5679.864
593.9758, 5666.735
594.4579, 5653.363
594.9401, 5654.703
595.4222, 5693.600
595.9043, 5727.825
596.3864, 5727.139
596.8685, 5705.021
597.3506, 5698.551
597.8328, 5728.896
598.3149, 5764.376
598.7970, 5775.557
599.2791, 5769.661
599.7612, 5763.551
600.2433, 5760.440
600.7255, 5762.465
601.2076, 5772.745
601.6897, 5789.689
602.1718, 5800.287
602.6539, 5799.062
603.1360, 5798.715
603.6182, 5801.632
604.1003, 5804.617
604.5824, 5805.083
605.0645, 5803.253
605.5466, 5801.166
606.0287, 5800.356
606.5109, 5799.419
606.9930, 5793.849
607.4751, 5784.944
607.9572, 5785.921
608.4393, 5803.387
608.9214, 5817.690
609.4036, 5804.496
609.8857, 5763.685
610.3678, 5748.406
610.8499, 5780.038
611.3320, 5807.554
611.8141, 5817.333
612.2963, 5818.587
612.7784, 5820.539
613.2605, 5824.264
613.7426, 5824.530
614.2247, 5812.803
614.7068, 5798.605
615.1890, 5809.874
615.6711, 5848.002
616.1532, 5881.565
616.6353, 5904.781
617.1174, 5914.030
617.5995, 5898.024
618.0817, 5856.096
618.5638, 5832.684
619.0459, 5847.072
619.5280, 5859.913
620.0101, 5849.661
620.4922, 5832.502
620.9744, 5831.911
621.4565, 5850.411
621.9386, 5869.021
622.4207, 5868.740
622.9028, 5855.747
623.3849, 5855.531
623.8671, 5870.530
624.3492, 5883.894
624.8313, 5889.099
625.3134, 5892.219
625.7955, 5900.966
626.2776, 5914.976
626.7598, 5927.720
627.2419, 5940.734
627.7240, 5949.617
628.2061, 5951.765
628.6882, 5948.424
629.1703, 5939.340
629.6525, 5925.613
630.1346, 5912.770
630.6167, 5904.628
631.0988, 5902.326
631.5809, 5915.160
632.0630, 5948.977
632.5452, 5975.290
633.0273, 5984.661
633.5094, 5983.604
633.9915, 5975.181
634.4736, 5960.110
634.9557, 5955.379
635.4379, 5978.990
635.9200, 5998.427
636.4021, 5989.793
636.8842, 5967.101
637.3663, 5951.291
637.8484, 5947.920
638.3306, 5952.331
638.8127, 5961.303
639.2948, 5973.791
639.7769, 5983.827
640.2590, 5992.312
640.7411, 5994.752
641.2233, 5984.578
641.7054, 5972.873
642.1875, 5969.673
642.6696, 5974.763
643.1517, 5987.101
643.6339, 6025.553
644.1160, 6050.830
644.5981, 6024.742
645.0802, 5978.096
645.5623, 5958.339
646.0444, 5974.853
646.5266, 6006.639
647.0087, 6038.792
647.4908, 6067.170
647.9729, 6066.121
648.4550, 6024.615
648.9371, 5999.173
649.4193, 6016.333
649.9014, 6041.293
650.3835, 6036.241
650.8656, 6006.302
651.3477, 5987.879
651.8298, 5994.290
652.3120, 6005.173
652.7941, 6017.127
653.2762, 6024.868
653.7583, 6018.765
654.2404, 5999.318
654.7225, 5977.663
655.2047, 5961.389
655.6868, 5951.662
656.1689, 5956.511
656.6510, 5980.228
657.1331, 5990.893
657.6152, 5975.238
658.0974, 5954.285
658.5795, 5948.925
659.0616, 5955.083
659.5437, 5954.553
660.0258, 5942.563
660.5079, 5927.569
660.9901, 5905.554
661.4722, 5886.342
661.9543, 5880.864
662.4364, 5889.044
662.9185, 5905.917
663.4006, 5931.138
663.8828, 5954.507
664.3649, 5948.547
664.8470, 5911.990
665.3291, 5890.122
665.8112, 5896.594
666.2933, 5901.841
666.7755, 5875.855
667.2576, 5830.412
667.7397, 5817.000
668.2218, 5866.595
668.7039, 5897.667
669.1860, 5876.008
669.6682, 5845.326
670.1503, 5845.378
670.6324, 5866.904
671.1145, 5872.649
671.5966, 5842.122
672.0787, 5803.831
672.5609, 5803.982
673.0430, 5835.646
673.5251, 5846.415
674.0072, 5828.033
674.4893, 5808.176
674.9714, 5802.436
675.4536, 5806.954
675.9357, 5812.415
676.4178, 5821.742
676.8999, 5825.511
677.3820, 5820.497
677.8641, 5812.900
678.3463, 5802.898
678.8284, 5793.590
679.3105, 5792.143
679.7926, 5800.810
680.2747, 5805.244
680.7568, 5781.315
681.2390, 5745.762
681.7211, 5743.485
682.2032, 5774.498
682.6853, 5805.800
683.1674, 5824.649
683.6495, 5832.125
684.1317, 5828.452
684.6138, 5810.436
685.0959, 5798.257
685.5780, 5796.364
686.0601, 5794.896
686.5422, 5790.943
687.0244, 5786.612
687.5065, 5785.722
687.9886, 5788.019
688.4707, 5786.423
688.9528, 5768.910
689.4349, 5751.574
689.9171, 5757.370
690.3992, 5778.630
690.8813, 5793.298
691.3634, 5795.288
691.8455, 5789.080
692.3276, 5777.605
692.8098, 5762.267
693.2919, 5757.020
693.7740, 5769.929
694.2561, 5774.836
694.7382, 5754.409
695.2203, 5735.883
695.7025, 5741.372
696.1846, 5765.125
696.6667, 5784.410
697.1488, 5792.667
697.6309, 5796.756
698.1130, 5801.553
698.5952, 5803.474
699.0773, 5792.326
699.5594, 5772.110
700.0415, 5763.939
700.5236, 5782.327
701.0057, 5812.052
701.4879, 5821.150
