##NAMES=Tomichite
##RRUFFID=R070685
##IDEAL CHEMISTRY=V^3+^_4_Ti^4+^_3_As^3+^O_13_(OH)
##LOCALITY=Hemlo mines, Hemlo gold deposit, Marathon, Thunder Bay District, Ontario, Canada
##OWNER=RRUFF
##SOURCE=Michael Scott
##DESCRIPTION=Black massive
##STATUS=The identification of this mineral has been confirmed by single-crystal X-ray diffraction.
##URL=rruff.info/R070685
133.9495, 2092.690
134.4316, 2071.950
134.9137, 2040.224
135.3958, 2005.916
135.8779, 1980.702
136.3601, 1965.134
136.8422, 1959.133
137.3243, 1971.148
137.8064, 1990.432
138.2885, 2003.288
138.7706, 2004.829
139.2528, 1998.410
139.7349, 1991.098
140.2170, 1984.169
140.6991, 1974.166
141.1812, 1957.857
141.6633, 1936.598
142.1455, 1915.195
142.6276, 1892.866
143.1097, 1874.088
143.5918, 1866.065
144.0739, 1875.060
144.5560, 1887.428
145.0382, 1890.353
145.5203, 1883.079
146.0024, 1870.817
146.4845, 1848.956
146.9666, 1825.421
147.4488, 1810.502
147.9309, 1812.389
148.4130, 1823.701
148.8951, 1826.109
149.3772, 1817.191
149.8593, 1802.077
150.3415, 1777.556
150.8236, 1749.402
151.3057, 1728.542
151.7878, 1724.681
152.2699, 1737.643
152.7520, 1746.177
153.2342, 1744.825
153.7163, 1743.291
154.1984, 1746.899
154.6805, 1754.008
155.1626, 1758.408
155.6447, 1753.066
156.1269, 1734.711
156.6090, 1716.307
157.0911, 1692.980
157.5732, 1673.035
158.0553, 1662.577
158.5374, 1662.217
159.0196, 1666.896
159.5017, 1668.552
159.9838, 1663.189
160.4659, 1661.086
160.9480, 1667.965
161.4301, 1675.446
161.9123, 1673.474
162.3944, 1657.987
162.8765, 1635.803
163.3586, 1624.735
163.8407, 1640.999
164.3228, 1646.538
164.8050, 1623.914
165.2871, 1586.834
165.7692, 1561.186
166.2513, 1560.987
166.7334, 1580.355
167.2155, 1594.913
167.6977, 1608.643
168.1798, 1614.804
168.6619, 1603.326
169.1440, 1578.001
169.6261, 1559.788
170.1082, 1566.289
170.5904, 1589.822
171.0725, 1601.183
171.5546, 1587.904
172.0367, 1568.830
172.5188, 1563.291
173.0009, 1573.094
173.4831, 1582.768
173.9652, 1579.748
174.4473, 1568.886
174.9294, 1558.137
175.4115, 1549.644
175.8936, 1542.838
176.3758, 1537.153
176.8579, 1533.621
177.3400, 1528.934
177.8221, 1518.770
178.3042, 1505.689
178.7863, 1495.631
179.2685, 1495.166
179.7506, 1502.151
180.2327, 1502.023
180.7148, 1487.161
181.1969, 1473.345
181.6790, 1470.964
182.1612, 1477.387
182.6433, 1482.644
183.1254, 1474.909
183.6075, 1451.634
184.0896, 1439.711
184.5717, 1454.964
185.0539, 1470.861
185.5360, 1477.128
186.0181, 1472.823
186.5002, 1462.532
186.9823, 1449.673
187.4645, 1430.406
187.9466, 1420.401
188.4287, 1427.861
188.9108, 1437.940
189.3929, 1443.022
189.8750, 1440.932
190.3572, 1432.923
190.8393, 1419.464
191.3214, 1389.338
191.8035, 1374.026
192.2856, 1388.643
192.7677, 1408.882
193.2499, 1412.134
193.7320, 1390.672
194.2141, 1349.510
194.6962, 1354.131
195.1783, 1354.885
195.6604, 1351.981
196.1426, 1334.457
196.6247, 1335.811
197.1068, 1329.600
197.5889, 1323.078
198.0710, 1327.089
198.5531, 1311.692
199.0353, 1315.535
199.5174, 1311.698
199.9995, 1311.376
200.4816, 1303.443
200.9637, 1297.860
201.4458, 1299.892
201.9280, 1297.707
202.4101, 1288.898
202.8922, 1292.829
203.3743, 1298.621
203.8564, 1293.625
204.3385, 1281.838
204.8207, 1276.827
205.3028, 1289.266
205.7849, 1314.557
206.2670, 1326.934
206.7491, 1320.687
207.2312, 1307.810
207.7134, 1292.466
208.1955, 1275.308
208.6776, 1260.101
209.1597, 1249.743
209.6418, 1243.764
210.1239, 1238.158
210.6061, 1231.769
211.0882, 1226.338
211.5703, 1224.246
212.0524, 1225.695
212.5345, 1226.649
213.0166, 1223.463
213.4988, 1217.543
213.9809, 1212.804
214.4630, 1210.874
214.9451, 1210.041
215.4272, 1208.145
215.9093, 1204.984
216.3915, 1201.485
216.8736, 1197.547
217.3557, 1193.720
217.8378, 1191.378
218.3199, 1192.108
218.8020, 1194.376
219.2842, 1195.023
219.7663, 1193.202
220.2484, 1191.694
220.7305, 1192.689
221.2126, 1195.305
221.6947, 1197.822
222.1769, 1199.359
222.6590, 1200.183
223.1411, 1202.111
223.6232, 1208.848
224.1053, 1209.972
224.5874, 1196.866
225.0696, 1174.215
225.5517, 1152.750
226.0338, 1136.558
226.5159, 1126.137
226.9980, 1126.647
227.4801, 1150.972
227.9623, 1169.454
228.4444, 1161.315
228.9265, 1135.151
229.4086, 1113.591
229.8907, 1116.909
230.3729, 1143.261
230.8550, 1159.328
231.3371, 1157.756
231.8192, 1152.532
232.3013, 1148.329
232.7834, 1145.509
233.2656, 1143.978
233.7477, 1144.834
234.2298, 1148.275
234.7119, 1147.640
235.1940, 1138.955
235.6761, 1129.450
236.1583, 1119.725
236.6404, 1111.082
237.1225, 1106.477
237.6046, 1110.195
238.0867, 1123.624
238.5688, 1132.229
239.0510, 1130.828
239.5331, 1128.716
240.0152, 1129.948
240.4973, 1133.883
240.9794, 1136.962
241.4615, 1135.037
241.9437, 1126.667
242.4258, 1121.971
242.9079, 1121.915
243.3900, 1117.799
243.8721, 1123.897
244.3542, 1126.129
244.8364, 1124.701
245.3185, 1108.655
245.8006, 1111.486
246.2827, 1106.752
246.7648, 1101.708
247.2469, 1107.196
247.7291, 1093.276
248.2112, 1098.596
248.6933, 1096.237
249.1754, 1097.392
249.6575, 1090.936
250.1396, 1086.831
250.6218, 1090.339
251.1039, 1089.632
251.5860, 1082.299
252.0681, 1083.678
252.5502, 1069.493
253.0323, 1068.965
253.5145, 1074.330
253.9966, 1062.981
254.4787, 1055.850
254.9608, 1052.633
255.4429, 1059.756
255.9250, 1075.591
256.4072, 1091.999
256.8893, 1100.765
257.3714, 1101.255
257.8535, 1095.926
258.3356, 1079.400
258.8177, 1062.841
259.2999, 1051.167
259.7820, 1044.983
260.2641, 1043.014
260.7462, 1044.156
261.2283, 1048.910
261.7104, 1054.937
262.1926, 1067.029
262.6747, 1076.223
263.1568, 1075.005
263.6389, 1064.962
264.1210, 1054.900
264.6031, 1054.216
265.0853, 1065.879
265.5674, 1071.849
266.0495, 1068.911
266.5316, 1064.300
267.0137, 1059.051
267.4958, 1054.825
267.9780, 1056.053
268.4601, 1068.538
268.9422, 1096.157
269.4243, 1110.076
269.9064, 1101.261
270.3885, 1089.786
270.8707, 1085.490
271.3528, 1088.089
271.8349, 1091.587
272.3170, 1090.262
272.7991, 1082.914
273.2813, 1080.998
273.7634, 1086.677
274.2455, 1094.430
274.7276, 1104.364
275.2097, 1114.695
275.6918, 1120.515
276.1740, 1116.508
276.6561, 1101.185
277.1382, 1097.082
277.6203, 1116.352
278.1024, 1132.594
278.5845, 1131.005
279.0667, 1115.826
279.5488, 1101.987
280.0309, 1101.345
280.5130, 1114.209
280.9951, 1122.235
281.4772, 1125.853
281.9594, 1125.379
282.4415, 1116.049
282.9236, 1102.151
283.4057, 1094.351
283.8878, 1101.170
284.3699, 1121.523
284.8521, 1132.200
285.3342, 1125.302
285.8163, 1118.487
286.2984, 1116.703
286.7805, 1119.090
287.2626, 1123.754
287.7448, 1130.054
288.2269, 1137.217
288.7090, 1138.584
289.1911, 1128.906
289.6732, 1119.773
290.1554, 1111.754
290.6375, 1106.388
291.1196, 1107.674
291.6017, 1118.673
292.0838, 1135.811
292.5659, 1141.122
293.0481, 1123.071
293.5302, 1106.690
294.0123, 1095.653
294.4944, 1088.696
294.9765, 1084.299
295.4586, 1081.839
295.9408, 1080.504
296.4229, 1077.629
296.9050, 1071.824
297.3871, 1065.993
297.8692, 1059.427
298.3513, 1053.248
298.8335, 1049.151
299.3156, 1047.825
299.7977, 1047.921
300.2798, 1046.273
300.7619, 1040.784
301.2440, 1036.103
301.7262, 1033.612
302.2083, 1031.327
302.6904, 1026.519
303.1725, 1018.542
303.6546, 1010.030
304.1367, 1006.269
304.6189, 1013.810
305.1010, 1015.367
305.5831, 1004.784
306.0652, 992.6403
306.5473, 988.4475
307.0294, 993.8282
307.5116, 1002.050
307.9937, 1003.144
308.4758, 992.2035
308.9579, 985.8038
309.4400, 987.6471
309.9221, 990.4623
310.4043, 990.4805
310.8864, 986.8578
311.3685, 979.9101
311.8506, 968.7527
312.3327, 950.2241
312.8148, 940.6516
313.2970, 944.3333
313.7791, 951.8586
314.2612, 961.6682
314.7433, 971.8711
315.2254, 979.0414
315.7076, 979.4690
316.1897, 972.4595
316.6718, 966.6089
317.1539, 963.5257
317.6360, 959.9907
318.1181, 954.8049
318.6003, 948.2892
319.0824, 940.8789
319.5645, 932.0729
320.0466, 922.3639
320.5287, 920.0464
321.0108, 933.6711
321.4930, 945.9192
321.9751, 953.3317
322.4572, 956.7332
322.9393, 957.7202
323.4214, 957.1718
323.9035, 955.0071
324.3857, 950.8370
324.8678, 944.3117
325.3499, 936.0392
325.8320, 921.2640
326.3141, 906.8626
326.7962, 902.3737
327.2784, 912.8879
327.7605, 929.8913
328.2426, 933.4760
328.7247, 914.0240
329.2068, 902.2319
329.6889, 911.2026
330.1711, 925.4340
330.6532, 931.6312
331.1353, 925.8290
331.6174, 915.1012
332.0995, 908.2289
332.5816, 904.8823
333.0638, 906.8083
333.5459, 923.0266
334.0280, 938.8529
334.5101, 944.4700
334.9922, 938.8766
335.4743, 929.3047
335.9565, 922.8266
336.4386, 919.5746
336.9207, 914.5921
337.4028, 903.6895
337.8849, 894.7346
338.3670, 892.6240
338.8492, 896.9221
339.3313, 903.7800
339.8134, 912.9972
340.2955, 923.3467
340.7776, 927.4619
341.2597, 921.6727
341.7419, 914.7202
342.2240, 912.5142
342.7061, 913.6439
343.1882, 914.4227
343.6703, 913.1469
344.1524, 910.3573
344.6346, 906.6108
345.1167, 901.1924
345.5988, 897.1985
346.0809, 898.1076
346.5630, 901.6023
347.0451, 904.3113
347.5273, 906.5286
348.0094, 906.5992
348.4915, 899.9634
348.9736, 886.3599
349.4557, 878.0024
349.9378, 883.7960
350.4200, 897.7369
350.9021, 907.7545
351.3842, 912.4921
351.8663, 914.6111
352.3484, 916.7901
352.8305, 918.1510
353.3127, 913.2967
353.7948, 896.6028
354.2769, 877.5925
354.7590, 874.5085
355.2411, 890.9810
355.7232, 907.4279
356.2054, 919.2889
356.6875, 926.0796
357.1696, 924.7618
357.6517, 913.2852
358.1338, 900.4023
358.6159, 899.2283
359.0981, 912.8751
359.5802, 920.5715
360.0623, 916.7749
360.5444, 908.0082
361.0265, 899.2389
361.5086, 891.3892
361.9908, 885.5486
362.4729, 883.3397
362.9550, 885.3607
363.4371, 883.9642
363.9192, 875.4434
364.4013, 867.2148
364.8835, 863.0153
365.3656, 862.5493
365.8477, 864.0290
366.3298, 866.3477
366.8119, 869.5308
367.2940, 873.8522
367.7762, 881.2499
368.2583, 887.4958
368.7404, 893.4764
369.2225, 897.2761
369.7046, 894.7841
370.1867, 883.9977
370.6689, 869.3034
371.1510, 862.1696
371.6331, 868.4027
372.1152, 874.1894
372.5974, 879.0641
373.0795, 883.1612
373.5616, 886.9908
374.0437, 890.5083
374.5258, 892.5501
375.0079, 890.9152
375.4901, 883.6205
375.9722, 878.8060
376.4543, 876.6295
376.9364, 876.7051
377.4185, 881.7067
377.9006, 889.6508
378.3828, 894.1727
378.8649, 887.9758
379.3470, 871.7869
379.8291, 861.9976
380.3112, 862.4740
380.7933, 864.8410
381.2755, 866.8809
381.7576, 868.2855
382.2397, 868.5875
382.7218, 867.2403
383.2039, 865.0108
383.6860, 863.5014
384.1682, 862.7808
384.6503, 862.5732
385.1324, 863.0166
385.6145, 863.8265
386.0966, 864.4109
386.5787, 864.2170
387.0609, 865.3181
387.5430, 873.1032
388.0251, 886.7184
388.5072, 890.4879
388.9893, 873.7773
389.4714, 852.2809
389.9536, 844.9837
390.4357, 852.6051
390.9178, 861.5781
391.3999, 867.4395
391.8820, 869.9583
392.3641, 867.8464
392.8463, 860.2188
393.3284, 850.9491
393.8105, 842.3064
394.2926, 834.5821
394.7747, 831.8580
395.2568, 836.8774
395.7390, 845.5410
396.2211, 857.6900
396.7032, 871.8708
397.1853, 879.8596
397.6674, 874.5067
398.1495, 858.4994
398.6317, 850.7126
399.1138, 860.6531
399.5959, 866.6064
400.0780, 856.9936
400.5601, 839.8275
401.0422, 829.2090
401.5244, 831.0759
402.0065, 839.9952
402.4886, 844.8220
402.9707, 845.7506
403.4528, 841.4702
403.9349, 824.8536
404.4171, 807.9549
404.8992, 801.4176
405.3813, 806.0086
405.8634, 814.0440
406.3455, 816.6533
406.8276, 812.3500
407.3098, 812.1407
407.7919, 821.1662
408.2740, 829.2757
408.7561, 834.4529
409.2382, 835.8862
409.7203, 831.8203
410.2025, 819.6356
410.6846, 802.7201
411.1667, 794.2634
411.6488, 796.7794
412.1309, 803.5531
412.6130, 819.8728
413.0952, 835.6483
413.5773, 838.7042
414.0594, 824.4441
414.5415, 804.5396
415.0236, 791.6301
415.5057, 785.7912
415.9879, 785.4003
416.4700, 794.5432
416.9521, 804.9150
417.4342, 808.6194
417.9163, 805.8846
418.3984, 803.2621
418.8806, 805.1730
419.3627, 809.5044
419.8448, 811.0265
420.3269, 808.4596
420.8090, 806.8752
421.2911, 812.5119
421.7733, 823.0321
422.2554, 827.9919
422.7375, 821.4738
423.2196, 813.0316
423.7017, 810.3871
424.1838, 812.0847
424.6660, 810.4307
425.1481, 800.0621
425.6302, 785.9162
426.1123, 783.7549
426.5944, 806.0496
427.0765, 819.0786
427.5587, 809.3961
428.0408, 791.0546
428.5229, 779.5934
429.0050, 778.9141
429.4871, 783.9592
429.9692, 788.9036
430.4514, 794.6462
430.9335, 796.7769
431.4156, 792.8525
431.8977, 788.3532
432.3798, 785.5386
432.8619, 784.3779
433.3441, 784.0836
433.8262, 784.2628
434.3083, 784.7320
434.7904, 784.4161
435.2725, 782.3478
435.7546, 781.0106
436.2368, 781.4102
436.7189, 782.4751
437.2010, 784.3125
437.6831, 787.1077
438.1652, 786.8942
438.6473, 775.4670
439.1295, 751.5684
439.6116, 735.5823
440.0937, 733.2236
440.5758, 737.8476
441.0579, 745.9805
441.5400, 756.8865
442.0222, 766.5667
442.5043, 773.8619
442.9864, 778.3597
443.4685, 779.2037
443.9506, 776.2311
444.4327, 770.2077
444.9149, 759.1606
445.3970, 745.5712
445.8791, 737.6736
446.3612, 736.8934
446.8433, 740.7701
447.3254, 751.1781
447.8076, 765.2621
448.2897, 776.2388
448.7718, 781.5416
449.2539, 782.4235
449.7360, 780.9489
450.2181, 776.6411
450.7003, 770.7308
451.1824, 761.3319
451.6645, 751.6930
452.1466, 744.1782
452.6287, 739.0507
453.1108, 735.5306
453.5930, 733.1885
454.0751, 732.0284
454.5572, 729.6155
455.0393, 722.0529
455.5215, 717.5007
456.0036, 717.1547
456.4857, 720.9994
456.9678, 731.1606
457.4499, 749.1250
457.9320, 766.7736
458.4142, 767.1728
458.8963, 744.2325
459.3784, 728.4271
459.8605, 729.2025
460.3426, 735.7075
460.8247, 745.0576
461.3069, 755.6694
461.7890, 760.3725
462.2711, 748.7433
462.7532, 727.9346
463.2353, 719.9356
463.7174, 729.4163
464.1996, 737.3530
464.6817, 727.3286
465.1638, 706.9617
465.6459, 695.1541
466.1280, 695.5926
466.6101, 703.1437
467.0923, 721.3116
467.5744, 744.5403
468.0565, 755.6876
468.5386, 747.4346
469.0207, 729.5254
469.5028, 717.5631
469.9850, 711.9595
470.4671, 711.9578
470.9492, 725.8357
471.4313, 739.1430
471.9134, 738.7482
472.3955, 726.1901
472.8777, 713.4359
473.3598, 710.3690
473.8419, 715.8276
474.3240, 715.7355
474.8061, 700.6104
475.2882, 691.5247
475.7704, 695.8535
476.2525, 706.1267
476.7346, 715.6613
477.2167, 722.1136
477.6988, 723.6016
478.1809, 713.7508
478.6631, 690.3574
479.1452, 678.9866
479.6273, 691.6423
480.1094, 707.4689
480.5915, 711.7675
481.0736, 707.2343
481.5558, 704.9821
482.0379, 712.2731
482.5200, 724.0395
483.0021, 733.8351
483.4842, 741.6976
483.9663, 744.2586
484.4485, 736.8411
484.9306, 724.5729
485.4127, 720.6479
485.8948, 730.0392
486.3769, 737.1790
486.8590, 736.4509
487.3412, 730.4882
487.8233, 720.5515
488.3054, 707.4227
488.7875, 697.2926
489.2696, 697.5885
489.7517, 710.1357
490.2339, 720.2540
490.7160, 732.0082
491.1981, 737.5234
491.6802, 727.1424
492.1623, 709.6949
492.6444, 700.8084
493.1266, 708.7557
493.6087, 725.5903
494.0908, 734.0508
494.5729, 731.8737
495.0550, 727.8192
495.5371, 721.2076
496.0193, 714.5219
496.5014, 708.6147
496.9835, 703.8351
497.4656, 701.1077
497.9477, 702.3718
498.4298, 706.0827
498.9120, 707.1070
499.3941, 704.2289
499.8762, 704.2153
500.3583, 714.2601
500.8404, 728.9935
501.3225, 735.9516
501.8047, 731.0048
502.2868, 724.2413
502.7689, 718.5194
503.2510, 714.8409
503.7331, 716.8408
504.2152, 725.7096
504.6974, 734.1281
505.1795, 732.6652
505.6616, 718.2661
506.1437, 708.5158
506.6258, 706.5655
507.1079, 705.5630
507.5901, 700.8768
508.0722, 694.9263
508.5543, 693.1895
509.0364, 698.7330
509.5185, 708.9330
510.0006, 718.0787
510.4828, 727.3368
510.9649, 732.3217
511.4470, 731.6729
511.9291, 727.1425
512.4113, 716.5242
512.8934, 701.4322
513.3755, 690.3914
513.8576, 691.0248
514.3397, 699.8400
514.8218, 708.7346
515.3040, 718.1506
515.7861, 724.4855
516.2682, 725.6851
516.7503, 722.1720
517.2324, 714.8499
517.7145, 698.3265
518.1967, 688.2104
518.6788, 697.1525
519.1609, 715.0297
519.6430, 725.8972
520.1251, 726.1999
520.6072, 721.3824
521.0894, 716.8049
521.5715, 712.3607
522.0536, 708.9592
522.5357, 703.9127
523.0178, 702.6111
523.4999, 710.4518
523.9821, 722.3168
524.4642, 729.9278
524.9463, 729.6061
525.4284, 725.6918
525.9105, 726.8639
526.3926, 735.4861
526.8748, 737.5555
527.3569, 724.3392
527.8390, 710.9807
528.3211, 706.5461
528.8032, 709.7300
529.2853, 714.3463
529.7675, 717.9775
530.2496, 721.0399
530.7317, 724.9820
531.2138, 729.6661
531.6959, 730.9698
532.1780, 725.6245
532.6602, 717.3438
533.1423, 713.9905
533.6244, 716.0502
534.1065, 720.2058
534.5886, 728.8572
535.0707, 737.3836
535.5529, 739.9257
536.0350, 737.2086
536.5171, 736.5283
536.9992, 744.6555
537.4813, 759.5102
537.9634, 763.1236
538.4456, 742.3940
538.9277, 728.4835
539.4098, 731.6390
539.8919, 739.9063
540.3740, 741.6202
540.8561, 734.5458
541.3383, 725.6619
541.8204, 721.1931
542.3025, 720.7487
542.7846, 721.9484
543.2667, 725.1668
543.7488, 728.8345
544.2310, 731.7352
544.7131, 734.4214
545.1952, 738.0833
545.6773, 743.4249
546.1594, 748.9650
546.6415, 756.0095
547.1237, 762.3455
547.6058, 762.0364
548.0879, 753.3699
548.5700, 742.5784
549.0521, 726.0068
549.5342, 735.5915
550.0164, 741.3096
550.4985, 743.3683
550.9806, 730.8088
551.4627, 737.1258
551.9448, 735.8779
552.4269, 734.3198
552.9091, 743.2938
553.3912, 732.8602
553.8733, 741.6670
554.3554, 742.7934
554.8375, 743.1887
555.3196, 738.2580
555.8018, 734.8978
556.2839, 736.4424
556.7660, 742.0084
557.2481, 748.7448
557.7302, 759.4289
558.2123, 767.6291
558.6945, 764.0502
559.1766, 751.1175
559.6587, 741.7663
560.1408, 741.7297
560.6229, 744.5605
561.1050, 739.0106
561.5872, 718.8927
562.0693, 707.9905
562.5514, 714.1054
563.0335, 722.7363
563.5156, 724.9039
563.9977, 722.2016
564.4799, 720.4261
564.9620, 722.9245
565.4441, 728.3040
565.9262, 733.7054
566.4083, 740.0306
566.8904, 743.5482
567.3726, 739.3224
567.8547, 735.6003
568.3368, 738.8853
568.8189, 748.0347
569.3010, 755.5206
569.7831, 756.8947
570.2653, 754.6563
570.7474, 750.3821
571.2295, 744.4921
571.7116, 744.4448
572.1937, 756.5022
572.6758, 771.9035
573.1580, 771.4396
573.6401, 746.4377
574.1222, 729.6566
574.6043, 728.3284
575.0864, 732.8939
575.5685, 739.7126
576.0507, 746.3669
576.5328, 747.4854
577.0149, 738.5193
577.4970, 724.4813
577.9791, 722.3705
578.4612, 737.4149
578.9434, 751.5593
579.4255, 765.1243
579.9076, 773.9289
580.3897, 772.0535
580.8718, 760.9290
581.3539, 751.7677
581.8361, 755.9490
582.3182, 763.4201
582.8003, 753.5862
583.2824, 727.6014
583.7645, 712.8774
584.2466, 725.1465
584.7288, 752.0983
585.2109, 767.5809
585.6930, 769.7034
586.1751, 765.7102
586.6572, 744.7927
587.1393, 727.0690
587.6215, 731.8608
588.1036, 753.9199
588.5857, 773.4198
589.0678, 777.6946
589.5499, 771.0535
590.0320, 765.9705
590.5142, 762.7014
590.9963, 760.2122
591.4784, 756.1767
591.9605, 754.6798
592.4426, 760.4542
592.9247, 772.4332
593.4069, 782.4814
593.8890, 786.5126
594.3711, 786.7870
594.8532, 785.7180
595.3353, 783.4034
595.8174, 779.3462
596.2996, 772.2578
596.7817, 765.9678
597.2638, 768.4282
597.7459, 786.1226
598.2280, 797.8627
598.7101, 802.3281
599.1923, 802.1052
599.6744, 796.2346
600.1565, 787.0228
600.6386, 778.5597
601.1207, 772.8932
601.6028, 770.2252
602.0850, 771.9780
602.5671, 779.1497
603.0492, 784.4624
603.5313, 785.5672
604.0134, 785.7996
604.4955, 788.7034
604.9777, 793.3477
605.4598, 795.3609
605.9419, 792.3164
606.4240, 787.1331
606.9061, 779.7588
607.3882, 772.0641
607.8704, 769.4311
608.3525, 773.8329
608.8346, 782.9139
609.3167, 794.4701
609.7988, 811.6214
610.2809, 818.0912
610.7631, 799.6573
611.2452, 786.8159
611.7273, 795.8925
612.2094, 815.8600
612.6915, 829.2463
613.1736, 829.4730
613.6558, 823.3461
614.1379, 817.6103
614.6200, 812.4019
615.1021, 809.3978
615.5842, 809.6467
616.0663, 809.7885
616.5485, 805.9489
617.0306, 799.7889
617.5127, 798.2502
617.9948, 807.4177
618.4769, 814.3284
618.9590, 810.8216
619.4412, 803.7860
619.9233, 802.8041
620.4054, 809.3988
620.8875, 818.2982
621.3696, 824.9741
621.8517, 829.3432
622.3339, 829.3496
622.8160, 820.2266
623.2981, 814.8164
623.7802, 820.8410
624.2623, 829.1059
624.7444, 829.7945
625.2266, 821.5692
625.7087, 814.6105
626.1908, 817.1608
626.6729, 824.2751
627.1550, 827.4146
627.6371, 826.3284
628.1193, 824.9053
628.6014, 825.0432
629.0835, 826.5097
629.5656, 828.8196
630.0477, 834.4944
630.5298, 836.6608
631.0120, 833.0820
631.4941, 827.9414
