##NAMES=Topaz
##RRUFFID=R050405
##IDEAL CHEMISTRY=Al_2_SiO_4_F_2_
##LOCALITY=Amelia, Virginia, USA
##OWNER=RRUFF
##SOURCE=Gerry Gibbs
##DESCRIPTION=Colorless cleavage fragment
##STATUS=The identification of this mineral has been confirmed by X-ray diffraction and chemical analysis
##URL=rruff.info/R050405
##MEASURED CHEMISTRY=Al_2.00_Si_1.00_O_4_(F_0.75_(OH)_0.25_)_2_
91.00781, 7.570282
91.48993, 7.908815
91.97205, 8.044415
92.45416, 7.859507
92.93628, 7.477577
93.41840, 7.160078
93.90051, 6.943957
94.38263, 6.815610
94.86475, 6.798080
95.34686, 6.889924
95.82898, 6.952805
96.31110, 6.798466
96.79321, 6.458823
97.27533, 6.296652
97.75745, 6.451831
98.23956, 6.839182
98.72168, 7.110445
99.20380, 7.255212
99.68591, 7.308658
100.1680, 7.273780
100.6501, 7.122160
101.1323, 7.024149
101.6144, 7.045564
102.0965, 7.198469
102.5786, 7.324760
103.0607, 7.423049
103.5428, 7.497039
104.0250, 7.548370
104.5071, 7.551515
104.9892, 7.574083
105.4713, 7.639040
105.9534, 7.746491
106.4355, 7.900079
106.9177, 8.158027
107.3998, 8.464801
107.8819, 8.650481
108.3640, 8.586580
108.8461, 8.502517
109.3282, 8.504012
109.8104, 8.618673
110.2925, 8.785913
110.7746, 8.980470
111.2567, 9.210949
111.7388, 9.556462
112.2209, 10.24487
112.7031, 10.92926
113.1852, 11.37693
113.6673, 11.22436
114.1494, 11.12952
114.6315, 11.28841
115.1136, 11.71548
115.5958, 12.17298
116.0779, 12.70107
116.5600, 13.18619
117.0421, 13.49980
117.5242, 13.44676
118.0063, 13.32629
118.4885, 13.23762
118.9706, 13.15637
119.4527, 13.29782
119.9348, 13.89552
120.4169, 14.79281
120.8990, 15.71421
121.3812, 16.57221
121.8633, 17.36358
122.3454, 18.09904
122.8275, 18.82568
123.3096, 19.39680
123.7917, 19.61206
124.2739, 19.53706
124.7560, 19.41266
125.2381, 19.35870
125.7202, 19.36266
126.2023, 19.40332
126.6844, 19.47479
127.1666, 19.58242
127.6487, 19.73889
128.1308, 19.94392
128.6129, 20.17711
129.0950, 20.42172
129.5771, 20.68200
130.0593, 20.98282
130.5414, 21.37827
131.0235, 21.79803
131.5056, 22.04268
131.9877, 22.02755
132.4698, 21.79090
132.9520, 21.33020
133.4341, 20.66985
133.9162, 20.35616
134.3983, 20.68691
134.8804, 21.56417
135.3625, 22.28713
135.8447, 22.83101
136.3268, 23.29963
136.8089, 23.86938
137.2910, 24.57288
137.7731, 25.20143
138.2552, 25.64876
138.7374, 25.88303
139.2195, 26.22473
139.7016, 26.77045
140.1837, 27.33796
140.6658, 27.47128
141.1479, 26.95835
141.6301, 26.50780
142.1122, 26.48325
142.5943, 27.09285
143.0764, 27.55130
143.5585, 27.81426
144.0406, 27.91955
144.5228, 27.98978
145.0049, 27.93780
145.4870, 27.95671
145.9691, 28.17421
146.4512, 28.85743
146.9333, 29.29731
147.4155, 29.28068
147.8976, 28.88928
148.3797, 28.89605
148.8618, 29.40128
149.3439, 30.22640
149.8260, 31.25144
150.3082, 32.62487
150.7903, 34.04188
151.2724, 35.33219
151.7545, 36.47245
152.2366, 38.21729
152.7188, 40.16911
153.2009, 42.93009
153.6830, 46.96695
154.1651, 54.02679
154.6472, 60.71069
155.1293, 67.36291
155.6115, 74.61186
156.0936, 76.81721
156.5757, 69.73991
157.0578, 58.31254
157.5399, 48.01005
158.0220, 39.40379
158.5042, 32.63783
158.9863, 28.09993
159.4684, 26.06350
159.9505, 24.77694
160.4326, 23.94740
160.9147, 23.51145
161.3969, 23.37608
161.8790, 23.95808
162.3611, 24.50799
162.8432, 24.54639
163.3253, 23.82743
163.8074, 23.16966
164.2896, 22.96871
164.7717, 23.09180
165.2538, 23.27512
165.7359, 23.51990
166.2180, 23.71068
166.7001, 23.73727
167.1823, 23.51315
167.6644, 23.27346
168.1465, 23.15772
168.6286, 23.14248
169.1107, 23.16253
169.5928, 23.15408
170.0750, 23.17408
170.5571, 23.32170
171.0392, 23.76193
171.5213, 24.09633
172.0034, 23.82483
172.4855, 23.08302
172.9677, 22.47750
173.4498, 22.54147
173.9319, 22.94156
174.4140, 23.19611
174.8961, 23.10559
175.3782, 22.90505
175.8604, 22.86904
176.3425, 22.97763
176.8246, 23.06567
177.3067, 22.97519
177.7888, 22.77639
178.2709, 22.60836
178.7531, 22.47995
179.2352, 22.42573
179.7173, 22.53081
180.1994, 22.79000
180.6815, 23.07560
181.1636, 23.30314
181.6458, 23.47120
182.1279, 23.56562
182.6100, 23.55944
183.0921, 23.48803
183.5742, 23.39518
184.0563, 23.27890
184.5385, 23.20969
185.0206, 23.30948
185.5027, 23.54016
185.9848, 23.71191
186.4669, 23.71849
186.9490, 23.62201
187.4312, 23.63168
187.9133, 23.76307
188.3954, 23.89457
188.8775, 23.88255
189.3596, 23.73702
189.8417, 23.54322
190.3239, 23.26419
190.8060, 22.94527
191.2881, 22.87450
191.7702, 23.09615
192.2523, 23.39461
192.7344, 23.46724
193.2166, 23.31428
193.6987, 23.20410
194.1808, 23.28118
194.6629, 23.52386
195.1450, 23.67490
195.6271, 23.72495
196.1093, 23.70818
196.5914, 23.65141
197.0735, 23.54894
197.5556, 23.47503
198.0377, 23.46005
198.5198, 23.50384
199.0020, 23.59951
199.4841, 23.77372
199.9662, 23.95247
200.4483, 24.00676
200.9304, 23.92031
201.4125, 23.80834
201.8947, 23.71108
202.3768, 23.62729
202.8589, 23.56533
203.3410, 23.51029
203.8231, 23.49685
204.3052, 23.61651
204.7874, 23.90549
205.2695, 24.17781
205.7516, 24.34311
206.2337, 24.38579
206.7158, 24.42838
207.1979, 24.47307
207.6801, 24.51744
208.1622, 24.56054
208.6443, 24.60989
209.1264, 24.63632
209.6085, 24.56976
210.0906, 24.32658
210.5728, 24.41323
211.0549, 24.97289
211.5370, 25.76745
212.0191, 26.21081
212.5012, 26.17363
212.9833, 26.11432
213.4655, 26.25686
213.9476, 26.66168
214.4297, 27.04515
214.9118, 27.39457
215.3939, 27.72323
215.8760, 28.04484
216.3581, 28.27958
216.8403, 28.66611
217.3224, 29.30924
217.8045, 30.22758
218.2866, 31.36228
218.7687, 32.72517
219.2508, 34.29589
219.7330, 35.96074
220.2151, 37.62993
220.6972, 39.54844
221.1793, 41.87487
221.6614, 44.87066
222.1435, 47.59174
222.6257, 49.89055
223.1078, 51.95005
223.5899, 54.41881
224.0720, 57.70655
224.5541, 60.75718
225.0362, 63.04529
225.5184, 64.06535
226.0005, 65.53462
226.4826, 67.57218
226.9647, 70.05618
227.4468, 72.69567
227.9289, 75.34127
228.4111, 78.34873
228.8932, 81.91989
229.3753, 86.24751
229.8574, 90.61894
230.3395, 94.73997
230.8216, 98.92247
231.3038, 104.1008
231.7859, 110.2500
232.2680, 117.3874
232.7501, 125.3762
233.2322, 133.5448
233.7143, 143.9863
234.1965, 156.6751
234.6786, 171.7232
235.1607, 189.5847
235.6428, 210.4525
236.1249, 233.8486
236.6070, 260.4994
237.0892, 294.9555
237.5713, 322.1633
238.0534, 338.6760
238.5355, 348.8274
239.0176, 364.2372
239.4997, 389.9701
239.9819, 414.0358
240.4640, 433.7746
240.9461, 459.2202
241.4282, 455.8131
241.9103, 413.2765
242.3924, 345.1905
242.8746, 282.5939
243.3567, 222.8955
243.8388, 172.6143
244.3209, 134.9098
244.8030, 113.2794
245.2851, 95.97762
245.7673, 83.69437
246.2494, 75.44584
246.7315, 69.24158
247.2136, 65.37327
247.6957, 63.08064
248.1778, 62.13567
248.6600, 62.65774
249.1421, 64.20123
249.6242, 66.81625
250.1063, 70.42735
250.5884, 75.09303
251.0705, 81.71724
251.5527, 87.88235
252.0348, 92.68196
252.5169, 96.00733
252.9990, 98.39522
253.4811, 99.32919
253.9632, 99.68542
254.4454, 100.9689
254.9275, 103.3532
255.4096, 106.3382
255.8917, 109.7794
256.3738, 113.6439
256.8560, 118.0307
257.3381, 123.0046
257.8202, 128.4738
258.3023, 134.4158
258.7844, 140.7779
259.2665, 147.5793
259.7487, 154.7572
260.2308, 162.1906
260.7129, 170.4289
261.1950, 178.7713
261.6771, 188.6082
262.1592, 201.5268
262.6414, 216.8436
263.1235, 236.5900
263.6056, 260.3968
264.0877, 288.1992
264.5698, 324.3536
265.0519, 368.9047
265.5341, 421.4729
266.0162, 482.6426
266.4983, 552.6942
266.9804, 630.4067
267.4625, 723.6701
267.9446, 831.0570
268.4268, 913.2079
268.9089, 979.6619
269.3910, 1001.528
269.8731, 933.1203
270.3552, 749.3597
270.8373, 577.0108
271.3195, 438.6736
271.8016, 334.3476
272.2837, 259.2956
272.7658, 217.1953
273.2479, 194.2893
273.7300, 179.4256
274.2122, 173.3927
274.6943, 170.8592
275.1764, 171.8018
275.6585, 175.4515
276.1406, 177.9006
276.6227, 179.1156
277.1049, 179.2533
277.5870, 177.3444
278.0691, 172.9246
278.5512, 171.8736
279.0333, 175.3733
279.5154, 182.7491
279.9976, 191.6008
280.4797, 201.7590
280.9618, 214.4353
281.4439, 230.2045
281.9260, 249.0041
282.4081, 272.7893
282.8903, 302.0286
283.3724, 336.1435
283.8545, 374.3714
284.3366, 416.8865
284.8187, 461.8459
285.3008, 512.8376
285.7830, 568.5687
286.2651, 610.2526
286.7472, 638.8770
287.2293, 648.5737
287.7114, 623.3942
288.1935, 563.5391
288.6757, 492.5919
289.1578, 417.6622
289.6399, 340.8831
290.1220, 277.0285
290.6041, 227.0537
291.0862, 188.1908
291.5684, 158.3660
292.0505, 137.0699
292.5326, 120.5577
293.0147, 107.8950
293.4968, 98.54224
293.9789, 90.64336
294.4611, 84.26970
294.9432, 79.06529
295.4253, 74.91091
295.9074, 71.67935
296.3895, 68.91228
296.8716, 66.40946
297.3538, 64.21410
297.8359, 62.47429
298.3180, 61.18784
298.8001, 60.07056
299.2822, 58.80446
299.7643, 57.47428
300.2465, 56.32228
300.7286, 55.49370
301.2107, 54.85020
301.6928, 54.20848
302.1749, 53.57569
302.6570, 52.97239
303.1392, 52.45492
303.6213, 51.97674
304.1034, 51.46590
304.5855, 50.86531
305.0676, 50.25990
305.5497, 49.66380
306.0319, 49.10352
306.5140, 48.68656
306.9961, 48.70026
307.4782, 48.82364
307.9603, 48.60785
308.4424, 47.71729
308.9246, 46.90806
309.4067, 46.81987
309.8888, 47.29645
310.3709, 47.89616
310.8530, 48.45609
311.3351, 48.99031
311.8173, 49.42936
312.2994, 49.63389
312.7815, 50.16244
313.2636, 51.50919
313.7457, 53.38714
314.2278, 55.29838
314.7100, 56.80832
315.1921, 58.43185
315.6742, 60.58534
316.1563, 63.40118
316.6384, 66.12731
317.1205, 68.53851
317.6027, 70.60727
318.0848, 72.28198
318.5669, 72.86865
319.0490, 73.66307
319.5311, 75.26769
320.0132, 77.73653
320.4954, 80.29851
320.9775, 82.69839
321.4596, 85.09895
321.9417, 87.60265
322.4238, 90.01210
322.9059, 92.75362
323.3881, 95.89294
323.8702, 99.41332
324.3523, 103.4009
324.8344, 107.6929
325.3165, 112.5640
325.7986, 118.2122
326.2808, 124.3548
326.7629, 131.6250
327.2450, 139.3485
327.7271, 148.0415
328.2092, 159.7475
328.6913, 175.4821
329.1735, 193.3287
329.6556, 212.9193
330.1377, 235.1152
330.6198, 257.5193
331.1019, 281.4214
331.5840, 305.0769
332.0662, 326.3848
332.5483, 350.5243
333.0304, 364.9033
333.5125, 365.2172
333.9946, 350.6317
334.4767, 325.8267
334.9589, 286.2351
335.4410, 241.2359
335.9231, 202.0069
336.4052, 168.9836
336.8873, 141.5558
337.3694, 120.3525
337.8516, 105.2449
338.3336, 93.15769
338.8158, 84.51701
339.2979, 77.95511
339.7800, 72.23154
340.2621, 67.37704
340.7442, 63.51161
341.2263, 60.90003
341.7085, 59.23118
342.1906, 57.64370
342.6727, 56.11081
343.1548, 54.74086
343.6369, 53.65023
344.1190, 52.82890
344.6012, 51.91837
345.0833, 50.81236
345.5654, 49.74775
346.0475, 49.21700
346.5296, 49.19289
347.0117, 49.22802
347.4939, 49.06040
347.9760, 48.76254
348.4581, 48.53890
348.9402, 48.39065
349.4223, 48.36794
349.9044, 48.55054
350.3866, 48.91082
350.8687, 49.35212
351.3508, 49.81964
351.8329, 50.35589
352.3150, 51.00879
352.7971, 51.78326
353.2793, 52.71222
353.7614, 53.84714
354.2435, 55.16515
354.7256, 56.60223
355.2077, 57.92815
355.6898, 59.62415
356.1720, 62.32267
356.6541, 65.85721
357.1362, 69.47319
357.6183, 72.78886
358.1004, 75.99876
358.5826, 79.57687
359.0647, 84.32189
359.5468, 87.60155
360.0289, 88.18601
360.5110, 86.30208
360.9931, 82.36156
361.4753, 74.59661
361.9574, 66.40401
362.4395, 59.32692
362.9216, 53.51472
363.4037, 48.80585
363.8858, 45.45441
364.3680, 43.06194
364.8501, 41.20125
365.3322, 39.98786
365.8143, 39.11499
366.2964, 38.66491
366.7785, 38.61905
367.2607, 38.40483
367.7428, 37.73021
368.2249, 37.02808
368.7070, 36.55761
369.1891, 36.33811
369.6712, 36.33787
370.1534, 36.71379
370.6355, 37.31303
371.1176, 37.65540
371.5997, 37.63317
372.0818, 37.48797
372.5639, 37.27397
373.0461, 36.90051
373.5282, 36.75790
374.0103, 36.88541
374.4924, 37.20187
374.9745, 37.63189
375.4566, 38.26568
375.9388, 38.73031
376.4209, 38.85188
376.9030, 38.66170
377.3851, 38.62588
377.8672, 38.73887
378.3493, 39.01917
378.8315, 39.59423
379.3136, 40.47918
379.7957, 41.08657
380.2778, 41.22403
380.7599, 41.11145
381.2420, 41.30952
381.7242, 41.81458
382.2063, 42.35392
382.6884, 42.72627
383.1705, 42.98232
383.6526, 43.25728
384.1347, 43.54071
384.6169, 43.93090
385.0990, 44.50256
385.5811, 45.26935
386.0632, 46.25606
386.5453, 47.56234
387.0274, 49.05780
387.5096, 50.59175
387.9917, 52.15354
388.4738, 53.68680
388.9559, 55.16575
389.4380, 56.54856
389.9201, 57.76098
390.4023, 58.44372
390.8844, 59.32467
391.3665, 61.00933
391.8486, 63.34364
392.3307, 65.70399
392.8128, 67.53319
393.2950, 69.45523
393.7771, 71.97698
394.2592, 75.39410
394.7413, 78.80245
395.2234, 81.42864
395.7055, 83.93680
396.1877, 87.35444
396.6698, 92.34966
397.1519, 97.86295
397.6340, 103.5031
398.1161, 109.1743
398.5982, 115.7171
399.0804, 123.5448
399.5625, 132.0530
400.0446, 140.8010
400.5267, 149.6561
401.0088, 159.0520
401.4909, 169.5993
401.9731, 180.7430
402.4552, 190.1988
402.9373, 198.4439
403.4194, 204.2459
403.9015, 207.3691
404.3836, 208.3872
404.8658, 204.0411
405.3479, 193.2375
405.8300, 178.6040
406.3121, 163.3883
406.7942, 147.4509
407.2763, 131.7947
407.7585, 116.2148
408.2406, 101.0645
408.7227, 88.88090
409.2048, 79.83937
409.6869, 72.60591
410.1690, 66.27109
410.6512, 60.86290
411.1333, 56.27479
411.6154, 52.56171
412.0975, 49.52435
412.5796, 46.83819
413.0617, 44.52064
413.5439, 42.59699
414.0260, 41.18856
414.5081, 40.11906
414.9902, 39.19680
415.4723, 38.41084
415.9544, 37.66805
416.4366, 36.89064
416.9187, 36.11477
417.4008, 35.39740
417.8829, 34.78395
418.3650, 34.20764
418.8471, 33.57086
419.3293, 32.90885
419.8114, 32.39486
420.2935, 32.30600
420.7756, 32.26459
421.2577, 31.99924
421.7398, 31.29450
422.2220, 30.69225
422.7041, 30.28797
423.1862, 30.05993
423.6683, 29.96422
424.1504, 30.22825
424.6325, 30.39055
425.1147, 30.28530
425.5968, 29.86978
426.0789, 29.56294
426.5610, 29.38719
427.0431, 29.29918
427.5252, 29.27827
428.0074, 29.36988
428.4895, 29.41532
428.9716, 29.36217
429.4537, 29.26252
429.9358, 29.30287
430.4179, 29.52349
430.9001, 29.73987
431.3822, 29.83768
431.8643, 29.81422
432.3464, 29.83903
432.8285, 29.89930
433.3106, 30.05063
433.7928, 30.41662
434.2749, 30.97023
434.7570, 31.48808
435.2391, 31.91776
435.7212, 32.25690
436.2033, 32.30471
436.6855, 32.12197
437.1676, 32.32572
437.6497, 33.66178
438.1318, 35.57715
438.6139, 37.18412
439.0960, 38.25676
439.5782, 39.32576
440.0603, 40.81666
440.5424, 42.62229
441.0245, 44.51540
441.5066, 46.29485
441.9887, 48.23758
442.4709, 50.64383
442.9530, 53.49380
443.4351, 56.16682
443.9172, 58.22559
444.3993, 60.11886
444.8814, 62.13425
445.3636, 64.24825
445.8457, 66.60534
446.3278, 69.20549
446.8099, 72.05064
447.2920, 75.21188
447.7741, 78.58877
448.2563, 82.40858
448.7384, 86.56644
449.2205, 91.01750
449.7026, 96.46416
450.1847, 103.0054
450.6668, 110.3323
451.1490, 117.9825
451.6311, 125.6811
452.1132, 134.9431
452.5953, 146.3222
453.0774, 159.2122
453.5595, 172.7320
454.0417, 186.9726
454.5238, 201.4983
455.0059, 216.5142
455.4880, 231.7403
455.9701, 247.2632
456.4522, 263.4067
456.9344, 277.0976
457.4165, 286.0371
457.8986, 290.0024
458.3807, 287.9789
458.8628, 278.5992
459.3449, 264.3133
459.8271, 246.2572
460.3092, 225.1204
460.7913, 203.5765
461.2734, 181.5363
461.7555, 160.8459
462.2376, 142.9216
462.7198, 128.3343
463.2019, 115.5747
463.6840, 104.4129
464.1661, 94.67167
464.6482, 86.13648
465.1303, 78.90684
465.6125, 72.71384
466.0946, 67.70440
466.5767, 63.75920
467.0588, 60.25030
467.5409, 57.17744
468.0230, 54.48547
468.5052, 52.16584
468.9873, 50.27345
469.4694, 48.62653
469.9515, 47.26382
470.4336, 46.11804
470.9157, 45.10099
471.3979, 44.24855
471.8800, 43.42376
472.3621, 42.58832
472.8442, 41.75685
473.3263, 40.91524
473.8084, 40.04005
474.2906, 39.33422
474.7727, 39.09587
475.2548, 39.19774
475.7369, 38.97358
476.2190, 38.29415
476.7011, 37.52652
477.1833, 37.13716
477.6654, 37.01560
478.1475, 36.85792
478.6296, 36.45516
479.1117, 36.01300
479.5938, 35.72489
480.0760, 35.58259
480.5581, 35.53666
481.0402, 35.67418
481.5223, 35.82542
482.0044, 35.82140
482.4865, 35.53537
482.9687, 35.35801
483.4508, 35.45075
483.9329, 35.72425
484.4150, 36.04856
484.8971, 36.45168
485.3792, 36.85120
485.8614, 37.29349
486.3435, 37.76385
486.8256, 37.99078
487.3077, 37.73920
487.7898, 37.51800
488.2719, 37.61784
488.7541, 38.14348
489.2362, 38.65240
489.7183, 39.15447
490.2004, 39.62379
490.6825, 40.05438
491.1646, 40.45765
491.6468, 40.71247
492.1289, 40.77575
492.6110, 40.67183
493.0931, 40.45454
493.5752, 40.12321
494.0573, 39.73185
494.5395, 39.27840
495.0216, 38.79764
495.5037, 38.34864
495.9858, 37.94775
496.4679, 37.57259
496.9500, 37.27285
497.4322, 36.97877
497.9143, 36.57957
498.3964, 35.92423
498.8785, 35.24793
499.3606, 34.66573
499.8427, 34.16908
500.3249, 33.75487
500.8070, 33.35194
501.2891, 33.07835
501.7712, 33.03783
502.2533, 33.36138
502.7354, 33.56955
503.2176, 33.40142
503.6997, 33.21767
504.1818, 33.39589
504.6639, 34.11298
505.1460, 34.87363
505.6281, 35.65322
506.1103, 36.42020
506.5924, 36.98058
507.0745, 37.25893
507.5566, 37.59479
508.0387, 38.16792
508.5208, 38.96955
509.0030, 39.86236
509.4851, 40.86454
509.9672, 41.85297
510.4493, 42.50122
510.9314, 42.99438
511.4135, 44.00612
511.8957, 45.83718
512.3778, 48.00261
512.8599, 49.94988
513.3420, 51.76333
513.8242, 53.68015
514.3063, 55.76175
514.7884, 58.07359
515.2705, 60.62877
515.7526, 63.41685
516.2347, 66.53836
516.7169, 69.91769
517.1990, 73.71030
517.6811, 78.06860
518.1632, 84.05915
518.6453, 89.19346
519.1274, 93.25246
519.6096, 96.29934
520.0917, 98.41857
520.5738, 99.95058
521.0559, 100.0052
521.5380, 98.36337
522.0201, 95.03629
522.5023, 89.91512
522.9844, 82.47361
523.4665, 74.66268
523.9486, 67.74843
524.4307, 61.68586
524.9128, 56.13110
525.3950, 51.04284
525.8771, 46.69584
526.3592, 43.68739
526.8413, 41.82153
527.3234, 40.28857
527.8055, 38.89124
528.2877, 37.61847
528.7698, 36.43454
529.2519, 35.35548
529.7340, 34.40274
530.2161, 33.49416
530.6982, 32.78520
531.1804, 32.39695
531.6625, 32.37464
532.1446, 32.53709
532.6267, 33.04303
533.1088, 33.60167
533.5909, 33.93717
534.0731, 33.92419
534.5552, 33.79536
535.0373, 33.46098
535.5194, 33.04060
536.0015, 32.80793
536.4836, 32.74730
536.9658, 32.92179
537.4479, 33.45181
537.9300, 34.30780
538.4121, 34.81392
538.8942, 34.89397
539.3763, 34.92952
539.8585, 35.21653
540.3406, 35.73465
540.8227, 36.36846
541.3048, 37.10946
541.7869, 37.96294
542.2690, 38.92210
542.7512, 40.00022
543.2333, 41.23198
543.7154, 42.70452
544.1975, 44.27542
544.6796, 45.74854
545.1617, 47.19814
545.6439, 48.89341
546.1260, 51.24680
546.6081, 53.66388
547.0902, 55.85986
547.5723, 57.81890
548.0544, 59.38995
548.5366, 60.74576
549.0187, 61.59668
549.5008, 61.70463
549.9829, 60.93731
550.4650, 59.63042
550.9471, 57.59211
551.4293, 55.15169
551.9114, 52.95868
552.3935, 50.97492
552.8756, 49.42365
553.3577, 48.42553
553.8398, 47.92799
554.3220, 47.70969
554.8041, 47.77182
555.2862, 48.09278
555.7683, 48.73802
556.2504, 49.61325
556.7325, 50.55007
557.2147, 51.52790
557.6968, 52.55547
558.1789, 53.72830
558.6610, 54.93831
559.1431, 56.01441
559.6252, 57.17191
560.1074, 57.90108
560.5895, 57.94781
561.0716, 57.39248
561.5537, 56.51243
562.0358, 55.12233
562.5179, 53.63536
563.0001, 52.27873
563.4822, 51.11578
563.9643, 49.45730
564.4464, 47.01580
564.9285, 44.48057
565.4106, 42.32290
565.8928, 40.56514
566.3749, 39.02050
566.8570, 37.69365
567.3391, 36.49829
567.8212, 35.22368
568.3033, 33.90443
568.7855, 32.89849
569.2676, 32.43236
569.7497, 32.22358
570.2318, 31.86057
570.7139, 31.37993
571.1960, 30.91167
571.6782, 30.51376
572.1603, 30.17772
572.6424, 29.94954
573.1245, 29.84290
573.6066, 29.62874
574.0887, 29.01118
574.5709, 28.37337
575.0530, 28.01135
575.5351, 28.19244
576.0172, 28.32276
576.4993, 28.44688
576.9814, 28.48410
577.4636, 28.25366
577.9457, 27.58793
578.4278, 27.11194
578.9099, 27.03825
579.3920, 27.25027
579.8741, 27.29081
580.3563, 27.14497
580.8384, 27.02532
581.3205, 27.14013
581.8026, 27.37537
582.2847, 27.36693
582.7668, 27.10083
583.2490, 26.79329
583.7311, 26.57030
584.2132, 26.43537
584.6953, 26.40338
585.1774, 26.51431
585.6595, 26.64342
586.1416, 26.78913
586.6237, 26.89614
587.1058, 26.88352
587.5880, 26.56061
588.0701, 26.30442
588.5522, 26.24209
