##NAMES=Topaz
##RRUFFID=R050176
##IDEAL CHEMISTRY=Al_2_SiO_4_F_2_
##LOCALITY=Jos Plateau, Nigeria
##OWNER=RRUFF
##SOURCE=Marcus Origlieri
##DESCRIPTION=Colorless prismatic crystal
##STATUS=The identification of this mineral has been confirmed by X-ray diffraction and chemical analysis
##URL=rruff.info/R050176
##MEASURED CHEMISTRY=Al_2.000_Si_1.000_O_4.000_(F_1.438_(OH)_0.562_)
93.78320, 79.81896
94.26532, 82.24632
94.74744, 82.65263
95.22955, 80.81253
95.71167, 77.80525
96.19379, 74.76584
96.67590, 71.77909
97.15802, 69.06947
97.64014, 66.74123
98.12225, 64.67872
98.60437, 62.64381
99.08649, 60.49813
99.56860, 58.50064
100.0507, 57.06830
100.5328, 56.23130
101.0150, 55.34636
101.4971, 53.94117
101.9792, 51.99851
102.4613, 49.98819
102.9434, 47.79900
103.4255, 45.72831
103.9077, 43.99782
104.3898, 42.66071
104.8719, 41.69022
105.3540, 41.10141
105.8361, 41.22490
106.3182, 41.14730
106.8004, 40.59769
107.2825, 39.78074
107.7646, 38.94673
108.2467, 38.25755
108.7288, 37.68600
109.2109, 36.86859
109.6931, 35.40098
110.1752, 34.08433
110.6573, 33.17288
111.1394, 32.60407
111.6215, 32.16836
112.1036, 31.69836
112.5858, 31.18528
113.0679, 30.65779
113.5500, 29.94255
114.0321, 29.32883
114.5142, 29.11184
114.9964, 29.33661
115.4785, 29.64732
115.9606, 29.61153
116.4427, 29.25243
116.9248, 28.87685
117.4069, 28.47920
117.8891, 28.11748
118.3712, 27.94595
118.8533, 28.10837
119.3354, 28.28932
119.8175, 28.13877
120.2996, 27.68815
120.7818, 27.27469
121.2639, 27.15527
121.7460, 27.33845
122.2281, 27.57693
122.7102, 27.99478
123.1923, 28.34241
123.6745, 28.50943
124.1566, 28.46899
124.6387, 28.22120
125.1208, 27.69222
125.6029, 26.57731
126.0850, 25.84911
126.5672, 25.65485
127.0493, 25.75118
127.5314, 26.01308
128.0135, 26.38204
128.4956, 26.78041
128.9777, 26.99438
129.4599, 26.89043
129.9420, 26.72803
130.4241, 26.50197
130.9062, 26.23151
131.3883, 25.91871
131.8705, 25.54617
132.3526, 25.15442
132.8347, 24.96883
133.3168, 25.00406
133.7989, 25.17100
134.2810, 25.49451
134.7632, 25.94732
135.2453, 26.39886
135.7274, 26.79188
136.2095, 27.10738
136.6916, 27.32561
137.1737, 27.40927
137.6559, 27.41750
138.1380, 27.41517
138.6201, 27.40989
139.1022, 27.35608
139.5843, 27.12603
140.0664, 26.83812
140.5486, 26.67806
141.0307, 26.76313
141.5128, 27.02352
141.9949, 27.26935
142.4770, 27.55850
142.9591, 27.73236
143.4413, 27.59930
143.9234, 27.32038
144.4055, 27.19698
144.8876, 27.50061
145.3697, 28.23420
145.8518, 28.78582
146.3340, 28.93936
146.8161, 29.08735
147.2982, 29.28892
147.7803, 29.57851
148.2624, 29.99158
148.7445, 30.57015
149.2267, 31.32681
149.7088, 32.20626
150.1909, 32.85613
150.6730, 33.85565
151.1551, 35.24810
151.6372, 37.17165
152.1194, 40.01994
152.6015, 44.17876
153.0836, 49.48542
153.5657, 57.54280
154.0478, 70.48031
154.5299, 85.15739
155.0121, 100.4171
155.4942, 116.4069
155.9763, 128.2872
156.4584, 126.1343
156.9405, 109.6172
157.4227, 91.60252
157.9048, 73.16077
158.3869, 55.69463
158.8690, 42.40257
159.3511, 34.68470
159.8332, 30.76053
160.3154, 28.36135
160.7975, 27.47349
161.2796, 27.13030
161.7617, 26.71364
162.2438, 26.26095
162.7259, 26.28360
163.2081, 27.00507
163.6902, 28.22901
164.1723, 29.90014
164.6544, 32.01997
165.1365, 34.24642
165.6186, 36.49828
166.1008, 39.03685
166.5829, 40.32997
167.0650, 39.67154
167.5471, 38.02137
168.0292, 35.58301
168.5113, 32.48669
168.9935, 29.24857
169.4756, 26.72690
169.9577, 25.14993
170.4398, 23.92978
170.9219, 23.10702
171.4040, 22.50338
171.8862, 21.96142
172.3683, 21.42490
172.8504, 20.96594
173.3325, 20.76010
173.8146, 21.27709
174.2967, 21.49028
174.7789, 21.10107
175.2610, 20.48331
175.7431, 20.09542
176.2252, 20.14872
176.7073, 20.49707
177.1894, 20.65892
177.6716, 20.48868
178.1537, 20.33535
178.6358, 20.25095
179.1179, 20.22809
179.6000, 20.27780
180.0821, 20.43945
180.5643, 20.62970
181.0464, 20.58201
181.5285, 20.11018
182.0106, 19.71208
182.4927, 19.66171
182.9749, 19.90197
183.4570, 20.18439
183.9391, 20.42181
184.4212, 20.60467
184.9033, 20.72688
185.3854, 20.75582
185.8676, 20.77764
186.3497, 20.88236
186.8318, 21.07343
187.3139, 21.22698
187.7960, 21.27040
188.2781, 21.25083
188.7603, 21.21936
189.2424, 21.19098
189.7245, 21.14064
190.2066, 21.00838
190.6887, 20.75131
191.1708, 20.57079
191.6530, 20.56357
192.1351, 20.64922
192.6172, 20.79218
193.0993, 20.99397
193.5814, 21.19032
194.0635, 21.23026
194.5457, 21.00342
195.0278, 20.83892
195.5099, 20.79957
195.9920, 20.84736
196.4741, 20.97315
196.9562, 21.17879
197.4384, 21.40964
197.9205, 21.50443
198.4026, 21.36029
198.8847, 21.20544
199.3668, 21.02214
199.8489, 20.86093
200.3311, 20.78434
200.8132, 20.82557
201.2953, 20.95667
201.7774, 21.06639
202.2595, 21.19104
202.7416, 21.24917
203.2238, 21.17224
203.7059, 21.03641
204.1880, 20.94361
204.6701, 20.94842
205.1522, 21.03625
205.6344, 21.14646
206.1165, 21.29337
206.5986, 21.44480
207.0807, 21.61798
207.5628, 21.78996
208.0449, 21.91260
208.5271, 21.95398
209.0092, 21.93717
209.4913, 21.95713
209.9734, 22.04956
210.4555, 22.12809
210.9376, 22.12919
211.4198, 22.08704
211.9019, 22.08120
212.3840, 22.12017
212.8661, 22.26043
213.3482, 22.63383
213.8303, 23.35925
214.3125, 24.10231
214.7946, 24.66164
215.2767, 25.06768
215.7588, 25.45011
216.2409, 25.77732
216.7230, 26.19689
217.2052, 26.91759
217.6873, 27.98337
218.1694, 29.25770
218.6515, 30.52603
219.1336, 31.81092
219.6157, 33.59134
220.0979, 36.30802
220.5800, 39.50191
221.0621, 42.79836
221.5442, 46.26817
222.0263, 49.38904
222.5084, 51.62469
222.9906, 52.94469
223.4727, 53.80214
223.9548, 53.89296
224.4369, 53.81092
224.9190, 53.92366
225.4011, 54.29573
225.8833, 54.93810
226.3654, 55.85046
226.8475, 57.01163
227.3296, 58.53705
227.8117, 60.44110
228.2938, 62.72992
228.7760, 65.48753
229.2581, 68.72849
229.7402, 72.25356
230.2223, 75.71326
230.7044, 78.88917
231.1866, 82.76839
231.6687, 87.44254
232.1508, 92.77778
232.6329, 98.40147
233.1150, 104.3989
233.5971, 111.5089
234.0793, 120.5401
234.5614, 130.9234
235.0435, 145.0298
235.5256, 160.6237
236.0077, 180.8264
236.4898, 206.1977
236.9720, 237.4509
237.4541, 276.8794
237.9362, 327.9720
238.4183, 392.8253
238.9004, 465.1123
239.3825, 559.9911
239.8647, 649.4805
240.3468, 726.2832
240.8289, 784.0781
241.3110, 806.5961
241.7931, 770.2474
242.2752, 650.8069
242.7574, 537.2588
243.2395, 418.8478
243.7216, 313.2417
244.2037, 232.9976
244.6858, 179.0726
245.1679, 142.8990
245.6501, 115.9606
246.1322, 100.2415
246.6143, 88.28593
247.0964, 81.04423
247.5785, 76.33555
248.0606, 73.02544
248.5428, 70.89462
249.0249, 69.99495
249.5070, 70.60418
249.9891, 73.05506
250.4712, 74.66933
250.9533, 75.52718
251.4355, 75.56522
251.9176, 74.28242
252.3997, 71.84852
252.8818, 69.50832
253.3639, 68.27676
253.8460, 68.24413
254.3282, 68.50993
254.8103, 69.02696
255.2924, 69.86464
255.7745, 71.13895
256.2566, 72.82438
256.7387, 74.67117
257.2209, 76.43635
257.7030, 78.23188
258.1851, 80.55336
258.6672, 83.39568
259.1493, 86.75289
259.6314, 90.60569
260.1136, 94.95895
260.5957, 99.76204
261.0778, 104.6197
261.5599, 110.2083
262.0420, 117.7862
262.5241, 126.5374
263.0063, 138.2575
263.4884, 152.6126
263.9705, 170.0981
264.4526, 194.6460
264.9347, 225.4831
265.4168, 267.7421
265.8990, 325.6913
266.3811, 401.3089
266.8632, 489.5577
267.3453, 600.8818
267.8275, 729.6103
268.3096, 835.9064
268.7917, 920.8622
269.2738, 955.9711
269.7559, 908.0490
270.2380, 764.9908
270.7202, 602.2849
271.2023, 458.6289
271.6844, 335.2893
272.1665, 240.7808
272.6486, 185.0266
273.1307, 154.3182
273.6129, 132.8987
274.0950, 120.4907
274.5771, 113.0064
275.0592, 108.9256
275.5413, 107.8655
276.0234, 107.6759
276.5056, 108.1262
276.9877, 109.3883
277.4698, 111.2706
277.9519, 113.8349
278.4340, 117.3997
278.9161, 121.7725
279.3983, 127.1933
279.8804, 134.7264
280.3625, 143.9732
280.8446, 156.3777
281.3267, 170.9308
281.8088, 188.5260
282.2910, 211.5694
282.7731, 240.4013
283.2552, 275.6537
283.7373, 320.0260
284.2194, 375.9701
284.7015, 437.0711
285.1837, 508.9947
285.6658, 582.2977
286.1479, 644.8444
286.6300, 695.9726
287.1121, 727.8954
287.5942, 719.2080
288.0764, 658.4599
288.5585, 582.1866
289.0406, 491.0229
289.5227, 398.0134
290.0048, 317.2502
290.4869, 252.8304
290.9691, 202.5074
291.4512, 163.1446
291.9333, 136.5835
292.4154, 115.5689
292.8975, 100.2113
293.3796, 88.31851
293.8618, 78.99118
294.3439, 71.98109
294.8260, 66.51180
295.3081, 61.71403
295.7902, 57.63018
296.2723, 54.05018
296.7545, 51.00830
297.2366, 48.45058
297.7187, 46.56895
298.2008, 45.30091
298.6829, 44.18785
299.1650, 42.68598
299.6472, 40.70601
300.1293, 39.14959
300.6114, 38.46175
301.0935, 37.88940
301.5756, 37.10997
302.0577, 36.15414
302.5399, 35.20323
303.0220, 34.39628
303.5041, 33.73151
303.9862, 33.13793
304.4683, 32.61470
304.9504, 32.17643
305.4326, 31.90742
305.9147, 31.71589
306.3968, 31.42650
306.8789, 30.90225
307.3610, 30.21662
307.8431, 29.68928
308.3253, 29.33491
308.8074, 29.14054
309.2895, 29.09551
309.7716, 29.18173
310.2537, 29.38986
310.7358, 29.72152
311.2180, 30.14622
311.7001, 30.59872
312.1822, 31.09402
312.6643, 31.59330
313.1464, 31.92537
313.6285, 32.35117
314.1107, 33.06738
314.5928, 34.13045
315.0749, 35.50493
315.5570, 37.26587
316.0392, 39.63983
316.5213, 41.55836
317.0034, 43.14746
317.4855, 44.08712
317.9676, 44.11613
318.4497, 43.24123
318.9319, 41.68513
319.4140, 39.46936
319.8961, 36.50062
320.3782, 33.82933
320.8603, 31.27216
321.3424, 29.26132
321.8246, 28.05736
322.3067, 27.54005
322.7888, 27.41732
323.2709, 27.56454
323.7530, 27.93970
324.2351, 28.21608
324.7173, 28.26448
325.1994, 28.39902
325.6815, 28.69795
326.1636, 29.13698
326.6457, 29.63778
327.1278, 30.11886
327.6100, 30.74694
328.0921, 31.90985
328.5742, 33.59341
329.0563, 35.91306
329.5384, 38.82270
330.0205, 42.32381
330.5027, 46.57808
330.9848, 51.64352
331.4669, 57.04206
331.9490, 62.54386
332.4311, 68.63857
332.9132, 72.66527
333.3954, 73.99799
333.8775, 73.21432
334.3596, 69.84159
334.8417, 64.17221
335.3238, 57.70807
335.8059, 51.52681
336.2881, 45.60569
336.7702, 40.56149
337.2523, 36.59723
337.7344, 33.41507
338.2165, 30.92596
338.6986, 29.05039
339.1808, 27.62143
339.6629, 26.63217
340.1450, 25.99097
340.6271, 25.34539
341.1092, 24.65882
341.5913, 24.04591
342.0735, 23.48853
342.5556, 23.03817
343.0377, 22.79828
343.5198, 22.84945
344.0019, 22.99706
344.4840, 22.91931
344.9662, 22.56985
345.4483, 22.19803
345.9304, 21.79984
346.4125, 21.45362
346.8946, 21.25643
347.3767, 21.22005
347.8589, 21.19673
348.3410, 20.98789
348.8231, 20.60173
349.3052, 20.41835
349.7873, 20.65560
350.2694, 20.92391
350.7516, 20.94965
351.2337, 20.76959
351.7158, 20.55812
352.1979, 20.35200
352.6800, 20.18933
353.1621, 20.21409
353.6443, 20.48022
354.1264, 20.81925
354.6085, 21.24379
355.0906, 21.65581
355.5727, 21.85623
356.0548, 21.64886
356.5370, 21.36029
357.0191, 21.45594
357.5012, 21.96486
357.9833, 22.53122
358.4654, 23.10612
358.9475, 23.60100
359.4297, 23.93989
359.9118, 24.13239
360.3939, 24.09721
360.8760, 23.70593
361.3581, 23.01060
361.8402, 22.22356
362.3224, 21.27480
362.8045, 20.44674
363.2866, 20.11802
363.7687, 20.23304
364.2508, 20.27876
364.7329, 19.90756
365.2151, 19.38449
365.6972, 19.18858
366.1793, 19.39867
366.6614, 19.68775
367.1436, 19.71521
367.6257, 19.62879
368.1078, 19.88846
368.5899, 20.84318
369.0720, 21.92703
369.5541, 22.71579
370.0363, 23.23159
370.5184, 23.59029
371.0005, 23.79990
371.4826, 23.92237
371.9647, 24.12208
372.4468, 24.47604
372.9290, 24.70933
373.4111, 24.67799
373.8932, 24.46028
374.3753, 24.20938
374.8574, 23.97308
375.3395, 23.65922
375.8217, 23.10371
376.3038, 22.26654
376.7859, 21.56111
377.2680, 21.05813
377.7501, 20.68001
378.2322, 20.41308
378.7144, 20.23334
379.1965, 20.01343
379.6786, 19.63607
380.1607, 19.12568
380.6428, 18.75222
381.1249, 18.52474
381.6071, 18.40214
382.0892, 18.40077
382.5713, 18.49063
383.0534, 18.62495
383.5355, 18.78677
384.0176, 18.96491
384.4998, 19.13677
384.9819, 19.29280
385.4640, 19.45924
385.9461, 19.59706
386.4282, 19.76981
386.9103, 20.06631
387.3925, 20.47935
387.8746, 20.89809
388.3567, 21.20304
388.8388, 21.38624
389.3209, 21.50480
389.8030, 21.43033
390.2852, 21.43257
390.7673, 21.68389
391.2494, 22.08636
391.7315, 22.39340
392.2136, 22.43872
392.6957, 22.36738
393.1779, 22.75428
393.6600, 24.06863
394.1421, 25.19527
394.6242, 25.76793
395.1063, 26.27714
395.5884, 27.15549
396.0706, 28.51353
396.5527, 30.15382
397.0348, 31.80580
397.5169, 33.37871
397.9990, 35.29200
398.4811, 37.49184
398.9633, 40.08426
399.4454, 43.12591
399.9275, 46.60860
400.4096, 50.55474
400.8917, 55.01379
401.3738, 59.90931
401.8560, 65.00659
402.3381, 70.69193
402.8202, 75.80106
403.3023, 80.69955
403.7844, 84.62580
404.2665, 86.89131
404.7487, 87.31831
405.2308, 85.78086
405.7129, 81.65002
406.1950, 74.76789
406.6771, 67.76292
407.1592, 60.71403
407.6414, 54.11927
408.1235, 48.17348
408.6056, 42.91225
409.0877, 38.45597
409.5698, 35.06453
410.0519, 32.51996
410.5341, 30.34661
411.0162, 28.58350
411.4983, 27.03098
411.9804, 25.58950
412.4625, 24.28963
412.9446, 23.22779
413.4268, 22.49836
413.9089, 21.87688
414.3910, 21.13216
414.8731, 20.32301
415.3553, 19.74975
415.8374, 19.54758
416.3195, 19.55750
416.8016, 19.63403
417.2837, 19.80801
417.7658, 19.74127
418.2480, 19.06954
418.7301, 18.25572
419.2122, 17.87805
419.6943, 17.98342
420.1764, 18.16699
420.6585, 18.10236
421.1407, 17.82187
421.6228, 17.71099
422.1049, 17.90118
422.5870, 18.09716
423.0691, 18.16608
423.5512, 18.16280
424.0334, 18.21920
424.5155, 18.39329
424.9976, 18.57141
425.4797, 18.54453
425.9618, 18.27201
426.4439, 17.83698
426.9261, 17.00713
427.4082, 16.19774
427.8903, 15.70427
428.3724, 15.52615
428.8545, 15.50443
429.3366, 15.52954
429.8188, 15.59377
430.3009, 15.52664
430.7830, 15.11650
431.2651, 14.80548
431.7472, 14.70649
432.2293, 14.72810
432.7115, 14.76085
433.1936, 14.76359
433.6757, 14.77155
434.1578, 14.85259
434.6399, 15.03588
435.1220, 15.18734
435.6042, 15.37058
436.0863, 15.45294
436.5684, 15.26247
437.0505, 14.89039
437.5326, 14.62259
438.0147, 14.66285
438.4969, 14.95561
438.9790, 15.31257
439.4611, 15.73704
439.9432, 16.21747
440.4253, 16.88059
440.9074, 17.54098
441.3896, 18.00168
441.8717, 18.21989
442.3538, 18.26285
442.8359, 18.06429
443.3180, 17.69047
443.8001, 17.59238
444.2823, 17.98725
444.7644, 18.43448
445.2465, 18.42023
445.7286, 18.05521
446.2107, 17.82861
446.6928, 17.98858
447.1750, 18.26959
447.6571, 18.34826
448.1392, 18.25254
448.6213, 18.29700
449.1034, 18.65258
449.5855, 19.25502
450.0677, 19.92271
450.5498, 20.59056
451.0319, 21.43116
451.5140, 22.43419
451.9961, 23.65800
452.4782, 25.16831
452.9604, 26.97941
453.4425, 29.06875
453.9246, 31.44794
454.4067, 34.15149
454.8888, 36.78384
455.3709, 39.20827
455.8531, 41.70535
456.3352, 44.74704
456.8173, 47.84837
457.2994, 50.35958
457.7815, 51.97288
458.2636, 52.61312
458.7458, 52.06724
459.2279, 49.96646
459.7100, 47.36722
460.1921, 43.93721
460.6742, 40.39399
461.1563, 36.99353
461.6385, 33.83283
462.1206, 31.07103
462.6027, 28.88129
463.0848, 27.17640
463.5669, 25.47957
464.0491, 23.67433
464.5312, 22.14547
465.0133, 21.10613
465.4954, 20.34958
465.9775, 19.67317
466.4597, 19.02400
466.9418, 18.50284
467.4239, 18.23975
467.9060, 18.20400
468.3881, 18.20549
468.8702, 18.27005
469.3524, 18.26311
469.8345, 17.96439
470.3166, 17.48736
470.7987, 17.17678
471.2808, 17.20935
471.7629, 17.37230
472.2451, 17.47768
472.7272, 17.54435
473.2093, 17.69722
473.6914, 18.03335
474.1735, 18.40133
474.6556, 18.47423
475.1378, 18.16792
475.6199, 17.90713
476.1020, 17.69135
476.5841, 17.58875
477.0662, 17.71337
477.5483, 18.03792
478.0305, 18.38301
478.5126, 18.60583
478.9947, 18.72791
479.4768, 18.93155
479.9589, 19.27126
480.4410, 19.63117
480.9232, 20.01843
481.4053, 20.40806
481.8874, 20.76622
482.3695, 21.08956
482.8516, 21.40906
483.3337, 21.78297
483.8159, 22.23229
484.2980, 22.55110
484.7801, 22.57238
485.2622, 22.65052
485.7443, 22.72854
486.2264, 22.98275
486.7086, 23.74022
487.1907, 25.21143
487.6728, 26.96958
488.1549, 28.36876
488.6370, 29.37554
489.1191, 30.61789
489.6013, 32.59447
490.0834, 34.43210
490.5655, 35.46163
491.0476, 35.72364
491.5297, 35.46809
492.0118, 34.81643
492.4940, 33.69182
492.9761, 31.77966
493.4582, 29.12006
493.9403, 26.56375
494.4224, 24.47738
494.9045, 22.82997
495.3867, 21.61522
495.8688, 20.94080
496.3509, 20.31641
496.8330, 19.59355
497.3151, 18.88375
497.7972, 18.34323
498.2794, 17.96964
498.7615, 17.59209
499.2436, 17.04098
499.7257, 16.34064
500.2078, 15.90669
500.6899, 16.00901
501.1721, 16.05219
501.6542, 15.83242
502.1363, 15.56136
502.6184, 15.49768
503.1005, 15.69630
503.5826, 15.97513
504.0648, 16.08304
504.5469, 15.98782
505.0290, 16.05563
505.5111, 16.45944
505.9932, 16.81416
506.4753, 16.89771
506.9575, 16.85456
507.4396, 16.93169
507.9217, 17.24534
508.4038, 17.61822
508.8859, 17.79405
509.3680, 17.78922
509.8502, 17.91519
510.3323, 18.31837
510.8144, 18.74475
511.2965, 18.90952
511.7786, 18.86017
512.2607, 18.84984
512.7429, 19.05679
513.2250, 19.23563
513.7071, 19.08895
514.1892, 18.70238
514.6713, 18.44116
515.1534, 18.46501
515.6356, 18.70375
516.1177, 19.02374
516.5998, 19.43874
517.0819, 19.92396
517.5640, 20.38991
518.0461, 20.99902
518.5283, 21.98367
519.0104, 23.23239
519.4925, 24.40898
519.9746, 25.30593
520.4567, 25.93034
520.9388, 26.31416
521.4210, 26.50314
521.9031, 26.33801
522.3852, 25.77694
522.8673, 24.92466
523.3494, 23.70323
523.8315, 22.20769
524.3137, 20.80396
524.7958, 19.76912
525.2779, 19.05587
525.7600, 18.56542
526.2421, 18.36497
526.7242, 18.13458
527.2064, 17.65890
527.6885, 17.11912
528.1706, 16.73977
528.6527, 16.55134
529.1348, 16.44657
529.6169, 16.43659
530.0991, 16.45142
530.5812, 16.31459
531.0633, 16.01009
531.5454, 15.83351
532.0275, 16.05042
532.5096, 16.58343
532.9918, 16.88665
533.4739, 16.84446
533.9560, 16.76078
534.4381, 16.60880
534.9202, 16.49298
535.4023, 16.56826
535.8845, 16.83842
536.3666, 17.13402
536.8487, 17.28309
537.3308, 17.28646
537.8129, 17.27441
538.2951, 17.15535
538.7772, 17.14814
539.2593, 17.40334
539.7415, 17.73653
540.2236, 17.91846
540.7057, 17.89575
541.1878, 17.88293
541.6699, 18.08740
542.1520, 18.49231
542.6342, 18.99524
543.1163, 19.60406
543.5984, 20.27384
544.0805, 20.98329
544.5626, 21.73024
545.0447, 22.52899
545.5269, 23.44097
546.0090, 24.28730
546.4911, 24.88654
546.9732, 25.36939
547.4553, 26.01987
547.9374, 26.90599
548.4196, 27.78385
548.9017, 28.39348
549.3838, 28.72742
549.8659, 29.25769
550.3480, 30.16327
550.8301, 31.01789
551.3123, 31.55584
551.7944, 32.04249
552.2765, 32.80800
552.7586, 33.93479
553.2407, 35.26990
553.7228, 36.58301
554.2050, 37.85024
554.6871, 39.53326
555.1692, 41.66200
555.6513, 44.20086
556.1334, 47.19332
556.6155, 50.49645
557.0977, 54.00338
557.5798, 57.71256
558.0619, 61.40599
558.5440, 64.95850
559.0261, 68.33387
559.5082, 71.62153
559.9904, 74.98284
560.4725, 77.53581
560.9546, 78.63609
561.4367, 78.25278
561.9188, 76.89403
562.4009, 74.35635
562.8831, 71.10709
563.3652, 66.89036
563.8473, 62.22784
564.3294, 57.81792
564.8115, 53.80887
565.2936, 49.91820
565.7758, 45.81539
566.2579, 41.48269
566.7400, 37.81346
567.2221, 35.06662
567.7042, 32.72734
568.1863, 30.87132
568.6685, 29.30102
569.1506, 27.89119
569.6327, 26.59835
570.1148, 25.33251
570.5969, 23.95507
571.0790, 22.51148
571.5612, 21.29953
572.0433, 20.32053
572.5254, 19.58352
573.0075, 19.25926
573.4896, 19.11506
573.9717, 18.76760
574.4539, 18.10696
574.9360, 17.54613
575.4181, 17.36796
575.9002, 17.36559
576.3823, 17.26270
576.8644, 17.02735
577.3466, 16.73339
577.8287, 16.42109
578.3108, 16.10195
578.7929, 15.83291
579.2750, 15.56802
579.7571, 15.41963
580.2393, 15.47513
580.7214, 15.58983
581.2035, 15.71100
581.6856, 15.79178
582.1677, 15.72731
582.6498, 15.40198
583.1320, 14.90959
583.6141, 14.58093
584.0962, 14.44483
584.5783, 14.36933
585.0604, 14.31492
585.5425, 14.31460
586.0247, 14.46690
586.5068, 14.74779
586.9889, 14.86974
587.4710, 14.56693
587.9531, 14.13346
588.4352, 13.92065
588.9174, 13.90315
589.3995, 13.87180
589.8816, 13.72222
590.3637, 13.56035
590.8458, 13.58234
