##NAMES=Topaz
##RRUFFID=R050176
##IDEAL CHEMISTRY=Al_2_SiO_4_F_2_
##LOCALITY=Jos Plateau, Nigeria
##OWNER=RRUFF
##SOURCE=Marcus Origlieri
##DESCRIPTION=Colorless prismatic crystal
##STATUS=The identification of this mineral has been confirmed by X-ray diffraction and chemical analysis
##URL=rruff.info/R050176
##MEASURED CHEMISTRY=Al_2.000_Si_1.000_O_4.000_(F_1.438_(OH)_0.562_)
90.52570, 0.0000000E+00
91.00781, 7.589083
91.48993, 7.695145
91.97205, 7.737788
92.45416, 7.688582
92.93628, 7.577527
93.41840, 7.455268
93.90051, 7.305892
94.38263, 7.189589
94.86475, 7.240273
95.34686, 7.456307
95.82898, 7.681270
96.31110, 7.808199
96.79321, 7.839767
97.27533, 7.777041
97.75745, 7.561717
98.23956, 7.259547
98.72168, 7.195764
99.20380, 7.426639
99.68591, 7.721342
100.1680, 7.799730
100.6501, 7.605384
101.1323, 7.472419
101.6144, 7.548281
102.0965, 7.866527
102.5786, 7.950500
103.0607, 7.669097
103.5428, 7.269396
104.0250, 7.176837
104.5071, 7.549367
104.9892, 7.966217
105.4713, 8.286070
105.9534, 8.530459
106.4355, 8.623205
106.9177, 8.468943
107.3998, 8.159119
107.8819, 7.976300
108.3640, 7.969439
108.8461, 8.052187
109.3282, 8.187366
109.8104, 8.534343
110.2925, 8.748939
110.7746, 8.683230
111.2567, 8.394606
111.7388, 8.332670
112.2209, 8.763587
112.7031, 9.318388
113.1852, 9.747166
113.6673, 9.852347
114.1494, 9.967265
114.6315, 10.19581
115.1136, 10.54719
115.5958, 10.88350
116.0779, 11.21911
116.5600, 11.49992
117.0421, 11.66469
117.5242, 11.57693
118.0063, 11.45505
118.4885, 11.36919
118.9706, 11.30012
119.4527, 11.41347
119.9348, 11.98187
120.4169, 12.79027
120.8990, 13.45321
121.3812, 13.57524
121.8633, 13.55346
122.3454, 13.79640
122.8275, 14.45589
123.3096, 15.16182
123.7917, 15.63951
124.2739, 15.90485
124.7560, 16.01622
125.2381, 15.99261
125.7202, 15.84163
126.2023, 15.52431
126.6844, 14.85761
127.1666, 14.24251
127.6487, 14.33767
128.1308, 15.11139
128.6129, 16.01836
129.0950, 16.70115
129.5771, 17.17477
130.0593, 17.48217
130.5414, 17.56335
131.0235, 17.51209
131.5056, 17.60662
131.9877, 17.81142
132.4698, 17.85621
132.9520, 17.37402
133.4341, 16.40655
133.9162, 15.76447
134.3983, 15.78496
134.8804, 16.38627
135.3625, 17.01300
135.8447, 17.64886
136.3268, 18.35204
136.8089, 19.27801
137.2910, 20.48557
137.7731, 21.59066
138.2552, 22.48879
138.7374, 23.18801
139.2195, 23.59883
139.7016, 23.67781
140.1837, 23.52436
140.6658, 23.29049
141.1479, 22.87233
141.6301, 22.60104
142.1122, 22.66777
142.5943, 23.24219
143.0764, 23.67097
143.5585, 23.83980
144.0406, 23.86282
144.5228, 24.16219
145.0049, 24.83081
145.4870, 25.65022
145.9691, 26.50826
146.4512, 27.53080
146.9333, 28.39718
147.4155, 28.95269
147.8976, 29.26516
148.3797, 29.93151
148.8618, 31.20043
149.3439, 32.64914
149.8260, 34.00026
150.3082, 34.49207
150.7903, 35.74352
151.2724, 37.90467
151.7545, 40.97004
152.2366, 44.76537
152.7188, 48.59550
153.2009, 53.47509
153.6830, 60.18258
154.1651, 70.99046
154.6472, 81.49886
155.1293, 92.71638
155.6115, 105.8053
156.0936, 110.3328
156.5757, 98.72324
157.0578, 79.73537
157.5399, 63.08083
158.0220, 50.30030
158.5042, 40.67682
158.9863, 34.45720
159.4684, 31.99228
159.9505, 30.84965
160.4326, 30.75434
160.9147, 31.46072
161.3969, 32.60588
161.8790, 33.92592
162.3611, 35.74525
162.8432, 38.23699
163.3253, 41.40330
163.8074, 45.21693
164.2896, 50.12630
164.7717, 55.67342
165.2538, 60.94341
165.7359, 67.80579
166.2180, 72.94483
166.7001, 73.52210
167.1823, 67.91624
167.6644, 60.23597
168.1465, 51.73368
168.6286, 42.95229
169.1107, 35.42485
169.5928, 30.04806
170.0750, 26.33762
170.5571, 23.83885
171.0392, 22.89568
171.5213, 22.45498
172.0034, 21.67314
172.4855, 20.63685
172.9677, 19.74964
173.4498, 19.35528
173.9319, 19.23937
174.4140, 19.09299
174.8961, 18.78967
175.3782, 18.47634
175.8604, 18.31679
176.3425, 18.29856
176.8246, 18.32307
177.3067, 18.34068
177.7888, 18.34634
178.2709, 18.32913
178.7531, 18.28026
179.2352, 18.21112
179.7173, 18.11218
180.1994, 17.98565
180.6815, 17.90669
181.1636, 17.94791
181.6458, 18.09161
182.1279, 18.29054
182.6100, 18.59937
183.0921, 18.92466
183.5742, 19.06555
184.0563, 19.01471
184.5385, 18.88324
185.0206, 18.67842
185.5027, 18.44605
185.9848, 18.42819
186.4669, 18.88600
186.9490, 19.60077
187.4312, 19.86255
187.9133, 19.61618
188.3954, 19.25662
188.8775, 19.29101
189.3596, 19.67346
189.8417, 19.97084
190.3239, 20.00749
190.8060, 19.81814
191.2881, 19.52365
191.7702, 19.09175
192.2523, 18.69230
192.7344, 18.59654
193.2166, 18.80468
193.6987, 18.98016
194.1808, 18.94738
194.6629, 18.73176
195.1450, 18.64785
195.6271, 18.72235
196.1093, 18.85999
196.5914, 18.91620
197.0735, 18.88368
197.5556, 18.85955
198.0377, 18.88211
198.5198, 18.95156
199.0020, 19.05950
199.4841, 19.23035
199.9662, 19.39648
200.4483, 19.42208
200.9304, 19.27941
201.4125, 19.16437
201.8947, 19.21600
202.3768, 19.46233
202.8589, 19.48383
203.3410, 19.19497
203.8231, 18.79023
204.3052, 18.66281
204.7874, 18.87303
205.2695, 19.10102
205.7516, 19.15937
206.2337, 18.99328
206.7158, 19.07244
207.1979, 19.51929
207.6801, 20.09911
208.1622, 20.27138
208.6443, 19.90746
209.1264, 19.53988
209.6085, 19.42430
210.0906, 19.61809
210.5728, 19.79295
211.0549, 19.90989
211.5370, 20.02948
212.0191, 20.33093
212.5012, 20.93106
212.9833, 21.43224
213.4655, 21.56572
213.9476, 21.14429
214.4297, 21.07295
214.9118, 21.47160
215.3939, 22.17627
215.8760, 22.78749
216.3581, 23.24074
216.8403, 23.72293
217.3224, 24.29009
217.8045, 24.89621
218.2866, 25.72897
218.7687, 26.74634
219.2508, 28.00832
219.7330, 29.63288
220.2151, 31.58136
220.6972, 33.95167
221.1793, 36.79138
221.6614, 40.23496
222.1435, 43.88322
222.6257, 47.93591
223.1078, 52.13284
223.5899, 55.88193
224.0720, 59.19963
224.5541, 62.05460
225.0362, 64.40612
225.5184, 65.91134
226.0005, 67.70484
226.4826, 69.78994
226.9647, 72.18246
227.4468, 75.00335
227.9289, 78.26261
228.4111, 81.91003
228.8932, 85.90788
229.3753, 90.16663
229.8574, 94.94972
230.3395, 100.1853
230.8216, 105.9165
231.3038, 112.3285
231.7859, 119.1156
232.2680, 126.9767
232.7501, 136.0637
233.2322, 145.7241
233.7143, 157.9346
234.1965, 172.3902
234.6786, 189.5529
235.1607, 210.8320
235.6428, 236.4025
236.1249, 265.8300
236.6070, 299.5265
237.0892, 340.4055
237.5713, 378.7581
238.0534, 411.9839
238.5355, 443.3447
239.0176, 482.5965
239.4997, 540.1835
239.9819, 591.4573
240.4640, 629.1973
240.9461, 666.2313
241.4282, 658.0958
241.9103, 587.7884
242.3924, 477.7685
242.8746, 379.7306
243.3567, 291.2885
243.8388, 218.4368
244.3209, 164.5771
244.8030, 135.0698
245.2851, 111.8534
245.7673, 96.22643
246.2494, 86.34420
246.7315, 78.38828
247.2136, 72.48742
247.6957, 68.30117
248.1778, 65.74754
248.6600, 64.96945
249.1421, 65.44747
249.6242, 67.15308
250.1063, 70.12088
250.5884, 74.72610
251.0705, 82.37467
251.5527, 89.28524
252.0348, 93.91218
252.5169, 95.71309
252.9990, 97.27568
253.4811, 98.39964
253.9632, 99.43166
254.4454, 100.8786
254.9275, 102.5257
255.4096, 105.0096
255.8917, 108.6652
256.3738, 113.6917
256.8560, 118.8884
257.3381, 124.2958
257.8202, 129.8749
258.3023, 135.5772
258.7844, 141.0131
259.2665, 147.2763
259.7487, 154.6613
260.2308, 163.1163
260.7129, 172.7188
261.1950, 182.9862
261.6771, 194.8470
262.1592, 208.9458
262.6414, 223.6927
263.1235, 244.2662
263.6056, 271.0065
264.0877, 303.8663
264.5698, 347.6503
265.0519, 403.2025
265.5341, 468.2006
266.0162, 540.4275
266.4983, 618.4631
266.9804, 708.4158
267.4625, 824.0328
267.9446, 963.3300
268.4268, 1060.444
268.9089, 1122.216
269.3910, 1126.792
269.8731, 1031.941
270.3552, 808.6501
270.8373, 604.3277
271.3195, 446.7364
271.8016, 335.0631
272.2837, 255.4274
272.7658, 212.0981
273.2479, 189.2886
273.7300, 174.0132
274.2122, 166.9488
274.6943, 163.5553
275.1764, 163.8797
275.6585, 167.2107
276.1406, 169.9091
276.6227, 171.9117
277.1049, 173.4997
277.5870, 174.3066
278.0691, 174.0898
278.5512, 175.7926
279.0333, 179.6217
279.5154, 185.8194
279.9976, 194.9580
280.4797, 206.9570
280.9618, 222.5072
281.4439, 241.8476
281.9260, 264.9023
282.4081, 293.8875
282.8903, 329.1378
283.3724, 370.4087
283.8545, 418.1881
284.3366, 472.8387
284.8187, 530.3841
285.3008, 594.0385
285.7830, 662.3143
286.2651, 713.1813
286.7472, 747.9065
287.2293, 759.3412
287.7114, 727.7234
288.1935, 653.3076
288.6757, 566.0347
289.1578, 475.3056
289.6399, 383.5925
290.1220, 308.4974
290.6041, 251.4306
291.0862, 207.9245
291.5684, 173.7547
292.0505, 148.4379
292.5326, 128.6389
293.0147, 113.7771
293.4968, 103.1023
293.9789, 94.11160
294.4611, 86.88447
294.9432, 80.96590
295.4253, 76.08379
295.9074, 72.15054
296.3895, 68.89456
296.8716, 66.39960
297.3538, 64.42623
297.8359, 62.44313
298.3180, 60.42313
298.8001, 58.61645
299.2822, 57.31180
299.7643, 56.38742
300.2465, 55.55013
300.7286, 54.76135
301.2107, 53.96169
301.6928, 52.96025
302.1749, 51.78744
302.6570, 50.77287
303.1392, 50.28483
303.6213, 50.12513
304.1034, 49.97410
304.5855, 49.77240
305.0676, 49.50143
305.5497, 49.02763
306.0319, 48.41343
306.5140, 47.95940
306.9961, 47.98171
307.4782, 48.23661
307.9603, 48.42686
308.4424, 48.43519
308.9246, 48.45441
309.4067, 48.52764
309.8888, 48.71101
310.3709, 49.17262
310.8530, 50.02730
311.3351, 51.18400
311.8173, 52.52244
312.2994, 53.96692
312.7815, 55.81964
313.2636, 58.28563
313.7457, 61.25786
314.2278, 64.57695
314.7100, 68.14515
315.1921, 72.03135
315.6742, 76.50455
316.1563, 81.74204
316.6384, 86.52112
317.1205, 91.33568
317.6027, 95.03812
318.0848, 96.13010
318.5669, 92.57650
319.0490, 87.72574
319.5311, 82.27273
320.0132, 76.21188
320.4954, 71.35988
320.9775, 68.49596
321.4596, 66.95903
321.9417, 66.24608
322.4238, 66.50435
322.9059, 67.31289
323.3881, 68.62732
323.8702, 70.42848
324.3523, 72.63706
324.8344, 75.20283
325.3165, 78.19553
325.7986, 81.67735
326.2808, 85.17199
326.7629, 89.72173
327.2450, 95.06719
327.7271, 101.4317
328.2092, 109.6939
328.6913, 119.9832
329.1735, 132.0476
329.6556, 146.0396
330.1377, 162.6546
330.6198, 179.9801
331.1019, 199.3872
331.5840, 219.0403
332.0662, 236.4166
332.5483, 255.3757
333.0304, 266.5225
333.5125, 266.5096
333.9946, 254.5258
334.4767, 235.2286
334.9589, 205.2310
335.4410, 171.4980
335.9231, 142.3520
336.4052, 118.1575
336.8873, 98.32227
337.3694, 83.34119
337.8515, 73.09591
338.3336, 64.95401
338.8158, 59.19068
339.2979, 54.92188
339.7800, 51.40446
340.2621, 48.70276
340.7442, 46.54211
341.2263, 45.05528
341.7085, 44.02317
342.1906, 42.72809
342.6727, 41.09031
343.1548, 39.61831
343.6369, 38.65796
344.1190, 38.19744
344.6012, 37.96627
345.0833, 38.00761
345.5654, 38.13303
346.0475, 37.98503
346.5296, 37.57943
347.0117, 37.15226
347.4939, 36.77184
347.9760, 36.46843
348.4581, 36.34170
348.9402, 36.40459
349.4223, 36.60620
349.9044, 36.96452
350.3866, 37.43254
350.8687, 37.85008
351.3508, 38.01152
351.8329, 38.14951
352.3150, 38.64103
352.7971, 39.48395
353.2793, 40.48841
353.7614, 41.55045
354.2435, 42.68250
354.7256, 43.88241
355.2077, 44.96896
355.6898, 46.34338
356.1720, 48.46355
356.6541, 51.23440
357.1362, 54.21063
357.6183, 57.13885
358.1004, 60.18320
358.5826, 63.84644
359.0647, 69.06033
359.5468, 72.72866
360.0289, 73.04896
360.5110, 70.66356
360.9931, 66.77678
361.4753, 60.36089
361.9574, 53.80461
362.4395, 48.19830
362.9216, 43.64949
363.4037, 40.02732
363.8858, 37.50800
364.3680, 35.80984
364.8501, 34.63148
365.3322, 34.05665
365.8143, 33.86246
366.2964, 34.12732
366.7785, 34.83860
367.2607, 35.49640
367.7428, 35.91332
368.2249, 36.36051
368.7070, 37.00628
369.1891, 37.95472
369.6712, 38.96411
370.1534, 40.19800
370.6355, 41.49833
371.1176, 42.36376
371.5997, 42.64543
372.0818, 42.67893
372.5639, 42.56554
373.0461, 42.24324
373.5282, 41.99504
374.0103, 41.93730
374.4924, 41.83969
374.9745, 41.34978
375.4566, 40.40690
375.9388, 39.24290
376.4209, 37.86242
376.9030, 36.27163
377.3851, 34.84197
377.8672, 33.54195
378.3493, 32.44190
378.8315, 31.67745
379.3136, 31.24813
379.7957, 30.81894
380.2778, 30.24998
380.7599, 29.71631
381.2420, 29.72830
381.7242, 30.28509
382.2063, 30.88165
382.6884, 31.17171
383.1705, 31.22860
383.6526, 31.28917
384.1347, 31.37453
384.6169, 31.46701
385.0990, 31.43751
385.5811, 31.36989
386.0632, 31.54160
386.5453, 32.17353
387.0274, 33.07780
387.5096, 34.02510
387.9917, 35.00675
388.4738, 36.03087
388.9559, 37.12384
389.4380, 38.23286
389.9201, 39.29165
390.4023, 40.20485
390.8844, 41.13558
391.3665, 42.16286
391.8486, 43.29628
392.3307, 44.53530
392.8128, 45.87999
393.2950, 47.32992
393.7771, 48.83849
394.2592, 50.24184
394.7413, 52.10772
395.2234, 54.69427
395.7055, 57.82990
396.1877, 61.24977
396.6698, 64.83268
397.1519, 68.74922
397.6340, 72.96922
398.1161, 77.44106
398.5982, 82.69882
399.0804, 88.87234
399.5625, 95.79350
400.0446, 103.3665
400.5267, 112.1207
401.0088, 120.8237
401.4909, 129.5634
401.9731, 138.1706
402.4552, 145.9409
402.9373, 153.4747
403.4194, 159.2113
403.9015, 162.7561
404.3836, 164.6484
404.8658, 161.9428
405.3479, 153.8977
405.8300, 142.2912
406.3121, 128.8522
406.7942, 113.1686
407.2763, 98.47231
407.7585, 85.59285
408.2406, 74.49339
408.7227, 65.43065
409.2048, 58.51022
409.6869, 52.97236
410.1690, 48.48244
410.6512, 44.94515
411.1333, 41.67208
411.6154, 38.46568
412.0975, 35.59651
412.5796, 33.46210
413.0617, 32.01120
413.5439, 30.93468
414.0260, 30.25422
414.5081, 29.75173
414.9902, 29.12323
415.4723, 28.33465
415.9544, 27.51366
416.4366, 26.66499
416.9187, 25.87733
417.4008, 25.28576
417.8829, 25.05146
418.3650, 24.92617
418.8471, 24.76514
419.3293, 24.58172
419.8114, 24.45090
420.2935, 24.40864
420.7756, 24.42891
421.2577, 24.50131
421.7398, 24.65597
422.2220, 24.80121
422.7041, 24.92021
423.1862, 25.01783
423.6683, 25.10349
424.1504, 25.29630
424.6325, 25.36009
425.1147, 25.22890
425.5968, 24.89163
426.0789, 24.44921
426.5610, 23.84992
427.0431, 23.19241
427.5252, 22.55042
428.0074, 21.89283
428.4895, 21.32101
428.9716, 20.84512
429.4537, 20.46987
429.9358, 20.24021
430.4179, 20.18922
430.9001, 20.16749
431.3822, 20.08565
431.8643, 19.94161
432.3464, 19.87787
432.8285, 19.89788
433.3106, 19.98782
433.7928, 20.17528
434.2749, 20.44273
434.7570, 20.63333
435.2391, 20.64803
435.7212, 20.59665
436.2033, 20.64724
436.6855, 20.80568
437.1676, 21.13624
437.6497, 21.81993
438.1318, 22.66555
438.6139, 23.34824
439.0960, 23.76487
439.5782, 24.20614
440.0603, 24.90008
440.5424, 25.79305
441.0245, 26.77157
441.5066, 27.91894
441.9887, 29.03888
442.4709, 30.01872
442.9530, 30.85655
443.4351, 31.62131
443.9172, 32.28259
444.3993, 32.90809
444.8814, 33.53790
445.3636, 34.21185
445.8457, 34.85284
446.3278, 35.20246
446.8099, 35.50770
447.2920, 36.39677
447.7741, 38.22659
448.2563, 40.25942
448.7384, 42.18165
449.2205, 43.92741
449.7026, 46.22929
450.1847, 49.14758
450.6668, 52.50898
451.1490, 56.07582
451.6311, 59.72344
452.1132, 64.12074
452.5953, 69.45597
453.0774, 75.56045
453.5595, 82.40061
454.0417, 90.06159
454.5238, 97.92477
455.0059, 105.9264
455.4880, 113.9197
455.9701, 121.9003
456.4522, 130.0083
456.9344, 136.8544
457.4165, 141.5802
457.8986, 143.9241
458.3807, 142.9440
458.8628, 137.7336
459.3449, 129.7762
459.8271, 119.6548
460.3092, 107.8579
460.7913, 96.31261
461.2734, 85.63882
461.7555, 76.05111
462.2376, 67.67220
462.7198, 60.67031
463.2019, 54.55491
463.6840, 49.24239
464.1661, 44.70866
464.6482, 40.92472
465.1303, 38.08031
465.6125, 35.77822
466.0946, 34.04093
466.5767, 32.81145
467.0588, 31.75331
467.5409, 30.93348
468.0230, 30.19728
468.5052, 29.46876
468.9873, 28.68584
469.4694, 28.07020
469.9515, 27.65872
470.4336, 27.38394
470.9157, 27.15326
471.3979, 26.96948
471.8800, 26.83637
472.3621, 26.80144
472.8442, 26.81464
473.3263, 26.55556
473.8084, 25.97718
474.2906, 25.49034
474.7727, 25.49255
475.2548, 25.87231
475.7369, 26.06365
476.2190, 25.97390
476.7011, 25.83480
477.1833, 25.92124
477.6654, 26.18445
478.1475, 26.49114
478.6296, 26.80529
479.1117, 27.12273
479.5938, 27.35993
480.0760, 27.55532
480.5581, 27.95205
481.0402, 28.98451
481.5223, 30.10316
482.0044, 30.84868
482.4865, 31.03532
482.9687, 31.10943
483.4508, 31.20009
483.9329, 31.27338
484.4150, 31.28012
484.8971, 31.19226
485.3792, 31.05797
485.8614, 30.89248
486.3435, 30.69458
486.8256, 30.40563
487.3077, 29.79176
487.7898, 29.36488
488.2719, 29.42658
488.7541, 30.10287
489.2362, 30.90000
489.7183, 31.93843
490.2004, 32.93494
490.6825, 33.45525
491.1646, 33.46877
491.6468, 33.31587
492.1289, 33.08281
492.6110, 32.76185
493.0931, 32.28169
493.5752, 31.64182
494.0573, 30.98441
494.5395, 30.36686
495.0216, 29.80855
495.5037, 29.35559
495.9858, 29.03837
496.4679, 28.73213
496.9500, 28.41659
497.4322, 28.02446
497.9143, 27.44902
498.3964, 26.43726
498.8785, 25.41965
499.3606, 24.60312
499.8427, 23.97577
500.3249, 23.53189
500.8070, 23.36994
501.2891, 23.30268
501.7712, 23.23322
502.2533, 23.12761
502.7354, 23.08901
503.2176, 23.10459
503.6997, 23.20219
504.1818, 23.42917
504.6639, 23.91811
505.1460, 24.27392
505.6281, 24.34589
506.1103, 24.25626
506.5924, 24.51019
507.0745, 25.18452
507.5566, 25.92964
508.0387, 26.55601
508.5208, 27.07310
509.0030, 27.70730
509.4851, 28.48279
509.9672, 29.23893
510.4493, 29.87966
510.9314, 30.37169
511.4135, 30.56353
511.8957, 30.29769
512.3778, 29.92359
512.8599, 29.83668
513.3420, 29.97658
513.8242, 30.16529
514.3063, 30.26836
514.7884, 30.41782
515.2705, 30.71391
515.7526, 31.16198
516.2347, 31.70714
516.7169, 32.28885
517.1990, 32.98109
517.6811, 33.84083
518.1632, 34.92157
518.6453, 36.10909
519.1274, 37.72306
519.6096, 39.37862
520.0917, 40.35714
520.5738, 40.58405
521.0559, 40.26051
521.5380, 39.42873
522.0201, 38.08855
522.5023, 36.08847
522.9844, 33.17215
523.4665, 30.30136
523.9486, 28.17428
524.4307, 26.75624
524.9128, 25.57816
525.3950, 24.63701
525.8771, 23.85028
526.3592, 23.12029
526.8413, 22.46191
527.3234, 21.90750
527.8055, 21.52459
528.2877, 21.20708
528.7698, 20.79445
529.2519, 20.32560
529.7340, 19.94993
530.2161, 19.76323
530.6982, 19.69577
531.1804, 19.69037
531.6625, 19.73491
532.1446, 19.87896
532.6267, 20.23989
533.1088, 20.65841
533.5909, 20.98206
534.0731, 21.10359
534.5552, 21.24139
535.0373, 21.40878
535.5194, 21.60292
536.0015, 21.83532
536.4836, 22.14131
536.9658, 22.40661
537.4479, 22.56254
537.9300, 22.61718
538.4121, 22.75472
538.8942, 22.95893
539.3763, 23.31389
539.8585, 23.95573
540.3406, 24.83531
540.8227, 25.65913
541.3048, 26.38251
541.7869, 27.09937
542.2690, 27.83593
542.7512, 28.65613
543.2333, 29.72107
543.7154, 31.14242
544.1975, 32.79762
544.6796, 34.66271
545.1617, 36.71054
545.6439, 38.74706
546.1260, 40.48448
546.6081, 42.33970
547.0902, 44.74848
547.5723, 48.03652
548.0544, 50.57536
548.5366, 52.08977
549.0187, 52.79256
549.5008, 52.87420
549.9829, 52.16360
550.4650, 51.11335
550.9471, 49.59359
551.4293, 47.84815
551.9114, 46.34594
552.3935, 45.04493
552.8756, 44.18095
553.3577, 43.79779
553.8398, 43.92357
554.3220, 44.84966
554.8041, 46.60260
555.2862, 48.51895
555.7683, 49.93048
556.2504, 51.17159
556.7325, 53.01215
557.2147, 55.62328
557.6968, 58.44174
558.1789, 61.21788
558.6610, 63.85216
559.1431, 66.17052
559.6252, 68.30457
560.1074, 69.91264
560.5895, 70.99409
561.0716, 71.46425
561.5537, 71.03419
562.0358, 69.53313
562.5179, 67.20812
563.0001, 63.97836
563.4822, 59.76284
563.9643, 55.74383
564.4464, 51.90710
564.9285, 48.28212
565.4106, 44.82933
565.8928, 41.51425
566.3749, 38.51280
566.8570, 35.78505
567.3391, 33.42152
567.8212, 31.67148
568.3033, 30.45330
568.7855, 29.27730
569.2676, 27.89985
569.7497, 26.53489
570.2318, 25.50080
570.7139, 24.76428
571.1960, 24.09311
571.6782, 23.34907
572.1603, 22.62700
572.6424, 22.01362
573.1245, 21.51287
573.6066, 21.08470
574.0887, 20.73888
574.5709, 20.43950
575.0530, 20.15547
575.5351, 19.90530
576.0172, 19.63212
576.4993, 19.30576
576.9814, 18.96894
577.4636, 18.68466
577.9457, 18.42956
578.4278, 18.30731
578.9099, 18.42314
579.3920, 18.66692
579.8741, 18.53472
580.3563, 17.99309
580.8384, 17.53655
581.3205, 17.57380
581.8026, 17.91826
582.2847, 18.02540
582.7668, 17.87706
583.2490, 17.64374
583.7311, 17.33493
584.2131, 17.07717
584.6953, 17.07381
585.1774, 17.50731
585.6595, 17.87867
586.1416, 17.88126
586.6237, 17.66858
587.1058, 17.47393
587.5880, 17.29827
