##NAMES=Topaz
##RRUFFID=R050405
##IDEAL CHEMISTRY=Al_2_SiO_4_F_2_
##LOCALITY=Amelia, Virginia, USA
##OWNER=RRUFF
##SOURCE=Gerry Gibbs
##DESCRIPTION=Colorless cleavage fragment
##STATUS=The identification of this mineral has been confirmed by X-ray diffraction and chemical analysis
##URL=rruff.info/R050405
##MEASURED CHEMISTRY=Al_2.00_Si_1.00_O_4_(F_0.75_(OH)_0.25_)_2_
93.30109, 0.0000000E+00
93.78320, 84.49630
94.26532, 86.44905
94.74744, 86.90256
95.22955, 85.62469
95.71167, 83.36828
96.19379, 80.66497
96.67590, 77.35559
97.15802, 74.74744
97.64014, 73.55938
98.12225, 73.08886
98.60437, 72.08636
99.08649, 70.06661
99.56860, 67.50053
100.0507, 65.11704
100.5328, 62.79046
101.0150, 60.59736
101.4971, 58.66314
101.9792, 56.98305
102.4613, 55.33929
102.9434, 53.52783
103.4255, 51.74921
103.9077, 50.13355
104.3898, 48.69948
104.8719, 47.47136
105.3540, 46.52586
105.8361, 46.00463
106.3182, 45.52254
106.8004, 45.00803
107.2825, 44.46399
107.7646, 43.90622
108.2467, 43.35262
108.7288, 42.78975
109.2109, 42.03821
109.6931, 40.57514
110.1752, 39.43415
110.6573, 39.16465
111.1394, 39.51316
111.6215, 39.77684
112.1036, 39.31633
112.5858, 37.99205
113.0679, 36.88539
113.5500, 35.93302
114.0321, 35.21250
114.5142, 34.86373
114.9964, 34.90704
115.4785, 35.07710
115.9606, 35.10426
116.4427, 34.99901
116.9248, 34.77982
117.4069, 34.39842
117.8891, 33.90835
118.3712, 33.38946
118.8533, 32.79290
119.3354, 32.28597
119.8175, 31.99966
120.2996, 31.92027
120.7818, 31.96718
121.2639, 32.09307
121.7460, 32.29804
122.2281, 32.57958
122.7102, 33.29490
123.1923, 33.83578
123.6745, 33.75512
124.1566, 33.00610
124.6387, 32.01598
125.1208, 31.37907
125.6029, 31.19216
126.0850, 31.20148
126.5672, 31.57578
127.0493, 31.99220
127.5314, 32.16702
128.0135, 31.99156
128.4956, 31.58772
128.9777, 31.29264
129.4599, 31.24836
129.9420, 31.16597
130.4241, 31.00754
130.9062, 30.80101
131.3883, 30.58228
131.8704, 30.36530
132.3526, 30.15767
132.8347, 29.99896
133.3168, 29.88473
133.7989, 29.80917
134.2810, 29.85288
134.7632, 29.97312
135.2453, 29.92872
135.7274, 29.42836
136.2095, 28.65986
136.6916, 28.28444
137.1737, 28.70200
137.6559, 29.30317
138.1380, 29.39397
138.6201, 28.86316
139.1022, 28.34661
139.5843, 28.37280
140.0664, 28.66718
140.5486, 28.85010
141.0307, 28.72948
141.5128, 28.39297
141.9949, 28.09157
142.4770, 27.81571
142.9591, 27.59671
143.4413, 27.48491
143.9234, 27.43102
144.4055, 27.34230
144.8876, 27.13696
145.3697, 26.81433
145.8518, 26.55452
146.3340, 26.38517
146.8161, 26.26145
147.2982, 26.13276
147.7803, 26.02993
148.2624, 26.05014
148.7445, 26.33297
149.2267, 27.02617
149.7088, 27.32865
150.1909, 26.75350
150.6730, 26.25729
151.1551, 26.43051
151.6372, 27.32400
152.1194, 28.51974
152.6015, 29.47065
153.0836, 29.87139
153.5657, 30.98931
154.0478, 33.25467
154.5299, 36.03024
155.0121, 39.06830
155.4942, 42.39122
155.9763, 45.06394
156.4584, 45.33973
156.9405, 43.25520
157.4226, 40.39146
157.9048, 36.39242
158.3869, 31.93280
158.8690, 28.48344
159.3511, 26.56653
159.8332, 25.61193
160.3153, 24.86727
160.7975, 24.32207
161.2796, 23.96332
161.7617, 23.82021
162.2438, 23.88250
162.7259, 24.03473
163.2081, 24.39167
163.6902, 24.71310
164.1723, 24.84455
164.6544, 24.77059
165.1365, 24.52003
165.6186, 24.00936
166.1008, 23.10867
166.5829, 22.55493
167.0650, 22.75037
167.5471, 23.14123
168.0292, 23.43088
168.5113, 23.53675
168.9935, 23.52841
169.4756, 23.52142
169.9577, 23.54708
170.4398, 23.50677
170.9219, 23.32690
171.4040, 23.12541
171.8862, 22.99458
172.3683, 22.96941
172.8504, 23.02750
173.3325, 23.12031
173.8146, 23.45410
174.2967, 23.55712
174.7789, 23.21634
175.2610, 22.70466
175.7431, 22.33667
176.2252, 22.25260
176.7073, 22.38696
177.1894, 22.53345
177.6716, 22.79105
178.1537, 22.94308
178.6358, 22.86321
179.1179, 22.65263
179.6000, 22.51629
180.0821, 22.57284
180.5643, 22.74615
181.0464, 22.79356
181.5285, 22.64060
182.0106, 22.49533
182.4927, 22.50173
182.9748, 22.61850
183.4570, 22.64247
183.9391, 22.40499
184.4212, 22.05899
184.9033, 21.93779
185.3854, 22.15489
185.8675, 22.41741
186.3497, 22.46197
186.8318, 22.28162
187.3139, 22.13194
187.7960, 22.20854
188.2781, 22.33810
188.7602, 22.30750
189.2424, 22.02481
189.7245, 21.68680
190.2066, 21.56569
190.6887, 21.72017
191.1708, 21.88066
191.6530, 21.96532
192.1351, 22.00642
192.6172, 22.00868
193.0993, 21.96217
193.5814, 21.92273
194.0635, 22.03206
194.5457, 22.43300
195.0278, 22.68994
195.5099, 22.66543
195.9920, 22.50007
196.4741, 22.30939
196.9562, 22.14131
197.4384, 22.00750
197.9205, 21.94719
198.4026, 22.05025
198.8847, 22.10620
199.3668, 22.06535
199.8489, 21.97438
200.3311, 21.87651
200.8132, 21.79233
201.2953, 21.72950
201.7774, 21.71922
202.2595, 21.87374
202.7416, 21.95666
203.2238, 21.88647
203.7059, 21.74277
204.1880, 21.64160
204.6701, 21.64767
205.1522, 21.73195
205.6343, 21.76429
206.1165, 21.65351
206.5986, 21.60026
207.0807, 21.68639
207.5628, 21.85764
208.0449, 22.01896
208.5270, 22.12543
209.0092, 22.17906
209.4913, 22.18400
209.9734, 22.11873
210.4555, 22.04305
210.9376, 21.97608
211.4197, 21.91495
211.9019, 21.81815
212.3840, 21.59642
212.8661, 21.40089
213.3482, 21.64165
213.8303, 22.62015
214.3124, 23.51884
214.7946, 23.71351
215.2767, 23.34824
215.7588, 23.21761
216.2409, 23.77036
216.7230, 24.71279
217.2052, 25.46115
217.6873, 25.95752
218.1694, 26.36036
218.6515, 26.74501
219.1336, 27.11610
219.6157, 27.55365
220.0979, 28.08691
220.5800, 28.71648
221.0621, 29.49216
221.5442, 30.47283
222.0263, 31.38080
222.5084, 31.85489
222.9906, 31.84518
223.4727, 31.97543
223.9548, 32.69486
224.4369, 33.47240
224.9190, 33.84974
225.4011, 33.72789
225.8833, 33.51119
226.3654, 33.68786
226.8475, 34.32525
227.3296, 35.03139
227.8117, 35.69411
228.2938, 36.42144
228.7760, 37.21319
229.2581, 38.08820
229.7402, 39.19019
230.2223, 40.76491
230.7044, 42.96918
231.1865, 45.17154
231.6687, 46.91325
232.1508, 48.89510
232.6329, 51.30380
233.1150, 54.28942
233.5971, 58.21997
234.0792, 63.44409
234.5614, 69.49382
235.0435, 78.27901
235.5256, 91.17788
236.0077, 105.3699
236.4898, 120.2440
236.9719, 135.0793
237.4541, 148.2553
237.9362, 157.2337
238.4183, 159.8345
238.9004, 163.2263
239.3825, 167.5761
239.8646, 172.4020
240.3468, 179.7535
240.8289, 188.6913
241.3110, 193.9815
241.7931, 188.7991
242.2752, 169.5258
242.7573, 148.8881
243.2395, 123.5415
243.7216, 99.53196
244.2037, 80.54975
244.6858, 67.12452
245.1679, 57.66203
245.6501, 50.60992
246.1322, 46.48362
246.6143, 43.35256
247.0964, 41.31726
247.5785, 40.06215
248.0606, 39.55177
248.5428, 39.70363
249.0249, 40.20594
249.5070, 40.79750
249.9891, 41.50164
250.4712, 42.14989
250.9533, 42.89637
251.4355, 43.47761
251.9176, 43.67023
252.3997, 43.48727
252.8818, 43.14177
253.3639, 42.75377
253.8460, 42.33732
254.3282, 42.15534
254.8103, 42.13045
255.2924, 42.38829
255.7745, 43.13126
256.2566, 44.31853
256.7387, 45.55502
257.2209, 46.50314
257.7030, 47.25896
258.1851, 48.39738
258.6672, 50.19218
259.1493, 52.14098
259.6314, 53.76751
260.1136, 55.13519
260.5957, 56.82941
261.0778, 59.17003
261.5599, 62.17736
262.0420, 65.54034
262.5241, 68.53941
263.0063, 72.74301
263.4884, 78.72024
263.9705, 86.58720
264.4526, 97.27448
264.9347, 110.5300
265.4168, 127.8583
265.8990, 150.1539
266.3811, 177.8762
266.8632, 210.0286
267.3453, 249.7048
267.8274, 295.3262
268.3095, 336.7683
268.7917, 378.4662
269.2738, 404.6980
269.7559, 397.0439
270.2380, 351.1757
270.7201, 293.5770
271.2022, 235.3959
271.6844, 178.2827
272.1665, 133.2033
272.6486, 105.3850
273.1307, 89.63008
273.6128, 79.65962
274.0949, 75.33913
274.5771, 73.95004
275.0592, 74.96445
275.5413, 77.86446
276.0234, 79.66138
276.5055, 79.90919
276.9876, 78.82180
277.4698, 76.25191
277.9519, 72.50903
278.4340, 69.13682
278.9161, 66.72210
279.3982, 65.35369
279.8803, 65.43282
280.3625, 67.18916
280.8446, 70.23838
281.3267, 73.63169
281.8088, 77.84327
282.2909, 84.08913
282.7730, 92.86112
283.2552, 104.1608
283.7373, 118.1621
284.2194, 135.4923
284.7015, 154.5540
285.1836, 176.4863
285.6658, 199.2086
286.1479, 220.4517
286.6300, 241.1917
287.1121, 257.7281
287.5942, 260.7819
288.0764, 247.1710
288.5585, 226.8446
289.0406, 199.2321
289.5227, 169.2097
290.0048, 141.6473
290.4869, 117.7776
290.9691, 97.69997
291.4512, 81.69913
291.9333, 70.38500
292.4154, 61.38860
292.8975, 54.93193
293.3796, 49.98987
293.8618, 46.08891
294.3439, 43.10073
294.8260, 40.79778
295.3081, 38.99310
295.7902, 37.78005
296.2723, 36.63343
296.7545, 35.39618
297.2366, 34.26224
297.7187, 33.37358
298.2008, 32.73281
298.6829, 32.22184
299.1650, 31.77518
299.6472, 31.41023
300.1293, 30.92966
300.6114, 30.11614
301.0935, 29.37135
301.5756, 28.88748
302.0577, 28.63797
302.5399, 28.48315
303.0220, 28.34334
303.5041, 28.21571
303.9862, 28.01675
304.4683, 27.63002
304.9504, 27.30935
305.4326, 27.13935
305.9147, 27.09752
306.3968, 27.15969
306.8789, 27.36203
307.3610, 27.62763
307.8431, 27.58293
308.3253, 26.92042
308.8074, 26.43378
309.2895, 26.43602
309.7716, 26.67748
310.2537, 26.81925
310.7358, 26.68725
311.2180, 26.50418
311.7001, 26.84188
312.1822, 28.09014
312.6643, 28.99333
313.1464, 28.97050
313.6285, 28.75178
314.1107, 28.95389
314.5928, 29.73804
315.0749, 30.76429
315.5570, 31.58982
316.0391, 32.22070
316.5212, 32.61757
317.0034, 32.54221
317.4855, 32.41398
317.9676, 32.45511
318.4497, 32.68232
318.9318, 32.97855
319.4139, 33.21192
319.8961, 33.36447
320.3782, 33.62369
320.8603, 33.90375
321.3424, 34.39550
321.8245, 35.31498
322.3066, 36.51831
322.7888, 37.66541
323.2709, 38.46440
323.7530, 38.98151
324.2351, 39.66050
324.7172, 40.39042
325.1993, 41.48416
325.6815, 43.09875
326.1636, 45.07536
326.6457, 47.11456
327.1278, 48.96999
327.6099, 51.04015
328.0920, 54.27383
328.5742, 58.70395
329.0563, 64.37162
329.5384, 71.02621
330.0205, 78.87636
330.5026, 88.42054
330.9847, 99.82969
331.4669, 112.0758
331.9490, 124.6422
332.4311, 138.5507
332.9132, 148.2499
333.3953, 153.1317
333.8774, 153.1800
334.3596, 146.8471
334.8417, 134.6462
335.3238, 119.7240
335.8059, 103.7980
336.2880, 86.77595
336.7701, 72.75774
337.2523, 62.85183
337.7344, 55.15814
338.2165, 49.02078
338.6986, 44.24833
339.1807, 40.47884
339.6628, 37.62697
340.1450, 35.58382
340.6271, 33.97264
341.1092, 32.97165
341.5913, 32.08124
342.0735, 30.99058
342.5556, 29.92272
343.0377, 29.19683
343.5198, 28.98928
344.0019, 28.99150
344.4840, 28.67252
344.9662, 27.93028
345.4483, 27.30742
345.9304, 27.05236
346.4125, 26.93316
346.8946, 26.81518
347.3767, 26.67480
347.8589, 26.53313
348.3410, 26.40202
348.8231, 26.28157
349.3052, 26.19868
349.7873, 26.17809
350.2694, 26.17386
350.7516, 26.07131
351.2337, 25.92662
351.7158, 25.97338
352.1979, 26.42890
352.6800, 27.18970
353.1621, 27.91016
353.6443, 28.55878
354.1264, 29.22797
354.6085, 29.83105
355.0906, 30.51135
355.5727, 31.51074
356.0548, 32.88197
356.5370, 34.63779
357.0191, 36.87228
357.5012, 39.60081
357.9833, 42.50923
358.4654, 45.78522
358.9475, 48.96672
359.4297, 51.77718
359.9118, 54.41713
360.3939, 55.65845
360.8760, 54.21983
361.3581, 50.46095
361.8402, 45.97422
362.3224, 40.59211
362.8045, 35.45703
363.2866, 31.77243
363.7687, 29.41854
364.2508, 27.57692
364.7329, 25.99770
365.2151, 24.69855
365.6972, 23.73733
366.1793, 23.13744
366.6614, 22.74059
367.1435, 22.47781
367.6256, 22.33278
368.1078, 22.25523
368.5899, 22.31531
369.0720, 22.37730
369.5541, 22.28654
370.0362, 22.07308
370.5183, 21.94845
371.0005, 22.04394
371.4826, 22.26121
371.9647, 22.37393
372.4468, 22.35475
372.9289, 22.31533
373.4110, 22.35500
373.8932, 22.39326
374.3753, 22.21335
374.8574, 21.72223
375.3395, 21.23609
375.8216, 21.18996
376.3037, 21.63332
376.7859, 22.07882
377.2680, 22.52769
377.7501, 22.93056
378.2322, 23.24036
378.7143, 23.45805
379.1964, 23.61157
379.6786, 23.70023
380.1607, 23.73866
380.6428, 23.88646
381.1249, 24.29603
381.6070, 24.63003
382.0891, 24.70981
382.5713, 24.63773
383.0534, 24.61527
383.5355, 24.73184
384.0176, 24.92171
384.4997, 25.04391
384.9818, 25.04885
385.4640, 25.06280
385.9461, 25.01757
386.4282, 25.02631
386.9103, 25.26816
387.3924, 25.72432
387.8745, 26.12523
388.3567, 26.14105
388.8388, 25.67225
389.3209, 25.55046
389.8030, 26.01768
390.2851, 26.52382
390.7672, 26.85245
391.2494, 27.06011
391.7315, 27.26280
392.2136, 27.51526
392.6957, 27.86418
393.1778, 28.49726
393.6599, 29.69123
394.1421, 30.79116
394.6242, 31.50114
395.1063, 32.23588
395.5884, 33.39870
396.0706, 35.07696
396.5527, 36.99382
397.0348, 38.76037
397.5169, 40.24059
397.9990, 42.07703
398.4811, 44.19112
398.9633, 46.73830
399.4454, 49.89797
399.9275, 53.56380
400.4096, 57.51019
400.8917, 61.56208
401.3738, 65.76329
401.8560, 70.41508
402.3381, 76.04815
402.8202, 81.08472
403.3023, 85.71745
403.7844, 89.31839
404.2665, 91.28856
404.7487, 91.46497
405.2308, 89.84876
405.7129, 86.11470
406.1950, 80.15231
406.6771, 73.69971
407.1592, 66.55537
407.6414, 59.55035
408.1235, 53.10944
408.6056, 47.27206
409.0877, 42.13642
409.5698, 37.73496
410.0519, 34.10157
410.5341, 31.43124
411.0162, 29.91141
411.4983, 28.68942
411.9804, 27.29314
412.4625, 25.85910
412.9446, 24.64004
413.4268, 23.72415
413.9089, 22.94955
414.3910, 22.13844
414.8731, 21.34149
415.3552, 20.84894
415.8373, 20.85331
416.3195, 21.03471
416.8016, 20.90232
417.2837, 20.44983
417.7658, 20.01556
418.2479, 19.67414
418.7300, 19.40533
419.2122, 19.20218
419.6943, 19.06020
420.1764, 18.92945
420.6585, 18.77638
421.1406, 18.59976
421.6227, 18.40666
422.1049, 18.13943
422.5870, 17.91730
423.0691, 17.81784
423.5512, 17.79085
424.0333, 17.72822
424.5154, 17.58388
424.9976, 17.43075
425.4797, 17.39762
425.9618, 17.45498
426.4439, 17.72906
426.9260, 18.67762
427.4081, 19.48614
427.8903, 19.46355
428.3724, 18.68409
428.8545, 17.74198
429.3366, 17.09915
429.8187, 16.74847
430.3008, 16.59431
430.7830, 16.80075
431.2651, 17.03787
431.7472, 17.30071
432.2293, 17.54941
432.7114, 17.72439
433.1935, 17.80595
433.6757, 17.85480
434.1578, 17.98970
434.6399, 18.26626
435.1220, 18.42970
435.6041, 18.33555
436.0862, 18.22758
436.5684, 18.15143
437.0505, 18.15211
437.5326, 18.32634
438.0147, 18.77124
438.4968, 19.43124
438.9789, 20.13200
439.4611, 20.91150
439.9432, 21.63304
440.4253, 22.24473
440.9074, 22.77218
441.3895, 23.22267
441.8716, 23.59264
442.3538, 23.92623
442.8359, 24.18854
443.3180, 24.41957
443.8001, 24.88904
444.2822, 25.77409
444.7643, 26.68245
445.2465, 27.12364
445.7286, 27.21917
446.2107, 27.50739
446.6928, 28.18593
447.1749, 29.08928
447.6570, 30.04112
448.1392, 31.04583
448.6213, 32.20056
449.1034, 33.53000
449.5855, 35.06291
450.0677, 36.89190
450.5498, 39.01408
451.0319, 41.35044
451.5140, 43.64982
451.9961, 46.25646
452.4782, 49.46812
452.9604, 53.37777
453.4425, 58.14656
453.9246, 63.99529
454.4067, 70.99753
454.8888, 78.39216
455.3709, 86.57346
455.8531, 94.60121
456.3352, 102.7667
456.8173, 110.4000
457.2994, 116.8361
457.7815, 121.7492
458.2636, 124.6390
458.7458, 124.3556
459.2279, 120.0459
459.7100, 114.1089
460.1921, 105.8322
460.6742, 96.84553
461.1563, 87.58881
461.6385, 78.38488
462.1206, 69.89350
462.6027, 62.61312
463.0848, 56.45256
463.5669, 50.92556
464.0490, 45.99887
464.5312, 41.87993
465.0133, 38.94117
465.4954, 36.64648
465.9775, 34.48677
466.4596, 32.33210
466.9417, 30.35469
467.4239, 28.65798
467.9060, 27.25298
468.3881, 26.24520
468.8702, 25.80298
469.3523, 25.45600
469.8344, 24.74586
470.3166, 23.80099
470.7987, 23.00550
471.2808, 22.51288
471.7629, 22.16291
472.2450, 21.84018
472.7271, 21.54457
473.2093, 21.27998
473.6914, 21.05407
474.1735, 20.84965
474.6556, 20.62866
475.1377, 20.37845
475.6198, 20.15595
476.1020, 20.00677
476.5841, 19.86300
477.0662, 19.64611
477.5483, 19.36395
478.0304, 19.08587
478.5125, 18.85761
478.9947, 18.68371
479.4768, 18.61428
479.9589, 18.86827
480.4410, 18.95643
480.9231, 18.61070
481.4052, 18.17547
481.8874, 18.06687
482.3695, 18.35509
482.8516, 18.70818
483.3337, 18.67253
483.8158, 18.16948
484.2979, 17.95321
484.7801, 18.23883
485.2622, 18.58506
485.7443, 18.86339
486.2264, 19.09306
486.7085, 19.32111
487.1906, 19.57315
487.6728, 19.80961
488.1549, 19.93483
488.6370, 19.93480
489.1191, 20.07599
489.6012, 20.54595
490.0833, 21.03015
490.5655, 21.23154
491.0476, 21.18594
491.5297, 21.13605
492.0118, 21.20077
492.4939, 21.30202
492.9760, 21.33856
493.4582, 21.31067
493.9403, 21.26887
494.4224, 21.23618
494.9045, 21.20830
495.3866, 21.18974
495.8687, 21.23984
496.3509, 21.15995
496.8330, 20.79222
497.3151, 20.33512
497.7972, 20.03536
498.2793, 19.90032
498.7614, 19.71650
499.2436, 19.27599
499.7257, 18.60517
500.2078, 18.16187
500.6899, 18.15240
501.1720, 18.12197
501.6541, 17.92758
502.1363, 17.71225
502.6184, 17.67373
503.1005, 17.84562
503.5826, 18.03854
504.0647, 17.96664
504.5468, 17.57963
505.0290, 17.44576
505.5111, 17.78785
505.9932, 18.11364
506.4753, 18.22510
506.9575, 18.19632
507.4396, 18.10485
507.9217, 17.92353
508.4038, 17.87388
508.8859, 18.38800
509.3680, 19.42007
509.8502, 20.10339
510.3323, 20.16063
510.8144, 19.96097
511.2965, 19.73492
511.7786, 19.51877
512.2607, 19.58510
512.7429, 20.28135
513.2250, 21.06426
513.7071, 21.38227
514.1892, 21.34900
514.6713, 21.46856
515.1534, 21.95409
515.6356, 22.74636
516.1177, 23.74954
516.5998, 25.10888
517.0819, 26.38321
517.5640, 27.33145
518.0461, 28.38008
518.5283, 29.93989
519.0104, 31.88893
519.4925, 33.87584
519.9746, 35.74616
520.4567, 37.27246
520.9388, 37.53153
521.4210, 35.85463
521.9031, 34.11637
522.3852, 32.58898
522.8673, 31.04315
523.3494, 29.23984
523.8315, 27.22467
524.3137, 25.30939
524.7958, 23.74098
525.2779, 22.47173
525.7600, 21.37718
526.2421, 20.47828
526.7242, 19.67836
527.2064, 18.88629
527.6885, 18.20948
528.1706, 17.81186
528.6527, 17.75167
529.1348, 17.71715
529.6169, 17.55770
530.0991, 17.31829
530.5812, 17.04416
531.0633, 16.74315
531.5454, 16.48835
532.0275, 16.31703
532.5096, 16.23851
532.9918, 16.32594
533.4739, 16.72311
533.9560, 17.07265
534.4381, 17.30757
534.9202, 17.45561
535.4023, 17.53689
535.8845, 17.56059
536.3666, 17.53871
536.8487, 17.47203
537.3308, 17.36063
537.8129, 17.31417
538.2950, 17.33937
538.7772, 17.42842
539.2593, 17.57433
539.7414, 17.78903
540.2235, 18.05603
540.7056, 18.40150
541.1877, 18.79944
541.6699, 19.25886
542.1520, 19.76548
542.6341, 20.19171
543.1162, 20.44461
543.5983, 20.82025
544.0804, 21.49023
544.5626, 22.42094
545.0447, 23.59705
545.5268, 25.11152
546.0089, 26.68777
546.4910, 28.19880
546.9731, 29.66111
547.4553, 31.17073
547.9374, 32.76278
548.4195, 34.13781
548.9016, 35.03704
549.3837, 35.46284
549.8658, 35.38760
550.3480, 34.94963
550.8301, 33.94917
551.3122, 31.84614
551.7943, 29.36841
552.2764, 27.36553
552.7585, 26.07328
553.2407, 25.18524
553.7228, 24.34601
554.2049, 23.54273
554.6870, 23.04369
555.1691, 23.06886
555.6512, 23.09533
556.1334, 22.81167
556.6155, 22.46905
557.0976, 22.40981
557.5797, 22.74308
558.0618, 23.21926
558.5439, 23.63324
559.0261, 24.00497
559.5082, 24.46224
559.9903, 25.06868
560.4724, 25.55252
560.9545, 25.76625
561.4366, 25.66224
561.9188, 25.17447
562.4009, 23.93386
562.8830, 22.77413
563.3651, 22.05328
563.8472, 21.57423
564.3293, 21.05621
564.8115, 20.44414
565.2936, 19.88520
565.7757, 19.55845
566.2578, 19.46420
566.7399, 19.10939
567.2220, 18.06771
567.7042, 17.27911
568.1863, 17.11091
568.6684, 17.15395
569.1505, 16.99496
569.6326, 16.54765
570.1147, 16.00755
570.5969, 15.50662
571.0790, 15.06098
571.5611, 14.79567
572.0432, 14.74794
572.5253, 14.78062
573.0074, 14.90207
573.4896, 15.02753
573.9717, 15.00629
574.4538, 14.77092
574.9359, 14.59118
575.4180, 14.70101
575.9001, 14.89357
576.3823, 14.83069
576.8644, 14.49788
577.3465, 14.18886
577.8286, 14.12037
578.3107, 14.23967
578.7928, 14.28711
579.2750, 14.16673
579.7571, 14.09959
580.2392, 14.07365
580.7213, 14.12162
581.2034, 14.37903
581.6855, 14.76533
582.1677, 14.95856
582.6498, 14.65278
583.1319, 14.03535
583.6140, 13.79341
584.0961, 14.04908
584.5782, 14.25685
585.0604, 14.19912
585.5425, 14.09008
586.0246, 14.16530
586.5067, 14.40542
586.9889, 14.50359
587.4710, 14.16697
587.9531, 13.72443
588.4352, 13.58327
588.9174, 13.70633
589.3995, 13.82099
589.8816, 13.80163
590.3637, 13.74369
