##NAMES=Topaz
##RRUFFID=R050404
##IDEAL CHEMISTRY=Al_2_SiO_4_F_2_
##LOCALITY=Minas Gerais, Brazil
##OWNER=RRUFF
##SOURCE=Gerry Gibbs
##DESCRIPTION=Colorless cleavage fragments
##STATUS=The identification of this mineral has been confirmed by X-ray diffraction and chemical analysis
##URL=rruff.info/R050404
##MEASURED CHEMISTRY=Al_2.00_Si_1.00_O_4_(F_0.86_(OH)_0.14_)_2_
91.00781, 5.106011
91.48993, 5.465549
91.97205, 5.609472
92.45416, 5.394749
92.93628, 4.971299
93.41840, 4.672059
93.90051, 4.571494
94.38263, 4.577143
94.86475, 4.537737
95.34686, 4.453933
95.82898, 4.388467
96.31110, 4.409309
96.79321, 4.507441
97.27533, 4.582504
97.75745, 4.590909
98.23956, 4.561075
98.72168, 4.646529
99.20380, 4.887370
99.68591, 5.115440
100.1680, 5.091979
100.6501, 4.743855
101.1323, 4.509654
101.6144, 4.584887
102.0965, 5.014299
102.5786, 5.180471
103.0607, 4.969637
103.5428, 4.597260
104.0250, 4.413758
104.5071, 4.473958
104.9892, 4.635336
105.4713, 4.878390
105.9534, 5.346032
106.4355, 5.573153
106.9177, 5.417390
107.3998, 5.015336
107.8819, 4.793690
108.3640, 4.897224
108.8461, 5.067457
109.3282, 5.187341
109.8104, 5.227103
110.2925, 5.248552
110.7746, 5.177468
111.2567, 5.045603
111.7388, 5.101771
112.2209, 5.610078
112.7031, 6.186082
113.1852, 6.569571
113.6673, 6.511919
114.1494, 6.443265
114.6315, 6.488109
115.1136, 6.654965
115.5958, 6.806743
116.0779, 6.907786
116.5600, 6.968904
117.0421, 7.002098
117.5242, 6.962657
118.0063, 6.932795
118.4885, 6.928222
118.9706, 6.932869
119.4527, 7.062660
119.9348, 7.516333
120.4169, 8.135142
120.8990, 8.634957
121.3812, 8.723911
121.8633, 8.694879
122.3454, 8.852542
122.8275, 9.315002
123.3096, 9.788937
123.7917, 10.01872
124.2739, 10.04156
124.7560, 9.994083
125.2381, 9.894330
125.7202, 9.792355
126.2023, 9.779760
126.6844, 9.898987
127.1666, 10.08581
127.6487, 10.28127
128.1308, 10.48284
128.6129, 10.63860
129.0950, 10.65309
129.5771, 10.57391
130.0593, 10.58102
130.5414, 10.78459
131.0235, 11.08552
131.5056, 11.20647
131.9877, 11.09426
132.4698, 10.86826
132.9520, 10.66291
133.4341, 10.48094
133.9162, 10.41790
134.3983, 10.51313
134.8804, 10.75380
135.3625, 11.09119
135.8447, 11.54995
136.3268, 12.04371
136.8089, 12.43382
137.2910, 12.69417
137.7731, 13.01835
138.2552, 13.57267
138.7374, 14.42452
139.2195, 14.91984
139.7016, 15.00844
140.1837, 14.80719
140.6658, 14.50036
141.1479, 13.97929
141.6301, 13.59148
142.1122, 13.52444
142.5943, 13.91663
143.0764, 14.24862
143.5585, 14.51485
144.0406, 14.71396
144.5228, 14.82536
145.0049, 14.71090
145.4870, 14.67813
145.9691, 14.92062
146.4512, 15.76297
146.9333, 16.34781
147.4155, 16.49445
147.8976, 16.26962
148.3797, 16.28748
148.8618, 16.64148
149.3439, 17.16791
149.8260, 17.75843
150.3082, 18.32666
150.7903, 19.05961
151.2724, 19.89086
151.7545, 20.80771
152.2366, 22.19489
152.7188, 23.97136
153.2009, 26.26163
153.6830, 29.14868
154.1651, 32.93043
154.6472, 37.02980
155.1293, 42.29893
155.6115, 49.33887
156.0936, 52.75167
156.5757, 49.91098
157.0578, 43.62486
157.5399, 36.98567
158.0220, 29.14757
158.5042, 22.36437
158.9863, 17.66092
159.4684, 15.32286
159.9505, 13.82402
160.4326, 13.06415
160.9147, 12.81034
161.3969, 12.71754
161.8790, 12.87435
162.3611, 13.01069
162.8432, 12.96457
163.3253, 12.66821
163.8074, 12.33696
164.2896, 12.00453
164.7717, 11.70560
165.2538, 11.51014
165.7359, 11.45753
166.2180, 11.51438
166.7001, 11.68557
167.1823, 12.03972
167.6644, 12.34881
168.1465, 12.41177
168.6286, 12.30319
169.1107, 12.23290
169.5928, 12.44446
170.0750, 12.69954
170.5571, 12.73419
171.0392, 12.39871
171.5213, 11.98087
172.0034, 11.67637
172.4855, 11.48076
172.9677, 11.38068
173.4498, 11.42592
173.9319, 11.54507
174.4140, 11.63860
174.8961, 11.68393
175.3782, 11.68955
175.8604, 11.62814
176.3425, 11.51192
176.8246, 11.44493
177.3067, 11.59770
177.7888, 11.85214
178.2709, 11.95283
178.7531, 11.71737
179.2352, 11.37565
179.7173, 11.30018
180.1994, 11.48091
180.6815, 11.69200
181.1636, 11.69773
181.6458, 11.56629
182.1279, 11.50592
182.6100, 11.65126
183.0921, 11.88088
183.5742, 11.90473
184.0563, 11.71200
184.5385, 11.52210
185.0206, 11.62051
185.5027, 11.94176
185.9848, 12.16331
186.4669, 12.11052
186.9490, 11.88264
187.4312, 11.79291
187.9133, 11.85956
188.3954, 11.95209
188.8775, 11.88743
189.3596, 11.68617
189.8417, 11.54393
190.3239, 11.57631
190.8060, 11.74124
191.2881, 11.82486
191.7702, 11.81996
192.2523, 11.76081
192.7344, 11.63877
193.2166, 11.45492
193.6987, 11.38129
194.1808, 11.57071
194.6629, 11.98675
195.1450, 12.18907
195.6271, 12.14546
196.1093, 11.97175
196.5914, 11.78783
197.0735, 11.58401
197.5556, 11.48645
198.0377, 11.59486
198.5198, 11.91193
199.0020, 12.16131
199.4841, 12.35045
199.9662, 12.45914
200.4483, 12.41455
200.9304, 12.18406
201.4125, 11.99826
201.8947, 11.98016
202.3768, 12.14537
202.8589, 12.29156
203.3410, 12.43928
203.8231, 12.53992
204.3052, 12.44632
204.7874, 12.08870
205.2695, 11.82750
205.7516, 11.88280
206.2337, 12.32401
206.7158, 12.59432
207.1979, 12.63799
207.6801, 12.55862
208.1622, 12.57149
208.6443, 12.70072
209.1264, 12.84682
209.6085, 12.96530
210.0906, 13.05012
210.5728, 13.13700
211.0549, 13.23129
211.5370, 13.32389
212.0191, 13.38433
212.5012, 13.39430
212.9833, 13.41865
213.4655, 13.48046
213.9476, 13.57245
214.4297, 13.73961
214.9118, 14.02471
215.3939, 14.36363
215.8760, 14.55857
216.3581, 14.46351
216.8403, 14.52195
217.3224, 14.95557
217.8045, 15.84468
218.2866, 16.87820
218.7687, 18.07226
219.2508, 19.39613
219.7330, 20.71084
220.2151, 21.91834
220.6972, 23.29026
221.1793, 24.92674
221.6614, 26.83837
222.1435, 29.06861
222.6257, 31.87613
223.1078, 34.92802
223.5899, 37.32066
224.0720, 38.71657
224.5541, 40.00249
225.0362, 41.63248
225.5184, 43.76332
226.0005, 45.81055
226.4826, 47.71267
226.9647, 49.54335
227.4468, 51.56801
227.9289, 53.79736
228.4111, 56.18578
228.8932, 58.66017
229.3753, 60.98278
229.8574, 63.93674
230.3395, 67.55235
230.8216, 71.76939
231.3038, 76.50092
231.7859, 81.64658
232.2680, 87.41179
232.7501, 93.73941
233.2322, 99.96230
233.7143, 108.1856
234.1965, 118.4603
234.6786, 130.7912
235.1607, 145.2641
235.6428, 161.7735
236.1249, 180.5747
236.6070, 202.2480
237.0892, 229.1406
237.5713, 253.6811
238.0534, 275.3606
238.5355, 294.8126
239.0176, 313.7978
239.4997, 333.8916
239.9819, 351.6312
240.4640, 367.3338
240.9461, 389.0862
241.4282, 389.3056
241.9103, 361.6294
242.3924, 314.4770
242.8746, 266.5464
243.3567, 213.3570
243.8388, 166.1909
244.3209, 129.7363
244.8030, 106.7027
245.2851, 88.20159
245.7673, 74.99557
246.2494, 65.99806
246.7315, 59.01531
247.2136, 54.39412
247.6957, 51.23183
248.1778, 49.24044
248.6600, 48.52783
249.1421, 48.70062
249.6242, 49.72253
250.1063, 51.64142
250.5884, 54.70912
251.0705, 59.65978
251.5527, 64.53324
252.0348, 68.65238
252.5169, 72.06197
252.9990, 74.60438
253.4811, 75.91442
253.9632, 76.62060
254.4454, 77.76253
254.9275, 79.33208
255.4096, 81.36018
255.8917, 83.88899
256.3738, 86.94398
256.8560, 90.30161
257.3381, 93.92150
257.8202, 97.89875
258.3023, 102.4733
258.7844, 107.6644
259.2665, 113.2939
259.7487, 119.2438
260.2308, 125.3988
260.7129, 132.4267
261.1950, 140.0701
261.6771, 148.8108
262.1592, 158.8995
262.6414, 169.2642
263.1235, 183.3985
263.6056, 201.6436
264.0877, 224.0185
264.5698, 252.6386
265.0519, 287.1119
265.5341, 328.1448
266.0162, 377.6306
266.4983, 436.4410
266.9804, 500.5364
267.4625, 572.9130
267.9446, 652.6761
268.4268, 727.2167
268.9089, 809.5300
269.3910, 861.3228
269.8731, 833.1318
270.3552, 706.2496
270.8373, 573.6039
271.3195, 447.1479
271.8016, 329.4017
272.2837, 242.5674
272.7658, 190.1488
273.2479, 158.6473
273.7300, 137.3801
274.2122, 127.5069
274.6943, 121.1276
275.1764, 117.7393
275.6585, 116.6770
276.1406, 114.2903
276.6227, 110.2210
277.1049, 106.0152
277.5870, 102.6461
278.0691, 100.0608
278.5512, 98.91324
279.0333, 99.32767
279.5154, 101.2380
279.9976, 104.3476
280.4797, 108.6098
280.9618, 114.3830
281.4439, 121.9221
281.9260, 131.2023
282.4081, 142.5433
282.8903, 155.9790
283.3724, 171.5027
283.8545, 189.5074
284.3366, 210.1378
284.8187, 231.7989
285.3008, 255.0013
285.7830, 279.4007
286.2651, 299.4612
286.7472, 316.1943
287.2293, 325.9075
287.7114, 320.4082
288.1935, 299.7669
288.6757, 272.2209
289.1578, 238.9686
289.6399, 201.5832
290.1220, 169.6830
290.6041, 143.7894
291.0862, 122.7944
291.5684, 105.7898
292.0505, 92.58045
292.5326, 81.95266
293.0147, 73.71066
293.4968, 67.55085
293.9789, 62.42739
294.4611, 58.40427
294.9432, 55.14952
295.4253, 52.46761
295.9074, 50.29160
296.3895, 48.39244
296.8716, 46.69059
297.3538, 45.17750
297.8359, 43.81065
298.3180, 42.57572
298.8001, 41.54018
299.2822, 40.83470
299.7643, 40.37072
300.2465, 39.92767
300.7286, 39.41712
301.2107, 38.89309
301.6928, 38.44149
302.1749, 38.06049
302.6570, 37.65957
303.1392, 37.10286
303.6213, 36.48953
304.1034, 36.01887
304.5855, 35.85277
305.0676, 35.72042
305.5497, 35.23257
306.0319, 34.47497
306.5140, 33.86840
306.9961, 33.86177
307.4782, 34.10478
307.9603, 34.16459
308.4424, 33.85965
308.9246, 33.50449
309.4067, 33.33842
309.8888, 33.31893
310.3709, 33.32308
310.8530, 33.25008
311.3351, 33.19158
311.8173, 33.19864
312.2994, 33.24102
312.7815, 33.47062
313.2636, 34.12843
313.7457, 35.02055
314.2278, 35.80457
314.7100, 36.12283
315.1921, 36.43512
315.6742, 37.06836
316.1563, 38.10914
316.6384, 39.11636
317.1205, 39.82972
317.6027, 40.40594
318.0848, 41.03926
318.5669, 41.77895
319.0490, 42.59718
319.5311, 43.50279
320.0132, 44.49811
320.4954, 45.50590
320.9775, 46.52048
321.4596, 47.52303
321.9417, 48.48196
322.4238, 49.18209
322.9059, 50.05484
323.3881, 51.23347
323.8702, 52.69371
324.3523, 54.24214
324.8344, 55.61758
325.3165, 57.22442
325.7986, 59.31284
326.2808, 62.03654
326.7629, 65.08393
327.2450, 68.18177
327.7271, 71.52184
328.2092, 75.86351
328.6913, 81.46052
329.1735, 87.83329
329.6556, 94.91823
330.1377, 102.9576
330.6198, 111.2938
331.1019, 120.5370
331.5840, 129.8682
332.0662, 138.1546
332.5483, 146.9738
333.0304, 152.5048
333.5125, 153.5268
333.9946, 149.9499
334.4767, 142.2242
334.9589, 128.7891
335.4410, 112.8456
335.9231, 98.08276
336.4052, 84.35814
336.8873, 72.53426
337.3694, 63.00303
337.8516, 55.74343
338.3336, 50.02501
338.8158, 46.09079
339.2979, 43.16455
339.7800, 40.55749
340.2621, 38.28413
340.7442, 36.37832
341.2263, 34.90473
341.7085, 33.80284
342.1906, 33.02917
342.6727, 32.62361
343.1548, 32.25468
343.6369, 31.59875
344.1190, 30.69364
344.6012, 30.10084
345.0833, 29.93691
345.5654, 30.00747
346.0475, 29.99791
346.5296, 29.91213
347.0117, 29.81151
347.4939, 29.68203
347.9760, 29.56059
348.4581, 29.56140
348.9402, 29.69170
349.4223, 29.93771
349.9044, 30.35391
350.3866, 30.89171
350.8687, 31.38750
351.3508, 31.71537
351.8329, 31.99211
352.3150, 32.39616
352.7971, 32.92830
353.2793, 33.53360
353.7614, 34.11786
354.2435, 34.76692
354.7256, 35.62100
355.2077, 36.72173
355.6898, 38.03423
356.1720, 39.53663
356.6541, 41.23888
357.1362, 43.15889
357.6183, 45.41685
358.1004, 47.85662
358.5826, 50.50037
359.0647, 53.71595
359.5468, 56.19297
360.0289, 57.61467
360.5110, 57.78178
360.9931, 56.30583
361.4753, 51.83555
361.9574, 46.66154
362.4395, 41.71529
362.9216, 37.00801
363.4037, 33.05392
363.8858, 30.20011
364.3680, 28.09909
364.8501, 26.37786
365.3322, 25.06930
365.8143, 24.04416
366.2964, 23.33250
366.7785, 22.92536
367.2607, 22.60710
367.7428, 22.44493
368.2249, 22.30363
368.7070, 22.09765
369.1891, 21.62168
369.6712, 21.35943
370.1534, 21.45160
370.6355, 21.76984
371.1176, 21.90930
371.5997, 21.76500
372.0818, 21.57445
372.5639, 21.41451
373.0461, 21.26266
373.5282, 21.22254
374.0103, 21.33567
374.4924, 21.52000
374.9745, 21.66897
375.4566, 21.80718
375.9388, 21.82611
376.4209, 21.62572
376.9030, 21.23142
377.3851, 21.13220
377.8672, 21.39773
378.3493, 21.73322
378.8315, 21.81189
379.3136, 21.62806
379.7957, 21.58454
380.2778, 21.79735
380.7599, 22.15341
381.2420, 22.39462
381.7242, 22.51716
382.2063, 22.58674
382.6884, 22.60446
383.1705, 22.59671
383.6526, 22.65206
384.1347, 22.77777
384.6169, 22.96816
385.0990, 23.27346
385.5811, 23.64968
386.0632, 23.94062
386.5453, 23.93960
387.0274, 23.87280
387.5096, 24.04214
387.9917, 24.44947
388.4738, 24.97981
388.9559, 25.66946
389.4380, 26.38161
389.9201, 26.92127
390.4023, 26.99819
390.8844, 27.14365
391.3665, 27.76533
391.8486, 28.77194
392.3307, 29.80757
392.8128, 30.74845
393.2950, 31.62803
393.7771, 32.43308
394.2592, 33.04642
394.7413, 33.88645
395.2234, 35.12545
395.7055, 36.66133
396.1877, 38.33651
396.6698, 40.20581
397.1519, 42.12270
397.6340, 43.97886
398.1161, 45.72643
398.5982, 47.83186
399.0804, 50.54440
399.5625, 53.49533
400.0446, 56.42247
400.5267, 59.33285
401.0088, 62.23543
401.4909, 65.22137
401.9731, 68.20149
402.4552, 70.79646
402.9373, 73.14717
403.4194, 74.88996
403.9015, 76.01163
404.3836, 76.79224
404.8658, 75.70674
405.3479, 72.37995
405.8300, 67.70802
406.3121, 62.78873
406.7942, 57.56530
407.2763, 52.47036
407.7585, 47.58094
408.2406, 42.90869
408.7227, 38.58038
409.2048, 34.58711
409.6869, 31.13134
410.1690, 28.56277
410.6512, 26.77111
411.1333, 25.10264
411.6154, 23.41359
412.0975, 21.83517
412.5796, 20.51087
413.0617, 19.44324
413.5439, 18.61298
414.0260, 18.11335
414.5081, 17.79456
414.9902, 17.47021
415.4723, 17.12672
415.9544, 16.75363
416.4366, 16.30598
416.9187, 15.83376
417.4008, 15.41344
417.8829, 15.04923
418.3650, 14.76208
418.8471, 14.60280
419.3293, 14.54957
419.8114, 14.46420
420.2935, 14.22655
420.7756, 13.97595
421.2577, 13.81953
421.7398, 13.83599
422.2220, 13.82128
422.7041, 13.69921
423.1862, 13.52232
423.6683, 13.38489
424.1504, 13.35070
424.6325, 13.30253
425.1147, 13.18943
425.5968, 12.99316
426.0789, 12.88752
426.5610, 12.94346
427.0431, 13.02553
427.5252, 13.01159
428.0074, 12.82506
428.4895, 12.72973
428.9716, 12.80028
429.4537, 12.96612
429.9358, 12.97541
430.4179, 12.77211
430.9001, 12.60974
431.3822, 12.65409
431.8643, 12.90955
432.3464, 13.06192
432.8285, 13.09521
433.3106, 13.07539
433.7928, 13.05552
434.2749, 13.04245
434.7570, 13.09737
435.2391, 13.25791
435.7212, 13.48305
436.2033, 13.69522
436.6855, 13.89527
437.1676, 14.10975
437.6497, 14.37505
438.1318, 14.66138
438.6139, 14.90484
439.0960, 15.07084
439.5782, 15.28396
440.0603, 15.64459
440.5424, 16.12722
441.0245, 16.67695
441.5066, 17.28844
441.9887, 17.95010
442.4709, 18.68365
442.9530, 19.48445
443.4351, 20.25126
443.9172, 20.91163
444.3993, 21.53815
444.8814, 22.17100
445.3636, 22.76630
445.8457, 23.44338
446.3278, 24.21379
446.8099, 25.07380
447.2920, 26.03492
447.7741, 27.11003
448.2563, 28.27030
448.7384, 29.36608
449.2205, 30.30041
449.7026, 32.07902
450.1847, 35.11016
450.6668, 38.44458
451.1490, 41.06507
451.6311, 42.63154
452.1132, 44.88243
452.5953, 48.26873
453.0774, 52.36407
453.5595, 56.13754
454.0417, 59.54744
454.5238, 63.16647
455.0059, 67.63010
455.4880, 72.66723
455.9701, 77.14736
456.4522, 81.02522
456.9344, 84.25828
457.4165, 87.06033
457.8986, 89.21893
458.3807, 90.05788
458.8628, 89.31686
459.3449, 87.23629
459.8271, 83.66548
460.3092, 78.84007
460.7913, 73.72454
461.2734, 68.66882
461.7555, 63.71849
462.2376, 58.80424
462.7198, 53.91236
463.2019, 49.30277
463.6840, 45.03614
464.1661, 41.18367
464.6482, 37.83169
465.1303, 35.19858
465.6125, 32.86325
466.0946, 30.71675
466.5767, 28.75090
467.0588, 27.10050
467.5409, 25.97469
468.0230, 24.98748
468.5052, 23.95998
468.9873, 22.78778
469.4694, 21.84536
469.9515, 21.20637
470.4336, 20.73578
470.9157, 20.23290
471.3979, 19.67346
471.8800, 19.17766
472.3621, 18.78617
472.8442, 18.48318
473.3263, 18.15059
473.8084, 17.77266
474.2906, 17.48623
474.7727, 17.45760
475.2548, 17.62557
475.7369, 17.68585
476.2190, 17.59361
476.7011, 17.44713
477.1833, 17.38667
477.6654, 17.37004
478.1475, 17.27978
478.6296, 16.93485
479.1117, 16.58477
479.5938, 16.52426
480.0760, 16.71655
480.5581, 16.91495
481.0402, 16.97431
481.5223, 16.98426
482.0044, 17.00011
482.4865, 16.99592
482.9687, 17.09554
483.4508, 17.44826
483.9329, 17.90319
484.4150, 18.24045
484.8971, 18.32379
485.3792, 18.39189
485.8614, 18.43651
486.3435, 18.47082
486.8256, 18.72563
487.3077, 19.34740
487.7898, 20.01291
488.2719, 20.56998
488.7541, 21.01983
489.2362, 21.31235
489.7183, 21.40521
490.2004, 21.39639
490.6825, 21.44011
491.1646, 21.54586
491.6468, 21.61131
492.1289, 21.62036
492.6110, 21.56137
493.0931, 21.35100
493.5752, 20.99083
494.0573, 20.67189
494.5395, 20.59879
495.0216, 20.65246
495.5037, 20.57054
495.9858, 20.30950
496.4679, 19.99588
496.9500, 19.71000
497.4322, 19.45699
497.9143, 19.25065
498.3964, 19.09153
498.8785, 18.98426
499.3606, 18.95329
499.8427, 18.98506
500.3249, 19.01854
500.8070, 19.01210
501.2891, 19.01789
501.7712, 19.02745
502.2533, 18.94475
502.7354, 19.13937
503.2176, 19.83553
503.6997, 20.71970
504.1818, 21.46754
504.6639, 21.92743
505.1460, 22.53845
505.6281, 23.40513
506.1103, 24.46548
506.5924, 25.44139
507.0745, 26.30706
507.5566, 27.17764
508.0387, 28.07032
508.5208, 28.99238
509.0030, 30.13164
509.4851, 31.51316
509.9672, 32.96874
510.4493, 34.18087
510.9314, 35.29498
511.4135, 36.83310
511.8957, 38.98981
512.3778, 41.47879
512.8599, 43.96295
513.3420, 46.49849
513.8242, 49.23737
514.3063, 52.23206
514.7884, 55.52898
515.2705, 59.19307
515.7526, 63.21433
516.2347, 67.40064
516.7169, 71.43259
517.1990, 75.73698
517.6811, 80.67227
518.1632, 87.40656
518.6453, 93.25916
519.1274, 98.35754
519.6096, 102.3373
520.0917, 104.4534
520.5738, 104.6683
521.0559, 103.0813
521.5380, 99.55985
522.0201, 94.15513
522.5023, 87.52065
522.9844, 79.26611
523.4665, 70.80806
523.9486, 62.92769
524.4307, 55.61004
524.9128, 49.38660
525.3950, 44.45119
525.8771, 40.28247
526.3592, 36.15043
526.8413, 32.22903
527.3234, 29.02351
527.8055, 27.01092
528.2877, 25.57700
528.7698, 23.99871
529.2519, 22.36439
529.7340, 20.98752
530.2161, 20.14648
530.6982, 19.56765
531.1804, 19.06018
531.6625, 18.61979
532.1446, 18.19732
532.6267, 17.66306
533.1088, 17.19957
533.5909, 16.98327
534.0731, 17.37858
534.5552, 17.59320
535.0373, 17.47410
535.5194, 17.15308
536.0015, 16.95232
536.4836, 16.89579
536.9658, 16.91582
537.4479, 17.00396
537.9300, 17.15661
538.4121, 17.30030
538.8942, 17.42470
539.3763, 17.58016
539.8585, 17.79051
540.3406, 18.06250
540.8227, 18.43789
541.3048, 18.93028
541.7869, 19.50995
542.2690, 20.13157
542.7512, 20.81213
543.2333, 21.59478
543.7154, 22.52069
544.1975, 23.53625
544.6796, 24.53735
545.1617, 25.57383
545.6439, 26.82682
546.1260, 28.65590
546.6081, 30.51607
547.0902, 32.07871
547.5723, 33.22949
548.0544, 34.34724
548.5366, 35.67041
549.0187, 36.88396
549.5008, 37.74776
549.9829, 38.42857
550.4650, 38.42712
550.9471, 37.50747
551.4293, 35.98819
551.9114, 34.49801
552.3935, 32.97570
552.8756, 31.78127
553.3577, 31.10105
553.8398, 30.85914
554.3220, 30.70883
554.8041, 30.64803
555.2862, 30.74775
555.7683, 31.07773
556.2504, 31.60393
556.7325, 32.31382
557.2147, 33.24254
557.6968, 34.14809
558.1789, 34.82585
558.6610, 35.35216
559.1431, 35.83319
559.6252, 36.56209
560.1074, 36.99242
560.5895, 36.87912
561.0716, 36.28674
561.5537, 35.44149
562.0358, 34.23035
562.5179, 32.91193
563.0001, 31.58475
563.4822, 30.26377
563.9643, 28.83692
564.4464, 27.20215
564.9285, 25.60323
565.4106, 24.21149
565.8928, 23.04413
566.3749, 21.93213
566.8570, 20.83123
567.3391, 19.82502
567.8212, 19.08455
568.3033, 18.57249
568.7855, 18.06317
569.2676, 17.45877
569.7497, 16.82942
570.2318, 16.24327
570.7139, 15.71397
571.1960, 15.25239
571.6782, 14.89399
572.1603, 14.59368
572.6424, 14.31497
573.1245, 14.04977
573.6066, 13.84546
574.0887, 13.77060
574.5709, 13.73145
575.0530, 13.65526
575.5351, 13.55827
576.0172, 13.37953
576.4993, 13.03647
576.9814, 12.64998
577.4636, 12.43270
577.9457, 12.45101
578.4278, 12.46211
578.9099, 12.40389
579.3920, 12.29776
579.8741, 12.22995
580.3563, 12.20421
580.8384, 12.16965
581.3205, 12.10286
581.8026, 12.00276
582.2847, 11.86499
582.7668, 11.68862
583.2490, 11.49443
583.7311, 11.20303
584.2132, 10.94104
584.6953, 10.90625
585.1774, 11.26358
585.6595, 11.57069
586.1416, 11.54163
586.6237, 11.33019
587.1058, 11.16939
587.5880, 11.13138
588.0701, 11.13016
588.5522, 11.19078
