##NAMES=Topaz
##RRUFFID=R050404
##IDEAL CHEMISTRY=Al_2_SiO_4_F_2_
##LOCALITY=Minas Gerais, Brazil
##OWNER=RRUFF
##SOURCE=Gerry Gibbs
##DESCRIPTION=Colorless cleavage fragments
##STATUS=The identification of this mineral has been confirmed by X-ray diffraction and chemical analysis
##URL=rruff.info/R050404
##MEASURED CHEMISTRY=Al_2.00_Si_1.00_O_4_(F_0.86_(OH)_0.14_)_2_
93.78320, 95.85629
94.26532, 98.41032
94.74744, 100.1253
95.22955, 100.7269
95.71167, 98.39627
96.19379, 88.36613
96.67590, 67.27427
97.15802, 51.06106
97.64014, 43.43275
98.12225, 41.63749
98.60437, 41.31215
99.08649, 41.53701
99.56860, 41.83070
100.0507, 41.50716
100.5328, 40.48606
101.0150, 39.11219
101.4971, 37.44568
101.9792, 35.44443
102.4613, 33.79921
102.9434, 32.91024
103.4255, 32.41177
103.9077, 32.13782
104.3898, 32.07784
104.8719, 32.10352
105.3540, 31.95756
105.8361, 31.57982
106.3182, 31.10762
106.8004, 30.49982
107.2825, 29.84922
107.7646, 29.27680
108.2467, 28.86885
108.7288, 28.60147
109.2109, 28.15711
109.6931, 27.29984
110.1752, 26.49847
110.6573, 25.86101
111.1394, 25.38247
111.6215, 25.02182
112.1036, 24.76392
112.5858, 24.62984
113.0679, 24.39332
113.5500, 23.86559
114.0321, 23.37265
114.5142, 23.19369
114.9964, 23.37201
115.4785, 23.66209
115.9606, 23.80058
116.4427, 23.79800
116.9248, 23.73068
117.4069, 23.57554
117.8891, 23.36933
118.3712, 23.18560
118.8533, 23.04179
119.3354, 22.92126
119.8175, 22.81562
120.2996, 22.72224
120.7818, 22.61419
121.2639, 22.41722
121.7460, 22.12224
122.2281, 21.98975
122.7102, 22.31840
123.1923, 22.65952
123.6745, 22.76034
124.1566, 22.58247
124.6387, 22.28114
125.1208, 22.07551
125.6029, 22.01079
126.0850, 21.95385
126.5672, 21.95898
127.0493, 21.93227
127.5314, 21.76477
128.0135, 21.41701
128.4956, 20.97755
128.9777, 20.68929
129.4599, 20.67896
129.9420, 20.69780
130.4241, 20.75410
130.9062, 20.82541
131.3883, 20.87737
131.8705, 20.88781
132.3526, 20.86875
132.8347, 20.88900
133.3168, 21.06455
133.7989, 21.15944
134.2810, 21.02483
134.7632, 20.69692
135.2453, 20.35962
135.7274, 20.08967
136.2095, 19.91938
136.6916, 19.89584
137.1737, 20.12502
137.6559, 20.43992
138.1380, 20.70553
138.6201, 20.93624
139.1022, 21.04671
139.5843, 20.89579
140.0664, 20.60140
140.5486, 20.31995
141.0307, 20.12269
141.5128, 19.98190
141.9949, 19.81225
142.4770, 19.56745
142.9591, 19.36594
143.4413, 19.20759
143.9234, 19.12109
144.4055, 19.17694
144.8876, 19.51347
145.3697, 20.13481
145.8518, 20.35630
146.3340, 19.60485
146.8161, 18.93494
147.2982, 18.66913
147.7803, 18.77916
148.2624, 19.07556
148.7445, 19.39828
149.2267, 19.78769
149.7088, 20.00626
150.1909, 19.80508
150.6730, 19.66509
151.1551, 19.85875
151.6372, 20.41997
152.1194, 21.18402
152.6015, 21.91273
153.0836, 22.39878
153.5657, 23.59167
154.0478, 25.81968
154.5299, 28.59521
155.0121, 31.79870
155.4942, 35.48061
155.9763, 38.71383
156.4584, 39.96868
156.9405, 39.39361
157.4227, 37.51002
157.9048, 33.44781
158.3869, 28.20425
158.8690, 23.86661
159.3511, 20.99042
159.8332, 19.22860
160.3154, 18.11008
160.7975, 17.62622
161.2796, 17.40909
161.7617, 17.32089
162.2438, 17.34895
162.7259, 17.32715
163.2081, 17.12154
163.6902, 16.93439
164.1723, 16.98052
164.6544, 17.27646
165.1365, 17.54394
165.6186, 17.40112
166.1008, 16.70624
166.5829, 16.24847
167.0650, 16.38906
167.5471, 16.65318
168.0292, 16.74476
168.5113, 16.59205
168.9935, 16.34706
169.4756, 16.26911
169.9577, 16.46576
170.4398, 16.63257
170.9219, 16.82160
171.4040, 16.93802
171.8862, 16.84849
172.3683, 16.51407
172.8504, 16.07524
173.3325, 15.86734
173.8146, 16.26160
174.2967, 16.45471
174.7789, 16.23962
175.2610, 15.87333
175.7431, 15.67098
176.2252, 15.77837
176.7073, 16.09476
177.1894, 16.28826
177.6716, 16.23679
178.1537, 16.22742
178.6358, 16.39650
179.1179, 16.64212
179.6000, 16.76061
180.0821, 16.63523
180.5643, 16.33492
181.0464, 16.08033
181.5285, 15.87689
182.0106, 15.69681
182.4927, 15.49424
182.9749, 15.29033
183.4570, 15.19026
183.9391, 15.28610
184.4212, 15.49992
184.9033, 15.64375
185.3854, 15.68186
185.8676, 15.70474
186.3497, 15.81517
186.8318, 16.01764
187.3139, 16.14811
187.7960, 16.07921
188.2781, 15.91828
188.7603, 15.76711
189.2424, 15.63054
189.7245, 15.53977
190.2066, 15.56819
190.6887, 15.76714
191.1708, 15.89596
191.6530, 15.78369
192.1351, 15.60452
192.6172, 15.51932
193.0993, 15.59688
193.5814, 15.74553
194.0635, 15.77259
194.5457, 15.60417
195.0278, 15.45787
195.5099, 15.34486
195.9920, 15.28703
196.4741, 15.33298
196.9562, 15.51068
197.4384, 15.75062
197.9205, 15.84417
198.4026, 15.62490
198.8847, 15.48026
199.3668, 15.48795
199.8489, 15.58160
200.3311, 15.69903
200.8132, 15.81061
201.2953, 15.90555
201.7774, 15.93989
202.2595, 15.81979
202.7416, 15.74069
203.2238, 15.74746
203.7059, 15.80133
204.1880, 15.84646
204.6701, 15.85257
205.1522, 15.82995
205.6344, 15.82451
206.1165, 15.81925
206.5986, 15.84745
207.0807, 15.96422
207.5628, 16.11720
208.0449, 16.19135
208.5271, 16.10783
209.0092, 15.92908
209.4913, 15.92073
209.9734, 16.30226
210.4555, 16.55894
210.9376, 16.40361
211.4198, 15.96480
211.9019, 15.57144
212.3840, 15.34488
212.8661, 15.32929
213.3482, 15.61469
213.8303, 16.41037
214.3125, 17.14814
214.7946, 17.48065
215.2767, 17.46218
215.7588, 17.34962
216.2409, 17.13126
216.7230, 16.98824
217.2052, 17.23341
217.6873, 18.04731
218.1694, 18.86890
218.6515, 19.17212
219.1336, 18.98267
219.6157, 18.95641
220.0979, 19.44143
220.5800, 20.16224
221.0621, 20.81998
221.5442, 21.37821
222.0263, 21.89545
222.5084, 22.46568
222.9906, 23.10966
223.4727, 23.60306
223.9548, 23.76501
224.4369, 23.80399
224.9190, 23.81506
225.4011, 23.80908
225.8833, 23.89514
226.3654, 24.25234
226.8475, 24.94919
227.3296, 25.57963
227.8117, 25.87620
228.2938, 26.19661
228.7760, 26.79954
229.2581, 27.73212
229.7402, 28.78460
230.2223, 29.60996
230.7044, 30.01569
231.1866, 30.83485
231.6687, 32.32135
232.1508, 34.08990
232.6329, 35.85286
233.1150, 37.58986
233.5971, 39.54671
234.0793, 41.94161
234.5614, 44.40681
235.0435, 48.36239
235.5256, 54.06018
236.0077, 60.81749
236.4898, 68.42289
236.9720, 76.71348
237.4541, 85.47665
237.9362, 94.41254
238.4183, 103.3402
238.9004, 112.8325
239.3825, 123.6868
239.8647, 134.3596
240.3468, 145.6778
240.8289, 156.8265
241.3110, 164.0690
241.7931, 162.5640
242.2752, 149.5485
242.7574, 134.4424
243.2395, 114.6474
243.7216, 95.04607
244.2037, 78.20497
244.6858, 64.71042
245.1679, 54.21654
245.6501, 46.50773
246.1322, 42.21472
246.6143, 38.87830
247.0964, 36.62001
247.5785, 35.09216
248.0606, 34.15710
248.5428, 33.76334
249.0249, 33.81510
249.5070, 34.28132
249.9891, 35.24927
250.4712, 36.09020
250.9533, 36.96372
251.4355, 37.60332
251.9176, 37.74715
252.3997, 37.42189
252.8818, 36.93071
253.3639, 36.43938
253.8460, 35.97972
254.3282, 35.95359
254.8103, 36.63675
255.2924, 37.52096
255.7745, 38.25142
256.2566, 38.83160
256.7387, 39.46741
257.2209, 40.29891
257.7030, 41.32649
258.1851, 42.42187
258.6672, 43.51118
259.1493, 44.72207
259.6314, 46.09320
260.1136, 47.63676
260.5957, 49.42189
261.0778, 51.39257
261.5599, 53.73954
262.0420, 56.73901
262.5241, 60.10056
263.0063, 64.46169
263.4884, 69.90086
263.9705, 76.52284
264.4526, 85.05122
264.9347, 94.66273
265.4168, 107.6395
265.8990, 126.3207
266.3811, 151.0606
266.8632, 181.1611
267.3453, 218.6796
267.8275, 262.5251
268.3096, 306.7289
268.7917, 358.4559
269.2738, 399.3259
269.7559, 408.4498
270.2380, 382.7762
270.7202, 340.3652
271.2023, 284.6239
271.6844, 218.7681
272.1665, 164.0786
272.6486, 127.2873
273.1307, 103.7986
273.6129, 87.71445
274.0950, 78.85528
274.5771, 73.73717
275.0592, 71.11722
275.5413, 70.64481
276.0234, 70.33110
276.5056, 69.88551
276.9877, 69.56173
277.4698, 69.34911
277.9519, 69.32064
278.4340, 69.83723
278.9161, 70.94460
279.3983, 72.72735
279.8804, 75.51830
280.3625, 79.02631
280.8446, 84.20763
281.3267, 91.00193
281.8088, 99.53730
282.2910, 110.2493
282.7731, 122.8773
283.2552, 137.8542
283.7373, 156.7525
284.2194, 180.2573
284.7015, 206.7384
285.1837, 237.9964
285.6658, 271.0185
286.1479, 302.4280
286.6300, 333.2297
287.1121, 358.8026
287.5942, 368.0540
288.0764, 358.3913
288.5585, 337.4188
289.0406, 301.9869
289.5227, 260.3161
290.0048, 220.1804
290.4869, 183.4144
290.9691, 150.9732
291.4512, 124.4728
291.9333, 104.6566
292.4154, 88.71258
292.8975, 77.34615
293.3796, 68.60878
293.8618, 61.52968
294.3439, 55.84847
294.8260, 51.28975
295.3081, 47.65263
295.7902, 45.08178
296.2723, 42.76922
296.7545, 40.54048
297.2366, 38.58923
297.7187, 37.14169
298.2008, 36.17723
298.6829, 35.39490
299.1650, 34.48574
299.6472, 33.41786
300.1293, 32.50389
300.6114, 31.90570
301.0935, 31.35036
301.5756, 30.65745
302.0577, 29.88707
302.5399, 29.25372
303.0220, 29.03087
303.5041, 29.18816
303.9862, 28.98949
304.4683, 27.99361
304.9504, 27.14621
305.4326, 26.83174
305.9147, 26.89913
306.3968, 27.06535
306.8789, 27.18967
307.3610, 27.26330
307.8431, 27.23874
308.3253, 27.06294
308.8074, 26.86559
309.2895, 26.59128
309.7716, 26.34921
310.2537, 26.25493
310.7358, 26.35118
311.2180, 26.65119
311.7001, 27.22108
312.1822, 28.22301
312.6643, 29.14957
313.1464, 29.85781
313.6285, 30.49078
314.1107, 31.16418
314.5928, 31.90913
315.0749, 32.68204
315.5570, 33.44704
316.0392, 34.24725
316.5213, 34.87461
317.0034, 35.18428
317.4855, 35.41457
317.9676, 35.64053
318.4497, 35.89399
318.9319, 36.22544
319.4140, 36.67422
319.8961, 37.23643
320.3782, 37.94424
320.8603, 38.90412
321.3424, 39.92086
321.8246, 40.80478
322.3067, 41.67354
322.7888, 42.84606
323.2709, 44.64253
323.7530, 46.95439
324.2351, 48.87559
324.7173, 49.92830
325.1994, 51.27398
325.6815, 53.06215
326.1636, 55.38456
326.6457, 58.30894
327.1278, 61.80498
327.6100, 66.05057
328.0921, 71.44821
328.5742, 77.86290
329.0563, 85.90359
329.5384, 95.33158
330.0205, 106.4086
330.5027, 119.8256
330.9848, 135.8191
331.4669, 152.8978
331.9490, 170.0688
332.4311, 188.4863
332.9132, 201.8750
333.3954, 210.0568
333.8775, 212.1019
334.3596, 205.7603
334.8417, 191.5614
335.3238, 173.2074
335.8059, 152.5901
336.2881, 129.5907
336.7702, 109.6471
337.2523, 93.31696
337.7344, 79.97666
338.2165, 69.64406
338.6986, 61.84571
339.1808, 55.48784
339.6629, 50.03474
340.1450, 45.49257
340.6271, 41.93175
341.1092, 39.71992
341.5913, 37.83648
342.0735, 35.83588
342.5556, 33.90736
343.0377, 32.31992
343.5198, 31.22154
344.0019, 30.35319
344.4840, 29.24505
344.9662, 27.76824
345.4483, 26.58573
345.9304, 26.10538
346.4125, 25.88647
346.8946, 25.68436
347.3767, 25.45545
347.8589, 25.20136
348.3410, 24.89935
348.8231, 24.55101
349.3052, 24.27703
349.7873, 24.16486
350.2694, 24.04901
350.7516, 23.75555
351.2337, 23.33867
351.7158, 23.03495
352.1979, 23.07032
352.6800, 23.33279
353.1621, 23.43590
353.6443, 23.30512
354.1264, 23.17158
354.6085, 23.06361
355.0906, 23.05747
355.5727, 23.32414
356.0548, 24.03555
356.5370, 24.90400
357.0191, 25.47356
357.5012, 25.69526
357.9833, 26.13700
358.4654, 27.26187
358.9475, 28.59533
359.4297, 29.65145
359.9118, 30.43352
360.3939, 30.74061
360.8760, 30.31654
361.3581, 29.24999
361.8402, 27.92981
362.3224, 26.30968
362.8045, 24.67963
363.2866, 23.31256
363.7687, 22.19229
364.2508, 21.24829
364.7329, 20.45106
365.2151, 19.80950
365.6972, 19.36667
366.1793, 19.14471
366.6614, 18.99472
367.1436, 18.77038
367.6257, 18.53188
368.1078, 18.46813
368.5899, 18.79174
369.0720, 19.14230
369.5541, 19.16038
370.0363, 18.90177
370.5184, 18.76139
371.0005, 18.99950
371.4826, 19.39791
371.9647, 19.44173
372.4468, 18.99031
372.9290, 18.58568
373.4111, 18.41610
373.8932, 18.43854
374.3753, 18.65206
374.8574, 19.09209
375.3395, 19.49187
375.8217, 19.42480
376.3038, 18.80870
376.7859, 18.48670
377.2680, 18.71831
377.7501, 19.15293
378.2322, 19.56059
378.7144, 19.90341
379.1965, 20.11998
379.6786, 20.12309
380.1607, 19.94721
380.6428, 19.98425
381.1249, 20.41052
381.6071, 20.82070
382.0892, 21.01958
382.5713, 21.10895
383.0534, 21.28109
383.5355, 21.61963
384.0176, 22.08477
384.4998, 22.60274
384.9819, 23.30358
385.4640, 23.83645
385.9461, 23.94947
386.4282, 24.04199
386.9103, 24.55531
387.3925, 25.49549
387.8746, 26.43562
388.3567, 26.88235
388.8388, 26.73352
389.3209, 26.83137
389.8030, 27.26511
390.2852, 27.81051
390.7673, 28.37481
391.2494, 28.98661
391.7315, 29.71831
392.2136, 30.61202
392.6957, 31.65247
393.1779, 32.76925
393.6600, 34.00881
394.1421, 35.26707
394.6242, 36.33366
395.1063, 37.53141
395.5884, 39.18129
396.0706, 41.35057
396.5527, 43.78357
397.0348, 46.07613
397.5169, 48.00393
397.9990, 50.64160
398.4811, 54.59743
398.9633, 58.70914
399.4454, 62.30242
399.9275, 65.65493
400.4096, 69.61300
400.8917, 74.86160
401.3738, 81.08826
401.8560, 87.00742
402.3381, 92.72622
402.8202, 97.87737
403.3023, 103.2470
403.7844, 107.6933
404.2665, 110.0430
404.7487, 109.9456
405.2308, 107.8084
405.7129, 103.8934
406.1950, 98.13005
406.6771, 91.44128
407.1592, 83.25717
407.6414, 74.94463
408.1235, 67.30269
408.6056, 60.35972
409.0877, 54.09119
409.5698, 48.48329
410.0519, 43.56912
410.5341, 39.48020
411.0162, 36.34661
411.4983, 33.60921
411.9804, 31.00007
412.4625, 28.57403
412.9446, 26.46823
413.4268, 24.71871
413.9089, 23.27102
414.3910, 22.14187
414.8731, 21.30334
415.3553, 20.64825
415.8374, 20.19799
416.3195, 19.82623
416.8016, 19.32950
417.2837, 18.69971
417.7658, 18.12352
418.2480, 17.66333
418.7301, 17.27591
419.2122, 16.92013
419.6943, 16.58959
420.1764, 16.26472
420.6585, 15.92140
421.1407, 15.56835
421.6228, 15.29517
422.1049, 15.06135
422.5870, 14.93731
423.0691, 15.08099
423.5512, 15.33250
424.0334, 15.36460
424.5155, 15.03772
424.9976, 14.56416
425.4797, 14.35161
425.9618, 14.62864
426.4439, 14.71223
426.9261, 14.42685
427.4082, 14.09155
427.8903, 13.93463
428.3724, 13.95553
428.8545, 14.00995
429.3366, 13.96928
429.8188, 13.84359
430.3009, 13.85566
430.7830, 14.21428
431.2651, 14.48453
431.7472, 14.52674
432.2293, 14.47092
432.7115, 14.45065
433.1936, 14.51856
433.6757, 14.68619
434.1578, 15.01005
434.6399, 15.56961
435.1220, 15.99967
435.6042, 16.14879
436.0863, 16.26297
436.5684, 16.42223
437.0505, 16.64337
437.5326, 16.93400
438.0147, 17.27540
438.4969, 17.69594
438.9790, 18.31047
439.4611, 19.16287
439.9432, 20.09862
440.4253, 21.10779
440.9074, 22.14868
441.3896, 23.22003
441.8717, 24.35577
442.3538, 25.34765
442.8359, 25.89924
443.3180, 26.09789
443.8001, 26.42844
444.2823, 26.98023
444.7644, 27.69754
445.2465, 28.51610
445.7286, 29.44309
446.2107, 30.55224
446.6928, 32.06776
447.1750, 33.63902
447.6571, 34.67207
448.1392, 35.26367
448.6213, 36.38777
449.1034, 38.62805
449.5855, 41.67656
450.0677, 44.67354
450.5498, 47.44703
451.0319, 50.51188
451.5140, 53.66590
451.9961, 57.32954
452.4782, 61.97784
452.9604, 67.71156
453.4425, 74.37884
453.9246, 81.88361
454.4067, 90.27647
454.8888, 99.04394
455.3709, 108.4577
455.8531, 117.8252
456.3352, 127.4242
456.8173, 136.6782
457.2994, 145.1954
457.7815, 152.7752
458.2636, 158.5198
458.7458, 160.4380
459.2279, 157.3982
459.7100, 152.6356
460.1921, 146.0555
460.6742, 138.2044
461.1563, 128.8922
461.6385, 118.4649
462.1206, 107.8996
462.6027, 97.74894
463.0848, 88.10646
463.5669, 79.46800
464.0491, 72.01357
464.5312, 65.34364
465.0133, 59.35107
465.4954, 54.02795
465.9775, 49.40382
466.4597, 45.47085
466.9418, 42.10894
467.4239, 39.23653
467.9060, 36.83687
468.3881, 34.79327
468.8702, 33.18012
469.3524, 31.73148
469.8345, 30.16184
470.3166, 28.55981
470.7987, 27.25051
471.2808, 26.46812
471.7629, 25.89058
472.2451, 25.29890
472.7272, 24.68417
473.2093, 23.97094
473.6914, 23.07705
474.1735, 22.16127
474.6556, 21.56235
475.1378, 21.36444
475.6199, 21.13737
476.1020, 20.86203
476.5841, 20.50077
477.0662, 19.91125
477.5483, 19.15308
478.0305, 18.54486
478.5126, 18.35452
478.9947, 18.52636
479.4768, 18.57734
479.9589, 18.53171
480.4410, 18.32897
480.9232, 17.75746
481.4053, 17.12963
481.8874, 16.80660
482.3695, 16.85400
482.8516, 17.01715
483.3337, 16.97616
483.8159, 16.69658
484.2980, 16.50699
484.7801, 16.45651
485.2622, 16.44768
485.7443, 16.43313
486.2264, 16.43980
486.7086, 16.53154
487.1907, 16.75609
487.6728, 16.99884
488.1549, 17.08117
488.6370, 16.99299
489.1191, 16.89830
489.6013, 16.79430
490.0834, 16.74171
490.5655, 16.84782
491.0476, 17.07788
491.5297, 17.18859
492.0118, 17.00674
492.4940, 16.69561
492.9761, 16.45410
493.4582, 16.28396
493.9403, 16.12532
494.4224, 15.94310
494.9045, 15.75707
495.3867, 15.63407
495.8688, 15.63151
496.3509, 15.54076
496.8330, 15.22036
497.3151, 14.84073
497.7972, 14.60391
498.2794, 14.52011
498.7615, 14.44270
499.2436, 14.23880
499.7257, 13.92020
500.2078, 13.69032
500.6899, 13.54027
501.1721, 13.49144
501.6542, 13.63838
502.1363, 13.84410
502.6184, 13.96710
503.1005, 13.96948
503.5826, 13.90461
504.0648, 13.83671
504.5469, 13.76907
505.0290, 13.65777
505.5111, 13.38391
505.9932, 13.22040
506.4753, 13.35485
506.9575, 13.64019
507.4396, 13.84600
507.9217, 13.88531
508.4038, 13.82908
508.8859, 13.72808
509.3680, 13.58769
509.8502, 13.51332
510.3323, 13.54791
510.8144, 13.62266
511.2965, 13.68924
511.7786, 13.74393
512.2607, 13.75536
512.7429, 13.59691
513.2250, 13.48600
513.7071, 13.65648
514.1892, 14.05425
514.6713, 14.42172
515.1534, 14.62846
515.6356, 14.79923
516.1177, 15.19298
516.5998, 15.96911
517.0819, 16.62378
517.5640, 16.97204
518.0461, 17.33629
518.5283, 18.03244
519.0104, 18.96268
519.4925, 19.78028
519.9746, 20.26400
520.4567, 20.44715
520.9388, 20.44256
521.4210, 20.19420
521.9031, 19.85128
522.3852, 19.52652
522.8673, 19.05548
523.3494, 18.20081
523.8315, 17.03273
524.3137, 15.94754
524.7958, 15.27775
525.2779, 14.93254
525.7600, 14.61306
526.2421, 14.31430
526.7242, 14.06059
527.2064, 13.84906
527.6885, 13.70114
528.1706, 13.68847
528.6527, 13.86270
529.1348, 13.90968
529.6169, 13.51840
530.0991, 12.94991
530.5812, 12.64105
531.0633, 12.64340
531.5454, 12.76366
532.0275, 12.88189
532.5096, 12.99621
532.9918, 13.09021
533.4739, 13.16872
533.9560, 13.22423
534.4381, 13.23814
534.9202, 13.23728
535.4023, 13.24059
535.8845, 13.25685
536.3666, 13.30784
536.8487, 13.43274
537.3308, 13.63131
537.8129, 13.69135
538.2951, 13.42708
538.7772, 13.26839
539.2593, 13.37633
539.7415, 13.59997
540.2236, 13.77098
540.7057, 13.84716
541.1878, 13.92876
541.6699, 14.10690
542.1520, 14.37679
542.6342, 14.72482
543.1163, 15.18289
543.5984, 15.63661
544.0805, 15.94243
544.5626, 16.20518
545.0447, 16.63728
545.5269, 17.33516
546.0090, 18.07275
546.4911, 18.75475
546.9732, 19.38096
547.4553, 19.91674
547.9374, 20.35878
548.4196, 20.83136
548.9017, 21.50539
549.3838, 22.39527
549.8659, 22.87863
550.3480, 22.88584
550.8301, 22.65283
551.3123, 22.11399
551.7944, 21.42835
552.2765, 20.75700
552.7586, 20.15390
553.2407, 19.60474
553.7228, 19.05475
554.2050, 18.48629
554.6871, 18.26538
555.1692, 18.66449
555.6513, 19.03255
556.1334, 19.04250
556.6155, 18.92513
557.0977, 19.01104
557.5798, 19.41210
558.0619, 19.82920
558.5440, 19.94021
559.0261, 19.83584
559.5082, 19.92447
559.9904, 20.33747
560.4725, 20.59586
560.9546, 20.28068
561.4367, 19.47536
561.9188, 18.71997
562.4009, 17.98408
562.8831, 17.34587
563.3652, 16.90608
563.8473, 16.54964
564.3294, 16.10374
564.8115, 15.53811
565.2936, 14.96051
565.7758, 14.48524
566.2579, 14.11109
566.7400, 13.67992
567.2221, 12.94909
567.7042, 12.46460
568.1863, 12.56604
568.6685, 12.81951
569.1506, 12.74475
569.6327, 12.25944
570.1148, 11.71055
570.5969, 11.43066
571.0790, 11.38514
571.5612, 11.36888
572.0433, 11.38579
572.5254, 11.41545
573.0075, 11.49690
573.4896, 11.56137
573.9717, 11.46635
574.4539, 11.12078
574.9360, 10.90730
575.4181, 11.21516
575.9002, 11.66718
576.3823, 11.65991
576.8644, 11.16356
577.3466, 10.65619
577.8287, 10.47209
578.3108, 10.55791
578.7929, 10.65209
579.2750, 10.82160
579.7571, 10.90886
580.2393, 10.85233
580.7214, 10.74981
581.2035, 10.66742
581.6856, 10.61444
582.1677, 10.56290
582.6498, 10.47134
583.1320, 10.38694
583.6141, 10.52814
584.0962, 11.01612
584.5783, 11.31062
585.0604, 11.09837
585.5425, 10.76048
586.0247, 10.62181
586.5068, 10.67881
586.9889, 10.74198
587.4710, 10.72724
587.9531, 10.67721
588.4352, 10.63404
588.9174, 10.59929
589.3995, 10.57051
589.8816, 10.54417
590.3637, 10.53218
590.8458, 10.56306
591.3279, 10.67797
