##NAMES=Tourmaline
##RRUFFID=R080010
##LOCALITY=east Africa
##OWNER=RRUFF
##SOURCE=www.multicolour.com
##DESCRIPTION=Green gemmy fragments, consistent with dravite
##STATUS=The identification of this mineral has been confirmed only by X-ray diffraction
##URL=rruff.info/R080010
118.2987, 9945.027
118.7808, 10014.54
119.2629, 10054.47
119.7450, 10062.03
120.2271, 10071.15
120.7092, 10115.66
121.1914, 10186.11
121.6735, 10256.75
122.1556, 10342.95
122.6377, 10416.22
123.1198, 10409.46
123.6019, 10284.71
124.0841, 10131.89
124.5662, 10080.08
125.0483, 10125.87
125.5304, 10210.49
126.0125, 10302.94
126.4946, 10399.50
126.9768, 10485.92
127.4589, 10556.07
127.9410, 10613.23
128.4231, 10663.71
128.9052, 10702.54
129.3873, 10753.68
129.8695, 10854.66
130.3516, 11007.74
130.8337, 11164.45
131.3158, 11310.77
131.7979, 11446.52
132.2800, 11549.62
132.7622, 11608.90
133.2443, 11644.06
133.7264, 11705.31
134.2085, 11800.77
134.6906, 11895.88
135.1727, 11955.22
135.6549, 11955.41
136.1370, 12012.87
136.6191, 12158.57
137.1012, 12384.88
137.5833, 12583.22
138.0654, 12742.05
138.5476, 12884.25
139.0297, 13032.19
139.5118, 13196.93
139.9939, 13351.08
140.4760, 13499.09
140.9581, 13656.07
141.4403, 13740.20
141.9224, 13687.12
142.4045, 13575.77
142.8866, 13577.16
143.3687, 13771.70
143.8508, 13999.10
144.3330, 14193.00
144.8151, 14366.51
145.2972, 14493.90
145.7793, 14533.78
146.2614, 14502.98
146.7435, 14545.61
147.2257, 14744.38
147.7078, 14970.62
148.1899, 15136.49
148.6720, 15222.07
149.1541, 15264.80
149.6362, 15244.34
150.1184, 15145.13
150.6005, 15100.90
151.0826, 15118.96
151.5647, 15080.93
152.0468, 14978.62
152.5289, 14765.75
153.0111, 14530.78
153.4932, 14296.22
153.9753, 14052.64
154.4574, 13835.72
154.9395, 13661.25
155.4216, 13518.14
155.9038, 13381.71
156.3859, 13248.97
156.8680, 13118.84
157.3501, 12992.50
157.8322, 12868.49
158.3143, 12751.43
158.7965, 12632.49
159.2786, 12516.03
159.7607, 12433.70
160.2428, 12435.81
160.7249, 12466.76
161.2070, 12469.66
161.6892, 12428.08
162.1713, 12351.51
162.6534, 12220.97
163.1355, 12027.37
163.6176, 11871.63
164.0997, 11848.42
164.5819, 11904.44
165.0640, 11945.77
165.5461, 11925.13
166.0282, 11871.77
166.5103, 11804.81
166.9924, 11714.80
167.4746, 11641.73
167.9567, 11635.04
168.4388, 11677.83
168.9209, 11710.17
169.4030, 11684.91
169.8851, 11629.69
170.3673, 11583.35
170.8494, 11563.54
171.3315, 11547.40
171.8136, 11500.67
172.2957, 11425.40
172.7778, 11358.62
173.2600, 11343.54
173.7421, 11358.97
174.2242, 11359.22
174.7063, 11305.76
175.1884, 11232.50
175.6706, 11202.19
176.1527, 11219.62
176.6348, 11244.65
177.1169, 11216.74
177.5990, 11152.96
178.0811, 11123.73
178.5633, 11211.66
179.0454, 11361.21
179.5275, 11409.69
180.0096, 11319.85
180.4917, 11190.43
180.9738, 11176.31
181.4560, 11269.93
181.9381, 11372.89
182.4202, 11413.63
182.9023, 11405.58
183.3844, 11405.77
183.8665, 11420.49
184.3487, 11451.24
184.8308, 11511.32
185.3129, 11601.81
185.7950, 11688.62
186.2771, 11719.50
186.7592, 11703.02
187.2414, 11735.86
187.7235, 11875.16
188.2056, 12083.17
188.6877, 12191.08
189.1698, 12177.91
189.6519, 12142.17
190.1341, 12214.02
190.6162, 12396.81
191.0983, 12567.47
191.5804, 12657.43
192.0625, 12672.91
192.5446, 12758.91
193.0268, 12932.23
193.5089, 13145.20
193.9910, 13323.52
194.4731, 13464.36
194.9552, 13591.17
195.4373, 13706.51
195.9195, 13807.21
196.4016, 13942.00
196.8837, 14119.76
197.3658, 14329.04
197.8479, 14551.37
198.3300, 14792.99
198.8122, 15026.19
199.2943, 15222.49
199.7764, 15373.10
200.2585, 15549.32
200.7406, 15762.20
201.2227, 16010.04
201.7049, 16279.84
202.1870, 16579.29
202.6691, 16886.15
203.1512, 17179.43
203.6333, 17455.61
204.1154, 17729.43
204.5976, 17994.47
205.0797, 18249.91
205.5618, 18560.19
206.0439, 18939.15
206.5260, 19354.33
207.0081, 19763.26
207.4903, 20158.89
207.9724, 20571.52
208.4545, 21019.01
208.9366, 21508.52
209.4187, 21984.86
209.9008, 22436.29
210.3830, 22878.68
210.8651, 23355.20
211.3472, 23895.65
211.8293, 24407.32
212.3114, 24856.84
212.7935, 25239.38
213.2757, 25581.56
213.7578, 25887.69
214.2399, 26154.30
214.7220, 26362.19
215.2041, 26513.74
215.6862, 26608.02
216.1684, 26649.92
216.6505, 26658.09
217.1326, 26567.16
217.6147, 26363.97
218.0968, 26055.36
218.5789, 25686.51
219.0611, 25224.83
219.5432, 24742.81
220.0253, 24281.54
220.5074, 23836.20
220.9895, 23429.60
221.4716, 23073.25
221.9538, 22765.47
222.4359, 22465.73
222.9180, 22172.53
223.4001, 21887.21
223.8822, 21608.98
224.3643, 21305.48
224.8465, 21066.11
225.3286, 20920.28
225.8107, 20877.63
226.2928, 20840.25
226.7749, 20810.03
227.2570, 20784.71
227.7392, 20759.38
228.2213, 20723.14
228.7034, 20708.37
229.1855, 20726.78
229.6676, 20784.65
230.1497, 20854.22
230.6319, 20937.46
231.1140, 21033.16
231.5961, 21140.94
232.0782, 21268.66
232.5603, 21395.16
233.0424, 21512.67
233.5246, 21614.23
234.0067, 21718.22
234.4888, 21811.88
234.9709, 21910.43
235.4530, 22060.29
235.9352, 22297.87
236.4173, 22532.02
236.8994, 22721.17
237.3815, 22846.71
237.8636, 22962.68
238.3457, 23071.68
238.8279, 23172.19
239.3100, 23253.42
239.7921, 23303.26
240.2742, 23350.80
240.7563, 23419.69
241.2384, 23545.05
241.7206, 23621.09
242.2027, 23636.09
242.6848, 23593.46
243.1669, 23511.60
243.6490, 23382.56
244.1311, 23224.79
244.6133, 23050.00
245.0954, 22853.41
245.5775, 22650.73
246.0596, 22456.99
246.5417, 22270.37
247.0238, 22016.10
247.5060, 21661.38
247.9881, 21275.61
248.4702, 20923.26
248.9523, 20627.17
249.4344, 20322.69
249.9165, 19995.48
250.3987, 19646.01
250.8808, 19287.18
251.3629, 18897.01
251.8450, 18515.88
252.3271, 18200.06
252.8092, 17975.44
253.2914, 17752.64
253.7735, 17508.81
254.2556, 17241.86
254.7377, 16982.69
255.2198, 16725.63
255.7020, 16485.78
256.1841, 16286.45
256.6662, 16137.53
257.1483, 16011.36
257.6304, 15908.45
258.1125, 15834.85
258.5946, 15737.23
259.0768, 15601.22
259.5589, 15453.96
260.0410, 15340.55
260.5231, 15275.52
261.0052, 15209.25
261.4873, 15117.56
261.9695, 14987.46
262.4516, 14892.54
262.9337, 14839.08
263.4158, 14813.57
263.8979, 14791.05
264.3800, 14768.66
264.8622, 14756.66
265.3443, 14765.29
265.8264, 14802.18
266.3085, 14818.69
266.7906, 14811.79
267.2727, 14786.05
267.7549, 14746.42
268.2370, 14686.32
268.7191, 14634.60
269.2012, 14614.37
269.6833, 14633.48
270.1655, 14622.78
270.6476, 14573.29
271.1297, 14497.24
271.6118, 14423.08
272.0939, 14350.64
272.5760, 14281.88
273.0582, 14213.12
273.5403, 14143.35
274.0224, 14105.71
274.5045, 14123.19
274.9866, 14158.48
275.4688, 14103.98
275.9509, 13946.85
276.4330, 13776.94
276.9151, 13648.24
277.3972, 13560.60
277.8793, 13501.35
278.3615, 13483.09
278.8436, 13478.56
279.3257, 13403.39
279.8078, 13248.69
280.2899, 13101.97
280.7720, 13037.48
281.2542, 13048.76
281.7363, 13051.95
282.2184, 13037.78
282.7005, 13003.80
283.1826, 12930.37
283.6647, 12814.91
284.1469, 12709.41
284.6290, 12672.15
285.1111, 12689.85
285.5932, 12680.05
286.0753, 12620.74
286.5574, 12531.00
287.0396, 12450.14
287.5217, 12378.64
288.0038, 12312.03
288.4859, 12247.93
288.9680, 12186.02
289.4501, 12123.08
289.9323, 12045.79
290.4144, 11977.93
290.8965, 11980.39
291.3786, 12049.77
291.8607, 12119.31
292.3428, 12126.07
292.8250, 12089.88
293.3071, 12063.67
293.7892, 12059.26
294.2713, 12073.26
294.7534, 12106.85
295.2355, 12158.48
295.7177, 12212.69
296.1998, 12263.95
296.6819, 12308.35
297.1640, 12335.43
297.6461, 12326.42
298.1282, 12314.34
298.6104, 12348.27
299.0925, 12423.57
299.5746, 12494.65
300.0567, 12517.16
300.5388, 12517.05
301.0209, 12536.35
301.5031, 12610.74
301.9852, 12686.91
302.4673, 12701.62
302.9494, 12663.58
303.4315, 12637.97
303.9136, 12683.72
304.3958, 12760.21
304.8779, 12818.81
305.3600, 12836.10
305.8421, 12837.20
306.3242, 12819.52
306.8063, 12789.86
307.2885, 12797.82
307.7706, 12902.19
308.2527, 13044.93
308.7348, 13167.28
309.2169, 13228.74
309.6990, 13287.13
310.1812, 13376.53
310.6633, 13491.62
311.1454, 13598.59
311.6275, 13691.85
312.1096, 13766.55
312.5917, 13818.87
313.0739, 13834.09
313.5560, 13841.21
314.0381, 13869.18
314.5202, 13908.43
315.0023, 13891.75
315.4844, 13726.80
315.9666, 13540.66
316.4487, 13421.46
316.9308, 13469.58
317.4129, 13498.82
317.8950, 13455.36
318.3771, 13350.84
318.8593, 13268.47
319.3414, 13244.25
319.8235, 13231.02
320.3056, 13201.03
320.7877, 13113.65
321.2698, 13051.30
321.7520, 13020.13
322.2341, 13019.71
322.7162, 13048.32
323.1983, 13132.60
323.6804, 13225.61
324.1625, 13303.35
324.6447, 13349.37
325.1268, 13401.89
325.6089, 13464.80
326.0910, 13535.55
326.5731, 13606.05
327.0552, 13680.25
327.5374, 13749.06
328.0195, 13806.78
328.5016, 13845.47
328.9837, 13886.62
329.4658, 13920.99
329.9479, 13959.48
330.4301, 14047.74
330.9122, 14211.97
331.3943, 14379.49
331.8764, 14509.16
332.3585, 14585.76
332.8406, 14684.08
333.3228, 14821.75
333.8049, 14977.17
334.2870, 15075.31
334.7691, 15092.47
335.2512, 15131.32
335.7333, 15261.25
336.2155, 15489.81
336.6976, 15703.51
337.1797, 15901.79
337.6618, 16070.48
338.1439, 16163.85
338.6260, 16175.91
339.1082, 16178.08
339.5903, 16199.32
340.0724, 16239.97
340.5545, 16309.55
341.0366, 16410.65
341.5187, 16533.89
342.0009, 16679.08
342.4830, 16841.88
342.9651, 16979.58
343.4472, 17060.95
343.9293, 17098.74
344.4114, 17114.09
344.8936, 17099.82
345.3757, 17103.21
345.8578, 17198.75
346.3399, 17365.89
346.8220, 17524.71
347.3041, 17621.99
347.7863, 17694.87
348.2684, 17791.63
348.7505, 17913.97
349.2326, 18063.60
349.7147, 18247.08
350.1968, 18460.15
350.6790, 18687.27
351.1611, 18938.25
351.6432, 19191.99
352.1253, 19412.02
352.6074, 19594.59
353.0895, 19817.95
353.5717, 20145.95
354.0538, 20541.56
354.5359, 20959.58
355.0180, 21394.87
355.5001, 21832.97
355.9822, 22261.16
356.4644, 22679.88
356.9465, 23111.08
357.4286, 23555.47
357.9107, 24020.60
358.3928, 24515.36
358.8749, 25067.42
359.3571, 25617.89
359.8392, 26133.36
360.3213, 26622.34
360.8034, 27155.03
361.2855, 27778.61
361.7676, 28433.92
362.2498, 29082.85
362.7319, 29683.61
363.2140, 30320.80
363.6961, 31030.20
364.1782, 31791.84
364.6603, 32526.08
365.1425, 33249.47
365.6246, 33929.86
366.1067, 34549.82
366.5888, 35061.50
367.0709, 35590.25
367.5530, 36183.34
368.0352, 36795.98
368.5173, 37286.14
368.9994, 37672.25
369.4815, 37913.34
369.9636, 37982.21
370.4457, 37863.72
370.9279, 37630.47
371.4100, 37278.21
371.8921, 36822.40
372.3742, 36306.98
372.8563, 35735.31
373.3384, 35073.49
373.8206, 34283.99
374.3027, 33359.74
374.7848, 32468.91
375.2669, 31621.01
375.7490, 30784.04
376.2311, 29879.79
376.7133, 28921.82
377.1954, 28008.43
377.6775, 27212.45
378.1596, 26494.92
378.6417, 25744.38
379.1238, 24954.65
379.6060, 24192.51
380.0881, 23514.78
380.5702, 22913.09
381.0523, 22356.54
381.5344, 21699.06
382.0165, 21480.59
382.4987, 21203.77
382.9808, 20871.82
383.4629, 20319.46
383.9450, 20051.72
384.4271, 19669.93
384.9092, 19283.44
385.3914, 19055.71
385.8735, 18535.39
386.3556, 18305.22
386.8377, 17959.21
387.3198, 17666.22
387.8019, 17258.44
388.2841, 17071.02
388.7662, 16904.14
389.2483, 16772.69
389.7304, 16644.46
390.2125, 16509.15
390.6946, 16368.87
391.1768, 16231.72
391.6589, 16088.50
392.1410, 15954.20
392.6231, 15830.13
393.1053, 15698.83
393.5874, 15615.49
394.0695, 15637.51
394.5516, 15698.88
395.0337, 15688.44
395.5158, 15500.86
395.9980, 15360.96
396.4801, 15349.23
396.9622, 15505.85
397.4443, 15567.03
397.9264, 15484.29
398.4085, 15349.31
398.8907, 15270.75
399.3728, 15278.27
399.8549, 15264.35
400.3370, 15191.32
400.8191, 15069.49
401.3012, 15015.53
401.7834, 15048.13
402.2655, 15096.34
402.7476, 15104.98
403.2297, 15074.00
403.7118, 15003.03
404.1939, 14871.72
404.6761, 14718.81
405.1582, 14654.50
405.6403, 14678.23
406.1224, 14708.15
406.6045, 14687.17
407.0866, 14627.22
407.5688, 14563.38
408.0509, 14502.35
408.5330, 14433.24
409.0151, 14335.50
409.4972, 14215.14
409.9793, 14095.88
410.4615, 13991.63
410.9436, 13893.57
411.4257, 13789.83
411.9078, 13677.21
412.3899, 13568.22
412.8720, 13462.95
413.3542, 13367.56
413.8363, 13289.44
414.3184, 13265.05
414.8005, 13231.41
415.2826, 13136.54
415.7647, 12977.94
416.2469, 12859.04
416.7290, 12843.96
417.2111, 12867.35
417.6932, 12874.29
418.1753, 12864.47
418.6574, 12825.43
419.1396, 12728.80
419.6217, 12587.63
420.1038, 12494.58
420.5859, 12495.73
421.0680, 12509.21
421.5501, 12496.46
422.0323, 12439.97
422.5144, 12388.01
422.9965, 12337.52
423.4786, 12293.09
423.9607, 12266.48
424.4428, 12263.22
424.9250, 12265.27
425.4071, 12272.20
425.8892, 12287.13
426.3713, 12264.48
426.8534, 12191.18
427.3355, 12110.32
427.8177, 12092.76
428.2998, 12138.96
428.7819, 12150.44
429.2640, 12072.70
429.7461, 11944.01
430.2282, 11878.88
430.7104, 11877.80
431.1925, 11907.61
431.6746, 11959.80
432.1567, 12020.49
432.6388, 12051.28
433.1209, 12024.83
433.6031, 11991.95
434.0852, 12029.29
434.5673, 12116.36
435.0494, 12174.49
435.5315, 12124.22
436.0136, 12041.59
436.4958, 12002.00
436.9779, 12031.94
437.4600, 12058.28
437.9421, 12034.70
438.4242, 11984.70
438.9063, 11947.22
439.3885, 11942.50
439.8706, 11945.20
440.3527, 11950.84
440.8348, 11961.24
441.3169, 11954.84
441.7990, 11902.33
442.2812, 11844.83
442.7633, 11818.55
443.2454, 11830.67
443.7275, 11865.68
444.2096, 11947.52
444.6917, 12060.58
445.1739, 12087.04
445.6560, 11974.17
446.1381, 11858.93
446.6202, 11832.07
447.1023, 11920.92
447.5844, 11965.76
448.0666, 11951.08
448.5487, 11899.62
449.0308, 11848.44
449.5129, 11797.76
449.9950, 11753.49
450.4771, 11722.01
450.9593, 11700.64
451.4414, 11671.69
451.9235, 11632.91
452.4056, 11604.20
452.8877, 11640.08
453.3698, 11661.69
453.8520, 11670.57
454.3341, 11667.62
454.8162, 11604.90
455.2983, 11628.95
455.7804, 11624.09
456.2625, 11622.06
456.7447, 11670.29
457.2268, 11637.80
457.7089, 11628.47
458.1910, 11652.56
458.6731, 11670.71
459.1552, 11658.05
459.6374, 11631.51
460.1195, 11624.62
460.6016, 11686.36
461.0837, 11734.75
461.5658, 11730.17
462.0479, 11653.60
462.5301, 11600.55
463.0122, 11582.59
463.4943, 11586.83
463.9764, 11603.13
464.4585, 11639.37
464.9406, 11674.45
465.4228, 11711.34
465.9049, 11745.56
466.3870, 11738.95
466.8691, 11667.24
467.3512, 11613.75
467.8333, 11648.62
468.3155, 11779.87
468.7976, 11863.13
469.2797, 11879.45
469.7618, 11862.08
470.2439, 11863.61
470.7260, 11882.76
471.2082, 11903.14
471.6903, 11913.84
472.1724, 11921.68
472.6545, 11942.82
473.1366, 11977.95
473.6187, 12015.87
474.1009, 12043.65
474.5830, 12068.73
475.0651, 12104.88
475.5472, 12176.56
476.0293, 12236.54
476.5114, 12231.64
476.9936, 12181.68
477.4757, 12161.15
477.9578, 12231.87
478.4399, 12319.35
478.9220, 12378.25
479.4041, 12388.12
479.8863, 12405.37
480.3684, 12447.89
480.8505, 12501.08
481.3326, 12543.56
481.8147, 12564.90
482.2968, 12586.90
482.7790, 12611.12
483.2611, 12637.88
483.7432, 12677.39
484.2253, 12734.50
484.7074, 12797.63
485.1895, 12862.29
485.6717, 12932.77
486.1538, 12976.84
486.6359, 12979.37
487.1180, 12967.95
487.6001, 13011.58
488.0822, 13109.51
488.5644, 13191.69
489.0465, 13199.29
489.5286, 13163.81
490.0107, 13171.34
490.4928, 13226.21
490.9749, 13301.76
491.4571, 13398.52
491.9392, 13495.46
492.4213, 13555.05
492.9034, 13524.62
493.3855, 13490.82
493.8676, 13524.52
494.3498, 13611.89
494.8319, 13696.49
495.3140, 13759.32
495.7961, 13806.85
496.2782, 13837.26
496.7603, 13789.71
497.2425, 13840.02
497.7246, 13873.40
498.2067, 13890.77
498.6888, 13844.19
499.1709, 13880.19
499.6530, 13883.10
500.1352, 13884.65
500.6173, 13932.27
501.0994, 13894.99
501.5815, 13941.89
502.0636, 13955.18
502.5457, 13983.85
503.0279, 13979.23
503.5100, 13984.88
503.9921, 14023.85
504.4742, 13921.64
504.9563, 13914.21
505.4384, 13978.73
505.9206, 14022.50
506.4027, 13988.42
506.8848, 13904.21
507.3669, 13811.82
507.8490, 13711.54
508.3311, 13629.92
508.8133, 13609.02
509.2954, 13614.10
509.7775, 13596.61
510.2596, 13528.84
510.7417, 13453.92
511.2238, 13410.63
511.7060, 13381.14
512.1881, 13312.14
512.6702, 13146.02
513.1523, 12971.07
513.6345, 12823.63
514.1166, 12709.48
514.5987, 12620.25
515.0808, 12583.11
515.5629, 12553.15
516.0450, 12479.02
516.5272, 12316.92
517.0093, 12204.07
517.4914, 12179.55
517.9735, 12218.85
518.4556, 12212.38
518.9377, 12151.37
519.4199, 12081.54
519.9020, 12032.51
520.3841, 12000.83
520.8662, 11965.07
521.3483, 11925.67
521.8304, 11873.23
522.3126, 11766.81
522.7947, 11633.76
523.2768, 11558.70
523.7589, 11622.65
524.2410, 11718.35
524.7231, 11724.44
525.2053, 11657.00
525.6874, 11613.45
526.1695, 11668.35
526.6516, 11751.94
527.1337, 11815.01
527.6158, 11847.49
528.0980, 11864.16
528.5801, 11839.79
529.0622, 11809.49
529.5443, 11826.92
530.0264, 11983.45
530.5085, 12080.49
530.9907, 12055.43
531.4728, 11919.75
531.9549, 11856.54
532.4370, 11888.66
532.9191, 11951.12
533.4012, 12013.82
533.8834, 12079.50
534.3655, 12100.30
534.8476, 12065.04
535.3297, 12002.72
535.8118, 11941.72
536.2939, 11886.31
536.7761, 11864.54
537.2582, 11915.45
537.7403, 11992.03
538.2224, 12022.80
538.7045, 12009.84
539.1866, 11976.07
539.6688, 11920.09
540.1509, 11858.65
540.6330, 11810.37
541.1151, 11785.59
541.5972, 11756.99
542.0793, 11709.80
542.5615, 11651.95
543.0436, 11596.73
543.5257, 11545.61
544.0078, 11499.14
544.4899, 11460.58
544.9720, 11429.83
545.4542, 11394.12
545.9363, 11358.00
546.4184, 11312.13
546.9005, 11240.38
547.3826, 11129.37
547.8647, 11073.91
548.3469, 11100.49
548.8290, 11148.08
549.3111, 11103.82
549.7932, 10974.83
550.2753, 10859.57
550.7574, 10809.23
551.2396, 10789.82
551.7217, 10721.58
552.2038, 10610.86
552.6859, 10531.02
553.1680, 10563.58
553.6501, 10642.38
554.1323, 10696.59
554.6144, 10713.38
555.0965, 10705.49
555.5786, 10667.96
556.0607, 10611.90
556.5428, 10554.79
557.0250, 10487.68
557.5071, 10433.42
557.9892, 10404.14
558.4713, 10397.30
558.9534, 10380.93
559.4355, 10345.58
559.9177, 10313.82
560.3998, 10302.72
560.8819, 10322.28
561.3640, 10314.33
561.8461, 10273.75
562.3282, 10214.98
562.8104, 10153.47
563.2925, 10089.59
563.7746, 10033.73
564.2567, 9985.989
564.7388, 9950.164
565.2209, 9937.467
565.7031, 9944.788
566.1852, 9954.429
566.6673, 9955.069
567.1494, 9952.259
567.6315, 9953.492
568.1136, 9961.940
568.5958, 9961.448
569.0779, 9926.322
569.5600, 9885.810
570.0421, 9871.312
570.5242, 9927.392
571.0063, 9965.860
571.4885, 9966.896
571.9706, 9939.622
572.4527, 9915.291
572.9348, 9885.163
573.4169, 9874.647
573.8990, 9907.704
574.3812, 9989.284
574.8633, 10007.13
575.3454, 9947.898
575.8275, 9873.485
576.3096, 9847.126
576.7917, 9862.099
577.2739, 9883.686
577.7560, 9911.326
578.2381, 9929.027
578.7202, 9893.263
579.2023, 9826.854
579.6844, 9796.462
580.1666, 9879.787
580.6487, 9977.610
581.1308, 10019.85
581.6129, 10003.44
582.0950, 9977.918
582.5771, 9939.767
583.0593, 9911.664
583.5414, 9910.018
584.0235, 9970.396
584.5056, 10007.30
584.9877, 10011.62
585.4698, 9997.504
585.9520, 9989.717
586.4341, 9994.307
586.9162, 9983.938
587.3983, 9940.769
587.8804, 9878.323
588.3625, 9862.469
588.8447, 9894.368
589.3268, 9936.092
589.8089, 9959.293
590.2910, 9972.982
590.7731, 10001.86
591.2552, 10051.89
591.7374, 10093.07
592.2195, 10077.28
592.7016, 10042.48
593.1837, 10040.85
593.6658, 10136.61
594.1479, 10220.35
594.6301, 10236.59
595.1122, 10205.83
595.5943, 10199.32
596.0764, 10261.64
596.5585, 10316.36
597.0406, 10339.81
597.5228, 10328.92
598.0049, 10308.03
598.4870, 10267.22
598.9691, 10234.33
599.4512, 10244.19
599.9333, 10299.17
600.4155, 10318.21
600.8976, 10281.50
601.3797, 10232.13
601.8618, 10243.13
602.3439, 10299.63
602.8260, 10346.22
603.3082, 10347.95
603.7903, 10334.52
604.2724, 10327.25
604.7545, 10327.86
605.2366, 10347.82
605.7188, 10416.50
606.2009, 10488.96
606.6830, 10536.43
607.1651, 10547.11
607.6472, 10554.48
608.1293, 10554.83
608.6115, 10557.46
609.0936, 10573.42
609.5757, 10613.01
610.0578, 10640.65
610.5399, 10650.09
611.0220, 10646.02
611.5042, 10629.41
611.9863, 10597.24
612.4684, 10600.48
612.9505, 10704.19
613.4326, 10854.25
613.9147, 10902.44
614.3969, 10850.51
614.8790, 10784.37
615.3611, 10747.17
615.8432, 10742.62
616.3253, 10782.56
616.8074, 10889.59
617.2896, 10984.11
617.7717, 11016.92
618.2538, 11020.91
