##NAMES=Tourmaline
##RRUFFID=R060123
##LOCALITY=San Bernardino County, California, USA
##OWNER=RRUFF
##SOURCE=University of Arizona Mineral Museum
##DESCRIPTION=Dark green prismatic crystals
##STATUS=The identification of this mineral has been confirmed only by single crystal X-ray diffraction.
##URL=rruff.info/R060123
91.40820, 347.8671
91.89032, 347.9766
92.37244, 347.9048
92.85455, 347.6924
93.33667, 347.5842
93.81879, 347.8458
94.30090, 348.3638
94.78302, 348.8275
95.26514, 349.2325
95.74725, 349.4881
96.22937, 349.3672
96.71149, 348.8598
97.19360, 348.1025
97.67572, 347.0494
98.15784, 345.7272
98.63995, 344.6708
99.12207, 343.9485
99.60419, 343.5937
100.0863, 344.0381
100.5684, 345.5897
101.0505, 347.3279
101.5327, 347.9798
102.0148, 347.2165
102.4969, 346.4487
102.9790, 346.1105
103.4611, 346.2521
103.9432, 346.5976
104.4253, 347.2890
104.9075, 348.1060
105.3896, 348.5707
105.8717, 348.4533
106.3538, 348.3008
106.8359, 348.2885
107.3180, 348.2539
107.8002, 348.6527
108.2823, 349.7409
108.7644, 351.3084
109.2465, 352.6281
109.7286, 353.2944
110.2107, 353.9857
110.6929, 355.0079
111.1750, 356.7410
111.6571, 358.3773
112.1392, 359.6470
112.6213, 360.6467
113.1034, 362.1408
113.5856, 364.8675
114.0677, 367.8268
114.5498, 370.2837
115.0319, 371.0468
115.5140, 372.2988
115.9961, 375.0977
116.4783, 379.4265
116.9604, 383.2101
117.4425, 385.6124
117.9246, 387.1293
118.4067, 388.3024
118.8888, 388.7833
119.3710, 389.3900
119.8531, 390.6101
120.3352, 392.4965
120.8173, 394.7057
121.2994, 397.0474
121.7815, 399.5515
122.2637, 402.2818
122.7458, 405.4688
123.2279, 408.7714
123.7100, 411.8561
124.1921, 414.6807
124.6742, 417.3177
125.1564, 419.7245
125.6385, 421.9696
126.1206, 424.2790
126.6027, 426.6535
127.0848, 429.1844
127.5669, 432.1770
128.0491, 435.9506
128.5312, 439.6320
129.0133, 441.6261
129.4954, 442.0934
129.9775, 442.6863
130.4596, 445.0060
130.9418, 448.5316
131.4239, 451.2907
131.9060, 452.8167
132.3881, 453.4635
132.8702, 453.7985
133.3523, 453.7816
133.8345, 453.9934
134.3166, 455.1713
134.7987, 457.3140
135.2808, 458.9874
135.7629, 459.5924
136.2450, 459.5154
136.7272, 460.7578
137.2093, 463.5503
137.6914, 466.3060
138.1735, 468.5450
138.6556, 470.3961
139.1377, 471.8802
139.6199, 471.8982
140.1020, 473.8094
140.5841, 474.9618
141.0662, 476.0830
141.5483, 478.2607
142.0304, 478.4917
142.5126, 480.6529
142.9947, 482.0435
143.4768, 482.7314
143.9589, 479.8880
144.4410, 477.0348
144.9231, 474.0376
145.4053, 471.1048
145.8874, 468.5597
146.3695, 466.9857
146.8516, 465.0094
147.3337, 462.1743
147.8158, 457.9261
148.2980, 454.1597
148.7801, 450.8168
149.2622, 447.9311
149.7443, 445.6654
150.2264, 444.7462
150.7085, 443.7475
151.1907, 442.1881
151.6728, 439.5646
152.1549, 437.1879
152.6370, 434.9266
153.1191, 432.8853
153.6012, 431.4064
154.0834, 431.4270
154.5655, 431.2945
155.0476, 430.2515
155.5297, 427.1655
156.0118, 424.6092
156.4939, 423.2120
156.9761, 422.6563
157.4582, 421.9521
157.9403, 420.8741
158.4224, 419.5894
158.9045, 418.1789
159.3866, 416.3568
159.8688, 414.7866
160.3509, 413.6823
160.8330, 413.0016
161.3151, 412.5502
161.7972, 412.3584
162.2793, 412.3197
162.7615, 412.3560
163.2436, 412.7307
163.7257, 412.3230
164.2078, 412.2155
164.6899, 411.7202
165.1720, 410.8579
165.6541, 408.5291
166.1363, 408.0937
166.6184, 406.8997
167.1005, 405.6745
167.5826, 405.5058
168.0647, 403.3904
168.5468, 403.2049
169.0290, 402.2488
169.5111, 401.6456
169.9932, 401.4909
170.4753, 402.0932
170.9574, 402.4584
171.4395, 402.4019
171.9217, 401.4533
172.4038, 399.6234
172.8859, 398.0650
173.3680, 397.7979
173.8501, 398.4009
174.3322, 399.1238
174.8144, 399.7458
175.2965, 400.2906
175.7786, 400.8186
176.2607, 401.3429
176.7428, 401.6884
177.2249, 401.6697
177.7071, 401.3443
178.1892, 400.8553
178.6713, 400.0361
179.1534, 399.1518
179.6355, 398.6934
180.1176, 398.6991
180.5998, 398.8300
181.0819, 398.5294
181.5640, 397.9872
182.0461, 397.8850
182.5282, 398.8693
183.0103, 400.4895
183.4925, 401.7853
183.9746, 402.7280
184.4567, 403.2880
184.9388, 403.1349
185.4209, 402.4136
185.9030, 402.0002
186.3852, 402.6678
186.8673, 404.0335
187.3494, 404.6252
187.8315, 404.2181
188.3136, 403.6245
188.7957, 404.0763
189.2779, 405.5004
189.7600, 406.9166
190.2421, 407.6845
190.7242, 407.9500
191.2063, 408.5565
191.6884, 409.5446
192.1706, 410.8503
192.6527, 412.6142
193.1348, 414.8356
193.6169, 416.7823
194.0990, 417.9616
194.5811, 418.4193
195.0633, 418.9898
195.5454, 419.6767
196.0275, 420.5311
196.5096, 421.6133
196.9917, 422.9257
197.4738, 424.4656
197.9560, 426.3393
198.4381, 428.5435
198.9202, 430.5161
199.4023, 432.0827
199.8844, 433.6307
200.3665, 435.8714
200.8487, 438.8516
201.3308, 442.3248
201.8129, 446.6777
202.2950, 452.1135
202.7771, 455.6632
203.2592, 456.8030
203.7414, 456.5109
204.2235, 456.6852
204.7056, 457.2231
205.1877, 458.5766
205.6698, 461.1540
206.1519, 465.1396
206.6341, 469.1639
207.1162, 473.2540
207.5983, 477.2357
208.0804, 480.4955
208.5625, 482.6502
209.0446, 485.1464
209.5268, 488.7778
210.0089, 493.7819
210.4910, 498.8294
210.9731, 503.9551
211.4552, 509.0902
211.9373, 514.0238
212.4195, 518.7814
212.9016, 523.2502
213.3837, 527.4305
213.8658, 531.4488
214.3479, 534.7060
214.8300, 536.9579
215.3121, 538.6018
215.7943, 540.7944
216.2764, 544.1237
216.7585, 546.7094
217.2406, 547.7328
217.7227, 547.0189
218.2048, 545.1773
218.6870, 541.8530
219.1691, 537.5754
219.6512, 533.4357
220.1333, 529.3026
220.6154, 525.5162
221.0975, 522.2206
221.5797, 519.6924
222.0618, 516.9429
222.5439, 513.8723
223.0260, 510.6479
223.5081, 507.5413
223.9902, 504.5824
224.4724, 501.7505
224.9545, 498.9530
225.4366, 495.6890
225.9187, 493.8798
226.4008, 494.0294
226.8829, 495.3915
227.3651, 496.3203
227.8472, 496.3720
228.3293, 496.7476
228.8114, 498.0481
229.2935, 500.7722
229.7757, 502.7880
230.2578, 503.5963
230.7399, 503.9057
231.2220, 505.1551
231.7041, 507.6736
232.1862, 510.5776
232.6684, 513.5739
233.1505, 516.6439
233.6326, 519.8386
234.1147, 523.1153
234.5968, 526.5411
235.0789, 530.2339
235.5611, 534.5262
236.0432, 538.5294
236.5253, 541.8889
237.0074, 544.2419
237.4895, 547.1918
237.9716, 551.3414
238.4538, 555.7267
238.9359, 558.8902
239.4180, 561.1395
239.9001, 561.7087
240.3822, 560.1544
240.8643, 556.1198
241.3465, 551.7071
241.8286, 546.9386
242.3107, 541.7749
242.7928, 536.1425
243.2749, 529.9363
243.7570, 523.4246
244.2392, 516.5869
244.7213, 509.2973
245.2034, 502.3208
245.6855, 495.8164
246.1676, 489.4427
246.6497, 482.6874
247.1319, 475.0502
247.6140, 467.9561
248.0961, 461.7738
248.5782, 456.5374
249.0603, 451.8027
249.5424, 447.7722
250.0246, 444.0184
250.5067, 439.9113
250.9888, 434.8865
251.4709, 430.6447
251.9530, 427.7847
252.4351, 426.3711
252.9173, 424.4025
253.3994, 421.4315
253.8815, 418.3617
254.3636, 416.0844
254.8457, 414.8889
255.3278, 413.8833
255.8100, 412.9798
256.2921, 412.1635
256.7742, 411.1378
257.2563, 409.7607
257.7384, 408.3651
258.2205, 407.2547
258.7026, 406.4917
259.1848, 405.8480
259.6669, 405.2926
260.1490, 404.8336
260.6311, 404.6082
261.1132, 404.8290
261.5953, 404.9551
262.0775, 404.4805
262.5596, 403.0534
263.0417, 402.0877
263.5238, 401.9009
264.0059, 402.2970
264.4880, 402.2702
264.9702, 401.6073
265.4523, 400.9202
265.9344, 400.6269
266.4165, 400.8454
266.8986, 401.0035
267.3807, 401.0522
267.8629, 401.0106
268.3450, 400.9847
268.8271, 401.0625
269.3092, 400.9494
269.7913, 400.3793
270.2734, 399.2014
270.7556, 398.4001
271.2377, 398.1504
271.7198, 398.2070
272.2019, 397.9145
272.6840, 397.1279
273.1661, 396.5215
273.6483, 396.5312
274.1304, 397.2692
274.6125, 397.6832
275.0946, 397.6791
275.5767, 397.4372
276.0588, 397.2559
276.5410, 397.1324
277.0231, 397.0290
277.5052, 396.9511
277.9873, 396.8917
278.4694, 396.6433
278.9515, 396.0858
279.4337, 395.5668
279.9158, 395.6566
280.3979, 396.4066
280.8800, 397.1920
281.3621, 397.8777
281.8442, 398.4411
282.3264, 398.5628
282.8085, 398.1926
283.2906, 397.5854
283.7727, 396.9083
284.2548, 396.1629
284.7369, 395.7473
285.2191, 395.9145
285.7012, 396.4923
286.1833, 396.7502
286.6654, 396.6582
287.1475, 396.4577
287.6296, 396.3763
288.1118, 396.3989
288.5939, 396.4180
289.0760, 396.4866
289.5581, 396.4702
290.0402, 395.9151
290.5223, 394.7985
291.0045, 393.6722
291.4866, 392.9868
291.9687, 392.6629
292.4508, 392.3545
292.9329, 392.0508
293.4150, 391.6602
293.8972, 390.7540
294.3793, 389.4101
294.8614, 388.5025
295.3435, 389.2267
295.8256, 390.8752
296.3077, 391.3161
296.7899, 390.0572
297.2720, 388.2319
297.7541, 387.0845
298.2362, 386.6176
298.7183, 386.8339
299.2004, 388.5322
299.6826, 390.7466
300.1647, 391.4884
300.6468, 390.4283
301.1289, 388.9939
301.6110, 388.5523
302.0931, 388.8853
302.5753, 389.4134
303.0574, 390.1436
303.5395, 390.7938
304.0216, 390.8459
304.5037, 390.2778
304.9858, 389.7336
305.4680, 389.8993
305.9501, 390.4430
306.4322, 390.7939
306.9143, 390.6416
307.3964, 390.2935
307.8785, 389.9586
308.3607, 389.6520
308.8428, 389.4692
309.3249, 389.8545
309.8070, 390.2671
310.2891, 389.9890
310.7712, 388.1073
311.2534, 386.3845
311.7355, 386.2807
312.2176, 387.4341
312.6997, 388.5207
313.1818, 389.0020
313.6639, 389.0107
314.1461, 388.5521
314.6282, 387.3378
315.1103, 386.2868
315.5924, 385.8252
316.0745, 385.8580
316.5566, 386.1861
317.0388, 387.5579
317.5209, 388.5975
318.0030, 388.3123
318.4851, 386.2104
318.9672, 384.3617
319.4493, 383.5526
319.9315, 383.3930
320.4136, 383.3570
320.8957, 383.1616
321.3778, 383.1978
321.8599, 383.7475
322.3420, 384.8842
322.8242, 385.7668
323.3063, 386.1225
323.7884, 386.1942
324.2705, 386.1939
324.7526, 385.8722
325.2347, 385.7786
325.7169, 386.1258
326.1990, 386.8755
326.6811, 387.5365
327.1632, 388.2794
327.6453, 388.7854
328.1274, 388.8735
328.6096, 387.5771
329.0917, 387.0638
329.5738, 387.7151
330.0559, 389.2176
330.5380, 390.5911
331.0201, 391.8400
331.5023, 392.9565
331.9844, 393.8990
332.4665, 394.4745
332.9486, 395.3360
333.4307, 396.5726
333.9128, 398.0440
334.3950, 399.4546
334.8771, 400.6370
335.3592, 402.1123
335.8413, 404.2170
336.3234, 407.1068
336.8055, 409.0133
337.2877, 409.4178
337.7698, 409.5281
338.2519, 410.6533
338.7340, 412.8919
339.2161, 415.7939
339.6982, 419.5441
340.1803, 423.9199
340.6624, 427.1747
341.1446, 429.0862
341.6267, 430.7363
342.1088, 433.0435
342.5909, 436.0117
343.0730, 438.9317
343.5551, 441.6607
344.0373, 444.3102
344.5194, 446.9922
345.0015, 449.7197
345.4836, 452.6744
345.9657, 456.1407
346.4478, 459.9929
346.9300, 463.5222
347.4121, 466.6908
347.8942, 469.6394
348.3763, 472.4427
348.8584, 475.1641
349.3405, 478.2230
349.8227, 482.3535
350.3048, 486.8497
350.7869, 490.0046
351.2690, 491.7861
351.7511, 493.3805
352.2332, 495.8772
352.7154, 498.9805
353.1975, 502.0698
353.6796, 505.0550
354.1617, 507.8264
354.6438, 510.4744
355.1259, 512.8902
355.6081, 514.5173
356.0902, 514.6607
356.5723, 513.9508
357.0544, 513.1080
357.5365, 512.3116
358.0186, 511.3070
358.5008, 509.7069
358.9829, 507.7622
359.4650, 506.0182
359.9471, 505.7292
360.4292, 504.9963
360.9113, 502.3477
361.3935, 497.4359
361.8756, 492.3911
362.3577, 488.1357
362.8398, 484.2100
363.3219, 480.0908
363.8040, 475.2401
364.2862, 470.5757
364.7683, 466.6498
365.2504, 463.3913
365.7325, 459.6281
366.2146, 454.1529
366.6967, 448.7003
367.1789, 444.3477
367.6610, 442.3629
368.1431, 440.1090
368.6252, 437.2871
369.1073, 434.0263
369.5894, 430.7969
370.0716, 427.3653
370.5537, 424.1738
371.0358, 421.3229
371.5179, 418.7625
372.0000, 416.7305
372.4821, 415.6626
372.9643, 414.8368
373.4464, 413.2088
373.9285, 410.3081
374.4106, 407.6007
374.8927, 405.3412
375.3748, 403.5229
375.8570, 402.2910
376.3391, 401.7677
376.8212, 401.5394
377.3033, 401.4850
377.7854, 401.7462
378.2675, 400.9548
378.7497, 398.5098
379.2318, 395.2933
379.7139, 393.6810
380.1960, 393.8178
380.6781, 394.0364
381.1602, 393.1907
381.6424, 391.5052
382.1245, 390.5654
382.6066, 390.6064
383.0887, 390.6973
383.5708, 389.2184
384.0529, 386.5754
384.5351, 384.6831
385.0172, 385.0608
385.4993, 386.3358
385.9814, 385.8359
386.4635, 383.6456
386.9456, 381.4854
387.4278, 380.6282
387.9099, 380.7644
388.3920, 381.5474
388.8741, 383.3861
389.3562, 384.9625
389.8383, 384.8886
390.3205, 383.5887
390.8026, 382.2617
391.2847, 381.3449
391.7668, 380.7719
392.2489, 380.5080
392.7310, 380.5694
393.2132, 380.8485
393.6953, 381.5053
394.1774, 382.2794
394.6595, 382.8603
395.1416, 383.5040
395.6237, 383.5970
396.1059, 382.4922
396.5880, 380.3046
397.0701, 378.8430
397.5522, 379.3435
398.0343, 380.1182
398.5164, 380.1633
398.9986, 378.2511
399.4807, 377.1055
399.9628, 377.3546
400.4449, 378.3836
400.9270, 378.7428
401.4091, 377.8050
401.8913, 377.0131
402.3734, 376.9012
402.8555, 377.6401
403.3376, 378.0421
403.8197, 377.8297
404.3018, 377.6005
404.7840, 378.1431
405.2661, 379.8242
405.7482, 380.9809
406.2303, 381.2261
406.7124, 380.7233
407.1945, 380.0687
407.6767, 379.1933
408.1588, 378.4829
408.6409, 378.3202
409.1230, 378.6562
409.6051, 378.7583
410.0872, 378.5400
410.5694, 378.1603
411.0515, 377.8121
411.5336, 377.5010
412.0157, 377.2637
412.4978, 377.1294
412.9799, 377.0832
413.4621, 377.1281
413.9442, 377.2657
414.4263, 377.3804
414.9084, 377.2591
415.3905, 377.0844
415.8727, 377.2042
416.3548, 377.9512
416.8369, 378.6175
417.3190, 378.4200
417.8011, 377.6457
418.2832, 377.0515
418.7654, 377.2500
419.2475, 377.5952
419.7296, 377.5944
420.2117, 377.1251
420.6938, 376.7357
421.1759, 376.6703
421.6581, 376.7783
422.1402, 376.9010
422.6223, 377.4316
423.1044, 377.5138
423.5865, 376.6081
424.0686, 374.8875
424.5508, 373.6676
425.0329, 373.5870
425.5150, 373.6245
425.9971, 373.3191
426.4792, 372.4691
426.9613, 371.7097
427.4435, 371.1089
427.9256, 370.5731
428.4077, 369.9220
428.8898, 369.0061
429.3719, 368.3130
429.8540, 368.0750
430.3362, 368.2407
430.8183, 367.9342
431.3004, 366.9705
431.7825, 366.0706
432.2646, 366.2322
432.7467, 367.4633
433.2289, 367.0800
433.7110, 364.0735
434.1931, 360.4413
434.6752, 360.4149
435.1573, 363.6660
435.6394, 366.6221
436.1216, 367.0325
436.6037, 365.8989
437.0858, 365.4312
437.5679, 365.6797
438.0500, 366.0895
438.5321, 366.2811
439.0142, 366.2835
439.4963, 366.1635
439.9785, 366.0486
440.4606, 365.6707
440.9427, 364.4955
441.4248, 362.8315
441.9069, 361.6004
442.3890, 361.4649
442.8712, 361.7630
443.3533, 362.1818
443.8354, 362.7629
444.3175, 363.0607
444.7996, 362.2558
445.2817, 361.3678
445.7639, 361.4557
446.2460, 364.3157
446.7281, 366.3986
447.2102, 366.4676
447.6923, 364.8826
448.1744, 364.2977
448.6566, 365.5620
449.1387, 366.9245
449.6208, 367.5287
450.1029, 366.9172
450.5850, 367.0017
451.0671, 368.1958
451.5493, 369.6576
452.0314, 370.0604
452.5135, 369.1136
452.9956, 368.3561
453.4777, 368.1638
453.9598, 368.4848
454.4420, 369.2808
454.9241, 370.6187
455.4062, 371.7756
455.8883, 371.9222
456.3704, 371.3473
456.8525, 371.4381
457.3347, 372.4462
457.8168, 373.7374
458.2989, 374.4793
458.7810, 374.8456
459.2631, 375.3221
459.7452, 376.5775
460.2274, 377.7889
460.7095, 377.7514
461.1916, 376.6394
461.6737, 375.7805
462.1558, 376.2891
462.6379, 377.2500
463.1201, 377.7188
463.6022, 377.1003
464.0843, 376.9653
464.5664, 378.5595
465.0485, 380.9223
465.5306, 382.5225
466.0128, 382.2901
466.4949, 381.9500
466.9770, 382.0215
467.4591, 382.5356
467.9412, 382.9399
468.4233, 383.0932
468.9055, 383.2529
469.3876, 383.5620
469.8697, 384.0213
470.3518, 384.6646
470.8339, 385.6248
471.3160, 386.6887
471.7982, 387.4641
472.2803, 387.9207
472.7624, 388.2162
473.2445, 388.3603
473.7266, 388.3788
474.2087, 388.3740
474.6909, 388.3222
475.1730, 388.4102
475.6551, 388.8984
476.1372, 389.6800
476.6193, 390.2796
477.1014, 390.5513
477.5836, 390.8260
478.0657, 391.4627
478.5478, 392.4310
479.0299, 393.6288
479.5120, 395.5038
479.9941, 397.2731
480.4763, 398.0493
480.9584, 397.9135
481.4405, 397.6875
481.9226, 397.4515
482.4047, 397.5328
482.8868, 398.2971
483.3690, 400.2704
483.8511, 401.9660
484.3332, 402.5135
484.8153, 402.6083
485.2974, 403.3961
485.7795, 405.9390
486.2617, 408.2206
486.7438, 409.6406
487.2259, 410.2262
487.7080, 411.2852
488.1901, 413.2121
488.6722, 415.1144
489.1544, 416.4299
489.6365, 416.9628
490.1186, 417.6110
490.6007, 418.3806
491.0828, 419.3073
491.5649, 420.5398
492.0471, 422.0835
492.5292, 423.5674
493.0113, 424.8853
493.4934, 426.0274
493.9755, 427.0269
494.4576, 427.8665
494.9398, 428.4367
495.4219, 428.4354
495.9040, 428.1474
496.3861, 428.1739
496.8682, 428.6620
497.3503, 429.0241
497.8325, 429.0269
498.3146, 428.5370
498.7967, 427.3455
499.2788, 424.1922
499.7609, 421.4389
500.2430, 420.9351
500.7252, 422.0704
501.2073, 422.0819
501.6894, 418.9844
502.1715, 415.5375
502.6536, 413.0220
503.1357, 411.8520
503.6179, 410.8232
504.1000, 410.2130
504.5821, 409.5190
505.0642, 408.1885
505.5463, 405.8611
506.0284, 403.6512
506.5106, 401.5878
506.9927, 399.7975
507.4748, 398.8356
507.9569, 398.8479
508.4390, 398.9511
508.9211, 398.7032
509.4033, 398.1437
509.8854, 397.5310
510.3675, 396.8297
510.8496, 396.3614
511.3317, 396.8714
511.8138, 397.8819
512.2960, 398.0041
512.7781, 396.6425
513.2602, 394.9114
513.7423, 393.7126
514.2244, 393.0460
514.7065, 392.9090
515.1887, 393.8223
515.6708, 394.8587
516.1529, 395.3794
516.6350, 395.3771
517.1171, 395.3384
517.5992, 395.3779
518.0814, 395.4758
518.5635, 395.6049
519.0456, 395.5837
519.5277, 395.9057
520.0098, 396.9205
520.4919, 398.1458
520.9741, 398.8062
521.4562, 398.4443
521.9383, 398.4406
522.4204, 399.2618
522.9025, 400.7200
523.3846, 401.5108
523.8668, 401.4402
524.3489, 401.4815
524.8310, 402.4504
525.3131, 404.1977
525.7952, 405.3074
526.2773, 405.6442
526.7595, 405.8178
527.2416, 406.7335
527.7237, 408.0368
528.2058, 408.7831
528.6879, 408.4058
529.1700, 407.7662
529.6522, 407.6226
530.1343, 407.8991
530.6164, 408.3644
531.0985, 409.2616
531.5806, 410.0363
532.0627, 410.3329
532.5449, 410.1139
533.0270, 409.6666
533.5091, 408.7863
533.9912, 407.8799
534.4733, 407.2520
534.9554, 407.4967
535.4376, 407.1645
535.9197, 405.9043
536.4018, 404.2334
536.8839, 403.2122
537.3660, 403.3046
537.8481, 402.7248
538.3303, 400.7729
538.8124, 397.7539
539.2945, 395.2250
539.7766, 393.2013
540.2587, 391.5414
540.7408, 390.2833
541.2230, 389.3232
541.7051, 388.3888
542.1872, 387.4928
542.6693, 386.4032
543.1514, 384.6668
543.6335, 382.6056
544.1157, 380.7836
544.5978, 379.5586
545.0799, 378.3730
545.5620, 376.7787
546.0441, 374.9337
546.5262, 373.2287
547.0084, 371.8806
547.4905, 370.6423
547.9726, 369.2998
548.4547, 367.8138
548.9368, 366.7298
549.4189, 366.6259
549.9011, 366.4903
550.3832, 365.6815
550.8653, 363.6748
551.3474, 362.2495
551.8295, 361.6670
552.3116, 361.3969
552.7938, 360.7011
553.2759, 359.5602
553.7580, 358.1082
554.2401, 356.1601
554.7222, 354.1099
555.2043, 353.0132
555.6865, 352.8255
556.1686, 352.9371
556.6507, 353.3589
557.1328, 353.6999
557.6149, 353.2420
558.0970, 351.9453
558.5792, 350.5615
559.0613, 349.6764
559.5434, 348.9632
560.0255, 348.0629
560.5076, 346.6864
560.9897, 345.5148
561.4719, 344.9704
561.9540, 344.7293
562.4361, 344.2604
562.9182, 343.2017
563.4003, 342.2251
563.8824, 341.3766
564.3646, 340.6812
564.8467, 340.3047
565.3288, 340.3088
565.8109, 340.4930
566.2930, 340.8958
566.7751, 341.5382
567.2573, 341.4886
567.7394, 340.6070
568.2215, 339.6598
568.7036, 339.5992
569.1857, 340.1720
569.6678, 340.4203
570.1500, 340.1011
570.6321, 339.5046
571.1142, 338.8564
571.5963, 338.1909
572.0784, 337.5859
572.5605, 337.0136
573.0427, 336.5668
573.5248, 336.4529
574.0069, 336.5911
574.4890, 336.4373
574.9711, 335.6133
575.4532, 334.6367
575.9354, 333.7025
576.4175, 332.7233
576.8996, 332.1645
577.3817, 332.2230
577.8638, 332.5140
578.3459, 332.7470
578.8281, 332.9644
579.3102, 332.8753
579.7923, 332.3278
580.2744, 331.6315
580.7565, 331.4985
581.2386, 331.8859
581.7208, 332.0518
582.2029, 331.4839
582.6850, 330.6784
583.1671, 330.6772
583.6492, 331.3415
584.1313, 331.8442
584.6135, 331.4266
585.0956, 330.7546
585.5776, 330.4507
586.0598, 330.6019
586.5419, 330.9044
587.0240, 331.4332
587.5061, 331.9464
587.9882, 332.2430
588.4703, 332.2201
588.9525, 332.0609
589.4346, 331.4897
589.9167, 330.9081
