##NAMES=Tourmaline
##RRUFFID=R110131
##LOCALITY=Bald Hornet area, King County, Washington, USA
##OWNER=RRUFF
##SOURCE=Bart Cannon
##DESCRIPTION=Green acicular crystals associated with quartz, supposed to be the new mineral luinaite
##STATUS=The identification of this mineral has been confirmed only by single crystal X-ray diffraction.
##URL=rruff.info/R110131
158.6177, 216.4763
159.0999, 216.1302
159.5820, 216.6434
160.0641, 218.2420
160.5462, 218.7458
161.0283, 217.2695
161.5104, 215.3635
161.9926, 214.1902
162.4747, 213.9057
162.9568, 213.9465
163.4389, 213.7655
163.9210, 213.3765
164.4031, 213.0463
164.8853, 212.8958
165.3674, 212.8086
165.8495, 212.6214
166.3316, 212.3057
166.8137, 211.8988
167.2958, 211.3736
167.7780, 210.7666
168.2601, 210.2370
168.7422, 209.8197
169.2243, 209.5304
169.7064, 209.4464
170.1885, 209.6159
170.6707, 209.9723
171.1528, 210.7054
171.6349, 211.6606
172.1170, 212.2348
172.5991, 211.7817
173.0812, 210.2449
173.5634, 208.8894
174.0455, 207.4112
174.5276, 206.4613
175.0097, 206.6617
175.4918, 207.8289
175.9739, 209.1234
176.4561, 209.6038
176.9382, 209.0210
177.4203, 208.4488
177.9024, 207.5326
178.3845, 206.8898
178.8666, 207.1019
179.3488, 208.1057
179.8309, 209.2232
180.3130, 209.4630
180.7951, 208.1295
181.2772, 207.4921
181.7593, 208.0525
182.2415, 208.8879
182.7236, 209.3261
183.2057, 209.2091
183.6878, 208.8262
184.1699, 208.6139
184.6520, 208.7256
185.1342, 208.7104
185.6163, 208.3114
186.0984, 207.8895
186.5805, 207.9067
187.0626, 208.5199
187.5447, 209.3603
188.0269, 209.7623
188.5090, 209.5963
188.9911, 209.6049
189.4732, 209.9859
189.9553, 210.6417
190.4374, 211.4552
190.9196, 212.4742
191.4017, 213.4742
191.8838, 214.0515
192.3659, 214.1638
192.8480, 214.4285
193.3301, 215.2820
193.8123, 216.5531
194.2944, 217.5870
194.7765, 218.0646
195.2586, 218.4351
195.7407, 219.2081
196.2228, 220.3882
196.7050, 221.5858
197.1871, 222.2833
197.6692, 222.5318
198.1513, 223.5439
198.6334, 226.4950
199.1155, 229.4938
199.5977, 231.0490
200.0798, 231.1438
200.5619, 231.0981
201.0440, 232.3595
201.5261, 235.1978
202.0082, 237.5967
202.4904, 238.7589
202.9725, 239.8150
203.4546, 241.3757
203.9367, 243.4901
204.4188, 245.7660
204.9009, 247.7037
205.3831, 249.1781
205.8652, 250.6808
206.3473, 252.1172
206.8294, 253.6596
207.3115, 255.4511
207.7936, 257.4872
208.2758, 259.6289
208.7579, 261.6808
209.2400, 263.6483
209.7221, 265.4853
210.2042, 267.0930
210.6863, 268.6552
211.1685, 270.3792
211.6506, 272.2715
212.1327, 274.0882
212.6148, 275.4455
213.0969, 275.8489
213.5790, 276.8429
214.0612, 278.8198
214.5433, 281.0897
215.0254, 283.1646
215.5075, 284.9072
215.9896, 286.4897
216.4717, 288.1866
216.9539, 290.3232
217.4360, 291.6693
217.9181, 291.5443
218.4002, 290.9515
218.8823, 291.0124
219.3644, 292.0031
219.8466, 293.1023
220.3287, 293.0758
220.8108, 291.6772
221.2929, 290.5995
221.7750, 290.3834
222.2571, 290.4861
222.7393, 290.2192
223.2214, 289.4191
223.7035, 288.3884
224.1856, 287.5398
224.6677, 286.8651
225.1498, 285.9430
225.6320, 284.4071
226.1141, 282.6200
226.5962, 281.2283
227.0783, 280.4278
227.5604, 279.7512
228.0425, 278.6568
228.5247, 277.2545
229.0068, 275.9576
229.4889, 275.0562
229.9710, 274.3692
230.4531, 273.4370
230.9352, 272.0875
231.4174, 270.7737
231.8995, 269.8896
232.3816, 269.3184
232.8637, 268.7644
233.3458, 267.9468
233.8279, 267.0213
234.3101, 266.5577
234.7922, 266.8910
235.2743, 267.1472
235.7564, 266.8180
236.2385, 266.0661
236.7206, 265.2103
237.2028, 264.4972
237.6849, 263.8315
238.1670, 262.7163
238.6491, 260.6776
239.1312, 258.9096
239.6133, 258.0116
240.0955, 257.6545
240.5776, 257.3119
241.0597, 256.7838
241.5418, 255.9989
242.0239, 254.6184
242.5060, 252.4827
242.9882, 249.8690
243.4703, 246.2022
243.9524, 242.2865
244.4345, 239.3197
244.9166, 238.0996
245.3987, 238.2273
245.8809, 237.8492
246.3630, 236.5842
246.8451, 235.2572
247.3272, 234.3171
247.8093, 233.3479
248.2914, 231.6435
248.7736, 228.7437
249.2557, 225.1291
249.7378, 222.8156
250.2199, 223.2548
250.7020, 223.2598
251.1841, 222.0325
251.6663, 220.2862
252.1484, 218.8906
252.6305, 218.2613
253.1126, 218.1967
253.5947, 218.0526
254.0768, 217.8362
254.5590, 217.5164
255.0411, 216.9765
255.5232, 216.3789
256.0053, 215.8627
256.4874, 215.4903
256.9695, 215.2869
257.4517, 215.3137
257.9338, 215.8067
258.4159, 216.2699
258.8980, 217.0522
259.3801, 217.6518
259.8622, 217.3801
260.3444, 216.0183
260.8265, 214.1709
261.3086, 212.9801
261.7907, 212.9587
262.2728, 212.8313
262.7549, 212.5063
263.2371, 212.1025
263.7192, 211.7785
264.2013, 211.5699
264.6834, 211.3226
265.1655, 210.7952
265.6476, 209.8439
266.1298, 208.9356
266.6119, 207.8738
267.0940, 206.9683
267.5761, 206.6990
268.0582, 207.1243
268.5403, 207.5661
269.0225, 207.1713
269.5046, 205.6698
269.9867, 204.5172
270.4688, 204.0554
270.9509, 203.7658
271.4330, 203.2285
271.9152, 202.3923
272.3973, 201.4025
272.8794, 200.3971
273.3615, 199.3671
273.8436, 198.2148
274.3257, 196.6337
274.8079, 195.1362
275.2900, 194.2803
275.7721, 194.0428
276.2542, 193.7801
276.7363, 193.0118
277.2184, 191.7542
277.7006, 190.4762
278.1827, 189.0990
278.6648, 187.7730
279.1469, 186.6940
279.6290, 185.8244
280.1111, 184.8034
280.5933, 183.2413
281.0754, 181.4388
281.5575, 180.3701
282.0396, 180.7890
282.5217, 181.0262
283.0038, 179.7414
283.4860, 177.2340
283.9681, 175.0503
284.4502, 173.8770
284.9323, 173.4997
285.4144, 173.4147
285.8965, 173.8516
286.3787, 174.0266
286.8608, 173.2566
287.3429, 171.8110
287.8250, 170.6729
288.3071, 170.2272
288.7892, 170.1489
289.2714, 169.9723
289.7535, 169.6954
290.2356, 169.3738
290.7177, 169.0839
291.1998, 168.7708
291.6819, 168.1822
292.1641, 167.0532
292.6462, 166.0604
293.1283, 166.1217
293.6104, 167.1007
294.0925, 167.9807
294.5746, 168.3154
295.0568, 168.2859
295.5389, 168.2232
296.0210, 168.1451
296.5031, 168.0946
296.9852, 168.1490
297.4673, 168.2678
297.9495, 168.3357
298.4316, 168.1462
298.9137, 167.9490
299.3958, 168.1810
299.8779, 168.9279
300.3600, 169.7341
300.8422, 170.3314
301.3243, 170.7761
301.8064, 171.1366
302.2885, 171.4201
302.7706, 171.6370
303.2527, 171.6817
303.7349, 171.5211
304.2170, 171.6927
304.6991, 172.8012
305.1812, 174.2258
305.6633, 175.0478
306.1454, 174.9275
306.6276, 174.7628
307.1097, 175.5330
307.5918, 177.1659
308.0739, 178.3794
308.5560, 178.4877
309.0381, 178.2053
309.5203, 178.3823
310.0024, 179.0794
310.4845, 179.8222
310.9666, 180.2917
311.4487, 180.5314
311.9308, 180.7349
312.4130, 180.8838
312.8951, 181.0858
313.3772, 181.7027
313.8593, 182.6109
314.3414, 182.8831
314.8235, 181.6164
315.3057, 179.3918
315.7878, 177.6530
316.2699, 176.5323
316.7520, 175.8922
317.2341, 176.0225
317.7162, 176.5573
318.1984, 176.6672
318.6805, 175.8623
319.1626, 174.5521
319.6447, 173.2486
320.1268, 171.8814
320.6089, 170.8855
321.0911, 170.9509
321.5732, 171.4232
322.0553, 171.3651
322.5374, 170.4061
323.0195, 169.1688
323.5016, 168.3020
323.9838, 167.8035
324.4659, 167.2776
324.9480, 166.4737
325.4301, 165.6491
325.9122, 165.1812
326.3943, 165.1644
326.8765, 165.0855
327.3586, 164.3707
327.8407, 163.1840
328.3228, 162.4587
328.8049, 162.4509
329.2870, 162.9420
329.7692, 163.8690
330.2513, 165.1765
330.7334, 166.1889
331.2155, 166.3929
331.6976, 166.0817
332.1797, 165.8977
332.6619, 165.8800
333.1440, 166.0666
333.6261, 166.5353
334.1082, 167.2284
334.5903, 168.0717
335.0724, 169.2520
335.5546, 170.4610
336.0367, 171.3077
336.5188, 171.7760
337.0009, 171.9704
337.4830, 171.5279
337.9651, 170.9950
338.4473, 171.4396
338.9294, 173.4359
339.4115, 175.7022
339.8936, 177.2053
340.3757, 178.0383
340.8578, 178.8149
341.3400, 179.6464
341.8221, 180.6696
342.3042, 182.1103
342.7863, 184.0467
343.2684, 185.9583
343.7505, 187.5019
344.2327, 188.8364
344.7148, 190.4191
345.1969, 192.4563
345.6790, 194.4591
346.1611, 195.5870
346.6432, 196.0022
347.1254, 196.9249
347.6075, 198.8722
348.0896, 201.3968
348.5717, 204.0236
349.0538, 206.7314
349.5359, 209.3653
350.0181, 211.8289
350.5002, 214.1245
350.9823, 216.3202
351.4644, 218.1538
351.9465, 220.1038
352.4286, 222.6439
352.9108, 225.6411
353.3929, 228.5110
353.8750, 230.9454
354.3571, 233.0803
354.8392, 235.2545
355.3214, 237.4412
355.8035, 239.7049
356.2856, 242.2011
356.7677, 244.7587
357.2498, 246.9758
357.7319, 248.6865
358.2141, 250.3557
358.6962, 252.8952
359.1783, 256.6311
359.6604, 259.1643
360.1425, 259.3783
360.6246, 258.8066
361.1068, 258.7952
361.5889, 259.4874
362.0710, 260.4796
362.5531, 261.6130
363.0352, 262.8307
363.5173, 263.0001
363.9995, 261.5228
364.4816, 259.7044
364.9637, 258.1272
365.4458, 256.7050
365.9279, 255.1819
366.4100, 253.4505
366.8922, 251.4721
367.3743, 249.1164
367.8564, 246.0499
368.3385, 243.1008
368.8206, 240.5547
369.3027, 238.0985
369.7849, 235.2995
370.2670, 232.0662
370.7491, 228.7610
371.2312, 225.8870
371.7133, 223.5871
372.1954, 221.4009
372.6776, 219.7038
373.1597, 217.8137
373.6418, 215.1454
374.1239, 211.8262
374.6060, 208.4350
375.0881, 205.3551
375.5703, 202.6047
376.0524, 200.3548
376.5345, 199.1346
377.0166, 197.7857
377.4987, 195.8591
377.9808, 193.6861
378.4630, 191.7328
378.9451, 190.2137
379.4272, 189.0491
379.9093, 188.0855
380.3914, 187.6155
380.8735, 186.8366
381.3557, 185.4966
381.8378, 184.0319
382.3199, 182.7390
382.8020, 181.6639
383.2841, 180.6871
383.7662, 179.6250
384.2484, 178.3939
384.7305, 177.6379
385.2126, 178.0419
385.6947, 178.2693
386.1768, 177.7203
386.6589, 176.6779
387.1411, 175.7692
387.6232, 175.3976
388.1053, 175.3849
388.5874, 175.0800
389.0695, 174.3034
389.5516, 173.5671
390.0338, 173.1424
390.5159, 172.7214
390.9980, 171.9089
391.4801, 170.6035
391.9622, 169.3164
392.4443, 168.7856
392.9265, 169.1164
393.4086, 169.1777
393.8907, 168.4283
394.3728, 167.7682
394.8549, 167.8446
395.3370, 168.5039
395.8192, 169.0922
396.3013, 169.1060
396.7834, 168.7325
397.2655, 168.6355
397.7476, 168.9630
398.2297, 169.1818
398.7119, 169.0229
399.1940, 168.5850
399.6761, 167.9336
400.1582, 167.0261
400.6403, 166.0406
401.1224, 165.0258
401.6046, 163.9985
402.0867, 163.4488
402.5688, 163.8234
403.0509, 164.4043
403.5330, 164.2511
404.0151, 163.3487
404.4973, 162.5649
404.9794, 162.3832
405.4615, 162.5364
405.9436, 162.5943
406.4257, 162.5124
406.9078, 162.2903
407.3900, 161.8076
407.8721, 161.1597
408.3542, 160.8153
408.8363, 161.1482
409.3184, 161.4889
409.8005, 161.2765
410.2827, 160.6811
410.7648, 160.3435
411.2469, 160.6066
411.7290, 161.1653
412.2111, 161.3270
412.6932, 161.0395
413.1754, 160.5735
413.6575, 159.7773
414.1396, 158.9293
414.6217, 158.3410
415.1038, 158.0566
415.5859, 157.8790
416.0681, 157.6164
416.5502, 157.2562
417.0323, 156.9450
417.5144, 156.7608
417.9965, 156.5360
418.4786, 156.0210
418.9608, 155.4359
419.4429, 155.2252
419.9250, 155.6305
420.4071, 156.4506
420.8892, 157.1670
421.3713, 158.2186
421.8535, 158.4198
422.3356, 157.0309
422.8177, 155.3392
423.2998, 154.3483
423.7819, 154.1664
424.2640, 154.2597
424.7462, 154.1025
425.2283, 153.6811
425.7104, 153.1983
426.1925, 152.5604
426.6746, 151.9616
427.1567, 151.4412
427.6389, 150.9987
428.1210, 150.6411
428.6031, 150.3787
429.0852, 150.1731
429.5673, 149.9290
430.0494, 149.6019
430.5316, 149.3956
431.0137, 149.5888
431.4958, 149.7624
431.9779, 149.5813
432.4600, 149.0512
432.9421, 148.5287
433.4243, 148.3468
433.9064, 148.4113
434.3885, 148.2728
434.8706, 147.7991
435.3527, 147.3828
435.8348, 147.3601
436.3170, 147.5499
436.7991, 147.6642
437.2812, 147.6460
437.7633, 147.5115
438.2454, 147.1413
438.7275, 146.5986
439.2097, 146.3963
439.6918, 146.8670
440.1739, 147.5216
440.6560, 147.6074
441.1381, 147.1195
441.6202, 146.5178
442.1024, 145.6297
442.5845, 144.8573
443.0666, 144.7863
443.5487, 145.4277
444.0308, 146.2128
444.5129, 146.8292
444.9951, 147.2190
445.4772, 146.9417
445.9593, 145.0323
446.4414, 143.6765
446.9235, 143.8559
447.4056, 144.9128
447.8878, 145.9704
448.3699, 146.7168
448.8520, 147.1176
449.3341, 147.0775
449.8162, 146.3542
450.2983, 145.8721
450.7805, 145.9686
451.2626, 145.9608
451.7447, 145.1906
452.2268, 143.9924
452.7089, 143.3059
453.1910, 143.8213
453.6732, 145.2106
454.1553, 146.1053
454.6374, 146.3627
455.1195, 146.3234
455.6016, 145.7826
456.0837, 145.1800
456.5659, 144.9758
457.0480, 145.2142
457.5301, 145.4443
458.0122, 145.0251
458.4943, 143.9781
458.9764, 143.5779
459.4586, 144.2689
459.9407, 145.0131
460.4228, 145.2923
460.9049, 145.2447
461.3870, 145.0806
461.8691, 144.7850
462.3513, 144.5489
462.8334, 144.6477
463.3155, 145.0699
463.7976, 145.5415
464.2797, 146.0837
464.7618, 146.5081
465.2440, 146.5446
465.7261, 146.1933
466.2082, 145.8170
466.6903, 145.5824
467.1724, 145.3633
467.6545, 144.8730
468.1367, 144.1280
468.6188, 143.6902
469.1009, 144.0364
469.5830, 144.9724
470.0651, 145.5172
470.5472, 145.5148
471.0294, 145.3778
471.5115, 144.8966
471.9936, 144.4670
472.4757, 144.7862
472.9578, 145.9700
473.4399, 147.2197
473.9221, 147.5316
474.4042, 146.6867
474.8863, 146.1634
475.3684, 146.5141
475.8505, 146.5609
476.3326, 145.3737
476.8148, 143.6841
477.2969, 142.7919
477.7790, 143.3459
478.2611, 144.7500
478.7432, 145.8048
479.2253, 146.4962
479.7075, 146.8587
480.1896, 146.3369
480.6717, 145.9489
481.1538, 146.5391
481.6359, 147.8769
482.1180, 148.8710
482.6002, 148.5376
483.0823, 147.4050
483.5644, 147.0206
484.0465, 147.5678
484.5286, 148.2037
485.0107, 148.5716
485.4929, 148.8245
485.9750, 149.1973
486.4571, 149.7699
486.9392, 150.1484
487.4213, 149.6249
487.9034, 148.8010
488.3856, 149.2843
488.8677, 151.4899
489.3498, 153.7259
489.8319, 154.4787
490.3140, 153.8224
490.7961, 153.4678
491.2783, 153.5264
491.7604, 153.7614
492.2425, 154.1395
492.7246, 154.6049
493.2067, 155.1255
493.6888, 155.6895
494.1710, 156.1125
494.6531, 156.0377
495.1352, 155.1093
495.6173, 154.8358
496.0994, 155.7312
496.5815, 156.6825
497.0637, 157.1512
497.5458, 157.2493
498.0279, 157.3232
498.5100, 157.5716
498.9921, 157.8939
499.4742, 158.0151
499.9564, 157.8176
500.4385, 157.7147
500.9206, 157.7591
501.4027, 157.9172
501.8848, 158.1492
502.3669, 158.4711
502.8491, 158.9738
503.3312, 160.0494
503.8133, 161.2782
504.2954, 161.2868
504.7775, 159.7690
505.2596, 158.5028
505.7418, 158.6318
506.2239, 159.3118
506.7060, 159.2429
507.1881, 158.1530
507.6702, 157.1987
508.1523, 156.9929
508.6345, 157.2860
509.1166, 157.7630
509.5987, 158.3789
510.0808, 158.9045
510.5629, 159.1645
511.0450, 159.1603
511.5272, 158.9866
512.0093, 158.5166
512.4914, 158.0500
512.9735, 157.5444
513.4556, 157.1431
513.9377, 157.0798
514.4199, 157.3968
514.9020, 157.8710
515.3841, 158.2419
515.8662, 158.5172
516.3483, 158.6375
516.8304, 158.4135
517.3126, 158.2329
517.7947, 158.4703
518.2768, 158.7374
518.7589, 158.3334
519.2410, 156.9454
519.7231, 155.3563
520.2053, 154.7967
520.6874, 155.3544
521.1695, 155.6592
521.6516, 155.3621
522.1337, 154.9927
522.6158, 154.9312
523.0980, 155.0904
523.5801, 155.2399
524.0622, 155.5378
524.5443, 155.5556
525.0264, 154.5685
525.5085, 152.7689
525.9907, 151.3203
526.4728, 150.6030
526.9549, 150.4507
527.4370, 150.7355
527.9191, 151.5464
528.4012, 152.2138
528.8834, 152.7590
529.3655, 153.0678
529.8476, 152.8666
530.3297, 152.3464
530.8118, 152.0807
531.2939, 152.4011
531.7761, 153.0058
532.2582, 153.1024
532.7403, 152.2804
533.2224, 151.6944
533.7045, 151.2352
534.1866, 151.0907
534.6688, 151.6607
535.1509, 152.6735
535.6330, 153.3834
536.1151, 153.2981
536.5972, 152.5880
537.0793, 151.5373
537.5615, 149.9377
538.0436, 148.9002
538.5257, 149.3203
539.0078, 150.0067
539.4899, 149.8867
539.9720, 148.9594
540.4542, 147.9597
540.9363, 147.0891
541.4184, 146.4365
541.9005, 146.2913
542.3826, 146.6230
542.8647, 146.7460
543.3469, 146.2548
543.8290, 145.3753
544.3111, 144.7053
544.7932, 144.4437
545.2753, 143.9045
545.7574, 142.6619
546.2396, 141.3328
546.7217, 140.5030
547.2038, 140.1302
547.6859, 139.7895
548.1680, 139.1781
548.6501, 138.3605
549.1323, 137.6258
549.6144, 137.0473
550.0965, 136.4305
550.5786, 135.5182
551.0607, 134.7397
551.5428, 134.4953
552.0250, 134.7400
552.5071, 135.0478
552.9892, 135.0776
553.4713, 134.9518
553.9534, 135.1025
554.4355, 135.6271
554.9177, 135.9247
555.3998, 135.6686
555.8819, 135.1136
556.3640, 134.6490
556.8461, 134.3083
557.3282, 133.8136
557.8104, 132.7937
558.2925, 131.7128
558.7746, 131.1746
559.2567, 131.1658
559.7388, 131.3242
560.2209, 131.5019
560.7031, 131.5798
561.1852, 131.1726
561.6673, 129.2734
562.1494, 128.3262
562.6315, 129.1837
563.1136, 130.3607
563.5958, 130.8364
564.0779, 130.6011
564.5600, 130.1232
565.0421, 129.7186
565.5242, 129.3428
566.0063, 128.7893
566.4885, 127.9001
566.9706, 127.3018
567.4527, 127.3652
567.9348, 127.6146
568.4169, 127.7903
568.8990, 127.8660
569.3812, 127.8392
569.8633, 127.6636
570.3454, 127.4082
570.8275, 127.1257
571.3096, 126.8279
571.7917, 126.6675
572.2739, 126.7417
572.7560, 126.9336
573.2381, 127.0398
573.7202, 127.0493
574.2023, 127.0288
574.6844, 126.9200
575.1666, 126.8398
575.6487, 127.0799
576.1308, 127.4159
576.6129, 127.1533
577.0950, 125.8904
577.5771, 124.2715
578.0593, 123.7644
578.5414, 124.7602
579.0235, 125.8021
579.5056, 127.4827
579.9877, 128.5684
580.4698, 128.0661
580.9520, 126.5404
581.4341, 125.3221
581.9162, 125.0776
582.3983, 125.2428
582.8804, 125.1099
583.3625, 124.7006
583.8447, 124.2113
584.3268, 123.6057
584.8089, 123.1217
585.2910, 123.1199
585.7731, 123.5408
586.2552, 123.7534
586.7374, 123.2945
587.2195, 123.0436
587.7016, 123.7021
588.1837, 124.8159
588.6658, 125.6615
589.1479, 126.0054
589.6301, 125.8860
590.1122, 125.2309
590.5943, 123.9094
591.0764, 123.3301
591.5585, 124.3130
592.0406, 125.0976
592.5228, 125.1111
593.0049, 124.7798
593.4870, 124.6673
593.9691, 124.9096
594.4512, 125.0794
594.9333, 124.5895
595.4155, 123.6507
595.8976, 123.2586
596.3797, 123.5775
596.8618, 123.9516
597.3439, 124.0146
597.8260, 123.8647
598.3082, 123.7648
598.7903, 123.7413
599.2724, 123.7025
599.7545, 123.6758
600.2366, 123.5850
600.7188, 123.2288
601.2009, 122.6766
601.6830, 122.3235
602.1651, 122.4453
602.6472, 122.9408
603.1293, 123.4652
603.6115, 124.2098
604.0936, 124.6148
604.5757, 124.2809
605.0578, 123.9497
605.5399, 124.1438
606.0220, 124.7543
606.5042, 125.3384
606.9863, 125.6931
607.4684, 125.8216
607.9505, 125.5754
608.4326, 124.9719
608.9147, 124.8084
609.3969, 125.5538
609.8790, 126.3165
610.3611, 125.8754
610.8432, 124.3625
611.3253, 123.4928
611.8074, 124.0682
612.2896, 124.6778
612.7717, 124.4492
613.2538, 123.7884
613.7359, 123.3798
614.2180, 123.4326
614.7001, 123.7886
615.1823, 124.3193
615.6644, 125.0473
616.1465, 125.4583
616.6286, 125.2242
617.1107, 125.1197
617.5928, 125.5042
618.0750, 126.0128
618.5571, 126.2336
619.0392, 126.0980
619.5213, 125.9391
620.0034, 125.9909
620.4855, 126.2038
620.9677, 126.5361
621.4498, 126.9939
621.9319, 127.2923
622.4140, 127.2621
622.8961, 127.0192
623.3782, 126.7641
623.8604, 126.4100
624.3425, 126.3129
624.8246, 126.6883
625.3067, 127.1773
625.7888, 127.5656
626.2709, 127.8638
626.7531, 128.1577
627.2352, 128.4873
627.7173, 128.8379
628.1994, 129.1440
628.6815, 129.3575
629.1636, 129.8171
629.6458, 130.8341
630.1279, 131.7111
630.6100, 132.1978
631.0921, 132.3074
631.5742, 131.9605
632.0563, 130.9321
632.5385, 130.0731
633.0206, 130.0461
633.5027, 130.6099
633.9848, 131.3651
634.4669, 132.2456
634.9490, 133.1534
635.4312, 134.0827
635.9133, 134.9470
636.3954, 135.3356
636.8775, 134.6417
637.3596, 134.2779
637.8417, 134.3467
638.3239, 134.7110
638.8060, 135.4717
639.2881, 136.4560
639.7702, 137.2032
640.2523, 137.3915
640.7344, 137.3114
641.2166, 137.5534
641.6987, 138.1375
642.1808, 138.5960
642.6629, 138.8375
643.1450, 138.9341
643.6271, 138.8721
644.1093, 138.7025
644.5914, 138.6182
645.0735, 138.7383
645.5556, 138.8430
646.0377, 138.7883
646.5198, 138.6733
647.0020, 138.6232
647.4841, 138.6691
647.9662, 138.8065
648.4483, 139.0381
648.9304, 139.3539
649.4125, 139.7058
649.8947, 140.1630
650.3768, 140.5185
650.8589, 140.6286
651.3410, 140.7145
651.8231, 141.0642
652.3052, 141.5787
652.7874, 141.7422
653.2695, 141.0190
653.7516, 140.0820
654.2337, 139.8360
654.7158, 140.1343
655.1979, 140.3445
655.6801, 140.3110
656.1622, 139.9805
