##NAMES=Tourmaline
##RRUFFID=R110133
##LOCALITY=Crystal Palace, King County, Washington, USA
##OWNER=RRUFF
##SOURCE=Bart Cannon
##DESCRIPTION=Masses of green acicular crystals associated with quartz
##STATUS=The identification of this mineral has been confirmed only by single crystal X-ray diffraction.
##URL=rruff.info/R110133
187.3976, 100.3459
187.8798, 101.1689
188.3619, 101.6052
188.8440, 101.9292
189.3261, 102.4213
189.8082, 103.0893
190.2903, 104.0277
190.7725, 105.3429
191.2546, 107.0048
191.7367, 108.8394
192.2188, 110.9639
192.7009, 112.9660
193.1830, 113.7846
193.6652, 113.4070
194.1473, 113.4514
194.6294, 114.9820
195.1115, 117.8799
195.5936, 120.7326
196.0757, 123.5164
196.5579, 126.1288
197.0400, 128.1839
197.5221, 129.6056
198.0042, 131.2667
198.4863, 133.8813
198.9684, 137.4541
199.4506, 140.5650
199.9327, 142.9814
200.4148, 145.0259
200.8969, 147.4246
201.3790, 150.2891
201.8611, 153.0404
202.3433, 155.2860
202.8254, 156.9798
203.3075, 158.7365
203.7896, 160.5414
204.2717, 162.4620
204.7538, 164.6202
205.2360, 166.9847
205.7181, 169.6829
206.2002, 173.0137
206.6823, 177.1791
207.1644, 180.5849
207.6465, 182.8924
208.1287, 184.4705
208.6108, 186.5445
209.0929, 189.2960
209.5750, 192.0457
210.0571, 194.2911
210.5392, 195.9060
211.0214, 197.7072
211.5035, 199.9068
211.9856, 202.2926
212.4677, 204.1592
212.9498, 205.3844
213.4319, 206.3898
213.9140, 207.4572
214.3962, 208.6585
214.8783, 209.6521
215.3604, 210.2551
215.8425, 210.6509
216.3246, 211.6727
216.8067, 213.7489
217.2889, 215.6417
217.7710, 216.5046
218.2531, 215.9203
218.7352, 215.5339
219.2173, 215.4901
219.6994, 215.7429
220.1816, 216.2045
220.6637, 217.2718
221.1458, 217.8736
221.6279, 217.1745
222.1100, 214.5026
222.5921, 212.3298
223.0743, 211.0898
223.5564, 210.5126
224.0385, 209.1091
224.5206, 206.2319
225.0027, 203.6045
225.4848, 202.5002
225.9670, 203.9624
226.4491, 204.4105
226.9312, 203.2189
227.4133, 200.7811
227.8954, 198.9223
228.3775, 197.8857
228.8597, 197.1245
229.3418, 196.3421
229.8239, 195.5331
230.3060, 194.7087
230.7881, 193.8399
231.2702, 192.9474
231.7524, 192.1870
232.2345, 191.6350
232.7166, 191.1093
233.1987, 190.4931
233.6808, 189.6807
234.1629, 189.0175
234.6451, 188.6232
235.1272, 188.3963
235.6093, 187.8829
236.0914, 186.9946
236.5735, 185.9437
237.0556, 184.8171
237.5378, 183.5017
238.0199, 182.4107
238.5020, 181.8740
238.9841, 181.5909
239.4662, 180.2758
239.9483, 177.3185
240.4305, 174.1749
240.9126, 171.6253
241.3947, 170.0615
241.8768, 168.2172
242.3589, 165.8730
242.8410, 163.2297
243.3232, 160.9797
243.8053, 159.3998
244.2874, 157.8426
244.7695, 155.9440
245.2516, 153.3347
245.7337, 151.1881
246.2159, 149.6904
246.6980, 148.6476
247.1801, 147.4835
247.6622, 146.1604
248.1443, 144.7502
248.6264, 143.2746
249.1086, 141.6238
249.5907, 140.1336
250.0728, 138.7521
250.5549, 137.5509
251.0370, 136.7522
251.5191, 136.5303
252.0013, 136.4383
252.4834, 136.3064
252.9655, 136.1862
253.4476, 135.8685
253.9297, 135.1582
254.4118, 134.3401
254.8940, 134.0802
255.3761, 134.6408
255.8582, 135.2976
256.3403, 135.8087
256.8224, 136.2570
257.3046, 136.2636
257.7867, 135.7337
258.2688, 134.8206
258.7509, 133.7171
259.2330, 132.1385
259.7151, 130.9728
260.1973, 130.7298
260.6794, 131.7601
261.1615, 132.1134
261.6436, 131.5302
262.1257, 130.4949
262.6078, 129.8559
263.0900, 129.8210
263.5721, 129.7031
264.0542, 129.2234
264.5363, 128.2952
265.0184, 127.5936
265.5005, 127.2280
265.9827, 126.9526
266.4648, 126.3585
266.9469, 125.3101
267.4290, 124.3563
267.9111, 123.7212
268.3932, 123.4415
268.8754, 122.8979
269.3575, 122.0632
269.8396, 121.0037
270.3217, 119.7095
270.8038, 118.0424
271.2859, 116.6898
271.7681, 115.9392
272.2502, 115.7669
272.7323, 115.4222
273.2144, 114.8733
273.6965, 114.2268
274.1786, 113.6358
274.6608, 113.1389
275.1429, 112.4461
275.6250, 111.4206
276.1071, 110.1250
276.5892, 109.0166
277.0714, 108.1731
277.5535, 107.3459
278.0356, 106.2355
278.5177, 104.7949
278.9998, 103.5801
279.4819, 102.8096
279.9641, 102.3268
280.4462, 101.4180
280.9283, 99.98779
281.4104, 98.52697
281.8925, 97.49069
282.3746, 96.88756
282.8568, 96.09180
283.3389, 94.90141
283.8210, 93.53624
284.3031, 92.67998
284.7852, 92.38578
285.2673, 92.14468
285.7495, 91.47160
286.2316, 90.42360
286.7137, 89.80600
287.1958, 89.85921
287.6779, 90.18630
288.1600, 89.85097
288.6422, 88.84021
289.1243, 87.94150
289.6064, 87.81424
290.0885, 88.28876
290.5706, 88.46052
291.0527, 88.17402
291.5349, 87.73596
292.0170, 87.63490
292.4991, 87.84912
292.9812, 88.14193
293.4633, 88.40461
293.9454, 88.64455
294.4276, 88.85295
294.9097, 89.00542
295.3918, 89.22512
295.8739, 89.85217
296.3560, 90.75693
296.8381, 91.35268
297.3203, 90.97697
297.8024, 90.16564
298.2845, 90.07642
298.7666, 90.77504
299.2487, 91.76376
299.7308, 92.61813
300.2130, 93.37688
300.6951, 94.14140
301.1772, 95.11462
301.6593, 96.03600
302.1414, 96.36916
302.6235, 96.12711
303.1057, 96.00705
303.5878, 96.89938
304.0699, 98.29505
304.5520, 99.21476
305.0341, 99.02044
305.5162, 98.51087
305.9984, 98.43188
306.4805, 98.76505
306.9626, 99.38032
307.4447, 100.4397
307.9268, 101.6503
308.4089, 102.6219
308.8911, 103.2439
309.3732, 103.6201
309.8553, 103.8146
310.3374, 103.8284
310.8195, 103.6647
311.3016, 103.0983
311.7838, 102.4730
312.2659, 102.1477
312.7480, 102.3583
313.2301, 102.4740
313.7122, 102.0820
314.1943, 101.3205
314.6765, 100.4877
315.1586, 99.55334
315.6407, 98.70757
316.1228, 98.12160
316.6049, 97.90263
317.0870, 97.58989
317.5692, 96.99824
318.0513, 96.18968
318.5334, 95.25246
319.0155, 94.10894
319.4976, 92.93426
319.9797, 91.73739
320.4619, 90.49747
320.9440, 89.51838
321.4261, 89.13889
321.9082, 88.96233
322.3903, 88.61510
322.8724, 87.61994
323.3546, 86.84492
323.8367, 86.62956
324.3188, 86.95397
324.8009, 87.15907
325.2830, 86.99261
325.7651, 86.76469
326.2473, 86.67672
326.7294, 87.02404
327.2115, 87.19642
327.6936, 86.94432
328.1757, 86.40425
328.6578, 86.24104
329.1400, 86.71133
329.6221, 87.35282
330.1042, 87.97974
330.5863, 88.57262
331.0684, 89.18884
331.5505, 89.84483
332.0327, 90.51631
332.5148, 91.12769
332.9969, 91.52504
333.4790, 92.07102
333.9611, 92.98473
334.4432, 94.47400
334.9254, 95.42067
335.4075, 95.42020
335.8896, 95.20248
336.3717, 95.79150
336.8538, 97.37723
337.3359, 99.31003
337.8180, 101.4954
338.3001, 103.9180
338.7823, 106.2468
339.2644, 108.4971
339.7465, 110.5804
340.2286, 112.3267
340.7107, 113.6393
341.1928, 115.1153
341.6750, 116.8191
342.1571, 118.7690
342.6392, 120.9537
343.1213, 123.4056
343.6034, 126.0237
344.0855, 128.8711
344.5677, 131.9094
345.0498, 134.7291
345.5319, 137.1794
346.0140, 139.5231
346.4961, 142.3578
346.9782, 145.6496
347.4604, 148.8681
347.9425, 151.4775
348.4246, 153.7273
348.9067, 156.4201
349.3888, 159.6086
349.8709, 163.1903
350.3531, 167.3584
350.8352, 171.9053
351.3173, 176.0417
351.7994, 179.2885
352.2815, 181.9919
352.7636, 184.6546
353.2458, 187.2760
353.7279, 190.0085
354.2100, 193.1415
354.6921, 196.4473
355.1742, 199.5318
355.6563, 202.3681
356.1385, 204.8737
356.6206, 206.9678
357.1027, 208.6719
357.5848, 210.0490
358.0669, 211.0094
358.5490, 211.7448
359.0312, 212.4532
359.5133, 213.2475
359.9954, 213.8740
360.4775, 214.3685
360.9596, 214.5942
361.4417, 214.2571
361.9239, 213.1318
362.4060, 211.5032
362.8881, 209.4720
363.3702, 207.0115
363.8523, 204.3631
364.3344, 201.7218
364.8166, 198.8942
365.2987, 195.6319
365.7808, 191.4376
366.2629, 187.3304
366.7450, 183.6861
367.2271, 180.5057
367.7093, 177.1187
368.1914, 173.1291
368.6735, 169.1058
369.1556, 165.3890
369.6377, 162.1566
370.1198, 159.1327
370.6020, 156.5259
371.0841, 154.1508
371.5662, 151.2812
372.0483, 147.3759
372.5304, 143.6730
373.0125, 140.7108
373.4947, 138.7597
373.9768, 136.8572
374.4589, 135.0619
374.9410, 133.2464
375.4231, 131.1794
375.9052, 128.6959
376.3874, 126.3888
376.8695, 124.4714
377.3516, 122.9169
377.8337, 121.5255
378.3158, 120.3447
378.7979, 119.1529
379.2801, 117.6898
379.7622, 115.9253
380.2443, 114.2848
380.7264, 112.8030
381.2085, 111.5147
381.6906, 110.6023
382.1728, 110.0765
382.6549, 109.4967
383.1370, 108.3777
383.6191, 106.9136
384.1012, 106.0089
384.5833, 105.8563
385.0655, 105.8842
385.5476, 105.2052
386.0297, 104.0153
386.5118, 103.0672
386.9939, 103.0216
387.4760, 103.3051
387.9582, 103.0639
388.4403, 102.2756
388.9224, 101.3127
389.4045, 100.1426
389.8866, 99.08188
390.3687, 98.62600
390.8509, 99.64241
391.3330, 100.5610
391.8151, 99.99755
392.2972, 98.29397
392.7793, 96.83695
393.2614, 96.68766
393.7436, 96.80895
394.2257, 96.39072
394.7078, 95.01189
395.1899, 93.78402
395.6720, 93.05943
396.1541, 92.73976
396.6363, 92.66756
397.1184, 93.04337
397.6005, 93.43714
398.0826, 93.79659
398.5647, 94.15760
399.0468, 94.12276
399.5290, 93.28820
400.0111, 92.24646
400.4932, 91.47256
400.9753, 91.16862
401.4574, 90.86565
401.9395, 90.53094
402.4217, 90.16920
402.9038, 89.79381
403.3859, 89.33006
403.8680, 88.96339
404.3501, 88.85715
404.8322, 89.20692
405.3144, 89.06984
405.7965, 88.22395
406.2786, 87.15740
406.7607, 86.72466
407.2428, 87.05068
407.7249, 87.32763
408.2071, 87.27518
408.6892, 86.94213
409.1713, 86.63310
409.6534, 86.35285
410.1355, 86.05828
410.6176, 85.73251
411.0998, 85.36555
411.5819, 84.86785
412.0640, 84.13468
412.5461, 83.40917
413.0282, 83.15160
413.5103, 83.29492
413.9925, 83.43495
414.4746, 83.34085
414.9567, 83.09167
415.4388, 82.76606
415.9209, 82.35061
416.4030, 82.01508
416.8852, 82.04312
417.3673, 82.21983
417.8494, 82.19588
418.3315, 81.72738
418.8136, 81.10733
419.2957, 80.56174
419.7779, 80.05968
420.2600, 79.35285
420.7421, 77.84170
421.2242, 76.38284
421.7063, 75.70393
422.1884, 76.45085
422.6706, 76.96883
423.1527, 76.64478
423.6348, 75.84766
424.1169, 75.27272
424.5990, 75.24405
425.0811, 75.23025
425.5633, 75.06043
426.0454, 74.70367
426.5275, 74.38065
427.0096, 73.96015
427.4917, 73.67190
427.9738, 73.76761
428.4560, 74.63680
428.9381, 75.04772
429.4202, 74.70252
429.9023, 73.83695
430.3844, 73.29282
430.8665, 73.23308
431.3487, 73.03909
431.8308, 72.16317
432.3129, 70.53159
432.7950, 69.92558
433.2771, 70.59827
433.7592, 71.67827
434.2414, 72.10032
434.7235, 71.89907
435.2056, 71.44296
435.6877, 70.63898
436.1698, 69.80080
436.6519, 69.68297
437.1341, 70.25790
437.6162, 70.97149
438.0983, 71.75990
438.5804, 72.33749
439.0625, 72.03386
439.5446, 70.48615
440.0268, 68.91193
440.5089, 68.50508
440.9910, 68.86870
441.4731, 69.19407
441.9552, 68.96164
442.4373, 68.69544
442.9195, 68.76258
443.4016, 69.16657
443.8837, 69.57497
444.3658, 69.96185
444.8479, 70.23501
445.3300, 70.31532
445.8122, 70.06292
446.2943, 69.78075
446.7764, 69.47952
447.2585, 69.18188
447.7406, 68.94649
448.2227, 68.72887
448.7049, 68.62639
449.1870, 68.74494
449.6691, 69.17702
450.1512, 69.22304
450.6333, 68.54173
451.1154, 67.84641
451.5976, 67.92863
452.0797, 69.13482
452.5618, 69.93863
453.0439, 69.99943
453.5260, 69.56364
454.0081, 69.40903
454.4903, 69.57784
454.9724, 69.75311
455.4545, 69.75761
455.9366, 69.61018
456.4187, 69.37547
456.9008, 69.01430
457.3830, 68.79967
457.8651, 69.35622
458.3472, 70.38113
458.8293, 70.82712
459.3114, 70.00851
459.7935, 68.80606
460.2757, 68.34763
460.7578, 68.51720
461.2399, 68.71407
461.7220, 68.68544
462.2041, 68.44357
462.6862, 67.87786
463.1684, 66.83993
463.6505, 66.09599
464.1326, 66.24148
464.6147, 66.85983
465.0968, 67.41756
465.5789, 67.98656
466.0611, 68.22935
466.5432, 67.86332
467.0253, 66.95848
467.5074, 66.28419
467.9895, 65.91679
468.4716, 65.81241
468.9538, 65.99763
469.4359, 66.74072
469.9180, 67.16471
470.4001, 67.11149
470.8822, 66.85059
471.3643, 66.82757
471.8465, 67.19106
472.3286, 67.33493
472.8107, 66.97897
473.2928, 66.26450
473.7749, 66.04020
474.2570, 66.37205
474.7392, 66.85689
475.2213, 67.16231
475.7034, 67.33559
476.1855, 67.77686
476.6676, 68.61378
477.1497, 69.43279
477.6319, 69.55608
478.1140, 69.16833
478.5961, 68.86452
479.0782, 68.87828
479.5603, 69.12663
480.0424, 69.60609
480.5246, 70.28796
481.0067, 70.92045
481.4888, 71.23576
481.9709, 71.49149
482.4530, 71.91931
482.9352, 72.60317
483.4173, 73.36054
483.8994, 74.20002
484.3815, 75.05241
484.8636, 75.80410
485.3457, 76.52400
485.8279, 77.04208
486.3100, 77.17342
486.7921, 76.92123
487.2742, 76.98968
487.7563, 77.63494
488.2384, 78.34455
488.7206, 78.81779
489.2027, 78.92901
489.6848, 79.13538
490.1669, 79.43309
490.6490, 79.83961
491.1311, 80.47403
491.6133, 81.39539
492.0954, 82.08932
492.5775, 82.32686
493.0596, 82.23290
493.5417, 82.25261
494.0238, 82.38479
494.5060, 82.60183
494.9881, 83.01375
495.4702, 83.48500
495.9523, 83.55179
496.4344, 83.02386
496.9165, 82.68842
497.3987, 83.61552
497.8808, 85.27355
498.3629, 86.64275
498.8450, 87.37804
499.3271, 87.62585
499.8092, 87.19118
500.2914, 86.22061
500.7735, 85.53416
501.2556, 85.72195
501.7377, 86.07780
502.2198, 86.16821
502.7019, 85.80263
503.1841, 85.54501
503.6662, 85.66438
504.1483, 85.84445
504.6304, 85.69690
505.1125, 84.88368
505.5946, 84.30739
506.0768, 84.22010
506.5589, 84.48670
507.0410, 84.33731
507.5231, 83.55075
508.0052, 82.96719
508.4873, 83.23669
508.9695, 84.36705
509.4516, 84.76808
509.9337, 84.31923
510.4158, 83.60188
510.8979, 83.22804
511.3800, 83.14909
511.8622, 83.20008
512.3443, 83.45573
512.8264, 83.64423
513.3085, 83.25875
513.7906, 82.45578
514.2728, 81.79582
514.7549, 81.81249
515.2370, 81.96780
515.7191, 81.71696
516.2012, 80.99226
516.6833, 80.43291
517.1655, 80.45356
517.6476, 80.70309
518.1297, 80.88390
518.6118, 81.00690
519.0939, 80.96832
519.5760, 80.66554
520.0582, 80.19301
520.5403, 79.76282
521.0224, 79.29491
521.5045, 78.98191
521.9866, 78.83819
522.4688, 78.86497
522.9509, 79.34561
523.4330, 80.52215
523.9151, 81.59509
524.3972, 81.84974
524.8793, 81.26416
525.3615, 80.78553
525.8436, 80.49100
526.3257, 80.33305
526.8078, 80.28136
527.2899, 80.31850
527.7720, 80.36274
528.2542, 80.34270
528.7363, 80.34221
529.2184, 80.47771
529.7005, 80.73727
530.1826, 81.06248
530.6647, 81.45908
531.1469, 81.88049
531.6290, 82.35703
532.1111, 82.95598
532.5932, 83.27926
533.0753, 83.01622
533.5574, 82.46812
534.0396, 81.95200
534.5217, 81.43606
535.0038, 81.05500
535.4859, 80.86442
535.9680, 80.82191
536.4501, 80.83159
536.9323, 81.10635
537.4144, 81.06546
537.8965, 80.38667
538.3786, 79.05175
538.8607, 78.03040
539.3428, 77.38692
539.8250, 76.88109
540.3071, 76.27473
540.7892, 75.59755
541.2713, 75.10902
541.7534, 74.91384
542.2355, 74.74622
542.7177, 74.25249
543.1998, 73.47652
543.6819, 72.56888
544.1640, 71.35302
544.6461, 70.22249
545.1282, 69.69285
545.6104, 69.66102
546.0925, 69.46838
546.5746, 68.70361
547.0567, 67.71404
547.5388, 66.61463
548.0209, 65.24364
548.5031, 64.39792
548.9852, 64.66300
549.4673, 65.32743
549.9494, 65.64836
550.4315, 65.56707
550.9136, 65.19981
551.3958, 64.44092
551.8779, 63.42834
552.3600, 62.56079
552.8421, 61.81733
553.3242, 61.27551
553.8063, 61.02810
554.2885, 61.03321
554.7706, 60.95188
555.2527, 60.77657
555.7348, 60.59670
556.2169, 60.47810
556.6990, 60.41665
557.1812, 60.44744
557.6633, 60.63150
558.1454, 60.69242
558.6275, 60.26483
559.1096, 59.54325
559.5917, 58.86021
560.0739, 58.13414
560.5560, 57.69191
561.0381, 57.95851
561.5202, 58.73123
562.0023, 59.13150
562.4844, 58.56022
562.9666, 57.89105
563.4487, 57.52375
563.9308, 57.53492
564.4129, 57.50410
564.8950, 57.46619
565.3771, 57.34685
565.8593, 57.00144
566.3414, 56.28288
566.8235, 56.03194
567.3056, 56.49160
567.7877, 57.20118
568.2698, 57.21829
568.7520, 56.59081
569.2341, 56.13147
569.7162, 56.27483
570.1983, 56.69106
570.6804, 56.71703
571.1625, 56.41398
571.6447, 56.20496
572.1268, 56.46333
572.6089, 56.89406
573.0910, 57.26145
573.5731, 57.56109
574.0552, 57.64077
574.5374, 57.15197
575.0195, 56.55097
575.5016, 56.26207
575.9837, 56.69764
576.4658, 57.03684
576.9479, 57.18052
577.4301, 57.18676
577.9122, 57.15652
578.3943, 57.03817
578.8764, 56.99567
579.3585, 57.15615
579.8406, 57.44710
580.3228, 57.25027
580.8049, 56.47483
581.2870, 55.79930
581.7691, 55.84264
582.2512, 56.39165
582.7333, 56.52997
583.2155, 56.17486
583.6975, 55.72416
584.1796, 55.45940
584.6617, 55.37117
585.1439, 55.47344
585.6260, 55.92256
586.1081, 56.28644
586.5902, 56.12489
587.0723, 55.70942
587.5544, 55.56499
588.0366, 56.32864
588.5187, 56.88935
589.0008, 56.64559
589.4829, 55.66383
589.9650, 55.37124
590.4471, 56.31604
590.9293, 57.23351
591.4114, 57.40514
591.8935, 56.64272
592.3756, 56.58134
592.8577, 57.42319
593.3398, 58.42089
593.8220, 58.77619
594.3041, 58.56091
594.7862, 58.29502
595.2683, 58.01947
595.7504, 57.86762
596.2325, 58.19159
596.7147, 58.78961
597.1968, 59.13140
597.6789, 58.76934
598.1610, 58.25152
598.6431, 57.95089
599.1252, 57.83512
599.6074, 57.73237
600.0895, 57.56928
600.5716, 57.41296
601.0537, 57.24294
601.5358, 56.99818
602.0179, 57.09634
602.5001, 57.97309
602.9822, 58.76387
603.4643, 58.66699
603.9464, 57.24351
604.4285, 56.78887
604.9106, 57.75651
605.3928, 59.14604
605.8749, 59.27442
606.3570, 58.24979
606.8391, 57.50170
607.3212, 57.54000
607.8033, 57.98406
608.2855, 58.33907
608.7676, 58.61462
609.2497, 58.86040
609.7318, 59.17963
610.2139, 59.41970
610.6960, 59.37013
611.1782, 59.03809
611.6603, 58.85312
612.1424, 59.18394
612.6245, 59.54907
613.1066, 59.63456
613.5887, 59.25897
614.0709, 58.97146
614.5530, 58.79007
615.0351, 58.67958
615.5172, 58.59415
615.9993, 58.52053
616.4814, 58.52232
616.9636, 58.58868
617.4457, 58.76307
617.9278, 59.19731
618.4099, 59.86532
618.8920, 60.49774
619.3741, 61.03934
619.8563, 61.44707
620.3384, 61.56883
620.8205, 61.45724
621.3026, 61.37797
621.7847, 61.43801
622.2668, 61.62217
622.7490, 61.91071
623.2311, 62.29908
623.7132, 62.83181
624.1953, 63.77794
624.6774, 64.69798
625.1595, 65.27979
625.6417, 65.34688
626.1238, 65.39166
626.6059, 65.28745
627.0880, 65.29986
627.5701, 65.90419
628.0522, 67.18836
628.5344, 68.19102
629.0165, 68.63034
629.4986, 68.80156
629.9807, 69.29050
630.4628, 70.04368
630.9449, 70.75784
631.4271, 71.05603
631.9092, 71.39060
632.3913, 72.44590
632.8734, 74.09172
633.3555, 75.47144
633.8376, 75.91223
634.3198, 76.15910
634.8019, 76.70000
635.2840, 77.67246
635.7661, 78.46146
636.2482, 78.75887
636.7303, 79.06369
637.2125, 79.75026
637.6946, 81.01883
638.1767, 82.11069
638.6588, 83.00255
639.1409, 83.70435
639.6230, 84.09483
640.1052, 84.20859
640.5873, 84.57591
641.0694, 85.41288
641.5515, 86.41940
642.0336, 87.09236
642.5157, 87.54041
642.9979, 88.09452
643.4800, 89.07432
643.9621, 90.08045
644.4442, 90.87491
644.9263, 91.45690
645.4084, 91.83688
645.8906, 91.75512
646.3727, 91.69566
646.8548, 91.91508
647.3369, 92.45493
647.8190, 92.94131
648.3011, 93.35720
648.7833, 93.73955
649.2654, 94.16753
649.7475, 94.67390
650.2296, 94.80178
650.7117, 94.46156
651.1938, 93.99830
651.6760, 93.78296
652.1581, 93.79212
652.6402, 93.99965
653.1223, 94.51087
653.6044, 94.97765
654.0865, 95.09131
654.5687, 94.93959
655.0508, 94.69612
655.5329, 94.59429
656.0150, 94.23536
656.4971, 93.29440
656.9792, 91.90818
657.4614, 90.78014
657.9435, 89.85444
658.4256, 89.31452
658.9077, 89.37853
659.3898, 90.00410
659.8719, 90.08354
660.3541, 89.52604
660.8362, 88.84978
661.3183, 88.35991
661.8004, 88.04673
662.2825, 87.89010
662.7646, 87.89893
663.2468, 87.89036
663.7289, 87.66595
664.2110, 87.34237
664.6931, 87.05869
665.1752, 86.82275
665.6573, 86.69140
666.1395, 86.71597
666.6216, 86.84778
667.1037, 87.02654
667.5858, 87.47572
668.0679, 87.65108
668.5500, 87.32075
669.0322, 86.77657
669.5143, 86.75549
669.9964, 87.41922
670.4785, 87.78208
670.9606, 87.40058
671.4427, 86.61301
671.9249, 86.45403
672.4070, 86.84138
672.8891, 87.12232
673.3712, 86.48087
673.8533, 85.77911
674.3354, 86.33894
674.8176, 88.03422
675.2997, 89.26810
675.7818, 88.81057
676.2639, 87.95549
676.7460, 87.45258
677.2281, 87.43536
677.7103, 87.63925
678.1924, 88.30637
678.6745, 88.92679
679.1566, 89.06135
679.6387, 88.54850
680.1208, 88.33547
680.6030, 88.50658
681.0851, 88.88266
681.5672, 89.30458
682.0493, 89.75060
682.5314, 90.10173
683.0135, 90.22244
683.4957, 90.48512
683.9778, 91.40679
684.4599, 92.74009
684.9420, 93.98226
685.4241, 94.88345
685.9063, 95.75089
