##NAMES=Tourmaline
##RRUFFID=R110131
##LOCALITY=Bald Hornet area, King County, Washington, USA
##OWNER=RRUFF
##SOURCE=Bart Cannon
##DESCRIPTION=Green acicular crystals associated with quartz, supposed to be the new mineral luinaite
##STATUS=The identification of this mineral has been confirmed only by single crystal X-ray diffraction.
##URL=rruff.info/R110131
171.0057, 114.8404
171.4878, 115.8016
171.9699, 116.4424
172.4520, 118.0505
172.9341, 120.5966
173.4163, 123.6787
173.8984, 127.4043
174.3805, 131.4589
174.8626, 135.2050
175.3447, 138.4822
175.8268, 141.3706
176.3090, 143.7140
176.7911, 145.4849
177.2732, 147.5081
177.7553, 150.3815
178.2374, 153.3751
178.7195, 155.5283
179.2017, 155.8437
179.6838, 155.3798
180.1659, 155.7776
180.6480, 157.0903
181.1301, 158.6576
181.6122, 159.9923
182.0944, 161.1051
182.5765, 161.9835
183.0586, 162.4028
183.5407, 162.6260
184.0228, 163.3134
184.5049, 164.5261
184.9871, 165.8563
185.4692, 166.7791
185.9513, 167.3639
186.4334, 167.9344
186.9155, 168.7467
187.3976, 169.6774
187.8798, 170.2578
188.3619, 170.3983
188.8440, 170.4580
189.3261, 171.0580
189.8082, 172.1507
190.2903, 173.0505
190.7725, 173.1002
191.2546, 172.5332
191.7367, 172.7841
192.2188, 174.0370
192.7009, 175.7837
193.1830, 177.2036
193.6652, 178.2912
194.1473, 179.3444
194.6294, 180.5133
195.1115, 181.7876
195.5936, 182.9954
196.0757, 184.0444
196.5579, 185.1599
197.0400, 186.9276
197.5221, 189.4188
198.0042, 191.7883
198.4863, 193.3587
198.9684, 194.1075
199.4506, 195.6435
199.9327, 198.3180
200.4148, 201.4975
200.8969, 203.5999
201.3790, 204.4270
201.8611, 205.3655
202.3433, 207.4269
202.8254, 210.7498
203.3075, 213.5154
203.7896, 215.4615
204.2717, 216.8630
204.7538, 218.3396
205.2360, 219.8802
205.7181, 221.5215
206.2002, 223.2836
206.6823, 225.1653
207.1644, 227.1717
207.6465, 229.3851
208.1287, 231.6692
208.6108, 233.6540
209.0929, 235.2585
209.5750, 236.7895
210.0571, 238.4378
210.5392, 240.2634
211.0214, 241.9500
211.5035, 243.4159
211.9856, 244.7425
212.4677, 246.2773
212.9498, 248.1007
213.4319, 249.9753
213.9140, 251.7866
214.3962, 253.5364
214.8783, 255.2804
215.3604, 257.1440
215.8425, 258.9909
216.3246, 260.0895
216.8067, 260.1032
217.2889, 260.0340
217.7710, 260.6003
218.2531, 262.1890
218.7352, 263.2347
219.2173, 263.4711
219.6994, 263.0613
220.1816, 262.7966
220.6637, 262.7733
221.1458, 262.7078
221.6279, 262.4028
222.1100, 261.7479
222.5921, 261.1486
223.0743, 260.7176
223.5564, 260.3741
224.0385, 259.6518
224.5206, 258.3353
225.0027, 257.0179
225.4848, 256.1281
225.9670, 255.9918
226.4491, 255.5111
226.9312, 254.4826
227.4133, 253.0415
227.8954, 251.7730
228.3775, 250.7572
228.8597, 249.8353
229.3418, 248.9221
229.8239, 247.9910
230.3060, 247.1274
230.7881, 246.3400
231.2702, 245.6191
231.7524, 244.9300
232.2345, 244.1202
232.7166, 243.5528
233.1987, 243.5670
233.6808, 244.7608
234.1629, 245.1528
234.6451, 244.2399
235.1272, 242.3998
235.6093, 241.3922
236.0914, 241.9909
236.5735, 242.3629
237.0556, 241.3112
237.5378, 237.6834
238.0199, 235.2157
238.5020, 234.6134
238.9841, 235.3294
239.4662, 235.1785
239.9483, 233.9457
240.4305, 232.1584
240.9126, 230.0947
241.3947, 227.8790
241.8768, 225.0528
242.3589, 221.0858
242.8410, 216.5359
243.3232, 213.4024
243.8053, 212.4352
244.2874, 211.8727
244.7695, 210.8123
245.2516, 208.8618
245.7337, 207.3244
246.2159, 206.6689
246.6980, 206.3842
247.1801, 204.6792
247.6622, 200.3892
248.1443, 196.4052
248.6264, 194.2983
249.1086, 195.1861
249.5907, 195.2010
250.0728, 193.9691
250.5549, 191.9204
251.0370, 190.1354
251.5191, 188.4795
252.0013, 187.3046
252.4834, 186.9059
252.9655, 187.8806
253.4476, 188.0255
253.9297, 186.8950
254.4118, 185.1382
254.8940, 184.2179
255.3761, 184.4763
255.8582, 184.9651
256.3403, 185.3192
256.8224, 185.5179
257.3046, 185.6623
257.7867, 185.8474
258.2688, 185.9119
258.7509, 185.4373
259.2330, 184.0547
259.7151, 182.8911
260.1973, 182.4534
260.6794, 182.9591
261.1615, 183.2525
261.6436, 183.3117
262.1257, 183.1786
262.6078, 182.9273
263.0900, 182.5920
263.5721, 182.0697
264.0542, 181.2743
264.5363, 180.1313
265.0184, 179.1371
265.5005, 178.1854
265.9827, 177.4877
266.4648, 177.5691
266.9469, 178.9480
267.4290, 179.5693
267.9111, 178.4649
268.3932, 175.4683
268.8754, 173.6698
269.3575, 173.4808
269.8396, 173.8484
270.3217, 173.3715
270.8038, 171.7913
271.2859, 170.3752
271.7681, 169.5629
272.2502, 169.3264
272.7323, 168.7365
273.2144, 167.6830
273.6965, 166.5177
274.1786, 165.6560
274.6608, 165.1580
275.1429, 164.5959
275.6250, 163.8464
276.1071, 162.9417
276.5892, 162.1005
277.0714, 161.3616
277.5535, 160.6140
278.0356, 159.8535
278.5177, 159.1201
278.9998, 157.8838
279.4819, 155.7706
279.9641, 153.1171
280.4462, 151.6796
280.9283, 151.7125
281.4104, 151.8479
281.8925, 150.7756
282.3746, 148.4741
282.8568, 146.6270
283.3389, 145.5956
283.8210, 145.1285
284.3031, 144.5318
284.7852, 143.7853
285.2673, 143.0962
285.7495, 142.6133
286.2316, 142.3283
286.7137, 142.1385
287.1958, 142.0831
287.6779, 142.0428
288.1600, 141.8298
288.6422, 141.4457
289.1243, 140.7710
289.6064, 139.3772
290.0885, 137.4980
290.5706, 136.5151
291.0527, 136.6819
291.5349, 137.4534
292.0170, 138.1391
292.4991, 138.7189
292.9812, 139.0576
293.4633, 138.8858
293.9454, 138.3930
294.4276, 138.1668
294.9097, 138.2421
295.3918, 138.5775
295.8739, 139.3121
296.3560, 140.3370
296.8381, 141.1677
297.3203, 141.2205
297.8024, 140.9771
298.2845, 141.6071
298.7666, 143.2154
299.2487, 144.8877
299.7308, 145.7183
300.2130, 145.8836
300.6951, 145.8736
301.1772, 145.6684
301.6593, 145.5065
302.1414, 145.7616
302.6235, 146.4256
303.1057, 147.2831
303.5878, 148.3427
304.0699, 149.4490
304.5520, 150.2705
305.0341, 150.4294
305.5162, 150.5078
305.9984, 151.2884
306.4805, 152.6532
306.9626, 153.8456
307.4447, 154.0784
307.9268, 153.9059
308.4089, 154.0603
308.8911, 154.8811
309.3732, 155.8448
309.8553, 156.6438
310.3374, 157.2625
310.8195, 157.6598
311.3016, 157.4504
311.7838, 157.1880
312.2659, 157.5130
312.7480, 158.9450
313.2301, 160.0080
313.7122, 159.6419
314.1943, 158.2742
314.6765, 156.8096
315.1586, 155.0816
315.6407, 153.7879
316.1228, 153.6279
316.6049, 155.0536
317.0870, 156.0514
317.5692, 155.3629
318.0513, 153.7868
318.5334, 152.4404
319.0155, 151.5758
319.4976, 151.1096
319.9797, 151.2632
320.4619, 152.1327
320.9440, 152.5201
321.4261, 151.6431
321.9082, 150.2986
322.3903, 149.2429
322.8724, 148.8899
323.3546, 148.5831
323.8367, 148.0624
324.3188, 147.3423
324.8009, 146.9277
325.2830, 147.3233
325.7651, 147.7943
326.2473, 147.8650
326.7294, 146.6624
327.2115, 146.0214
327.6936, 146.3634
328.1757, 147.4987
328.6578, 148.4796
329.1400, 149.3732
329.6221, 150.0518
330.1042, 150.4516
330.5863, 150.3444
331.0684, 150.3290
331.5505, 150.2983
332.0327, 150.3755
332.5148, 150.8519
332.9969, 151.9210
333.4790, 153.1300
333.9611, 154.4101
334.4432, 155.8713
334.9254, 156.9181
335.4075, 157.3865
335.8896, 157.5593
336.3717, 157.7430
336.8538, 157.7521
337.3359, 158.2318
337.8180, 159.5085
338.3001, 161.5585
338.7823, 163.2035
339.2644, 164.2805
339.7465, 165.2475
340.2286, 166.5703
340.7107, 168.2987
341.1928, 170.0548
341.6750, 171.7585
342.1571, 173.4253
342.6392, 174.9808
343.1213, 176.4164
343.6034, 177.8678
344.0855, 179.5114
344.5677, 181.3215
345.0498, 182.9638
345.5319, 184.3262
346.0140, 185.6031
346.4961, 187.0595
346.9782, 188.6947
347.4604, 190.7326
347.9425, 193.5144
348.4246, 196.8354
348.9067, 199.8364
349.3888, 202.4424
349.8709, 204.8843
350.3531, 207.3362
350.8352, 209.8320
351.3173, 212.4862
351.7994, 215.5527
352.2815, 218.7617
352.7636, 221.6844
353.2458, 224.3182
353.7279, 226.7990
354.2100, 229.0857
354.6921, 231.3167
355.1742, 233.7410
355.6563, 236.6342
356.1385, 239.5711
356.6206, 242.0078
357.1027, 244.0792
357.5848, 246.3880
358.0669, 250.0501
358.5490, 253.7716
359.0312, 256.1913
359.5133, 256.6111
359.9954, 256.7582
360.4775, 257.5546
360.9596, 258.8153
361.4417, 260.1293
361.9239, 261.9261
362.4060, 263.2931
362.8881, 263.6293
363.3702, 262.7322
363.8523, 261.5788
364.3344, 260.4689
364.8166, 259.2771
365.2987, 257.8486
365.7808, 256.3519
366.2629, 254.4493
366.7450, 251.8967
367.2271, 248.6985
367.7093, 245.6009
368.1914, 243.2468
368.6735, 240.6659
369.1556, 237.1851
369.6377, 231.2668
370.1198, 226.4492
370.6020, 223.3002
371.0841, 221.4059
371.5662, 219.2991
372.0483, 217.1447
372.5304, 214.6044
373.0125, 211.4367
373.4947, 207.3083
373.9768, 203.5568
374.4589, 200.1592
374.9410, 197.1140
375.4231, 194.5145
375.9052, 192.4737
376.3874, 190.5213
376.8695, 188.5613
377.3516, 186.5722
377.8337, 184.5320
378.3158, 182.3431
378.7979, 180.3066
379.2801, 178.8757
379.7622, 178.0776
380.2443, 177.0250
380.7264, 175.4266
381.2085, 173.5482
381.6906, 172.1535
382.1728, 171.2556
382.6549, 170.3397
383.1370, 168.8173
383.6191, 166.9324
384.1012, 165.8300
384.5833, 165.7552
385.0655, 165.9791
385.5476, 165.4986
386.0297, 164.4737
386.5118, 163.5159
386.9939, 163.0228
387.4760, 162.7224
387.9582, 162.2033
388.4403, 161.4522
388.9224, 160.6663
389.4045, 160.0698
389.8866, 159.5340
390.3687, 158.8537
390.8509, 157.7328
391.3330, 156.7116
391.8151, 156.3271
392.2972, 156.4205
392.7793, 156.3330
393.2614, 155.4867
393.7436, 154.4993
394.2257, 153.8184
394.7078, 153.6525
395.1899, 153.4859
395.6720, 152.9145
396.1541, 152.2626
396.6363, 152.0528
397.1184, 153.1215
397.6005, 153.9895
398.0826, 154.0943
398.5647, 153.3250
399.0468, 152.5079
399.5290, 151.6191
400.0111, 150.7702
400.4932, 150.0470
400.9753, 149.4440
401.4574, 148.9797
401.9395, 148.7256
402.4217, 148.6286
402.9038, 148.4328
403.3859, 148.0547
403.8680, 147.7017
404.3501, 147.5204
404.8322, 147.6453
405.3144, 147.4412
405.7965, 146.7853
406.2786, 145.9497
406.7607, 145.3792
407.2428, 145.1135
407.7249, 144.8938
408.2071, 144.6328
408.6892, 144.3446
409.1713, 144.1147
409.6534, 143.9365
410.1355, 143.8486
410.6176, 144.0405
411.0998, 144.4189
411.5819, 144.4030
412.0640, 143.8063
412.5461, 142.8877
413.0282, 141.9003
413.5103, 140.8933
413.9925, 140.1311
414.4746, 139.9801
414.9567, 140.0941
415.4388, 139.9128
415.9209, 139.3670
416.4030, 138.7482
416.8852, 138.2602
417.3673, 137.8658
417.8494, 137.5020
418.3315, 136.9573
418.8136, 136.5884
419.2957, 136.8108
419.7779, 137.5144
420.2600, 137.9801
420.7421, 137.8529
421.2242, 137.3790
421.7063, 136.6973
422.1884, 135.6118
422.6706, 134.7280
423.1527, 134.2927
423.6348, 134.1411
424.1169, 133.9583
424.5990, 133.8012
425.0811, 133.5031
425.5633, 132.9212
426.0454, 131.9751
426.5275, 131.3185
427.0096, 131.2183
427.4917, 131.1851
427.9738, 130.7702
428.4560, 129.6330
428.9381, 128.8400
429.4202, 128.6254
429.9023, 128.8172
430.3844, 128.7927
430.8665, 128.4602
431.3487, 128.1726
431.8308, 128.1599
432.3129, 128.4431
432.7950, 128.6027
433.2771, 128.6626
433.7592, 128.5220
434.2414, 127.8760
434.7235, 126.7852
435.2056, 125.9846
435.6877, 125.8003
436.1698, 125.9879
436.6519, 126.0541
437.1341, 126.0045
437.6162, 125.9364
438.0983, 125.9174
438.5804, 125.9297
439.0625, 125.9756
439.5446, 126.0989
440.0268, 126.1078
440.5089, 125.7994
440.9910, 125.2488
441.4731, 124.6173
441.9552, 123.5266
442.4373, 122.7260
442.9195, 122.9119
443.4016, 124.0685
443.8837, 125.0286
444.3658, 125.4543
444.8479, 125.4063
445.3300, 124.8971
445.8122, 123.0232
446.2943, 121.8704
446.7764, 122.1729
447.2585, 123.4538
447.7406, 124.4955
448.2227, 125.3640
448.7049, 125.8304
449.1870, 125.7209
449.6691, 124.9017
450.1512, 124.3619
450.6333, 124.3941
451.1154, 124.3985
451.5976, 123.5970
452.0797, 121.4635
452.5618, 120.3845
453.0439, 121.0383
453.5260, 122.8234
454.0081, 123.9797
454.4903, 124.4744
454.9724, 124.5713
455.4545, 124.1858
455.9366, 123.4339
456.4187, 123.2619
456.9008, 123.8003
457.3830, 124.3584
457.8651, 123.8170
458.3472, 122.5655
458.8293, 121.9179
459.3114, 122.5531
459.7935, 123.7281
460.2757, 124.7859
460.7578, 125.6547
461.2399, 126.0128
461.7220, 125.1200
462.2041, 123.9195
462.6862, 123.3655
463.1684, 123.7121
463.6505, 124.1792
464.1326, 124.5053
464.6147, 124.6770
465.0968, 124.6786
465.5789, 124.2892
466.0611, 123.9518
466.5432, 123.8758
467.0253, 124.0295
467.5074, 124.0118
467.9895, 123.3718
468.4716, 122.8807
468.9538, 122.9456
469.4359, 123.9372
469.9180, 124.6740
470.4001, 125.1542
470.8822, 125.3848
471.3643, 125.3022
471.8465, 124.7163
472.3286, 124.3738
472.8107, 124.5275
473.2928, 125.0852
473.7749, 125.5458
474.2570, 125.8969
474.7392, 126.1969
475.2213, 126.6059
475.7034, 127.0559
476.1855, 126.9258
476.6676, 125.9831
477.1497, 125.0322
477.6319, 125.2554
478.1140, 126.3993
478.5961, 127.6465
479.0782, 128.9553
479.5603, 129.9903
480.0424, 130.0415
480.5246, 129.2548
481.0067, 128.8129
481.4888, 129.9417
481.9709, 131.4752
482.4530, 132.3070
482.9352, 131.9062
483.4173, 131.5909
483.8994, 132.0987
484.3815, 132.9702
484.8636, 133.5012
485.3457, 133.0648
485.8279, 132.7496
486.3100, 132.9177
486.7921, 133.5782
487.2742, 134.0674
487.7563, 133.9232
488.2384, 134.0862
488.7206, 135.2543
489.2027, 138.2440
489.6848, 139.9321
490.1669, 139.8106
490.6490, 138.8902
491.1311, 138.8607
491.6133, 139.8821
492.0954, 140.6611
492.5775, 140.6288
493.0596, 140.0954
493.5417, 140.4026
494.0238, 141.5630
494.5060, 142.5673
494.9881, 142.3300
495.4702, 141.3735
495.9523, 141.0699
496.4344, 141.6898
496.9165, 142.5369
497.3987, 142.9517
497.8808, 143.0941
498.3629, 143.2573
498.8450, 143.7730
499.3271, 144.1751
499.8092, 144.0546
500.2914, 143.5016
500.7735, 143.0234
501.2556, 142.7132
501.7377, 142.6092
502.2198, 142.7547
502.7019, 143.2317
503.1841, 143.7632
503.6662, 144.7792
504.1483, 145.6374
504.6304, 145.5257
505.1125, 143.5488
505.5946, 142.0807
506.0768, 141.6955
506.5589, 142.1182
507.0410, 141.8515
507.5231, 140.5942
508.0052, 139.4913
508.4873, 139.2350
508.9695, 139.8365
509.4516, 140.2833
509.9337, 140.5631
510.4158, 140.7075
510.8979, 140.7197
511.3800, 140.6175
511.8622, 140.4985
512.3443, 140.4457
512.8264, 140.3022
513.3085, 139.7199
513.7906, 138.8279
514.2728, 138.0881
514.7549, 137.8989
515.2370, 137.8859
515.7191, 137.6667
516.2012, 137.1942
516.6833, 136.9284
517.1655, 137.2751
517.6476, 137.8185
518.1297, 138.2054
518.6118, 138.4142
519.0939, 138.4003
519.5760, 138.1143
520.0582, 137.5988
520.5403, 136.9385
521.0224, 135.8599
521.5045, 135.0246
521.9866, 134.6060
522.4688, 134.6037
522.9509, 134.9440
523.4330, 135.8111
523.9151, 136.5936
524.3972, 136.7505
524.8793, 136.2652
525.3615, 135.8100
525.8436, 135.4125
526.3257, 135.1375
526.8078, 135.0910
527.2899, 135.2565
527.7720, 135.5678
528.2542, 136.0389
528.7363, 136.6055
529.2184, 137.3354
529.7005, 138.1507
530.1826, 138.6637
530.6647, 138.1880
531.1469, 137.5784
531.6290, 137.7343
532.1111, 139.0119
532.5932, 139.8996
533.0753, 139.4404
533.5574, 138.4524
534.0396, 137.7920
534.5217, 137.9040
535.0038, 138.0006
535.4859, 137.9185
535.9680, 137.7388
536.4501, 137.7788
536.9323, 138.4341
537.4144, 138.6201
537.8965, 137.7006
538.3786, 135.6337
538.8607, 134.5344
539.3428, 134.6219
539.8250, 135.0233
540.3071, 134.9938
540.7892, 134.5618
541.2713, 133.9434
541.7534, 133.1177
542.2355, 132.2676
542.7177, 131.6632
543.1998, 131.2483
543.6819, 130.8615
544.1640, 130.4839
544.6461, 130.0676
545.1282, 129.5948
545.6104, 129.0552
546.0925, 128.3771
546.5746, 127.3608
547.0567, 126.3121
547.5388, 125.4482
548.0209, 124.8714
548.5031, 124.2458
548.9852, 123.3867
549.4673, 122.4946
549.9494, 121.7797
550.4315, 121.3114
550.9136, 120.9170
551.3958, 120.6039
551.8779, 120.3445
552.3600, 120.0552
552.8421, 119.7132
553.3242, 119.4166
553.8063, 119.2530
554.2885, 119.1885
554.7706, 118.9401
555.2527, 118.4993
555.7348, 117.9711
556.2169, 117.2247
556.6990, 116.4718
557.1812, 116.3958
557.6633, 117.2948
558.1454, 118.1400
558.6275, 117.7137
559.1096, 116.5732
559.5917, 115.6903
560.0739, 115.6454
560.5560, 115.7854
561.0381, 116.0083
561.5202, 116.2074
562.0023, 115.9466
562.4844, 114.1711
562.9666, 112.7197
563.4487, 112.6230
563.9308, 114.2658
564.4129, 115.3356
564.8950, 115.6830
565.3771, 115.6181
565.8593, 115.3482
566.3414, 114.8179
566.8235, 114.2910
567.3056, 113.7457
567.7877, 113.2783
568.2698, 113.1398
568.7520, 113.3066
569.2341, 113.3896
569.7162, 113.2090
570.1983, 112.8779
570.6804, 112.5401
571.1625, 112.2135
571.6447, 112.0003
572.1268, 112.0174
572.6089, 112.1526
573.0910, 112.3210
573.5731, 112.5245
574.0552, 112.6821
574.5374, 112.7159
575.0195, 112.7081
575.5016, 112.7354
575.9837, 112.8890
576.4658, 112.9803
576.9479, 113.0662
577.4301, 113.0594
577.9122, 112.7119
578.3943, 111.6065
578.8764, 111.0074
579.3585, 111.4409
579.8406, 112.7109
580.3228, 113.4583
580.8049, 113.6515
581.2870, 113.5236
581.7691, 113.0425
582.2512, 112.3419
582.7333, 112.0221
583.2155, 112.1525
583.6975, 112.3235
584.1796, 112.0534
584.6617, 111.5862
585.1439, 111.3440
585.6260, 111.5643
586.1081, 111.8166
586.5902, 111.8329
587.0723, 111.6963
587.5544, 111.5668
588.0366, 111.2136
588.5187, 111.1502
589.0008, 111.7424
589.4829, 112.9376
589.9650, 113.7129
590.4471, 114.0266
590.9293, 113.9589
591.4114, 113.3870
591.8935, 112.1436
592.3756, 111.6314
592.8577, 112.0033
593.3398, 112.6924
593.8220, 113.1483
594.3041, 113.3974
594.7862, 113.6929
595.2683, 114.1624
595.7504, 114.4795
596.2325, 114.0476
596.7147, 113.1145
597.1968, 112.3313
597.6789, 112.0505
598.1610, 111.9635
598.6431, 111.8403
599.1252, 111.7139
599.6074, 111.7377
600.0895, 112.1644
600.5716, 112.5849
601.0537, 112.8253
601.5358, 112.8670
602.0179, 112.6906
602.5001, 111.9583
602.9822, 111.3444
603.4643, 111.4352
603.9464, 112.4960
604.4285, 113.2157
604.9106, 113.4844
605.3928, 113.4602
605.8749, 113.2734
606.3570, 112.9489
606.8391, 112.8522
607.3212, 113.2366
607.8033, 113.7228
608.2855, 113.6108
608.7676, 113.0640
609.2497, 112.6825
609.7318, 112.9770
610.2139, 113.4380
610.6960, 113.7354
611.1782, 113.8463
611.6603, 113.7312
612.1424, 112.9091
612.6245, 112.1956
613.1066, 112.1879
613.5887, 113.5343
614.0709, 114.1433
614.5530, 113.5479
615.0351, 112.6438
615.5172, 112.3810
615.9993, 112.8896
616.4814, 113.4745
616.9636, 114.0916
617.4457, 114.6548
617.9278, 114.9796
618.4099, 115.0804
618.8920, 115.1186
619.3741, 115.1334
619.8563, 115.1431
620.3384, 115.1838
620.8205, 115.2464
621.3026, 115.2917
621.7847, 115.1385
622.2668, 115.0723
622.7490, 115.4329
623.2311, 116.3105
623.7132, 116.8747
624.1953, 116.6519
624.6774, 116.2148
625.1595, 115.9717
625.6417, 116.1161
626.1238, 116.0756
626.6059, 115.7274
627.0880, 115.3340
627.5701, 115.2353
628.0522, 115.4446
628.5344, 115.8513
629.0165, 116.4906
629.4986, 117.2274
629.9807, 117.7505
630.4628, 118.1115
630.9449, 118.5729
631.4271, 119.3607
631.9092, 120.2556
632.3913, 121.2384
632.8734, 122.2132
633.3555, 122.5935
633.8376, 121.3011
634.3198, 119.9435
634.8019, 119.5518
635.2840, 120.4160
635.7661, 121.2459
636.2482, 121.7943
636.7303, 122.3628
637.2125, 123.2299
637.6946, 124.6988
638.1767, 125.5173
638.6588, 125.4274
639.1409, 125.0482
639.6230, 125.2452
640.1052, 125.9911
640.5873, 126.9259
641.0694, 128.0853
641.5515, 129.1584
642.0336, 129.5278
642.5157, 129.3876
642.9979, 129.3095
643.4800, 129.5336
643.9621, 129.9529
644.4442, 130.5679
644.9263, 131.3417
645.4084, 132.0696
645.8906, 132.8303
646.3727, 133.3979
646.8548, 133.5767
647.3369, 133.2913
647.8190, 133.2470
648.3011, 133.5388
648.7833, 133.9308
649.2654, 134.2371
649.7475, 134.4484
650.2296, 134.7344
650.7117, 135.1027
651.1938, 135.5542
651.6760, 136.2067
652.1581, 136.9530
652.6402, 137.3953
653.1223, 137.2827
653.6044, 137.1472
654.0865, 137.7268
654.5687, 138.5994
655.0508, 138.9588
655.5329, 137.8212
656.0150, 136.8231
656.4971, 136.7313
656.9792, 137.3579
657.4614, 137.6669
657.9435, 137.5314
658.4256, 137.1845
658.9077, 136.5840
659.3898, 135.7561
659.8719, 135.4236
660.3541, 135.6717
660.8362, 136.0135
661.3183, 136.0683
661.8004, 135.9278
662.2825, 136.0342
662.7646, 136.4318
663.2468, 136.7219
663.7289, 136.5078
664.2110, 135.9933
664.6931, 135.3759
665.1752, 134.5356
665.6573, 134.0357
666.1395, 134.3455
666.6216, 135.0435
667.1037, 135.6100
667.5858, 135.9589
668.0679, 136.1805
668.5500, 136.2401
