##NAMES=Tourmaline
##RRUFFID=R110133
##LOCALITY=Crystal Palace, King County, Washington, USA
##OWNER=RRUFF
##SOURCE=Bart Cannon
##DESCRIPTION=Masses of green acicular crystals associated with quartz
##STATUS=The identification of this mineral has been confirmed only by single crystal X-ray diffraction.
##URL=rruff.info/R110133
184.1699, 331.1977
184.6520, 332.4161
185.1342, 333.2183
185.6163, 333.3027
186.0984, 333.0727
186.5805, 332.8785
187.0626, 332.8109
187.5447, 332.9453
188.0269, 333.5233
188.5090, 334.6953
188.9911, 335.6324
189.4732, 336.0039
189.9553, 336.0423
190.4374, 336.0800
190.9196, 336.1347
191.4017, 336.3971
191.8838, 337.2171
192.3659, 338.6026
192.8480, 340.0182
193.3301, 341.3474
193.8123, 342.5357
194.2944, 343.3350
194.7765, 343.4152
195.2586, 343.4025
195.7407, 343.8657
196.2228, 344.8049
196.7050, 346.1245
197.1871, 347.9745
197.6692, 350.3196
198.1513, 352.3246
198.6334, 353.3632
199.1155, 354.4138
199.5977, 356.2765
200.0798, 358.9605
200.5619, 361.6862
201.0440, 363.5353
201.5261, 364.3102
202.0082, 365.6214
202.4904, 368.5056
202.9725, 371.3969
203.4546, 373.3413
203.9367, 374.3101
204.4188, 375.1270
204.9009, 376.8542
205.3831, 379.8247
205.8652, 382.6937
206.3473, 385.0080
206.8294, 387.5018
207.3115, 390.8766
207.7936, 395.0942
208.2758, 399.3479
208.7579, 402.3797
209.2400, 403.2805
209.7221, 404.9292
210.2042, 407.7263
210.6863, 410.8373
211.1685, 413.8683
211.6506, 416.6718
212.1327, 419.1557
212.6148, 421.1974
213.0969, 422.6458
213.5790, 423.8345
214.0612, 424.5638
214.5433, 425.1739
215.0254, 425.9559
215.5075, 426.9675
215.9896, 428.0621
216.4717, 429.0239
216.9539, 429.7870
217.4360, 430.5677
217.9181, 431.6920
218.4002, 432.6774
218.8823, 432.9947
219.3644, 432.5113
219.8466, 431.5943
220.3287, 430.6063
220.8108, 429.4445
221.2929, 428.7768
221.7750, 429.7081
222.2571, 430.7976
222.7393, 429.9389
223.2214, 426.5011
223.7035, 422.3076
224.1856, 419.6694
224.6677, 418.4512
225.1498, 417.2704
225.6320, 415.5267
226.1141, 413.6659
226.5962, 412.6218
227.0783, 412.8289
227.5604, 413.0097
228.0425, 411.5273
228.5247, 408.7934
229.0068, 406.4040
229.4889, 405.1391
229.9710, 404.6457
230.4531, 404.1261
230.9352, 403.4456
231.4174, 402.8784
231.8995, 402.6482
232.3816, 402.6838
232.8637, 402.8249
233.3458, 403.3337
233.8279, 403.9232
234.3101, 403.5326
234.7922, 401.5841
235.2743, 399.5730
235.7564, 398.4990
236.2385, 397.9966
236.7206, 397.3085
237.2028, 395.8676
237.6849, 393.8966
238.1670, 392.4047
238.6491, 391.9480
239.1312, 391.1193
239.6133, 389.5457
240.0955, 387.2536
240.5776, 384.1778
241.0597, 380.0183
241.5418, 375.1177
242.0239, 371.2755
242.5060, 369.2427
242.9882, 367.2969
243.4703, 364.9225
243.9524, 362.2923
244.4345, 359.6548
244.9166, 357.1419
245.3987, 354.7431
245.8809, 352.4621
246.3630, 350.3238
246.8451, 348.2913
247.3272, 346.5439
247.8093, 344.8384
248.2914, 342.8352
248.7736, 340.3260
249.2557, 337.4687
249.7378, 334.9255
250.2199, 332.7328
250.7020, 330.8553
251.1841, 329.4161
251.6663, 328.2458
252.1484, 327.1418
252.6305, 325.9973
253.1126, 324.9047
253.5947, 324.1394
254.0768, 324.3162
254.5590, 324.0876
255.0411, 322.9783
255.5232, 321.5799
256.0053, 320.5329
256.4874, 320.1118
256.9695, 320.1370
257.4517, 320.1748
257.9338, 320.3781
258.4159, 320.3955
258.8980, 320.4533
259.3801, 320.2258
259.8622, 319.0157
260.3444, 316.6225
260.8265, 314.0665
261.3086, 313.3393
261.7907, 316.6830
262.2728, 318.3101
262.7549, 316.8857
263.2371, 314.3305
263.7192, 312.5464
264.2013, 312.0368
264.6834, 312.0493
265.1655, 311.4508
265.6476, 309.8141
266.1298, 308.6055
266.6119, 308.2960
267.0940, 308.1787
267.5761, 307.4867
268.0582, 306.0896
268.5403, 304.6299
269.0225, 303.9358
269.5046, 304.2915
269.9867, 304.0864
270.4688, 303.1947
270.9509, 301.7879
271.4330, 299.7594
271.9152, 297.1588
272.3973, 294.6620
272.8794, 292.9969
273.3615, 292.2396
273.8436, 291.1937
274.3257, 289.2968
274.8079, 287.4795
275.2900, 286.8124
275.7721, 287.2415
276.2542, 287.3414
276.7363, 285.8221
277.2184, 282.9023
277.7006, 280.8448
278.1827, 280.5932
278.6648, 280.4710
279.1469, 279.0897
279.6290, 276.6052
280.1111, 274.3884
280.5933, 273.3947
281.0754, 273.2646
281.5575, 272.6097
282.0396, 271.2453
282.5217, 269.5990
283.0038, 267.7619
283.4860, 265.7979
283.9681, 263.9909
284.4502, 262.3813
284.9323, 261.1182
285.4144, 260.4735
285.8965, 260.7133
286.3787, 260.8954
286.8608, 260.3152
287.3429, 259.2079
287.8250, 258.5008
288.3071, 258.7290
288.7892, 259.1590
289.2714, 258.5314
289.7535, 256.6711
290.2356, 255.2624
290.7177, 255.6609
291.1998, 257.1259
291.6819, 257.5173
292.1641, 255.9487
292.6462, 254.0284
293.1283, 253.5975
293.6104, 254.4765
294.0925, 255.5307
294.5746, 256.5536
295.0568, 257.4091
295.5389, 257.6915
296.0210, 257.1587
296.5031, 256.6353
296.9852, 257.1423
297.4673, 258.2849
297.9495, 258.9465
298.4316, 258.2877
298.9137, 257.1248
299.3958, 256.6683
299.8779, 257.0151
300.3600, 257.7386
300.8422, 258.8617
301.3243, 260.1334
301.8064, 261.0760
302.2885, 261.4048
302.7706, 261.5492
303.2527, 261.9826
303.7349, 262.7184
304.2170, 263.5966
304.6991, 264.7781
305.1812, 265.9374
305.6633, 266.5626
306.1454, 266.3937
306.6276, 266.1724
307.1097, 266.4879
307.5918, 267.3268
308.0739, 268.5385
308.5560, 270.3906
309.0381, 272.3073
309.5203, 273.6974
310.0024, 274.5390
310.4845, 274.9828
310.9666, 275.1281
311.4487, 274.9620
311.9308, 274.2970
312.4130, 272.6750
312.8951, 271.1754
313.3772, 271.0151
313.8593, 271.9818
314.3414, 272.7072
314.8235, 272.5089
315.3057, 271.5693
315.7878, 270.2129
316.2699, 268.2194
316.7520, 266.4182
317.2341, 265.7199
317.7162, 265.6812
318.1984, 265.3353
318.6805, 264.1404
319.1626, 262.5352
319.6447, 261.2472
320.1268, 260.3567
320.6089, 259.3843
321.0911, 257.7736
321.5732, 255.9890
322.0553, 254.7362
322.5374, 254.3463
323.0195, 254.2024
323.5016, 253.5453
323.9838, 252.3636
324.4659, 251.6038
324.9480, 251.9962
325.4301, 252.7403
325.9122, 252.7627
326.3943, 251.8649
326.8765, 251.0024
327.3586, 251.0170
327.8407, 251.7315
328.3228, 252.1121
328.8049, 251.7133
329.2870, 251.2064
329.7692, 251.2754
330.2513, 251.8763
330.7334, 252.6225
331.2155, 253.3495
331.6976, 254.0855
332.1797, 254.9741
332.6619, 256.1523
333.1440, 257.1367
333.6261, 257.1974
334.1082, 256.7259
334.5903, 256.6829
335.0724, 257.7406
335.5546, 259.1866
336.0367, 259.9637
336.5188, 259.9795
337.0009, 260.2390
337.4830, 261.3651
337.9651, 263.1328
338.4473, 265.0985
338.9294, 267.2785
339.4115, 269.5513
339.8936, 272.0004
340.3757, 274.5577
340.8578, 276.5676
341.3400, 277.5409
341.8221, 278.1010
342.3042, 279.1318
342.7863, 280.6172
343.2684, 282.5704
343.7505, 285.0542
344.2327, 288.0082
344.7148, 291.4579
345.1969, 295.6289
345.6790, 299.6969
346.1611, 302.3389
346.6432, 303.8061
347.1254, 305.7822
347.6075, 309.2022
348.0896, 313.1182
348.5717, 316.0793
349.0538, 317.9316
349.5359, 320.1211
350.0181, 323.8821
350.5002, 328.9470
350.9823, 333.8215
351.4644, 338.5274
351.9465, 342.9102
352.4286, 346.8127
352.9108, 350.2769
353.3929, 353.5635
353.8750, 356.7328
354.3571, 359.8375
354.8392, 363.0379
355.3214, 366.4315
355.8035, 369.6867
356.2856, 372.7854
356.7677, 375.6372
357.2498, 378.1422
357.7319, 380.3062
358.2141, 381.9290
358.6962, 382.5485
359.1783, 381.9540
359.6604, 381.7236
360.1425, 382.5038
360.6246, 383.4367
361.1068, 383.8686
361.5889, 383.6986
362.0710, 382.8582
362.5531, 381.2272
363.0352, 378.7783
363.5173, 376.1546
363.9995, 373.5102
364.4816, 370.5509
364.9637, 366.9351
365.4458, 362.8843
365.9279, 358.9956
366.4100, 355.6217
366.8922, 352.5259
367.3743, 348.9690
367.8564, 344.2523
368.3385, 340.0809
368.8206, 337.1398
369.3027, 334.6515
369.7849, 331.6889
370.2670, 328.0171
370.7491, 324.1150
371.2312, 320.6851
371.7133, 318.0720
372.1954, 314.9113
372.6776, 310.5617
373.1597, 306.2577
373.6418, 302.6336
374.1239, 299.7458
374.6060, 297.4608
375.0881, 295.7365
375.5703, 294.5501
376.0524, 292.8442
376.5345, 289.9538
377.0166, 287.3092
377.4987, 285.2484
377.9808, 283.6219
378.4630, 282.2724
378.9451, 281.1308
379.4272, 280.0175
379.9093, 278.4737
380.3914, 276.0171
380.8735, 273.9240
381.3557, 272.3829
381.8378, 271.0773
382.3199, 269.8474
382.8020, 268.6212
383.2841, 267.3080
383.7662, 265.7073
384.2484, 263.6734
384.7305, 262.3344
385.2126, 262.5414
385.6947, 262.6407
386.1768, 261.8821
386.6589, 260.6288
387.1411, 259.7238
387.6232, 259.7625
388.1053, 260.3723
388.5874, 260.1706
389.0695, 258.6991
389.5516, 257.2572
390.0338, 255.8379
390.5159, 254.7342
390.9980, 254.4686
391.4801, 255.1652
391.9622, 255.8926
392.4443, 255.2482
392.9265, 253.0178
393.4086, 251.5465
393.8907, 252.0141
394.3728, 252.4753
394.8549, 251.6050
395.3370, 249.6797
395.8192, 247.9164
396.3013, 247.1521
396.7834, 247.1413
397.2655, 247.0843
397.7476, 246.9332
398.2297, 246.8607
398.7119, 247.2955
399.1940, 247.7616
399.6761, 247.5224
400.1582, 246.1548
400.6403, 244.5687
401.1224, 243.6786
401.6046, 243.4472
402.0867, 243.3993
402.5688, 243.5334
403.0509, 243.6330
403.5330, 243.4012
404.0151, 242.8309
404.4973, 242.3176
404.9794, 242.2425
405.4615, 242.2785
405.9436, 241.7063
406.4257, 240.3637
406.9078, 239.1082
407.3900, 238.7930
407.8721, 239.2163
408.3542, 239.2441
408.8363, 238.4605
409.3184, 237.5691
409.8005, 237.0638
410.2827, 236.8427
410.7648, 236.5556
411.2469, 236.0512
411.7290, 235.3883
412.2111, 234.6364
412.6932, 233.5799
413.1754, 232.9608
413.6575, 233.3751
414.1396, 234.0371
414.6217, 234.0469
415.1038, 233.2835
415.5859, 232.3378
416.0681, 231.7985
416.5502, 231.7158
417.0323, 231.5005
417.5144, 231.0208
417.9965, 230.5676
418.4786, 230.3137
418.9608, 230.1673
419.4429, 229.9914
419.9250, 229.7278
420.4071, 229.2885
420.8892, 228.3791
421.3713, 226.1505
421.8535, 224.7843
422.3356, 225.1046
422.8177, 225.7126
423.2998, 225.4168
423.7819, 224.1465
424.2640, 222.7545
424.7462, 222.1200
425.2283, 222.2855
425.7104, 222.5464
426.1925, 223.2513
426.6746, 223.6568
427.1567, 223.2800
427.6389, 222.5292
428.1210, 222.0942
428.6031, 222.3549
429.0852, 222.8855
429.5673, 222.7779
430.0494, 221.8463
430.5316, 220.9530
431.0137, 220.5576
431.4958, 220.0840
431.9779, 218.8308
432.4600, 216.8824
432.9421, 215.4808
433.4243, 216.0021
433.9064, 217.9480
434.3885, 219.1493
434.8706, 219.3924
435.3527, 219.1584
435.8348, 218.2515
436.3170, 217.1574
436.7991, 216.7827
437.2812, 217.7084
437.7633, 218.9141
438.2454, 219.6339
438.7275, 219.8581
439.2097, 219.3731
439.6918, 217.7866
440.1739, 215.9323
440.6560, 215.1115
441.1381, 215.3342
441.6202, 215.7343
442.1024, 216.2859
442.5845, 216.7755
443.0666, 216.8442
443.5487, 216.4963
444.0308, 216.2369
444.5129, 216.5127
444.9951, 217.2316
445.4772, 217.5159
445.9593, 217.0036
446.4414, 216.5463
446.9235, 216.5491
447.4056, 216.7259
447.8878, 216.5457
448.3699, 215.8391
448.8520, 215.0566
449.3341, 214.9377
449.8162, 215.9075
450.2983, 216.3275
450.7805, 215.5364
451.2626, 214.8881
451.7447, 215.3879
452.2268, 216.6543
452.7089, 217.5254
453.1910, 217.1585
453.6732, 215.9246
454.1553, 215.4380
454.6374, 216.3735
455.1195, 216.9086
455.6016, 216.4096
456.0837, 215.6646
456.5659, 215.2923
457.0480, 215.4182
457.5301, 215.8415
458.0122, 216.5796
458.4943, 217.6164
458.9764, 217.9000
459.4586, 216.8975
459.9407, 215.8784
460.4228, 215.5895
460.9049, 215.7263
461.3870, 215.7783
461.8691, 215.6370
462.3513, 215.2257
462.8334, 214.0722
463.3155, 212.2387
463.7976, 211.4756
464.2797, 212.8907
464.7618, 214.9428
465.2440, 215.6755
465.7261, 215.0988
466.2082, 214.2755
466.6903, 213.2998
467.1724, 212.4075
467.6545, 211.8596
468.1367, 211.6805
468.6188, 211.8724
469.1009, 212.5585
469.5830, 213.5860
470.0651, 214.1942
470.5472, 214.0174
471.0294, 213.9406
471.5115, 214.5149
471.9936, 215.1762
472.4757, 214.9680
472.9578, 213.7228
473.4399, 212.4763
473.9221, 212.5555
474.4042, 214.2979
474.8863, 215.4068
475.3684, 215.3685
475.8505, 215.3294
476.3326, 215.9614
476.8148, 216.8305
477.2969, 217.0488
477.7790, 216.1612
478.2611, 214.8077
478.7432, 214.4230
479.2253, 215.4129
479.7075, 216.2290
480.1896, 216.5796
480.6717, 216.8140
481.1538, 217.0774
481.6359, 217.3890
482.1180, 217.7334
482.6002, 218.0632
483.0823, 218.4282
483.5644, 219.0096
484.0465, 219.8625
484.5286, 220.7275
485.0107, 221.6108
485.4929, 222.3753
485.9750, 222.8109
486.4571, 222.8337
486.9392, 222.8332
487.4213, 222.9792
487.9034, 223.2805
488.3856, 223.8517
488.8677, 224.7622
489.3498, 225.5416
489.8319, 225.6557
490.3140, 225.1857
490.7961, 225.2252
491.2783, 226.4095
491.7604, 227.4270
492.2425, 227.5288
492.7246, 227.0753
493.2067, 226.6667
493.6888, 226.5135
494.1710, 226.6830
494.6531, 227.3560
495.1352, 228.8967
495.6173, 229.7608
496.0994, 229.2271
496.5815, 228.8169
497.0637, 229.4532
497.5458, 230.7800
498.0279, 232.0118
498.5100, 232.7390
498.9921, 232.9299
499.4742, 232.3423
499.9564, 230.3965
500.4385, 229.1547
500.9206, 229.3666
501.4027, 229.9920
501.8848, 230.5349
502.3669, 230.9294
502.8491, 231.2250
503.3312, 231.5629
503.8133, 231.8046
504.2954, 231.4438
504.7775, 230.3257
505.2596, 229.3574
505.7418, 229.1167
506.2239, 229.1877
506.7060, 228.8697
507.1881, 227.9561
507.6702, 227.3945
508.1523, 227.9895
508.6345, 229.1368
509.1166, 229.8631
509.5987, 230.0254
510.0808, 229.8524
510.5629, 229.4656
511.0450, 228.8878
511.5272, 228.3914
512.0093, 228.2037
512.4914, 227.8139
512.9735, 226.6609
513.4556, 225.3858
513.9377, 225.0122
514.4199, 225.7430
514.9020, 226.6558
515.3841, 226.5149
515.8662, 225.0855
516.3483, 224.2274
516.8304, 224.5361
517.3126, 224.8031
517.7947, 224.6941
518.2768, 224.3338
518.7589, 223.9232
519.2410, 223.5403
519.7231, 223.1526
520.2053, 222.6221
520.6874, 221.9152
521.1695, 221.5926
521.6516, 221.9017
522.1337, 222.4013
522.6158, 223.0254
523.0980, 223.6071
523.5801, 223.6280
524.0622, 222.4782
524.5443, 221.1123
525.0264, 220.6036
525.5085, 220.8204
525.9907, 221.0409
526.4728, 221.0580
526.9549, 220.8727
527.4370, 220.3646
527.9191, 219.4033
528.4012, 218.9441
528.8834, 219.5194
529.3655, 220.2518
529.8476, 220.5127
530.3297, 220.4049
530.8118, 220.3878
531.2939, 220.7273
531.7761, 221.1815
532.2582, 221.1168
532.7403, 220.2089
533.2224, 219.3544
533.7045, 218.2876
534.1866, 217.5105
534.6688, 217.5297
535.1509, 218.1251
535.6330, 218.6345
536.1151, 218.6634
536.5972, 218.2652
537.0793, 217.4918
537.5615, 216.2254
538.0436, 215.0934
538.5257, 214.4205
539.0078, 213.8575
539.4899, 213.0581
539.9720, 212.0289
540.4542, 211.1103
540.9363, 210.7108
541.4184, 210.4035
541.9005, 209.4901
542.3826, 207.9775
542.8647, 206.4126
543.3469, 204.9589
543.8290, 203.7492
544.3111, 203.2594
544.7932, 204.0605
545.2753, 204.1472
545.7574, 202.7339
546.2396, 200.8506
546.7217, 199.0872
547.2038, 197.6544
547.6859, 196.9359
548.1680, 197.2763
548.6501, 198.3832
549.1323, 199.0069
549.6144, 199.3623
550.0965, 198.7831
550.5786, 196.4941
551.0607, 193.9211
551.5428, 191.9752
552.0250, 190.7655
552.5071, 190.0444
552.9892, 189.7378
553.4713, 189.7478
553.9534, 189.8138
554.4355, 189.9513
554.9177, 190.0697
555.3998, 190.1591
555.8819, 190.1877
556.3640, 190.1835
556.8461, 190.1787
557.3282, 189.8643
557.8104, 188.9330
558.2925, 187.7361
558.7746, 186.4780
559.2567, 185.2607
559.7388, 184.6988
560.2209, 185.3011
560.7031, 186.5927
561.1852, 187.0603
561.6673, 186.0137
562.1494, 185.0798
562.6315, 184.1998
563.1136, 183.5012
563.5958, 183.1939
564.0779, 183.1761
564.5600, 183.1159
565.0421, 182.7807
565.5242, 182.2254
566.0063, 181.5967
566.4885, 180.8236
566.9706, 180.1913
567.4527, 179.6709
567.9348, 179.4031
568.4169, 179.6438
568.8990, 180.3159
569.3812, 180.8786
569.8633, 181.0263
570.3454, 180.9094
570.8275, 180.7014
571.3096, 180.4097
571.7917, 180.0869
572.2739, 179.7248
572.7560, 179.3867
573.2381, 179.1853
573.7202, 179.1268
574.2023, 179.1661
574.6844, 179.4719
575.1666, 179.7261
575.6487, 179.6312
576.1308, 179.3007
576.6129, 179.0547
577.0950, 179.0610
577.5771, 179.2273
578.0593, 179.4438
578.5414, 180.0079
579.0235, 179.8006
579.5056, 177.5736
579.9877, 175.6742
580.4698, 175.4591
580.9520, 176.3931
581.4341, 177.1421
581.9162, 177.1051
582.3983, 176.6373
582.8804, 176.0651
583.3625, 175.4183
583.8447, 175.1035
584.3268, 175.3481
584.8089, 175.6397
585.2910, 175.2770
585.7731, 174.3657
586.2552, 174.0324
586.7374, 175.2502
587.2195, 176.1535
587.7016, 175.1639
588.1837, 173.3596
588.6658, 172.8738
589.1479, 174.2813
589.6301, 176.0135
590.1122, 175.9959
590.5943, 173.9254
591.0764, 173.0273
591.5585, 174.5807
592.0406, 175.8415
592.5228, 176.0466
593.0049, 175.6694
593.4870, 175.1824
593.9691, 174.7222
594.4512, 174.4368
594.9333, 174.5937
595.4155, 175.0657
595.8976, 175.2624
596.3797, 175.0935
596.8618, 174.9229
597.3439, 175.0767
597.8260, 175.3214
598.3082, 175.0818
598.7903, 174.1293
599.2724, 173.2755
599.7545, 172.6637
600.2366, 172.3512
600.7188, 172.5991
601.2009, 173.2911
601.6830, 173.7996
602.1651, 173.6711
602.6472, 173.1137
603.1293, 172.9205
603.6115, 173.4242
604.0936, 173.6769
604.5757, 173.3158
605.0578, 172.9725
605.5399, 173.1275
606.0220, 173.6562
606.5042, 174.0806
606.9863, 174.1337
607.4684, 173.9414
607.9505, 173.5884
608.4326, 173.0856
608.9147, 172.9163
609.3969, 173.3169
609.8790, 173.8886
610.3611, 174.2665
610.8432, 174.4562
611.3253, 174.4132
611.8074, 174.1169
612.2896, 173.6037
612.7717, 172.6230
613.2538, 171.5138
613.7359, 170.8430
614.2180, 170.7737
614.7001, 171.0779
615.1823, 171.5175
615.6644, 172.0992
616.1465, 172.6844
616.6286, 173.4112
617.1107, 173.9347
617.5928, 174.1558
618.0750, 174.1527
618.5571, 173.9336
619.0392, 173.5161
619.5213, 173.1389
620.0034, 172.9906
620.4855, 173.0105
620.9677, 172.9725
621.4498, 172.8557
621.9319, 173.2061
622.4140, 174.5511
622.8961, 176.2520
623.3782, 176.8502
623.8604, 175.9702
624.3425, 175.3351
624.8246, 174.9082
625.3067, 174.9859
625.7888, 176.2150
626.2709, 178.0875
626.7531, 179.3980
627.2352, 179.5386
627.7173, 179.0933
628.1994, 179.1147
628.6815, 179.6931
629.1636, 180.2196
629.6458, 180.4895
630.1279, 180.9341
630.6100, 182.0520
631.0921, 183.4051
631.5742, 184.0993
632.0563, 183.6396
632.5385, 183.3285
633.0206, 184.3908
633.5027, 186.1927
633.9848, 187.4529
634.4669, 187.9908
634.9490, 188.3793
635.4312, 189.0379
635.9133, 189.8899
636.3954, 190.5763
636.8775, 191.0683
637.3596, 191.4151
637.8417, 191.2682
638.3239, 191.2596
638.8060, 192.0283
639.2881, 193.3687
639.7702, 194.5007
640.2523, 194.8993
640.7344, 194.9805
641.2166, 195.5485
641.6987, 196.6238
642.1808, 197.8169
642.6629, 199.2983
643.1450, 200.4865
643.6271, 200.5677
644.1093, 199.8604
644.5914, 199.5130
645.0735, 199.8775
645.5556, 200.4080
646.0377, 200.9827
646.5198, 201.5148
647.0020, 201.8509
647.4841, 201.9762
647.9662, 202.0325
648.4483, 202.1558
648.9304, 202.3162
649.4125, 202.2434
649.8947, 201.5058
650.3768, 201.3644
650.8589, 202.8067
651.3410, 204.2742
651.8231, 204.6378
652.3052, 203.9641
652.7874, 203.0508
653.2695, 202.2116
653.7516, 201.4102
654.2337, 200.6797
654.7158, 199.9724
655.1979, 198.9407
655.6801, 197.3986
656.1622, 196.0557
656.6443, 195.8451
657.1264, 196.8723
657.6085, 196.9824
658.0906, 195.2693
658.5728, 193.9093
659.0549, 193.7043
659.5370, 193.9259
660.0191, 193.7462
660.5012, 193.0894
660.9833, 192.5337
661.4655, 192.6732
661.9476, 193.2051
662.4297, 193.0942
662.9118, 192.2422
663.3939, 191.5313
663.8760, 191.2647
664.3582, 191.2149
664.8403, 191.1665
665.3224, 191.1171
665.8045, 190.9910
666.2866, 190.6897
666.7687, 190.3996
667.2509, 190.2029
667.7330, 190.0951
668.2151, 190.0561
668.6972, 190.0837
669.1793, 190.2336
669.6614, 190.6591
670.1436, 191.2960
670.6257, 191.1172
671.1078, 189.4252
671.5899, 188.3604
672.0720, 189.1333
672.5541, 190.3300
673.0363, 190.8380
673.5184, 190.6448
674.0005, 190.4442
674.4826, 190.5730
674.9647, 190.7944
675.4468, 190.9658
675.9290, 191.0353
676.4111, 190.7615
676.8932, 190.0615
677.3753, 189.3647
677.8574, 189.1836
678.3395, 189.5356
678.8217, 189.9583
679.3038, 190.6513
679.7859, 191.1557
680.2680, 191.2315
680.7501, 191.1962
681.2322, 191.2813
681.7144, 191.5368
682.1965, 191.9859
682.6786, 192.8111
