##NAMES=Tourmaline
##RRUFFID=R070563
##LOCALITY=unknown
##OWNER=RRUFF
##SOURCE=Gemological Institute of America 
##DESCRIPTION=White portion of a zoned watermelon tourmaline slice, see also R060566 (pink) and R070564 (green)
##STATUS=The identification of this mineral has been confirmed only by single crystal X-ray diffraction.
##URL=rruff.info/R070563
90.52570, 0.0000000E+00
91.00781, 11.93408
91.48993, 11.00481
91.97205, 10.63360
92.45416, 11.20429
92.93628, 12.31475
93.41840, 13.00478
93.90051, 12.94328
94.38263, 12.71177
94.86475, 13.52390
95.34686, 15.36681
95.82898, 17.01289
96.31110, 17.61932
96.79321, 17.20869
97.27533, 15.73230
97.75745, 12.47755
98.23956, 8.244282
98.72168, 6.846349
99.20380, 8.800543
99.68591, 12.00731
100.1680, 14.42659
100.6501, 16.01358
101.1323, 16.91779
101.6144, 17.06248
102.0965, 16.39422
102.5786, 15.48972
103.0607, 13.93988
103.5428, 12.50401
104.0250, 12.48782
104.5071, 14.39718
104.9892, 16.88530
105.4713, 19.58379
105.9534, 22.99540
106.4355, 25.46448
106.9177, 26.35673
107.3998, 26.27886
107.8819, 27.20580
108.3640, 30.37876
108.8461, 33.55056
109.3282, 35.71347
109.8104, 34.47425
110.2925, 34.91145
110.7746, 37.89186
111.2567, 43.09894
111.7388, 48.19410
112.2209, 53.73059
112.7031, 58.59937
113.1852, 62.08990
113.6673, 62.31836
114.1494, 62.76871
114.6315, 64.47380
115.1136, 67.51692
115.5958, 70.66868
116.0779, 73.56002
116.5600, 76.35313
117.0421, 79.21745
117.5242, 81.67787
118.0063, 84.65109
118.4885, 88.92687
118.9706, 94.82389
119.4527, 100.6201
119.9348, 105.0983
120.4169, 108.8043
120.8990, 112.8127
121.3812, 117.3002
121.8633, 122.4856
122.3454, 128.8644
122.8275, 137.1704
123.3096, 145.0989
123.7917, 150.3149
124.2739, 153.3224
124.7560, 155.9717
125.2381, 159.4439
125.7202, 163.3589
126.2023, 166.9494
126.6844, 169.8252
127.1666, 172.6403
127.6487, 176.5191
128.1308, 181.4154
128.6129, 186.2607
129.0950, 190.1528
129.5771, 193.2942
130.0593, 196.4243
130.5414, 199.7461
131.0235, 203.1720
131.5056, 206.2449
131.9877, 208.1718
132.4698, 209.0601
132.9520, 210.1643
133.4341, 211.4704
133.9162, 212.5654
134.3983, 212.9997
134.8804, 212.9638
135.3625, 214.0852
135.8447, 216.5547
136.3268, 219.6650
136.8089, 222.6954
137.2910, 225.7599
137.7731, 228.2188
138.2552, 229.9401
138.7374, 230.9621
139.2195, 230.8694
139.7016, 229.3738
140.1837, 227.0545
140.6658, 224.9786
141.1479, 222.8821
141.6301, 221.5317
142.1122, 221.3184
142.5943, 222.5153
143.0764, 224.1297
143.5585, 226.5064
144.0406, 229.2466
144.5228, 230.9534
145.0049, 231.0351
145.4870, 230.8186
145.9691, 230.9863
146.4512, 231.4537
146.9333, 232.4973
147.4155, 234.8577
147.8976, 238.2409
148.3797, 239.5348
148.8618, 236.6017
149.3439, 233.1403
149.8260, 231.5274
150.3082, 233.9421
150.7903, 235.7495
151.2724, 236.1286
151.7545, 235.0195
152.2366, 234.8150
152.7188, 236.6682
153.2009, 238.9205
153.6830, 240.2199
154.1651, 240.6194
154.6472, 239.8919
155.1293, 237.4115
155.6115, 232.8449
156.0936, 229.3100
156.5757, 227.6400
157.0578, 227.1371
157.5399, 227.0692
158.0220, 228.2566
158.5042, 229.0147
158.9863, 228.3815
159.4684, 225.8739
159.9505, 224.0649
160.4326, 224.2612
160.9147, 225.5668
161.3969, 226.6489
161.8790, 226.7198
162.3611, 226.6878
162.8432, 227.0237
163.3253, 227.8154
163.8074, 228.8784
164.2896, 230.5828
164.7717, 232.4981
165.2538, 233.7648
165.7359, 233.2121
166.2180, 232.3067
166.7001, 232.1076
167.1823, 232.8140
167.6644, 234.2168
168.1465, 236.5083
168.6286, 239.4526
169.1107, 242.3916
169.5928, 245.1212
170.0750, 247.5913
170.5571, 249.8045
171.0392, 251.7654
171.5213, 253.4222
172.0034, 254.1992
172.4855, 254.4115
172.9677, 255.4164
173.4498, 259.5688
173.9319, 264.7094
174.4140, 267.5536
174.8961, 265.9356
175.3782, 263.1966
175.8604, 263.2092
176.3425, 265.6998
176.8246, 268.3654
177.3067, 270.0356
177.7888, 270.6385
178.2709, 269.9039
178.7531, 266.9326
179.2352, 263.2227
179.7173, 261.1917
180.1994, 260.7684
180.6815, 260.5025
181.1636, 258.7082
181.6458, 255.9647
182.1279, 254.0357
182.6100, 253.3685
183.0921, 253.9059
183.5742, 256.0520
184.0563, 259.8494
184.5385, 263.6487
185.0206, 265.5357
185.5027, 265.8595
185.9848, 266.1991
186.4669, 267.0440
186.9490, 268.3159
187.4312, 269.7033
187.9133, 271.1162
188.3954, 273.0579
188.8775, 276.2946
189.3596, 280.7005
189.8417, 285.3013
190.3239, 290.0355
190.8060, 294.7411
191.2881, 298.1520
191.7702, 300.0288
192.2523, 301.4292
192.7344, 303.5186
193.2166, 306.2926
193.6987, 309.7362
194.1808, 314.2581
194.6629, 319.7043
195.1450, 324.5501
195.6271, 328.8691
196.1093, 332.4149
196.5914, 334.1090
197.0735, 333.7001
197.5556, 334.5199
198.0377, 338.6501
198.5198, 346.1548
199.0020, 352.0759
199.4841, 355.9808
199.9662, 359.0741
200.4483, 363.3428
200.9304, 368.8881
201.4125, 374.9668
201.8947, 381.3256
202.3768, 387.9736
202.8589, 394.7647
203.3410, 401.6911
203.8231, 408.8017
204.3052, 415.9050
204.7874, 422.8522
205.2695, 430.5624
205.7516, 439.7083
206.2337, 450.5644
206.7158, 460.8289
207.1979, 470.0070
207.6801, 479.0930
208.1622, 490.3267
208.6443, 504.5389
209.1264, 518.5247
209.6085, 530.3889
210.0906, 539.2742
210.5728, 550.0018
211.0549, 562.6374
211.5370, 577.0884
212.0191, 592.8860
212.5012, 610.2911
212.9833, 628.7068
213.4655, 647.7745
213.9476, 667.7362
214.4297, 687.8211
214.9118, 707.9452
215.3939, 728.1940
215.8760, 749.3729
216.3581, 771.3577
216.8403, 794.1681
217.3224, 817.8137
217.8045, 843.1083
218.2866, 867.2399
218.7687, 889.8994
219.2508, 911.3536
219.7330, 932.2504
220.2151, 954.2742
220.6972, 972.5291
221.1793, 984.3253
221.6614, 988.6991
222.1435, 989.4958
222.6257, 987.2370
223.1078, 981.3369
223.5899, 969.6483
224.0720, 949.9904
224.5541, 927.9651
225.0362, 905.5884
225.5184, 883.0046
226.0005, 860.1158
226.4826, 836.2631
226.9647, 812.2513
227.4468, 789.4959
227.9289, 768.0644
228.4111, 748.0734
228.8932, 729.5353
229.3753, 712.3546
229.8574, 696.9553
230.3395, 683.5048
230.8216, 671.9328
231.3038, 662.0673
231.7859, 655.1004
232.2680, 648.1776
232.7501, 639.5427
233.2322, 626.5698
233.7143, 617.9244
234.1965, 614.7844
234.6786, 615.7098
235.1607, 616.7589
235.6428, 618.0228
236.1249, 619.2569
236.6070, 620.3455
237.0892, 621.2242
237.5713, 622.0187
238.0534, 622.3714
238.5355, 622.7242
239.0176, 624.3513
239.4997, 628.2529
239.9819, 632.0248
240.4640, 634.6012
240.9461, 635.5946
241.4282, 636.2951
241.9103, 636.3407
242.3924, 636.2130
242.8746, 637.3029
243.3567, 641.0824
243.8388, 643.8580
244.3209, 643.9958
244.8030, 640.5128
245.2851, 637.0803
245.7673, 634.0174
246.2494, 630.8870
246.7315, 626.7128
247.2136, 621.2068
247.6957, 615.1225
248.1778, 608.7017
248.6600, 601.9902
249.1421, 594.9113
249.6242, 587.2600
250.1063, 579.3016
250.5884, 571.5005
251.0705, 563.7074
251.5527, 556.2760
252.0348, 549.2953
252.5169, 542.4915
252.9990, 536.9521
253.4811, 532.9379
253.9632, 529.9526
254.4454, 527.2928
254.9275, 525.2715
255.4096, 522.9277
255.8917, 519.7341
256.3738, 515.3284
256.8560, 511.9330
257.3381, 510.0493
257.8202, 508.7305
258.3023, 506.2987
258.7844, 501.9540
259.2665, 498.3056
259.7487, 496.2734
260.2308, 496.0990
260.7129, 495.8956
261.1950, 495.3578
261.6771, 495.1138
262.1592, 496.2860
262.6414, 499.6570
263.1235, 502.4100
263.6056, 503.4787
264.0877, 502.7097
264.5698, 502.6862
265.0519, 503.4307
265.5341, 504.8812
266.0162, 507.3672
266.4983, 511.6202
266.9804, 514.5323
267.4625, 514.8768
267.9446, 512.7083
268.4268, 511.9667
268.9089, 513.2750
269.3910, 514.9348
269.8731, 515.0968
270.3552, 513.3870
270.8373, 511.7093
271.3195, 510.6684
271.8016, 510.1145
272.2837, 508.3896
272.7658, 505.2354
273.2479, 501.4222
273.7300, 497.4674
274.2122, 493.3241
274.6943, 489.4404
275.1764, 485.9926
275.6585, 482.9019
276.1406, 479.8947
276.6227, 477.1369
277.1049, 473.9318
277.5870, 469.5775
278.0691, 463.9865
278.5512, 458.2256
279.0333, 452.2998
279.5154, 446.4039
279.9976, 441.2850
280.4797, 437.0272
280.9618, 433.0416
281.4439, 428.7056
281.9260, 424.0282
282.4081, 420.0161
282.8903, 417.1544
283.3724, 414.6302
283.8545, 410.0340
284.3366, 403.1340
284.8187, 396.5917
285.3008, 392.6410
285.7830, 390.9869
286.2651, 388.5970
286.7472, 385.1724
287.2293, 380.9303
287.7114, 375.7315
288.1935, 369.5891
288.6757, 364.2399
289.1578, 361.3653
289.6399, 360.3613
290.1220, 358.1683
290.6041, 354.3964
291.0862, 350.0875
291.5684, 346.6416
292.0505, 343.9940
292.5326, 341.6778
293.0147, 339.9792
293.4968, 338.4483
293.9789, 335.4059
294.4611, 330.6657
294.9432, 325.4825
295.4253, 320.9337
295.9074, 317.0677
296.3895, 314.1833
296.8716, 312.8443
297.3538, 312.4445
297.8359, 311.6830
298.3180, 310.5308
298.8001, 309.5221
299.2822, 309.0337
299.7643, 309.0624
300.2465, 309.6090
300.7286, 310.7799
301.2107, 312.3898
301.6928, 314.4494
302.1749, 316.8993
302.6570, 319.0993
303.1392, 319.8538
303.6213, 320.0986
304.1034, 321.5409
304.5855, 325.5341
305.0676, 329.9134
305.5497, 332.0321
306.0319, 332.3576
306.5140, 333.4319
306.9961, 338.0437
307.4782, 343.8990
307.9603, 348.1309
308.4424, 349.2388
308.9246, 350.0982
309.4067, 353.2068
309.8888, 357.9047
310.3709, 362.3830
310.8530, 365.2205
311.3351, 367.6120
311.8173, 370.5999
312.2994, 374.5277
312.7815, 378.6142
313.2636, 382.9372
313.7457, 387.0288
314.2278, 390.0612
314.7100, 390.6768
315.1921, 390.8214
315.6742, 391.7270
316.1563, 393.6446
316.6384, 395.5240
317.1205, 396.8634
317.6027, 397.8974
318.0848, 398.9135
318.5669, 398.9659
319.0490, 399.9383
319.5311, 402.9739
320.0132, 408.1951
320.4954, 413.2830
320.9775, 417.3489
321.4596, 421.0783
321.9417, 424.9900
322.4238, 428.7080
322.9059, 433.1154
323.3881, 439.1538
323.8702, 446.5368
324.3523, 452.5018
324.8344, 455.1550
325.3165, 457.2565
325.7986, 460.4662
326.2808, 465.9576
326.7629, 471.3368
327.2450, 476.9399
327.7271, 482.4473
328.2092, 486.6084
328.6913, 488.3961
329.1735, 489.7300
329.6556, 491.4366
330.1377, 494.1567
330.6198, 496.0151
331.1019, 496.7279
331.5840, 496.6523
332.0662, 496.4337
332.5483, 495.8496
333.0304, 495.4196
333.5125, 495.2431
333.9946, 495.2430
334.4767, 495.9588
334.9589, 497.9367
335.4410, 500.0833
335.9231, 501.0009
336.4052, 500.4345
336.8873, 499.2310
337.3694, 497.2069
337.8515, 494.4884
338.3336, 493.2932
338.8158, 493.9635
339.2979, 495.4528
339.7800, 497.0807
340.2621, 498.9575
340.7442, 500.0775
341.2263, 499.9405
341.7085, 499.0816
342.1906, 499.1568
342.6727, 500.1629
343.1548, 502.1285
343.6369, 505.7653
344.1190, 510.8695
344.6012, 514.3563
345.0833, 515.3712
345.5654, 515.5941
346.0475, 518.3389
346.5296, 523.4270
347.0117, 528.3367
347.4939, 531.4541
347.9760, 533.2599
348.4581, 535.3142
348.9402, 537.7003
349.4223, 540.2052
349.9044, 542.5063
350.3866, 544.7401
350.8687, 547.3874
351.3508, 550.7161
351.8329, 554.5743
352.3150, 558.7868
352.7971, 563.3710
353.2793, 568.1993
353.7614, 572.9491
354.2435, 578.0089
354.7256, 584.0499
355.2077, 591.4181
355.6898, 599.6054
356.1720, 607.9266
356.6541, 616.6547
357.1362, 626.8267
357.6183, 640.2621
358.1004, 654.8550
358.5826, 668.5038
359.0647, 680.1537
359.5468, 692.5405
360.0289, 707.6639
360.5110, 724.5244
360.9931, 741.2906
361.4753, 755.0629
361.9574, 770.0881
362.4395, 789.3088
362.9216, 813.7924
363.4037, 837.1913
363.8858, 856.1094
364.3680, 873.5908
364.8501, 892.9238
365.3322, 914.4300
365.8143, 937.9756
366.2964, 964.1287
366.7785, 992.9467
367.2607, 1021.704
367.7428, 1049.592
368.2249, 1077.954
368.7070, 1107.737
369.1891, 1139.932
369.6712, 1171.945
370.1534, 1204.908
370.6355, 1237.813
371.1176, 1267.737
371.5997, 1296.318
372.0818, 1319.773
372.5639, 1336.881
373.0461, 1347.568
373.5282, 1352.106
374.0103, 1350.674
374.4924, 1343.017
374.9745, 1328.724
375.4566, 1307.332
375.9388, 1280.374
376.4209, 1247.612
376.9030, 1208.954
377.3851, 1169.968
377.8672, 1130.116
378.3493, 1090.214
378.8315, 1051.211
379.3136, 1012.779
379.7957, 976.1066
380.2778, 940.9600
380.7599, 907.7490
381.2420, 876.3466
381.7242, 847.2640
382.2063, 820.0297
382.6884, 794.6774
383.1705, 771.0989
383.6526, 750.0808
384.1347, 732.0051
384.6169, 715.2847
385.0990, 698.4651
385.5811, 681.6331
386.0632, 665.8652
386.5453, 651.4139
387.0274, 638.3576
387.5096, 627.2836
387.9917, 618.2246
388.4738, 610.0746
388.9559, 601.8705
389.4380, 594.3141
389.9201, 588.3715
390.4023, 585.4442
390.8844, 583.0569
391.3665, 579.2983
391.8486, 574.5988
392.3307, 570.6661
392.8128, 568.3754
393.2950, 567.0871
393.7771, 566.3658
394.2592, 566.1481
394.7413, 566.4532
395.2234, 567.3925
395.7055, 568.8291
396.1877, 570.5554
396.6698, 573.0851
397.1519, 575.3573
397.6340, 576.8111
398.1161, 577.2648
398.5982, 578.4680
399.0804, 581.7150
399.5625, 585.0500
400.0446, 587.0364
400.5267, 586.6138
401.0088, 586.4083
401.4909, 586.5543
401.9731, 587.0843
402.4552, 588.2377
402.9373, 590.6072
403.4194, 592.6440
403.9015, 593.4736
404.3836, 592.6863
404.8658, 592.4365
405.3479, 593.1249
405.8300, 593.7937
406.3121, 593.0534
406.7942, 590.8313
407.2763, 587.5880
407.7585, 583.1494
408.2406, 577.7408
408.7227, 573.2288
409.2048, 569.8596
409.6869, 565.4828
410.1690, 557.3441
410.6512, 546.2908
411.1333, 536.1225
411.6154, 527.6872
412.0975, 520.1879
412.5796, 512.7628
413.0617, 505.2717
413.5439, 496.9063
414.0260, 486.3921
414.5081, 474.9354
414.9902, 464.5564
415.4723, 455.4568
415.9544, 446.2469
416.4366, 435.5656
416.9187, 424.1747
417.4008, 413.2588
417.8829, 402.7811
418.3650, 393.2185
418.8471, 385.0624
419.3293, 378.1798
419.8114, 371.3146
420.2935, 363.3880
420.7756, 355.6793
421.2577, 349.3195
421.7398, 345.0237
422.2220, 340.8029
422.7041, 336.1655
423.1862, 331.3090
423.6683, 326.5737
424.1504, 321.5580
424.6325, 317.0351
425.1147, 313.3333
425.5968, 310.4812
426.0789, 307.7243
426.5610, 304.9590
427.0431, 302.3807
427.5252, 300.2333
428.0074, 298.8027
428.4895, 297.0641
428.9716, 294.5962
429.4537, 291.8717
429.9358, 290.5375
430.4179, 290.8584
430.9001, 291.6227
431.3822, 292.4557
431.8643, 293.3682
432.3464, 293.3506
432.8285, 292.1222
433.3106, 290.8716
433.7928, 291.4383
434.2749, 293.5788
434.7570, 295.2050
435.2391, 295.4247
435.7212, 294.9357
436.2033, 295.1348
436.6855, 295.9594
437.1676, 296.7857
437.6497, 296.8677
438.1318, 296.7566
438.6139, 297.4317
439.0960, 299.2518
439.5782, 301.1188
440.0603, 302.2738
440.5424, 302.8240
441.0245, 302.9595
441.5066, 301.8398
441.9887, 301.0918
442.4709, 302.3094
442.9530, 305.4028
443.4351, 307.3141
443.9172, 305.4647
444.3993, 302.8119
444.8814, 301.5394
445.3636, 303.1509
445.8457, 304.6043
446.3278, 305.5377
446.8099, 306.0209
447.2920, 306.2728
447.7741, 306.9708
448.2563, 306.6818
448.7384, 304.7313
449.2205, 300.8207
449.7026, 297.5129
450.1847, 294.9100
450.6668, 292.8313
451.1490, 291.1430
451.6311, 289.8565
452.1132, 288.9633
452.5953, 288.6070
453.0774, 288.5313
453.5595, 288.0117
454.0417, 287.0162
454.5238, 285.8331
455.0059, 284.7535
455.4880, 283.6613
455.9701, 281.6638
456.4522, 278.6070
456.9344, 275.5506
457.4165, 273.8916
457.8986, 273.1666
458.3807, 272.0843
458.8628, 269.8245
459.3449, 267.4685
459.8271, 266.3694
460.3092, 266.3004
460.7913, 266.2573
461.2734, 265.4258
461.7555, 264.5046
462.2376, 264.1424
462.7198, 264.5419
463.2019, 264.9806
463.6840, 265.1555
464.1661, 265.1666
464.6482, 265.1351
465.1303, 264.6756
465.6125, 264.6047
466.0946, 265.4600
466.5767, 267.0994
467.0588, 268.1303
467.5409, 267.6791
468.0230, 267.2866
468.5052, 267.7770
468.9873, 270.0580
469.4694, 270.8649
469.9515, 269.4426
470.4336, 267.2093
470.9157, 266.3082
471.3979, 267.2693
471.8800, 267.6954
472.3621, 266.5734
472.8442, 264.4752
473.3263, 264.3495
473.8084, 266.4055
474.2906, 268.8035
474.7727, 270.1756
475.2548, 270.7259
475.7369, 271.5262
476.2190, 272.7773
476.7011, 273.9106
477.1833, 274.0628
477.6654, 273.5320
478.1475, 273.1323
478.6296, 272.8864
479.1117, 273.1549
479.5938, 274.5659
480.0760, 276.9809
480.5581, 279.4071
481.0402, 281.2343
481.5223, 282.8850
482.0044, 284.7430
482.4865, 286.9861
482.9687, 289.0910
483.4508, 290.7845
483.9329, 292.2650
484.4150, 293.7915
484.8971, 295.4336
485.3792, 297.1168
485.8614, 298.8464
486.3435, 300.6199
486.8256, 302.3891
487.3077, 304.0113
487.7898, 305.7713
488.2719, 307.9279
488.7541, 310.7346
489.2362, 312.9709
489.7183, 314.5275
490.2004, 315.6502
490.6825, 316.4673
491.1646, 316.8736
491.6468, 318.2070
492.1289, 321.4394
492.6110, 325.5783
493.0931, 327.5768
493.5752, 327.4661
494.0573, 327.2534
494.5395, 328.3268
495.0216, 330.3460
495.5037, 332.7403
495.9858, 335.4515
496.4679, 338.2372
496.9500, 340.7203
497.4322, 343.1277
497.9143, 345.7909
498.3964, 349.4951
498.8785, 352.9152
499.3606, 355.0524
499.8427, 356.1700
500.3249, 357.3501
500.8070, 358.1103
501.2891, 359.7192
501.7712, 363.1110
502.2533, 369.2784
502.7354, 374.6201
503.2176, 378.8397
503.6997, 382.0866
504.1818, 384.3597
504.6639, 384.7176
505.1460, 385.8897
505.6281, 388.6019
506.1103, 392.3680
506.5924, 395.0637
507.0745, 396.3460
507.5566, 397.7486
508.0387, 400.4528
508.5208, 404.3303
509.0030, 406.5651
509.4851, 406.9420
509.9672, 406.8864
510.4493, 408.0971
510.9314, 410.1733
511.4135, 411.7042
511.8957, 412.1404
512.3778, 412.2210
512.8599, 413.0493
513.3420, 414.2768
513.8242, 414.8696
514.3063, 413.5108
514.7884, 411.8736
515.2705, 411.6688
515.7526, 413.0235
516.2347, 413.3827
516.7169, 411.4021
517.1990, 408.2126
517.6811, 404.6146
518.1632, 399.3613
518.6453, 395.5719
519.1274, 395.1967
519.6096, 396.1605
520.0917, 394.5039
520.5738, 388.0470
521.0559, 382.6618
521.5380, 380.5012
522.0201, 381.2563
522.5023, 379.0833
522.9844, 373.0545
523.4665, 366.7005
523.9486, 362.7127
524.4307, 360.9564
524.9128, 358.9823
525.3950, 356.5504
525.8771, 354.1162
526.3592, 352.1490
526.8413, 350.6785
527.3234, 349.7409
527.8055, 349.3062
528.2877, 349.4652
528.7698, 350.8340
529.2519, 353.0591
529.7340, 354.6948
530.2161, 353.7775
530.6982, 352.7346
531.1804, 353.7791
531.6625, 357.6167
532.1446, 360.7111
532.6267, 361.0410
533.1088, 360.5090
533.5909, 360.8632
534.0731, 363.2678
534.5552, 365.4259
535.0373, 367.1427
535.5194, 368.5097
536.0015, 369.8179
536.4836, 370.9936
536.9658, 372.2639
537.4479, 373.9324
537.9300, 375.9266
538.4121, 376.5963
538.8942, 375.7466
539.3763, 374.3374
539.8585, 373.1243
540.3406, 372.0471
540.8227, 370.8643
541.3048, 369.6169
541.7869, 367.9404
542.2690, 364.8727
542.7512, 360.9907
543.2333, 357.7520
543.7154, 356.5419
544.1975, 355.5700
544.6796, 353.4779
545.1617, 350.3721
545.6439, 346.7939
546.1260, 341.7211
546.6081, 337.2212
547.0902, 334.8360
547.5723, 335.4145
548.0544, 335.3043
548.5366, 333.7628
549.0187, 331.4374
549.5008, 328.8526
549.9829, 325.6239
550.4650, 322.8387
550.9471, 320.6187
551.4293, 318.8828
551.9114, 317.5089
552.3935, 316.6161
552.8756, 315.5190
553.3577, 313.9546
553.8398, 311.9760
554.3220, 309.6579
554.8041, 306.9722
555.2862, 304.5315
555.7683, 302.9397
556.2504, 301.8920
556.7325, 300.8600
557.2147, 299.8500
557.6968, 298.4305
558.1789, 295.5091
558.6610, 292.1117
559.1431, 289.7801
559.6252, 290.7827
560.1074, 291.1914
560.5895, 288.6965
561.0716, 284.2198
561.5537, 280.9047
562.0358, 280.4643
562.5179, 280.1924
563.0001, 279.0851
563.4822, 277.0389
563.9643, 275.3120
564.4464, 273.9384
564.9285, 272.8369
565.4106, 271.9899
565.8928, 271.4437
566.3749, 270.8412
566.8570, 270.1493
567.3391, 269.3950
567.8212, 268.6331
568.3033, 267.8484
568.7855, 266.9727
569.2676, 265.9367
569.7497, 264.8331
570.2318, 263.8532
570.7139, 262.9494
571.1960, 261.8323
571.6782, 259.8185
572.1603, 257.8795
572.6424, 256.9516
573.1245, 257.1605
573.6066, 257.4295
574.0887, 257.6042
574.5709, 257.5183
575.0530, 257.0331
575.5351, 255.4991
576.0172, 254.4784
576.4993, 254.1873
576.9814, 254.3422
577.4636, 254.5234
577.9457, 254.7675
578.4278, 254.9512
578.9099, 255.0781
579.3920, 255.1104
579.8741, 254.7827
580.3563, 254.0581
580.8384, 253.4906
581.3205, 253.4306
581.8026, 253.7809
582.2847, 254.3519
582.7668, 255.1436
583.2490, 255.8722
583.7311, 256.6033
584.2131, 257.0150
584.6953, 256.4958
585.1774, 254.2944
585.6595, 252.6108
586.1416, 253.2677
586.6237, 255.0033
587.1058, 255.9144
587.5880, 254.8202
588.0701, 253.6661
