##NAMES=Traskite
##RRUFFID=R060706
##IDEAL CHEMISTRY=Ba_21_Ca(Fe^2+^,Mn^2+^,Ti^4+^)_4_(Ti^4+^,Fe^2+^,Mg)_12_(Si_12_O_36_)(Si_2_O_7_)_6_(O,OH)_30_Cl_6_&#183;14H_2_O
##LOCALITY=Esquire no. 1 mine, Rush Creek, Fresno County, California, United States
##OWNER=RRUFF
##SOURCE=Michael Scott
##DESCRIPTION=Brownish-red granular associated with sanbornite
##STATUS=The identification of this mineral has been confirmed only by single crystal X-ray diffraction.
##URL=rruff.info/R060706
144.670, 3880.287
145.152, 4087.190
145.634, 4273.122
146.116, 4415.876
146.598, 4544.409
147.080, 4699.022
147.562, 4888.024
148.044, 5060.381
148.527, 5175.510
149.009, 5246.058
149.491, 5289.780
149.973, 5307.721
150.455, 5303.269
150.937, 5278.433
151.419, 5229.250
151.901, 5172.398
152.383, 5114.912
152.866, 5058.119
153.348, 5005.222
153.830, 4958.481
154.312, 4916.592
154.794, 4876.098
155.276, 4836.177
155.758, 4800.025
156.240, 4770.471
156.723, 4745.896
157.205, 4723.153
157.687, 4698.737
158.169, 4674.878
158.651, 4656.958
159.133, 4639.616
159.615, 4639.068
160.097, 4668.137
160.579, 4718.428
161.062, 4771.577
161.544, 4819.023
162.026, 4860.847
162.508, 4897.021
162.990, 4918.299
163.472, 4947.240
163.954, 5004.594
164.436, 5077.996
164.919, 5138.686
165.401, 5158.080
165.883, 5143.124
166.365, 5153.220
166.847, 5216.881
167.329, 5271.300
167.811, 5281.169
168.293, 5259.814
168.775, 5240.617
169.258, 5251.119
169.740, 5288.844
170.222, 5313.990
170.704, 5324.933
171.186, 5323.204
171.668, 5305.006
172.150, 5274.938
172.632, 5243.122
173.115, 5216.875
173.597, 5196.101
174.079, 5176.037
174.561, 5159.172
175.043, 5140.288
175.525, 5110.709
176.007, 5076.792
176.489, 5053.963
176.971, 5057.125
177.454, 5086.387
177.936, 5109.174
178.418, 5118.800
178.900, 5127.579
179.382, 5138.333
179.864, 5151.328
180.346, 5165.951
180.828, 5181.034
181.311, 5196.425
181.793, 5217.941
182.275, 5245.873
182.757, 5280.457
183.239, 5325.568
183.721, 5377.962
184.203, 5430.130
184.685, 5475.966
185.167, 5515.221
185.650, 5557.175
186.132, 5605.594
186.614, 5653.162
187.096, 5693.718
187.578, 5731.600
188.060, 5777.400
188.542, 5843.547
189.024, 5929.766
189.507, 5992.182
189.989, 6001.547
190.471, 6013.229
190.953, 6057.552
191.435, 6116.355
191.917, 6148.551
192.399, 6118.847
192.881, 6028.893
193.363, 5959.928
193.846, 5933.439
194.328, 5908.084
194.810, 5869.240
195.292, 5824.037
195.774, 5788.185
196.256, 5773.942
196.738, 5779.973
197.220, 5782.074
197.702, 5776.842
198.185, 5770.836
198.667, 5762.424
199.149, 5754.423
199.631, 5751.560
200.113, 5757.225
200.595, 5770.756
201.077, 5785.081
201.559, 5803.308
202.042, 5819.166
202.524, 5830.549
203.006, 5838.820
203.488, 5845.770
203.970, 5852.251
204.452, 5858.607
204.934, 5867.025
205.416, 5870.617
205.898, 5884.678
206.381, 5916.194
206.863, 5958.681
207.345, 6001.002
207.827, 6035.972
208.309, 6068.906
208.791, 6124.186
209.273, 6223.728
209.755, 6321.264
210.238, 6408.079
210.720, 6489.306
211.202, 6566.567
211.684, 6639.099
212.166, 6716.807
212.648, 6834.887
213.130, 7036.329
213.612, 7221.281
214.094, 7359.648
214.577, 7483.011
215.059, 7627.440
215.541, 7807.749
216.023, 8011.310
216.505, 8208.381
216.987, 8388.188
217.469, 8577.404
217.951, 8792.255
218.434, 9010.405
218.916, 9211.847
219.398, 9389.579
219.880, 9550.700
220.362, 9709.608
220.844, 9877.165
221.326, 10022.020
221.808, 10150.050
222.290, 10254.700
222.773, 10339.960
223.255, 10404.390
223.737, 10426.230
224.219, 10365.470
224.701, 10188.090
225.183, 10000.180
225.665, 9807.604
226.147, 9605.658
226.629, 9387.627
227.112, 9154.192
227.594, 8914.522
228.076, 8674.505
228.558, 8426.749
229.040, 8205.447
229.522, 8020.987
230.004, 7853.275
230.486, 7695.705
230.969, 7546.525
231.451, 7405.745
231.933, 7269.429
232.415, 7134.041
232.897, 7025.987
233.379, 6974.325
233.861, 6926.433
234.343, 6856.054
234.825, 6769.223
235.307, 6691.829
235.790, 6647.658
236.272, 6637.314
236.754, 6625.651
237.236, 6613.797
237.718, 6599.026
238.200, 6575.643
238.682, 6548.529
239.165, 6527.146
239.647, 6517.488
240.129, 6519.215
240.611, 6520.950
241.093, 6530.590
241.575, 6538.313
242.057, 6544.219
242.539, 6542.871
243.021, 6550.762
243.503, 6558.118
243.986, 6581.893
244.468, 6594.254
244.950, 6588.270
245.432, 6584.018
245.914, 6596.200
246.396, 6610.502
246.878, 6609.431
247.361, 6584.480
247.843, 6545.721
248.325, 6512.451
248.807, 6488.981
249.289, 6457.564
249.771, 6400.841
250.253, 6340.102
250.735, 6292.882
251.217, 6264.766
251.699, 6246.874
252.182, 6230.592
252.664, 6216.588
253.146, 6198.499
253.628, 6165.872
254.110, 6134.656
254.592, 6116.960
255.074, 6114.491
255.556, 6119.760
256.039, 6131.605
256.521, 6149.090
257.003, 6153.344
257.485, 6127.854
257.967, 6102.808
258.449, 6103.629
258.931, 6129.257
259.413, 6160.014
259.896, 6183.453
260.378, 6202.533
260.860, 6228.810
261.342, 6267.964
261.824, 6306.799
262.306, 6331.692
262.788, 6346.539
263.270, 6366.270
263.752, 6398.023
264.235, 6438.094
264.717, 6481.189
265.199, 6527.873
265.681, 6574.917
266.163, 6623.582
266.645, 6671.127
267.127, 6708.629
267.609, 6722.716
268.091, 6733.556
268.574, 6766.611
269.056, 6821.237
269.538, 6866.317
270.020, 6874.550
270.502, 6862.091
270.984, 6879.831
271.466, 6947.205
271.948, 7022.337
272.431, 7075.666
272.913, 7114.786
273.395, 7168.629
273.877, 7252.868
274.359, 7355.877
274.841, 7451.088
275.323, 7536.390
275.805, 7620.310
276.288, 7693.730
276.770, 7769.980
277.252, 7871.549
277.734, 8006.635
278.216, 8164.749
278.698, 8331.385
279.180, 8507.517
279.662, 8689.482
280.144, 8875.082
280.626, 9068.154
281.109, 9271.385
281.591, 9485.575
282.073, 9713.215
282.555, 9955.873
283.037, 10217.600
283.519, 10485.190
284.001, 10754.660
284.483, 11032.250
284.966, 11331.430
285.448, 11644.070
285.930, 11951.150
286.412, 12233.960
286.894, 12494.080
287.376, 12752.590
287.858, 13007.330
288.340, 13263.330
288.823, 13540.090
289.305, 13814.680
289.787, 14052.020
290.269, 14233.490
290.751, 14364.640
291.233, 14463.890
291.715, 14517.270
292.197, 14554.210
292.679, 14595.480
293.162, 14614.380
293.644, 14584.040
294.126, 14496.190
294.608, 14365.090
295.090, 14209.640
295.572, 14018.550
296.054, 13832.250
296.536, 13668.080
297.018, 13496.780
297.501, 13296.880
297.983, 13069.290
298.465, 12835.310
298.947, 12620.120
299.429, 12424.360
299.911, 12212.960
300.393, 11979.390
300.875, 11735.910
301.358, 11480.620
301.840, 11220.150
302.322, 10968.320
302.804, 10735.390
303.286, 10516.290
303.768, 10295.500
304.250, 10068.350
304.732, 9848.950
305.215, 9638.074
305.697, 9439.674
306.179, 9263.281
306.661, 9113.682
307.143, 8980.108
307.625, 8854.883
308.107, 8738.769
308.589, 8612.987
309.071, 8455.842
309.553, 8298.513
310.036, 8187.255
310.518, 8131.614
311.000, 8082.296
311.482, 8007.295
311.964, 7917.095
312.446, 7840.287
312.928, 7784.958
313.410, 7741.161
313.893, 7702.455
314.375, 7669.372
314.857, 7623.819
315.339, 7558.342
315.821, 7480.964
316.303, 7399.189
316.785, 7314.198
317.267, 7223.381
317.750, 7120.530
318.232, 7007.021
318.714, 6913.531
319.196, 6859.944
319.678, 6805.588
320.160, 6718.485
320.642, 6615.360
321.124, 6539.067
321.606, 6515.207
322.089, 6527.048
322.571, 6518.006
323.053, 6446.792
323.535, 6405.388
324.017, 6409.402
324.499, 6442.008
324.981, 6495.586
325.463, 6564.460
325.945, 6630.085
326.428, 6658.448
326.910, 6619.140
327.392, 6625.299
327.874, 6717.626
328.356, 6814.172
328.838, 6867.219
329.320, 6882.351
329.802, 6895.479
330.284, 6937.395
330.767, 7005.766
331.249, 7066.646
331.731, 7132.864
332.213, 7171.835
332.695, 7179.056
333.177, 7154.724
333.659, 7093.132
334.142, 6983.910
334.624, 6856.779
335.106, 6768.787
335.588, 6728.771
336.070, 6686.441
336.552, 6615.667
337.034, 6543.224
337.516, 6490.725
337.998, 6461.111
338.480, 6447.555
338.963, 6449.782
339.445, 6465.054
339.927, 6484.037
340.409, 6510.734
340.891, 6529.608
341.373, 6524.200
341.855, 6497.702
342.337, 6459.501
342.819, 6403.918
343.302, 6342.397
343.784, 6288.815
344.266, 6243.073
344.748, 6195.468
345.230, 6135.349
345.712, 6068.407
346.194, 6022.898
346.677, 6014.074
347.159, 6007.628
347.641, 5988.144
348.123, 5962.582
348.605, 5944.203
349.087, 5938.310
349.569, 5939.836
350.051, 5939.133
350.533, 5931.678
351.016, 5930.477
351.498, 5937.662
351.980, 5949.341
352.462, 5966.061
352.944, 5985.753
353.426, 6000.874
353.908, 6001.991
354.390, 5987.756
354.872, 5988.139
355.355, 6021.518
355.837, 6051.656
356.319, 6068.694
356.801, 6076.830
357.283, 6073.445
357.765, 6080.612
358.247, 6133.203
358.729, 6174.766
359.211, 6205.896
359.694, 6195.346
360.176, 6238.625
360.658, 6260.327
361.140, 6281.146
361.622, 6331.993
362.104, 6327.503
362.586, 6377.876
363.069, 6406.354
363.551, 6444.849
364.033, 6457.159
364.515, 6472.342
364.997, 6472.687
365.479, 6466.482
365.961, 6484.746
366.443, 6546.733
366.925, 6630.114
367.408, 6688.761
367.890, 6731.199
368.372, 6771.424
368.854, 6872.897
369.336, 6959.488
369.818, 7032.018
370.300, 7048.349
370.782, 7137.243
371.264, 7197.062
371.747, 7255.701
372.229, 7354.809
372.711, 7379.312
373.193, 7477.783
373.675, 7541.316
374.157, 7642.893
374.639, 7729.993
375.121, 7792.438
375.603, 7852.070
376.086, 7918.219
376.568, 7990.710
377.050, 8064.767
377.532, 8135.233
378.014, 8207.212
378.496, 8306.836
378.978, 8468.771
379.460, 8599.775
379.943, 8654.987
380.425, 8691.224
380.907, 8765.139
381.389, 8890.817
381.871, 9025.166
382.353, 9115.930
382.835, 9163.814
383.317, 9223.240
383.799, 9301.371
384.282, 9391.362
384.764, 9493.794
385.246, 9604.059
385.728, 9705.783
386.210, 9790.681
386.692, 9864.633
387.174, 9932.424
387.656, 9994.196
388.138, 10056.360
388.621, 10122.340
389.103, 10190.910
389.585, 10258.870
390.067, 10326.890
390.549, 10393.200
391.031, 10457.500
391.513, 10519.820
391.996, 10578.120
392.478, 10631.880
392.960, 10688.260
393.442, 10755.440
393.924, 10834.720
394.406, 10918.100
394.888, 11013.880
395.370, 11104.400
395.852, 11177.880
396.335, 11239.790
396.817, 11302.590
397.299, 11373.560
397.781, 11450.390
398.263, 11526.260
398.745, 11604.240
399.227, 11674.880
399.709, 11734.000
400.191, 11788.320
400.674, 11838.440
401.156, 11885.980
401.638, 11942.450
402.120, 12033.800
402.602, 12150.710
403.084, 12217.810
403.566, 12210.640
404.048, 12193.680
404.530, 12216.860
405.013, 12260.110
405.495, 12283.850
405.977, 12283.500
406.459, 12254.590
406.941, 12184.750
407.423, 12080.220
407.905, 11971.820
408.387, 11875.140
408.870, 11772.900
409.352, 11631.370
409.834, 11443.170
410.316, 11246.300
410.798, 11045.300
411.280, 10839.050
411.762, 10626.570
412.244, 10407.910
412.727, 10182.520
413.209, 9947.968
413.691, 9705.512
414.173, 9479.246
414.655, 9287.878
415.137, 9090.719
415.619, 8861.521
416.101, 8632.058
416.583, 8440.915
417.065, 8299.311
417.548, 8173.522
418.030, 7996.999
418.512, 7752.801
418.994, 7622.124
419.476, 7489.342
419.958, 7454.041
420.440, 7395.072
420.922, 7313.702
421.405, 7142.892
421.887, 7087.595
422.369, 6986.003
422.851, 6882.518
423.333, 6843.473
423.815, 6728.621
424.297, 6630.614
424.779, 6562.018
425.262, 6491.703
425.744, 6415.193
426.226, 6351.117
426.708, 6313.111
427.190, 6285.134
427.672, 6247.282
428.154, 6198.492
428.636, 6154.592
429.118, 6131.193
429.601, 6127.348
430.083, 6103.785
430.565, 6040.931
431.047, 5981.651
431.529, 5928.915
432.011, 5886.298
432.493, 5860.557
432.975, 5853.182
433.457, 5852.070
433.940, 5838.515
434.422, 5809.537
434.904, 5790.696
435.386, 5795.808
435.868, 5797.498
436.350, 5772.556
436.832, 5732.461
437.314, 5708.807
437.797, 5728.367
438.279, 5759.028
438.761, 5750.360
439.243, 5704.860
439.725, 5676.821
440.207, 5691.969
440.689, 5729.548
441.171, 5752.016
441.654, 5755.519
442.136, 5764.584
442.618, 5789.963
443.100, 5819.791
443.582, 5838.982
444.064, 5849.109
444.546, 5867.300
445.028, 5907.814
445.510, 5967.071
445.992, 6016.768
446.475, 6044.717
446.957, 6077.543
447.439, 6120.004
447.921, 6167.523
448.403, 6215.601
448.885, 6263.340
449.367, 6311.766
449.849, 6365.443
450.332, 6423.914
450.814, 6471.495
451.296, 6504.060
451.778, 6531.507
452.260, 6564.116
452.742, 6595.162
453.224, 6611.625
453.706, 6606.316
454.189, 6592.051
454.671, 6576.850
455.153, 6561.318
455.635, 6545.296
456.117, 6526.716
456.599, 6515.507
457.081, 6527.325
457.563, 6569.353
458.045, 6598.798
458.528, 6601.375
459.010, 6603.386
459.492, 6625.740
459.974, 6659.373
460.456, 6682.492
460.938, 6683.569
461.420, 6666.490
461.902, 6642.295
462.384, 6618.807
462.867, 6569.140
463.349, 6479.678
463.831, 6374.547
464.313, 6258.801
464.795, 6138.483
465.277, 6027.798
465.759, 5936.788
466.241, 5862.025
466.724, 5795.849
467.206, 5738.126
467.688, 5690.774
468.170, 5656.248
468.652, 5632.018
469.134, 5612.139
469.616, 5596.599
470.098, 5585.550
470.581, 5584.463
471.063, 5584.926
471.545, 5571.074
472.027, 5544.375
472.509, 5528.084
472.991, 5541.438
473.473, 5581.171
473.955, 5617.011
474.437, 5658.666
474.919, 5683.760
475.402, 5682.163
475.884, 5667.353
476.366, 5651.055
476.848, 5635.940
477.330, 5618.914
477.812, 5599.406
478.294, 5576.684
478.776, 5538.044
479.259, 5473.752
479.741, 5414.142
480.223, 5374.488
480.705, 5349.752
481.187, 5335.776
481.669, 5334.807
482.151, 5337.758
482.633, 5343.350
483.116, 5347.983
483.598, 5341.762
484.080, 5322.269
484.562, 5301.296
485.044, 5290.448
485.526, 5290.225
486.008, 5290.674
486.490, 5285.171
486.972, 5287.675
487.455, 5311.011
487.937, 5341.542
488.419, 5361.032
488.901, 5363.445
489.383, 5356.935
489.865, 5354.277
490.347, 5357.168
490.829, 5343.972
491.311, 5296.745
491.794, 5257.281
492.276, 5254.620
492.758, 5272.398
493.240, 5279.597
493.722, 5264.804
494.204, 5241.687
494.686, 5220.673
495.168, 5201.073
495.651, 5179.785
496.133, 5155.403
496.615, 5133.722
497.097, 5123.632
497.579, 5127.776
498.061, 5119.463
498.543, 5090.824
499.025, 5059.095
499.508, 5028.275
499.990, 5000.024
500.472, 4976.447
500.954, 4958.293
501.436, 4943.665
501.918, 4930.200
502.400, 4918.285
502.882, 4905.194
503.364, 4889.400
503.846, 4874.208
504.329, 4864.863
504.811, 4856.812
505.293, 4839.059
505.775, 4800.687
506.257, 4764.090
506.739, 4754.784
507.221, 4765.395
507.703, 4770.203
508.186, 4762.562
508.668, 4747.271
509.150, 4727.965
509.632, 4703.385
510.114, 4686.208
510.596, 4679.988
511.078, 4676.773
511.560, 4674.561
512.042, 4672.910
512.525, 4672.567
513.007, 4673.615
513.489, 4672.769
513.971, 4661.123
514.453, 4635.536
514.935, 4629.984
515.417, 4662.498
515.899, 4691.823
516.382, 4686.267
516.864, 4664.631
517.346, 4663.861
517.828, 4702.808
518.310, 4747.266
518.792, 4766.829
519.274, 4771.339
519.756, 4784.120
520.239, 4810.312
520.721, 4848.383
521.203, 4898.511
521.685, 4961.372
522.167, 5020.431
522.649, 5071.955
523.131, 5124.443
523.613, 5173.055
524.096, 5227.053
524.578, 5295.671
525.060, 5381.931
525.542, 5487.028
526.024, 5619.903
526.506, 5778.947
526.988, 5918.837
527.470, 6027.457
527.952, 6143.046
528.435, 6289.881
528.917, 6456.261
529.399, 6630.085
529.881, 6817.925
530.363, 6992.832
530.845, 7136.287
531.327, 7259.560
531.809, 7377.465
532.291, 7492.883
532.774, 7607.728
533.256, 7728.279
533.738, 7848.247
534.220, 7915.083
534.702, 7915.167
535.184, 7875.664
535.666, 7794.366
536.148, 7679.427
536.630, 7529.410
537.113, 7348.899
537.595, 7157.799
538.077, 6967.640
538.559, 6778.808
539.041, 6592.722
539.523, 6407.938
540.005, 6231.771
540.487, 6061.945
540.969, 5905.379
541.452, 5773.404
541.934, 5668.957
542.416, 5572.766
542.898, 5475.796
543.380, 5388.878
543.862, 5324.572
544.344, 5278.312
544.826, 5234.877
545.309, 5185.845
545.791, 5135.576
546.273, 5094.940
546.755, 5065.736
547.237, 5040.975
547.719, 5027.959
548.201, 5011.831
548.683, 4978.029
549.166, 4934.494
549.648, 4904.408
550.130, 4905.031
550.612, 4911.712
551.094, 4894.537
551.576, 4861.631
552.058, 4845.381
552.540, 4856.767
553.023, 4870.807
553.505, 4856.949
553.987, 4810.604
554.469, 4782.921
554.951, 4793.745
555.433, 4797.001
555.915, 4770.741
556.397, 4733.082
556.879, 4709.067
557.362, 4704.496
557.844, 4701.651
558.326, 4675.752
558.808, 4631.872
559.290, 4613.707
559.772, 4631.101
560.254, 4642.682
560.736, 4620.374
561.218, 4581.372
561.701, 4562.053
562.183, 4571.141
562.665, 4576.127
563.147, 4565.827
563.629, 4547.343
564.111, 4525.402
564.593, 4501.666
565.075, 4478.696
565.557, 4457.890
566.040, 4439.735
566.522, 4427.575
567.004, 4427.251
567.486, 4417.539
567.968, 4383.489
568.450, 4350.094
568.932, 4334.400
569.414, 4331.801
569.896, 4324.214
570.379, 4297.653
570.861, 4270.998
571.343, 4266.307
571.825, 4277.733
572.307, 4285.201
572.789, 4282.783
573.271, 4280.095
573.753, 4289.788
574.236, 4314.073
574.718, 4322.616
575.200, 4297.963
575.682, 4279.514
576.164, 4280.866
576.646, 4290.659
577.128, 4296.007
577.610, 4294.135
578.093, 4290.807
578.575, 4289.249
579.057, 4290.345
579.539, 4300.387
580.021, 4321.357
580.503, 4333.683
580.985, 4324.031
581.467, 4303.708
581.950, 4296.352
582.432, 4304.066
582.914, 4314.258
583.396, 4325.997
583.878, 4339.031
584.360, 4355.975
584.842, 4373.815
585.324, 4384.395
585.806, 4383.375
586.289, 4378.568
586.771, 4382.598
587.253, 4395.648
587.735, 4416.542
588.217, 4447.840
588.699, 4482.741
589.181, 4523.274
589.663, 4563.661
590.145, 4589.607
590.628, 4588.703
591.110, 4591.245
591.592, 4610.018
592.074, 4641.634
592.556, 4687.529
593.038, 4744.566
593.520, 4795.223
594.002, 4824.822
594.484, 4838.957
594.967, 4863.843
595.449, 4867.783
595.931, 4899.682
596.413, 4924.796
596.895, 4943.487
597.377, 4936.519
597.859, 4962.688
598.341, 4975.574
598.823, 4987.917
599.306, 5018.745
599.788, 5015.511
600.270, 5046.044
600.752, 5060.635
601.234, 5078.929
601.716, 5102.453
602.198, 5110.438
602.680, 5113.718
603.162, 5145.235
603.645, 5169.903
604.127, 5188.079
604.609, 5180.343
605.091, 5206.069
605.573, 5221.478
606.055, 5234.826
606.537, 5261.040
607.019, 5273.229
607.502, 5278.314
607.984, 5288.667
608.466, 5303.938
608.948, 5318.400
609.430, 5330.352
609.912, 5338.456
610.394, 5339.088
610.876, 5326.993
611.359, 5327.190
611.841, 5368.773
612.323, 5389.194
612.805, 5342.069
613.287, 5268.103
613.769, 5228.154
614.251, 5239.739
614.733, 5261.737
615.216, 5259.906
615.698, 5235.978
616.180, 5191.746
616.662, 5126.566
617.144, 5056.921
617.626, 4993.279
618.108, 4928.894
618.590, 4844.954
619.072, 4721.460
619.555, 4627.299
620.037, 4587.628
620.519, 4556.091
621.001, 4507.047
621.483, 4445.942
621.965, 4386.876
622.447, 4336.249
622.929, 4287.709
623.411, 4231.980
623.894, 4170.453
624.376, 4110.698
624.858, 4050.478
625.340, 4004.357
625.822, 3985.500
626.304, 3985.377
626.786, 3978.121
627.268, 3964.801
627.750, 3943.558
628.233, 3906.560
628.715, 3868.066
629.197, 3838.402
629.679, 3816.007
630.161, 3793.438
630.643, 3766.449
631.125, 3741.253
631.607, 3729.735
632.089, 3731.047
632.572, 3729.726
633.054, 3726.331
633.536, 3712.090
634.018, 3673.286
634.500, 3619.587
634.982, 3587.717
635.464, 3587.786
635.946, 3591.802
636.429, 3599.520
636.911, 3605.191
637.393, 3600.277
637.875, 3588.668
638.357, 3584.540
638.839, 3597.664
639.321, 3614.655
639.803, 3606.895
640.286, 3575.004
640.768, 3560.068
641.250, 3572.253
641.732, 3590.338
642.214, 3600.789
642.696, 3604.410
643.178, 3605.866
643.660, 3600.808
644.143, 3600.237
644.625, 3612.708
645.107, 3625.750
645.589, 3626.540
646.071, 3617.548
646.553, 3612.286
647.035, 3620.491
647.517, 3629.294
647.999, 3612.615
648.482, 3571.272
648.964, 3534.408
649.446, 3505.943
649.928, 3483.509
650.410, 3467.487
650.892, 3456.410
651.374, 3442.829
651.856, 3420.381
652.338, 3404.705
652.821, 3405.346
653.303, 3386.323
653.785, 3393.578
654.267, 3394.454
654.749, 3389.293
655.231, 3360.018
655.713, 3361.881
656.195, 3351.266
656.677, 3340.139
657.160, 3346.386
657.642, 3320.617
658.124, 3326.590
658.606, 3319.890
659.088, 3318.991
659.570, 3305.535
660.052, 3295.957
660.534, 3298.939
661.016, 3280.997
661.499, 3283.270
661.981, 3279.874
662.463, 3271.623
662.945, 3260.348
663.427, 3246.196
663.909, 3232.313
