##NAMES=Trattnerite
##RRUFFID=R060623
##IDEAL CHEMISTRY=Fe^3+^_2_(Mg_3_Si_12_)O_30_
##LOCALITY=Stradner Kogel Mountain, Wilhelmsdorf, Bad Gleichenberg, Styria, Austria
##OWNER=RRUFF
##SOURCE=Michael Scott
##DESCRIPTION=Isolated dark-blue hexagonal plates
##STATUS=The identification of this mineral is confirmed by single-crystal X-ray diffraction and chemical analysis.
##URL=rruff.info/R060623
##MEASURED CHEMISTRY=([box]_0.90_K_0.10_)_Σ=1_(Fe^3+^_1.96_Cr_0.03_Ti_0.01_)_Σ=2_(Mg_2.08_Fe^2+_0.81_Mn_0.11_)_Σ=3_[(Si_11.88_Al_0.12_)_Σ=12_O_30_] ; dark inclusion: (K_0.53_Na_0.47_)_Σ=1_(Al_0.98_Fe^3+^_0.02_)_Σ=1_(Si_2.99_Al_0.01_)_Σ=3_O_8_
178.3677, 9403.482
178.8498, 9425.449
179.3319, 9451.511
179.8141, 9485.503
180.2962, 9516.803
180.7783, 9528.521
181.2604, 9523.947
181.7425, 9521.618
182.2246, 9536.284
182.7068, 9562.050
183.1889, 9585.188
183.6710, 9601.745
184.1531, 9616.414
184.6352, 9637.178
185.1173, 9663.900
185.5995, 9690.740
186.0816, 9711.072
186.5637, 9727.117
187.0458, 9748.137
187.5279, 9778.622
188.0100, 9813.833
188.4922, 9842.804
188.9743, 9865.691
189.4564, 9883.739
189.9385, 9893.858
190.4206, 9897.796
190.9027, 9909.403
191.3849, 9937.484
191.8670, 9976.333
192.3491, 10004.60
192.8312, 10021.66
193.3133, 10032.46
193.7955, 10040.05
194.2776, 10044.57
194.7597, 10053.32
195.2418, 10072.46
195.7239, 10099.84
196.2060, 10117.22
196.6882, 10122.14
197.1703, 10123.00
197.6524, 10131.67
198.1345, 10148.31
198.6166, 10168.40
199.0987, 10188.35
199.5809, 10208.15
200.0630, 10240.00
200.5451, 10289.75
201.0272, 10342.50
201.5093, 10367.80
201.9914, 10360.33
202.4736, 10352.00
202.9557, 10361.44
203.4378, 10390.74
203.9199, 10412.99
204.4020, 10426.65
204.8841, 10432.70
205.3663, 10429.14
205.8484, 10410.64
206.3305, 10400.85
206.8126, 10421.21
207.2947, 10480.03
207.7768, 10514.80
208.2590, 10511.61
208.7411, 10483.60
209.2232, 10478.90
209.7053, 10505.03
210.1874, 10536.69
210.6695, 10555.89
211.1517, 10558.61
211.6338, 10566.56
212.1159, 10584.89
212.5980, 10611.00
213.0801, 10629.64
213.5622, 10639.60
214.0444, 10644.04
214.5265, 10641.35
215.0086, 10623.89
215.4907, 10625.72
215.9728, 10661.62
216.4549, 10727.20
216.9371, 10761.25
217.4192, 10751.83
217.9013, 10728.00
218.3834, 10714.52
218.8655, 10709.80
219.3476, 10720.48
219.8298, 10754.26
220.3119, 10811.19
220.7940, 10850.05
221.2761, 10863.18
221.7582, 10867.05
222.2403, 10882.12
222.7225, 10917.93
223.2046, 10941.72
223.6867, 10939.87
224.1688, 10908.34
224.6509, 10898.83
225.1330, 10920.57
225.6152, 10955.63
226.0973, 10981.50
226.5794, 10996.67
227.0615, 11005.08
227.5436, 11005.45
228.0257, 10995.30
228.5079, 10992.04
228.9900, 10997.03
229.4721, 11007.89
229.9542, 11021.21
230.4363, 11036.81
230.9185, 11055.40
231.4006, 11080.03
231.8827, 11115.38
232.3648, 11134.86
232.8469, 11128.74
233.3290, 11112.64
233.8112, 11115.16
234.2933, 11149.12
234.7754, 11180.25
235.2575, 11196.04
235.7396, 11191.04
236.2217, 11186.92
236.7039, 11176.99
237.1860, 11171.02
237.6681, 11191.77
238.1502, 11260.44
238.6323, 11322.34
239.1144, 11356.67
239.5966, 11352.18
240.0787, 11349.35
240.5608, 11347.86
241.0429, 11348.16
241.5250, 11350.29
242.0071, 11349.27
242.4893, 11357.72
242.9714, 11384.68
243.4535, 11450.43
243.9356, 11486.96
244.4177, 11483.09
244.8998, 11452.80
245.3820, 11430.84
245.8641, 11412.17
246.3462, 11409.31
246.8283, 11433.94
247.3104, 11512.46
247.7925, 11552.84
248.2747, 11534.88
248.7568, 11482.25
249.2389, 11464.27
249.7210, 11500.41
250.2031, 11541.74
250.6852, 11563.68
251.1674, 11554.41
251.6495, 11553.81
252.1316, 11565.80
252.6137, 11586.65
253.0958, 11605.38
253.5779, 11624.25
254.0601, 11637.51
254.5422, 11639.50
255.0243, 11620.84
255.5064, 11616.22
255.9885, 11633.31
256.4706, 11664.40
256.9528, 11684.71
257.4349, 11693.41
257.9170, 11692.68
258.3991, 11678.02
258.8812, 11633.24
259.3633, 11622.39
259.8455, 11661.53
260.3276, 11734.72
260.8097, 11784.91
261.2918, 11805.37
261.7739, 11815.95
262.2560, 11828.94
262.7382, 11849.09
263.2203, 11855.28
263.7024, 11837.53
264.1845, 11807.13
264.6666, 11807.33
265.1487, 11852.99
265.6309, 11898.58
266.1130, 11912.93
266.5951, 11883.58
267.0772, 11869.00
267.5593, 11876.56
268.0414, 11900.42
268.5236, 11921.52
269.0057, 11940.31
269.4878, 11955.66
269.9699, 11968.81
270.4520, 11981.90
270.9341, 11980.31
271.4163, 11955.87
271.8984, 11919.40
272.3805, 11903.88
272.8626, 11911.32
273.3447, 11933.48
273.8268, 11973.46
274.3090, 12037.20
274.7911, 12074.73
275.2732, 12074.56
275.7553, 12049.80
276.2374, 12032.78
276.7195, 12022.04
277.2017, 12024.18
277.6838, 12050.29
278.1659, 12103.50
278.6480, 12141.29
279.1301, 12158.55
279.6122, 12159.55
280.0944, 12153.52
280.5765, 12140.00
281.0586, 12122.16
281.5407, 12094.71
282.0229, 12057.42
282.5050, 12046.57
282.9871, 12073.06
283.4692, 12117.77
283.9513, 12140.96
284.4334, 12141.59
284.9156, 12132.97
285.3977, 12111.73
285.8798, 12080.84
286.3619, 12086.81
286.8440, 12145.23
287.3261, 12222.65
287.8083, 12253.64
288.2904, 12237.82
288.7725, 12216.67
289.2546, 12217.12
289.7367, 12234.71
290.2188, 12241.71
290.7010, 12232.75
291.1831, 12219.49
291.6652, 12219.69
292.1473, 12233.01
292.6294, 12254.61
293.1115, 12290.05
293.5937, 12332.89
294.0758, 12359.27
294.5579, 12365.09
295.0400, 12361.10
295.5221, 12361.62
296.0042, 12365.72
296.4864, 12367.92
296.9685, 12362.44
297.4506, 12353.11
297.9327, 12348.70
298.4148, 12349.79
298.8969, 12355.64
299.3791, 12368.02
299.8612, 12385.11
300.3433, 12400.44
300.8254, 12403.21
301.3075, 12404.05
301.7896, 12425.92
302.2718, 12473.83
302.7539, 12518.99
303.2360, 12528.35
303.7181, 12512.38
304.2002, 12496.45
304.6823, 12490.33
305.1645, 12491.87
305.6466, 12499.98
306.1287, 12515.02
306.6108, 12532.23
307.0929, 12551.07
307.5750, 12569.09
308.0572, 12582.55
308.5393, 12585.44
309.0214, 12585.55
309.5035, 12589.48
309.9856, 12597.53
310.4677, 12607.30
310.9499, 12622.43
311.4320, 12637.16
311.9141, 12643.78
312.3962, 12627.95
312.8783, 12611.88
313.3604, 12610.08
313.8426, 12622.49
314.3247, 12640.31
314.8068, 12658.62
315.2889, 12679.91
315.7710, 12706.91
316.2531, 12759.81
316.7353, 12801.65
317.2174, 12807.05
317.6995, 12779.84
318.1816, 12759.98
318.6637, 12766.56
319.1458, 12785.20
319.6280, 12804.41
320.1101, 12814.01
320.5922, 12831.17
321.0743, 12873.58
321.5564, 12933.63
322.0385, 12968.78
322.5207, 12940.22
323.0028, 12900.82
323.4849, 12883.74
323.9670, 12923.47
324.4491, 12950.54
324.9312, 12942.83
325.4134, 12911.42
325.8955, 12898.07
326.3776, 12929.50
326.8597, 12963.77
327.3418, 12981.01
327.8239, 12958.13
328.3061, 12948.92
328.7882, 12959.44
329.2703, 12984.55
329.7524, 13011.54
330.2345, 13052.06
330.7166, 13083.07
331.1988, 13095.51
331.6809, 13082.61
332.1630, 13065.33
332.6451, 13033.79
333.1272, 13001.39
333.6093, 12994.30
334.0915, 13023.92
334.5736, 13061.24
335.0557, 13101.96
335.5378, 13152.02
336.0199, 13173.56
336.5020, 13154.75
336.9842, 13119.08
337.4663, 13097.94
337.9484, 13093.32
338.4305, 13098.08
338.9126, 13111.61
339.3947, 13133.94
339.8769, 13160.58
340.3590, 13196.18
340.8411, 13227.13
341.3232, 13231.68
341.8053, 13204.25
342.2874, 13195.34
342.7696, 13228.39
343.2517, 13291.01
343.7338, 13308.12
344.2159, 13272.39
344.6980, 13231.57
345.1801, 13237.14
345.6623, 13284.95
346.1444, 13311.55
346.6265, 13292.98
347.1086, 13254.42
347.5907, 13261.00
348.0728, 13312.36
348.5550, 13364.92
349.0371, 13379.44
349.5192, 13367.48
350.0013, 13368.95
350.4834, 13396.08
350.9655, 13428.23
351.4477, 13429.16
351.9298, 13405.25
352.4119, 13388.10
352.8940, 13398.20
353.3762, 13427.24
353.8583, 13468.19
354.3404, 13526.44
354.8225, 13572.08
355.3046, 13560.84
355.7867, 13513.40
356.2689, 13479.36
356.7510, 13495.39
357.2331, 13529.29
357.7152, 13552.50
358.1973, 13562.26
358.6794, 13567.70
359.1616, 13577.87
359.6437, 13586.64
360.1258, 13585.48
360.6079, 13554.44
361.0900, 13526.31
361.5721, 13517.38
362.0543, 13528.16
362.5364, 13552.44
363.0185, 13601.21
363.5006, 13656.25
363.9827, 13700.65
364.4648, 13729.11
364.9470, 13748.11
365.4291, 13754.39
365.9112, 13750.07
366.3933, 13750.28
366.8754, 13770.16
367.3575, 13787.16
367.8397, 13788.14
368.3218, 13738.66
368.8039, 13714.31
369.2860, 13737.52
369.7681, 13790.92
370.2502, 13822.57
370.7324, 13808.93
371.2145, 13797.19
371.6966, 13807.94
372.1787, 13858.89
372.6608, 13886.50
373.1429, 13875.66
373.6251, 13849.69
374.1072, 13850.33
374.5893, 13895.75
375.0714, 13930.78
375.5535, 13931.61
376.0356, 13894.46
376.5178, 13883.47
376.9999, 13905.90
377.4820, 13942.30
377.9641, 13971.00
378.4462, 13991.31
378.9283, 14010.12
379.4105, 14031.07
379.8926, 14051.59
380.3747, 14057.88
380.8568, 14048.48
381.3389, 14034.16
381.8210, 14021.44
382.3032, 14010.81
382.7853, 14005.24
383.2674, 14004.95
383.7495, 14010.61
384.2316, 14029.36
384.7137, 14059.45
385.1959, 14081.25
385.6780, 14076.76
386.1601, 14055.61
386.6422, 14034.18
387.1243, 14010.52
387.6064, 14000.42
388.0886, 14040.89
388.5707, 14110.46
389.0528, 14152.42
389.5349, 14100.37
390.0170, 14029.36
390.4991, 14019.42
390.9813, 14079.06
391.4634, 14140.79
391.9455, 14149.73
392.4276, 14138.15
392.9097, 14147.03
393.3918, 14228.10
393.8740, 14299.46
394.3561, 14314.19
394.8382, 14277.57
395.3203, 14245.26
395.8024, 14239.70
396.2845, 14244.57
396.7667, 14248.71
397.2488, 14244.33
397.7309, 14246.29
398.2130, 14261.99
398.6951, 14286.75
399.1772, 14305.84
399.6594, 14312.04
400.1415, 14317.00
400.6236, 14324.63
401.1057, 14334.74
401.5878, 14348.33
402.0699, 14370.04
402.5521, 14392.98
403.0342, 14406.75
403.5163, 14407.88
403.9984, 14405.89
404.4805, 14402.46
404.9626, 14397.60
405.4448, 14392.30
405.9269, 14383.44
406.4090, 14379.89
406.8911, 14394.94
407.3732, 14433.14
407.8553, 14458.15
408.3375, 14459.04
408.8196, 14444.93
409.3017, 14441.65
409.7838, 14449.15
410.2659, 14468.23
410.7480, 14512.93
411.2302, 14574.19
411.7123, 14601.13
412.1944, 14581.89
412.6765, 14544.56
413.1586, 14515.71
413.6407, 14498.09
414.1229, 14503.72
414.6050, 14561.95
415.0871, 14638.72
415.5692, 14678.69
416.0513, 14679.17
416.5334, 14669.86
417.0156, 14669.91
417.4977, 14676.32
417.9798, 14684.61
418.4619, 14696.39
418.9440, 14706.81
419.4261, 14710.18
419.9083, 14708.17
420.3904, 14710.92
420.8725, 14721.92
421.3546, 14739.98
421.8367, 14766.56
422.3188, 14818.21
422.8010, 14850.28
423.2831, 14827.44
423.7652, 14778.63
424.2473, 14765.40
424.7295, 14841.18
425.2116, 14912.40
425.6937, 14946.73
426.1758, 14932.85
426.6579, 14923.87
427.1400, 14921.41
427.6222, 14922.71
428.1043, 14925.45
428.5864, 14931.79
429.0685, 14934.65
429.5506, 14929.17
430.0327, 14918.00
430.5149, 14923.04
430.9970, 14950.08
431.4791, 14979.49
431.9612, 14999.28
432.4433, 15009.56
432.9254, 15008.18
433.4076, 14991.14
433.8897, 14968.52
434.3718, 14954.46
434.8539, 14949.20
435.3360, 14961.35
435.8181, 15013.01
436.3003, 15084.55
436.7824, 15119.17
437.2645, 15113.90
437.7466, 15029.51
438.2287, 15116.87
438.7108, 15170.52
439.1930, 15192.26
439.6751, 15086.56
440.1572, 15145.43
440.6393, 15138.34
441.1214, 15128.55
441.6035, 15210.59
442.0857, 15123.42
442.5678, 15204.00
443.0499, 15217.61
443.5320, 15261.88
444.0141, 15239.78
444.4962, 15251.61
444.9784, 15265.56
445.4605, 15271.42
445.9426, 15254.45
446.4247, 15244.21
446.9068, 15253.52
447.3889, 15285.96
447.8711, 15314.11
448.3532, 15326.75
448.8353, 15340.83
449.3174, 15370.08
449.7995, 15428.28
450.2816, 15479.46
450.7638, 15523.75
451.2459, 15558.35
451.7280, 15565.14
452.2101, 15529.12
452.6922, 15501.09
453.1743, 15511.47
453.6565, 15564.70
454.1386, 15611.22
454.6207, 15651.92
455.1028, 15682.48
455.5849, 15687.24
456.0670, 15668.48
456.5492, 15668.24
457.0313, 15710.83
457.5134, 15777.63
457.9955, 15826.99
458.4776, 15859.38
458.9597, 15876.35
459.4419, 15863.31
459.9240, 15839.28
460.4061, 15840.59
460.8882, 15885.16
461.3703, 15931.84
461.8524, 15943.52
462.3346, 15929.76
462.8167, 15912.35
463.2988, 15900.44
463.7809, 15889.32
464.2630, 15871.51
464.7451, 15844.63
465.2273, 15834.23
465.7094, 15865.71
466.1915, 15909.69
466.6736, 15940.15
467.1557, 15953.87
467.6378, 15951.67
468.1200, 15920.86
468.6021, 15870.32
469.0842, 15841.68
469.5663, 15852.81
470.0484, 15865.02
470.5305, 15861.38
471.0127, 15836.17
471.4948, 15814.17
471.9769, 15796.23
472.4590, 15780.18
472.9411, 15760.07
473.4232, 15733.33
473.9054, 15719.62
474.3875, 15727.18
474.8696, 15751.59
475.3517, 15777.52
475.8338, 15805.42
476.3159, 15828.93
476.7981, 15839.79
477.2802, 15842.06
477.7623, 15768.48
478.2444, 15848.51
478.7265, 15894.84
479.2086, 15909.26
479.6908, 15796.23
480.1729, 15847.78
480.6550, 15833.37
481.1371, 15816.26
481.6192, 15890.97
482.1013, 15796.47
482.5835, 15869.73
483.0656, 15876.02
483.5477, 15912.96
484.0298, 15883.54
484.5119, 15874.61
484.9940, 15932.07
485.4762, 15952.77
485.9583, 15915.71
486.4404, 15954.59
486.9225, 15857.78
487.4046, 15959.56
487.8867, 16001.37
488.3689, 16026.91
488.8510, 16040.79
489.3331, 16044.42
489.8152, 16034.96
490.2973, 15999.97
490.7794, 15925.06
491.2616, 15891.25
491.7437, 15922.85
492.2258, 15994.32
492.7079, 16035.68
493.1900, 16045.48
493.6722, 16047.10
494.1543, 16054.01
494.6364, 16063.55
495.1185, 16064.15
495.6006, 16054.08
496.0828, 16045.38
496.5649, 16046.47
497.0470, 16058.17
497.5291, 16083.25
498.0112, 16138.48
498.4933, 16191.44
498.9755, 16212.12
499.4576, 16206.54
499.9397, 16196.00
500.4218, 16184.39
500.9039, 16175.59
501.3860, 16172.18
501.8682, 16175.41
502.3503, 16181.30
502.8324, 16201.48
503.3145, 16219.25
503.7966, 16214.00
504.2787, 16131.07
504.7609, 16092.10
505.2430, 16135.31
505.7251, 16244.53
506.2072, 16308.31
506.6893, 16310.09
507.1714, 16294.93
507.6536, 16284.69
508.1357, 16279.49
508.6178, 16276.64
509.0999, 16273.53
509.5820, 16278.82
510.0641, 16310.47
510.5463, 16366.34
511.0284, 16417.79
511.5105, 16460.04
511.9926, 16490.04
512.4747, 16493.68
512.9568, 16474.49
513.4390, 16461.76
513.9211, 16484.93
514.4032, 16522.42
514.8853, 16548.27
515.3674, 16558.53
515.8495, 16558.58
516.3317, 16538.99
516.8138, 16514.54
517.2959, 16505.69
517.7780, 16535.61
518.2601, 16565.49
518.7422, 16585.71
519.2244, 16595.85
519.7065, 16593.38
520.1886, 16556.31
520.6707, 16525.31
521.1528, 16519.19
521.6349, 16547.30
522.1171, 16577.66
522.5992, 16615.51
523.0813, 16650.36
523.5634, 16663.20
524.0455, 16646.83
524.5276, 16649.22
525.0098, 16692.45
525.4919, 16758.88
525.9740, 16786.63
526.4561, 16774.92
526.9382, 16756.20
527.4203, 16743.45
527.9025, 16741.04
528.3846, 16768.26
528.8667, 16832.74
529.3488, 16889.19
529.8309, 16878.85
530.3130, 16834.36
530.7952, 16808.56
531.2773, 16843.93
531.7594, 16883.57
532.2415, 16893.45
532.7236, 16880.21
533.2057, 16872.21
533.6879, 16871.68
534.1700, 16883.94
534.6521, 16916.41
535.1342, 16984.87
535.6163, 17029.45
536.0984, 17034.73
536.5806, 17025.42
537.0627, 17028.88
537.5448, 17056.50
538.0269, 17067.78
538.5090, 17049.79
538.9911, 17014.17
539.4733, 16999.19
539.9554, 17006.01
540.4375, 17024.14
540.9196, 17054.75
541.4017, 17093.52
541.8839, 17116.65
542.3660, 17122.54
542.8481, 17124.98
543.3302, 17137.21
543.8123, 17155.76
544.2944, 17174.70
544.7766, 17196.15
545.2587, 17211.35
545.7408, 17212.53
546.2229, 17201.85
546.7050, 17184.70
547.1871, 17154.22
547.6693, 17125.54
548.1514, 17094.60
548.6335, 17056.72
549.1156, 17069.65
549.5977, 17223.15
550.0798, 17375.41
550.5620, 17425.35
551.0441, 17305.96
551.5262, 17215.80
552.0083, 17164.53
552.4904, 17145.17
552.9725, 17151.09
553.4547, 17188.54
553.9368, 17217.60
554.4189, 17216.41
554.9010, 17197.11
555.3831, 17215.46
555.8652, 17272.29
556.3474, 17324.28
556.8295, 17331.35
557.3116, 17310.05
557.7937, 17291.78
558.2758, 17279.37
558.7579, 17277.05
559.2401, 17299.25
559.7222, 17331.71
560.2043, 17352.22
560.6864, 17345.27
561.1685, 17331.55
561.6506, 17315.02
562.1328, 17297.66
562.6149, 17288.79
563.0970, 17293.99
563.5791, 17304.87
564.0612, 17319.16
564.5433, 17339.18
565.0255, 17353.89
565.5076, 17363.10
565.9897, 17367.02
566.4718, 17363.46
566.9539, 17350.16
567.4360, 17344.79
567.9182, 17352.83
568.4003, 17366.95
568.8824, 17368.29
569.3645, 17358.32
569.8466, 17354.99
570.3287, 17376.74
570.8109, 17407.83
571.2930, 17419.48
571.7751, 17412.13
572.2572, 17402.50
572.7393, 17390.41
573.2214, 17387.79
573.7036, 17410.66
574.1857, 17476.83
574.6678, 17534.56
575.1499, 17566.10
575.6320, 17576.97
576.1141, 17575.53
576.5963, 17550.18
577.0784, 17526.54
577.5605, 17505.41
578.0426, 17488.69
578.5247, 17490.38
579.0068, 17521.62
579.4890, 17548.49
579.9711, 17544.30
580.4532, 17505.37
580.9353, 17512.03
581.4174, 17572.16
581.8995, 17645.26
582.3817, 17693.30
582.8638, 17717.67
583.3459, 17719.25
583.8280, 17687.06
584.3101, 17653.95
584.7922, 17669.42
585.2744, 17714.89
585.7565, 17742.93
586.2386, 17694.49
586.7207, 17652.32
587.2028, 17681.41
587.6849, 17780.52
588.1671, 17850.63
588.6492, 17842.37
589.1313, 17813.37
589.6134, 17797.31
590.0955, 17796.76
590.5776, 17806.59
591.0598, 17837.32
591.5419, 17868.97
592.0240, 17869.68
592.5061, 17830.28
592.9882, 17806.98
593.4703, 17816.02
593.9525, 17844.87
594.4346, 17864.05
594.9167, 17874.15
595.3988, 17883.62
595.8809, 17900.14
596.3630, 17918.09
596.8452, 17928.37
597.3273, 17930.51
597.8094, 17928.13
598.2915, 17915.64
598.7736, 17903.88
599.2557, 17903.69
599.7379, 17920.57
600.2200, 17942.71
600.7021, 17976.66
601.1843, 18011.41
601.6664, 18028.71
602.1485, 18006.52
602.6306, 17997.76
603.1127, 18019.85
603.5948, 18063.28
604.0770, 18073.39
604.5591, 18037.04
605.0412, 18010.63
605.5233, 18037.96
606.0054, 18109.61
606.4875, 18133.28
606.9697, 18104.86
607.4518, 18067.61
607.9339, 18061.03
608.4160, 18076.19
608.8981, 18097.55
609.3802, 18126.82
609.8624, 18148.78
610.3445, 18143.16
610.8266, 18124.24
611.3087, 18115.90
611.7908, 18140.81
612.2729, 18163.20
612.7551, 18160.95
613.2372, 18140.14
613.7193, 18148.76
614.2014, 18231.15
614.6835, 18289.09
615.1656, 18269.58
615.6478, 18158.87
616.1299, 18106.77
616.6120, 18125.35
617.0941, 18172.54
617.5762, 18219.79
618.0583, 18265.16
618.5405, 18285.49
619.0226, 18272.27
619.5047, 18248.67
619.9868, 18242.04
620.4689, 18247.82
620.9510, 18254.54
621.4332, 18250.04
621.9153, 18251.19
622.3974, 18275.65
622.8795, 18317.17
623.3616, 18349.98
623.8438, 18366.45
624.3259, 18371.59
624.8080, 18363.85
625.2901, 18340.25
625.7722, 18324.54
626.2543, 18317.04
626.7365, 18317.07
627.2186, 18323.66
627.7007, 18336.29
628.1828, 18364.67
628.6649, 18418.15
629.1470, 18465.97
629.6292, 18443.83
630.1113, 18368.42
630.5934, 18328.23
631.0755, 18371.88
631.5576, 18440.67
632.0397, 18462.23
632.5219, 18448.05
633.0040, 18433.70
633.4861, 18427.53
633.9682, 18434.57
634.4503, 18470.74
634.9324, 18537.64
635.4146, 18572.28
635.8967, 18516.20
636.3788, 18461.08
636.8609, 18460.77
637.3430, 18548.51
637.8251, 18597.24
638.3073, 18596.02
638.7894, 18571.77
639.2715, 18550.71
639.7536, 18532.88
640.2357, 18531.28
640.7178, 18549.44
641.2000, 18583.20
641.6821, 18639.05
642.1642, 18708.28
642.6463, 18758.87
643.1284, 18770.73
643.6105, 18761.56
644.0927, 18735.42
644.5748, 18697.04
645.0569, 18672.99
645.5390, 18686.21
646.0211, 18706.19
646.5032, 18715.35
646.9854, 18706.32
647.4675, 18710.83
647.9496, 18740.42
648.4317, 18770.47
648.9138, 18776.59
649.3959, 18751.22
649.8781, 18750.25
650.3602, 18785.53
650.8423, 18830.61
651.3244, 18847.62
651.8065, 18839.51
652.2886, 18820.28
652.7708, 18782.87
653.2529, 18751.21
653.7350, 18760.72
654.2171, 18799.74
654.6992, 18833.85
655.1813, 18843.74
655.6635, 18847.06
656.1456, 18852.56
656.6277, 18860.70
657.1098, 18866.53
657.5919, 18865.57
658.0740, 18866.00
658.5562, 18873.75
659.0383, 18893.49
659.5204, 18896.93
660.0025, 18877.77
660.4846, 18857.20
660.9667, 18860.21
661.4489, 18884.21
661.9310, 18907.50
662.4131, 18928.40
662.8952, 18941.54
663.3773, 18931.50
663.8594, 18909.00
664.3416, 18896.86
664.8237, 18921.30
665.3058, 18942.81
665.7879, 18927.01
666.2700, 18888.27
666.7521, 18875.51
667.2343, 18936.17
667.7164, 18988.42
668.1985, 19001.55
668.6806, 18975.69
669.1627, 18965.24
