##NAMES=Trattnerite
##RRUFFID=R060623
##IDEAL CHEMISTRY=Fe^3+^_2_(Mg_3_Si_12_)O_30_
##LOCALITY=Stradner Kogel Mountain, Wilhelmsdorf, Bad Gleichenberg, Styria, Austria
##OWNER=RRUFF
##SOURCE=Michael Scott
##DESCRIPTION=Isolated dark-blue hexagonal plates
##STATUS=The identification of this mineral is confirmed by single-crystal X-ray diffraction and chemical analysis.
##URL=rruff.info/R060623
##MEASURED CHEMISTRY=([box]_0.90_K_0.10_)_Σ=1_(Fe^3+^_1.96_Cr_0.03_Ti_0.01_)_Σ=2_(Mg_2.08_Fe^2+_0.81_Mn_0.11_)_Σ=3_[(Si_11.88_Al_0.12_)_Σ=12_O_30_] ; dark inclusion: (K_0.53_Na_0.47_)_Σ=1_(Al_0.98_Fe^3+^_0.02_)_Σ=1_(Si_2.99_Al_0.01_)_Σ=3_O_8_
163.954, 3957.419
164.436, 3981.660
164.919, 4014.369
165.401, 4067.621
165.883, 4139.362
166.365, 4197.061
166.847, 4231.372
167.329, 4245.080
167.811, 4234.854
168.293, 4195.491
168.775, 4163.325
169.258, 4180.258
169.740, 4246.673
170.222, 4296.454
170.704, 4300.451
171.186, 4286.687
171.668, 4279.620
172.150, 4282.806
172.632, 4287.225
173.115, 4283.263
173.597, 4270.300
174.079, 4258.914
174.561, 4250.196
175.043, 4245.650
175.525, 4248.859
176.007, 4261.313
176.489, 4273.289
176.971, 4272.716
177.454, 4257.819
177.936, 4245.681
178.418, 4237.591
178.900, 4236.395
179.382, 4250.410
179.864, 4282.735
180.346, 4310.833
180.828, 4301.701
181.311, 4247.483
181.793, 4208.167
182.275, 4213.503
182.757, 4231.498
183.239, 4241.668
183.721, 4239.473
184.203, 4236.125
184.685, 4249.243
185.167, 4284.203
185.650, 4304.771
186.132, 4288.178
186.614, 4262.118
187.096, 4243.265
187.578, 4235.132
188.060, 4230.280
188.542, 4217.569
189.024, 4193.809
189.507, 4179.177
189.989, 4187.539
190.471, 4200.733
190.953, 4209.354
191.435, 4211.369
191.917, 4208.027
192.399, 4195.564
192.881, 4168.898
193.363, 4160.022
193.846, 4195.017
194.328, 4237.147
194.810, 4268.264
195.292, 4284.620
195.774, 4287.875
196.256, 4274.593
196.738, 4239.758
197.220, 4215.863
197.702, 4217.674
198.185, 4225.954
198.667, 4230.439
199.149, 4229.663
199.631, 4229.032
200.113, 4237.178
200.595, 4257.021
201.077, 4267.572
201.559, 4251.963
202.042, 4235.702
202.524, 4234.174
203.006, 4248.216
203.488, 4264.785
203.970, 4269.721
204.452, 4261.425
204.934, 4254.493
205.416, 4255.348
205.898, 4254.001
206.381, 4242.614
206.863, 4221.872
207.345, 4201.622
207.827, 4192.825
208.309, 4196.640
208.791, 4197.122
209.273, 4191.788
209.755, 4183.502
210.238, 4173.127
210.720, 4160.932
211.202, 4147.592
211.684, 4131.454
212.166, 4112.257
212.648, 4101.270
213.130, 4108.063
213.612, 4114.895
214.094, 4111.293
214.577, 4099.208
215.059, 4087.740
215.541, 4085.224
216.023, 4091.257
216.505, 4094.974
216.987, 4092.510
217.469, 4092.131
217.951, 4102.471
218.434, 4119.135
218.916, 4129.066
219.398, 4117.087
219.880, 4087.471
220.362, 4073.992
220.844, 4087.628
221.326, 4103.494
221.808, 4108.393
222.290, 4105.998
222.773, 4105.271
223.255, 4114.639
223.737, 4130.151
224.219, 4134.599
224.701, 4123.429
225.183, 4108.114
225.665, 4095.198
226.147, 4082.423
226.629, 4064.809
227.112, 4034.331
227.594, 3999.760
228.076, 3985.823
228.558, 4001.572
229.040, 4018.113
229.522, 4022.721
230.004, 4019.469
230.486, 4012.950
230.969, 4003.316
231.451, 3992.989
231.933, 3987.099
232.415, 3987.431
232.897, 3986.370
233.379, 3978.388
233.861, 3967.804
234.343, 3959.167
234.825, 3953.936
235.307, 3950.950
235.790, 3949.305
236.272, 3949.324
236.754, 3948.244
237.236, 3936.891
237.718, 3927.929
238.200, 3938.615
238.682, 3978.643
239.165, 4020.383
239.647, 4033.435
240.129, 4017.783
240.611, 4003.979
241.093, 4004.971
241.575, 4010.546
242.057, 4007.820
242.539, 3994.138
243.021, 3980.574
243.503, 3973.491
243.986, 3972.974
244.468, 3981.246
244.950, 4006.051
245.432, 4031.723
245.914, 4038.159
246.396, 4023.731
246.878, 4008.577
247.361, 4005.320
247.843, 4009.727
248.325, 4009.052
248.807, 3999.372
249.289, 3986.350
249.771, 3972.548
250.253, 3957.732
250.735, 3954.350
251.217, 3975.092
251.699, 4008.021
252.182, 4034.038
252.664, 4050.062
253.146, 4059.477
253.628, 4063.563
254.110, 4062.816
254.592, 4061.316
255.074, 4060.045
255.556, 4058.172
256.039, 4051.234
256.521, 4038.731
257.003, 4034.130
257.485, 4051.636
257.967, 4090.024
258.449, 4120.172
258.931, 4133.620
259.413, 4144.431
259.896, 4165.843
260.378, 4195.944
260.860, 4219.476
261.342, 4225.168
261.824, 4215.829
262.306, 4212.863
262.788, 4212.718
263.270, 4221.624
263.752, 4252.501
264.235, 4295.383
264.717, 4322.805
265.199, 4317.876
265.681, 4292.991
266.163, 4293.023
266.645, 4333.301
267.127, 4375.666
267.609, 4414.788
268.091, 4451.389
268.574, 4487.395
269.056, 4523.602
269.538, 4557.415
270.020, 4583.068
270.502, 4596.705
270.984, 4606.876
271.466, 4607.138
271.948, 4607.500
272.431, 4617.590
272.913, 4639.422
273.395, 4668.039
273.877, 4698.887
274.359, 4739.654
274.841, 4758.793
275.323, 4741.313
275.805, 4717.726
276.288, 4705.464
276.770, 4705.279
277.252, 4708.912
277.734, 4709.446
278.216, 4707.273
278.698, 4697.372
279.180, 4671.365
279.662, 4645.993
280.144, 4624.486
280.626, 4607.867
281.109, 4598.591
281.591, 4600.878
282.073, 4610.678
282.555, 4599.588
283.037, 4548.776
283.519, 4500.261
284.001, 4462.012
284.483, 4431.819
284.966, 4405.399
285.448, 4380.608
285.930, 4360.468
286.412, 4356.462
286.894, 4383.100
287.376, 4390.444
287.858, 4348.013
288.340, 4294.771
288.823, 4265.134
289.305, 4268.059
289.787, 4278.955
290.269, 4264.076
290.751, 4219.625
291.233, 4191.189
291.715, 4197.792
292.197, 4165.909
292.679, 4177.031
293.162, 4177.713
293.644, 4168.518
294.126, 4119.858
294.608, 4122.159
295.090, 4104.038
295.572, 4085.078
296.054, 4094.550
296.536, 4051.630
297.018, 4060.653
297.501, 4048.940
297.983, 4046.719
298.465, 4023.947
298.947, 4007.521
299.429, 3994.260
299.911, 3968.458
300.393, 3949.254
300.875, 3936.286
301.358, 3928.192
301.840, 3926.656
302.322, 3928.319
302.804, 3932.091
303.286, 3937.446
303.768, 3942.138
304.250, 3946.098
304.732, 3947.749
305.215, 3942.332
305.697, 3924.219
306.179, 3910.411
306.661, 3911.651
307.143, 3919.451
307.625, 3918.257
308.107, 3902.749
308.589, 3882.572
309.071, 3872.135
309.553, 3873.676
310.036, 3881.076
310.518, 3907.174
311.000, 3930.521
311.482, 3931.979
311.964, 3910.801
312.446, 3879.054
312.928, 3846.032
313.410, 3809.287
313.893, 3794.148
314.375, 3821.677
314.857, 3845.887
315.339, 3843.112
315.821, 3823.009
316.303, 3809.932
316.785, 3820.621
317.267, 3848.140
317.750, 3857.763
318.232, 3828.622
318.714, 3808.832
319.196, 3812.797
319.678, 3825.914
320.160, 3832.094
320.642, 3825.429
321.124, 3816.502
321.606, 3842.619
322.089, 3860.231
322.571, 3869.792
323.053, 3847.195
323.535, 3866.123
324.017, 3868.410
324.499, 3870.015
324.981, 3894.789
325.463, 3876.869
325.945, 3901.275
326.428, 3908.785
326.910, 3912.379
327.392, 3924.682
327.874, 3929.828
328.356, 3930.190
328.838, 3931.559
329.320, 3936.082
329.802, 3943.187
330.284, 3951.497
330.767, 3960.756
331.249, 3973.739
331.731, 3993.534
332.213, 4017.760
332.695, 4042.938
333.177, 4076.314
333.659, 4098.310
334.142, 4083.896
334.624, 4046.236
335.106, 4027.706
335.588, 4044.924
336.070, 4081.952
336.552, 4115.054
337.034, 4147.294
337.516, 4166.710
337.998, 4160.849
338.480, 4146.936
338.963, 4142.126
339.445, 4149.016
339.927, 4160.820
340.409, 4170.756
340.891, 4177.990
341.373, 4191.678
341.855, 4219.813
342.337, 4245.322
342.819, 4259.778
343.302, 4265.868
343.784, 4270.198
344.266, 4276.646
344.748, 4284.367
345.230, 4290.487
345.712, 4298.326
346.194, 4299.017
346.677, 4284.144
347.159, 4266.186
347.641, 4257.783
348.123, 4262.133
348.605, 4270.775
349.087, 4272.424
349.569, 4265.811
350.051, 4258.715
350.533, 4249.138
351.016, 4241.502
351.498, 4237.789
351.980, 4237.923
352.462, 4241.258
352.944, 4252.544
353.426, 4266.602
353.908, 4263.404
354.390, 4236.158
354.872, 4210.657
355.355, 4201.825
355.837, 4204.030
356.319, 4211.875
356.801, 4228.458
357.283, 4243.753
357.765, 4245.365
358.247, 4236.184
358.729, 4234.424
359.211, 4249.437
359.694, 4270.705
360.176, 4279.541
360.658, 4273.744
361.140, 4269.398
361.622, 4269.458
362.104, 4273.749
362.586, 4281.179
363.069, 4291.834
363.551, 4309.521
364.033, 4340.385
364.515, 4386.511
364.997, 4415.145
365.479, 4412.945
365.961, 4409.879
366.443, 4409.962
366.925, 4419.191
367.408, 4445.742
367.890, 4493.610
368.372, 4542.921
368.854, 4602.209
369.336, 4659.063
369.818, 4713.633
370.300, 4759.052
370.782, 4816.282
371.264, 4869.873
371.747, 4925.557
372.229, 5000.421
372.711, 5050.499
373.193, 5074.409
373.675, 5101.987
374.157, 5134.110
374.639, 5169.496
375.121, 5214.518
375.603, 5261.747
376.086, 5294.983
376.568, 5302.207
377.050, 5295.389
377.532, 5296.057
378.014, 5305.683
378.496, 5304.120
378.978, 5283.178
379.460, 5244.607
379.943, 5195.353
380.425, 5135.513
380.907, 5064.556
381.389, 4974.768
381.871, 4874.728
382.353, 4777.949
382.835, 4686.486
383.317, 4603.442
383.799, 4533.110
384.282, 4477.583
384.764, 4422.945
385.246, 4364.356
385.728, 4311.145
386.210, 4272.052
386.692, 4242.846
387.174, 4212.731
387.656, 4175.321
388.138, 4132.657
388.621, 4091.563
389.103, 4041.834
389.585, 4009.583
390.067, 4007.452
390.549, 4015.704
391.031, 4019.378
391.513, 4014.840
391.996, 4005.309
392.478, 3992.018
392.960, 3974.128
393.442, 3963.847
393.924, 3966.147
394.406, 3970.223
394.888, 3971.573
395.370, 3970.744
395.852, 3969.232
396.335, 3968.531
396.817, 3966.458
397.299, 3956.732
397.781, 3938.830
398.263, 3929.458
398.745, 3940.055
399.227, 3958.064
399.709, 3962.845
400.191, 3951.179
400.674, 3940.993
401.156, 3938.726
401.638, 3942.210
402.120, 3950.343
402.602, 3962.732
403.084, 3974.120
403.566, 3979.839
404.048, 3979.686
404.530, 3976.953
405.013, 3969.242
405.495, 3961.995
405.977, 3959.822
406.459, 3959.048
406.941, 3952.123
407.423, 3935.650
407.905, 3915.624
408.387, 3905.252
408.870, 3910.299
409.352, 3912.285
409.834, 3905.831
410.316, 3900.131
410.798, 3903.051
411.280, 3912.745
411.762, 3919.465
412.244, 3912.521
412.727, 3896.801
413.209, 3893.946
413.691, 3909.027
414.173, 3923.549
414.655, 3925.919
415.137, 3923.296
415.619, 3923.830
416.101, 3928.255
416.583, 3937.468
417.065, 3959.258
417.548, 3986.663
418.030, 3997.251
418.512, 3983.219
418.994, 3961.380
419.476, 3950.403
419.958, 3951.847
420.440, 3954.523
420.922, 3955.558
421.405, 3960.021
421.887, 3975.416
422.369, 3997.230
422.851, 4012.153
423.333, 4011.950
423.815, 4003.003
424.297, 4005.872
424.779, 4035.332
425.262, 4052.660
425.744, 4045.230
426.226, 4033.575
426.708, 4033.861
427.190, 4046.984
427.672, 4062.048
428.154, 4068.680
428.636, 4068.005
429.118, 4070.841
429.601, 4080.753
430.083, 4087.210
430.565, 4078.344
431.047, 4065.036
431.529, 4063.139
432.011, 4078.652
432.493, 4100.971
432.975, 4123.703
433.457, 4146.349
433.940, 4167.760
434.422, 4188.024
434.904, 4205.335
435.386, 4215.142
435.868, 4215.634
436.350, 4225.623
436.832, 4255.396
437.314, 4286.885
437.797, 4306.173
438.279, 4317.264
438.761, 4332.942
439.243, 4360.798
439.725, 4396.361
440.207, 4426.492
440.689, 4447.429
441.171, 4469.378
441.654, 4482.568
442.136, 4504.610
442.618, 4554.546
443.100, 4628.973
443.582, 4702.819
444.064, 4751.357
444.546, 4781.642
445.028, 4827.117
445.510, 4888.265
445.992, 4963.218
446.475, 5051.903
446.957, 5154.145
447.439, 5272.972
447.921, 5413.468
448.403, 5557.935
448.885, 5685.038
449.367, 5809.213
449.849, 5964.752
450.332, 6158.111
450.814, 6380.175
451.296, 6620.762
451.778, 6879.494
452.260, 7167.104
452.742, 7477.156
453.224, 7818.350
453.706, 8192.681
454.189, 8600.381
454.671, 9039.722
455.153, 9508.716
455.635, 10020.690
456.117, 10625.410
456.599, 11397.240
457.081, 12033.210
457.563, 12401.630
458.045, 12735.160
458.528, 13137.670
459.010, 13594.900
459.492, 14045.160
459.974, 14480.260
460.456, 14867.370
460.938, 15156.630
461.420, 15349.880
461.902, 15421.810
462.384, 15360.270
462.867, 15169.300
463.349, 14851.320
463.831, 14393.370
464.313, 13899.340
464.795, 13397.430
465.277, 12873.730
465.759, 12303.550
466.241, 11693.560
466.724, 11085.010
467.206, 10503.500
467.688, 9951.805
468.170, 9438.091
468.652, 8962.848
469.134, 8531.924
469.616, 8159.059
470.098, 7824.272
470.581, 7514.103
471.063, 7225.627
471.545, 6950.582
472.027, 6677.817
472.509, 6409.522
472.991, 6178.469
473.473, 5990.104
473.955, 5823.052
474.437, 5671.275
474.919, 5531.774
475.402, 5401.353
475.884, 5277.936
476.366, 5166.138
476.848, 5068.995
477.330, 4985.017
477.812, 4913.304
478.294, 4853.737
478.776, 4797.691
479.259, 4736.704
479.741, 4670.229
480.223, 4608.575
480.705, 4549.267
481.187, 4496.381
481.669, 4454.339
482.151, 4418.579
482.633, 4382.455
483.116, 4344.056
483.598, 4307.236
484.080, 4278.371
484.562, 4258.105
485.044, 4239.856
485.526, 4222.272
486.008, 4208.468
486.490, 4205.634
486.972, 4206.840
487.455, 4196.401
487.937, 4161.846
488.419, 4125.600
488.901, 4111.976
489.383, 4115.998
489.865, 4118.177
490.347, 4113.494
490.829, 4103.298
491.311, 4087.421
491.794, 4063.501
492.276, 4048.355
492.758, 4048.148
493.240, 4050.427
493.722, 4051.818
494.204, 4050.706
494.686, 4043.750
495.168, 4029.354
495.651, 4012.876
496.133, 4004.883
496.615, 4008.240
497.097, 4008.475
497.579, 4001.115
498.061, 3994.005
498.543, 3989.977
499.025, 3989.342
499.508, 3990.253
499.990, 3975.783
500.472, 3981.722
500.954, 3967.883
501.436, 4006.824
501.918, 4032.954
502.400, 4046.960
502.882, 4012.531
503.364, 4040.646
503.846, 4043.695
504.329, 4045.717
504.811, 4082.636
505.293, 4055.252
505.775, 4091.615
506.257, 4102.532
506.739, 4125.094
507.221, 4117.229
507.703, 4110.933
508.186, 4115.493
508.668, 4136.854
509.150, 4145.697
509.632, 4127.366
510.114, 4108.077
510.596, 4101.109
511.078, 4104.477
511.560, 4111.541
512.042, 4121.906
512.525, 4132.301
513.007, 4138.645
513.489, 4141.614
513.971, 4146.363
514.453, 4156.495
514.935, 4161.637
515.417, 4144.994
515.899, 4097.943
516.382, 4068.207
516.864, 4066.744
517.346, 4071.312
517.828, 4076.426
518.310, 4078.763
518.792, 4072.895
519.274, 4056.375
519.756, 4035.552
520.239, 4020.611
520.721, 4012.248
521.203, 4004.551
521.685, 3993.124
522.167, 3987.624
522.649, 3999.576
523.131, 4021.001
523.613, 4032.078
524.096, 4023.172
524.578, 4007.465
525.060, 3994.067
525.542, 3982.399
526.024, 3969.417
526.506, 3953.826
526.988, 3942.668
527.470, 3944.968
527.952, 3962.731
528.435, 3977.505
528.917, 3999.146
529.399, 4007.119
529.881, 3977.223
530.363, 3937.147
530.845, 3928.605
531.327, 3963.534
531.809, 4006.496
532.291, 4010.391
532.774, 3978.484
533.256, 3968.707
533.738, 3993.335
534.220, 4018.732
534.702, 4024.291
535.184, 4016.214
535.666, 4005.826
536.148, 3990.425
536.630, 3979.824
537.113, 3979.461
537.595, 3986.169
538.077, 3997.405
538.559, 4011.964
539.041, 4025.754
539.523, 4035.396
540.005, 4041.015
540.487, 4044.728
540.969, 4046.243
541.452, 4045.972
541.934, 4043.276
542.416, 4039.454
542.898, 4036.618
543.380, 4034.552
543.862, 4029.270
544.344, 4015.178
544.826, 3996.596
545.309, 3982.366
545.791, 3972.612
546.273, 3968.096
546.755, 3971.710
547.237, 3978.168
547.719, 3975.754
548.201, 3961.509
548.683, 3948.083
549.166, 3939.409
549.648, 3929.922
550.130, 3911.271
550.612, 3888.279
551.094, 3874.797
551.576, 3879.290
552.058, 3894.004
552.540, 3903.896
553.023, 3910.015
553.505, 3905.398
553.987, 3880.683
554.469, 3854.292
554.951, 3839.279
555.433, 3833.144
555.915, 3827.125
556.397, 3819.579
556.879, 3810.362
557.362, 3798.704
557.844, 3785.365
558.326, 3773.310
558.808, 3763.325
559.290, 3749.456
559.772, 3721.432
560.254, 3675.789
560.736, 3658.098
561.218, 3707.902
561.701, 3740.617
562.183, 3726.645
562.665, 3692.320
563.147, 3664.990
563.629, 3651.280
564.111, 3647.000
564.593, 3653.657
565.075, 3666.474
565.557, 3671.653
566.040, 3668.412
566.522, 3658.278
567.004, 3641.120
567.486, 3618.145
567.968, 3591.239
568.450, 3554.248
568.932, 3526.836
569.414, 3516.635
569.896, 3512.869
570.379, 3504.694
570.861, 3495.282
571.343, 3498.985
571.825, 3526.737
572.307, 3562.701
572.789, 3567.534
573.271, 3534.907
573.753, 3514.836
574.236, 3523.536
574.718, 3536.664
575.200, 3533.925
575.682, 3519.385
576.164, 3507.563
576.646, 3499.508
577.128, 3497.421
577.610, 3507.841
578.093, 3523.694
578.575, 3532.369
579.057, 3530.826
579.539, 3524.160
580.021, 3516.639
580.503, 3508.364
580.985, 3507.765
581.467, 3522.081
581.950, 3533.015
582.432, 3532.329
582.914, 3529.103
583.396, 3533.574
583.878, 3546.672
584.360, 3556.885
584.842, 3554.283
585.324, 3546.094
585.806, 3542.334
586.289, 3543.222
586.771, 3542.424
587.253, 3524.827
587.735, 3548.220
588.217, 3561.664
588.699, 3565.692
589.181, 3532.105
589.663, 3547.090
590.145, 3542.610
590.628, 3537.331
591.110, 3559.153
591.592, 3531.037
592.074, 3552.428
592.556, 3554.057
593.038, 3564.731
593.520, 3555.820
594.002, 3552.957
594.484, 3569.687
594.967, 3575.568
595.449, 3564.402
595.931, 3575.650
596.413, 3555.781
596.895, 3563.711
597.377, 3568.936
597.859, 3565.733
598.341, 3558.400
598.823, 3548.536
599.306, 3537.615
599.788, 3528.124
600.270, 3521.222
600.752, 3517.747
601.234, 3520.626
601.716, 3530.352
602.198, 3540.471
602.680, 3553.387
603.162, 3560.509
603.645, 3549.378
604.127, 3523.905
604.609, 3504.842
605.091, 3496.783
605.573, 3492.658
606.055, 3491.616
606.537, 3491.783
607.019, 3491.995
607.502, 3491.349
607.984, 3486.759
608.466, 3473.809
608.948, 3455.002
609.430, 3445.807
609.912, 3450.677
610.394, 3451.279
610.876, 3427.690
611.359, 3456.890
611.841, 3473.277
612.323, 3477.537
612.805, 3433.355
613.287, 3451.727
613.769, 3445.030
614.251, 3437.305
614.733, 3464.480
615.216, 3427.344
615.698, 3453.967
616.180, 3455.138
616.662, 3450.410
617.144, 3468.474
617.626, 3467.888
618.108, 3437.188
618.590, 3407.997
619.072, 3382.103
619.555, 3368.311
620.037, 3385.214
620.519, 3436.499
621.001, 3471.319
621.483, 3457.617
621.965, 3423.691
622.447, 3390.561
622.929, 3362.625
623.411, 3351.906
623.894, 3364.183
624.376, 3381.702
624.858, 3372.856
625.340, 3328.778
625.822, 3307.762
626.304, 3326.176
626.786, 3346.481
627.268, 3357.850
627.750, 3362.022
628.233, 3359.728
628.715, 3350.230
629.197, 3341.853
629.679, 3342.974
630.161, 3345.831
630.643, 3336.708
631.125, 3318.137
631.607, 3306.017
632.089, 3308.629
632.572, 3320.847
633.054, 3333.870
633.536, 3350.771
634.018, 3358.433
634.500, 3352.278
634.982, 3341.626
635.464, 3323.101
635.946, 3304.792
636.429, 3301.797
636.911, 3321.158
637.393, 3336.998
637.875, 3326.153
638.357, 3304.679
638.839, 3296.545
639.321, 3302.451
639.803, 3312.433
640.286, 3321.195
640.768, 3329.510
641.250, 3340.383
641.732, 3359.242
642.214, 3365.671
642.696, 3348.329
643.178, 3330.099
643.660, 3318.838
644.143, 3313.361
644.625, 3312.378
645.107, 3317.331
645.589, 3319.714
646.071, 3310.570
646.553, 3297.065
647.035, 3291.135
647.517, 3292.551
647.999, 3292.773
648.482, 3287.008
648.964, 3264.864
649.446, 3289.677
649.928, 3303.092
650.410, 3305.721
650.892, 3265.259
651.374, 3280.440
651.856, 3273.321
652.338, 3265.289
652.821, 3288.301
653.303, 3254.106
653.785, 3276.626
654.267, 3276.507
654.749, 3286.750
655.231, 3274.555
655.713, 3269.290
656.195, 3286.469
656.677, 3291.221
657.160, 3276.444
657.642, 3287.344
658.124, 3252.366
658.606, 3257.647
659.088, 3260.155
659.570, 3245.895
660.052, 3242.399
660.534, 3247.529
661.016, 3260.056
661.499, 3284.195
661.981, 3300.419
662.463, 3295.701
662.945, 3281.163
663.427, 3265.445
663.909, 3251.184
664.391, 3242.868
664.873, 3242.943
665.356, 3248.059
665.838, 3254.701
666.320, 3264.891
666.802, 3259.645
667.284, 3228.750
667.766, 3199.454
668.248, 3183.367
668.730, 3179.060
669.213, 3188.536
669.695, 3219.069
670.177, 3236.624
670.659, 3215.999
671.141, 3190.074
671.623, 3188.969
672.105, 3205.644
672.587, 3219.285
673.070, 3220.919
673.552, 3214.281
674.034, 3199.451
674.516, 3177.322
674.998, 3177.156
675.480, 3209.444
675.962, 3229.070
676.444, 3204.285
676.926, 3161.070
677.409, 3150.607
677.891, 3181.551
678.373, 3201.681
678.855, 3196.179
679.337, 3186.410
679.819, 3185.363
680.301, 3187.964
680.783, 3184.000
681.265, 3170.654
