##NAMES=Trechmannite
##RRUFFID=R130062
##IDEAL CHEMISTRY=Ag^1+^As^3+^S^2-^_2_
##LOCALITY=Lengenbach quarry, Imfeld, Binn Valley, Wallis, Switzerland
##OWNER=RRUFF
##SOURCE=William W. Pinch
##DESCRIPTION=Single dark red crystal, associated with jordanite and binnite
##STATUS=The identification of this mineral has been confirmed by single-crystal X-ray diffraction.
##URL=rruff.info/R130062
192.0525, 75.17052
192.5346, 77.36052
193.0167, 79.71380
193.4988, 82.15055
193.9810, 84.40475
194.4631, 86.43896
194.9452, 88.15757
195.4273, 88.95914
195.9094, 88.87441
196.3915, 89.05404
196.8737, 89.83365
197.3558, 90.98172
197.8379, 91.74133
198.3200, 92.11900
198.8021, 92.12450
199.2842, 91.58984
199.7664, 90.47388
200.2485, 89.67516
200.7306, 89.45855
201.2127, 89.70329
201.6948, 89.73173
202.1769, 89.51573
202.6591, 89.19126
203.1412, 88.86783
203.6233, 88.53834
204.1054, 88.24948
204.5875, 88.01283
205.0696, 87.82481
205.5518, 87.64180
206.0339, 87.42693
206.5160, 87.29118
206.9981, 87.39994
207.4802, 87.82081
207.9623, 88.14356
208.4445, 88.20076
208.9266, 88.01315
209.4087, 88.15639
209.8908, 88.75284
210.3729, 89.45116
210.8550, 89.83521
211.3372, 89.79411
211.8193, 89.81865
212.3014, 90.02032
212.7835, 90.39564
213.2656, 90.89956
213.7477, 91.60776
214.2299, 92.33942
214.7120, 92.87793
215.1941, 93.20466
215.6762, 93.39902
216.1583, 93.42406
216.6404, 93.25922
217.1226, 93.33189
217.6047, 93.80648
218.0868, 94.32253
218.5689, 94.37707
219.0510, 93.68008
219.5331, 93.21790
220.0153, 93.33679
220.4974, 94.12499
220.9795, 94.49169
221.4616, 94.23446
221.9437, 93.77842
222.4258, 93.68294
222.9080, 94.15943
223.3901, 94.54640
223.8722, 94.65408
224.3543, 94.45686
224.8364, 94.20219
225.3185, 93.76881
225.8007, 93.38921
226.2828, 93.39902
226.7649, 94.02761
227.2470, 94.57915
227.7291, 94.78757
228.2112, 94.56482
228.6934, 94.73653
229.1755, 95.58891
229.6576, 96.58364
230.1397, 96.96079
230.6218, 96.33766
231.1039, 95.81320
231.5861, 95.71618
232.0682, 96.12937
232.5503, 96.38708
233.0324, 96.44938
233.5145, 96.39653
233.9966, 96.29823
234.4788, 96.02873
234.9609, 95.94810
235.4430, 96.20171
235.9251, 96.85490
236.4072, 97.37957
236.8893, 97.71624
237.3715, 97.97280
237.8536, 98.28613
238.3357, 98.71010
238.8178, 99.10128
239.2999, 99.44913
239.7820, 99.76774
240.2642, 99.89314
240.7463, 99.74067
241.2284, 99.46262
241.7105, 99.23662
242.1926, 99.06298
242.6747, 98.93526
243.1569, 98.84303
243.6390, 98.77791
244.1211, 98.80947
244.6032, 98.93550
245.0853, 99.15828
245.5674, 99.52288
246.0496, 100.2395
246.5317, 100.7059
247.0138, 100.7130
247.4959, 100.2048
247.9780, 99.88632
248.4601, 99.75865
248.9423, 99.81712
249.4244, 100.0922
249.9065, 100.7396
250.3886, 101.3013
250.8707, 101.6708
251.3528, 101.8395
251.8350, 101.9766
252.3171, 102.0842
252.7992, 102.1567
253.2813, 102.1520
253.7634, 101.9347
254.2455, 101.9370
254.7277, 102.3183
255.2098, 103.0880
255.6919, 103.6679
256.1740, 103.9752
256.6561, 104.1923
257.1382, 104.4658
257.6204, 104.7616
258.1025, 105.2071
258.5846, 105.8847
259.0667, 106.7789
259.5488, 107.4885
260.0309, 107.9426
260.5131, 108.2976
260.9952, 108.6322
261.4773, 108.8463
261.9594, 109.3496
262.4415, 110.3127
262.9236, 111.6796
263.4058, 112.7521
263.8879, 113.4409
264.3700, 114.0093
264.8521, 114.7446
265.3342, 115.7952
265.8163, 116.4980
266.2985, 116.7518
266.7806, 116.5783
267.2627, 116.0939
267.7448, 115.3218
268.2269, 114.1907
268.7090, 112.5066
269.1912, 110.0308
269.6733, 107.9697
270.1554, 106.5561
270.6375, 105.6342
271.1196, 104.5979
271.6017, 103.3442
272.0839, 102.2599
272.5660, 101.7053
273.0481, 101.7730
273.5302, 101.7207
274.0123, 101.4220
274.4944, 100.9948
274.9766, 100.7903
275.4587, 100.8449
275.9408, 100.9838
276.4229, 101.0946
276.9050, 101.1696
277.3871, 101.3479
277.8693, 101.6919
278.3514, 102.0864
278.8335, 102.1981
279.3156, 101.9599
279.7977, 101.8447
280.2798, 102.2762
280.7620, 103.2561
281.2441, 103.7105
281.7262, 103.4596
282.2083, 102.8957
282.6904, 102.6723
283.1725, 102.7975
283.6547, 103.1295
284.1368, 103.7426
284.6189, 104.5870
285.1010, 105.0546
285.5831, 105.0372
286.0652, 104.9099
286.5474, 105.2556
287.0295, 106.0654
287.5116, 106.9135
287.9937, 107.6734
288.4758, 108.3379
288.9579, 108.8256
289.4401, 109.1415
289.9222, 109.2976
290.4043, 109.1929
290.8864, 108.8731
291.3685, 108.7152
291.8506, 109.0291
292.3328, 109.5929
292.8149, 109.6435
293.2970, 109.1417
293.7791, 108.6126
294.2612, 108.6912
294.7433, 109.2333
295.2255, 109.6731
295.7076, 109.8360
296.1897, 109.7721
296.6718, 109.4413
297.1539, 108.8550
297.6360, 108.4138
298.1182, 108.4970
298.6003, 108.9912
299.0824, 109.6222
299.5645, 110.3422
300.0466, 111.1390
300.5287, 112.0799
301.0109, 113.1297
301.4930, 114.0696
301.9751, 114.5753
302.4572, 114.8884
302.9393, 115.4311
303.4214, 116.3870
303.9036, 117.4416
304.3857, 118.1912
304.8678, 118.7272
305.3499, 119.4016
305.8320, 120.5838
306.3141, 121.9620
306.7963, 123.1061
307.2784, 123.8815
307.7605, 124.6463
308.2426, 125.7273
308.7247, 127.0318
309.2068, 128.3380
309.6890, 129.3994
310.1711, 130.4880
310.6532, 131.8514
311.1353, 133.5443
311.6174, 135.3270
312.0995, 137.0105
312.5817, 138.6646
313.0638, 140.4247
313.5459, 142.3972
314.0280, 144.4726
314.5101, 146.6015
314.9922, 148.7732
315.4744, 150.9885
315.9565, 153.3757
316.4386, 155.7579
316.9207, 157.9043
317.4028, 159.8122
317.8849, 161.4401
318.3671, 162.8910
318.8492, 164.1561
319.3313, 164.7871
319.8134, 164.3889
320.2955, 163.4241
320.7776, 162.2688
321.2598, 160.8911
321.7419, 159.4409
322.2240, 158.5364
322.7061, 157.8292
323.1882, 155.5156
323.6703, 149.5421
324.1525, 143.0225
324.6346, 137.7120
325.1167, 134.2570
325.5988, 131.3177
326.0809, 128.8448
326.5630, 126.8119
327.0452, 125.1391
327.5273, 123.9936
328.0094, 123.0849
328.4915, 122.3185
328.9736, 121.7112
329.4557, 121.2297
329.9379, 120.9367
330.4200, 120.7482
330.9021, 120.5345
331.3842, 120.2793
331.8663, 120.0109
332.3484, 119.6705
332.8306, 119.1976
333.3127, 119.1025
333.7948, 119.6152
334.2769, 120.2994
334.7590, 120.6415
335.2411, 120.4484
335.7233, 120.3531
336.2054, 120.4872
336.6875, 120.8437
337.1696, 121.2905
337.6517, 121.8760
338.1339, 122.4616
338.6160, 122.8633
339.0981, 122.9938
339.5802, 123.4039
340.0623, 124.2196
340.5444, 125.3488
341.0266, 126.4524
341.5087, 127.5459
341.9908, 128.6021
342.4729, 129.6093
342.9550, 130.5576
343.4371, 131.5078
343.9193, 132.4678
344.4014, 133.4046
344.8835, 134.1543
345.3656, 134.7195
345.8477, 135.4636
346.3298, 136.5444
346.8120, 137.9565
347.2941, 139.7267
347.7762, 141.9363
348.2583, 144.1641
348.7404, 145.7967
349.2225, 146.9804
349.7047, 148.3242
350.1868, 149.9534
350.6689, 151.9272
351.1510, 154.5459
351.6331, 157.7869
352.1152, 161.0730
352.5974, 163.7787
353.0795, 166.2053
353.5616, 168.8979
354.0437, 171.9570
354.5258, 175.3875
355.0079, 179.3160
355.4901, 183.6797
355.9722, 188.2624
356.4543, 193.2192
356.9364, 198.1834
357.4185, 202.8489
357.9006, 207.1462
358.3828, 211.1573
358.8649, 215.1704
359.3470, 218.9557
359.8291, 222.0873
360.3112, 224.0683
360.7933, 225.5690
361.2755, 226.8138
361.7576, 227.7298
362.2397, 229.0949
362.7218, 231.4798
363.2039, 234.3686
363.6860, 237.1861
364.1682, 238.6861
364.6503, 241.1862
365.1324, 245.2538
365.6145, 250.9142
366.0966, 257.9899
366.5787, 266.3106
367.0609, 276.1239
367.5430, 287.5882
368.0251, 302.3295
368.5072, 316.9240
368.9893, 330.5264
369.4714, 343.6418
369.9536, 357.6324
370.4357, 373.6883
370.9178, 389.4364
371.3999, 403.9416
371.8820, 417.5915
372.3641, 429.4608
372.8463, 440.5220
373.3284, 449.0453
373.8105, 452.5117
374.2926, 450.7964
374.7747, 444.2106
375.2568, 432.5062
375.7390, 415.5833
376.2211, 395.0475
376.7032, 369.5131
377.1853, 342.7888
377.6674, 317.4974
378.1495, 293.4879
378.6317, 271.5016
379.1138, 251.3820
379.5959, 233.3880
380.0780, 217.7637
380.5601, 204.6282
381.0422, 193.4685
381.5244, 184.4834
382.0065, 177.3167
382.4886, 170.4556
382.9707, 163.6301
383.4528, 157.2274
383.9349, 151.6888
384.4171, 146.9659
384.8992, 142.8133
385.3813, 139.1655
385.8634, 135.9242
386.3455, 132.8321
386.8276, 129.8927
387.3098, 127.2095
387.7919, 124.8832
388.2740, 122.8415
388.7561, 120.9681
389.2382, 119.1711
389.7203, 117.5484
390.2025, 116.3234
390.6846, 115.4181
391.1667, 114.4340
391.6488, 113.1132
392.1309, 111.6476
392.6130, 110.1659
393.0952, 108.6472
393.5773, 107.2650
394.0594, 106.1001
394.5415, 105.1358
395.0236, 104.3408
395.5057, 103.7469
395.9879, 103.2863
396.4700, 102.9971
396.9521, 102.9308
397.4342, 102.7115
397.9163, 102.1449
398.3984, 101.4661
398.8806, 100.8898
399.3627, 100.6169
399.8448, 100.2289
400.3269, 99.54737
400.8090, 98.64436
401.2911, 98.10143
401.7733, 98.14069
402.2554, 98.27014
402.7375, 98.24324
403.2196, 98.02492
403.7017, 97.71339
404.1838, 97.22036
404.6660, 96.70683
405.1481, 96.57520
405.6302, 96.98685
406.1123, 97.17311
406.5944, 96.71981
407.0765, 95.67406
407.5587, 95.14268
408.0408, 95.19314
408.5229, 95.48110
409.0050, 95.77478
409.4871, 96.05264
409.9692, 96.00448
410.4514, 95.43208
410.9335, 94.64011
411.4156, 94.31260
411.8977, 94.41459
412.3798, 94.50938
412.8619, 94.22462
413.3441, 93.74490
413.8262, 93.42019
414.3083, 93.29531
414.7904, 93.29726
415.2725, 93.49798
415.7546, 93.76848
416.2368, 93.84499
416.7189, 93.36958
417.2010, 92.82376
417.6831, 92.62577
418.1652, 92.76431
418.6473, 92.90004
419.1295, 92.93517
419.6116, 92.84045
420.0937, 92.57342
420.5758, 91.94363
421.0579, 91.39915
421.5400, 91.08102
422.0222, 90.95063
422.5043, 90.90324
422.9864, 90.92099
423.4685, 91.01592
423.9506, 91.22875
424.4327, 91.63450
424.9149, 91.90751
425.3970, 92.01006
425.8791, 91.99223
426.3612, 91.88566
426.8433, 91.53708
427.3254, 91.36055
427.8076, 91.55405
428.2897, 92.01686
428.7718, 91.95185
429.2539, 91.09177
429.7360, 90.24496
430.2181, 89.95632
430.7003, 90.32643
431.1824, 90.57080
431.6645, 90.62212
432.1466, 90.59614
432.6287, 90.72179
433.1108, 91.00336
433.5930, 91.19727
434.0751, 91.17358
434.5572, 90.99781
435.0393, 90.90565
435.5214, 90.90189
436.0035, 90.85713
436.4857, 90.61590
436.9678, 90.24794
437.4499, 89.89261
437.9320, 89.53059
438.4141, 89.29237
438.8962, 89.38628
439.3784, 89.73283
439.8605, 90.09995
440.3426, 90.43002
440.8247, 90.68251
441.3068, 90.82072
441.7889, 90.83624
442.2711, 90.77907
442.7532, 90.67051
443.2353, 90.50279
443.7174, 90.26791
444.1995, 89.81216
444.6816, 89.44772
445.1638, 89.30261
445.6459, 89.33515
446.1280, 89.34423
446.6101, 89.33102
447.0922, 89.26353
447.5743, 89.07578
448.0565, 88.56071
448.5386, 88.48000
449.0207, 89.25326
449.5028, 90.19730
449.9849, 90.35308
450.4670, 89.29169
450.9492, 88.41196
451.4313, 88.04583
451.9134, 88.12926
452.3955, 88.25956
452.8776, 88.47562
453.3597, 88.60189
453.8419, 88.44294
454.3240, 88.01074
454.8061, 87.75381
455.2882, 87.74519
455.7703, 87.83311
456.2524, 87.78834
456.7346, 87.62739
457.2167, 87.46632
457.6988, 87.30473
458.1809, 87.19207
458.6630, 87.23174
459.1451, 87.41660
459.6273, 87.65096
460.1094, 87.98234
460.5915, 88.27467
461.0736, 88.32426
461.5557, 87.99391
462.0378, 87.62169
462.5200, 87.36537
463.0021, 87.22730
463.4842, 87.21777
463.9663, 87.60307
464.4484, 87.89272
464.9305, 87.75600
465.4127, 87.14810
465.8948, 86.71676
466.3769, 86.65951
466.8590, 86.79004
467.3411, 86.97713
467.8232, 87.50937
468.3054, 87.70064
468.7875, 87.33971
469.2696, 86.65784
469.7517, 86.21532
470.2338, 86.06250
470.7159, 86.06645
471.1981, 86.22924
471.6802, 86.56137
472.1623, 86.77823
472.6444, 86.88147
473.1265, 86.85972
473.6086, 86.59425
474.0908, 86.09277
474.5729, 85.87853
475.0550, 86.13258
475.5371, 86.58214
476.0192, 86.71298
476.5013, 86.55440
476.9835, 86.34127
477.4656, 86.18641
477.9477, 86.06442
478.4298, 85.96274
478.9119, 85.88276
479.3940, 85.72789
479.8762, 85.25523
480.3583, 84.71464
480.8404, 84.44675
481.3225, 84.71259
481.8046, 85.04709
482.2867, 85.20309
482.7689, 85.24425
483.2510, 85.33266
483.7331, 85.72576
484.2152, 86.00597
484.6973, 85.91115
485.1794, 85.30971
485.6616, 84.93377
486.1437, 85.05923
486.6258, 85.30534
487.1079, 85.38377
487.5900, 85.22046
488.0721, 85.00919
488.5543, 84.73196
489.0364, 84.42742
489.5185, 84.20261
490.0006, 84.05235
490.4827, 84.00208
490.9648, 84.12793
491.4470, 84.41254
491.9291, 84.44958
492.4112, 84.19577
492.8933, 83.90161
493.3754, 83.84893
493.8575, 83.98543
494.3397, 84.07162
494.8218, 84.03013
495.3039, 83.96655
495.7860, 84.06617
496.2681, 84.27771
496.7502, 84.42350
497.2324, 84.39335
497.7145, 84.26440
498.1966, 84.07388
498.6787, 83.82259
499.1608, 83.62019
499.6429, 83.49980
500.1251, 83.46391
500.6072, 83.51756
501.0893, 83.76792
501.5714, 83.95712
502.0535, 84.00839
502.5356, 83.96023
503.0178, 83.90279
503.4999, 83.87953
503.9820, 83.80581
504.4641, 83.63542
504.9462, 83.36218
505.4283, 83.17924
505.9105, 83.11501
506.3926, 83.10275
506.8747, 83.09691
507.3568, 83.09780
507.8389, 83.10449
508.3210, 83.10738
508.8032, 83.13310
509.2853, 83.31200
509.7674, 83.62330
510.2495, 83.71652
510.7316, 83.26907
511.2137, 82.58283
511.6959, 82.33671
512.1780, 82.50681
512.6601, 82.76489
513.1422, 82.93583
513.6243, 83.02691
514.1064, 83.05095
514.5886, 83.01524
515.0707, 82.89551
515.5528, 82.53910
516.0349, 82.12589
516.5170, 81.90952
516.9991, 82.08842
517.4813, 82.35988
517.9634, 82.74345
518.4455, 83.19511
518.9276, 83.37849
519.4097, 82.96198
519.8918, 82.52366
520.3740, 82.31149
520.8561, 82.42349
521.3382, 82.41459
521.8203, 82.17697
522.3024, 81.94039
522.7845, 82.03935
523.2667, 82.57030
523.7488, 82.86843
524.2309, 82.73643
524.7130, 82.34988
525.1951, 82.15190
525.6772, 82.13831
526.1594, 82.13365
526.6415, 81.95415
527.1236, 81.72801
527.6057, 81.80240
528.0878, 82.19204
528.5699, 82.58733
529.0521, 82.71542
529.5342, 82.69878
530.0163, 82.70547
530.4984, 82.83135
530.9805, 82.89268
531.4626, 82.70723
531.9448, 82.39189
532.4269, 82.17396
532.9090, 82.16406
533.3911, 82.21416
533.8732, 82.27412
534.3553, 82.33981
534.8375, 82.45894
535.3196, 82.74062
535.8017, 82.96355
536.2838, 82.98824
536.7659, 82.71799
537.2480, 82.51440
537.7302, 82.38700
538.2123, 82.31620
538.6944, 82.28860
539.1765, 82.30784
539.6586, 82.31918
540.1407, 82.30311
540.6229, 82.27599
541.1050, 82.28895
541.5871, 82.33761
542.0692, 82.36652
542.5513, 82.30361
543.0334, 82.21577
543.5156, 82.25591
543.9977, 82.44434
544.4798, 82.52448
544.9619, 82.19552
545.4440, 81.71061
545.9261, 81.33558
546.4083, 81.06114
546.8904, 81.01761
547.3725, 81.47343
547.8546, 82.17620
548.3367, 82.59777
548.8188, 82.32771
549.3010, 82.11815
549.7831, 82.21361
550.2652, 81.88289
550.7473, 82.79782
551.2294, 83.31702
551.7115, 83.46178
552.1937, 82.11055
552.6758, 82.69107
553.1579, 82.49744
553.6400, 82.27205
554.1221, 83.12447
554.6042, 81.99081
555.0864, 82.82613
555.5685, 82.87548
556.0506, 83.28455
556.5327, 82.91467
557.0148, 82.78538
557.4969, 83.43529
557.9791, 83.65375
558.4612, 83.19420
558.9433, 83.62613
559.4254, 82.46527
559.9075, 82.70211
560.3896, 83.54199
560.8718, 83.12161
561.3539, 83.56778
561.8360, 83.68392
562.3181, 82.30021
562.8002, 83.52489
563.2823, 83.62153
563.7645, 82.55991
564.2466, 83.69522
564.7287, 82.79327
565.2108, 82.61851
565.6929, 82.99099
566.1750, 82.79298
566.6572, 83.49442
567.1393, 83.32935
567.6214, 83.08687
568.1035, 83.18224
568.5856, 82.96604
569.0677, 83.23436
569.5499, 82.93525
570.0320, 83.23920
570.5141, 83.67985
570.9962, 83.07383
571.4783, 83.57590
571.9604, 82.35959
572.4426, 82.58111
572.9247, 82.64780
573.4068, 83.63351
573.8889, 82.42558
574.3710, 82.60715
574.8531, 83.38035
575.3353, 83.32572
575.8174, 83.61721
576.2995, 82.88405
576.7816, 83.11347
577.2637, 83.07757
577.7458, 83.95851
578.2280, 84.11565
578.7101, 83.39986
579.1922, 82.68779
579.6743, 83.63471
580.1564, 83.00922
580.6385, 83.23203
581.1207, 82.57872
581.6028, 82.68187
582.0849, 82.77303
582.5670, 83.25197
583.0491, 83.18417
583.5313, 83.38340
584.0134, 83.33018
584.4955, 83.53665
584.9776, 83.71423
585.4597, 83.83017
585.9418, 83.66370
586.4240, 84.02518
586.9061, 83.26097
587.3882, 82.92387
587.8703, 82.89041
588.3524, 82.88769
588.8345, 82.99290
589.3167, 83.41782
589.7988, 83.41210
590.2809, 83.52647
590.7630, 83.61536
591.2451, 83.71402
591.7272, 83.73741
592.2094, 83.39324
592.6915, 82.64111
593.1736, 82.22964
593.6557, 82.53770
594.1378, 83.26859
594.6199, 83.77155
595.1021, 84.05213
595.5842, 84.18906
596.0663, 84.17336
596.5484, 84.07192
597.0305, 83.90765
597.5126, 83.67612
597.9948, 83.58575
598.4769, 84.01938
598.9590, 84.49653
599.4411, 84.58111
599.9232, 83.82398
600.4053, 83.27487
600.8875, 83.27752
601.3696, 83.51031
601.8517, 83.50846
602.3338, 83.05531
602.8159, 82.81059
603.2980, 82.97414
603.7802, 83.40708
604.2623, 83.59179
604.7444, 83.50044
605.2265, 83.38319
605.7086, 83.38084
606.1907, 83.45405
606.6729, 83.47739
607.1550, 83.45029
607.6371, 83.37074
608.1192, 83.06243
608.6013, 82.77148
609.0834, 82.91507
609.5656, 83.69545
610.0477, 84.33768
610.5298, 84.27957
611.0119, 83.91242
611.4940, 83.67449
611.9761, 83.73799
612.4583, 83.85733
612.9404, 84.07877
613.4225, 84.32361
613.9046, 83.95953
614.3867, 84.52837
614.8688, 84.85932
615.3510, 84.96516
615.8331, 84.17295
616.3152, 84.53934
616.7973, 84.44079
617.2794, 84.32273
617.7615, 84.85090
618.2437, 84.18699
618.7258, 84.70400
619.2079, 84.74898
619.6900, 85.00933
620.1721, 84.80187
620.6542, 84.73830
621.1364, 85.14182
621.6185, 85.28600
622.1006, 85.02293
622.5827, 85.29430
623.0648, 84.60954
623.5469, 84.76294
624.0291, 85.27773
624.5112, 85.03590
624.9933, 85.31355
625.4754, 85.39273
625.9575, 84.57154
626.4396, 85.31495
626.9218, 85.38107
627.4039, 84.75179
627.8860, 85.44022
628.3681, 84.90584
628.8502, 84.80731
629.3323, 85.03668
629.8145, 84.92331
630.2966, 85.34914
630.7787, 85.25464
631.2608, 85.11323
631.7429, 85.17407
632.2250, 85.04749
632.7072, 85.21124
633.1893, 85.03404
633.6714, 85.21823
634.1535, 85.48399
634.6356, 85.12129
635.1177, 85.42300
635.5999, 84.69322
636.0820, 84.82569
636.5641, 84.86481
637.0462, 85.45490
637.5283, 84.72835
638.0104, 84.83504
638.4926, 85.29626
638.9747, 85.26034
639.4568, 85.43163
639.9389, 84.98768
640.4210, 85.12083
640.9031, 85.09433
641.3853, 85.61749
641.8674, 85.70590
642.3495, 85.27013
642.8316, 84.83612
643.3137, 85.39706
643.7958, 85.01409
644.2780, 85.13966
644.7601, 84.73911
645.2422, 84.79197
645.7243, 84.83720
646.2064, 85.11463
646.6885, 85.06357
647.1707, 85.17229
647.6528, 85.12907
648.1349, 85.24123
648.6170, 85.33559
649.0991, 85.39250
649.5812, 85.27953
650.0634, 85.48290
650.5455, 85.01038
651.0276, 84.79369
651.5097, 84.75871
651.9918, 84.64236
652.4739, 84.63740
652.9561, 84.67688
653.4382, 84.68547
653.9203, 84.56361
654.4024, 84.55222
654.8845, 84.54403
655.3666, 84.52727
655.8488, 84.53584
656.3309, 84.56730
656.8130, 84.63591
657.2951, 84.76192
657.7772, 85.00600
658.2593, 85.14152
658.7415, 85.14987
659.2236, 85.08000
659.7057, 84.99028
660.1878, 84.88052
660.6699, 84.67956
661.1520, 84.33214
661.6342, 84.00716
662.1163, 83.98876
662.5984, 84.18911
663.0805, 84.37440
663.5626, 84.37193
664.0447, 84.40142
664.5269, 84.72583
665.0090, 85.21683
665.4911, 85.50842
665.9732, 85.27666
666.4553, 85.03452
666.9374, 84.99882
667.4196, 85.15250
667.9017, 85.21158
668.3838, 85.16587
668.8659, 85.04725
669.3480, 84.82739
669.8301, 84.51014
670.3123, 84.37867
670.7944, 84.45444
671.2765, 84.55172
671.7586, 84.43107
672.2407, 84.22020
672.7228, 84.25066
673.2050, 84.60584
673.6871, 84.94370
674.1692, 84.93841
674.6513, 84.80184
675.1334, 84.78890
675.6155, 85.12086
676.0977, 85.34097
676.5798, 85.29931
677.0619, 85.09702
677.5440, 84.86608
678.0261, 84.52658
678.5082, 84.33984
678.9904, 84.37930
679.4725, 84.58058
679.9546, 84.80952
680.4367, 85.06413
680.9188, 85.26934
681.4009, 85.38245
681.8831, 85.43234
682.3652, 85.40429
682.8473, 85.33347
683.3294, 85.39366
683.8115, 85.94523
684.2936, 86.46730
684.7758, 86.50311
685.2579, 86.02872
685.7400, 85.66854
686.2221, 85.57296
686.7042, 85.65146
687.1863, 85.91328
687.6685, 86.47529
688.1506, 86.63982
688.6327, 86.21539
689.1148, 85.78517
