##NAMES=Tremolite
##RRUFFID=R050210
##IDEAL CHEMISTRY=[box]Ca_2_Mg_5_Si_8_O_22_(OH)_2_
##LOCALITY=Sugar Lake, Cherryville, British Columbia, Canada
##OWNER=RRUFF
##SOURCE=Lloyd Twaites
##DESCRIPTION=Green bladed crystal fragment
##STATUS=The identification of this mineral has been confirmed by X-ray diffraction and chemical analysis
##URL=rruff.info/R050210
##MEASURED CHEMISTRY=(Na_0.34_K_0.06_)(Ca_1.96_Mg_0.01_)Mg_4.94_(Si_7.50_Al_0.46_)O_22_(OH)_2_
214.8783, 8242.011
215.3604, 8289.264
215.8425, 8329.572
216.3246, 8362.192
216.8067, 8381.652
217.2889, 8404.340
217.7710, 8439.247
218.2531, 8485.544
218.7352, 8546.751
219.2173, 8624.729
219.6994, 8718.629
220.1816, 8820.795
220.6637, 8935.292
221.1458, 9053.260
221.6279, 9169.199
222.1100, 9286.876
222.5921, 9396.457
223.0743, 9505.515
223.5564, 9606.644
224.0385, 9668.868
224.5206, 9686.479
225.0027, 9673.374
225.4848, 9634.288
225.9670, 9559.636
226.4491, 9481.897
226.9312, 9393.893
227.4133, 9303.788
227.8954, 9247.520
228.3775, 9231.907
228.8597, 9241.528
229.3418, 9268.280
229.8239, 9313.344
230.3060, 9373.035
230.7881, 9451.888
231.2702, 9545.657
231.7524, 9633.312
232.2345, 9719.703
232.7166, 9791.312
233.1987, 9842.106
233.6808, 9882.438
234.1629, 9878.119
234.6451, 9820.388
235.1272, 9715.733
235.6093, 9589.685
236.0914, 9432.145
236.5735, 9267.284
237.0556, 9106.233
237.5378, 8942.000
238.0199, 8797.213
238.5020, 8674.890
238.9841, 8572.530
239.4662, 8484.748
239.9483, 8412.882
240.4305, 8354.056
240.9126, 8306.642
241.3947, 8272.439
241.8768, 8246.081
242.3589, 8227.831
242.8410, 8217.307
243.3232, 8212.854
243.8053, 8213.847
244.2874, 8221.789
244.7695, 8236.920
245.2516, 8257.810
245.7337, 8288.923
246.2159, 8332.438
246.6980, 8385.928
247.1801, 8441.926
247.6622, 8505.119
248.1443, 8564.254
248.6264, 8613.454
249.1086, 8651.388
249.5907, 8683.983
250.0728, 8715.314
250.5549, 8740.381
251.0370, 8745.476
251.5191, 8727.506
252.0013, 8694.804
252.4834, 8648.600
252.9655, 8582.748
253.4476, 8520.776
253.9297, 8461.469
254.4118, 8406.836
254.8940, 8360.153
255.3761, 8322.522
255.8582, 8290.640
256.3403, 8263.011
256.8224, 8238.569
257.3046, 8221.780
257.7867, 8214.058
258.2688, 8212.921
258.7509, 8214.000
259.2330, 8217.206
259.7151, 8222.410
260.1973, 8229.402
260.6794, 8237.674
261.1615, 8249.509
261.6436, 8266.009
262.1257, 8285.059
262.6078, 8304.252
263.0900, 8326.151
263.5721, 8342.296
264.0542, 8350.369
264.5363, 8350.813
265.0184, 8341.076
265.5005, 8318.975
265.9827, 8289.562
266.4648, 8258.018
266.9469, 8222.305
267.4290, 8191.146
267.9111, 8167.275
268.3932, 8151.043
268.8754, 8136.969
269.3575, 8124.430
269.8396, 8114.649
270.3217, 8109.737
270.8038, 8110.308
271.2859, 8112.694
271.7681, 8116.264
272.2502, 8120.843
272.7323, 8124.529
273.2144, 8126.927
273.6965, 8128.968
274.1786, 8131.703
274.6608, 8135.323
275.1429, 8138.811
275.6250, 8141.758
276.1071, 8144.341
276.5892, 8148.112
277.0714, 8153.416
277.5535, 8158.810
278.0356, 8162.282
278.5177, 8163.417
278.9998, 8166.534
279.4819, 8172.844
279.9641, 8181.679
280.4462, 8191.753
280.9283, 8204.489
281.4104, 8212.283
281.8925, 8205.272
282.3746, 8183.197
282.8568, 8168.525
283.3389, 8166.595
283.8210, 8173.364
284.3031, 8177.975
284.7852, 8180.485
285.2673, 8182.361
285.7495, 8184.394
286.2316, 8186.763
286.7137, 8190.063
287.1958, 8194.261
287.6779, 8199.804
288.1600, 8208.392
288.6422, 8220.055
289.1243, 8231.268
289.6064, 8239.030
290.0885, 8243.949
290.5706, 8248.812
291.0527, 8253.333
291.5349, 8258.607
292.0170, 8268.120
292.4991, 8281.111
292.9812, 8291.396
293.4633, 8292.455
293.9454, 8287.739
294.4276, 8288.868
294.9097, 8297.132
295.3918, 8308.279
295.8739, 8317.109
296.3560, 8324.130
296.8381, 8332.025
297.3203, 8341.321
297.8024, 8352.442
298.2845, 8367.255
298.7666, 8386.197
299.2487, 8405.637
299.7308, 8421.512
300.2130, 8435.089
300.6951, 8449.766
301.1772, 8468.845
301.6593, 8488.777
302.1414, 8504.636
302.6235, 8516.303
303.1057, 8525.885
303.5878, 8535.772
304.0699, 8544.655
304.5520, 8549.751
305.0341, 8548.089
305.5162, 8544.247
305.9984, 8543.459
306.4805, 8545.232
306.9626, 8546.045
307.4447, 8541.708
307.9268, 8535.532
308.4089, 8531.822
308.8911, 8531.877
309.3732, 8534.404
309.8553, 8539.285
310.3374, 8546.003
310.8195, 8552.919
311.3016, 8559.318
311.7838, 8565.266
312.2659, 8570.966
312.7480, 8576.635
313.2301, 8581.409
313.7122, 8583.349
314.1943, 8584.027
314.6765, 8586.753
315.1586, 8595.365
315.6407, 8604.849
316.1228, 8612.126
316.6049, 8616.467
317.0870, 8620.049
317.5692, 8623.320
318.0513, 8626.545
318.5334, 8630.069
319.0155, 8636.006
319.4976, 8640.593
319.9797, 8640.576
320.4619, 8635.111
320.9440, 8633.241
321.4261, 8640.196
321.9082, 8650.785
322.3903, 8660.075
322.8724, 8667.971
323.3546, 8673.300
323.8367, 8674.283
324.3188, 8671.122
324.8009, 8669.777
325.2830, 8674.209
325.7651, 8679.034
326.2473, 8680.810
326.7294, 8674.990
327.2115, 8671.376
327.6936, 8670.632
328.1757, 8672.979
328.6578, 8678.844
329.1400, 8694.729
329.6221, 8709.036
330.1042, 8716.671
330.5863, 8711.302
331.0684, 8709.815
331.5505, 8712.699
332.0327, 8719.202
332.5148, 8727.827
332.9969, 8738.954
333.4790, 8751.124
333.9611, 8763.843
334.4432, 8776.797
334.9254, 8790.472
335.4075, 8805.261
335.8896, 8819.806
336.3717, 8831.896
336.8538, 8839.934
337.3359, 8848.731
337.8180, 8859.132
338.3001, 8871.126
338.7823, 8886.620
339.2644, 8906.786
339.7465, 8928.230
340.2286, 8947.746
340.7107, 8965.061
341.1928, 8982.426
341.6750, 9000.347
342.1571, 9018.666
342.6392, 9035.231
343.1213, 9050.059
343.6034, 9064.342
344.0855, 9079.022
344.5677, 9094.011
345.0498, 9109.500
345.5319, 9125.561
346.0140, 9141.909
346.4961, 9159.588
346.9782, 9178.335
347.4604, 9192.896
347.9425, 9195.887
348.4246, 9191.525
348.9067, 9197.374
349.3888, 9216.310
349.8709, 9235.748
350.3531, 9238.407
350.8352, 9227.949
351.3173, 9218.044
351.7994, 9214.896
352.2815, 9215.697
352.7636, 9216.766
353.2458, 9217.998
353.7279, 9217.218
354.2100, 9209.125
354.6921, 9198.136
355.1742, 9192.607
355.6563, 9201.013
356.1385, 9209.375
356.6206, 9200.080
357.1027, 9176.884
357.5848, 9158.886
358.0669, 9160.653
358.5490, 9171.299
359.0312, 9180.709
359.5133, 9186.700
359.9954, 9192.099
360.4775, 9197.210
360.9596, 9203.109
361.4417, 9211.861
361.9239, 9225.669
362.4060, 9241.757
362.8881, 9258.156
363.3702, 9274.113
363.8523, 9293.610
364.3344, 9321.290
364.8166, 9352.043
365.2987, 9380.271
365.7808, 9399.396
366.2629, 9420.421
366.7450, 9447.874
367.2271, 9481.730
367.7093, 9512.229
368.1914, 9540.544
368.6735, 9563.581
369.1556, 9579.345
369.6377, 9581.938
370.1198, 9583.890
370.6020, 9585.268
371.0841, 9586.142
371.5662, 9587.135
372.0483, 9590.062
372.5304, 9590.700
373.0125, 9587.053
373.4947, 9577.916
373.9768, 9567.537
374.4589, 9554.689
374.9410, 9541.456
375.4231, 9531.908
375.9052, 9527.795
376.3874, 9522.771
376.8695, 9515.244
377.3516, 9505.295
377.8337, 9494.127
378.3158, 9481.363
378.7979, 9468.690
379.2801, 9456.856
379.7622, 9445.657
380.2443, 9439.816
380.7264, 9441.353
381.2085, 9447.847
381.6906, 9452.623
382.1728, 9455.515
382.6549, 9459.353
383.1370, 9464.110
383.6191, 9470.795
384.1012, 9484.453
384.5833, 9506.584
385.0655, 9532.065
385.5476, 9552.662
386.0297, 9570.333
386.5118, 9591.435
386.9939, 9619.620
387.4760, 9653.104
387.9582, 9689.220
388.4403, 9728.277
388.9224, 9771.520
389.4045, 9821.740
389.8866, 9875.993
390.3687, 9930.385
390.8509, 9980.985
391.3330, 10033.65
391.8151, 10095.14
392.2972, 10163.38
392.7793, 10230.69
393.2614, 10300.95
393.7436, 10363.66
394.2257, 10412.80
394.7078, 10446.11
395.1899, 10467.27
395.6720, 10486.30
396.1541, 10492.37
396.6363, 10468.15
397.1184, 10393.03
397.6005, 10302.06
398.0826, 10202.04
398.5647, 10091.56
399.0468, 9988.354
399.5290, 9893.250
400.0111, 9806.646
400.4932, 9728.553
400.9753, 9657.363
401.4574, 9596.806
401.9395, 9548.998
402.4217, 9512.650
402.9038, 9482.855
403.3859, 9460.231
403.8680, 9443.335
404.3501, 9432.007
404.8322, 9427.519
405.3144, 9424.248
405.7965, 9421.297
406.2786, 9420.638
406.7607, 9426.550
407.2428, 9440.277
407.7249, 9453.638
408.2071, 9463.221
408.6892, 9469.894
409.1713, 9478.467
409.6534, 9488.738
410.1355, 9502.137
410.6176, 9521.063
411.0998, 9544.718
411.5819, 9568.436
412.0640, 9591.667
412.5461, 9613.908
413.0282, 9635.152
413.5103, 9655.161
413.9925, 9673.181
414.4746, 9689.494
414.9567, 9703.466
415.4388, 9713.621
415.9209, 9719.785
416.4030, 9723.647
416.8852, 9729.066
417.3673, 9732.860
417.8494, 9729.928
418.3315, 9712.213
418.8136, 9692.385
419.2957, 9679.732
419.7779, 9673.159
420.2600, 9663.857
420.7421, 9645.650
421.2242, 9624.750
421.7063, 9606.438
422.1884, 9593.957
422.6706, 9579.378
423.1527, 9557.851
423.6348, 9533.192
424.1169, 9512.459
424.5990, 9499.427
425.0811, 9487.399
425.5633, 9473.129
426.0454, 9455.264
426.5275, 9443.432
427.0096, 9439.040
427.4917, 9439.142
427.9738, 9441.526
428.4560, 9446.869
428.9381, 9452.818
429.4202, 9459.854
429.9023, 9466.969
430.3844, 9470.294
430.8665, 9467.991
431.3487, 9467.072
431.8308, 9471.334
432.3129, 9480.986
432.7950, 9492.106
433.2771, 9505.125
433.7592, 9518.556
434.2414, 9532.096
434.7235, 9545.459
435.2056, 9554.176
435.6877, 9555.939
436.1698, 9552.989
436.6519, 9551.074
437.1341, 9549.926
437.6162, 9544.393
438.0983, 9528.955
438.5804, 9507.004
439.0625, 9483.767
439.5446, 9459.552
440.0268, 9436.087
440.5089, 9413.786
440.9910, 9393.285
441.4731, 9376.237
441.9552, 9363.770
442.4373, 9354.334
442.9195, 9347.465
443.4016, 9342.975
443.8837, 9338.726
444.3658, 9333.126
444.8479, 9327.558
445.3300, 9323.059
445.8122, 9317.490
446.2943, 9315.740
446.7764, 9321.573
447.2585, 9331.818
447.7406, 9338.450
448.2227, 9338.670
448.7049, 9337.452
449.1870, 9335.970
449.6691, 9334.206
450.1512, 9332.793
450.6333, 9331.513
451.1154, 9331.079
451.5976, 9333.105
452.0797, 9339.753
452.5618, 9341.766
453.0439, 9336.062
453.5260, 9325.916
454.0081, 9321.246
454.4903, 9322.714
454.9724, 9325.651
455.4545, 9326.827
455.9366, 9326.810
456.4187, 9330.482
456.9008, 9338.316
457.3830, 9347.410
457.8651, 9353.854
458.3472, 9358.455
458.8293, 9364.021
459.3114, 9373.260
459.7935, 9381.823
460.2757, 9382.123
460.7578, 9375.823
461.2399, 9371.779
461.7220, 9378.419
462.2041, 9388.268
462.6862, 9393.955
463.1684, 9393.709
463.6505, 9392.919
464.1326, 9395.358
464.6147, 9398.756
465.0968, 9400.174
465.5789, 9396.299
466.0611, 9393.090
466.5432, 9392.655
467.0253, 9394.923
467.5074, 9397.494
467.9895, 9401.542
468.4716, 9404.813
468.9538, 9405.735
469.4359, 9400.986
469.9180, 9401.306
470.4001, 9409.372
470.8822, 9420.471
471.3643, 9427.454
471.8465, 9428.998
472.3286, 9429.597
472.8107, 9429.105
473.2928, 9428.371
473.7749, 9434.001
474.2570, 9447.065
474.7392, 9460.408
475.2213, 9469.119
475.7034, 9473.502
476.1855, 9474.896
476.6676, 9472.738
477.1497, 9470.308
477.6319, 9472.569
478.1140, 9478.439
478.5961, 9484.228
479.0782, 9488.897
479.5603, 9492.385
480.0424, 9493.364
480.5246, 9492.317
481.0067, 9493.108
481.4888, 9499.710
481.9709, 9508.259
482.4530, 9515.225
482.9352, 9519.280
483.4173, 9523.127
483.8994, 9527.170
484.3815, 9531.701
484.8636, 9537.172
485.3457, 9544.938
485.8279, 9552.234
486.3100, 9558.890
486.7921, 9564.902
487.2742, 9568.443
487.7563, 9568.264
488.2384, 9567.228
488.7206, 9566.721
489.2027, 9566.304
489.6848, 9568.400
490.1669, 9574.395
490.6490, 9581.670
491.1311, 9585.778
491.6133, 9586.187
492.0954, 9586.817
492.5775, 9588.318
493.0596, 9591.012
493.5417, 9597.364
494.0238, 9607.313
494.5060, 9616.166
494.9881, 9619.197
495.4702, 9618.270
495.9523, 9617.970
496.4344, 9618.574
496.9165, 9620.599
497.3987, 9625.917
497.8808, 9632.901
498.3629, 9638.426
498.8450, 9640.919
499.3271, 9641.886
499.8092, 9641.413
500.2914, 9639.999
500.7735, 9639.940
501.2556, 9643.545
501.7377, 9647.982
502.2198, 9652.122
502.7019, 9657.163
503.1841, 9658.940
503.6662, 9651.738
504.1483, 9643.370
504.6304, 9643.172
505.1125, 9657.012
505.5946, 9669.472
506.0768, 9677.699
506.5589, 9682.623
507.0410, 9689.156
507.5231, 9697.343
508.0052, 9706.651
508.4873, 9716.460
508.9695, 9726.568
509.4516, 9740.177
509.9337, 9757.868
510.4158, 9776.281
510.8979, 9791.554
511.3800, 9804.221
511.8622, 9816.272
512.3443, 9828.549
512.8264, 9840.021
513.3085, 9847.928
513.7906, 9853.629
514.2728, 9861.929
514.7549, 9880.663
515.2370, 9899.973
515.7191, 9909.979
516.2012, 9909.579
516.6833, 9910.068
517.1655, 9916.985
517.6476, 9927.144
518.1297, 9937.854
518.6118, 9950.106
519.0939, 9961.093
519.5760, 9970.677
520.0582, 9978.635
520.5403, 9984.504
521.0224, 9983.840
521.5045, 9987.136
521.9866, 9997.927
522.4688, 10016.20
522.9509, 10034.37
523.4330, 10052.82
523.9151, 10070.17
524.3972, 10084.40
524.8793, 10095.24
525.3615, 10108.83
525.8436, 10126.12
526.3257, 10145.18
526.8078, 10164.42
527.2899, 10183.25
527.7720, 10198.64
528.2542, 10208.68
528.7363, 10214.92
529.2184, 10219.75
529.7005, 10222.84
530.1826, 10222.60
530.6647, 10219.63
531.1469, 10212.04
531.6290, 10197.22
532.1111, 10173.81
532.5932, 10149.08
533.0753, 10126.77
533.5574, 10104.38
534.0396, 10079.69
534.5217, 10047.92
535.0038, 10018.96
535.4859, 9993.663
535.9680, 9972.061
536.4501, 9954.230
536.9323, 9941.980
537.4144, 9930.453
537.8965, 9917.531
538.3786, 9903.109
538.8607, 9891.631
539.3428, 9883.314
539.8250, 9877.156
540.3071, 9871.921
540.7892, 9867.790
541.2713, 9867.362
541.7534, 9871.988
542.2355, 9877.626
542.7177, 9878.886
543.1998, 9876.497
543.6819, 9872.754
544.1640, 9868.085
544.6461, 9863.088
545.1282, 9856.926
545.6104, 9850.303
546.0925, 9847.173
546.5746, 9853.121
547.0567, 9860.850
547.5388, 9865.027
548.0209, 9863.322
548.5031, 9863.566
548.9852, 9868.053
549.4673, 9874.934
549.9494, 9882.379
550.4315, 9892.340
550.9136, 9899.572
551.3958, 9903.165
551.8779, 9903.641
552.3600, 9901.897
552.8421, 9896.688
553.3242, 9893.476
553.8063, 9896.157
554.2885, 9903.454
554.7706, 9904.128
555.2527, 9897.654
555.7348, 9890.459
556.2169, 9888.317
556.6990, 9889.884
557.1812, 9891.667
557.6633, 9893.233
558.1454, 9894.872
558.6275, 9897.986
559.1096, 9901.280
559.5917, 9902.465
560.0739, 9897.682
560.5560, 9893.406
561.0381, 9892.996
561.5202, 9895.886
562.0023, 9899.446
562.4844, 9904.948
562.9666, 9909.178
563.4487, 9909.571
563.9308, 9904.473
564.4129, 9903.622
564.8950, 9909.162
565.3771, 9916.432
565.8593, 9922.044
566.3414, 9926.162
566.8235, 9927.238
567.3056, 9924.207
567.7877, 9919.424
568.2698, 9917.433
568.7520, 9918.089
569.2341, 9918.552
569.7162, 9917.114
570.1983, 9915.456
570.6804, 9917.921
571.1625, 9923.864
571.6447, 9928.122
572.1268, 9924.426
572.6089, 9919.276
573.0910, 9919.494
573.5731, 9926.479
574.0552, 9934.255
574.5374, 9939.760
575.0195, 9944.965
575.5016, 9951.694
575.9837, 9962.724
576.4658, 9971.887
576.9479, 9977.545
577.4301, 9980.931
577.9122, 9984.304
578.3943, 9986.257
578.8764, 9990.429
579.3585, 9998.113
579.8406, 10008.72
580.3228, 10019.97
580.8049, 10032.50
581.2870, 10041.29
581.7691, 10040.36
582.2512, 10032.63
582.7333, 10030.94
583.2155, 10036.89
583.6976, 10042.08
584.1797, 10035.73
584.6617, 10024.20
585.1439, 10017.95
585.6260, 10021.00
586.1081, 10028.21
586.5902, 10041.29
587.0723, 10055.88
587.5544, 10063.34
588.0366, 10053.32
588.5187, 10043.77
589.0008, 10039.93
589.4829, 10041.70
589.9650, 10045.47
590.4471, 10052.58
590.9293, 10059.39
591.4114, 10063.71
591.8935, 10064.88
592.3756, 10067.78
592.8577, 10073.12
593.3398, 10078.11
593.8220, 10079.57
594.3041, 10077.92
594.7862, 10076.18
595.2683, 10074.86
595.7504, 10074.09
596.2325, 10074.75
596.7147, 10076.26
597.1968, 10076.90
597.6789, 10074.75
598.1610, 10072.68
598.6431, 10072.71
599.1252, 10074.66
599.6074, 10077.47
600.0895, 10083.85
600.5716, 10088.36
601.0537, 10087.31
601.5358, 10078.64
602.0179, 10073.08
602.5001, 10071.62
602.9822, 10072.39
603.4643, 10074.33
603.9464, 10077.97
604.4285, 10080.71
604.9106, 10082.10
605.3928, 10083.19
605.8749, 10085.07
606.3570, 10087.86
606.8391, 10093.05
607.3212, 10101.94
607.8033, 10112.26
608.2855, 10121.39
608.7676, 10129.10
609.2497, 10135.07
609.7318, 10138.91
610.2139, 10140.83
610.6960, 10139.60
611.1782, 10135.33
611.6603, 10133.40
612.1424, 10137.90
612.6245, 10143.73
613.1066, 10147.70
613.5887, 10148.59
614.0709, 10150.46
614.5530, 10154.93
615.0351, 10159.26
615.5172, 10159.66
615.9993, 10154.44
616.4814, 10153.80
616.9636, 10160.19
617.4457, 10170.32
617.9278, 10178.51
618.4099, 10184.77
618.8920, 10189.59
619.3741, 10192.03
619.8563, 10193.80
620.3384, 10198.15
620.8205, 10204.33
621.3026, 10209.00
621.7847, 10209.15
622.2668, 10207.73
622.7490, 10206.97
623.2311, 10207.18
623.7132, 10206.95
624.1953, 10203.93
624.6774, 10201.99
625.1595, 10204.44
625.6417, 10217.66
626.1238, 10222.79
626.6059, 10216.05
627.0880, 10205.74
627.5701, 10202.73
628.0522, 10207.61
628.5344, 10215.39
629.0165, 10225.98
629.4986, 10237.48
629.9807, 10246.09
630.4628, 10252.14
630.9449, 10257.46
631.4271, 10260.50
631.9092, 10264.67
632.3913, 10275.01
632.8734, 10290.46
633.3555, 10304.65
633.8376, 10312.58
634.3198, 10319.56
634.8019, 10329.25
635.2840, 10342.90
635.7661, 10354.48
636.2482, 10362.74
636.7303, 10369.46
637.2125, 10375.51
637.6946, 10380.03
638.1767, 10387.61
638.6588, 10400.38
639.1409, 10413.17
639.6230, 10416.05
640.1052, 10410.01
640.5873, 10409.53
641.0694, 10419.79
641.5515, 10434.92
642.0336, 10446.54
642.5157, 10455.58
642.9979, 10465.00
643.4800, 10473.96
643.9621, 10485.51
644.4442, 10504.49
644.9263, 10529.12
645.4084, 10548.89
645.8906, 10554.34
646.3727, 10559.34
646.8548, 10570.85
647.3369, 10589.77
647.8190, 10608.14
648.3011, 10625.39
648.7833, 10642.73
649.2654, 10661.57
649.7475, 10682.55
650.2296, 10698.30
650.7117, 10706.86
651.1938, 10716.25
651.6760, 10738.87
652.1581, 10770.67
652.6402, 10797.82
653.1223, 10814.28
653.6044, 10830.05
654.0865, 10854.22
654.5687, 10884.50
655.0508, 10916.51
655.5329, 10951.28
656.0150, 10985.18
656.4971, 11013.46
656.9792, 11038.60
657.4614, 11073.38
657.9435, 11118.61
658.4256, 11172.69
658.9077, 11236.83
659.3898, 11310.57
659.8719, 11382.72
660.3541, 11452.19
660.8362, 11524.69
661.3183, 11604.42
661.8004, 11690.58
662.2825, 11784.86
662.7646, 11887.56
663.2468, 11994.81
663.7289, 12104.31
664.2110, 12215.94
664.6931, 12328.22
665.1752, 12437.78
665.6573, 12557.35
666.1395, 12693.06
666.6216, 12842.83
667.1037, 13004.05
667.5858, 13179.92
668.0679, 13363.97
668.5500, 13552.78
669.0322, 13750.05
669.5143, 13960.44
669.9964, 14187.03
670.4785, 14416.72
670.9606, 14647.03
671.4427, 14877.48
671.9249, 15107.11
672.4070, 15335.11
672.8891, 15548.08
673.3712, 15752.04
673.8533, 15926.69
674.3354, 16053.58
674.8176, 16131.03
675.2997, 16142.04
675.7818, 16073.91
676.2639, 15939.78
676.7460, 15739.41
677.2281, 15464.52
677.7103, 15166.11
678.1924, 14830.83
678.6745, 14489.72
679.1566, 14158.05
679.6387, 13830.67
680.1208, 13532.97
680.6030, 13263.53
681.0851, 13022.42
681.5672, 12801.77
682.0493, 12603.54
682.5314, 12427.75
683.0135, 12277.76
683.4957, 12146.65
683.9778, 12033.70
684.4599, 11934.57
684.9420, 11845.35
685.4241, 11764.45
685.9063, 11690.85
686.3884, 11623.01
686.8705, 11561.79
687.3526, 11509.40
687.8347, 11468.70
688.3168, 11431.64
688.7990, 11396.73
689.2811, 11363.83
689.7632, 11335.83
690.2453, 11313.74
690.7274, 11290.74
691.2095, 11261.71
691.6917, 11229.09
692.1738, 11199.98
692.6559, 11174.56
693.1380, 11148.78
693.6201, 11118.38
694.1022, 11086.93
694.5844, 11056.92
695.0665, 11028.50
695.5486, 11003.08
696.0307, 10981.56
696.5128, 10962.88
696.9949, 10946.10
697.4771, 10932.13
697.9592, 10918.24
698.4413, 10905.11
698.9234, 10891.63
699.4055, 10876.11
699.8876, 10858.64
700.3698, 10842.20
700.8519, 10827.74
701.3340, 10814.50
701.8161, 10801.29
702.2982, 10788.69
702.7803, 10778.03
703.2625, 10770.96
703.7446, 10764.71
704.2267, 10755.85
704.7088, 10746.51
705.1909, 10741.48
705.6730, 10745.48
706.1552, 10749.90
706.6373, 10753.24
707.1194, 10755.15
707.6015, 10753.82
708.0836, 10747.46
708.5657, 10742.63
709.0479, 10742.90
709.5300, 10746.52
710.0121, 10745.90
