##NAMES=Tremolite
##RRUFFID=R040109
##IDEAL CHEMISTRY=[box]Ca_2_Mg_5_Si_8_O_22_(OH)_2_
##LOCALITY=Cassiar, British Columbia, Canada
##OWNER=RRUFF
##SOURCE=University of Arizona Mineral Museum
##DESCRIPTION=Green fine-grained massive
##STATUS=The identification of this mineral has been confirmed by X-ray diffraction and chemical analysis
##URL=rruff.info/R040109
##MEASURED CHEMISTRY=[box]Ca_1.99_(Mg_0.90_Fe_0.08_Al_0.01_)_5_Si_8.01_O_22_(OH)_2_
154.5755, 27282.30
155.0576, 27366.03
155.5397, 27441.47
156.0219, 27567.68
156.5040, 27768.81
156.9861, 28018.16
157.4682, 28293.71
157.9503, 28596.99
158.4324, 28906.67
158.9146, 29216.97
159.3967, 29521.06
159.8788, 29796.75
160.3609, 30009.21
160.8430, 30200.17
161.3251, 30426.46
161.8073, 30691.47
162.2894, 30980.24
162.7715, 31293.39
163.2536, 31621.05
163.7357, 31953.69
164.2178, 32296.78
164.7000, 32638.53
165.1821, 32951.06
165.6642, 33225.77
166.1463, 33493.22
166.6284, 33783.71
167.1105, 34079.74
167.5927, 34348.93
168.0748, 34562.93
168.5569, 34747.65
169.0390, 34962.86
169.5211, 35222.36
170.0032, 35483.82
170.4854, 35733.16
170.9675, 35969.17
171.4496, 36186.57
171.9317, 36372.38
172.4138, 36542.38
172.8959, 36737.00
173.3781, 36964.52
173.8602, 37201.91
174.3423, 37427.79
174.8244, 37658.97
175.3065, 37921.87
175.7886, 38246.86
176.2708, 38602.68
176.7529, 38915.07
177.2350, 39202.93
177.7171, 39402.46
178.1992, 39491.71
178.6813, 39493.39
179.1635, 39429.10
179.6456, 39294.15
180.1277, 39113.23
180.6098, 38957.61
181.0919, 38836.76
181.5740, 38726.71
182.0562, 38600.60
182.5383, 38483.43
183.0204, 38408.28
183.5025, 38393.41
183.9846, 38426.82
184.4667, 38477.53
184.9489, 38555.46
185.4310, 38633.69
185.9131, 38702.75
186.3952, 38768.38
186.8773, 38836.68
187.3594, 38910.02
187.8416, 38988.88
188.3237, 39077.69
188.8058, 39183.82
189.2879, 39286.27
189.7700, 39383.88
190.2521, 39474.14
190.7343, 39552.78
191.2164, 39616.23
191.6985, 39672.97
192.1806, 39744.51
192.6627, 39842.13
193.1448, 39935.42
193.6270, 40009.43
194.1091, 40082.03
194.5912, 40176.85
195.0733, 40303.80
195.5554, 40440.39
196.0375, 40532.55
196.5197, 40543.62
197.0018, 40580.09
197.4839, 40657.32
197.9660, 40760.08
198.4481, 40881.31
198.9302, 41018.03
199.4124, 41158.32
199.8945, 41280.34
200.3766, 41380.14
200.8587, 41467.68
201.3408, 41554.11
201.8229, 41625.75
202.3051, 41662.02
202.7872, 41660.30
203.2693, 41647.65
203.7514, 41667.92
204.2335, 41732.94
204.7156, 41806.32
205.1978, 41901.15
205.6799, 41992.41
206.1620, 42049.43
206.6441, 42072.34
207.1262, 42101.50
207.6083, 42204.07
208.0905, 42430.89
208.5726, 42598.24
209.0547, 42669.52
209.5368, 42716.93
210.0189, 42771.63
210.5010, 42842.09
210.9832, 42928.64
211.4653, 43036.34
211.9474, 43175.33
212.4295, 43295.52
212.9116, 43359.23
213.3937, 43436.58
213.8759, 43575.97
214.3580, 43767.71
214.8401, 43959.24
215.3222, 44087.98
215.8043, 44133.08
216.2864, 44254.36
216.7686, 44517.13
217.2507, 44794.88
217.7328, 45037.97
218.2149, 45254.30
218.6970, 45482.51
219.1791, 45758.34
219.6613, 46083.55
220.1434, 46391.84
220.6255, 46705.71
221.1076, 46978.53
221.5897, 47212.63
222.0718, 47394.64
222.5540, 47500.93
223.0361, 47510.90
223.5182, 47429.84
224.0003, 47314.42
224.4824, 47141.41
224.9645, 46954.83
225.4467, 46752.32
225.9288, 46543.91
226.4109, 46336.91
226.8930, 46132.80
227.3751, 45941.56
227.8572, 45806.81
228.3393, 45760.21
228.8215, 45733.00
229.3036, 45727.05
229.7857, 45727.78
230.2678, 45715.45
230.7499, 45680.40
231.2320, 45638.05
231.7142, 45631.74
232.1963, 45707.30
232.6784, 45738.00
233.1605, 45696.22
233.6426, 45616.65
234.1247, 45532.86
234.6069, 45455.34
235.0890, 45362.59
235.5711, 45201.32
236.0532, 44900.11
236.5353, 44703.38
237.0174, 44675.55
237.4996, 44712.00
237.9817, 44758.79
238.4638, 44799.57
238.9459, 44830.39
239.4280, 44840.57
239.9101, 44818.56
240.3923, 44819.32
240.8744, 44866.28
241.3565, 44918.74
241.8386, 44966.44
242.3207, 45003.91
242.8028, 45020.80
243.2850, 44988.19
243.7671, 44895.75
244.2492, 44880.67
244.7313, 45041.49
245.2134, 45189.98
245.6955, 45246.05
246.1777, 45230.52
246.6598, 45208.15
247.1419, 45226.06
247.6240, 45279.21
248.1061, 45320.14
248.5882, 45337.11
249.0704, 45357.48
249.5525, 45399.63
250.0346, 45449.95
250.5167, 45486.11
250.9988, 45495.21
251.4809, 45483.72
251.9631, 45469.70
252.4452, 45453.00
252.9273, 45433.66
253.4094, 45422.00
253.8915, 45404.22
254.3736, 45355.32
254.8558, 45258.07
255.3379, 45158.32
255.8200, 45138.39
256.3021, 45221.21
256.7842, 45297.29
257.2664, 45326.89
257.7485, 45342.70
258.2306, 45369.31
258.7127, 45412.16
259.1948, 45455.32
259.6769, 45479.22
260.1591, 45482.77
260.6412, 45492.99
261.1233, 45517.53
261.6054, 45548.76
262.0875, 45584.47
262.5696, 45623.59
263.0518, 45657.82
263.5339, 45675.83
264.0160, 45681.71
264.4981, 45705.70
264.9802, 45777.23
265.4623, 45824.42
265.9445, 45774.50
266.4266, 45654.99
266.9087, 45557.77
267.3908, 45534.46
267.8729, 45561.13
268.3550, 45594.23
268.8372, 45638.80
269.3193, 45669.88
269.8014, 45646.32
270.2835, 45599.05
270.7656, 45583.64
271.2477, 45637.56
271.7299, 45710.23
272.2120, 45736.79
272.6941, 45715.56
273.1762, 45711.35
273.6583, 45778.17
274.1404, 45871.48
274.6226, 45903.79
275.1047, 45843.30
275.5868, 45772.25
276.0689, 45736.96
276.5510, 45734.96
277.0331, 45760.59
277.5153, 45822.54
277.9974, 45897.25
278.4795, 45941.79
278.9616, 45948.93
279.4437, 45965.75
279.9258, 46025.41
280.4080, 46102.06
280.8901, 46141.43
281.3722, 46125.96
281.8543, 46108.43
282.3364, 46160.96
282.8185, 46290.55
283.3007, 46396.71
283.7828, 46463.16
284.2649, 46504.64
284.7470, 46521.71
285.2291, 46518.65
285.7112, 46530.09
286.1934, 46590.66
286.6755, 46698.80
287.1576, 46772.13
287.6397, 46790.84
288.1218, 46797.63
288.6039, 46810.44
289.0861, 46827.95
289.5682, 46843.57
290.0503, 46853.57
290.5324, 46859.07
291.0145, 46864.41
291.4966, 46872.46
291.9788, 46876.91
292.4609, 46866.81
292.9430, 46856.13
293.4251, 46865.78
293.9072, 46902.71
294.3893, 46951.61
294.8715, 46985.62
295.3536, 47001.04
295.8357, 47006.41
296.3178, 46988.74
296.7999, 46971.11
297.2820, 46965.48
297.7642, 46975.55
298.2463, 47004.35
298.7284, 47058.57
299.2105, 47144.27
299.6926, 47213.88
300.1747, 47258.35
300.6569, 47296.29
301.1390, 47326.39
301.6211, 47355.14
302.1032, 47397.41
302.5853, 47467.75
303.0674, 47554.43
303.5496, 47594.73
304.0317, 47551.17
304.5138, 47514.36
304.9959, 47510.82
305.4780, 47519.58
305.9601, 47515.43
306.4423, 47488.58
306.9244, 47455.30
307.4065, 47440.63
307.8886, 47445.46
308.3707, 47466.00
308.8528, 47520.46
309.3350, 47577.67
309.8171, 47623.70
310.2992, 47655.65
310.7813, 47669.44
311.2634, 47650.98
311.7455, 47604.43
312.2277, 47578.54
312.7098, 47591.40
313.1919, 47604.18
313.6740, 47593.71
314.1561, 47564.59
314.6382, 47527.54
315.1204, 47467.25
315.6025, 47410.76
316.0846, 47418.25
316.5667, 47501.82
317.0488, 47577.88
317.5309, 47589.54
318.0131, 47568.46
318.4952, 47567.08
318.9773, 47596.43
319.4594, 47637.43
319.9415, 47680.08
320.4236, 47723.46
320.9058, 47766.73
321.3879, 47814.50
321.8700, 47853.70
322.3521, 47852.02
322.8342, 47798.38
323.3163, 47776.60
323.7985, 47836.77
324.2806, 47930.73
324.7627, 47989.51
325.2448, 48001.98
325.7269, 48018.20
326.2090, 48096.87
326.6912, 48246.60
327.1733, 48326.86
327.6554, 48278.41
328.1375, 48218.11
328.6196, 48200.25
329.1017, 48224.67
329.5839, 48282.84
330.0660, 48374.55
330.5481, 48488.29
331.0302, 48568.80
331.5123, 48613.58
331.9944, 48628.03
332.4766, 48576.08
332.9587, 48510.69
333.4408, 48494.50
333.9229, 48544.49
334.4050, 48622.26
334.8871, 48672.02
335.3693, 48686.26
335.8514, 48690.75
336.3335, 48670.40
336.8156, 48654.72
337.2977, 48661.65
337.7798, 48687.77
338.2620, 48717.83
338.7441, 48739.91
339.2262, 48755.12
339.7083, 48772.54
340.1904, 48786.77
340.6725, 48812.05
341.1547, 48862.60
341.6368, 48921.66
342.1189, 48966.68
342.6010, 48987.92
343.0831, 48999.31
343.5652, 49020.37
344.0474, 49051.87
344.5295, 49088.69
345.0116, 49138.27
345.4937, 49185.86
345.9758, 49216.00
346.4579, 49228.70
346.9401, 49245.77
347.4222, 49282.43
347.9043, 49333.86
348.3864, 49388.37
348.8685, 49446.24
349.3506, 49503.19
349.8328, 49559.13
350.3149, 49611.90
350.7970, 49653.21
351.2791, 49683.89
351.7612, 49700.91
352.2433, 49689.53
352.7254, 49657.25
353.2076, 49648.34
353.6897, 49694.48
354.1718, 49764.32
354.6539, 49767.94
355.1360, 49670.49
355.6181, 49595.41
356.1003, 49576.63
356.5824, 49591.55
357.0645, 49623.67
357.5466, 49667.05
358.0287, 49701.44
358.5108, 49698.27
358.9930, 49641.74
359.4751, 49639.84
359.9572, 49728.79
360.4393, 49827.50
360.9214, 49903.34
361.4035, 49960.30
361.8857, 50015.53
362.3678, 50080.30
362.8499, 50147.78
363.3320, 50188.05
363.8141, 50143.39
364.2962, 50168.45
364.7784, 50340.41
365.2605, 50544.32
365.7426, 50675.30
366.2247, 50714.73
366.7068, 50735.21
367.1889, 50831.43
367.6711, 51012.09
368.1532, 51131.37
368.6353, 51138.26
369.1174, 51135.85
369.5995, 51195.36
370.0816, 51287.50
370.5638, 51340.26
371.0459, 51312.32
371.5280, 51232.19
372.0101, 51139.58
372.4922, 51032.73
372.9743, 50932.68
373.4565, 50855.17
373.9386, 50785.83
374.4207, 50699.18
374.9028, 50586.44
375.3849, 50485.64
375.8670, 50421.86
376.3492, 50383.72
376.8313, 50347.96
377.3134, 50309.09
377.7955, 50278.59
378.2776, 50269.15
378.7597, 50283.38
379.2419, 50302.23
379.7240, 50342.58
380.2061, 50372.10
380.6882, 50351.84
381.1703, 50302.73
381.6524, 50286.78
382.1346, 50340.49
382.6167, 50439.41
383.0988, 50510.61
383.5809, 50541.18
384.0630, 50556.80
384.5451, 50532.57
385.0273, 50510.38
385.5094, 50519.53
385.9915, 50567.15
386.4736, 50649.93
386.9557, 50771.61
387.4378, 50934.52
387.9200, 51082.57
388.4021, 51210.07
388.8842, 51329.03
389.3663, 51425.75
389.8484, 51520.73
390.3305, 51650.04
390.8127, 51838.98
391.2948, 52043.16
391.7769, 52201.32
392.2590, 52312.98
392.7411, 52376.50
393.2232, 52379.61
393.7054, 52340.11
394.1875, 52279.30
394.6696, 52197.25
395.1517, 52087.61
395.6338, 51922.84
396.1159, 51736.98
396.5981, 51590.00
397.0802, 51489.10
397.5623, 51395.85
398.0444, 51284.57
398.5265, 51158.76
399.0086, 51037.81
399.4908, 50917.57
399.9729, 50807.82
400.4550, 50702.35
400.9371, 50612.39
401.4192, 50561.30
401.9013, 50556.73
402.3835, 50575.29
402.8656, 50581.48
403.3477, 50564.63
403.8298, 50569.16
404.3119, 50633.27
404.7940, 50680.54
405.2762, 50650.89
405.7583, 50570.70
406.2404, 50508.08
406.7225, 50505.88
407.2046, 50553.33
407.6867, 50619.86
408.1689, 50735.88
408.6510, 50806.63
409.1331, 50768.56
409.6152, 50712.00
410.0973, 50709.87
410.5794, 50772.23
411.0616, 50854.19
411.5437, 50916.56
412.0258, 50965.09
412.5079, 51031.70
412.9900, 51128.22
413.4721, 51218.69
413.9543, 51277.88
414.4364, 51313.11
414.9185, 51334.36
415.4006, 51350.98
415.8827, 51345.16
416.3648, 51281.10
416.8470, 51181.14
417.3291, 51121.65
417.8112, 51135.12
418.2933, 51174.53
418.7754, 51167.87
419.2575, 51095.97
419.7397, 51042.05
420.2218, 51034.47
420.7039, 51024.85
421.1860, 50975.82
421.6681, 50894.32
422.1502, 50807.70
422.6324, 50731.12
423.1145, 50667.67
423.5966, 50631.73
424.0787, 50643.88
424.5608, 50652.46
425.0429, 50657.73
425.5251, 50653.94
426.0072, 50626.86
426.4893, 50579.46
426.9714, 50541.80
427.4535, 50549.74
427.9356, 50598.70
428.4178, 50633.51
428.8999, 50651.50
429.3820, 50660.08
429.8641, 50646.59
430.3462, 50630.69
430.8283, 50647.15
431.3105, 50718.35
431.7926, 50792.58
432.2747, 50827.76
432.7568, 50830.53
433.2389, 50819.79
433.7210, 50795.44
434.2032, 50775.40
434.6853, 50779.84
435.1674, 50810.17
435.6495, 50858.35
436.1316, 50958.84
436.6137, 51045.66
437.0959, 51074.61
437.5780, 51056.55
438.0601, 51020.75
438.5422, 50980.75
439.0243, 50941.25
439.5064, 50915.31
439.9886, 50915.53
440.4707, 50907.01
440.9528, 50883.38
441.4349, 50856.46
441.9170, 50829.64
442.3991, 50805.92
442.8813, 50791.80
443.3634, 50796.79
443.8455, 50813.55
444.3276, 50808.46
444.8097, 50766.95
445.2918, 50744.72
445.7740, 50805.50
446.2561, 50873.65
446.7382, 50858.90
447.2203, 50738.24
447.7024, 50631.09
448.1845, 50620.04
448.6667, 50672.42
449.1488, 50725.09
449.6309, 50770.44
450.1130, 50811.20
450.5951, 50855.92
451.0772, 50899.49
451.5594, 50902.25
452.0415, 50800.73
452.5236, 50735.17
453.0057, 50791.05
453.4878, 50896.44
453.9699, 50945.49
454.4521, 50909.56
454.9342, 50843.74
455.4163, 50820.92
455.8984, 50852.37
456.3805, 50863.12
456.8626, 50834.87
457.3448, 50803.63
457.8269, 50773.13
458.3090, 50748.46
458.7911, 50737.46
459.2732, 50744.64
459.7553, 50760.75
460.2375, 50771.86
460.7196, 50777.76
461.2017, 50788.38
461.6838, 50798.98
462.1659, 50824.51
462.6480, 50893.23
463.1302, 50994.19
463.6123, 51067.78
464.0944, 51087.54
464.5765, 51081.63
465.0586, 51063.63
465.5407, 51039.14
466.0229, 51027.10
466.5050, 51035.98
466.9871, 51060.63
467.4692, 51091.63
467.9513, 51133.71
468.4334, 51172.41
468.9156, 51224.62
469.3977, 51259.09
469.8798, 51246.05
470.3619, 51197.04
470.8440, 51143.87
471.3261, 51103.94
471.8083, 51080.15
472.2904, 51086.23
472.7725, 51139.43
473.2546, 51175.33
473.7367, 51166.88
474.2188, 51145.81
474.7010, 51125.13
475.1831, 51108.13
475.6652, 51105.27
476.1473, 51133.04
476.6294, 51174.55
477.1115, 51206.39
477.5937, 51227.96
478.0758, 51222.65
478.5579, 51165.10
479.0400, 51089.36
479.5221, 51085.17
480.0042, 51183.45
480.4864, 51263.33
480.9685, 51290.94
481.4506, 51297.75
481.9327, 51307.62
482.4148, 51324.71
482.8969, 51349.77
483.3791, 51386.72
483.8612, 51428.54
484.3433, 51433.92
484.8254, 51368.55
485.3075, 51322.93
485.7896, 51318.61
486.2718, 51330.34
486.7539, 51341.26
487.2360, 51348.18
487.7181, 51352.71
488.2002, 51348.50
488.6823, 51343.21
489.1645, 51366.85
489.6466, 51426.11
490.1287, 51475.69
490.6108, 51486.50
491.0929, 51476.05
491.5750, 51483.48
492.0572, 51517.53
492.5393, 51544.03
493.0214, 51557.92
493.5035, 51554.50
493.9856, 51510.48
494.4677, 51433.84
494.9499, 51383.33
495.4320, 51409.27
495.9141, 51496.09
496.3962, 51543.88
496.8783, 51540.09
497.3604, 51510.85
497.8426, 51425.13
498.3247, 51339.27
498.8068, 51306.39
499.2889, 51327.63
499.7710, 51357.54
500.2531, 51344.59
500.7353, 51310.85
501.2174, 51355.01
501.6995, 51500.71
502.1816, 51624.18
502.6637, 51662.39
503.1458, 51651.64
503.6280, 51650.63
504.1101, 51662.27
504.5922, 51675.43
505.0743, 51687.68
505.5564, 51698.26
506.0385, 51698.69
506.5207, 51692.67
507.0028, 51706.37
507.4849, 51761.12
507.9670, 51844.31
508.4491, 51899.12
508.9312, 51880.98
509.4134, 51900.86
509.8955, 52008.58
510.3776, 52120.73
510.8597, 52177.94
511.3418, 52178.35
511.8239, 52150.00
512.3061, 52096.15
512.7882, 52038.73
513.2703, 52054.23
513.7524, 52160.21
514.2346, 52230.24
514.7167, 52203.26
515.1988, 52132.66
515.6809, 52081.45
516.1630, 52048.37
516.6451, 52045.67
517.1273, 52117.01
517.6094, 52190.81
518.0915, 52185.16
518.5736, 52116.36
519.0557, 52065.98
519.5378, 52079.09
520.0200, 52128.83
520.5021, 52150.74
520.9842, 52126.27
521.4663, 52108.89
521.9484, 52106.03
522.4305, 52102.56
522.9127, 52081.93
523.3948, 52053.97
523.8769, 52045.58
524.3590, 52075.36
524.8411, 52121.49
525.3232, 52143.20
525.8054, 52140.78
526.2875, 52160.98
526.7696, 52225.99
527.2517, 52298.97
527.7338, 52339.21
528.2159, 52350.60
528.6981, 52359.24
529.1802, 52376.43
529.6623, 52384.23
530.1444, 52365.31
530.6265, 52330.62
531.1086, 52298.19
531.5908, 52274.53
532.0729, 52264.73
532.5550, 52284.36
533.0371, 52348.35
533.5192, 52347.32
534.0013, 52191.77
534.4835, 52073.52
534.9656, 52087.71
535.4477, 52158.88
535.9298, 52177.79
536.4119, 52109.02
536.8940, 52026.71
537.3762, 52000.91
537.8583, 52017.13
538.3404, 52028.98
538.8225, 52030.33
539.3046, 52033.06
539.7867, 52045.45
540.2689, 52066.21
540.7510, 52088.22
541.2331, 52122.21
541.7152, 52143.07
542.1973, 52143.48
542.6794, 52130.05
543.1616, 52099.86
543.6437, 52059.12
544.1258, 52031.47
544.6079, 52038.93
545.0900, 52071.45
545.5721, 52083.61
546.0543, 52067.43
546.5364, 52052.53
547.0185, 52037.59
547.5006, 52033.77
547.9827, 52061.21
548.4648, 52115.65
548.9470, 52149.93
549.4291, 52125.97
549.9112, 52083.77
550.3933, 52072.05
550.8754, 52082.93
551.3575, 52074.27
551.8397, 52025.70
552.3218, 51967.41
552.8039, 51948.63
553.2860, 51980.88
553.7681, 52014.81
554.2502, 52042.41
554.7324, 52080.10
555.2145, 52154.87
555.6966, 52237.79
556.1787, 52280.17
556.6608, 52263.46
557.1429, 52226.14
557.6251, 52214.02
558.1072, 52223.75
558.5893, 52227.28
559.0714, 52220.27
559.5535, 52213.02
560.0356, 52214.69
560.5178, 52220.90
560.9999, 52216.38
561.4820, 52182.91
561.9641, 52170.36
562.4462, 52211.40
562.9283, 52270.64
563.4105, 52312.52
563.8926, 52333.36
564.3747, 52344.89
564.8568, 52353.80
565.3389, 52363.74
565.8210, 52397.48
566.3032, 52487.28
566.7853, 52519.14
567.2674, 52412.62
567.7495, 52290.15
568.2316, 52230.03
568.7137, 52224.38
569.1959, 52218.42
569.6780, 52167.57
570.1601, 52125.59
570.6422, 52167.86
571.1243, 52267.38
571.6064, 52324.09
572.0886, 52303.62
572.5707, 52272.04
573.0528, 52314.68
573.5349, 52444.80
574.0170, 52524.55
574.4991, 52546.56
574.9813, 52530.75
575.4634, 52441.40
575.9455, 52337.96
576.4276, 52283.37
576.9097, 52291.66
577.3918, 52336.20
577.8740, 52421.81
578.3561, 52524.05
578.8382, 52542.54
579.3203, 52463.75
579.8024, 52412.45
580.2845, 52462.18
580.7667, 52557.72
581.2488, 52587.00
581.7309, 52533.79
582.2130, 52497.20
582.6951, 52498.92
583.1772, 52513.93
583.6594, 52530.96
584.1415, 52547.37
584.6236, 52559.51
585.1057, 52565.55
585.5878, 52573.12
586.0699, 52599.49
586.5521, 52647.84
587.0342, 52676.12
587.5163, 52676.52
587.9984, 52666.48
588.4805, 52651.58
588.9626, 52633.98
589.4448, 52614.29
589.9269, 52584.80
590.4090, 52573.82
590.8911, 52627.82
591.3732, 52690.19
591.8553, 52670.48
592.3375, 52576.01
592.8196, 52497.55
593.3017, 52497.42
593.7838, 52550.12
594.2659, 52575.97
594.7480, 52559.75
595.2302, 52552.61
595.7123, 52571.02
596.1944, 52588.14
596.6765, 52583.34
597.1586, 52566.70
597.6407, 52566.29
598.1228, 52600.84
598.6049, 52638.39
599.0870, 52650.77
599.5692, 52643.64
600.0513, 52623.19
600.5334, 52590.41
601.0155, 52578.99
601.4976, 52624.54
601.9797, 52716.44
602.4619, 52767.50
602.9440, 52738.45
603.4261, 52720.90
603.9082, 52733.46
604.3903, 52750.54
604.8724, 52758.39
605.3546, 52753.23
605.8367, 52728.05
606.3188, 52660.98
606.8009, 52595.81
607.2830, 52619.81
607.7651, 52718.29
608.2473, 52767.27
608.7294, 52727.16
609.2115, 52666.38
609.6936, 52656.05
610.1757, 52696.41
610.6578, 52708.95
611.1400, 52672.61
611.6221, 52637.98
612.1042, 52598.98
612.5863, 52578.29
613.0684, 52615.62
613.5505, 52702.63
614.0327, 52776.68
614.5148, 52789.46
614.9969, 52756.61
615.4790, 52699.59
615.9611, 52615.19
616.4432, 52587.58
616.9254, 52664.50
617.4075, 52764.88
617.8896, 52796.10
618.3717, 52756.45
618.8538, 52721.42
619.3359, 52676.99
619.8181, 52657.06
620.3002, 52685.92
620.7823, 52741.20
621.2644, 52804.30
621.7465, 52866.21
622.2286, 52910.59
622.7108, 52918.95
623.1929, 52899.67
623.6750, 52881.37
624.1571, 52861.30
624.6392, 52861.13
625.1213, 52904.00
625.6035, 52950.68
626.0856, 52941.45
626.5677, 52880.15
627.0498, 52851.54
627.5319, 52880.22
628.0140, 52930.13
628.4962, 53017.47
628.9783, 53100.66
629.4604, 53102.43
629.9425, 53015.57
630.4246, 52925.14
630.9067, 52916.96
631.3889, 52976.49
631.8710, 53022.95
632.3531, 53054.41
632.8352, 53082.13
633.3173, 53119.64
633.7994, 53144.62
634.2816, 53118.57
634.7637, 53045.34
635.2458, 53006.06
635.7279, 53047.74
636.2100, 53095.03
636.6921, 53104.17
637.1743, 53091.79
637.6564, 53081.54
638.1385, 53080.97
638.6206, 53091.43
639.1027, 53114.83
639.5848, 53150.36
640.0670, 53198.01
640.5491, 53268.72
641.0312, 53311.07
641.5133, 53286.91
641.9954, 53250.64
642.4775, 53261.69
642.9597, 53316.17
643.4418, 53367.27
643.9239, 53408.07
644.4060, 53440.24
644.8881, 53470.23
645.3702, 53490.01
645.8524, 53466.10
646.3345, 53403.28
646.8166, 53378.71
647.2987, 53476.21
647.7808, 53664.43
648.2629, 53792.68
648.7451, 53845.99
649.2272, 53893.36
649.7093, 53932.64
650.1914, 53993.38
