##NAMES=Tremolite
##RRUFFID=R060311
##IDEAL CHEMISTRY=[box]Ca_2_Mg_5_Si_8_O_22_(OH)_2_
##LOCALITY=Khyber Pass area, Khyber Agency, North-West Frontier Province, Pakistan
##OWNER=RRUFF
##SOURCE=Herb Obodda
##DESCRIPTION=Colorless fragment
##STATUS=The identification of this mineral has been confirmed by X-ray diffraction and chemical analysis
##URL=rruff.info/R060311
##MEASURED CHEMISTRY=[box](Ca_1.96_Mg_0.04_)_Σ=2_(Mg_4.97_Fe^3+^_0.03_)_Σ=5_(Si_7.97_Al_0.03_)_Σ=8_O_22_(OH)_2_
98.28284, 1868.185
98.76495, 1863.251
99.24707, 1859.149
99.72919, 1857.491
100.2113, 1855.797
100.6934, 1852.451
101.1755, 1848.172
101.6577, 1844.539
102.1398, 1842.747
102.6219, 1842.510
103.1040, 1845.195
103.5861, 1851.749
104.0682, 1859.203
104.5504, 1865.872
105.0325, 1871.444
105.5146, 1876.715
105.9967, 1882.376
106.4788, 1887.914
106.9609, 1894.942
107.4431, 1904.776
107.9252, 1915.767
108.4073, 1925.175
108.8894, 1931.488
109.3715, 1937.297
109.8536, 1947.101
110.3358, 1961.115
110.8179, 1976.590
111.3000, 1992.263
111.7821, 2008.176
112.2642, 2024.620
112.7463, 2040.521
113.2285, 2057.974
113.7106, 2078.396
114.1927, 2101.476
114.6748, 2128.915
115.1569, 2162.297
115.6390, 2201.286
116.1212, 2248.819
116.6033, 2315.589
117.0854, 2386.641
117.5675, 2449.210
118.0496, 2498.395
118.5317, 2532.860
119.0139, 2545.374
119.4960, 2511.155
119.9781, 2479.071
120.4602, 2455.900
120.9423, 2441.134
121.4244, 2433.920
121.9066, 2435.188
122.3887, 2446.718
122.8708, 2439.500
123.3529, 2410.800
123.8350, 2371.128
124.3171, 2320.698
124.7993, 2261.597
125.2814, 2201.460
125.7635, 2147.007
126.2456, 2099.252
126.7277, 2056.727
127.2098, 2019.722
127.6920, 1987.842
128.1741, 1960.612
128.6562, 1938.174
129.1383, 1919.970
129.6204, 1906.694
130.1025, 1897.659
130.5847, 1890.005
131.0668, 1883.097
131.5489, 1876.766
132.0310, 1870.284
132.5131, 1862.557
132.9952, 1855.768
133.4774, 1851.384
133.9595, 1849.447
134.4416, 1849.346
134.9237, 1851.364
135.4058, 1856.032
135.8879, 1859.258
136.3701, 1858.550
136.8522, 1857.282
137.3343, 1856.585
137.8164, 1856.884
138.2985, 1859.217
138.7806, 1865.881
139.2628, 1880.444
139.7449, 1892.995
140.2270, 1900.455
140.7091, 1906.812
141.1912, 1915.705
141.6733, 1928.724
142.1555, 1944.902
142.6376, 1960.767
143.1197, 1978.994
143.6018, 1993.745
144.0839, 2006.174
144.5660, 2014.474
145.0482, 2015.340
145.5303, 2006.272
146.0124, 1988.521
146.4945, 1971.434
146.9766, 1952.920
147.4587, 1936.890
147.9409, 1924.826
148.4230, 1916.638
148.9051, 1911.705
149.3872, 1909.756
149.8693, 1911.260
150.3514, 1915.429
150.8336, 1922.790
151.3157, 1932.496
151.7978, 1943.916
152.2799, 1957.131
152.7620, 1971.948
153.2441, 1987.798
153.7263, 2005.183
154.2084, 2025.987
154.6905, 2049.044
155.1726, 2076.022
155.6547, 2110.308
156.1368, 2150.546
156.6190, 2201.786
157.1011, 2259.473
157.5832, 2327.672
158.0653, 2416.873
158.5474, 2542.846
159.0295, 2701.738
159.5117, 2844.550
159.9938, 3014.086
160.4759, 3117.725
160.9580, 3104.161
161.4401, 2994.325
161.9222, 2842.700
162.4044, 2691.066
162.8865, 2534.295
163.3686, 2404.635
163.8507, 2308.777
164.3328, 2230.699
164.8149, 2166.744
165.2971, 2114.946
165.7792, 2075.102
166.2613, 2046.934
166.7434, 2033.504
167.2255, 2025.615
167.7076, 2023.982
168.1898, 2026.401
168.6719, 2031.289
169.1540, 2038.365
169.6361, 2048.448
170.1182, 2062.813
170.6003, 2082.388
171.0825, 2104.960
171.5646, 2130.593
172.0467, 2159.098
172.5288, 2189.539
173.0109, 2221.343
173.4930, 2256.762
173.9752, 2300.257
174.4573, 2350.608
174.9394, 2408.416
175.4215, 2475.089
175.9036, 2549.630
176.3857, 2632.254
176.8679, 2730.730
177.3500, 2826.112
177.8321, 2903.468
178.3142, 2967.387
178.7963, 2991.809
179.2784, 2952.883
179.7606, 2855.270
180.2427, 2736.761
180.7248, 2587.485
181.2069, 2437.373
181.6890, 2310.368
182.1711, 2207.839
182.6533, 2125.745
183.1354, 2062.498
183.6175, 2019.252
184.0996, 1985.779
184.5817, 1966.800
185.0638, 1953.214
185.5460, 1940.646
186.0281, 1928.104
186.5102, 1916.894
186.9923, 1908.936
187.4744, 1904.866
187.9565, 1902.621
188.4387, 1902.777
188.9208, 1903.845
189.4029, 1904.483
189.8850, 1904.354
190.3671, 1904.539
190.8492, 1907.379
191.3314, 1915.556
191.8135, 1922.025
192.2956, 1927.643
192.7777, 1930.988
193.2598, 1930.272
193.7419, 1924.867
194.2241, 1916.294
194.7062, 1908.226
195.1883, 1900.754
195.6704, 1893.737
196.1525, 1886.266
196.6346, 1879.565
197.1168, 1875.323
197.5989, 1874.330
198.0810, 1875.610
198.5631, 1876.396
199.0452, 1875.307
199.5273, 1875.540
200.0095, 1878.153
200.4916, 1882.340
200.9737, 1886.665
201.4558, 1890.373
201.9379, 1894.134
202.4200, 1900.113
202.9022, 1908.561
203.3843, 1918.017
203.8664, 1928.083
204.3485, 1938.802
204.8306, 1950.116
205.3127, 1961.765
205.7949, 1974.378
206.2770, 1988.741
206.7591, 2004.672
207.2412, 2022.501
207.7233, 2041.729
208.2054, 2062.728
208.6876, 2087.160
209.1697, 2115.051
209.6518, 2147.953
210.1339, 2186.460
210.6160, 2230.725
211.0981, 2279.777
211.5803, 2333.406
212.0624, 2391.499
212.5445, 2452.943
213.0266, 2523.912
213.5087, 2593.130
213.9908, 2651.320
214.4730, 2697.000
214.9551, 2730.499
215.4372, 2746.767
215.9193, 2742.238
216.4014, 2743.200
216.8836, 2753.177
217.3657, 2774.155
217.8478, 2808.451
218.3299, 2856.450
218.8120, 2918.436
219.2941, 2996.183
219.7763, 3092.872
220.2584, 3195.185
220.7405, 3308.681
221.2226, 3422.239
221.7047, 3537.203
222.1868, 3652.262
222.6690, 3747.577
223.1511, 3793.346
223.6332, 3788.425
224.1153, 3729.463
224.5974, 3592.847
225.0795, 3427.656
225.5617, 3258.785
226.0438, 3096.370
226.5259, 2949.283
227.0080, 2832.785
227.4901, 2752.988
227.9722, 2698.824
228.4544, 2674.368
228.9365, 2668.017
229.4186, 2673.988
229.9007, 2689.626
230.3828, 2712.460
230.8649, 2739.091
231.3471, 2781.408
231.8292, 2807.093
232.3113, 2820.198
232.7934, 2816.294
233.2755, 2789.423
233.7576, 2738.734
234.2398, 2670.391
234.7219, 2594.610
235.2040, 2502.817
235.6861, 2418.558
236.1682, 2340.390
236.6503, 2270.155
237.1325, 2210.616
237.6146, 2162.565
238.0967, 2123.173
238.5788, 2088.614
239.0609, 2059.403
239.5430, 2035.704
240.0252, 2018.774
240.5073, 2006.949
240.9894, 1999.202
241.4715, 1995.236
241.9536, 1994.273
242.4357, 1995.451
242.9179, 1998.828
243.4000, 2004.494
243.8821, 2011.782
244.3642, 2021.696
244.8463, 2034.997
245.3284, 2051.855
245.8106, 2072.840
246.2927, 2099.753
246.7748, 2132.756
247.2569, 2166.622
247.7390, 2201.478
248.2211, 2236.569
248.7033, 2273.474
249.1854, 2313.475
249.6675, 2347.630
250.1496, 2366.723
250.6317, 2372.125
251.1138, 2366.873
251.5960, 2349.940
252.0781, 2323.347
252.5602, 2287.188
253.0423, 2240.358
253.5244, 2191.479
254.0065, 2146.025
254.4887, 2104.427
254.9708, 2069.407
255.4529, 2042.953
255.9350, 2023.071
256.4171, 2007.787
256.8992, 1997.372
257.3813, 1990.034
257.8635, 1984.721
258.3456, 1981.617
258.8277, 1981.752
259.3098, 1985.942
259.7919, 1993.226
260.2740, 2002.275
260.7562, 2013.008
261.2383, 2025.779
261.7204, 2042.988
262.2025, 2061.879
262.6846, 2079.921
263.1667, 2098.548
263.6489, 2113.359
264.1310, 2118.993
264.6131, 2115.629
265.0952, 2102.177
265.5773, 2070.562
266.0594, 2031.484
266.5416, 1993.402
267.0237, 1957.727
267.5058, 1925.975
267.9879, 1900.231
268.4700, 1881.135
268.9521, 1865.526
269.4343, 1854.622
269.9164, 1845.708
270.3985, 1836.803
270.8806, 1827.346
271.3627, 1818.699
271.8448, 1812.797
272.3270, 1810.032
272.8091, 1807.805
273.2912, 1805.446
273.7733, 1803.492
274.2554, 1802.796
274.7375, 1803.399
275.2197, 1803.639
275.7018, 1800.778
276.1839, 1793.925
276.6660, 1789.785
277.1481, 1792.766
277.6302, 1796.260
278.1124, 1796.658
278.5945, 1793.931
279.0766, 1790.780
279.5587, 1790.170
280.0408, 1792.498
280.5229, 1793.819
281.0051, 1792.676
281.4872, 1791.594
281.9693, 1791.541
282.4514, 1792.497
282.9335, 1794.035
283.4156, 1795.984
283.8978, 1798.363
284.3799, 1800.258
284.8620, 1800.944
285.3441, 1801.855
285.8262, 1803.029
286.3083, 1804.785
286.7905, 1807.750
287.2726, 1812.560
287.7547, 1819.009
288.2368, 1825.071
288.7189, 1830.149
289.2010, 1835.550
289.6832, 1842.804
290.1653, 1850.353
290.6474, 1855.967
291.1295, 1858.305
291.6116, 1857.803
292.0938, 1855.930
292.5759, 1850.710
293.0580, 1847.049
293.5401, 1845.847
294.0222, 1846.559
294.5043, 1848.775
294.9865, 1852.345
295.4686, 1856.886
295.9507, 1861.486
296.4328, 1866.097
296.9149, 1870.871
297.3970, 1874.855
297.8792, 1879.488
298.3613, 1886.217
298.8434, 1895.430
299.3255, 1906.009
299.8076, 1915.883
300.2897, 1923.723
300.7719, 1934.044
301.2540, 1948.582
301.7361, 1964.131
302.2182, 1980.196
302.7003, 1995.903
303.1824, 2009.036
303.6646, 2017.394
304.1467, 2021.411
304.6288, 2018.458
305.1109, 2004.780
305.5930, 1987.880
306.0751, 1969.202
306.5573, 1950.031
307.0394, 1932.439
307.5215, 1918.352
308.0036, 1907.824
308.4857, 1899.026
308.9678, 1892.231
309.4500, 1886.985
309.9321, 1883.969
310.4142, 1882.409
310.8963, 1881.018
311.3784, 1879.030
311.8605, 1876.381
312.3427, 1872.684
312.8248, 1868.665
313.3069, 1862.430
313.7890, 1851.690
314.2711, 1839.169
314.7532, 1827.971
315.2354, 1819.651
315.7175, 1813.953
316.1996, 1810.484
316.6817, 1811.344
317.1638, 1811.164
317.6459, 1808.048
318.1281, 1804.450
318.6102, 1802.602
319.0923, 1803.196
319.5744, 1805.312
320.0565, 1807.370
320.5386, 1808.768
321.0208, 1811.580
321.5029, 1817.213
321.9850, 1823.037
322.4671, 1827.642
322.9492, 1830.764
323.4313, 1832.744
323.9135, 1833.808
324.3956, 1833.712
324.8777, 1833.882
325.3598, 1835.247
325.8419, 1836.002
326.3240, 1834.795
326.8062, 1832.275
327.2883, 1830.138
327.7704, 1829.551
328.2525, 1830.525
328.7346, 1833.122
329.2167, 1838.132
329.6989, 1844.118
330.1810, 1850.801
330.6631, 1858.210
331.1452, 1866.469
331.6273, 1875.715
332.1094, 1885.670
332.5916, 1895.701
333.0737, 1907.280
333.5558, 1916.195
334.0379, 1922.107
334.5200, 1925.350
335.0021, 1925.100
335.4843, 1921.264
335.9664, 1916.759
336.4485, 1916.306
336.9306, 1920.782
337.4127, 1926.785
337.8948, 1934.527
338.3770, 1943.200
338.8591, 1951.570
339.3412, 1960.000
339.8233, 1970.626
340.3055, 1986.329
340.7876, 2007.565
341.2697, 2028.615
341.7518, 2049.431
342.2339, 2069.950
342.7160, 2091.608
343.1982, 2113.075
343.6803, 2131.580
344.1624, 2145.383
344.6445, 2154.702
345.1266, 2160.339
345.6087, 2160.884
346.0909, 2159.761
346.5730, 2155.581
347.0551, 2151.525
347.5372, 2151.722
348.0193, 2158.061
348.5014, 2168.641
348.9836, 2180.468
349.4657, 2193.779
349.9478, 2207.387
350.4299, 2224.211
350.9120, 2239.257
351.3941, 2248.740
351.8763, 2251.946
352.3584, 2250.460
352.8405, 2245.772
353.3226, 2237.874
353.8047, 2226.042
354.2868, 2208.208
354.7690, 2188.105
355.2511, 2166.134
355.7332, 2143.395
356.2153, 2124.195
356.6974, 2112.762
357.1795, 2107.334
357.6617, 2100.402
358.1438, 2089.709
358.6259, 2082.300
359.1080, 2082.936
359.5901, 2089.055
360.0722, 2097.129
360.5544, 2106.563
361.0365, 2116.633
361.5186, 2126.469
362.0007, 2135.977
362.4828, 2145.528
362.9649, 2154.019
363.4471, 2163.492
363.9292, 2175.963
364.4113, 2191.577
364.8934, 2210.675
365.3755, 2233.087
365.8576, 2259.042
366.3398, 2289.949
366.8219, 2326.926
367.3040, 2368.329
367.7861, 2413.728
368.2682, 2462.663
368.7503, 2510.255
369.2325, 2562.097
369.7146, 2609.409
370.1967, 2637.237
370.6788, 2643.920
371.1609, 2633.774
371.6430, 2603.275
372.1252, 2557.478
372.6073, 2514.207
373.0894, 2473.711
373.5715, 2438.211
374.0536, 2410.190
374.5357, 2389.280
375.0179, 2373.446
375.5000, 2363.904
375.9821, 2357.178
376.4642, 2345.270
376.9463, 2328.383
377.4284, 2307.133
377.9106, 2279.885
378.3927, 2248.870
378.8748, 2216.819
379.3569, 2184.068
379.8390, 2153.506
380.3211, 2129.023
380.8033, 2111.512
381.2854, 2095.948
381.7675, 2081.147
382.2496, 2068.886
382.7317, 2060.292
383.2138, 2055.536
383.6960, 2054.644
384.1781, 2057.845
384.6602, 2065.018
385.1423, 2074.398
385.6244, 2083.472
386.1065, 2096.969
386.5887, 2117.714
387.0708, 2143.612
387.5529, 2171.051
388.0350, 2198.448
388.5171, 2227.114
388.9992, 2259.917
389.4814, 2295.441
389.9635, 2338.251
390.4456, 2390.539
390.9277, 2448.529
391.4098, 2509.878
391.8919, 2573.754
392.3741, 2641.321
392.8562, 2715.516
393.3383, 2799.869
393.8204, 2865.255
394.3025, 2921.306
394.7846, 2950.348
395.2668, 2945.334
395.7489, 2908.825
396.2310, 2842.886
396.7131, 2746.693
397.1952, 2628.603
397.6773, 2516.155
398.1595, 2404.387
398.6416, 2307.446
399.1237, 2226.137
399.6058, 2158.645
400.0879, 2104.836
400.5700, 2064.065
401.0522, 2032.764
401.5343, 2006.945
402.0164, 1987.006
402.4985, 1971.047
402.9806, 1960.134
403.4627, 1952.570
403.9449, 1948.385
404.4270, 1947.006
404.9091, 1947.196
405.3912, 1948.158
405.8733, 1950.151
406.3554, 1953.878
406.8376, 1959.250
407.3197, 1966.713
407.8018, 1977.005
408.2839, 1989.148
408.7660, 2002.138
409.2481, 2015.782
409.7303, 2030.663
410.2124, 2047.032
410.6945, 2064.964
411.1766, 2085.943
411.6587, 2110.635
412.1408, 2138.435
412.6230, 2169.086
413.1051, 2202.252
413.5872, 2235.630
414.0693, 2269.970
414.5514, 2303.343
415.0335, 2334.011
415.5157, 2362.383
415.9978, 2382.767
416.4799, 2392.684
416.9620, 2390.485
417.4441, 2375.073
417.9262, 2342.793
418.4084, 2301.989
418.8905, 2253.331
419.3726, 2199.740
419.8547, 2148.434
420.3368, 2101.472
420.8189, 2059.006
421.3011, 2021.915
421.7832, 1990.460
422.2653, 1962.988
422.7474, 1939.836
423.2295, 1920.318
423.7116, 1904.005
424.1938, 1890.754
424.6759, 1880.226
425.1580, 1872.385
425.6401, 1867.104
426.1222, 1861.730
426.6043, 1853.943
427.0865, 1848.728
427.5686, 1848.745
428.0507, 1851.610
428.5328, 1853.772
429.0149, 1853.904
429.4970, 1853.680
429.9792, 1856.155
430.4613, 1862.754
430.9434, 1869.083
431.4255, 1873.837
431.9076, 1879.491
432.3897, 1887.943
432.8719, 1898.713
433.3540, 1910.039
433.8361, 1920.804
434.3182, 1930.826
434.8003, 1938.926
435.2824, 1945.456
435.7646, 1949.188
436.2467, 1951.929
436.7288, 1951.182
437.2109, 1943.742
437.6930, 1928.574
438.1751, 1908.849
438.6573, 1887.126
439.1394, 1863.093
439.6215, 1841.468
440.1036, 1822.734
440.5857, 1806.906
441.0678, 1793.769
441.5500, 1783.196
442.0321, 1774.755
442.5142, 1769.060
442.9963, 1764.990
443.4784, 1760.264
443.9605, 1754.690
444.4427, 1749.990
444.9248, 1747.479
445.4069, 1746.213
445.8890, 1744.483
446.3711, 1742.014
446.8532, 1739.647
447.3354, 1737.822
447.8175, 1736.446
448.2996, 1735.346
448.7817, 1734.501
449.2638, 1733.852
449.7459, 1733.526
450.2281, 1733.549
450.7102, 1732.722
451.1923, 1729.271
451.6744, 1726.486
452.1565, 1727.651
452.6386, 1731.389
453.1208, 1733.055
453.6029, 1729.925
454.0850, 1724.199
454.5671, 1722.010
455.0492, 1728.507
455.5313, 1731.537
456.0135, 1727.451
456.4956, 1722.213
456.9777, 1721.418
457.4598, 1725.197
457.9419, 1728.980
458.4240, 1728.145
458.9062, 1722.604
459.3883, 1719.099
459.8704, 1719.048
460.3525, 1719.602
460.8346, 1720.473
461.3167, 1721.479
461.7989, 1722.647
462.2810, 1724.005
462.7631, 1724.928
463.2452, 1724.050
463.7273, 1720.870
464.2094, 1718.851
464.6916, 1719.358
465.1737, 1720.267
465.6558, 1720.263
466.1379, 1719.544
466.6200, 1719.041
467.1021, 1719.389
467.5843, 1720.214
468.0664, 1720.735
468.5485, 1720.900
469.0306, 1721.205
469.5127, 1722.347
469.9948, 1723.459
470.4770, 1723.074
470.9591, 1720.728
471.4412, 1718.498
471.9233, 1717.340
472.4054, 1717.031
472.8875, 1717.237
473.3697, 1717.914
473.8518, 1718.964
474.3339, 1720.369
474.8160, 1722.132
475.2981, 1723.807
475.7802, 1725.312
476.2624, 1726.802
476.7445, 1728.745
477.2266, 1730.656
477.7087, 1731.473
478.1908, 1730.763
478.6729, 1729.279
479.1551, 1728.382
479.6372, 1728.318
480.1193, 1728.258
480.6014, 1727.742
481.0835, 1727.625
481.5656, 1728.509
482.0478, 1730.219
482.5299, 1732.288
483.0120, 1734.498
483.4941, 1736.666
483.9762, 1737.923
484.4583, 1737.666
484.9405, 1737.761
485.4226, 1739.290
485.9047, 1740.820
486.3868, 1740.881
486.8689, 1739.439
487.3510, 1738.191
487.8332, 1739.550
488.3153, 1742.585
488.7974, 1742.163
489.2795, 1736.600
489.7616, 1731.274
490.2437, 1729.792
490.7259, 1730.594
491.2080, 1731.554
491.6901, 1732.419
492.1722, 1733.141
492.6543, 1733.814
493.1364, 1734.314
493.6186, 1734.302
494.1007, 1733.698
494.5828, 1732.511
495.0649, 1730.719
495.5470, 1728.275
496.0291, 1725.382
496.5113, 1721.795
496.9934, 1717.984
497.4755, 1714.044
497.9576, 1710.107
498.4397, 1706.489
498.9218, 1703.386
499.4040, 1700.489
499.8861, 1696.961
500.3682, 1690.685
500.8503, 1687.933
501.3324, 1691.240
501.8145, 1695.461
502.2967, 1697.083
502.7788, 1696.659
503.2609, 1697.098
503.7430, 1700.628
504.2251, 1706.344
504.7072, 1710.784
505.1894, 1713.884
505.6715, 1715.852
506.1536, 1714.707
506.6357, 1713.820
507.1178, 1716.344
507.5999, 1722.523
508.0821, 1729.206
508.5642, 1733.714
509.0463, 1736.938
509.5284, 1741.755
510.0105, 1748.633
510.4926, 1755.732
510.9748, 1762.078
511.4569, 1767.752
511.9390, 1772.989
512.4211, 1777.496
512.9032, 1782.044
513.3853, 1787.380
513.8674, 1792.888
514.3495, 1797.653
514.8317, 1801.500
515.3138, 1804.008
515.7959, 1804.565
516.2780, 1803.001
516.7601, 1801.852
517.2422, 1801.732
517.7244, 1801.260
518.2065, 1798.581
518.6886, 1795.724
519.1707, 1796.059
519.6528, 1800.651
520.1349, 1806.964
520.6171, 1811.216
521.0992, 1813.070
521.5813, 1814.264
522.0634, 1811.868
522.5455, 1811.863
523.0276, 1817.365
523.5098, 1826.721
523.9919, 1836.688
524.4740, 1845.871
524.9561, 1855.083
525.4382, 1865.323
525.9203, 1876.517
526.4025, 1889.966
526.8846, 1907.471
527.3667, 1925.193
527.8488, 1940.854
528.3309, 1954.191
528.8130, 1962.891
529.2952, 1964.845
529.7773, 1962.959
530.2594, 1961.016
530.7415, 1957.991
531.2236, 1948.534
531.7057, 1929.646
532.1879, 1904.893
532.6700, 1880.838
533.1521, 1856.859
533.6342, 1834.946
534.1163, 1815.767
534.5984, 1798.242
535.0806, 1781.891
535.5627, 1766.606
536.0448, 1752.164
536.5269, 1738.405
537.0090, 1725.783
537.4911, 1716.197
537.9733, 1711.267
538.4554, 1705.633
538.9375, 1696.891
539.4196, 1688.741
539.9017, 1683.977
540.3839, 1682.129
540.8660, 1680.400
541.3481, 1676.995
541.8302, 1672.508
542.3123, 1668.049
542.7944, 1663.562
543.2766, 1659.696
543.7587, 1656.655
544.2408, 1654.506
544.7229, 1653.529
545.2050, 1653.918
545.6871, 1653.752
546.1693, 1651.865
546.6514, 1649.417
547.1335, 1647.749
547.6156, 1646.837
548.0977, 1645.676
548.5798, 1643.499
549.0620, 1640.867
549.5441, 1639.695
550.0262, 1641.257
550.5083, 1642.631
550.9904, 1643.888
551.4725, 1644.868
551.9547, 1645.439
552.4368, 1645.606
552.9189, 1645.407
553.4010, 1644.784
553.8831, 1643.915
554.3652, 1643.533
554.8474, 1643.724
555.3295, 1644.211
555.8116, 1645.306
556.2937, 1646.431
556.7758, 1647.323
557.2579, 1647.913
557.7401, 1647.917
558.2222, 1646.802
558.7043, 1645.143
559.1864, 1643.889
559.6685, 1643.071
560.1506, 1642.476
560.6328, 1642.174
561.1149, 1641.862
561.5970, 1640.591
562.0791, 1637.676
562.5612, 1636.095
563.0433, 1637.330
563.5255, 1639.393
564.0076, 1641.057
564.4897, 1642.026
564.9718, 1641.823
565.4539, 1639.954
565.9360, 1637.311
566.4182, 1637.100
566.9003, 1641.561
567.3824, 1644.244
567.8645, 1643.467
568.3466, 1642.079
568.8287, 1641.929
569.3109, 1642.849
569.7930, 1643.530
570.2751, 1642.929
570.7572, 1641.824
571.2393, 1642.159
571.7214, 1644.115
572.2036, 1645.257
572.6857, 1644.526
573.1678, 1642.934
573.6499, 1641.280
574.1320, 1639.562
574.6141, 1639.076
575.0963, 1641.286
575.5784, 1643.986
576.0605, 1645.468
576.5426, 1645.790
577.0247, 1645.294
577.5068, 1644.052
577.9890, 1642.602
578.4711, 1641.950
578.9532, 1642.340
579.4353, 1642.978
579.9174, 1643.985
580.3995, 1645.095
580.8817, 1646.386
581.3638, 1647.648
581.8459, 1648.597
582.3280, 1649.124
582.8101, 1649.078
583.2922, 1647.920
583.7744, 1645.530
584.2565, 1643.693
584.7386, 1642.124
585.2207, 1641.899
585.7029, 1645.725
586.1850, 1651.428
586.6671, 1653.022
587.1492, 1645.857
587.6313, 1638.525
588.1135, 1637.962
588.5956, 1641.909
589.0777, 1645.399
589.5598, 1647.197
590.0419, 1647.750
590.5240, 1647.395
591.0062, 1646.100
591.4883, 1644.719
591.9704, 1643.209
592.4525, 1641.690
592.9346, 1639.493
