##NAMES=Tremolite
##RRUFFID=R050173
##IDEAL CHEMISTRY=[box]Ca_2_Mg_5_Si_8_O_22_(OH)_2_
##LOCALITY=Fort Dauphin, Madagascar
##OWNER=RRUFF
##SOURCE=Marcus Origlieri
##DESCRIPTION=Mass of colorless acicular crystals
##STATUS=The identification of this mineral has been confirmed by X-ray diffraction and chemical analysis
##URL=rruff.info/R050173
##MEASURED CHEMISTRY=[box]Ca_2.00_Mg_5.00_Si_8.00_O_22_(OH)_2_
93.77539, 31.38532
94.25751, 29.87793
94.73962, 30.81961
95.22174, 33.70580
95.70386, 36.71552
96.18597, 39.09575
96.66809, 41.05676
97.15021, 43.22810
97.63232, 45.57605
98.11444, 48.32373
98.59656, 51.81240
99.07867, 56.06498
99.56079, 60.63951
100.0429, 65.05448
100.5250, 69.26854
101.0071, 74.80901
101.4893, 81.90656
101.9714, 90.10712
102.4535, 98.11182
102.9356, 105.7364
103.4177, 113.8438
103.8998, 123.0063
104.3820, 133.8548
104.8641, 144.1497
105.3462, 153.8912
105.8283, 163.0134
106.3104, 171.6828
106.7925, 179.8140
107.2747, 187.5014
107.7568, 194.6738
108.2389, 201.1588
108.7210, 207.4918
109.2031, 213.5088
109.6852, 219.2057
110.1674, 225.6997
110.6495, 233.1509
111.1316, 241.3892
111.6137, 250.2644
112.0958, 260.2717
112.5779, 270.5455
113.0601, 280.5867
113.5422, 290.0915
114.0243, 301.3445
114.5064, 315.4629
114.9885, 331.2283
115.4706, 347.3304
115.9528, 363.7494
116.4349, 380.1566
116.9170, 395.9293
117.3991, 410.7209
117.8812, 426.5269
118.3633, 445.5330
118.8455, 466.0571
119.3276, 484.7195
119.8097, 499.5750
120.2918, 512.6519
120.7739, 524.9307
121.2560, 535.6530
121.7382, 547.6329
122.2203, 564.0526
122.7024, 583.5963
123.1845, 601.8643
123.6666, 619.8392
124.1487, 633.9519
124.6309, 639.8607
125.1130, 633.7933
125.5951, 621.6425
126.0772, 607.1414
126.5593, 590.6625
127.0414, 575.5565
127.5236, 563.8484
128.0057, 555.4883
128.4878, 550.1830
128.9699, 549.1472
129.4520, 550.5231
129.9341, 551.2001
130.4162, 551.1387
130.8984, 551.2783
131.3805, 552.5485
131.8626, 554.8545
132.3447, 557.7116
132.8268, 560.9407
133.3089, 564.5773
133.7911, 567.7209
134.2732, 568.7448
134.7553, 568.3085
135.2374, 568.3341
135.7195, 568.8151
136.2016, 569.6014
136.6838, 570.6384
137.1659, 571.9207
137.6480, 573.4006
138.1301, 574.9826
138.6122, 576.9135
139.0943, 579.8011
139.5765, 583.8256
140.0586, 588.0449
140.5407, 591.8575
141.0228, 595.0154
141.5049, 599.2904
141.9870, 605.1853
142.4692, 612.0474
142.9513, 618.0130
143.4334, 623.2371
143.9155, 627.4118
144.3976, 630.2780
144.8797, 631.2365
145.3619, 632.3143
145.8440, 633.8162
146.3261, 635.5626
146.8082, 636.4954
147.2903, 636.2292
147.7724, 635.5857
148.2546, 635.0099
148.7367, 634.0798
149.2188, 633.8547
149.7009, 634.5526
150.1830, 636.1323
150.6651, 637.9435
151.1473, 639.4983
151.6294, 641.5872
152.1115, 644.7506
152.5936, 650.4514
153.0757, 655.6340
153.5578, 659.4987
154.0400, 661.8859
154.5221, 665.2780
155.0042, 670.0332
155.4863, 675.7446
155.9684, 682.0398
156.4505, 686.1680
156.9327, 693.4915
157.4148, 704.8367
157.8969, 719.9773
158.3790, 740.3663
158.8611, 767.5573
159.3432, 799.7825
159.8254, 835.1759
160.3075, 889.8737
160.7896, 933.6255
161.2717, 953.2241
161.7538, 945.0817
162.2359, 927.9289
162.7181, 900.8730
163.2002, 870.1603
163.6823, 844.4557
164.1644, 830.8528
164.6465, 820.1205
165.1286, 806.8915
165.6108, 789.6003
166.0929, 773.4332
166.5750, 759.6820
167.0571, 748.7000
167.5392, 741.1523
168.0213, 738.5400
168.5035, 738.7142
168.9856, 740.3494
169.4677, 743.5608
169.9498, 747.2411
170.4319, 750.7125
170.9140, 754.0861
171.3962, 757.5989
171.8783, 760.0340
172.3604, 763.2597
172.8425, 769.0563
173.3246, 777.6769
173.8067, 789.1485
174.2889, 803.4209
174.7710, 820.5417
175.2531, 840.6324
175.7352, 861.9450
176.2173, 886.5864
176.6994, 917.8506
177.1816, 957.9011
177.6637, 1002.227
178.1458, 1053.858
178.6279, 1109.468
179.1100, 1150.018
179.5921, 1166.741
180.0743, 1159.612
180.5564, 1125.602
181.0385, 1055.517
181.5206, 970.3636
182.0027, 896.0875
182.4848, 832.6974
182.9670, 780.7948
183.4491, 742.6796
183.9312, 716.0934
184.4133, 695.6270
184.8954, 680.6472
185.3775, 670.1939
185.8597, 663.0847
186.3418, 659.3204
186.8239, 656.9164
187.3060, 654.2819
187.7881, 651.6057
188.2702, 649.8698
188.7523, 649.4662
189.2345, 650.0131
189.7166, 650.7413
190.1987, 651.6771
190.6808, 652.5809
191.1629, 652.8938
191.6451, 652.7866
192.1272, 653.6525
192.6093, 656.0868
193.0914, 659.6471
193.5735, 663.2052
194.0556, 666.8776
194.5378, 670.0410
195.0199, 672.1611
195.5020, 673.2562
195.9841, 673.2846
196.4662, 671.6700
196.9483, 669.0178
197.4305, 668.0144
197.9126, 668.7963
198.3947, 670.5137
198.8768, 672.1685
199.3589, 673.7044
199.8410, 676.2020
200.3232, 680.1891
200.8053, 685.3593
201.2874, 689.8691
201.7695, 693.3581
202.2516, 697.1631
202.7337, 702.6776
203.2159, 709.9421
203.6980, 718.1606
204.1801, 727.1443
204.6622, 736.9129
205.1443, 748.0751
205.6264, 761.3380
206.1086, 774.3561
206.5907, 784.4811
207.0728, 791.1932
207.5549, 797.3129
208.0370, 803.3668
208.5191, 809.3671
209.0013, 815.3983
209.4834, 821.3240
209.9655, 827.5391
210.4476, 834.3560
210.9297, 841.5912
211.4118, 849.9630
211.8940, 859.6826
212.3761, 870.7483
212.8582, 883.1257
213.3403, 897.2474
213.8224, 912.0862
214.3045, 926.7869
214.7867, 942.2191
215.2688, 955.2629
215.7509, 965.1178
216.2330, 971.7216
216.7151, 976.6503
217.1972, 978.2656
217.6794, 980.4524
218.1615, 986.8552
218.6436, 997.0598
219.1257, 1012.685
219.6078, 1033.824
220.0899, 1060.594
220.5721, 1092.548
221.0542, 1130.332
221.5363, 1172.131
222.0184, 1216.855
222.5005, 1269.024
222.9826, 1315.186
223.4648, 1355.520
223.9469, 1390.865
224.4290, 1399.465
224.9111, 1376.441
225.3932, 1332.638
225.8753, 1275.525
226.3575, 1197.526
226.8396, 1122.939
227.3217, 1055.871
227.8038, 995.3334
228.2859, 949.4936
228.7680, 921.3855
229.2502, 904.4493
229.7323, 893.3906
230.2144, 889.2685
230.6965, 888.7685
231.1786, 891.9464
231.6607, 898.7986
232.1429, 906.5220
232.6250, 917.1928
233.1071, 926.4411
233.5892, 930.4375
234.0713, 929.2526
234.5534, 922.6003
235.0356, 909.3099
235.5177, 889.6905
235.9998, 869.3670
236.4819, 847.2287
236.9640, 825.3105
237.4461, 804.9996
237.9283, 785.5673
238.4104, 769.2849
238.8925, 757.0940
239.3746, 748.8094
239.8567, 741.4046
240.3388, 734.5543
240.8210, 728.8741
241.3031, 725.0364
241.7852, 724.1072
242.2673, 722.8123
242.7494, 720.3120
243.2315, 716.8254
243.7137, 714.9100
244.1958, 714.4448
244.6779, 715.6635
245.1600, 719.0631
245.6421, 726.2659
246.1242, 732.1776
246.6064, 735.3761
247.0885, 736.5309
247.5706, 740.4728
248.0527, 748.5236
248.5348, 757.5875
249.0169, 765.5750
249.4990, 771.9930
249.9812, 778.7424
250.4633, 786.9603
250.9454, 795.7578
251.4275, 800.9175
251.9096, 802.2191
252.3917, 800.1490
252.8739, 794.5261
253.3560, 783.5712
253.8381, 773.2882
254.3202, 763.9940
254.8023, 755.5735
255.2844, 747.6724
255.7666, 739.8583
256.2487, 733.2734
256.7308, 728.7609
257.2129, 726.9880
257.6950, 725.3362
258.1772, 723.5582
258.6593, 721.8988
259.1414, 721.0135
259.6235, 721.1077
260.1056, 721.6007
260.5877, 722.1315
261.0699, 722.3788
261.5520, 723.7172
262.0341, 726.4717
262.5162, 730.1257
262.9983, 733.8010
263.4804, 737.7486
263.9626, 741.1180
264.4447, 743.6858
264.9268, 745.6227
265.4089, 746.1749
265.8910, 745.5042
266.3731, 743.3298
266.8553, 738.6353
267.3374, 730.4065
267.8195, 722.5636
268.3016, 716.7055
268.7837, 712.9323
269.2658, 709.4875
269.7480, 706.2079
270.2301, 703.4858
270.7122, 702.0523
271.1943, 702.1465
271.6764, 702.6239
272.1585, 703.0489
272.6407, 703.4088
273.1228, 704.5998
273.6049, 706.9321
274.0870, 709.4599
274.5691, 710.8909
275.0512, 710.8933
275.5334, 711.4597
276.0155, 713.6016
276.4976, 717.0164
276.9797, 717.9745
277.4618, 715.7227
277.9439, 713.0881
278.4261, 713.2197
278.9081, 716.4265
279.3903, 719.3292
279.8724, 721.2171
280.3545, 722.1979
280.8366, 722.5613
281.3187, 722.1251
281.8008, 721.9230
282.2830, 723.0538
282.7651, 725.5496
283.2472, 727.8588
283.7293, 729.8485
284.2114, 731.3873
284.6935, 731.5389
285.1757, 730.0827
285.6578, 729.3007
286.1399, 731.2559
286.6220, 735.7360
287.1041, 739.9224
287.5862, 743.3404
288.0684, 746.4634
288.5505, 750.3922
289.0326, 755.1427
289.5147, 759.6602
289.9968, 763.4316
290.4789, 766.4600
290.9611, 768.8738
291.4432, 770.9149
291.9253, 771.7798
292.4074, 769.4924
292.8895, 764.3236
293.3716, 759.2607
293.8538, 755.8261
294.3359, 753.6840
294.8180, 751.7925
295.3001, 750.1191
295.7822, 748.7361
296.2643, 747.8109
296.7465, 747.2974
297.2286, 746.9454
297.7107, 746.1575
298.1928, 745.5468
298.6749, 746.6737
299.1570, 749.6160
299.6392, 753.0911
300.1213, 755.6083
300.6034, 757.6155
301.0855, 760.1857
301.5676, 764.2399
302.0497, 768.7764
302.5319, 772.4216
303.0140, 775.2157
303.4961, 777.2924
303.9782, 779.3110
304.4603, 780.6136
304.9424, 780.0476
305.4246, 776.7426
305.9067, 772.0603
306.3888, 766.6335
306.8709, 760.7920
307.3530, 756.0217
307.8351, 754.1288
308.3173, 753.6018
308.7994, 752.4784
309.2815, 749.8012
309.7636, 747.5726
310.2457, 747.8995
310.7278, 750.0169
311.2100, 751.8539
311.6921, 751.8614
312.1742, 751.3803
312.6563, 751.7428
313.1384, 753.4487
313.6205, 754.7922
314.1027, 754.2194
314.5848, 752.6844
315.0669, 751.8373
315.5490, 753.0769
316.0311, 754.6881
316.5132, 755.5238
316.9954, 755.4022
317.4775, 755.4713
317.9596, 756.4373
318.4417, 757.7672
318.9238, 758.8719
319.4059, 758.4440
319.8881, 758.7487
320.3702, 761.4033
320.8523, 766.2965
321.3344, 769.8937
321.8165, 770.1541
322.2986, 769.2584
322.7808, 768.8655
323.2629, 769.0070
323.7450, 770.0027
324.2271, 772.4023
324.7092, 775.9009
325.1913, 779.0235
325.6735, 781.2998
326.1556, 783.3527
326.6377, 785.4941
327.1198, 787.7695
327.6019, 790.1379
328.0840, 792.1345
328.5662, 794.2113
329.0483, 797.5799
329.5304, 803.7953
330.0125, 809.7697
330.4946, 814.0997
330.9767, 815.1341
331.4589, 819.2298
331.9410, 829.2784
332.4231, 841.0615
332.9052, 848.6814
333.3873, 850.2234
333.8694, 850.6009
334.3516, 850.9697
334.8337, 851.4074
335.3158, 850.4833
335.7979, 847.4288
336.2800, 843.8832
336.7621, 841.3444
337.2443, 839.8636
337.7264, 839.1946
338.2085, 839.3681
338.6906, 840.3253
339.1727, 841.4575
339.6548, 842.2106
340.1370, 844.4944
340.6191, 850.2141
341.1012, 859.7800
341.5833, 868.9836
342.0654, 877.3529
342.5475, 885.1330
343.0297, 893.0486
343.5118, 901.1849
343.9939, 908.3625
344.4760, 914.0383
344.9581, 918.1515
345.4402, 920.6584
345.9224, 921.4814
346.4045, 920.8464
346.8866, 918.1356
347.3687, 913.5793
347.8508, 910.2607
348.3329, 909.0790
348.8151, 910.0604
349.2972, 913.9701
349.7793, 920.8895
350.2614, 928.4092
350.7435, 934.1932
351.2256, 938.6635
351.7078, 943.2773
352.1899, 949.1195
352.6720, 954.4594
353.1541, 957.2390
353.6362, 957.5313
354.1183, 955.5930
354.6005, 950.5168
355.0826, 943.6966
355.5647, 936.7784
356.0468, 929.7770
356.5289, 923.5801
357.0110, 918.8926
357.4932, 915.5275
357.9753, 913.0541
358.4574, 911.7203
358.9395, 910.8864
359.4216, 909.5956
359.9037, 907.5678
360.3859, 907.2293
360.8680, 911.1399
361.3501, 917.1598
361.8322, 922.6761
362.3143, 925.7912
362.7964, 929.1220
363.2786, 933.5892
363.7607, 939.2122
364.2428, 945.9570
364.7249, 953.1648
365.2070, 961.8049
365.6891, 972.5719
366.1713, 987.1611
366.6534, 1001.958
367.1355, 1016.024
367.6176, 1029.746
368.0997, 1044.050
368.5818, 1061.385
369.0640, 1077.330
369.5461, 1090.823
370.0282, 1103.204
370.5103, 1109.919
370.9924, 1111.141
371.4745, 1106.739
371.9567, 1096.139
372.4388, 1075.971
372.9209, 1054.625
373.4030, 1032.827
373.8851, 1010.410
374.3672, 991.3769
374.8494, 975.5654
375.3315, 963.0595
375.8136, 954.5453
376.2957, 951.0200
376.7778, 947.8197
377.2599, 944.2773
377.7421, 940.6842
378.2242, 938.5054
378.7063, 938.3091
379.1884, 937.2172
379.6705, 932.7458
380.1526, 924.8182
380.6348, 919.4557
381.1169, 917.3126
381.5990, 916.6563
382.0811, 914.8070
382.5632, 911.8984
383.0453, 909.7354
383.5275, 909.0214
384.0096, 909.6205
384.4917, 911.5701
384.9738, 914.9258
385.4559, 918.2626
385.9380, 919.1315
386.4202, 918.9853
386.9023, 921.6915
387.3844, 929.0383
387.8665, 938.4305
388.3486, 946.5535
388.8307, 953.8817
389.3129, 962.3251
389.7950, 973.2958
390.2771, 985.8669
390.7592, 998.7627
391.2413, 1011.590
391.7234, 1025.616
392.2056, 1042.444
392.6877, 1060.724
393.1698, 1078.636
393.6519, 1097.359
394.1340, 1113.916
394.6161, 1128.107
395.0983, 1139.703
395.5804, 1143.967
396.0625, 1138.560
396.5446, 1125.529
397.0267, 1106.330
397.5089, 1076.398
397.9910, 1046.150
398.4731, 1015.812
398.9552, 986.2810
399.4373, 960.2523
399.9194, 937.4446
400.4016, 918.6536
400.8837, 904.5522
401.3658, 895.9728
401.8479, 889.3152
402.3300, 885.6155
402.8121, 883.1876
403.2942, 879.8474
403.7763, 874.2582
404.2585, 870.3904
404.7406, 869.7014
405.2227, 871.7796
405.7048, 872.0865
406.1869, 869.8554
406.6690, 867.5833
407.1512, 867.1271
407.6333, 868.6780
408.1154, 870.3975
408.5975, 871.9960
409.0796, 873.8653
409.5617, 877.1443
410.0439, 881.8669
410.5260, 886.4061
411.0081, 889.3695
411.4902, 891.3607
411.9723, 895.3203
412.4544, 901.4294
412.9366, 908.2179
413.4187, 914.6056
413.9008, 920.6504
414.3829, 926.4697
414.8650, 932.4227
415.3471, 937.8718
415.8293, 942.2346
416.3114, 945.4620
416.7935, 947.1202
417.2756, 947.2401
417.7577, 945.5408
418.2398, 941.4139
418.7220, 934.3759
419.2041, 926.6232
419.6862, 919.6285
420.1683, 912.6631
420.6504, 904.8190
421.1325, 893.4334
421.6147, 883.0387
422.0968, 876.1800
422.5789, 872.7144
423.0610, 869.1491
423.5431, 863.6810
424.0252, 858.3233
424.5074, 854.2993
424.9895, 852.2086
425.4716, 850.9938
425.9537, 851.3864
426.4358, 852.5383
426.9179, 852.5222
427.4001, 850.0390
427.8822, 847.9588
428.3643, 847.1816
428.8464, 847.8616
429.3285, 848.7043
429.8106, 849.5820
430.2928, 850.7841
430.7749, 852.7809
431.2570, 855.8488
431.7391, 858.4041
432.2212, 859.7821
432.7033, 860.6975
433.1855, 863.8971
433.6676, 869.6969
434.1497, 875.0853
434.6318, 877.6719
435.1139, 878.0310
435.5960, 880.0664
436.0782, 884.3724
436.5603, 888.4453
437.0424, 889.0443
437.5245, 886.8002
438.0066, 883.8281
438.4887, 881.1602
438.9709, 877.9725
439.4530, 872.3555
439.9351, 864.7078
440.4172, 857.9832
440.8993, 854.6212
441.3814, 852.8876
441.8636, 850.8447
442.3457, 847.8293
442.8278, 845.4417
443.3099, 844.5739
443.7920, 844.9539
444.2741, 846.1215
444.7563, 849.2432
445.2384, 851.8839
445.7205, 852.5273
446.2026, 851.1365
446.6847, 850.8521
447.1668, 853.2050
447.6490, 856.2487
448.1311, 858.7758
448.6132, 860.4044
449.0953, 861.8762
449.5774, 862.9468
450.0595, 863.9103
450.5417, 865.4139
451.0238, 867.6439
451.5059, 870.0759
451.9880, 872.7457
452.4701, 875.7216
452.9522, 877.4592
453.4344, 877.4246
453.9165, 877.4534
454.3986, 879.4825
454.8807, 883.6251
455.3628, 887.5845
455.8449, 891.1420
456.3271, 894.1895
456.8092, 896.0904
457.2913, 896.9794
457.7734, 898.4583
458.2555, 901.2318
458.7376, 905.2396
459.2198, 911.1591
459.7019, 919.1169
460.1840, 926.3444
460.6661, 929.0833
461.1482, 929.7441
461.6303, 932.3336
462.1125, 939.3691
462.5946, 946.9189
463.0767, 952.5520
463.5588, 956.4355
464.0409, 958.8803
464.5230, 959.4412
465.0052, 959.0377
465.4873, 958.3854
465.9694, 957.7907
466.4515, 955.5319
466.9336, 950.5351
467.4157, 943.9667
467.8979, 936.9265
468.3800, 928.1978
468.8621, 920.5759
469.3442, 914.7004
469.8263, 910.2036
470.3084, 905.4213
470.7906, 899.6317
471.2727, 894.7382
471.7548, 891.7891
472.2369, 891.1824
472.7190, 889.8737
473.2011, 887.4194
473.6833, 885.1046
474.1654, 884.9437
474.6475, 887.0828
475.1296, 887.9112
475.6117, 886.0919
476.0938, 882.9896
476.5760, 881.9968
477.0581, 882.9627
477.5402, 884.1630
478.0223, 884.2939
478.5044, 883.9538
478.9865, 884.5604
479.4687, 886.3021
479.9508, 887.8104
480.4329, 887.5150
480.9150, 886.2914
481.3971, 885.4629
481.8792, 885.9196
482.3614, 886.4244
482.8435, 885.9918
483.3256, 884.9690
483.8077, 884.4203
484.2898, 884.6641
484.7719, 885.5768
485.2541, 887.3712
485.7362, 890.4206
486.2183, 892.7537
486.7004, 894.4023
487.1825, 895.0468
487.6646, 894.3087
488.1468, 890.5300
488.6289, 888.0124
489.1110, 887.5615
489.5931, 888.6415
490.0752, 889.4176
490.5573, 889.7582
491.0395, 890.1172
491.5216, 890.7321
492.0037, 891.6188
492.4858, 892.4537
492.9679, 893.2996
493.4500, 893.8992
493.9322, 893.6487
494.4143, 892.7470
494.8964, 892.5443
495.3785, 893.5037
495.8606, 894.9816
496.3427, 896.2633
496.8249, 897.2814
497.3070, 897.8163
497.7891, 896.7902
498.2712, 895.7365
498.7533, 896.7606
499.2354, 899.9747
499.7176, 902.6654
500.1997, 902.3619
500.6818, 901.2047
501.1639, 901.2367
501.6460, 903.8134
502.1281, 906.3606
502.6103, 908.5498
503.0924, 910.2213
503.5745, 910.9714
504.0566, 909.1670
504.5387, 908.0830
505.0208, 908.6984
505.5030, 911.0822
505.9851, 913.4713
506.4672, 915.8895
506.9493, 918.2615
507.4314, 920.2600
507.9135, 921.4977
508.3957, 924.6000
508.8778, 930.5261
509.3599, 937.1038
509.8420, 939.8558
510.3241, 938.8640
510.8062, 939.1971
511.2884, 943.4412
511.7705, 949.9744
512.2526, 954.8896
512.7347, 958.3024
513.2168, 961.2871
513.6989, 964.6832
514.1810, 968.1122
514.6631, 971.0969
515.1453, 973.6068
515.6274, 975.5359
516.1095, 976.7984
516.5916, 977.4750
517.0737, 977.6719
517.5558, 977.4589
518.0380, 976.7438
518.5201, 974.9415
519.0022, 972.4171
519.4843, 970.8864
519.9664, 971.6407
520.4485, 972.5657
520.9307, 972.7617
521.4128, 971.9446
521.8949, 971.6331
522.3770, 972.3820
522.8591, 973.0158
523.3412, 971.9656
523.8234, 968.5142
524.3055, 966.8784
524.7876, 968.1010
525.2697, 970.9732
525.7518, 972.5292
526.2339, 972.7878
526.7161, 973.5162
527.1982, 976.0286
527.6803, 979.5917
528.1624, 982.2350
528.6445, 984.0021
529.1266, 985.6267
529.6088, 988.7549
530.0909, 991.7676
530.5730, 992.1625
531.0551, 988.8632
531.5372, 984.5383
532.0193, 980.1598
532.5015, 975.9133
532.9836, 972.1498
533.4657, 970.0369
533.9478, 967.2990
534.4299, 962.4968
534.9120, 955.9725
535.3942, 950.7060
535.8763, 948.0409
536.3584, 945.7270
536.8405, 942.7740
537.3226, 938.8023
537.8047, 935.7624
538.2869, 933.8652
538.7690, 932.6619
539.2511, 931.8732
539.7332, 931.5998
540.2153, 930.7701
540.6974, 928.8830
541.1796, 926.7758
541.6617, 926.6281
542.1438, 928.2092
542.6259, 929.1542
543.1080, 927.3293
543.5901, 924.4117
544.0723, 923.1516
544.5544, 923.5322
545.0365, 924.5677
545.5186, 925.9659
546.0007, 927.4577
546.4828, 928.8831
546.9650, 930.4937
547.4471, 931.2804
547.9292, 929.9069
548.4113, 927.7321
548.8934, 926.6323
549.3755, 927.7919
549.8577, 929.1532
550.3398, 930.4843
550.8219, 931.7408
551.3040, 932.6518
551.7861, 933.1423
552.2682, 933.4290
552.7504, 933.5536
553.2325, 933.4897
553.7146, 933.4990
554.1967, 933.5316
554.6788, 933.7735
555.1609, 934.5425
555.6431, 935.7529
556.1252, 936.9362
556.6073, 938.1346
557.0894, 938.9775
557.5715, 938.4348
558.0536, 937.0450
558.5358, 936.3694
559.0179, 937.9543
559.5000, 939.9923
559.9821, 940.7702
560.4642, 940.4860
560.9464, 940.4954
561.4285, 941.9325
561.9106, 943.4702
562.3927, 944.1439
562.8748, 943.4103
563.3569, 943.1439
563.8391, 944.2552
564.3212, 945.5148
564.8033, 945.7029
565.2854, 943.5935
565.7675, 942.9656
566.2496, 944.8019
566.7318, 948.0011
567.2139, 949.7424
567.6960, 949.9267
568.1781, 949.6292
568.6602, 949.0935
569.1423, 948.4594
569.6245, 948.2531
570.1066, 948.4803
570.5887, 948.8917
571.0708, 949.2158
571.5529, 949.6354
572.0350, 950.4476
572.5172, 951.7120
572.9993, 953.2478
573.4814, 955.3887
573.9635, 957.5524
574.4456, 958.9953
574.9277, 958.7650
575.4099, 958.5711
575.8920, 959.0934
576.3741, 960.0074
576.8562, 960.4158
577.3383, 959.5117
577.8204, 958.9555
578.3026, 959.2074
578.7847, 960.2594
579.2668, 961.6440
579.7489, 963.6635
580.2310, 965.3166
580.7131, 965.6112
581.1953, 964.5779
581.6774, 964.3534
582.1595, 965.1638
582.6416, 966.2917
583.1237, 966.9729
583.6058, 967.2657
584.0880, 967.2554
584.5701, 966.6501
585.0522, 966.2748
585.5343, 967.4509
586.0164, 969.5214
586.4985, 970.8775
586.9807, 969.6122
587.4628, 968.5366
587.9449, 969.3842
588.4270, 972.1126
588.9091, 974.4879
589.3912, 976.4069
589.8734, 977.5888
590.3555, 977.7750
