##NAMES=Tremolite
##RRUFFID=R050173
##IDEAL CHEMISTRY=[box]Ca_2_Mg_5_Si_8_O_22_(OH)_2_
##LOCALITY=Fort Dauphin, Madagascar
##OWNER=RRUFF
##SOURCE=Marcus Origlieri
##DESCRIPTION=Mass of colorless acicular crystals
##STATUS=The identification of this mineral has been confirmed by X-ray diffraction and chemical analysis
##URL=rruff.info/R050173
##MEASURED CHEMISTRY=[box]Ca_2.00_Mg_5.00_Si_8.00_O_22_(OH)_2_
92.96582, 1029.458
93.44794, 1021.658
93.93005, 1023.600
94.41217, 1033.003
94.89429, 1036.926
95.37640, 1037.631
95.85852, 1036.751
96.34064, 1035.330
96.82275, 1034.356
97.30487, 1033.010
97.78699, 1030.097
98.26910, 1024.742
98.75122, 1019.817
99.23334, 1017.069
99.71545, 1015.915
100.1976, 1013.706
100.6797, 1012.519
101.1618, 1012.286
101.6439, 1012.104
102.1260, 1011.566
102.6081, 1010.731
103.0903, 1009.795
103.5724, 1008.430
104.0545, 1007.368
104.5366, 1006.835
105.0187, 1006.679
105.5008, 1006.666
105.9830, 1006.733
106.4651, 1006.887
106.9472, 1006.518
107.4293, 1004.050
107.9114, 1002.008
108.3935, 1001.257
108.8757, 1001.862
109.3578, 1003.453
109.8399, 1005.633
110.3220, 1008.707
110.8041, 1011.665
111.2862, 1014.101
111.7684, 1016.630
112.2505, 1019.792
112.7326, 1023.758
113.2147, 1028.165
113.6968, 1032.280
114.1789, 1036.010
114.6611, 1039.600
115.1432, 1042.418
115.6253, 1045.083
116.1074, 1048.989
116.5895, 1054.919
117.0716, 1062.344
117.5538, 1069.931
118.0359, 1078.743
118.5180, 1086.044
119.0001, 1089.203
119.4822, 1088.112
119.9643, 1086.458
120.4465, 1085.495
120.9286, 1085.208
121.4107, 1085.939
121.8928, 1088.547
122.3749, 1091.444
122.8570, 1092.033
123.3392, 1091.281
123.8213, 1085.678
124.3034, 1072.405
124.7855, 1054.939
125.2676, 1037.482
125.7497, 1022.446
126.2319, 1009.766
126.7140, 998.9203
127.1961, 992.4623
127.6782, 985.5805
128.1603, 976.1852
128.6424, 965.1977
129.1246, 955.1410
129.6067, 948.4301
130.0888, 945.9259
130.5709, 942.6443
131.0530, 937.2350
131.5351, 932.2267
132.0173, 929.1838
132.4994, 928.2507
132.9815, 928.4290
133.4636, 928.5228
133.9457, 928.4127
134.4278, 928.7049
134.9100, 929.3472
135.3921, 930.4337
135.8742, 931.9158
136.3563, 933.6581
136.8384, 936.2402
137.3205, 940.6744
137.8027, 946.8188
138.2848, 953.9130
138.7669, 963.1249
139.2490, 973.4921
139.7311, 981.0667
140.2132, 983.7611
140.6954, 983.8245
141.1775, 983.6458
141.6596, 983.2725
142.1417, 983.0600
142.6238, 983.4224
143.1059, 984.4529
143.5881, 985.4767
144.0702, 986.5828
144.5523, 987.4773
145.0344, 987.8103
145.5165, 987.4606
145.9986, 986.8709
146.4807, 986.7199
146.9629, 986.6139
147.4450, 987.8681
147.9271, 991.9952
148.4092, 996.7883
148.8913, 999.7775
149.3734, 999.7278
149.8556, 997.6644
150.3377, 997.7006
150.8198, 1001.639
151.3019, 1006.023
151.7840, 1010.786
152.2661, 1015.723
152.7483, 1020.457
153.2304, 1024.689
153.7125, 1028.551
154.1946, 1033.681
154.6767, 1039.771
155.1588, 1047.042
155.6410, 1055.038
156.1231, 1064.096
156.6052, 1075.290
157.0873, 1089.268
157.5694, 1106.432
158.0515, 1126.441
158.5337, 1157.152
159.0158, 1185.278
159.4979, 1200.859
159.9800, 1203.212
160.4621, 1195.527
160.9442, 1174.613
161.4264, 1144.620
161.9085, 1118.078
162.3906, 1098.147
162.8727, 1083.328
163.3548, 1071.316
163.8369, 1062.439
164.3191, 1055.588
164.8012, 1050.042
165.2833, 1045.726
165.7654, 1042.783
166.2475, 1041.340
166.7296, 1041.350
167.2118, 1042.610
167.6939, 1045.923
168.1760, 1049.658
168.6581, 1053.293
169.1402, 1056.705
169.6223, 1059.729
170.1045, 1061.958
170.5866, 1063.255
171.0687, 1065.337
171.5508, 1068.629
172.0329, 1072.396
172.5150, 1076.190
172.9972, 1080.155
173.4793, 1084.881
173.9614, 1091.062
174.4435, 1099.021
174.9256, 1107.416
175.4077, 1114.504
175.8899, 1123.260
176.3720, 1137.167
176.8541, 1155.768
177.3362, 1174.629
177.8183, 1188.519
178.3004, 1199.827
178.7826, 1197.395
179.2647, 1175.283
179.7468, 1144.107
180.2289, 1109.754
180.7110, 1074.222
181.1931, 1040.604
181.6752, 1014.105
182.1574, 996.3183
182.6395, 981.3747
183.1216, 969.0773
183.6037, 959.1523
184.0858, 951.6249
184.5679, 946.6219
185.0501, 943.5411
185.5322, 942.0850
186.0143, 942.4186
186.4964, 942.2803
186.9785, 940.1390
187.4606, 936.9048
187.9428, 934.9553
188.4249, 935.3224
188.9070, 936.7137
189.3891, 937.1624
189.8712, 936.5300
190.3533, 936.6606
190.8355, 939.3023
191.3176, 944.1152
191.7997, 948.1380
192.2818, 950.2734
192.7639, 951.6653
193.2460, 953.4374
193.7282, 955.6711
194.2103, 957.5764
194.6924, 958.1283
195.1745, 957.1359
195.6566, 956.7067
196.1387, 957.8692
196.6209, 959.3661
197.1030, 960.2742
197.5851, 960.5114
198.0672, 961.0634
198.5493, 963.1570
199.0314, 966.9951
199.5136, 971.8435
199.9957, 977.3334
200.4778, 983.8905
200.9599, 992.0302
201.4420, 1001.831
201.9241, 1012.675
202.4063, 1023.879
202.8884, 1036.549
203.3705, 1047.377
203.8526, 1056.962
204.3347, 1064.653
204.8168, 1069.598
205.2990, 1071.650
205.7811, 1071.901
206.2632, 1072.229
206.7453, 1071.271
207.2274, 1072.586
207.7095, 1077.705
208.1917, 1084.163
208.6738, 1089.477
209.1559, 1092.832
209.6380, 1095.480
210.1201, 1099.958
210.6022, 1107.212
211.0844, 1115.082
211.5665, 1124.086
212.0486, 1133.454
212.5307, 1142.500
213.0128, 1151.061
213.4949, 1158.713
213.9771, 1164.428
214.4592, 1167.788
214.9413, 1170.375
215.4234, 1172.026
215.9055, 1173.161
216.3876, 1174.284
216.8698, 1175.469
217.3519, 1177.039
217.8340, 1179.470
218.3161, 1182.215
218.7982, 1186.952
219.2803, 1194.697
219.7625, 1204.839
220.2446, 1216.097
220.7267, 1228.183
221.2088, 1241.110
221.6909, 1256.967
222.1730, 1277.251
222.6552, 1291.000
223.1373, 1293.099
223.6194, 1284.379
224.1015, 1266.932
224.5836, 1238.254
225.0657, 1204.284
225.5479, 1170.978
226.0300, 1138.145
226.5121, 1108.790
226.9942, 1084.447
227.4763, 1065.137
227.9584, 1050.129
228.4406, 1040.099
228.9227, 1034.251
229.4048, 1032.082
229.8869, 1033.382
230.3690, 1035.911
230.8511, 1038.582
231.3333, 1041.360
231.8154, 1042.935
232.2975, 1043.431
232.7796, 1042.180
233.2617, 1038.920
233.7438, 1033.649
234.2260, 1026.544
234.7081, 1017.068
235.1902, 1005.003
235.6723, 993.8506
236.1544, 983.4005
236.6365, 974.3359
237.1187, 967.3151
237.6008, 962.1326
238.0829, 957.9688
238.5650, 954.0709
239.0471, 950.3694
239.5292, 947.4332
240.0114, 945.4291
240.4935, 944.1071
240.9756, 943.6472
241.4577, 943.8777
241.9398, 944.3387
242.4219, 944.6168
242.9041, 944.6851
243.3862, 944.7901
243.8683, 944.8116
244.3504, 944.9941
244.8325, 945.2630
245.3146, 945.7529
245.7968, 946.8254
246.2789, 948.9471
246.7610, 952.3477
247.2431, 954.7970
247.7252, 954.9863
248.2073, 955.5554
248.6895, 957.9342
249.1716, 961.6409
249.6537, 965.3023
250.1358, 967.9191
250.6179, 969.5511
251.1000, 968.9025
251.5822, 964.8121
252.0643, 959.9354
252.5464, 954.6633
253.0285, 949.3151
253.5106, 944.3604
253.9927, 940.0858
254.4748, 936.5021
254.9570, 933.8239
255.4391, 932.7834
255.9212, 931.6962
256.4033, 929.5180
256.8854, 926.7692
257.3676, 924.8572
257.8497, 924.8818
258.3318, 926.6050
258.8139, 926.9915
259.2960, 924.9691
259.7781, 923.1125
260.2603, 921.9363
260.7424, 921.5779
261.2245, 922.3416
261.7066, 924.5292
262.1887, 927.8663
262.6708, 930.8839
263.1530, 934.9702
263.6351, 937.3696
264.1172, 936.7691
264.5993, 933.8615
265.0814, 929.8810
265.5635, 925.1525
266.0457, 920.1430
266.5278, 916.4826
267.0099, 914.5165
267.4920, 912.9227
267.9741, 911.5302
268.4562, 910.2014
268.9384, 908.4882
269.4204, 906.0180
269.9026, 903.4927
270.3847, 902.7147
270.8668, 904.2347
271.3489, 905.4127
271.8310, 904.9535
272.3131, 903.6374
272.7953, 902.9775
273.2774, 903.5033
273.7595, 904.6699
274.2416, 905.8242
274.7237, 907.0906
275.2058, 907.7643
275.6880, 907.4053
276.1701, 906.3674
276.6522, 905.1592
277.1343, 903.7955
277.6164, 902.5735
278.0985, 901.8329
278.5807, 901.5066
279.0628, 901.6935
279.5449, 902.9816
280.0270, 904.6319
280.5091, 905.2932
280.9912, 904.5462
281.4734, 903.7761
281.9555, 904.6075
282.4376, 906.6649
282.9197, 908.5115
283.4018, 910.2850
283.8839, 911.4426
284.3661, 910.7402
284.8482, 907.7666
285.3303, 905.0963
285.8124, 905.3740
286.2945, 907.5025
286.7766, 908.8213
287.2588, 907.8039
287.7409, 906.2593
288.2230, 906.6259
288.7051, 909.1152
289.1872, 911.2225
289.6693, 911.2969
290.1515, 910.0068
290.6336, 908.4744
291.1157, 906.5574
291.5978, 904.8198
292.0799, 904.0031
292.5620, 904.1157
293.0442, 904.0595
293.5263, 903.2698
294.0084, 902.0707
294.4905, 900.7967
294.9726, 899.2645
295.4547, 898.2365
295.9369, 898.6832
296.4190, 900.4800
296.9011, 901.9652
297.3832, 902.5731
297.8653, 902.6378
298.3474, 902.3892
298.8296, 901.7509
299.3117, 901.5891
299.7938, 902.8456
300.2759, 905.2286
300.7580, 907.2410
301.2401, 908.8131
301.7223, 909.5438
302.2044, 908.9002
302.6865, 907.0311
303.1686, 905.2119
303.6507, 904.5692
304.1328, 904.5499
304.6150, 903.2607
305.0971, 900.0717
305.5792, 896.4523
306.0613, 893.4924
306.5434, 891.0006
307.0255, 888.5313
307.5077, 885.3951
307.9898, 882.2512
308.4719, 880.4828
308.9540, 880.2595
309.4361, 880.9426
309.9182, 883.0782
310.4004, 885.7000
310.8825, 887.2596
311.3646, 886.8772
311.8467, 885.6264
312.3288, 884.9779
312.8109, 885.0192
313.2931, 885.0781
313.7752, 884.7797
314.2573, 884.3611
314.7394, 884.1439
315.2215, 884.2922
315.7036, 884.3545
316.1858, 883.6232
316.6679, 882.1082
317.1500, 881.2253
317.6321, 881.8235
318.1142, 882.9550
318.5963, 883.6448
319.0785, 883.8185
319.5606, 883.8729
320.0427, 884.0238
320.5248, 884.2746
321.0069, 884.5905
321.4890, 884.7395
321.9712, 885.3058
322.4533, 887.0045
322.9354, 889.6602
323.4175, 892.0869
323.8996, 893.5910
324.3817, 894.4276
324.8639, 895.2338
325.3460, 896.0355
325.8281, 896.8683
326.3102, 897.7215
326.7923, 898.6141
327.2744, 899.6249
327.7566, 901.1312
328.2387, 902.5915
328.7208, 902.8105
329.2029, 901.4571
329.6850, 900.7823
330.1671, 902.5246
330.6493, 905.6154
331.1314, 908.6506
331.6135, 911.6160
332.0956, 914.0793
332.5777, 915.3451
333.0598, 915.4606
333.5420, 915.8053
334.0241, 917.1744
334.5062, 918.7941
334.9883, 919.6560
335.4704, 919.6597
335.9525, 919.3224
336.4347, 918.6486
336.9168, 917.8273
337.3989, 917.6843
337.8810, 918.6542
338.3631, 919.9336
338.8452, 920.4407
339.3274, 920.2740
339.8094, 920.7247
340.2916, 922.4579
340.7737, 925.0917
341.2558, 928.2151
341.7379, 931.9775
342.2200, 935.4224
342.7021, 937.8475
343.1843, 939.3312
343.6664, 939.9199
344.1485, 939.3811
344.6306, 938.1042
345.1127, 936.1700
345.5948, 933.6055
346.0770, 931.2752
346.5591, 929.4191
347.0412, 928.3065
347.5233, 928.3679
348.0054, 930.2247
348.4875, 932.2500
348.9697, 933.3980
349.4518, 933.9050
349.9339, 934.5635
350.4160, 935.6707
350.8981, 937.0308
351.3802, 938.5425
351.8624, 940.4442
352.3445, 941.4094
352.8266, 941.0768
353.3087, 939.5375
353.7908, 936.5105
354.2729, 931.7957
354.7551, 926.9730
355.2372, 923.7380
355.7193, 922.1390
356.2014, 920.8956
356.6835, 919.9158
357.1656, 919.2495
357.6478, 919.2673
358.1299, 919.8459
358.6120, 919.8478
359.0941, 918.1464
359.5762, 915.1931
360.0583, 913.9821
360.5405, 915.4242
361.0226, 917.4056
361.5047, 919.2262
361.9868, 920.9316
362.4689, 922.7386
362.9510, 924.7687
363.4332, 926.8048
363.9153, 928.2302
364.3974, 928.6165
364.8795, 929.2727
365.3616, 929.7899
365.8438, 930.9310
366.3259, 933.8979
366.8080, 938.8797
367.2901, 944.4426
367.7722, 948.9267
368.2543, 952.1056
368.7365, 954.9008
369.2186, 958.1512
369.7007, 960.3427
370.1828, 960.5208
370.6649, 958.8189
371.1470, 955.8276
371.6292, 951.8351
372.1113, 946.9576
372.5934, 942.5851
373.0755, 937.7916
373.5576, 934.5470
374.0397, 934.1150
374.5219, 935.2941
375.0040, 936.6301
375.4861, 937.5016
375.9682, 937.8511
376.4503, 937.5529
376.9324, 936.4223
377.4146, 934.8326
377.8967, 932.5200
378.3788, 929.9873
378.8609, 927.5750
379.3430, 925.3360
379.8251, 923.0731
380.3073, 920.4323
380.7894, 917.1889
381.2715, 915.1666
381.7536, 914.7620
382.2357, 915.1708
382.7178, 916.5367
383.2000, 918.5001
383.6821, 920.4758
384.1642, 922.0930
384.6463, 923.4681
385.1284, 925.1008
385.6105, 927.3152
386.0927, 929.2412
386.5748, 930.1866
387.0569, 931.1020
387.5390, 933.0701
388.0211, 936.3848
388.5032, 940.0540
388.9854, 942.2917
389.4675, 942.4760
389.9496, 944.6508
390.4317, 951.4195
390.9138, 958.5323
391.3959, 963.8304
391.8781, 967.4968
392.3602, 970.9676
392.8423, 975.9011
393.3244, 981.5961
393.8065, 984.6002
394.2886, 984.5181
394.7708, 982.3557
395.2529, 978.8355
395.7350, 973.6542
396.2171, 966.0538
396.6992, 955.2871
397.1813, 943.0389
397.6635, 930.7609
398.1456, 918.3900
398.6277, 907.4391
399.1098, 898.3972
399.5919, 891.2022
400.0740, 885.8030
400.5562, 882.2178
401.0383, 879.4483
401.5204, 877.2311
402.0025, 875.3781
402.4846, 873.2928
402.9667, 870.7484
403.4489, 868.4843
403.9310, 867.4084
404.4131, 867.2166
404.8952, 866.8820
405.3773, 865.7908
405.8594, 864.8089
406.3416, 864.8526
406.8237, 865.8033
407.3058, 866.7328
407.7879, 867.0571
408.2700, 867.1870
408.7521, 868.2379
409.2343, 870.5977
409.7164, 872.8719
410.1985, 874.3311
410.6806, 875.5445
411.1627, 877.5665
411.6448, 880.6620
412.1269, 883.6672
412.6090, 885.0527
413.0912, 884.3200
413.5733, 884.5516
414.0554, 887.2245
414.5375, 889.4962
415.0196, 889.3615
415.5017, 887.3105
415.9839, 885.2459
416.4660, 884.4291
416.9481, 884.4192
417.4302, 883.1030
417.9123, 879.3446
418.3944, 875.6156
418.8766, 871.7914
419.3587, 868.2624
419.8408, 865.6970
420.3229, 864.1632
420.8050, 862.7089
421.2871, 859.9162
421.7693, 855.1503
422.2514, 851.4119
422.7335, 849.1617
423.2156, 847.4142
423.6977, 846.0803
424.1798, 844.9202
424.6620, 843.4416
425.1441, 841.1811
425.6262, 838.5646
426.1083, 837.3530
426.5904, 838.4915
427.0725, 839.2346
427.5547, 838.6371
428.0368, 837.6000
428.5189, 836.8020
429.0010, 836.4158
429.4831, 836.4567
429.9652, 837.1754
430.4474, 838.5742
430.9295, 839.4247
431.4116, 839.0177
431.8937, 838.8230
432.3758, 840.1735
432.8579, 842.4781
433.3401, 844.0413
433.8222, 843.4922
434.3043, 842.1633
434.7864, 842.5861
435.2685, 844.9973
435.7506, 846.4358
436.2328, 844.8813
436.7149, 841.9658
437.1970, 840.5579
437.6791, 841.2697
438.1612, 841.5575
438.6433, 839.6965
439.1255, 836.5130
439.6076, 833.7642
440.0897, 831.8521
440.5718, 830.0571
441.0539, 827.2022
441.5360, 823.3637
442.0182, 821.8090
442.5003, 824.4615
442.9824, 827.8873
443.4645, 829.9999
443.9466, 831.0291
444.4287, 832.0394
444.9109, 833.6428
445.3930, 835.3906
445.8751, 836.0500
446.3572, 834.3795
446.8393, 833.4887
447.3214, 833.9519
447.8036, 834.9781
448.2857, 835.9408
448.7678, 836.7258
449.2499, 837.5224
449.7320, 838.5063
450.2141, 839.6808
450.6963, 840.9725
451.1784, 842.9691
451.6605, 844.4445
452.1426, 844.6220
452.6247, 844.2453
453.1068, 844.4561
453.5890, 845.7438
454.0711, 847.3729
454.5532, 847.7083
455.0353, 845.9931
455.5174, 845.6437
455.9995, 848.3530
456.4817, 851.5265
456.9638, 853.6779
457.4459, 855.0226
457.9280, 856.8149
458.4101, 860.2538
458.8922, 864.7125
459.3744, 868.1317
459.8565, 870.2385
460.3386, 872.1806
460.8207, 874.6299
461.3028, 877.1520
461.7849, 879.2276
462.2671, 880.7845
462.7492, 881.8815
463.2313, 882.7899
463.7134, 883.2916
464.1955, 882.7198
464.6776, 880.9297
465.1598, 878.0632
465.6419, 873.8021
466.1240, 868.3287
466.6061, 863.3281
467.0882, 859.4376
467.5703, 855.7210
468.0525, 851.0957
468.5346, 846.0015
469.0167, 841.9592
469.4988, 839.7991
469.9809, 838.8229
470.4630, 837.3976
470.9452, 835.3417
471.4273, 833.1332
471.9094, 830.7049
472.3915, 828.1757
472.8736, 825.2717
473.3557, 822.2303
473.8379, 820.0862
474.3200, 819.9169
474.8021, 821.5127
475.2842, 821.5735
475.7663, 818.1463
476.2484, 815.5580
476.7306, 815.1035
477.2127, 815.5154
477.6948, 815.3486
478.1769, 814.2073
478.6590, 812.9410
479.1411, 812.9593
479.6233, 814.4915
480.1054, 814.6393
480.5875, 811.9489
481.0696, 809.4096
481.5517, 808.6669
482.0338, 809.1463
482.5159, 809.5410
482.9980, 809.1068
483.4802, 808.6082
483.9623, 809.5696
484.4444, 811.9993
484.9265, 813.2010
485.4086, 811.6981
485.8907, 809.2216
486.3729, 808.0541
486.8550, 808.2280
487.3371, 808.3969
487.8192, 808.3253
488.3013, 807.8887
488.7834, 806.5889
489.2656, 804.5092
489.7477, 802.9466
490.2298, 802.8312
490.7119, 803.8525
491.1940, 804.4990
491.6761, 804.9814
492.1583, 804.8967
492.6404, 803.6805
493.1225, 802.1024
493.6046, 800.9973
494.0867, 800.5351
494.5688, 800.3981
495.0510, 800.2559
495.5331, 800.0939
496.0152, 800.1129
496.4973, 800.4568
496.9794, 800.8272
497.4615, 801.3464
497.9437, 801.7821
498.4258, 801.7189
498.9079, 801.0023
499.3900, 800.1629
499.8721, 800.1618
500.3542, 801.1885
500.8364, 801.5090
501.3185, 799.9188
501.8006, 798.7598
502.2827, 799.8509
502.7648, 802.3985
503.2469, 804.2830
503.7291, 804.2204
504.2112, 803.3892
504.6933, 803.6191
505.1754, 804.8577
505.6575, 805.2939
506.1396, 803.7966
506.6218, 801.7836
507.1039, 801.4309
507.5860, 802.8067
508.0681, 804.2680
508.5502, 805.4518
509.0323, 806.4864
509.5145, 807.3979
509.9966, 808.2441
510.4787, 809.2738
510.9608, 810.6650
511.4429, 812.3304
511.9250, 813.9003
512.4072, 815.4101
512.8893, 816.7616
513.3714, 817.7993
513.8535, 818.7669
514.3356, 820.2275
514.8177, 821.9987
515.2999, 822.9697
515.7820, 821.8945
516.2641, 818.9961
516.7462, 817.3146
517.2283, 817.8527
517.7104, 818.1516
518.1926, 817.3849
518.6747, 816.2457
519.1568, 815.4417
519.6389, 815.1430
520.1210, 814.9763
520.6031, 814.4324
521.0853, 813.6389
521.5674, 813.5922
522.0495, 814.8006
522.5316, 815.7313
523.0137, 814.6328
523.4958, 812.6044
523.9780, 811.9113
524.4601, 813.7576
524.9422, 815.6126
525.4243, 815.5033
525.9064, 814.1835
526.3885, 813.4259
526.8707, 813.7031
527.3528, 814.4011
527.8349, 814.8490
528.3170, 815.0053
528.7991, 815.2913
529.2813, 816.3143
529.7634, 816.8104
530.2455, 816.1760
530.7276, 814.6758
531.2097, 812.7693
531.6918, 810.6400
532.1740, 808.1974
532.6561, 805.1822
533.1382, 801.3595
533.6203, 797.8430
534.1024, 794.0674
534.5845, 791.1959
535.0667, 790.4305
535.5488, 790.7911
536.0309, 790.3478
536.5130, 788.0987
536.9951, 785.0377
537.4772, 782.3680
537.9594, 780.0750
538.4415, 778.8391
538.9236, 779.4265
539.4057, 780.2811
539.8878, 779.5423
540.3699, 777.5903
540.8521, 776.6176
541.3342, 778.4862
541.8163, 780.5729
542.2984, 780.4991
542.7805, 778.6319
543.2626, 776.4047
543.7448, 774.3250
544.2269, 772.4688
544.7090, 770.9337
545.1911, 769.5975
545.6732, 769.0319
546.1553, 769.5424
546.6375, 770.5204
547.1196, 772.0828
547.6017, 773.8087
548.0838, 774.7504
548.5659, 774.3586
549.0480, 773.2912
549.5302, 773.1574
550.0123, 774.4657
550.4944, 775.1815
550.9765, 774.4220
551.4586, 773.5749
551.9407, 773.4971
552.4229, 773.9377
552.9050, 773.9754
553.3871, 772.7542
553.8692, 771.2986
554.3513, 771.7077
554.8334, 773.9201
555.3156, 774.6649
555.7977, 772.0586
556.2798, 768.7002
556.7619, 768.6497
557.2440, 771.8463
557.7261, 773.8640
558.2083, 772.8211
558.6904, 771.1768
559.1725, 770.9542
559.6546, 771.7821
560.1367, 772.2637
560.6188, 771.7400
561.1010, 770.5245
561.5831, 769.1768
562.0652, 767.1261
562.5473, 766.2891
563.0294, 767.6607
563.5115, 769.1005
563.9937, 769.4628
564.4758, 769.0538
564.9579, 768.7851
565.4400, 769.1803
565.9221, 769.7342
566.4042, 769.3851
566.8864, 767.9861
567.3685, 766.8532
567.8506, 766.0803
568.3327, 765.8199
568.8148, 766.5298
569.2969, 767.8749
569.7791, 768.5878
570.2612, 767.7447
570.7433, 766.5551
571.2254, 766.0941
571.7075, 766.2064
572.1896, 766.3288
572.6718, 766.2613
573.1539, 766.2195
573.6360, 766.5071
574.1181, 767.2148
574.6002, 767.8528
575.0823, 768.6278
575.5645, 769.1250
576.0466, 769.2553
576.5287, 768.9658
577.0108, 768.0067
577.4929, 766.3163
577.9750, 764.5311
578.4572, 763.5732
578.9393, 763.5010
579.4214, 763.9280
579.9035, 765.4243
580.3856, 766.6788
580.8677, 766.9563
581.3499, 766.6808
581.8320, 766.5305
582.3141, 766.7387
582.7962, 766.9830
583.2783, 767.1633
583.7604, 767.1581
584.2426, 766.2372
584.7247, 764.0620
585.2068, 762.4801
585.6889, 763.4363
586.1710, 766.5312
586.6531, 768.0745
587.1352, 766.6797
587.6173, 765.5188
588.0994, 765.8555
588.5815, 766.6991
589.0637, 766.8575
589.5458, 766.1492
