##NAMES=Tremolite
##RRUFFID=R040045
##IDEAL CHEMISTRY=[box]Ca_2_Mg_5_Si_8_O_22_(OH)_2_
##LOCALITY=Gouverneur, New York, USA
##OWNER=RRUFF
##SOURCE=University of Arizona Mineral Museum
##DESCRIPTION=Group of colorless acicular single crystals
##STATUS=The identification of this mineral has been confirmed by X-ray diffraction and chemical analysis
##URL=rruff.info/R040045
##MEASURED CHEMISTRY=Ca_2.01_(Mg_0.99_Fe_0.01_)_5_(Si_0.99_Fe_0.01_)_8_O_22_(OH)_2_
141.9265, 4846.628
142.4086, 4845.594
142.8907, 4850.105
143.3728, 4865.585
143.8550, 4894.175
144.3371, 4913.560
144.8192, 4921.316
145.3013, 4921.847
145.7834, 4920.808
146.2655, 4915.562
146.7477, 4913.160
147.2298, 4916.534
147.7119, 4928.789
148.1940, 4938.323
148.6761, 4944.556
149.1582, 4948.362
149.6404, 4951.051
150.1225, 4947.778
150.6046, 4948.256
151.0867, 4956.113
151.5688, 4977.735
152.0509, 4997.164
152.5331, 5013.572
153.0152, 5027.653
153.4973, 5041.141
153.9794, 5052.359
154.4615, 5063.834
154.9436, 5076.704
155.4258, 5093.382
155.9079, 5108.275
156.3900, 5117.597
156.8721, 5123.344
157.3542, 5135.611
157.8363, 5157.517
158.3185, 5185.387
158.8006, 5217.271
159.2827, 5260.359
159.7648, 5299.647
160.2469, 5335.359
160.7290, 5366.534
161.2112, 5383.673
161.6933, 5370.752
162.1754, 5348.833
162.6575, 5335.436
163.1396, 5347.042
163.6217, 5357.992
164.1039, 5357.970
164.5860, 5346.899
165.0681, 5331.131
165.5502, 5306.194
166.0323, 5280.396
166.5145, 5262.829
166.9966, 5262.536
167.4787, 5267.132
167.9608, 5269.103
168.4429, 5267.894
168.9250, 5268.020
169.4071, 5272.099
169.8893, 5279.327
170.3714, 5288.411
170.8535, 5299.878
171.3356, 5312.413
171.8177, 5323.390
172.2998, 5331.819
172.7820, 5344.856
173.2641, 5369.040
173.7462, 5401.977
174.2283, 5438.547
174.7104, 5474.829
175.1925, 5514.334
175.6747, 5559.211
176.1568, 5608.804
176.6389, 5668.062
177.1210, 5753.080
177.6031, 5854.518
178.0852, 5943.870
178.5674, 6024.142
179.0495, 6078.307
179.5316, 6075.461
180.0137, 6003.501
180.4958, 5897.094
180.9779, 5780.641
181.4601, 5658.046
181.9422, 5551.422
182.4243, 5477.493
182.9064, 5429.340
183.3885, 5391.376
183.8706, 5361.675
184.3528, 5340.642
184.8349, 5331.590
185.3170, 5333.560
185.7991, 5336.737
186.2812, 5331.784
186.7633, 5321.802
187.2455, 5318.669
187.7276, 5326.113
188.2097, 5338.555
188.6918, 5345.635
189.1739, 5347.298
189.6560, 5348.151
190.1382, 5350.562
190.6203, 5354.792
191.1024, 5363.167
191.5845, 5378.354
192.0666, 5396.074
192.5487, 5406.476
193.0309, 5409.415
193.5130, 5407.631
193.9951, 5402.018
194.4772, 5392.831
194.9593, 5383.735
195.4414, 5374.915
195.9236, 5366.855
196.4057, 5360.884
196.8878, 5356.710
197.3699, 5355.930
197.8520, 5361.773
198.3341, 5374.519
198.8163, 5384.123
199.2984, 5386.912
199.7805, 5385.060
200.2626, 5390.016
200.7447, 5403.442
201.2268, 5417.089
201.7090, 5421.396
202.1911, 5415.089
202.6732, 5411.586
203.1553, 5413.417
203.6374, 5420.525
204.1195, 5433.709
204.6017, 5454.604
205.0838, 5477.364
205.5659, 5497.014
206.0480, 5513.738
206.5301, 5526.067
207.0122, 5531.380
207.4944, 5530.854
207.9765, 5538.120
208.4586, 5555.455
208.9407, 5575.845
209.4228, 5591.211
209.9049, 5599.491
210.3871, 5610.921
210.8692, 5628.365
211.3513, 5651.493
211.8334, 5674.619
212.3155, 5697.036
212.7976, 5720.674
213.2798, 5749.105
213.7619, 5785.696
214.2440, 5817.148
214.7261, 5840.605
215.2082, 5855.883
215.6903, 5865.495
216.1725, 5866.575
216.6546, 5865.869
217.1367, 5869.643
217.6188, 5876.179
218.1009, 5891.757
218.5830, 5918.685
219.0651, 5957.618
219.5473, 6000.849
220.0294, 6048.891
220.5115, 6101.369
220.9936, 6157.076
221.4757, 6216.135
221.9578, 6280.022
222.4400, 6357.304
222.9221, 6452.558
223.4042, 6507.514
223.8863, 6518.298
224.3684, 6494.633
224.8505, 6443.321
225.3327, 6352.065
225.8148, 6259.983
226.2969, 6173.842
226.7790, 6091.640
227.2611, 6028.530
227.7432, 5985.748
228.2254, 5959.548
228.7075, 5945.967
229.1896, 5946.578
229.6717, 5956.826
230.1538, 5978.082
230.6359, 6011.555
231.1181, 6042.733
231.6002, 6073.538
232.0823, 6100.211
232.5644, 6119.234
233.0465, 6133.336
233.5286, 6134.555
234.0108, 6119.499
234.4929, 6086.853
234.9750, 6049.579
235.4571, 6004.608
235.9392, 5958.471
236.4213, 5917.666
236.9035, 5883.188
237.3856, 5852.776
237.8677, 5825.862
238.3498, 5802.126
238.8319, 5784.108
239.3140, 5774.006
239.7962, 5767.678
240.2783, 5760.389
240.7604, 5749.567
241.2425, 5742.837
241.7246, 5743.171
242.2067, 5751.143
242.6889, 5755.075
243.1710, 5752.029
243.6531, 5747.692
244.1352, 5747.444
244.6173, 5751.640
245.0994, 5759.075
245.5816, 5769.490
246.0637, 5782.853
246.5458, 5799.604
247.0279, 5821.079
247.5100, 5844.675
247.9921, 5868.220
248.4743, 5893.778
248.9564, 5915.750
249.4385, 5933.688
249.9206, 5947.614
250.4027, 5956.337
250.8848, 5958.415
251.3670, 5957.013
251.8491, 5955.337
252.3312, 5955.784
252.8133, 5950.440
253.2954, 5935.733
253.7775, 5912.487
254.2597, 5895.011
254.7418, 5885.470
255.2239, 5878.786
255.7060, 5870.826
256.1881, 5860.239
256.6702, 5851.208
257.1523, 5844.109
257.6345, 5838.919
258.1166, 5835.753
258.5987, 5835.245
259.0808, 5835.856
259.5629, 5835.899
260.0450, 5833.509
260.5272, 5836.361
261.0093, 5848.736
261.4914, 5867.577
261.9735, 5874.511
262.4556, 5864.634
262.9377, 5851.417
263.4199, 5843.786
263.9020, 5843.130
264.3841, 5843.894
264.8662, 5846.358
265.3483, 5849.793
265.8304, 5851.294
266.3126, 5850.424
266.7947, 5848.724
267.2768, 5847.101
267.7589, 5845.650
268.2410, 5843.955
268.7231, 5841.464
269.2053, 5839.031
269.6874, 5839.128
270.1695, 5842.181
270.6516, 5846.655
271.1337, 5852.003
271.6158, 5858.527
272.0980, 5863.961
272.5801, 5867.224
273.0622, 5869.986
273.5443, 5876.612
274.0264, 5887.867
274.5085, 5899.398
274.9907, 5909.694
275.4728, 5919.002
275.9549, 5923.397
276.4370, 5921.241
276.9191, 5916.218
277.4012, 5915.413
277.8834, 5919.618
278.3655, 5924.132
278.8476, 5926.704
279.3297, 5927.369
279.8118, 5930.078
280.2939, 5935.923
280.7761, 5941.997
281.2582, 5942.212
281.7403, 5935.831
282.2224, 5933.018
282.7045, 5939.229
283.1866, 5953.547
283.6688, 5964.588
284.1509, 5971.486
284.6330, 5977.635
285.1151, 5988.308
285.5972, 6003.399
286.0793, 6016.147
286.5615, 6022.214
287.0436, 6023.772
287.5257, 6031.945
288.0078, 6047.470
288.4899, 6065.578
288.9720, 6082.354
289.4542, 6097.803
289.9363, 6112.329
290.4184, 6128.723
290.9005, 6143.187
291.3826, 6143.258
291.8647, 6128.288
292.3469, 6109.222
292.8290, 6094.479
293.3111, 6083.626
293.7932, 6073.889
294.2753, 6064.157
294.7574, 6055.621
295.2396, 6051.144
295.7217, 6050.565
296.2038, 6051.713
296.6859, 6053.729
297.1680, 6056.239
297.6501, 6057.982
298.1323, 6058.206
298.6144, 6058.655
299.0965, 6060.980
299.5786, 6065.467
300.0607, 6073.312
300.5428, 6089.618
301.0250, 6109.097
301.5071, 6121.538
301.9892, 6124.250
302.4713, 6123.378
302.9534, 6124.689
303.4355, 6127.888
303.9177, 6132.204
304.3998, 6140.417
304.8819, 6148.106
305.3640, 6147.668
305.8461, 6137.130
306.3282, 6126.363
306.8104, 6125.557
307.2925, 6131.024
307.7746, 6135.103
308.2567, 6132.841
308.7388, 6128.527
309.2209, 6125.772
309.7031, 6124.864
310.1852, 6125.409
310.6673, 6126.305
311.1494, 6128.728
311.6315, 6134.279
312.1136, 6149.278
312.5958, 6163.242
313.0779, 6167.738
313.5600, 6163.300
314.0421, 6158.640
314.5242, 6158.908
315.0063, 6160.927
315.4885, 6161.492
315.9706, 6156.850
316.4527, 6153.204
316.9348, 6153.848
317.4169, 6158.055
317.8990, 6162.681
318.3812, 6165.653
318.8633, 6169.173
319.3454, 6175.198
319.8275, 6187.846
320.3096, 6197.590
320.7917, 6201.010
321.2739, 6199.598
321.7560, 6196.916
322.2381, 6191.533
322.7202, 6187.183
323.2023, 6185.363
323.6844, 6185.728
324.1666, 6190.044
324.6487, 6202.590
325.1308, 6218.451
325.6129, 6229.895
326.0950, 6231.788
326.5771, 6232.722
327.0593, 6233.850
327.5414, 6233.741
328.0235, 6239.647
328.5056, 6257.911
328.9877, 6279.741
329.4698, 6295.710
329.9520, 6298.601
330.4341, 6304.167
330.9162, 6315.693
331.3983, 6333.413
331.8804, 6350.950
332.3625, 6371.499
332.8447, 6389.075
333.3268, 6399.312
333.8089, 6400.253
334.2910, 6397.591
334.7731, 6391.767
335.2552, 6382.813
335.7374, 6370.091
336.2195, 6349.522
336.7016, 6331.500
337.1837, 6321.896
337.6658, 6322.350
338.1479, 6326.298
338.6301, 6334.911
339.1122, 6345.638
339.5943, 6351.526
340.0764, 6350.223
340.5585, 6351.470
341.0406, 6360.748
341.5227, 6378.817
342.0049, 6394.653
342.4870, 6408.752
342.9691, 6419.845
343.4512, 6424.943
343.9333, 6423.748
344.4154, 6422.136
344.8976, 6421.773
345.3797, 6422.689
345.8618, 6425.463
346.3439, 6430.433
346.8260, 6435.443
347.3081, 6437.404
347.7903, 6437.024
348.2724, 6439.026
348.7545, 6444.659
349.2366, 6453.343
349.7187, 6464.625
350.2008, 6478.487
350.6830, 6492.894
351.1651, 6507.243
351.6472, 6521.083
352.1293, 6533.465
352.6114, 6544.741
353.0935, 6552.897
353.5757, 6556.048
354.0578, 6554.202
354.5399, 6547.522
355.0220, 6528.809
355.5041, 6508.444
355.9862, 6501.292
356.4684, 6510.167
356.9505, 6520.900
357.4326, 6521.422
357.9147, 6516.552
358.3968, 6514.118
358.8789, 6520.945
359.3611, 6528.497
359.8432, 6528.708
360.3253, 6521.929
360.8074, 6519.114
361.2895, 6526.379
361.7716, 6539.911
362.2538, 6556.327
362.7359, 6577.595
363.2180, 6598.467
363.7001, 6614.618
364.1822, 6628.352
364.6643, 6647.553
365.1465, 6674.544
365.6286, 6707.946
366.1107, 6747.634
366.5928, 6796.566
367.0749, 6846.315
367.5570, 6895.124
368.0392, 6944.325
368.5213, 6996.397
369.0034, 7063.298
369.4855, 7121.012
369.9676, 7166.774
370.4497, 7203.609
370.9319, 7210.427
371.4140, 7178.234
371.8961, 7121.104
372.3782, 7050.627
372.8603, 6951.839
373.3424, 6865.751
373.8246, 6799.659
374.3067, 6752.542
374.7888, 6711.429
375.2709, 6676.001
375.7530, 6647.305
376.2351, 6626.382
376.7173, 6614.737
377.1994, 6606.470
377.6815, 6602.345
378.1636, 6600.587
378.6457, 6596.728
379.1278, 6590.280
379.6100, 6584.926
380.0921, 6582.495
380.5742, 6582.937
381.0563, 6583.940
381.5384, 6585.322
382.0205, 6587.728
382.5027, 6591.265
382.9848, 6596.087
383.4669, 6603.996
383.9490, 6616.419
384.4311, 6631.827
384.9132, 6647.194
385.3954, 6662.409
385.8775, 6677.543
386.3596, 6692.840
386.8417, 6707.839
387.3238, 6721.070
387.8059, 6730.349
388.2881, 6741.424
388.7702, 6758.493
389.2523, 6782.154
389.7344, 6814.140
390.2165, 6861.438
390.6986, 6914.522
391.1808, 6963.983
391.6629, 7008.935
392.1450, 7053.970
392.6271, 7105.353
393.1092, 7157.454
393.5913, 7202.374
394.0735, 7241.339
394.5556, 7269.599
395.0377, 7291.815
395.5198, 7305.893
396.0019, 7290.099
396.4840, 7214.841
396.9662, 7121.564
397.4483, 7037.280
397.9304, 6969.315
398.4125, 6906.544
398.8946, 6844.277
399.3767, 6785.868
399.8589, 6739.678
400.3410, 6709.532
400.8231, 6688.619
401.3052, 6676.067
401.7873, 6674.105
402.2694, 6671.607
402.7516, 6668.477
403.2337, 6664.799
403.7158, 6660.290
404.1979, 6653.212
404.6800, 6649.294
405.1621, 6650.860
405.6443, 6656.917
406.1264, 6658.788
406.6085, 6654.316
407.0906, 6651.647
407.5727, 6659.042
408.0548, 6677.978
408.5370, 6687.698
409.0191, 6683.725
409.5012, 6674.246
409.9833, 6673.588
410.4654, 6681.651
410.9475, 6693.048
411.4297, 6705.296
411.9118, 6718.738
412.3939, 6735.390
412.8760, 6755.167
413.3581, 6775.284
413.8402, 6793.613
414.3224, 6810.046
414.8045, 6825.202
415.2866, 6841.585
415.7687, 6853.987
416.2508, 6854.302
416.7329, 6844.624
417.2151, 6834.147
417.6972, 6832.302
418.1793, 6830.271
418.6614, 6818.466
419.1435, 6793.889
419.6256, 6766.648
420.1078, 6739.408
420.5899, 6713.961
421.0720, 6691.940
421.5541, 6677.970
422.0362, 6664.170
422.5183, 6643.897
423.0005, 6617.520
423.4826, 6600.852
423.9647, 6603.919
424.4468, 6614.083
424.9289, 6623.069
425.4110, 6633.944
425.8932, 6638.624
426.3753, 6632.091
426.8574, 6619.427
427.3395, 6612.666
427.8216, 6614.529
428.3037, 6618.535
428.7859, 6622.549
429.2680, 6626.275
429.7501, 6632.292
430.2322, 6643.378
430.7143, 6652.642
431.1964, 6649.891
431.6786, 6631.466
432.1607, 6620.978
432.6428, 6625.620
433.1249, 6639.924
433.6070, 6646.366
434.0891, 6644.635
434.5713, 6639.919
435.0534, 6633.798
435.5355, 6627.235
436.0176, 6625.321
436.4997, 6629.471
436.9818, 6634.435
437.4640, 6632.763
437.9461, 6626.442
438.4282, 6621.695
438.9103, 6621.999
439.3924, 6624.585
439.8745, 6627.008
440.3566, 6629.009
440.8387, 6628.935
441.3209, 6621.798
441.8030, 6613.712
442.2851, 6611.438
442.7672, 6618.249
443.2493, 6626.587
443.7314, 6633.362
444.2136, 6638.739
444.6957, 6642.919
445.1778, 6648.092
445.6599, 6650.175
446.1420, 6645.344
446.6241, 6632.466
447.1063, 6624.605
447.5884, 6626.478
448.0705, 6632.294
448.5526, 6637.825
449.0347, 6644.696
449.5168, 6648.755
449.9990, 6648.339
450.4811, 6645.167
450.9632, 6644.050
451.4453, 6645.111
451.9274, 6648.099
452.4095, 6654.531
452.8917, 6665.159
453.3738, 6667.790
453.8559, 6660.166
454.3380, 6649.986
454.8201, 6645.677
455.3022, 6647.346
455.7844, 6650.488
456.2665, 6655.402
456.7486, 6659.864
457.2307, 6656.758
457.7128, 6646.832
458.1949, 6639.474
458.6771, 6645.210
459.1592, 6656.829
459.6413, 6657.087
460.1234, 6643.218
460.6055, 6631.321
461.0876, 6640.185
461.5698, 6660.016
462.0519, 6674.241
462.5340, 6672.993
463.0161, 6667.885
463.4982, 6665.376
463.9803, 6665.259
464.4625, 6666.426
464.9446, 6670.192
465.4267, 6673.874
465.9088, 6675.431
466.3909, 6673.230
466.8730, 6672.864
467.3552, 6674.870
467.8373, 6679.452
468.3194, 6686.983
468.8015, 6704.594
469.2836, 6716.190
469.7657, 6716.046
470.2479, 6705.841
470.7300, 6703.308
471.2121, 6712.576
471.6942, 6722.833
472.1763, 6727.716
472.6584, 6725.903
473.1406, 6725.221
473.6227, 6726.260
474.1048, 6727.862
474.5869, 6728.700
475.0690, 6728.855
475.5511, 6727.159
476.0333, 6721.862
476.5154, 6715.366
476.9975, 6714.419
477.4796, 6718.858
477.9617, 6724.131
478.4438, 6727.323
478.9260, 6728.949
479.4081, 6729.046
479.8902, 6726.770
480.3723, 6726.613
480.8544, 6735.747
481.3365, 6749.147
481.8187, 6758.190
482.3008, 6753.569
482.7829, 6748.528
483.2650, 6751.200
483.7471, 6760.772
484.2292, 6769.980
484.7114, 6778.323
485.1935, 6784.328
485.6756, 6786.733
486.1577, 6783.337
486.6398, 6780.812
487.1219, 6780.262
487.6041, 6780.744
488.0862, 6781.126
488.5683, 6781.845
489.0504, 6781.598
489.5325, 6778.972
490.0146, 6774.693
490.4968, 6775.661
490.9789, 6783.740
491.4610, 6791.926
491.9431, 6795.001
492.4252, 6792.771
492.9073, 6793.174
493.3895, 6796.990
493.8716, 6802.482
494.3537, 6809.442
494.8358, 6816.941
495.3179, 6819.261
495.8000, 6811.103
496.2822, 6799.631
496.7643, 6796.687
497.2464, 6801.063
497.7285, 6805.856
498.2106, 6806.147
498.6927, 6804.832
499.1749, 6804.455
499.6570, 6805.070
500.1391, 6807.851
500.6212, 6816.180
501.1033, 6825.849
501.5854, 6832.017
502.0676, 6827.945
502.5497, 6825.646
503.0318, 6828.362
503.5139, 6835.626
503.9960, 6844.431
504.4781, 6858.654
504.9603, 6870.611
505.4424, 6877.368
505.9245, 6878.182
506.4066, 6877.063
506.8887, 6872.360
507.3708, 6868.012
507.8530, 6868.926
508.3351, 6876.264
508.8172, 6882.076
509.2993, 6883.766
509.7814, 6884.344
510.2635, 6892.050
510.7457, 6906.816
511.2278, 6921.842
511.7099, 6934.595
512.1920, 6944.536
512.6741, 6949.859
513.1563, 6950.412
513.6384, 6949.862
514.1205, 6952.045
514.6026, 6954.929
515.0847, 6955.320
515.5668, 6951.204
516.0490, 6946.764
516.5311, 6944.810
517.0132, 6944.462
517.4953, 6943.897
517.9774, 6942.544
518.4595, 6940.884
518.9417, 6939.361
519.4238, 6938.050
519.9059, 6935.684
520.3880, 6930.331
520.8701, 6925.222
521.3522, 6922.145
521.8344, 6922.315
522.3165, 6921.916
522.7986, 6920.852
523.2807, 6919.178
523.7628, 6916.215
524.2449, 6911.035
524.7271, 6909.616
525.2092, 6915.202
525.6913, 6925.367
526.1734, 6930.843
526.6555, 6931.561
527.1376, 6932.389
527.6198, 6937.927
528.1019, 6945.997
528.5840, 6951.524
529.0661, 6953.854
529.5482, 6954.770
530.0303, 6956.626
530.5125, 6957.895
530.9946, 6956.006
531.4767, 6946.056
531.9588, 6937.353
532.4409, 6935.964
532.9230, 6939.864
533.4052, 6943.208
533.8873, 6945.431
534.3694, 6945.515
534.8515, 6942.168
535.3336, 6934.309
535.8157, 6928.699
536.2979, 6926.710
536.7800, 6925.930
537.2621, 6924.561
537.7442, 6921.959
538.2263, 6920.914
538.7084, 6922.412
539.1906, 6924.924
539.6727, 6924.919
540.1548, 6922.171
540.6369, 6920.624
541.1190, 6922.211
541.6011, 6925.885
542.0833, 6928.263
542.5654, 6929.406
543.0475, 6930.792
543.5296, 6933.019
544.0117, 6936.235
544.4938, 6940.877
544.9760, 6947.102
545.4581, 6953.603
545.9402, 6959.779
546.4223, 6965.376
546.9044, 6970.103
547.3865, 6975.373
547.8687, 6977.962
548.3508, 6972.699
548.8329, 6963.249
549.3150, 6961.416
549.7971, 6980.312
550.2792, 6995.917
550.7614, 6999.809
551.2435, 6990.888
551.7256, 6984.590
552.2077, 6982.439
552.6898, 6981.078
553.1719, 6977.552
553.6541, 6971.453
554.1362, 6967.398
554.6183, 6965.984
555.1004, 6966.411
555.5825, 6967.267
556.0646, 6968.648
556.5468, 6971.677
557.0289, 6978.534
557.5110, 6985.564
557.9931, 6985.142
558.4752, 6978.823
558.9573, 6975.077
559.4395, 6982.755
559.9216, 6992.747
560.4037, 6996.679
560.8858, 6992.963
561.3679, 6989.423
561.8500, 6987.907
562.3322, 6988.770
562.8143, 6992.314
563.2964, 7005.784
563.7785, 7012.877
564.2606, 7009.343
564.7427, 6999.940
565.2249, 6993.600
565.7070, 6990.447
566.1891, 6990.265
566.6712, 6993.599
567.1533, 6999.911
567.6354, 7006.919
568.1176, 7015.086
568.5997, 7021.130
569.0818, 7021.733
569.5639, 7018.187
570.0460, 7015.202
570.5281, 7012.979
571.0103, 7012.686
571.4924, 7016.069
571.9745, 7022.124
572.4566, 7029.313
572.9387, 7037.894
573.4208, 7046.264
573.9030, 7055.492
574.3851, 7063.720
574.8672, 7066.987
575.3493, 7058.702
575.8314, 7050.264
576.3135, 7044.708
576.7957, 7042.212
577.2778, 7044.871
577.7599, 7060.573
578.2420, 7072.609
578.7241, 7070.011
579.2062, 7046.285
579.6884, 7035.370
580.1705, 7040.166
580.6526, 7051.934
581.1347, 7061.241
581.6168, 7068.241
582.0989, 7073.882
582.5811, 7077.844
583.0632, 7081.677
583.5453, 7089.537
584.0274, 7099.952
584.5095, 7107.163
584.9916, 7105.190
585.4738, 7100.780
585.9559, 7100.335
586.4380, 7103.518
586.9201, 7106.657
587.4022, 7109.240
587.8843, 7110.286
588.3664, 7107.737
588.8485, 7097.858
589.3306, 7095.372
589.8127, 7110.915
590.2949, 7129.150
590.7770, 7136.345
591.2591, 7127.969
591.7412, 7118.497
592.2233, 7107.005
592.7054, 7097.255
593.1876, 7100.280
593.6697, 7117.486
594.1518, 7130.734
594.6339, 7132.678
595.1160, 7126.190
595.5981, 7113.742
596.0803, 7096.569
596.5624, 7086.435
597.0445, 7097.339
597.5266, 7116.948
598.0087, 7130.384
598.4908, 7136.234
598.9730, 7138.206
599.4551, 7134.483
599.9372, 7129.689
600.4193, 7128.116
600.9014, 7131.591
601.3835, 7136.687
601.8657, 7146.960
602.3478, 7157.186
602.8299, 7158.722
603.3120, 7144.599
603.7941, 7135.837
604.2762, 7139.228
604.7584, 7150.716
605.2405, 7152.995
605.7226, 7144.953
606.2047, 7136.099
606.6868, 7129.435
607.1689, 7125.947
607.6511, 7131.494
608.1332, 7146.169
608.6153, 7158.665
609.0974, 7156.897
609.5795, 7148.659
610.0616, 7144.354
610.5438, 7146.335
611.0259, 7150.349
611.5080, 7155.521
611.9901, 7160.837
612.4722, 7165.160
612.9543, 7167.771
613.4365, 7169.815
613.9186, 7170.365
614.4007, 7170.533
614.8828, 7173.378
615.3649, 7180.927
615.8470, 7186.601
616.3292, 7187.401
616.8113, 7184.358
617.2934, 7185.284
617.7755, 7190.475
618.2576, 7196.999
618.7397, 7204.939
619.2219, 7212.537
619.7040, 7213.541
620.1861, 7207.216
620.6682, 7201.005
621.1503, 7200.763
621.6324, 7204.580
622.1146, 7210.740
622.5967, 7220.869
623.0788, 7228.870
623.5609, 7231.202
624.0430, 7230.231
624.5251, 7229.300
625.0073, 7230.603
625.4894, 7230.002
625.9715, 7224.571
626.4536, 7217.042
626.9357, 7217.113
627.4178, 7227.468
627.9000, 7238.070
628.3821, 7245.806
628.8642, 7250.513
629.3463, 7249.582
629.8284, 7242.702
630.3105, 7237.370
630.7927, 7240.302
631.2748, 7248.244
631.7569, 7255.631
632.2390, 7261.998
632.7211, 7267.038
633.2032, 7269.120
633.6854, 7270.480
634.1675, 7273.839
634.6496, 7282.862
635.1317, 7288.927
635.6138, 7286.228
636.0959, 7280.454
636.5781, 7280.792
637.0602, 7293.706
