##NAMES=Trembathite
##RRUFFID=R070756
##IDEAL CHEMISTRY=Mg_3_B_7_O_13_Cl
##LOCALITY=Salt Springs deposit, Sussex, Kings Co., New Brunswick, Canada
##OWNER=RRUFF
##SOURCE=Michael Scott
##DESCRIPTION=Blue-green pseudocubic crystal
##STATUS=The identification of this mineral has been confirmed by single-crystal X-ray diffraction.
##URL=rruff.info/R070756
207.4213, 1820.426
207.9035, 1822.678
208.3856, 1815.946
208.8677, 1798.466
209.3498, 1778.288
209.8319, 1753.667
210.3140, 1726.950
210.7962, 1708.878
211.2783, 1701.184
211.7604, 1698.769
212.2425, 1700.500
212.7246, 1711.095
213.2067, 1709.724
213.6889, 1687.593
214.1710, 1647.096
214.6531, 1626.760
215.1352, 1635.541
215.6173, 1651.325
216.0994, 1651.084
216.5816, 1628.118
217.0637, 1606.249
217.5458, 1590.343
218.0279, 1580.719
218.5100, 1573.772
218.9921, 1571.347
219.4743, 1569.717
219.9564, 1562.014
220.4385, 1540.718
220.9206, 1529.197
221.4027, 1538.824
221.8848, 1577.588
222.3670, 1598.294
222.8491, 1593.728
223.3312, 1575.416
223.8133, 1564.032
224.2954, 1562.062
224.7775, 1562.595
225.2596, 1563.284
225.7418, 1564.299
226.2239, 1564.884
226.7060, 1563.906
227.1881, 1562.860
227.6702, 1566.020
228.1523, 1575.702
228.6345, 1586.118
229.1166, 1595.080
229.5987, 1604.343
230.0808, 1607.635
230.5629, 1602.449
231.0450, 1590.967
231.5272, 1582.006
232.0093, 1576.603
232.4914, 1572.464
232.9735, 1568.490
233.4556, 1565.953
233.9377, 1560.888
234.4199, 1551.377
234.9020, 1538.231
235.3841, 1530.619
235.8662, 1535.420
236.3483, 1538.025
236.8304, 1525.663
237.3126, 1486.098
237.7947, 1455.609
238.2768, 1443.347
238.7589, 1448.886
239.2410, 1442.783
239.7231, 1417.850
240.2053, 1388.395
240.6874, 1368.002
241.1695, 1361.359
241.6516, 1355.041
242.1337, 1346.639
242.6158, 1336.028
243.0980, 1324.022
243.5801, 1306.181
244.0622, 1290.640
244.5443, 1288.528
245.0264, 1310.943
245.5085, 1327.528
245.9907, 1329.939
246.4728, 1315.667
246.9549, 1301.052
247.4370, 1283.031
247.9191, 1267.014
248.4012, 1262.014
248.8834, 1274.748
249.3655, 1286.962
249.8476, 1293.423
250.3297, 1293.209
250.8118, 1290.866
251.2939, 1286.699
251.7761, 1280.233
252.2582, 1269.340
252.7403, 1248.162
253.2224, 1232.531
253.7045, 1229.686
254.1866, 1245.262
254.6688, 1256.070
255.1509, 1261.955
255.6330, 1263.090
256.1151, 1258.766
256.5972, 1245.258
257.0793, 1232.749
257.5615, 1226.607
258.0436, 1230.783
258.5257, 1230.002
259.0078, 1223.006
259.4899, 1211.409
259.9720, 1199.343
260.4542, 1187.107
260.9363, 1173.832
261.4184, 1157.585
261.9005, 1135.609
262.3826, 1120.444
262.8647, 1113.626
263.3469, 1113.876
263.8290, 1118.030
264.3111, 1128.354
264.7932, 1138.088
265.2753, 1143.126
265.7574, 1142.348
266.2396, 1140.427
266.7217, 1137.305
267.2038, 1133.378
267.6859, 1129.789
268.1680, 1125.915
268.6501, 1123.787
269.1323, 1125.429
269.6144, 1131.760
270.0965, 1137.831
270.5786, 1144.403
271.0607, 1150.064
271.5428, 1147.084
272.0250, 1132.309
272.5071, 1117.045
272.9892, 1109.872
273.4713, 1112.002
273.9534, 1116.165
274.4355, 1122.176
274.9177, 1129.285
275.3998, 1134.205
275.8819, 1136.759
276.3640, 1137.587
276.8461, 1137.568
277.3282, 1136.922
277.8104, 1132.847
278.2925, 1122.645
278.7746, 1108.869
279.2567, 1104.535
279.7388, 1111.541
280.2209, 1120.654
280.7031, 1123.194
281.1852, 1118.878
281.6673, 1115.317
282.1494, 1105.641
282.6315, 1120.455
283.1136, 1129.738
283.5958, 1133.787
284.0779, 1116.922
284.5600, 1127.062
285.0421, 1126.380
285.5242, 1125.254
286.0063, 1139.194
286.4884, 1125.371
286.9706, 1139.073
287.4527, 1112.798
287.9348, 1145.180
288.4169, 1163.349
288.8990, 1168.070
289.3811, 1119.065
289.8633, 1139.436
290.3454, 1132.004
290.8275, 1123.433
291.3096, 1153.568
291.7917, 1112.377
292.2738, 1141.900
292.7560, 1143.194
293.2381, 1157.408
293.7202, 1143.647
294.2023, 1138.526
294.6844, 1161.389
295.1665, 1155.055
295.6487, 1170.641
296.1308, 1180.577
296.6129, 1185.167
297.0950, 1184.844
297.5771, 1174.565
298.0592, 1162.250
298.5414, 1163.138
299.0235, 1177.349
299.5056, 1193.320
299.9877, 1201.020
300.4698, 1202.766
300.9519, 1203.969
301.4341, 1202.775
301.9162, 1204.175
302.3983, 1219.452
302.8804, 1248.072
303.3625, 1272.099
303.8446, 1271.687
304.3268, 1256.740
304.8089, 1244.854
305.2910, 1240.594
305.7731, 1243.584
306.2552, 1256.811
306.7373, 1279.835
307.2195, 1301.563
307.7016, 1316.018
308.1837, 1324.016
308.6658, 1326.422
309.1479, 1315.545
309.6300, 1305.086
310.1122, 1307.112
310.5943, 1320.942
311.0764, 1334.435
311.5585, 1342.728
312.0406, 1345.942
312.5227, 1344.257
313.0049, 1334.817
313.4870, 1322.829
313.9691, 1310.112
314.4512, 1296.714
314.9333, 1285.004
315.4154, 1274.265
315.8976, 1266.470
316.3797, 1263.482
316.8618, 1274.928
317.3439, 1282.846
317.8260, 1277.301
318.3081, 1259.553
318.7903, 1244.301
319.2724, 1240.449
319.7545, 1238.996
320.2366, 1232.814
320.7187, 1211.657
321.2008, 1194.360
321.6830, 1154.503
322.1651, 1192.079
322.6472, 1215.444
323.1293, 1225.361
323.6114, 1181.550
324.0935, 1207.117
324.5757, 1204.882
325.0578, 1201.505
325.5399, 1236.837
326.0220, 1200.841
326.5041, 1235.888
326.9862, 1227.635
327.4684, 1216.411
327.9505, 1209.502
328.4326, 1213.216
328.9147, 1213.205
329.3968, 1205.659
329.8789, 1192.441
330.3611, 1185.097
330.8432, 1184.706
331.3253, 1188.992
331.8074, 1197.048
332.2895, 1211.210
332.7716, 1225.198
333.2538, 1240.231
333.7359, 1254.991
334.2180, 1263.369
334.7001, 1261.158
335.1822, 1259.517
335.6643, 1265.839
336.1465, 1284.541
336.6286, 1297.198
337.1107, 1301.596
337.5928, 1299.778
338.0749, 1295.073
338.5570, 1283.940
339.0392, 1280.363
339.5213, 1297.651
340.0034, 1340.195
340.4855, 1364.408
340.9676, 1363.293
341.4497, 1348.830
341.9319, 1345.997
342.4140, 1355.681
342.8961, 1368.570
343.3782, 1380.961
343.8603, 1392.853
344.3424, 1401.016
344.8246, 1384.281
345.3067, 1404.951
345.7888, 1417.746
346.2709, 1423.090
346.7530, 1398.668
347.2351, 1412.683
347.7173, 1411.295
348.1994, 1409.274
348.6815, 1428.699
349.1636, 1408.606
349.6457, 1427.692
350.1278, 1427.598
350.6100, 1423.601
351.0921, 1415.812
351.5742, 1408.962
352.0563, 1410.045
352.5384, 1419.362
353.0205, 1436.445
353.5027, 1464.476
353.9848, 1499.824
354.4669, 1534.589
354.9490, 1564.315
355.4311, 1592.695
355.9132, 1622.719
356.3954, 1654.489
356.8775, 1687.950
357.3596, 1724.443
357.8417, 1762.477
358.3238, 1800.826
358.8059, 1840.196
359.2881, 1878.784
359.7702, 1921.892
360.2523, 1968.009
360.7344, 1995.993
361.2165, 1988.355
361.6986, 1962.324
362.1808, 1932.818
362.6629, 1898.692
363.1450, 1866.628
363.6271, 1838.318
364.1092, 1813.660
364.5913, 1791.908
365.0735, 1773.078
365.5556, 1756.947
366.0377, 1743.377
366.5198, 1725.762
367.0019, 1718.189
367.4840, 1720.438
367.9662, 1733.210
368.4482, 1760.056
368.9304, 1809.508
369.4125, 1865.309
369.8946, 1919.875
370.3767, 1970.527
370.8588, 2025.548
371.3409, 2087.787
371.8231, 2154.048
372.3052, 2217.487
372.7873, 2280.300
373.2694, 2335.775
373.7515, 2381.483
374.2336, 2418.102
374.7158, 2443.561
375.1979, 2463.321
375.6800, 2466.139
376.1621, 2427.335
376.6442, 2336.896
377.1263, 2244.415
377.6085, 2167.828
378.0906, 2107.840
378.5727, 2043.198
379.0548, 1973.032
379.5369, 1902.468
380.0190, 1839.101
380.5012, 1782.265
380.9833, 1728.509
381.4654, 1675.113
381.9475, 1624.148
382.4296, 1577.756
382.9117, 1536.168
383.3939, 1501.292
383.8760, 1480.952
384.3581, 1469.973
384.8402, 1452.222
385.3223, 1417.714
385.8044, 1379.312
386.2866, 1357.376
386.7687, 1350.172
387.2508, 1343.776
387.7329, 1325.688
388.2150, 1303.417
388.6971, 1287.023
389.1793, 1280.865
389.6614, 1278.367
390.1435, 1270.988
390.6256, 1262.319
391.1077, 1263.838
391.5898, 1299.350
392.0720, 1335.996
392.5541, 1345.458
393.0362, 1307.417
393.5183, 1280.500
394.0004, 1296.672
394.4825, 1338.322
394.9647, 1373.217
395.4468, 1389.018
395.9289, 1399.255
396.4110, 1407.513
396.8931, 1412.205
397.3752, 1421.896
397.8574, 1446.605
398.3395, 1473.760
398.8216, 1487.919
399.3037, 1477.232
399.7858, 1466.448
400.2679, 1460.889
400.7501, 1461.170
401.2322, 1456.981
401.7143, 1442.313
402.1964, 1429.211
402.6785, 1429.595
403.1606, 1451.035
403.6428, 1467.117
404.1249, 1470.959
404.6070, 1466.047
405.0891, 1471.386
405.5712, 1488.396
406.0533, 1511.286
406.5355, 1538.815
407.0176, 1571.706
407.4997, 1595.973
407.9818, 1606.701
408.4639, 1613.092
408.9460, 1639.066
409.4282, 1684.528
409.9103, 1724.109
410.3924, 1738.240
410.8745, 1734.567
411.3566, 1741.872
411.8387, 1765.068
412.3209, 1785.686
412.8030, 1781.778
413.2851, 1757.252
413.7672, 1723.251
414.2493, 1680.371
414.7314, 1633.433
415.2136, 1586.696
415.6957, 1540.633
416.1778, 1497.604
416.6599, 1459.876
417.1420, 1426.235
417.6241, 1396.281
418.1063, 1367.700
418.5884, 1343.891
419.0705, 1328.521
419.5526, 1320.505
420.0347, 1311.672
420.5168, 1297.065
420.9990, 1281.676
421.4811, 1269.467
421.9632, 1265.475
422.4453, 1258.484
422.9274, 1242.098
423.4095, 1220.858
423.8917, 1207.566
424.3738, 1208.922
424.8559, 1213.348
425.3380, 1217.416
425.8201, 1222.268
426.3022, 1223.348
426.7844, 1215.390
427.2665, 1206.894
427.7486, 1212.364
428.2307, 1240.712
428.7128, 1262.704
429.1949, 1268.262
429.6771, 1257.691
430.1592, 1253.300
430.6413, 1257.005
431.1234, 1261.838
431.6055, 1256.681
432.0876, 1240.885
432.5698, 1240.273
433.0519, 1266.471
433.5340, 1306.143
434.0161, 1326.334
434.4982, 1327.352
434.9803, 1322.833
435.4625, 1322.295
435.9446, 1323.724
436.4267, 1321.280
436.9088, 1313.111
437.3909, 1304.063
437.8730, 1301.567
438.3552, 1302.904
438.8373, 1300.413
439.3194, 1286.620
439.8015, 1269.276
440.2836, 1253.449
440.7657, 1238.953
441.2479, 1231.767
441.7300, 1240.618
442.2121, 1256.721
442.6942, 1269.720
443.1763, 1277.904
443.6584, 1280.922
444.1406, 1274.528
444.6227, 1259.842
445.1048, 1252.257
445.5869, 1266.146
446.0690, 1280.399
446.5511, 1282.537
447.0333, 1254.203
447.5154, 1236.411
447.9975, 1233.354
448.4796, 1240.711
448.9617, 1247.768
449.4438, 1257.850
449.9260, 1261.953
450.4081, 1254.076
450.8902, 1230.773
451.3723, 1216.175
451.8544, 1211.303
452.3365, 1213.516
452.8186, 1222.611
453.3008, 1239.772
453.7829, 1248.794
454.2650, 1239.721
454.7471, 1220.047
455.2292, 1218.888
455.7113, 1237.187
456.1935, 1257.807
456.6756, 1269.972
457.1577, 1273.225
457.6398, 1264.458
458.1219, 1236.666
458.6040, 1208.429
459.0862, 1205.183
459.5683, 1221.120
460.0504, 1237.033
460.5325, 1243.126
461.0146, 1243.551
461.4967, 1240.673
461.9789, 1233.869
462.4610, 1228.876
462.9431, 1228.377
463.4252, 1231.515
463.9073, 1237.209
464.3894, 1249.006
464.8716, 1259.538
465.3537, 1266.656
465.8358, 1270.286
466.3179, 1271.451
466.8000, 1266.415
467.2821, 1261.606
467.7643, 1261.110
468.2464, 1269.266
468.7285, 1274.769
469.2106, 1277.474
469.6927, 1277.104
470.1748, 1271.944
470.6570, 1259.482
471.1391, 1248.297
471.6212, 1243.321
472.1033, 1245.160
472.5854, 1241.184
473.0675, 1230.060
473.5497, 1216.989
474.0318, 1207.026
474.5139, 1200.289
474.9960, 1198.476
475.4781, 1203.744
475.9602, 1213.141
476.4424, 1222.460
476.9245, 1231.368
477.4066, 1236.407
477.8887, 1232.937
478.3708, 1224.611
478.8529, 1216.276
479.3351, 1207.976
479.8172, 1202.084
480.2993, 1201.891
480.7814, 1205.406
481.2635, 1208.404
481.7456, 1210.875
482.2278, 1210.937
482.7099, 1205.231
483.1920, 1192.210
483.6741, 1185.521
484.1562, 1196.978
484.6383, 1211.928
485.1205, 1217.727
485.6026, 1197.919
486.0847, 1187.491
486.5668, 1195.486
487.0489, 1216.355
487.5310, 1223.528
488.0132, 1210.298
488.4953, 1194.308
488.9774, 1183.100
489.4595, 1176.746
489.9416, 1175.548
490.4237, 1180.000
490.9059, 1188.801
491.3880, 1203.324
491.8701, 1223.425
492.3522, 1236.173
492.8343, 1230.648
493.3164, 1217.005
493.7986, 1225.020
494.2807, 1254.158
494.7628, 1282.267
495.2449, 1289.386
495.7270, 1283.501
496.2091, 1277.325
496.6913, 1271.856
497.1734, 1270.181
497.6555, 1276.670
498.1376, 1288.826
498.6197, 1300.841
499.1018, 1310.441
499.5840, 1319.030
500.0661, 1328.509
500.5482, 1339.521
501.0303, 1345.767
501.5124, 1341.739
501.9945, 1334.360
502.4767, 1329.889
502.9588, 1332.017
503.4409, 1333.062
503.9230, 1333.932
504.4051, 1333.498
504.8872, 1325.238
505.3694, 1302.450
505.8515, 1284.743
506.3336, 1283.219
506.8157, 1300.406
507.2978, 1315.510
507.7799, 1328.203
508.2621, 1339.692
508.7442, 1351.003
509.2263, 1362.244
509.7084, 1375.448
510.1905, 1391.716
510.6726, 1409.885
511.1548, 1426.301
511.6369, 1441.488
512.1190, 1460.604
512.6011, 1490.522
513.0832, 1525.372
513.5653, 1557.529
514.0474, 1584.748
514.5295, 1611.722
515.0117, 1643.893
515.4938, 1677.540
515.9759, 1705.895
516.4580, 1719.725
516.9401, 1734.854
517.4222, 1760.981
517.9044, 1799.187
518.3865, 1826.498
518.8686, 1839.152
519.3507, 1840.932
519.8328, 1832.707
520.3149, 1805.054
520.7971, 1786.909
521.2792, 1784.491
521.7613, 1789.385
522.2434, 1783.433
522.7255, 1765.949
523.2076, 1740.150
523.6898, 1700.402
524.1719, 1651.245
524.6540, 1624.358
525.1361, 1621.459
525.6182, 1627.154
526.1003, 1628.141
526.5825, 1625.815
527.0646, 1624.647
527.5467, 1616.496
528.0288, 1625.165
528.5109, 1628.317
528.9930, 1626.250
529.4752, 1603.324
529.9573, 1607.331
530.4394, 1600.545
530.9215, 1593.317
531.4036, 1601.114
531.8857, 1581.224
532.3679, 1588.781
532.8500, 1585.383
533.3321, 1587.000
533.8142, 1577.757
534.2963, 1571.868
534.7784, 1576.842
535.2606, 1575.801
535.7427, 1565.308
536.2248, 1567.243
536.7069, 1546.973
537.1890, 1556.864
537.6711, 1560.208
538.1533, 1563.076
538.6354, 1565.548
539.1175, 1567.466
539.5996, 1567.851
540.0817, 1567.117
540.5638, 1567.783
541.0460, 1569.056
541.5281, 1573.900
542.0102, 1587.979
542.4923, 1610.211
542.9744, 1635.553
543.4565, 1666.402
543.9387, 1695.803
544.4208, 1713.583
544.9029, 1716.327
545.3850, 1725.897
545.8671, 1761.021
546.3492, 1805.280
546.8314, 1841.061
547.3135, 1863.346
547.7956, 1877.306
548.2777, 1881.464
548.7598, 1877.339
549.2419, 1871.046
549.7241, 1860.149
550.2062, 1850.482
550.6883, 1845.795
551.1704, 1848.227
551.6525, 1842.021
552.1346, 1825.163
552.6168, 1804.082
553.0989, 1789.873
553.5810, 1781.873
554.0631, 1757.713
554.5452, 1704.593
555.0273, 1641.877
555.5095, 1606.323
555.9916, 1594.368
556.4737, 1587.795
556.9558, 1578.125
557.4379, 1566.577
557.9200, 1554.542
558.4022, 1542.261
558.8843, 1528.747
559.3664, 1510.762
559.8485, 1492.287
560.3306, 1477.350
560.8127, 1467.371
561.2949, 1460.749
561.7770, 1457.316
562.2591, 1457.089
562.7412, 1460.307
563.2233, 1472.496
563.7054, 1480.515
564.1876, 1476.542
564.6697, 1457.827
565.1518, 1455.538
565.6339, 1473.689
566.1160, 1499.015
566.5981, 1521.286
567.0803, 1539.987
567.5624, 1550.504
568.0445, 1551.078
568.5266, 1544.505
569.0087, 1531.722
569.4908, 1514.518
569.9730, 1501.021
570.4551, 1501.355
570.9372, 1503.865
571.4193, 1495.032
571.9014, 1474.418
572.3835, 1454.227
572.8657, 1440.551
573.3478, 1430.375
573.8299, 1421.273
574.3120, 1410.298
574.7941, 1403.666
575.2762, 1406.705
575.7584, 1413.970
576.2405, 1415.095
576.7226, 1411.021
577.2047, 1398.423
577.6868, 1369.702
578.1689, 1327.332
578.6511, 1317.090
579.1332, 1346.647
579.6153, 1379.835
580.0974, 1384.671
580.5795, 1366.045
581.0616, 1360.044
581.5438, 1373.240
582.0259, 1390.646
582.5080, 1392.220
582.9901, 1383.424
583.4722, 1377.766
583.9543, 1379.097
584.4365, 1387.261
584.9186, 1407.694
585.4007, 1437.209
585.8828, 1459.094
586.3649, 1453.712
586.8470, 1447.867
587.3292, 1458.559
587.8113, 1497.794
588.2934, 1526.473
588.7755, 1535.814
589.2576, 1538.724
589.7397, 1548.160
590.2219, 1563.462
590.7040, 1587.935
591.1861, 1626.451
591.6682, 1671.870
592.1503, 1699.898
592.6324, 1709.380
593.1146, 1721.859
593.5967, 1751.598
594.0788, 1793.164
594.5609, 1833.406
595.0430, 1872.283
595.5251, 1905.584
596.0073, 1927.495
596.4894, 1942.412
596.9715, 1955.270
597.4536, 1961.591
597.9357, 1976.166
598.4178, 2007.392
598.9000, 2051.441
599.3821, 2101.421
599.8642, 2162.360
600.3463, 2222.257
600.8284, 2275.792
601.3105, 2323.564
601.7927, 2382.944
602.2748, 2460.686
602.7569, 2538.315
603.2390, 2604.584
603.7211, 2659.843
604.2032, 2706.281
604.6854, 2745.206
605.1675, 2770.775
605.6496, 2777.825
606.1317, 2765.171
606.6138, 2726.863
607.0959, 2653.699
607.5781, 2561.695
608.0602, 2460.616
608.5423, 2355.237
609.0244, 2260.148
609.5065, 2193.259
609.9886, 2133.302
610.4708, 2067.118
610.9529, 1991.049
611.4350, 1922.814
611.9171, 1859.268
612.3992, 1808.752
612.8813, 1777.789
613.3635, 1776.010
613.8456, 1774.938
614.3277, 1774.802
614.8098, 1773.242
615.2919, 1761.259
615.7740, 1736.527
616.2562, 1725.639
616.7383, 1745.334
617.2204, 1782.774
617.7025, 1801.064
618.1846, 1801.738
618.6667, 1800.382
619.1489, 1809.078
619.6310, 1821.682
620.1131, 1829.111
620.5952, 1828.719
621.0773, 1832.795
621.5594, 1856.506
622.0416, 1884.560
622.5237, 1900.485
623.0058, 1889.980
623.4879, 1880.030
623.9700, 1879.096
624.4521, 1880.907
624.9343, 1867.580
625.4164, 1831.329
625.8985, 1797.259
626.3806, 1773.507
626.8627, 1759.521
627.3448, 1750.531
627.8270, 1746.642
628.3091, 1746.756
628.7912, 1752.469
629.2733, 1761.371
629.7554, 1766.543
630.2375, 1766.229
630.7197, 1766.300
631.2018, 1766.932
631.6839, 1772.549
632.1660, 1789.934
632.6481, 1832.664
633.1302, 1875.751
633.6124, 1911.390
634.0945, 1940.595
634.5766, 1967.258
635.0587, 1986.009
635.5408, 2008.515
636.0229, 2037.749
636.5051, 2074.026
636.9872, 2117.419
637.4693, 2168.702
637.9514, 2226.280
638.4335, 2286.182
638.9156, 2349.575
639.3978, 2428.383
639.8799, 2526.270
640.3620, 2628.734
640.8441, 2717.024
641.3262, 2797.324
641.8083, 2885.444
642.2905, 2985.250
642.7726, 3095.444
643.2547, 3221.082
643.7368, 3356.865
644.2189, 3489.816
644.7010, 3617.564
645.1832, 3737.109
645.6653, 3841.028
646.1474, 3927.548
646.6295, 4026.526
647.1116, 4139.255
647.5938, 4264.287
648.0759, 4408.584
648.5580, 4575.635
649.0401, 4715.759
649.5222, 4824.535
650.0043, 4912.542
650.4865, 4987.398
650.9686, 5053.316
651.4507, 5123.043
651.9328, 5204.826
652.4149, 5287.543
652.8970, 5358.219
653.3792, 5420.593
653.8613, 5485.910
654.3434, 5554.552
654.8255, 5631.801
655.3076, 5722.046
655.7897, 5826.404
656.2718, 5932.171
656.7539, 6038.076
657.2360, 6145.521
657.7181, 6259.521
658.2003, 6387.542
658.6824, 6488.491
659.1645, 6561.223
659.6466, 6610.100
660.1287, 6642.275
660.6108, 6656.756
661.0930, 6646.194
661.5751, 6610.819
662.0572, 6546.486
662.5393, 6444.635
663.0214, 6309.371
663.5035, 6151.103
663.9857, 5977.023
664.4678, 5781.134
664.9499, 5549.187
665.4320, 5282.749
665.9141, 5031.108
666.3962, 4808.367
666.8784, 4596.746
667.3605, 4388.826
667.8426, 4185.652
668.3247, 3985.293
668.8068, 3783.438
669.2889, 3591.417
669.7711, 3420.680
670.2532, 3270.883
670.7353, 3138.896
671.2174, 3027.673
671.6995, 2928.244
672.1816, 2830.696
672.6638, 2734.954
673.1459, 2642.424
673.6280, 2547.388
674.1101, 2460.367
674.5922, 2388.476
675.0743, 2330.471
675.5565, 2277.851
676.0386, 2237.087
676.5207, 2192.420
677.0028, 2133.790
677.4849, 2057.501
677.9670, 2003.050
678.4492, 1977.548
678.9313, 1957.154
679.4134, 1918.955
679.8955, 1865.410
680.3776, 1826.882
680.8597, 1808.971
681.3419, 1793.841
681.8240, 1753.002
682.3061, 1700.529
682.7882, 1664.802
683.2703, 1669.802
683.7524, 1675.471
684.2346, 1653.744
684.7167, 1615.973
685.1988, 1587.801
685.6809, 1581.896
686.1630, 1580.093
686.6451, 1581.233
687.1273, 1583.988
687.6094, 1572.721
688.0915, 1541.800
688.5736, 1511.572
689.0557, 1492.087
689.5378, 1483.058
690.0200, 1482.501
690.5021, 1491.133
690.9842, 1499.407
691.4663, 1497.372
691.9484, 1489.438
692.4305, 1483.070
692.9127, 1480.790
693.3948, 1476.818
693.8769, 1466.656
694.3590, 1453.198
694.8411, 1440.435
695.3232, 1426.030
695.8054, 1416.386
696.2875, 1414.443
696.7696, 1417.258
697.2517, 1416.809
697.7338, 1411.881
698.2159, 1408.050
698.6981, 1407.768
699.1802, 1409.942
699.6623, 1411.181
700.1444, 1411.456
700.6265, 1410.423
701.1086, 1405.617
701.5908, 1400.474
702.0729, 1399.930
702.5550, 1404.559
703.0371, 1409.092
703.5192, 1409.906
704.0013, 1410.250
704.4835, 1412.818
704.9656, 1420.857
705.4477, 1425.968
