##NAMES=Tremolite
##RRUFFID=R050498
##IDEAL CHEMISTRY=[box]Ca_2_Mg_5_Si_8_O_22_(OH)_2_
##LOCALITY=Inyo County, California, USA
##OWNER=RRUFF
##SOURCE=California Institute of Technology
##DESCRIPTION=Group of pale blue parallel acicular crystals
##STATUS=The identification of this mineral has been confirmed by X-ray diffraction and chemical analysis
##URL=rruff.info/R050498
##MEASURED CHEMISTRY=(Ca_1.95_Na_0.05_)_Σ=2_(Mg_4.75_Fe^3+^_0.13_Fe^2+^_0.07_Mn_0.05_)_Σ=5_(Si_7.92_Al_0.08_)_Σ=8_O_22_(OH)_2_; OH estimated by charge balance
92.37695, 1844.361
92.85907, 1822.125
93.34119, 1827.073
93.82330, 1843.973
94.30542, 1856.410
94.78754, 1862.197
95.26965, 1864.811
95.75177, 1865.069
96.23389, 1864.607
96.71600, 1862.533
97.19812, 1859.400
97.68024, 1855.747
98.16235, 1851.537
98.64447, 1846.617
99.12659, 1841.195
99.60870, 1830.515
100.0908, 1816.881
100.5729, 1803.923
101.0551, 1794.561
101.5372, 1790.114
102.0193, 1789.427
102.5014, 1787.797
102.9835, 1782.016
103.4656, 1778.195
103.9478, 1778.754
104.4299, 1781.893
104.9120, 1784.108
105.3941, 1782.410
105.8762, 1776.157
106.3583, 1772.105
106.8405, 1769.920
107.3226, 1769.063
107.8047, 1769.692
108.2868, 1771.662
108.7689, 1773.946
109.2510, 1775.208
109.7332, 1775.284
110.2153, 1776.260
110.6974, 1779.041
111.1795, 1782.681
111.6616, 1785.624
112.1437, 1787.165
112.6259, 1788.723
113.1080, 1791.340
113.5901, 1794.921
114.0722, 1800.239
114.5543, 1808.016
115.0364, 1818.205
115.5185, 1829.406
116.0007, 1843.651
116.4828, 1857.066
116.9649, 1868.807
117.4470, 1878.449
117.9291, 1883.502
118.4112, 1879.778
118.8934, 1863.800
119.3755, 1846.916
119.8576, 1827.695
120.3397, 1809.676
120.8218, 1796.114
121.3039, 1788.272
121.7861, 1784.391
122.2682, 1779.338
122.7503, 1771.095
123.2324, 1763.781
123.7145, 1757.776
124.1966, 1752.838
124.6788, 1748.875
125.1609, 1745.952
125.6430, 1743.780
126.1251, 1739.819
126.6072, 1730.635
127.0893, 1723.384
127.5715, 1722.094
128.0536, 1725.929
128.5357, 1730.471
129.0178, 1733.051
129.4999, 1733.510
129.9821, 1732.637
130.4642, 1728.999
130.9463, 1724.808
131.4284, 1722.604
131.9105, 1722.845
132.3926, 1723.348
132.8748, 1721.958
133.3569, 1719.612
133.8390, 1718.066
134.3211, 1718.572
134.8032, 1720.540
135.2853, 1721.830
135.7674, 1721.653
136.2496, 1721.901
136.7317, 1723.350
137.2138, 1725.900
137.6959, 1729.215
138.1780, 1732.955
138.6601, 1737.054
139.1423, 1742.355
139.6244, 1750.989
140.1065, 1759.108
140.5886, 1765.553
141.0707, 1770.097
141.5528, 1772.976
142.0350, 1774.199
142.5171, 1772.627
142.9992, 1772.364
143.4813, 1775.044
143.9634, 1777.668
144.4455, 1777.610
144.9277, 1774.430
145.4098, 1770.442
145.8919, 1769.471
146.3740, 1773.553
146.8561, 1777.138
147.3382, 1779.667
147.8204, 1781.708
148.3025, 1783.895
148.7846, 1786.419
149.2667, 1789.287
149.7488, 1792.579
150.2309, 1796.223
150.7131, 1800.284
151.1952, 1804.637
151.6773, 1809.406
152.1594, 1814.891
152.6415, 1821.239
153.1236, 1828.500
153.6058, 1836.307
154.0879, 1844.443
154.5700, 1853.686
155.0521, 1864.314
155.5342, 1876.229
156.0163, 1890.392
156.4985, 1906.632
156.9806, 1925.723
157.4627, 1949.546
157.9448, 1979.256
158.4269, 2010.671
158.9090, 2039.107
159.3912, 2066.733
159.8733, 2084.627
160.3554, 2090.910
160.8375, 2088.078
161.3196, 2076.619
161.8017, 2056.358
162.2839, 2029.818
162.7660, 2004.603
163.2481, 1981.144
163.7302, 1958.550
164.2123, 1934.531
164.6944, 1911.745
165.1766, 1893.734
165.6587, 1882.513
166.1408, 1877.351
166.6229, 1873.312
167.1050, 1869.977
167.5871, 1868.202
168.0693, 1868.415
168.5514, 1870.345
169.0335, 1873.488
169.5156, 1877.526
169.9977, 1882.520
170.4798, 1888.530
170.9620, 1895.816
171.4441, 1903.620
171.9262, 1910.962
172.4083, 1918.226
172.8904, 1927.191
173.3725, 1939.118
173.8547, 1954.211
174.3368, 1970.918
174.8189, 1989.961
175.3010, 2010.195
175.7831, 2031.722
176.2652, 2054.684
176.7474, 2075.944
177.2295, 2096.027
177.7116, 2112.400
178.1937, 2117.498
178.6758, 2107.508
179.1579, 2086.130
179.6401, 2056.654
180.1222, 2016.672
180.6043, 1975.898
181.0864, 1938.949
181.5685, 1905.443
182.0506, 1875.744
182.5328, 1849.849
183.0149, 1827.900
183.4970, 1810.551
183.9791, 1799.899
184.4612, 1791.166
184.9433, 1781.608
185.4255, 1772.198
185.9076, 1764.658
186.3897, 1760.479
186.8718, 1759.362
187.3539, 1758.119
187.8360, 1756.886
188.3182, 1755.343
188.8003, 1752.654
189.2824, 1749.564
189.7645, 1747.569
190.2466, 1748.086
190.7287, 1751.266
191.2109, 1753.269
191.6930, 1752.925
192.1751, 1752.552
192.6572, 1752.560
193.1393, 1753.128
193.6214, 1754.556
194.1036, 1757.303
194.5857, 1761.773
195.0678, 1764.200
195.5499, 1762.752
196.0320, 1761.407
196.5141, 1762.003
196.9963, 1764.509
197.4784, 1767.905
197.9605, 1771.257
198.4426, 1774.514
198.9247, 1778.413
199.4068, 1782.753
199.8890, 1787.791
200.3711, 1793.341
200.8532, 1799.516
201.3353, 1807.221
201.8174, 1817.773
202.2995, 1831.407
202.7817, 1844.195
203.2638, 1855.463
203.7459, 1866.151
204.2280, 1877.311
204.7101, 1889.147
205.1922, 1900.552
205.6744, 1910.068
206.1565, 1918.184
206.6386, 1927.093
207.1207, 1937.607
207.6028, 1949.017
208.0849, 1960.135
208.5671, 1970.659
209.0492, 1981.948
209.5313, 1994.094
210.0134, 2007.656
210.4955, 2024.706
210.9776, 2048.179
211.4598, 2075.459
211.9419, 2100.869
212.4240, 2123.692
212.9061, 2145.668
213.3882, 2167.305
213.8703, 2188.919
214.3525, 2211.246
214.8346, 2235.013
215.3167, 2259.756
215.7988, 2283.165
216.2809, 2304.014
216.7630, 2325.539
217.2451, 2347.138
217.7273, 2370.343
218.2094, 2398.012
218.6915, 2432.545
219.1736, 2472.974
219.6557, 2513.414
220.1378, 2555.000
220.6200, 2594.793
221.1021, 2635.954
221.5842, 2674.387
222.0663, 2704.378
222.5484, 2722.310
223.0305, 2728.287
223.5127, 2723.018
223.9948, 2697.020
224.4769, 2668.632
224.9590, 2638.304
225.4411, 2608.472
225.9232, 2581.561
226.4054, 2558.389
226.8875, 2539.691
227.3696, 2533.462
227.8517, 2546.887
228.3338, 2565.908
228.8159, 2590.385
229.2981, 2618.319
229.7802, 2647.585
230.2623, 2677.438
230.7444, 2707.261
231.2265, 2728.969
231.7086, 2749.934
232.1908, 2755.875
232.6729, 2741.031
233.1550, 2708.418
233.6371, 2663.191
234.1192, 2607.747
234.6013, 2542.971
235.0835, 2474.925
235.5656, 2396.002
236.0477, 2322.135
236.5298, 2256.527
237.0119, 2199.578
237.4940, 2151.667
237.9762, 2113.821
238.4583, 2084.626
238.9404, 2057.330
239.4225, 2030.457
239.9046, 2006.629
240.3867, 1986.747
240.8689, 1970.637
241.3510, 1958.148
241.8331, 1949.428
242.3152, 1944.221
242.7973, 1941.336
243.2794, 1940.556
243.7616, 1941.852
244.2437, 1945.598
244.7258, 1951.498
245.2079, 1958.702
245.6900, 1966.950
246.1721, 1976.300
246.6543, 1987.013
247.1364, 1999.657
247.6185, 2011.932
248.1006, 2024.633
248.5827, 2036.481
249.0648, 2043.038
249.5470, 2042.621
250.0291, 2035.868
250.5112, 2024.307
250.9933, 2007.542
251.4754, 1989.076
251.9576, 1970.443
252.4397, 1951.605
252.9218, 1931.476
253.4039, 1908.414
253.8860, 1885.920
254.3681, 1867.530
254.8503, 1853.145
255.3324, 1840.896
255.8145, 1829.901
256.2966, 1820.182
256.7787, 1811.950
257.2608, 1805.646
257.7430, 1800.480
258.2251, 1795.530
258.7072, 1790.880
259.1893, 1787.048
259.6714, 1784.324
260.1535, 1782.694
260.6357, 1782.286
261.1178, 1784.396
261.5999, 1786.004
262.0820, 1785.439
262.5641, 1782.964
263.0462, 1779.408
263.5284, 1775.448
264.0105, 1769.795
264.4926, 1764.702
264.9747, 1755.853
265.4568, 1746.498
265.9389, 1736.947
266.4211, 1727.700
266.9032, 1719.820
267.3853, 1714.120
267.8674, 1710.267
268.3495, 1706.693
268.8316, 1702.725
269.3138, 1700.217
269.7959, 1700.990
270.2780, 1703.197
270.7601, 1703.991
271.2422, 1701.598
271.7243, 1697.041
272.2065, 1693.705
272.6886, 1691.994
273.1707, 1690.991
273.6528, 1691.184
274.1349, 1691.555
274.6170, 1690.737
275.0992, 1687.992
275.5813, 1684.286
276.0634, 1682.131
276.5455, 1682.507
277.0276, 1682.649
277.5097, 1681.332
277.9919, 1679.936
278.4740, 1679.907
278.9561, 1681.754
279.4382, 1684.535
279.9203, 1686.527
280.4024, 1687.475
280.8846, 1688.098
281.3667, 1688.710
281.8488, 1688.948
282.3309, 1688.295
282.8130, 1686.717
283.2951, 1684.925
283.7773, 1684.034
284.2594, 1684.532
284.7415, 1684.737
285.2236, 1684.191
285.7057, 1683.694
286.1878, 1683.831
286.6700, 1684.600
287.1521, 1685.489
287.6342, 1685.847
288.1163, 1685.411
288.5984, 1685.469
289.0805, 1685.152
289.5627, 1686.012
290.0448, 1690.029
290.5269, 1696.262
291.0090, 1701.585
291.4911, 1702.945
291.9732, 1699.969
292.4554, 1697.734
292.9375, 1696.512
293.4196, 1695.729
293.9017, 1695.309
294.3838, 1695.190
294.8659, 1695.302
295.3481, 1695.593
295.8302, 1696.070
296.3123, 1696.788
296.7944, 1697.486
297.2765, 1698.748
297.7586, 1701.081
298.2408, 1703.986
298.7229, 1706.752
299.2050, 1708.986
299.6871, 1710.776
300.1692, 1712.441
300.6513, 1713.978
301.1335, 1715.374
301.6156, 1716.875
302.0977, 1718.132
302.5798, 1718.681
303.0619, 1718.347
303.5440, 1717.494
304.0262, 1716.900
304.5083, 1717.200
304.9904, 1716.766
305.4725, 1715.397
305.9546, 1713.470
306.4367, 1710.822
306.9189, 1707.614
307.4010, 1704.822
307.8831, 1703.961
308.3652, 1706.146
308.8473, 1707.377
309.3294, 1707.106
309.8116, 1706.484
310.2937, 1705.856
310.7758, 1705.452
311.2579, 1705.781
311.7400, 1707.592
312.2221, 1711.409
312.7043, 1712.927
313.1864, 1710.334
313.6685, 1707.589
314.1506, 1706.248
314.6327, 1706.067
315.1148, 1705.971
315.5970, 1705.095
316.0791, 1703.591
316.5612, 1703.599
317.0433, 1707.647
317.5254, 1710.406
318.0075, 1710.041
318.4897, 1707.824
318.9718, 1705.419
319.4539, 1703.628
319.9360, 1702.723
320.4181, 1703.637
320.9002, 1708.894
321.3824, 1712.839
321.8645, 1715.006
322.3466, 1715.833
322.8287, 1715.460
323.3108, 1714.014
323.7929, 1712.103
324.2751, 1710.736
324.7572, 1709.844
325.2393, 1709.736
325.7214, 1711.075
326.2035, 1712.592
326.6856, 1712.775
327.1678, 1711.835
327.6499, 1711.883
328.1320, 1715.652
328.6141, 1724.544
329.0962, 1730.152
329.5783, 1730.767
330.0605, 1730.231
330.5426, 1729.501
331.0247, 1728.937
331.5068, 1728.871
331.9889, 1729.584
332.4710, 1731.033
332.9532, 1732.517
333.4353, 1733.461
333.9174, 1735.106
334.3995, 1738.192
334.8816, 1742.012
335.3637, 1745.123
335.8459, 1746.701
336.3280, 1748.089
336.8101, 1753.456
337.2922, 1767.240
337.7743, 1778.522
338.2564, 1785.420
338.7386, 1790.327
339.2206, 1795.182
339.7028, 1800.600
340.1849, 1806.088
340.6670, 1810.850
341.1491, 1814.447
341.6312, 1818.381
342.1133, 1821.972
342.5955, 1826.372
343.0776, 1832.524
343.5597, 1840.236
344.0418, 1848.567
344.5239, 1856.964
345.0060, 1865.555
345.4882, 1871.961
345.9703, 1873.827
346.4524, 1875.663
346.9345, 1878.677
347.4166, 1882.522
347.8987, 1886.515
348.3809, 1890.324
348.8630, 1893.792
349.3451, 1896.163
349.8272, 1896.923
350.3093, 1897.302
350.7914, 1898.872
351.2736, 1899.617
351.7557, 1896.925
352.2378, 1889.923
352.7199, 1881.117
353.2020, 1874.724
353.6841, 1871.453
354.1663, 1868.455
354.6484, 1865.032
355.1305, 1862.066
355.6126, 1860.468
356.0947, 1860.105
356.5768, 1859.768
357.0590, 1857.810
357.5411, 1854.114
358.0232, 1852.336
358.5053, 1853.711
358.9874, 1855.839
359.4695, 1856.997
359.9517, 1858.127
360.4338, 1861.406
360.9159, 1868.890
361.3980, 1878.892
361.8801, 1886.078
362.3622, 1889.076
362.8444, 1892.164
363.3265, 1897.077
363.8086, 1902.747
364.2907, 1907.976
364.7728, 1912.325
365.2549, 1916.721
365.7371, 1923.039
366.2192, 1931.736
366.7013, 1938.288
367.1834, 1941.073
367.6655, 1941.616
368.1476, 1940.733
368.6298, 1938.555
369.1119, 1935.718
369.5940, 1933.380
370.0761, 1930.995
370.5582, 1925.615
371.0403, 1915.916
371.5225, 1905.121
372.0046, 1895.032
372.4867, 1885.587
372.9688, 1876.551
373.4509, 1867.547
373.9330, 1859.133
374.4152, 1852.114
374.8973, 1846.536
375.3794, 1842.228
375.8615, 1839.992
376.3436, 1838.646
376.8257, 1836.322
377.3079, 1832.529
377.7900, 1828.529
378.2721, 1825.228
378.7542, 1822.486
379.2363, 1819.490
379.7184, 1815.449
380.2006, 1812.022
380.6827, 1811.858
381.1648, 1814.853
381.6469, 1817.456
382.1290, 1818.016
382.6111, 1817.746
383.0933, 1817.960
383.5754, 1818.762
384.0575, 1821.024
384.5396, 1825.846
385.0217, 1833.036
385.5038, 1840.190
385.9860, 1846.027
386.4681, 1852.884
386.9502, 1862.982
387.4323, 1875.455
387.9144, 1887.165
388.3965, 1896.146
388.8787, 1904.118
389.3608, 1916.005
389.8429, 1933.899
390.3250, 1950.655
390.8071, 1963.787
391.2892, 1975.462
391.7714, 1989.611
392.2535, 2006.854
392.7356, 2022.189
393.2177, 2029.654
393.6998, 2027.876
394.1819, 2022.759
394.6641, 2015.213
395.1462, 2003.839
395.6283, 1987.468
396.1104, 1966.537
396.5925, 1942.135
397.0746, 1914.439
397.5568, 1884.427
398.0389, 1856.535
398.5210, 1829.000
399.0031, 1806.178
399.4852, 1789.908
399.9673, 1777.949
400.4495, 1768.183
400.9316, 1759.854
401.4137, 1752.718
401.8958, 1746.437
402.3779, 1741.075
402.8600, 1736.480
403.3422, 1731.852
403.8243, 1728.535
404.3064, 1727.347
404.7885, 1728.110
405.2706, 1730.257
405.7527, 1733.586
406.2349, 1737.872
406.7170, 1741.184
407.1991, 1743.056
407.6812, 1744.498
408.1633, 1745.346
408.6454, 1746.112
409.1276, 1747.081
409.6097, 1748.327
410.0918, 1750.575
410.5739, 1755.816
411.0560, 1765.120
411.5381, 1771.577
412.0203, 1771.797
412.5024, 1770.703
412.9845, 1770.608
413.4666, 1771.663
413.9487, 1773.448
414.4308, 1776.645
414.9130, 1780.457
415.3951, 1781.693
415.8772, 1779.776
416.3593, 1776.665
416.8414, 1772.914
417.3235, 1768.780
417.8057, 1764.664
418.2878, 1760.908
418.7699, 1756.676
419.2520, 1750.657
419.7341, 1743.080
420.2162, 1736.324
420.6984, 1731.643
421.1805, 1727.392
421.6626, 1721.286
422.1447, 1713.281
422.6268, 1705.655
423.1089, 1699.574
423.5911, 1694.190
424.0732, 1688.046
424.5553, 1681.001
425.0374, 1674.463
425.5195, 1669.488
426.0016, 1666.070
426.4838, 1663.304
426.9659, 1661.328
427.4480, 1659.831
427.9301, 1658.434
428.4122, 1657.445
428.8943, 1657.676
429.3765, 1659.509
429.8586, 1662.193
430.3407, 1664.440
430.8228, 1666.070
431.3049, 1667.654
431.7870, 1669.007
432.2692, 1670.472
432.7513, 1672.687
433.2334, 1675.399
433.7155, 1677.498
434.1976, 1678.037
434.6797, 1677.112
435.1619, 1676.116
435.6440, 1676.811
436.1261, 1675.304
436.6082, 1670.705
437.0903, 1663.658
437.5724, 1654.414
438.0546, 1643.193
438.5367, 1631.117
439.0188, 1619.647
439.5009, 1608.308
439.9830, 1599.151
440.4651, 1593.592
440.9473, 1588.957
441.4294, 1583.740
441.9115, 1578.406
442.3936, 1574.643
442.8757, 1574.113
443.3578, 1575.658
443.8400, 1575.326
444.3221, 1572.586
444.8042, 1569.291
445.2863, 1564.763
445.7684, 1560.700
446.2505, 1559.231
446.7327, 1560.932
447.2148, 1563.041
447.6969, 1562.922
448.1790, 1561.008
448.6611, 1559.813
449.1432, 1560.089
449.6254, 1560.403
450.1075, 1559.108
450.5896, 1556.763
451.0717, 1555.113
451.5538, 1554.843
452.0359, 1555.306
452.5181, 1556.265
453.0002, 1557.575
453.4823, 1558.192
453.9644, 1557.408
454.4465, 1555.920
454.9286, 1555.462
455.4108, 1556.561
455.8929, 1556.924
456.3750, 1555.631
456.8571, 1553.556
457.3392, 1551.476
457.8214, 1549.566
458.3035, 1547.874
458.7856, 1546.363
459.2677, 1545.024
459.7498, 1544.715
460.2319, 1546.400
460.7141, 1547.833
461.1962, 1548.219
461.6783, 1548.023
462.1604, 1547.845
462.6425, 1547.931
463.1246, 1548.298
463.6068, 1549.224
464.0889, 1551.672
464.5710, 1552.053
465.0531, 1548.245
465.5352, 1544.480
466.0173, 1543.299
466.4995, 1543.897
466.9816, 1543.669
467.4637, 1540.610
467.9458, 1535.884
468.4279, 1533.256
468.9100, 1533.292
469.3922, 1533.963
469.8743, 1535.375
470.3564, 1536.752
470.8385, 1537.305
471.3206, 1536.930
471.8027, 1536.520
472.2849, 1536.835
472.7670, 1537.689
473.2491, 1538.356
473.7312, 1538.684
474.2133, 1539.062
474.6954, 1539.981
475.1776, 1541.142
475.6597, 1541.859
476.1418, 1542.220
476.6239, 1541.857
477.1060, 1539.658
477.5881, 1536.447
478.0703, 1534.904
478.5524, 1536.184
479.0345, 1538.471
479.5166, 1538.930
479.9987, 1536.849
480.4808, 1536.428
480.9630, 1539.666
481.4451, 1543.159
481.9272, 1544.454
482.4093, 1543.895
482.8914, 1543.081
483.3735, 1542.927
483.8557, 1543.349
484.3378, 1544.094
484.8199, 1546.452
485.3020, 1547.183
485.7841, 1544.850
486.2662, 1541.839
486.7484, 1539.936
487.2305, 1539.341
487.7126, 1539.229
488.1947, 1538.824
488.6768, 1538.172
489.1589, 1538.159
489.6411, 1539.634
490.1232, 1540.357
490.6053, 1539.497
491.0874, 1537.693
491.5695, 1535.512
492.0516, 1533.077
492.5338, 1530.784
493.0159, 1529.012
493.4980, 1527.750
493.9801, 1526.852
494.4622, 1526.095
494.9443, 1526.114
495.4265, 1528.403
495.9086, 1532.005
496.3907, 1534.060
496.8728, 1532.405
497.3549, 1530.267
497.8370, 1530.909
498.3192, 1533.489
498.8013, 1534.649
499.2834, 1532.843
499.7655, 1529.804
500.2476, 1528.266
500.7297, 1528.465
501.2119, 1529.368
501.6940, 1530.575
502.1761, 1532.738
502.6582, 1537.036
503.1403, 1542.808
503.6224, 1548.006
504.1045, 1551.300
504.5866, 1553.256
505.0688, 1555.998
505.5509, 1560.831
506.0330, 1564.373
506.5151, 1564.440
506.9972, 1564.761
507.4793, 1568.851
507.9615, 1576.357
508.4436, 1583.747
508.9257, 1587.967
509.4078, 1589.532
509.8899, 1591.188
510.3720, 1592.264
510.8542, 1594.931
511.3363, 1602.020
511.8184, 1610.021
512.3005, 1615.234
512.7827, 1616.833
513.2648, 1617.581
513.7469, 1618.961
514.2290, 1621.116
514.7111, 1625.115
515.1932, 1631.676
515.6754, 1637.300
516.1575, 1639.106
516.6396, 1637.593
517.1217, 1635.799
517.6038, 1633.163
518.0859, 1631.020
518.5681, 1629.933
519.0502, 1629.751
519.5323, 1630.449
520.0144, 1632.005
520.4965, 1633.726
520.9786, 1634.772
521.4608, 1635.057
521.9429, 1635.185
522.4250, 1635.429
522.9071, 1635.252
523.3892, 1633.650
523.8713, 1631.732
524.3535, 1631.355
524.8356, 1633.260
525.3177, 1636.154
525.7998, 1637.543
526.2819, 1636.729
526.7640, 1637.978
527.2462, 1644.356
527.7283, 1649.852
528.2104, 1652.027
528.6925, 1651.107
529.1746, 1647.767
529.6567, 1641.800
530.1389, 1634.342
530.6210, 1626.940
531.1031, 1619.548
531.5852, 1611.221
532.0673, 1601.328
532.5494, 1590.979
533.0316, 1581.365
533.5137, 1572.485
533.9958, 1563.992
534.4779, 1555.225
534.9600, 1547.325
535.4421, 1541.733
535.9243, 1537.839
536.4064, 1533.217
536.8885, 1526.608
537.3706, 1519.313
537.8527, 1514.193
538.3348, 1512.440
538.8170, 1510.523
539.2991, 1508.698
539.7812, 1506.510
540.2633, 1503.042
540.7454, 1498.959
541.2275, 1496.021
541.7097, 1495.457
542.1918, 1496.209
542.6739, 1495.472
543.1560, 1492.841
543.6381, 1489.992
544.1202, 1486.779
544.6024, 1483.845
545.0845, 1481.590
545.5666, 1479.994
546.0487, 1478.892
546.5308, 1478.598
547.0129, 1478.527
547.4951, 1477.659
547.9772, 1476.015
548.4593, 1474.299
548.9414, 1472.547
549.4235, 1471.195
549.9056, 1471.389
550.3878, 1473.446
550.8699, 1474.820
551.3520, 1474.657
551.8341, 1473.919
552.3162, 1473.098
552.7983, 1472.385
553.2805, 1472.319
553.7626, 1473.336
554.2447, 1474.695
554.7268, 1474.125
555.2089, 1469.717
555.6910, 1466.765
556.1732, 1465.709
556.6553, 1465.674
557.1374, 1466.737
557.6195, 1468.388
558.1016, 1469.366
558.5837, 1468.628
559.0659, 1467.074
559.5480, 1467.103
560.0301, 1469.106
560.5122, 1470.340
560.9943, 1469.689
561.4764, 1468.271
561.9586, 1467.070
562.4407, 1466.103
562.9228, 1465.448
563.4049, 1465.720
563.8870, 1465.921
564.3691, 1464.670
564.8513, 1462.238
565.3334, 1460.172
565.8155, 1459.193
566.2976, 1458.891
566.7797, 1458.472
567.2618, 1457.737
567.7440, 1457.408
568.2261, 1456.967
568.7082, 1457.405
569.1903, 1460.161
569.6724, 1464.215
570.1545, 1467.359
570.6367, 1468.399
571.1188, 1467.871
571.6009, 1466.677
572.0830, 1464.475
572.5651, 1462.824
573.0472, 1461.572
573.5294, 1461.277
574.0115, 1463.294
574.4936, 1466.531
574.9757, 1467.978
575.4578, 1465.729
575.9399, 1462.089
576.4221, 1459.287
576.9042, 1457.330
577.3863, 1456.411
577.8684, 1456.844
578.3505, 1457.593
578.8326, 1457.324
579.3148, 1455.938
579.7969, 1455.324
580.2790, 1455.838
580.7611, 1456.832
581.2432, 1458.711
581.7253, 1460.667
582.2075, 1461.203
582.6896, 1459.859
583.1717, 1457.867
583.6538, 1456.920
584.1359, 1457.161
584.6180, 1457.435
585.1002, 1457.942
585.5823, 1458.228
