##NAMES=Tremolite
##RRUFFID=R060311
##IDEAL CHEMISTRY=[box]Ca_2_Mg_5_Si_8_O_22_(OH)_2_
##LOCALITY=Khyber Pass area, Khyber Agency, North-West Frontier Province, Pakistan
##OWNER=RRUFF
##SOURCE=Herb Obodda
##DESCRIPTION=Colorless fragment
##STATUS=The identification of this mineral has been confirmed by X-ray diffraction and chemical analysis
##URL=rruff.info/R060311
##MEASURED CHEMISTRY=[box](Ca_1.96_Mg_0.04_)_Σ=2_(Mg_4.97_Fe^3+^_0.03_)_Σ=5_(Si_7.97_Al_0.03_)_Σ=8_O_22_(OH)_2_
90.49219, 34.50376
90.97430, 33.78596
91.45642, 33.53186
91.93854, 34.41597
92.42065, 35.56494
92.90277, 35.53209
93.38489, 34.05644
93.86700, 32.18529
94.34912, 31.06170
94.83124, 30.62610
95.31335, 30.58006
95.79547, 31.14130
96.27759, 32.05412
96.75970, 32.17929
97.24182, 31.12869
97.72394, 29.50283
98.20605, 28.63586
98.68817, 28.59760
99.17029, 28.73679
99.65240, 28.48827
100.1345, 27.81262
100.6166, 27.31314
101.0988, 27.07417
101.5809, 27.10193
102.0630, 27.54809
102.5451, 28.66475
103.0272, 29.75898
103.5093, 30.00492
103.9915, 29.10825
104.4736, 28.10459
104.9557, 27.16349
105.4378, 26.19558
105.9199, 25.85718
106.4020, 26.59515
106.8842, 27.74219
107.3663, 28.09010
107.8484, 26.76188
108.3305, 25.64841
108.8126, 25.48249
109.2947, 27.39132
109.7769, 28.37134
110.2590, 27.82662
110.7411, 26.24713
111.2232, 25.17078
111.7053, 25.04970
112.1874, 25.13515
112.6696, 25.09359
113.1517, 24.74236
113.6338, 24.42534
114.1159, 24.01887
114.5980, 23.59253
115.0801, 23.63828
115.5623, 25.20294
116.0444, 26.83825
116.5265, 27.42272
117.0086, 25.14366
117.4907, 23.10251
117.9728, 22.91177
118.4550, 24.67946
118.9371, 25.83698
119.4192, 24.59840
119.9013, 22.23160
120.3834, 20.37108
120.8655, 19.80768
121.3477, 19.90586
121.8298, 20.34826
122.3119, 21.17079
122.7940, 21.97099
123.2761, 22.50056
123.7582, 22.79722
124.2404, 22.94502
124.7225, 22.88020
125.2046, 22.72861
125.6867, 22.61268
126.1688, 22.50419
126.6509, 22.54479
127.1331, 22.97109
127.6152, 23.72456
128.0973, 24.51419
128.5794, 25.43892
129.0615, 26.26066
129.5436, 26.32159
130.0258, 25.18273
130.5079, 23.54163
130.9900, 22.59980
131.4721, 22.36487
131.9542, 22.41187
132.4363, 22.27502
132.9185, 22.03518
133.4006, 22.25199
133.8827, 23.11064
134.3648, 24.52923
134.8469, 26.53031
135.3290, 29.28715
135.8112, 31.87388
136.2933, 32.80592
136.7754, 31.94052
137.2575, 31.74816
137.7396, 33.39650
138.2217, 36.78920
138.7039, 39.19141
139.1860, 40.17788
139.6681, 40.84969
140.1502, 43.00768
140.6323, 46.95557
141.1144, 51.30611
141.5966, 55.66797
142.0787, 60.11382
142.5608, 64.05710
143.0429, 67.17698
143.5250, 69.96564
144.0071, 73.66739
144.4893, 78.95718
144.9714, 84.01153
145.4535, 87.91149
145.9356, 90.14494
146.4177, 92.32584
146.8998, 94.57813
147.3820, 96.81721
147.8641, 98.72734
148.3462, 99.53526
148.8283, 100.7163
149.3104, 103.0461
149.7925, 106.2460
150.2747, 110.9766
150.7568, 117.8359
151.2389, 126.6235
151.7210, 134.9586
152.2031, 142.1808
152.6852, 149.2668
153.1674, 156.9053
153.6495, 164.8562
154.1316, 173.5764
154.6137, 182.5715
155.0958, 191.8079
155.5779, 203.6325
156.0601, 217.6800
156.5422, 234.7385
157.0243, 255.3405
157.5064, 278.4266
157.9885, 306.1455
158.4706, 339.3874
158.9528, 378.3852
159.4349, 421.1772
159.9170, 479.3583
160.3991, 537.5038
160.8812, 577.7833
161.3633, 593.3508
161.8455, 591.3460
162.3276, 569.8457
162.8097, 524.7061
163.2918, 481.9134
163.7739, 454.1952
164.2560, 434.9396
164.7382, 412.0721
165.2203, 380.1771
165.7024, 349.7734
166.1845, 326.6606
166.6666, 311.9816
167.1487, 302.3566
167.6309, 296.4693
168.1130, 293.9975
168.5951, 294.4085
169.0772, 297.7383
169.5593, 303.5198
170.0414, 311.4335
170.5236, 321.5854
171.0057, 333.4059
171.4878, 345.8978
171.9699, 359.6676
172.4520, 376.3106
172.9341, 395.9965
173.4163, 419.3596
173.8984, 446.9600
174.3805, 478.5820
174.8626, 515.0601
175.3447, 556.9220
175.8268, 604.4919
176.3090, 659.8737
176.7911, 731.0828
177.2732, 809.3985
177.7553, 882.5294
178.2374, 957.3124
178.7195, 1014.952
179.2017, 1032.439
179.6838, 1011.213
180.1659, 960.4041
180.6480, 870.2801
181.1301, 755.8000
181.6122, 649.0432
182.0944, 555.9353
182.5765, 477.8632
183.0586, 416.8173
183.5407, 373.6281
184.0228, 341.4747
184.5049, 317.7565
184.9871, 301.1710
185.4692, 288.1157
185.9513, 277.6331
186.4334, 269.6930
186.9155, 264.4896
187.3976, 262.1776
187.8798, 261.0247
188.3619, 258.7190
188.8440, 255.6592
189.3261, 254.6590
189.8082, 257.5161
190.2903, 263.1296
190.7725, 267.7917
191.2546, 271.5849
191.7367, 274.3260
192.2188, 275.8177
192.7009, 276.0944
193.1830, 275.4680
193.6652, 274.2155
194.1473, 272.2183
194.6294, 268.4725
195.1115, 262.6708
195.5936, 256.1586
196.0757, 250.4610
196.5579, 245.5716
197.0400, 241.5185
197.5221, 238.2463
198.0042, 235.7754
198.4863, 234.4937
198.9684, 234.5875
199.4506, 235.4786
199.9327, 236.2050
200.4148, 236.6770
200.8969, 237.7798
201.3790, 239.9045
201.8611, 243.0562
202.3433, 246.7576
202.8254, 250.9131
203.3075, 255.7773
203.7896, 261.7425
204.2717, 268.8921
204.7538, 276.7983
205.2360, 285.4120
205.7181, 294.7963
206.2002, 304.2747
206.6823, 313.8752
207.1644, 323.5287
207.6465, 332.5960
208.1287, 340.2195
208.6108, 349.9067
209.0929, 363.5096
209.5750, 381.7047
210.0571, 400.2956
210.5392, 418.8078
211.0214, 438.2590
211.5035, 461.1379
211.9856, 487.9760
212.4677, 516.1257
212.9498, 545.1387
213.4319, 575.6243
213.9140, 603.8177
214.3962, 631.1370
214.8783, 655.3220
215.3604, 669.9123
215.8425, 672.2159
216.3246, 671.3156
216.8067, 669.4783
217.2889, 663.4538
217.7710, 667.5230
218.2531, 682.3522
218.7352, 707.0701
219.2173, 740.1124
219.6994, 781.8759
220.1816, 831.5302
220.6637, 890.3495
221.1458, 961.4213
221.6279, 1034.682
222.1100, 1116.847
222.5921, 1198.777
223.0743, 1261.290
223.5564, 1310.181
224.0385, 1328.780
224.5206, 1306.161
225.0027, 1229.981
225.4848, 1144.032
225.9670, 1041.409
226.4491, 932.6955
226.9312, 843.4108
227.4133, 775.8461
227.8954, 724.9180
228.3775, 690.1260
228.8597, 673.3934
229.3418, 666.8586
229.8239, 672.1788
230.3060, 687.1402
230.7881, 706.2831
231.2702, 733.3558
231.7524, 759.2829
232.2345, 780.8406
232.7166, 802.0643
233.1987, 810.4100
233.6808, 805.4316
234.1629, 787.8186
234.6451, 757.7316
235.1272, 709.6905
235.6093, 657.7152
236.0914, 607.2708
236.5735, 557.0651
237.0556, 511.2180
237.5378, 469.0298
238.0199, 431.3792
238.5020, 400.9414
238.9841, 379.5409
239.4662, 362.1250
239.9483, 346.4879
240.4305, 332.2832
240.9126, 321.0280
241.3947, 313.1091
241.8768, 307.9960
242.3589, 304.2487
242.8410, 300.8954
243.3232, 300.3634
243.8053, 304.2610
244.2874, 315.3804
244.7695, 323.9186
245.2516, 327.8550
245.7337, 330.0451
246.2159, 336.8277
246.6980, 349.0788
247.1801, 364.5880
247.6622, 382.8983
248.1443, 404.8891
248.6264, 427.6797
249.1086, 452.8657
249.5907, 478.2428
250.0728, 499.8929
250.5549, 519.9616
251.0370, 532.7321
251.5191, 535.8522
252.0013, 528.3495
252.4834, 513.8354
252.9655, 489.8235
253.4476, 460.4430
253.9297, 432.9421
254.4118, 407.1133
254.8940, 384.0693
255.3761, 364.3959
255.8582, 348.4168
256.3403, 334.2447
256.8224, 321.7641
257.3046, 311.1566
257.7867, 303.1043
258.2688, 298.0735
258.7509, 294.4726
259.2330, 291.8322
259.7151, 290.0824
260.1973, 289.6380
260.6794, 290.6389
261.1615, 292.8190
261.6436, 295.8473
262.1257, 299.9176
262.6078, 304.4651
263.0900, 309.6859
263.5721, 315.8900
264.0542, 320.4084
264.5363, 324.0290
265.0184, 325.0722
265.5005, 320.9926
265.9827, 310.6124
266.4648, 298.5287
266.9469, 285.4103
267.4290, 271.2425
267.9111, 258.9162
268.3932, 248.5228
268.8754, 239.9792
269.3575, 233.4225
269.8396, 229.1172
270.3217, 225.6141
270.8038, 222.5846
271.2859, 220.0172
271.7681, 218.2592
272.2502, 217.4778
272.7323, 217.1593
273.2144, 216.9178
273.6965, 216.8244
274.1786, 216.3704
274.6608, 215.1681
275.1429, 213.4459
275.6250, 212.9432
276.1071, 213.9111
276.5892, 215.3749
277.0714, 216.4809
277.5535, 217.2068
278.0356, 217.8118
278.5177, 218.2125
278.9998, 218.5619
279.4819, 219.6376
279.9641, 221.6239
280.4462, 223.6210
280.9283, 224.7121
281.4104, 224.8430
281.8925, 225.4781
282.3746, 226.7014
282.8568, 228.6749
283.3389, 232.2281
283.8210, 237.5582
284.3031, 242.9347
284.7852, 246.7131
285.2673, 249.0092
285.7495, 252.5176
286.2316, 257.5511
286.7137, 263.9595
287.1958, 271.7084
287.6779, 280.8227
288.1600, 290.3857
288.6422, 300.3184
289.1243, 310.4978
289.6064, 319.8705
290.0885, 329.0499
290.5706, 336.0291
291.0527, 337.3646
291.5349, 333.2184
292.0170, 325.8511
292.4991, 314.4637
292.9812, 300.5248
293.4633, 289.8543
293.9454, 282.9024
294.4276, 278.2521
294.9097, 274.2544
295.3918, 270.9937
295.8739, 269.0410
296.3560, 269.0895
296.8381, 270.6111
297.3203, 272.3698
297.8024, 274.2986
298.2845, 276.7162
298.7666, 279.6323
299.2487, 283.2280
299.7308, 288.1572
300.2130, 295.2467
300.6951, 303.6355
301.1772, 312.1106
301.6593, 320.6372
302.1414, 329.2347
302.6235, 339.2162
303.1057, 349.1824
303.5878, 356.0779
304.0699, 358.7572
304.5520, 358.0827
305.0341, 354.8242
305.5162, 349.0523
305.9984, 341.0633
306.4805, 328.9623
306.9626, 315.3525
307.4447, 304.0865
307.9268, 296.3382
308.4089, 290.8573
308.8911, 286.9431
309.3732, 284.4637
309.8553, 282.8857
310.3374, 281.5301
310.8195, 281.0792
311.3016, 282.8087
311.7838, 288.6598
312.2659, 293.1173
312.7480, 291.6309
313.2301, 285.8637
313.7122, 279.9382
314.1943, 275.6898
314.6765, 271.9794
315.1586, 267.8331
315.6407, 262.8212
316.1228, 258.4547
316.6049, 255.3777
317.0870, 253.4563
317.5692, 252.5022
318.0513, 253.1875
318.5334, 254.1920
319.0155, 254.7446
319.4976, 254.6532
319.9797, 255.0671
320.4619, 256.5247
320.9440, 258.6299
321.4261, 260.9169
321.9082, 263.7491
322.3903, 266.3025
322.8724, 268.0327
323.3546, 268.9081
323.8367, 270.4231
324.3188, 273.3995
324.8009, 276.8445
325.2830, 279.9655
325.7651, 282.1340
326.2473, 284.6067
326.7294, 287.4178
327.2115, 290.6164
327.6936, 294.5607
328.1757, 299.1360
328.6578, 304.5284
329.1400, 310.8337
329.6221, 317.2773
330.1042, 325.5817
330.5863, 336.3325
331.0684, 349.0176
331.5505, 361.9713
332.0327, 376.0203
332.5148, 389.5078
332.9969, 402.5848
333.4790, 417.3309
333.9611, 425.1518
334.4432, 424.5495
334.9254, 417.8508
335.4075, 408.4159
335.8896, 394.1299
336.3717, 381.2003
336.8538, 371.5980
337.3359, 365.3846
337.8180, 360.8643
338.3001, 357.5993
338.7823, 356.6883
339.2644, 359.9907
339.7465, 368.4279
340.2286, 377.0931
340.7107, 384.6069
341.1928, 391.3603
341.6750, 399.3123
342.1571, 408.6870
342.6392, 418.7968
343.1213, 430.3164
343.6034, 443.2187
344.0855, 452.6568
344.5677, 457.4982
345.0498, 458.6472
345.5319, 457.6321
346.0140, 454.4076
346.4961, 450.3496
346.9782, 445.1432
347.4604, 439.4692
347.9425, 436.7601
348.4246, 437.2722
348.9067, 440.9254
349.3888, 448.8373
349.8709, 460.3662
350.3531, 471.9295
350.8352, 481.9262
351.3173, 490.6582
351.7994, 499.5168
352.2815, 508.7042
352.7636, 515.5017
353.2458, 517.0763
353.7279, 514.3055
354.2100, 509.0508
354.6921, 500.9835
355.1742, 491.5079
355.6563, 481.6680
356.1385, 471.5371
356.6206, 461.4930
357.1027, 449.8707
357.5848, 439.2075
358.0669, 432.4962
358.5490, 431.8362
359.0312, 433.3708
359.5133, 434.7435
359.9954, 436.3349
360.4775, 439.3268
360.9596, 444.4122
361.4417, 451.0029
361.9239, 458.7664
362.4060, 467.6577
362.8881, 477.6792
363.3702, 488.3647
363.8523, 500.2622
364.3344, 514.2145
364.8166, 528.9218
365.2987, 547.2478
365.7808, 569.4347
366.2629, 595.4487
366.7450, 627.1370
367.2271, 665.8124
367.7093, 709.7730
368.1914, 757.5228
368.6735, 817.6882
369.1556, 872.3518
369.6377, 922.8233
370.1198, 968.0556
370.6020, 993.0888
371.0841, 997.2025
371.5662, 981.7361
372.0483, 945.8870
372.5304, 875.5125
373.0125, 810.3291
373.4947, 749.9911
373.9768, 696.2864
374.4589, 653.1043
374.9410, 622.0627
375.4231, 598.1725
375.9052, 580.3691
376.3874, 569.3158
376.8695, 558.7239
377.3516, 548.2643
377.8337, 538.6433
378.3158, 530.6377
378.7979, 524.3884
379.2801, 518.4970
379.7622, 512.4203
380.2443, 506.3955
380.7264, 501.1490
381.2085, 496.6897
381.6906, 493.1367
382.1728, 489.9806
382.6549, 487.5218
383.1370, 488.0424
383.6191, 492.3407
384.1012, 499.0296
384.5833, 505.6545
385.0655, 512.4680
385.5476, 521.1295
386.0297, 532.7012
386.5118, 546.8365
386.9939, 563.0613
387.4760, 581.1932
387.9582, 601.8521
388.4403, 624.6448
388.9224, 650.7070
389.4045, 682.0573
389.8866, 720.7982
390.3687, 764.6071
390.8509, 811.1882
391.3330, 860.3734
391.8151, 913.3679
392.2972, 973.3538
392.7793, 1035.820
393.2614, 1097.451
393.7436, 1162.819
394.2257, 1218.259
394.7078, 1263.954
395.1899, 1295.452
395.6720, 1301.035
396.1541, 1272.867
396.6363, 1221.302
397.1184, 1147.045
397.6005, 1041.906
398.0826, 940.4671
398.5647, 842.3260
399.0468, 752.4985
399.5290, 677.0660
400.0111, 620.9279
400.4932, 574.5701
400.9753, 537.7017
401.4574, 510.1973
401.9395, 487.6165
402.4217, 470.7325
402.9038, 457.7133
403.3859, 447.4307
403.8680, 439.9590
404.3501, 435.2078
404.8322, 433.9971
405.3144, 435.1418
405.7965, 435.3814
406.2786, 434.2109
406.7607, 433.7946
407.2428, 434.8326
407.7249, 437.3204
408.2071, 442.2115
408.6892, 449.8302
409.1713, 458.9419
409.6534, 467.6237
410.1355, 475.9717
410.6176, 486.4791
411.0998, 500.0836
411.5819, 516.2606
412.0640, 533.9159
412.5461, 552.9059
413.0282, 573.5291
413.5103, 596.8855
413.9925, 621.6455
414.4746, 645.7513
414.9567, 669.4251
415.4388, 690.8201
415.9209, 710.3840
416.4030, 726.5134
416.8852, 735.7543
417.3673, 737.5217
417.8494, 730.7642
418.3315, 712.9386
418.8136, 683.9802
419.2957, 650.5852
419.7779, 612.8401
420.2600, 574.2490
420.7421, 538.9445
421.2242, 507.5214
421.7063, 479.7635
422.1884, 455.0729
422.6706, 433.6828
423.1527, 415.4783
423.6348, 401.5480
424.1169, 390.1718
424.5990, 380.6608
425.0811, 373.7486
425.5633, 367.0796
426.0454, 359.6401
426.5275, 352.7857
427.0096, 348.2757
427.4917, 347.7023
427.9738, 347.1096
428.4560, 345.5776
428.9381, 343.1593
429.4202, 341.3104
429.9023, 339.8900
430.3844, 339.3185
430.8665, 340.0423
431.3487, 342.2162
431.8308, 344.7216
432.3129, 347.4216
432.7950, 350.4477
433.2771, 353.9671
433.7592, 357.9409
434.2414, 362.5604
434.7235, 368.5697
435.2056, 375.3750
435.6877, 380.9149
436.1698, 385.2326
436.6519, 387.5923
437.1341, 387.2999
437.6162, 384.4292
438.0983, 378.9858
438.5804, 370.2401
439.0625, 359.9873
439.5446, 349.4488
440.0268, 338.9353
440.5089, 329.5746
440.9910, 322.2415
441.4731, 316.2455
441.9552, 310.9644
442.4373, 306.4223
442.9195, 302.3460
443.4016, 298.2358
443.8837, 294.6404
444.3658, 292.2272
444.8479, 292.1949
445.3300, 292.3671
445.8122, 291.9673
446.2943, 291.0800
446.7764, 290.5511
447.2585, 290.9933
447.7406, 291.4452
448.2227, 291.4073
448.7049, 290.5764
449.1870, 289.8277
449.6691, 289.1465
450.1512, 288.5581
450.6333, 288.0762
451.1154, 287.5478
451.5976, 287.4702
452.0797, 288.1548
452.5618, 289.5208
453.0439, 290.3165
453.5260, 290.4295
454.0081, 290.2791
454.4903, 290.0835
454.9724, 289.8482
455.4545, 289.8905
455.9366, 290.3019
456.4187, 290.8958
456.9008, 291.2950
457.3830, 291.5464
457.8651, 291.9615
458.3472, 292.9940
458.8293, 294.1999
459.3114, 294.6343
459.7935, 294.2974
460.2757, 294.0060
460.7578, 294.7047
461.2399, 295.7692
461.7220, 296.2614
462.2041, 295.5544
462.6862, 294.8839
463.1684, 295.0347
463.6505, 295.8295
464.1326, 296.8587
464.6147, 298.4616
465.0968, 299.8459
465.5789, 300.4455
466.0611, 300.1044
466.5432, 299.9393
467.0253, 299.9307
467.5074, 300.3145
467.9895, 301.2941
468.4716, 303.8528
468.9538, 305.7630
469.4359, 306.5247
469.9180, 306.5420
470.4001, 307.1415
470.8822, 308.6359
471.3643, 310.1624
471.8465, 311.3627
472.3286, 312.2039
472.8107, 313.1435
473.2928, 314.2329
473.7749, 315.2846
474.2570, 315.8867
474.7392, 316.0484
475.2213, 316.7839
475.7034, 318.4457
476.1855, 320.6461
476.6676, 322.6159
477.1497, 324.3860
477.6319, 326.1640
478.1140, 328.3038
478.5961, 330.4752
479.0782, 331.8596
479.5603, 332.3188
480.0424, 333.1615
480.5246, 335.7588
481.0067, 339.3271
481.4888, 342.7680
481.9709, 345.8408
482.4530, 348.6026
482.9352, 350.6798
483.4173, 352.3943
483.8994, 354.7659
484.3815, 359.4031
484.8636, 363.7480
485.3457, 366.4043
485.8279, 366.7977
486.3100, 367.3844
486.7921, 369.1227
487.2742, 370.7233
487.7563, 371.0532
488.2384, 369.7038
488.7206, 367.7226
489.2027, 364.9410
489.6848, 361.6623
490.1669, 358.9833
490.6490, 356.9923
491.1311, 355.4048
491.6133, 353.9720
492.0954, 352.6992
492.5775, 352.6971
493.0596, 354.2214
493.5417, 355.9469
494.0238, 356.4900
494.5060, 355.9913
494.9881, 355.0126
495.4702, 353.5675
495.9523, 351.9176
496.4344, 350.4985
496.9165, 349.2298
497.3987, 347.8178
497.8808, 345.6966
498.3629, 343.5755
498.8450, 342.0390
499.3271, 341.1114
499.8092, 340.8765
500.2914, 341.3364
500.7735, 342.5157
501.2556, 344.4767
501.7377, 348.6544
502.2198, 351.8660
502.7019, 352.8339
503.1841, 352.3091
503.6662, 352.3596
504.1483, 353.2587
504.6304, 354.6441
505.1125, 356.4172
505.5946, 358.5736
506.0768, 361.1863
506.5589, 364.3955
507.0410, 367.8371
507.5231, 371.1821
508.0052, 374.3612
508.4873, 377.8299
508.9695, 381.5438
509.4516, 385.6169
509.9337, 390.2311
510.4158, 395.3822
510.8979, 400.9926
511.3800, 407.4596
511.8622, 414.2713
512.3443, 420.4472
512.8264, 425.9371
513.3085, 430.8240
513.7906, 435.5269
514.2728, 439.5094
514.7549, 441.9981
515.2370, 442.6703
515.7191, 442.3830
516.2012, 441.5074
516.6833, 440.0589
517.1655, 438.0495
517.6476, 434.8813
518.1297, 431.7588
518.6118, 428.9105
519.0939, 426.3860
519.5760, 424.5493
520.0582, 424.2144
520.5403, 423.9407
521.0224, 423.1216
521.5045, 421.5611
521.9866, 419.9199
522.4688, 417.8122
522.9509, 416.0428
523.4330, 415.5214
523.9151, 416.2705
524.3972, 418.2224
524.8793, 421.6181
525.3615, 425.9626
525.8436, 429.8879
526.3257, 433.4257
526.8078, 437.4842
527.2899, 442.9893
527.7720, 449.3909
528.2542, 455.6935
528.7363, 461.8656
529.2184, 467.0444
529.7005, 470.7003
530.1826, 472.7909
530.6647, 473.2349
531.1469, 472.0683
531.6290, 469.1336
532.1111, 463.7391
532.5932, 456.5539
533.0753, 448.9729
533.5574, 440.8612
534.0396, 432.8719
534.5217, 425.0287
535.0038, 417.3911
535.4859, 410.2850
535.9680, 403.5656
536.4501, 397.5760
536.9323, 392.5748
537.4144, 388.7363
537.8965, 385.2099
538.3786, 381.8022
538.8607, 378.9471
539.3428, 377.7484
539.8250, 378.3652
540.3071, 378.2825
540.7892, 376.4420
541.2713, 373.7284
541.7534, 372.5111
542.2355, 372.6663
542.7177, 372.8646
543.1998, 372.1534
543.6819, 370.9855
544.1640, 369.9442
544.6461, 369.0570
545.1282, 368.5841
545.6104, 368.9587
546.0925, 369.7536
546.5746, 370.5133
547.0567, 371.3511
547.5388, 371.7998
548.0209, 371.4366
548.5031, 370.5774
548.9852, 369.9127
549.4673, 368.9669
549.9494, 368.8668
550.4315, 370.3326
550.9136, 373.3536
551.3958, 375.0396
551.8779, 374.7589
552.3600, 374.2108
552.8421, 374.6378
553.3242, 376.2241
553.8063, 376.9333
554.2885, 376.5077
554.7706, 375.6798
555.2527, 375.2539
555.7348, 375.2409
556.2169, 375.7862
556.6990, 377.2247
557.1812, 378.8540
557.6633, 379.5326
558.1454, 379.4867
558.6275, 379.5699
559.1096, 380.7673
559.5917, 381.9516
560.0739, 381.8563
560.5560, 380.3726
561.0381, 379.5278
561.5202, 380.8780
562.0023, 382.7450
562.4844, 383.8754
562.9666, 383.4764
563.4487, 383.2510
563.9308, 383.2045
564.4129, 383.4147
564.8950, 384.0597
565.3771, 385.3663
565.8593, 386.5763
566.3414, 387.5348
566.8235, 388.2567
567.3056, 388.8013
567.7877, 389.1337
568.2698, 389.5053
568.7520, 389.9614
569.2341, 390.5664
569.7162, 391.7418
570.1983, 393.5290
570.6804, 395.2812
571.1625, 396.3850
571.6447, 397.0387
572.1268, 397.5151
572.6089, 397.7715
573.0910, 398.1216
573.5731, 398.9677
574.0552, 400.0195
574.5374, 400.7871
575.0195, 400.4887
575.5016, 400.5099
575.9837, 401.3836
576.4658, 403.0681
576.9479, 404.9100
577.4301, 407.3008
577.9122, 409.3372
578.3943, 410.4708
578.8764, 410.3915
579.3585, 411.2344
579.8406, 413.2872
580.3228, 415.6191
580.8049, 417.1635
581.2870, 417.9681
581.7691, 419.0358
582.2512, 420.5106
582.7333, 422.3433
583.2155, 424.8988
583.6975, 427.8012
584.1796, 430.0014
584.6617, 430.2080
585.1439, 430.0370
