##NAMES=Tremolite
##RRUFFID=R040109
##IDEAL CHEMISTRY=[box]Ca_2_Mg_5_Si_8_O_22_(OH)_2_
##LOCALITY=Cassiar, British Columbia, Canada
##OWNER=RRUFF
##SOURCE=University of Arizona Mineral Museum
##DESCRIPTION=Green fine-grained massive
##STATUS=The identification of this mineral has been confirmed by X-ray diffraction and chemical analysis
##URL=rruff.info/R040109
##MEASURED CHEMISTRY=[box]Ca_1.99_(Mg_0.90_Fe_0.08_Al_0.01_)_5_Si_8.01_O_22_(OH)_2_
130.8970, 436.4909
131.3791, 451.7892
131.8612, 465.3671
132.3433, 475.3507
132.8254, 480.2963
133.3076, 482.8905
133.7897, 489.2120
134.2718, 499.6348
134.7539, 511.6239
135.2360, 523.2679
135.7181, 534.5549
136.2003, 546.5367
136.6824, 558.8989
137.1645, 571.9871
137.6466, 588.1478
138.1287, 608.0074
138.6108, 629.3313
139.0930, 649.9213
139.5751, 669.9543
140.0572, 688.3812
140.5393, 704.1765
141.0214, 717.1132
141.5035, 731.8416
141.9857, 750.1621
142.4678, 768.9705
142.9499, 782.9165
143.4320, 789.4128
143.9141, 795.3159
144.3962, 802.5784
144.8784, 810.4067
145.3605, 821.7061
145.8426, 839.2977
146.3247, 860.1713
146.8068, 875.1868
147.2889, 874.9978
147.7711, 877.8897
148.2532, 891.6914
148.7353, 923.2372
149.2174, 957.3093
149.6995, 992.1282
150.1816, 1028.641
150.6638, 1071.592
151.1459, 1121.599
151.6280, 1177.703
152.1101, 1239.345
152.5922, 1299.095
153.0743, 1372.060
153.5565, 1465.295
154.0386, 1579.228
154.5207, 1689.103
155.0028, 1782.349
155.4849, 1874.530
155.9670, 1981.371
156.4492, 2111.759
156.9313, 2251.154
157.4134, 2415.229
157.8955, 2617.465
158.3776, 2758.200
158.8597, 2804.450
159.3419, 2773.810
159.8240, 2690.924
160.3061, 2512.448
160.7882, 2321.562
161.2703, 2156.650
161.7524, 2021.517
162.2346, 1910.712
162.7167, 1829.480
163.1988, 1770.804
163.6809, 1720.657
164.1630, 1667.213
164.6451, 1622.567
165.1273, 1596.397
165.6094, 1595.107
166.0915, 1604.797
166.5736, 1618.430
167.0557, 1636.448
167.5379, 1660.978
168.0200, 1691.005
168.5021, 1728.701
168.9842, 1775.723
169.4663, 1827.980
169.9484, 1894.444
170.4306, 1982.902
170.9127, 2092.117
171.3948, 2218.759
171.8769, 2361.383
172.3590, 2518.582
172.8411, 2688.294
173.3233, 2870.970
173.8054, 3063.295
174.2875, 3260.054
174.7696, 3462.074
175.2517, 3673.201
175.7338, 3915.421
176.2160, 4170.873
176.6981, 4398.706
177.1802, 4639.188
177.6623, 4822.117
178.1444, 4830.954
178.6265, 4656.085
179.1087, 4352.981
179.5908, 3919.509
180.0729, 3391.814
180.5550, 2890.061
181.0371, 2467.618
181.5192, 2117.687
182.0014, 1842.373
182.4835, 1644.973
182.9656, 1502.447
183.4477, 1389.734
183.9298, 1306.114
184.4119, 1240.874
184.8941, 1189.431
185.3762, 1151.285
185.8583, 1128.493
186.3404, 1124.219
186.8225, 1129.516
187.3046, 1129.178
187.7868, 1123.271
188.2689, 1116.663
188.7510, 1110.026
189.2331, 1104.439
189.7152, 1108.806
190.1973, 1128.994
190.6795, 1155.649
191.1616, 1167.137
191.6437, 1162.719
192.1258, 1149.158
192.6079, 1127.563
193.0900, 1098.530
193.5722, 1075.967
194.0543, 1064.118
194.5364, 1060.283
195.0185, 1054.560
195.5006, 1046.228
195.9827, 1039.345
196.4649, 1038.179
196.9470, 1042.876
197.4291, 1049.154
197.9112, 1055.256
198.3933, 1061.842
198.8754, 1074.463
199.3576, 1094.451
199.8397, 1116.568
200.3218, 1132.944
200.8039, 1141.913
201.2860, 1156.195
201.7681, 1180.138
202.2503, 1213.519
202.7324, 1248.747
203.2145, 1284.924
203.6966, 1324.601
204.1787, 1372.302
204.6608, 1428.905
205.1430, 1487.471
205.6251, 1544.100
206.1072, 1597.949
206.5893, 1661.367
207.0714, 1735.618
207.5535, 1817.875
208.0357, 1904.219
208.5178, 1994.324
208.9999, 2087.746
209.4820, 2186.679
209.9641, 2293.255
210.4462, 2391.468
210.9284, 2474.819
211.4105, 2555.540
211.8926, 2657.791
212.3747, 2787.963
212.8568, 2926.307
213.3389, 3065.009
213.8211, 3199.605
214.3032, 3345.283
214.7853, 3500.265
215.2674, 3668.111
215.7495, 3854.465
216.2316, 4062.135
216.7138, 4286.869
217.1959, 4530.091
217.6780, 4803.179
218.1601, 5063.711
218.6422, 5298.425
219.1243, 5520.744
219.6065, 5776.157
220.0886, 6085.351
220.5707, 6390.655
221.0528, 6665.319
221.5349, 6942.614
222.0170, 7114.049
222.4992, 7172.695
222.9813, 7121.807
223.4634, 6967.451
223.9455, 6673.171
224.4276, 6323.696
224.9097, 5965.902
225.3919, 5572.184
225.8740, 5221.002
226.3561, 4910.103
226.8382, 4645.066
227.3203, 4443.810
227.8024, 4319.416
228.2846, 4244.536
228.7667, 4206.895
229.2488, 4230.015
229.7309, 4242.257
230.2130, 4241.642
230.6951, 4226.222
231.1773, 4178.679
231.6594, 4098.443
232.1415, 3986.855
232.6236, 3842.992
233.1057, 3658.080
233.5878, 3457.173
234.0700, 3233.950
234.5521, 2992.739
235.0342, 2774.939
235.5163, 2585.091
235.9984, 2415.836
236.4805, 2259.993
236.9627, 2113.928
237.4448, 1992.331
237.9269, 1901.128
238.4090, 1839.688
238.8911, 1789.862
239.3732, 1752.347
239.8554, 1725.714
240.3375, 1709.781
240.8196, 1709.505
241.3017, 1710.178
241.7838, 1706.700
242.2659, 1699.185
242.7481, 1707.072
243.2302, 1736.070
243.7123, 1774.685
244.1944, 1812.515
244.6765, 1847.171
245.1586, 1886.198
245.6408, 1933.297
246.1229, 1988.775
246.6050, 2035.640
247.0871, 2072.529
247.5692, 2102.221
248.0513, 2128.666
248.5335, 2158.643
249.0156, 2172.042
249.4977, 2163.989
249.9798, 2134.159
250.4619, 2092.673
250.9440, 2035.588
251.4262, 1970.818
251.9083, 1905.458
252.3904, 1838.353
252.8725, 1772.314
253.3546, 1707.193
253.8367, 1642.605
254.3189, 1583.269
254.8010, 1529.053
255.2831, 1481.026
255.7652, 1440.565
256.2473, 1408.893
256.7295, 1382.955
257.2116, 1363.198
257.6937, 1349.729
258.1758, 1337.497
258.6579, 1326.093
259.1400, 1316.425
259.6222, 1310.102
260.1043, 1309.659
260.5864, 1306.148
261.0685, 1296.243
261.5506, 1280.161
262.0327, 1268.275
262.5149, 1262.382
262.9970, 1258.321
263.4791, 1253.171
263.9612, 1249.073
264.4433, 1237.231
264.9254, 1213.140
265.4076, 1177.535
265.8897, 1145.987
266.3718, 1117.997
266.8539, 1094.430
267.3360, 1076.998
267.8181, 1067.994
268.3003, 1057.288
268.7824, 1041.453
269.2645, 1021.097
269.7466, 1005.764
270.2287, 995.6450
270.7108, 990.1778
271.1930, 991.0617
271.6751, 1000.963
272.1572, 1004.278
272.6393, 994.2606
273.1214, 973.1011
273.6035, 964.8946
274.0857, 973.0205
274.5678, 985.1409
275.0499, 988.0596
275.5320, 979.7875
276.0141, 976.1846
276.4962, 982.5870
276.9784, 996.8104
277.4605, 1005.044
277.9426, 1006.531
278.4247, 1004.972
278.9068, 1001.927
279.3889, 996.9664
279.8711, 997.2657
280.3532, 1005.163
280.8353, 1019.366
281.3174, 1034.379
281.7995, 1049.789
282.2816, 1067.385
282.7638, 1091.738
283.2459, 1122.630
283.7280, 1145.499
284.2101, 1154.765
284.6922, 1155.200
285.1743, 1159.561
285.6565, 1167.402
286.1386, 1182.868
286.6207, 1215.786
287.1028, 1263.571
287.5849, 1300.401
288.0670, 1319.221
288.5492, 1325.458
289.0313, 1330.056
289.5134, 1332.964
289.9955, 1334.775
290.4776, 1338.808
290.9597, 1343.078
291.4419, 1336.806
291.9240, 1313.840
292.4061, 1284.901
292.8882, 1269.921
293.3703, 1268.581
293.8524, 1272.529
294.3346, 1274.550
294.8167, 1277.049
295.2988, 1288.323
295.7809, 1312.534
296.2630, 1341.118
296.7451, 1361.232
297.2273, 1373.898
297.7094, 1386.819
298.1915, 1405.833
298.6736, 1428.746
299.1557, 1450.907
299.6378, 1471.936
300.1200, 1491.759
300.6021, 1513.271
301.0842, 1534.695
301.5663, 1549.318
302.0484, 1553.601
302.5305, 1548.545
303.0127, 1534.280
303.4948, 1509.276
303.9769, 1480.133
304.4590, 1449.246
304.9411, 1418.434
305.4232, 1392.258
305.9054, 1377.119
306.3875, 1365.886
306.8696, 1350.846
307.3517, 1330.517
307.8338, 1310.015
308.3159, 1293.325
308.7981, 1279.433
309.2802, 1266.381
309.7623, 1252.847
310.2444, 1240.111
310.7265, 1229.614
311.2086, 1221.894
311.6908, 1213.549
312.1729, 1202.335
312.6550, 1189.263
313.1371, 1175.904
313.6192, 1158.931
314.1013, 1145.157
314.5835, 1139.846
315.0656, 1143.851
315.5477, 1147.453
316.0298, 1144.161
316.5119, 1138.998
316.9940, 1137.477
317.4762, 1145.651
317.9583, 1153.806
318.4404, 1157.696
318.9225, 1157.250
319.4046, 1157.366
319.8867, 1156.797
320.3689, 1158.724
320.8510, 1165.785
321.3331, 1184.816
321.8152, 1202.557
322.2973, 1216.053
322.7794, 1225.477
323.2616, 1233.428
323.7437, 1237.202
324.2258, 1241.568
324.7079, 1249.494
325.1900, 1258.152
325.6721, 1273.980
326.1543, 1302.851
326.6364, 1341.549
327.1185, 1372.932
327.6006, 1390.586
328.0827, 1405.904
328.5648, 1423.841
329.0470, 1442.574
329.5291, 1466.960
330.0112, 1501.080
330.4933, 1540.714
330.9754, 1573.224
331.4576, 1594.990
331.9397, 1614.182
332.4218, 1634.949
332.9039, 1661.209
333.3860, 1678.677
333.8681, 1683.908
334.3503, 1682.068
334.8324, 1681.491
335.3145, 1679.442
335.7966, 1684.662
336.2787, 1701.838
336.7608, 1732.583
337.2430, 1762.075
337.7251, 1787.828
338.2072, 1814.937
338.6893, 1852.470
339.1714, 1903.001
339.6535, 1949.456
340.1357, 1981.907
340.6178, 2002.705
341.0999, 2044.439
341.5820, 2114.149
342.0641, 2184.171
342.5462, 2225.987
343.0284, 2239.310
343.5105, 2244.704
343.9926, 2245.030
344.4747, 2242.084
344.9568, 2238.469
345.4389, 2233.453
345.9211, 2237.470
346.4032, 2268.584
346.8853, 2319.731
347.3674, 2354.548
347.8495, 2358.655
348.3316, 2351.507
348.8138, 2372.706
349.2959, 2419.008
349.7780, 2457.462
350.2601, 2461.917
350.7422, 2443.729
351.2243, 2424.980
351.7065, 2408.478
352.1886, 2393.505
352.6707, 2380.643
353.1528, 2368.866
353.6349, 2355.216
354.1170, 2334.360
354.5992, 2312.265
355.0813, 2295.096
355.5634, 2283.546
356.0455, 2276.589
356.5276, 2268.162
357.0097, 2264.378
357.4919, 2275.723
357.9740, 2310.695
358.4561, 2359.301
358.9382, 2416.474
359.4203, 2481.977
359.9024, 2553.724
360.3846, 2634.457
360.8667, 2719.520
361.3488, 2804.369
361.8309, 2876.131
362.3130, 2957.385
362.7951, 3061.326
363.2773, 3185.843
363.7594, 3306.283
364.2415, 3408.558
364.7236, 3508.190
365.2057, 3615.416
365.6878, 3731.871
366.1700, 3854.304
366.6521, 3991.803
367.1342, 4137.690
367.6163, 4265.296
368.0984, 4396.548
368.5805, 4488.326
369.0627, 4524.196
369.5448, 4503.789
370.0269, 4425.725
370.5090, 4270.477
370.9911, 4064.930
371.4732, 3858.120
371.9554, 3646.897
372.4375, 3442.972
372.9196, 3246.340
373.4017, 3051.728
373.8838, 2893.112
374.3659, 2774.807
374.8481, 2682.611
375.3302, 2601.887
375.8123, 2532.285
376.2944, 2472.561
376.7765, 2420.705
377.2586, 2377.413
377.7408, 2352.467
378.2229, 2347.462
378.7050, 2352.339
379.1871, 2358.211
379.6692, 2365.274
380.1513, 2378.493
380.6335, 2397.498
381.1156, 2424.582
381.5977, 2465.068
382.0798, 2518.773
382.5619, 2580.900
383.0440, 2645.979
383.5262, 2717.404
384.0083, 2806.143
384.4904, 2916.259
384.9725, 3037.543
385.4546, 3162.136
385.9367, 3288.956
386.4189, 3414.110
386.9010, 3535.808
387.3831, 3655.984
387.8652, 3775.755
388.3473, 3894.368
388.8294, 4019.385
389.3116, 4161.560
389.7937, 4309.409
390.2758, 4448.410
390.7579, 4571.902
391.2400, 4684.240
391.7221, 4804.173
392.2043, 4924.814
392.6864, 4992.950
393.1685, 4993.343
393.6506, 4926.137
394.1327, 4789.300
394.6148, 4540.104
395.0970, 4277.461
395.5791, 4018.785
396.0612, 3762.249
396.5433, 3510.010
397.0254, 3237.410
397.5075, 2990.027
397.9897, 2784.886
398.4718, 2632.263
398.9539, 2501.832
399.4360, 2397.564
399.9181, 2313.801
400.4002, 2242.630
400.8824, 2183.085
401.3645, 2137.588
401.8466, 2108.622
402.3287, 2096.411
402.8108, 2090.128
403.2929, 2088.863
403.7751, 2094.948
404.2572, 2110.969
404.7393, 2137.843
405.2214, 2171.629
405.7035, 2214.155
406.1856, 2261.861
406.6678, 2298.421
407.1499, 2321.677
407.6320, 2349.766
408.1141, 2397.181
408.5962, 2462.151
409.0783, 2526.060
409.5605, 2588.150
410.0426, 2646.028
410.5247, 2694.541
411.0068, 2734.402
411.4889, 2772.130
411.9710, 2812.891
412.4532, 2852.781
412.9353, 2885.802
413.4174, 2911.620
413.8995, 2931.590
414.3816, 2960.298
414.8637, 2981.666
415.3459, 2969.052
415.8280, 2899.765
416.3101, 2807.514
416.7922, 2713.316
417.2743, 2617.858
417.7564, 2515.973
418.2386, 2398.969
418.7207, 2279.224
419.2028, 2166.881
419.6849, 2061.291
420.1670, 1966.249
420.6491, 1881.701
421.1313, 1807.988
421.6134, 1744.943
422.0955, 1698.260
422.5776, 1657.112
423.0597, 1618.563
423.5418, 1583.390
424.0240, 1547.666
424.5061, 1503.806
424.9882, 1463.942
425.4703, 1438.647
425.9524, 1433.587
426.4345, 1434.158
426.9167, 1440.146
427.3988, 1450.674
427.8809, 1460.226
428.3630, 1468.239
428.8451, 1476.388
429.3272, 1485.420
429.8094, 1495.407
430.2915, 1505.935
430.7736, 1516.700
431.2557, 1528.420
431.7378, 1540.982
432.2199, 1554.233
432.7021, 1572.870
433.1842, 1603.072
433.6663, 1640.239
434.1484, 1668.824
434.6305, 1688.662
435.1126, 1701.406
435.5948, 1711.195
436.0769, 1715.077
436.5590, 1704.425
437.0411, 1673.431
437.5232, 1631.870
438.0053, 1591.450
438.4875, 1550.469
438.9696, 1502.073
439.4517, 1429.832
439.9338, 1355.002
440.4159, 1297.583
440.8980, 1262.904
441.3802, 1238.052
441.8623, 1222.531
442.3444, 1211.094
442.8265, 1196.257
443.3086, 1169.843
443.7907, 1145.152
444.2729, 1125.838
444.7550, 1112.222
445.2371, 1105.077
445.7192, 1112.855
446.2013, 1121.641
446.6834, 1122.074
447.1656, 1103.625
447.6477, 1091.978
448.1298, 1091.509
448.6119, 1097.916
449.0940, 1099.338
449.5761, 1093.780
450.0583, 1087.035
450.5404, 1080.391
451.0225, 1073.328
451.5046, 1071.979
451.9867, 1077.739
452.4688, 1086.268
452.9510, 1093.679
453.4331, 1099.916
453.9152, 1101.989
454.3973, 1097.730
454.8794, 1089.772
455.3615, 1084.074
455.8437, 1080.612
456.3258, 1080.036
456.8079, 1086.126
457.2900, 1094.938
457.7721, 1096.744
458.2542, 1088.267
458.7364, 1080.547
459.2185, 1088.722
459.7006, 1105.778
460.1827, 1116.804
460.6648, 1109.035
461.1469, 1097.436
461.6291, 1092.898
462.1112, 1095.384
462.5933, 1097.975
463.0754, 1094.941
463.5575, 1092.190
464.0396, 1094.623
464.5218, 1109.638
465.0039, 1121.365
465.4860, 1125.047
465.9681, 1123.231
466.4502, 1122.535
466.9323, 1126.259
467.4145, 1128.174
467.8966, 1125.280
468.3787, 1115.711
468.8608, 1111.736
469.3429, 1115.651
469.8250, 1122.578
470.3072, 1127.613
470.7893, 1130.170
471.2714, 1132.937
471.7535, 1135.774
472.2356, 1139.443
472.7177, 1147.079
473.1999, 1158.958
473.6820, 1171.352
474.1641, 1184.443
474.6462, 1196.716
475.1284, 1198.381
475.6105, 1186.694
476.0926, 1175.687
476.5747, 1186.529
477.0568, 1211.307
477.5389, 1229.574
478.0211, 1229.162
478.5032, 1221.902
478.9853, 1217.934
479.4674, 1217.198
479.9495, 1219.354
480.4316, 1224.211
480.9138, 1231.822
481.3959, 1242.460
481.8780, 1256.860
482.3601, 1272.576
482.8422, 1292.137
483.3243, 1311.743
483.8065, 1325.786
484.2886, 1331.749
484.7707, 1333.526
485.2528, 1331.385
485.7349, 1325.425
486.2170, 1317.767
486.6992, 1306.223
487.1813, 1295.308
487.6634, 1288.107
488.1455, 1286.003
488.6276, 1283.346
489.1097, 1279.102
489.5919, 1274.851
490.0740, 1275.365
490.5561, 1281.595
491.0382, 1284.093
491.5203, 1275.851
492.0024, 1260.400
492.4846, 1255.786
492.9667, 1262.559
493.4488, 1270.156
493.9309, 1268.327
494.4130, 1260.037
494.8951, 1252.353
495.3773, 1247.010
495.8594, 1242.161
496.3415, 1232.671
496.8236, 1221.888
497.3057, 1218.309
497.7878, 1232.555
498.2700, 1250.412
498.7521, 1262.002
499.2342, 1266.105
499.7163, 1271.939
500.1984, 1283.367
500.6805, 1297.456
501.1627, 1311.968
501.6448, 1326.319
502.1269, 1341.160
502.6090, 1358.166
503.0911, 1375.770
503.5732, 1389.300
504.0554, 1392.876
504.5375, 1401.361
505.0196, 1420.528
505.5017, 1451.109
505.9838, 1485.019
506.4659, 1525.016
506.9481, 1561.847
507.4302, 1580.004
507.9123, 1579.457
508.3944, 1595.157
508.8765, 1638.581
509.3586, 1693.372
509.8408, 1729.229
510.3229, 1748.231
510.8050, 1766.537
511.2871, 1797.140
511.7692, 1831.261
512.2513, 1854.752
512.7335, 1866.948
513.2156, 1875.715
513.6977, 1888.919
514.1798, 1900.953
514.6619, 1904.677
515.1440, 1887.526
515.6262, 1875.446
516.1083, 1887.273
516.5904, 1912.492
517.0725, 1924.038
517.5546, 1894.664
518.0367, 1870.171
518.5189, 1872.580
519.0010, 1908.735
519.4831, 1926.854
519.9652, 1914.796
520.4473, 1896.726
520.9294, 1894.430
521.4116, 1914.112
521.8937, 1928.186
522.3758, 1932.192
522.8579, 1930.004
523.3400, 1930.323
523.8221, 1933.224
524.3043, 1937.573
524.7864, 1942.493
525.2685, 1948.436
525.7506, 1956.844
526.2327, 1967.757
526.7148, 1981.424
527.1970, 2008.251
527.6791, 2035.862
528.1612, 2041.814
528.6433, 2014.414
529.1254, 1977.914
529.6075, 1949.269
530.0897, 1924.747
530.5718, 1897.324
531.0539, 1869.227
531.5360, 1832.754
532.0181, 1777.992
532.5002, 1703.765
532.9824, 1643.549
533.4645, 1612.026
533.9466, 1589.624
534.4287, 1564.633
534.9108, 1530.360
535.3929, 1506.475
535.8751, 1499.506
536.3572, 1498.531
536.8393, 1480.841
537.3214, 1440.678
537.8035, 1409.434
538.2856, 1399.535
538.7678, 1406.053
539.2499, 1405.728
539.7320, 1398.231
540.2141, 1391.655
540.6962, 1395.214
541.1783, 1404.030
541.6605, 1406.470
542.1426, 1400.253
542.6247, 1390.664
543.1068, 1379.023
543.5889, 1367.962
544.0710, 1361.971
544.5532, 1365.843
545.0353, 1372.447
545.5174, 1381.434
545.9995, 1391.342
546.4816, 1394.302
546.9637, 1384.923
547.4459, 1370.625
547.9280, 1352.718
548.4101, 1325.329
548.8922, 1312.728
549.3743, 1324.712
549.8564, 1343.293
550.3386, 1348.636
550.8207, 1335.873
551.3028, 1326.021
551.7849, 1323.582
552.2670, 1325.368
552.7491, 1322.853
553.2313, 1315.930
553.7134, 1307.657
554.1955, 1297.254
554.6776, 1286.898
555.1597, 1284.829
555.6418, 1291.375
556.1240, 1296.779
556.6061, 1289.594
557.0882, 1277.064
557.5703, 1270.167
558.0524, 1274.010
558.5345, 1278.791
559.0167, 1280.456
559.4988, 1278.891
559.9809, 1273.854
560.4630, 1255.945
560.9451, 1243.738
561.4272, 1247.052
561.9094, 1266.448
562.3915, 1277.421
562.8736, 1274.506
563.3557, 1268.932
563.8378, 1266.525
564.3199, 1267.660
564.8021, 1271.226
565.2842, 1278.651
565.7663, 1286.004
566.2484, 1286.045
566.7305, 1278.940
567.2126, 1274.994
567.6948, 1277.720
568.1769, 1284.468
568.6590, 1291.215
569.1411, 1297.845
569.6232, 1303.326
570.1053, 1305.798
570.5875, 1307.551
571.0696, 1312.016
571.5517, 1319.623
572.0338, 1325.090
572.5159, 1320.678
572.9980, 1315.270
573.4802, 1317.102
573.9623, 1335.051
574.4444, 1350.999
574.9265, 1362.157
575.4086, 1369.387
575.8907, 1373.962
576.3729, 1375.658
576.8550, 1374.779
577.3371, 1369.304
577.8192, 1360.374
578.3013, 1361.442
578.7834, 1375.033
579.2656, 1388.462
579.7477, 1391.616
580.2298, 1386.229
580.7119, 1383.076
581.1940, 1382.975
581.6761, 1384.818
582.1583, 1387.830
582.6404, 1391.837
583.1225, 1396.816
583.6046, 1405.952
584.0867, 1412.003
584.5688, 1407.294
585.0510, 1394.984
585.5331, 1383.905
586.0152, 1376.815
586.4973, 1372.187
586.9794, 1370.207
587.4615, 1371.327
587.9437, 1370.844
588.4258, 1367.082
588.9079, 1363.068
589.3900, 1361.211
589.8721, 1363.403
590.3542, 1361.453
590.8364, 1353.460
591.3185, 1343.660
591.8006, 1339.381
592.2827, 1340.484
592.7648, 1340.708
593.2469, 1336.614
593.7291, 1332.000
594.2112, 1335.635
594.6933, 1346.138
595.1754, 1356.229
595.6575, 1360.985
596.1396, 1363.340
596.6218, 1366.194
597.1039, 1369.849
597.5860, 1372.514
598.0681, 1373.679
598.5502, 1373.246
599.0323, 1370.923
599.5145, 1361.253
599.9966, 1357.567
600.4787, 1364.306
600.9608, 1376.017
601.4429, 1383.827
601.9250, 1386.452
602.4072, 1388.363
602.8893, 1390.633
603.3714, 1393.002
603.8535, 1393.765
604.3356, 1392.745
604.8177, 1392.561
605.2999, 1395.847
605.7820, 1401.185
606.2641, 1403.578
606.7462, 1402.665
607.2283, 1403.280
607.7104, 1411.440
608.1926, 1422.780
608.6747, 1431.957
609.1568, 1437.526
609.6389, 1440.786
610.1210, 1438.071
610.6031, 1434.187
611.0853, 1437.083
611.5674, 1457.373
612.0495, 1474.286
612.5316, 1483.279
613.0137, 1485.296
613.4958, 1485.402
613.9780, 1481.914
614.4601, 1480.374
614.9422, 1485.085
615.4243, 1495.808
615.9064, 1500.150
616.3885, 1496.986
616.8707, 1494.827
617.3528, 1503.852
617.8349, 1520.245
618.3170, 1535.009
618.7991, 1546.435
619.2813, 1555.354
619.7634, 1560.687
620.2455, 1564.316
620.7276, 1569.504
621.2097, 1580.460
621.6918, 1590.167
622.1740, 1593.687
622.6561, 1592.833
623.1382, 1597.365
623.6203, 1616.815
624.1024, 1632.085
624.5845, 1634.082
625.0667, 1620.811
625.5488, 1620.304
626.0309, 1635.825
626.5130, 1655.494
