##NAMES=Tridymite
##RRUFFID=R090063
##IDEAL CHEMISTRY=SiO_2_
##LOCALITY=Mount Howe 88403 meteorite, likely formed during impact on a chondritic-parent body
##OWNER=RRUFF
##SOURCE=Devin L. Schrader and Dante S. Lauretta
##DESCRIPTION=Imbedded in a polished slab, associated with kamacite, taenite, troilite, and schreibersite. Masami Kanzaki (Okayama University) suggests this is polytype tridymite MC.
##STATUS=The identification of this mineral has been determined only by Raman spectroscopy
##URL=rruff.info/R090063
133.7713, 325.1249
134.2534, 317.7578
134.7355, 314.2246
135.2177, 316.4091
135.6998, 320.2962
136.1819, 325.1008
136.6640, 329.9887
137.1461, 333.0559
137.6282, 332.1165
138.1104, 326.6710
138.5925, 322.7535
139.0746, 322.0000
139.5567, 321.4717
140.0388, 319.7372
140.5209, 316.9700
141.0031, 314.4644
141.4852, 313.9511
141.9673, 316.8378
142.4494, 317.9917
142.9315, 316.5523
143.4136, 314.3414
143.8958, 312.1736
144.3779, 310.3761
144.8600, 309.2779
145.3421, 309.5779
145.8242, 313.0745
146.3063, 314.4941
146.7885, 312.0255
147.2706, 307.8884
147.7527, 304.6361
148.2348, 303.1056
148.7169, 302.9584
149.1990, 304.0135
149.6812, 306.8670
150.1633, 308.7777
150.6454, 308.2730
151.1275, 305.9222
151.6096, 303.3307
152.0917, 300.4204
152.5739, 298.3307
153.0560, 298.7170
153.5381, 302.3203
154.0202, 306.0534
154.5023, 307.4941
154.9844, 306.5850
155.4665, 304.7360
155.9487, 301.0354
156.4308, 297.3389
156.9129, 295.2681
157.3950, 295.3297
157.8771, 296.5182
158.3592, 297.4890
158.8414, 298.3190
159.3235, 298.6768
159.8056, 298.5024
160.2877, 297.8983
160.7698, 296.6889
161.2519, 294.7354
161.7341, 292.5845
162.2162, 291.8975
162.6983, 293.8634
163.1804, 295.8402
163.6625, 297.5517
164.1446, 299.0254
164.6268, 300.4543
165.1089, 302.0034
165.5910, 303.4664
166.0731, 303.4734
166.5552, 299.5043
167.0373, 296.8188
167.5195, 297.3946
168.0016, 300.0363
168.4837, 302.3635
168.9658, 302.8029
169.4479, 301.4751
169.9300, 300.4073
170.4122, 298.7839
170.8943, 298.0962
171.3764, 300.1161
171.8585, 304.1351
172.3406, 306.9948
172.8227, 306.0864
173.3049, 301.6852
173.7870, 298.2766
174.2691, 295.5702
174.7512, 294.0127
175.2333, 294.5585
175.7154, 297.3008
176.1976, 299.9751
176.6797, 300.7882
177.1618, 300.2542
177.6439, 299.5312
178.1260, 298.4800
178.6081, 297.5075
179.0903, 297.4879
179.5724, 298.9044
180.0545, 299.8226
180.5366, 297.9854
181.0187, 294.9541
181.5008, 293.3461
181.9830, 295.1951
182.4651, 299.2220
182.9472, 301.3728
183.4293, 300.6264
183.9114, 299.4297
184.3935, 298.4141
184.8757, 297.7856
185.3578, 297.9355
185.8399, 299.3546
186.3220, 301.8836
186.8041, 303.7692
187.2862, 304.6609
187.7684, 305.1996
188.2505, 305.2000
188.7326, 304.9869
189.2147, 305.2355
189.6968, 306.6823
190.1789, 309.4353
190.6611, 310.4536
191.1432, 307.4400
191.6253, 304.9165
192.1074, 304.5215
192.5895, 305.9187
193.0716, 307.9048
193.5538, 309.4821
194.0359, 310.6426
194.5180, 311.4422
195.0001, 310.9162
195.4822, 310.9582
195.9643, 313.1528
196.4465, 317.0443
196.9286, 320.5390
197.4107, 321.5424
197.8928, 319.5955
198.3749, 318.7154
198.8570, 319.2272
199.3392, 320.4316
199.8213, 322.1361
200.3034, 324.2475
200.7855, 326.2806
201.2676, 327.7108
201.7497, 328.5049
202.2319, 329.7056
202.7140, 332.0788
203.1961, 334.4548
203.6782, 335.6186
204.1603, 335.4126
204.6424, 334.7927
205.1246, 334.4808
205.6067, 334.4430
206.0888, 334.5606
206.5709, 334.9357
207.0530, 335.4082
207.5351, 335.9847
208.0173, 336.8841
208.4994, 337.0636
208.9815, 335.1485
209.4636, 331.8911
209.9457, 328.7226
210.4278, 326.3409
210.9100, 324.3739
211.3921, 321.6533
211.8742, 317.2930
212.3563, 314.1533
212.8384, 315.3999
213.3205, 318.8643
213.8027, 320.5128
214.2848, 317.5111
214.7669, 311.1433
215.2490, 306.0422
215.7311, 302.5555
216.2132, 299.9256
216.6954, 298.1793
217.1775, 296.8838
217.6596, 295.2578
218.1417, 292.6683
218.6238, 289.3597
219.1059, 286.8822
219.5881, 286.3258
220.0702, 285.2741
220.5523, 282.8918
221.0344, 279.5857
221.5165, 275.8975
221.9986, 272.0238
222.4808, 268.1064
222.9629, 265.4846
223.4450, 264.9742
223.9271, 265.0899
224.4092, 266.0722
224.8913, 267.4171
225.3735, 268.3513
225.8556, 268.3331
226.3377, 267.4540
226.8198, 266.7442
227.3019, 266.5340
227.7840, 266.1525
228.2662, 265.1607
228.7483, 263.9153
229.2304, 263.1017
229.7125, 263.2039
230.1946, 264.1016
230.6767, 264.4763
231.1589, 264.2255
231.6410, 263.6200
232.1231, 262.1486
232.6052, 260.3806
233.0873, 259.5621
233.5694, 260.6240
234.0516, 263.1131
234.5337, 263.6308
235.0158, 260.3465
235.4979, 257.5176
235.9800, 256.7444
236.4621, 257.3778
236.9443, 257.9231
237.4264, 257.5402
237.9085, 256.4678
238.3906, 255.8092
238.8727, 255.2979
239.3548, 255.3772
239.8370, 256.6386
240.3191, 258.6468
240.8012, 260.3561
241.2833, 261.2812
241.7654, 261.5211
242.2475, 261.4035
242.7297, 260.7626
243.2118, 260.1012
243.6939, 259.5765
244.1760, 259.1921
244.6581, 259.0168
245.1402, 259.2024
245.6224, 259.4568
246.1045, 259.1584
246.5866, 258.1066
247.0687, 257.1210
247.5508, 256.7564
248.0329, 256.8312
248.5151, 256.6297
248.9972, 255.7156
249.4793, 254.6662
249.9614, 254.2674
250.4435, 254.5366
250.9256, 255.1753
251.4078, 256.6888
251.8899, 258.6443
252.3720, 258.9146
252.8541, 255.8750
253.3362, 252.3271
253.8183, 251.5208
254.3005, 253.4203
254.7826, 255.4026
255.2647, 255.7486
255.7468, 254.7558
256.2289, 253.8810
256.7110, 253.1895
257.1931, 252.9519
257.6753, 253.2296
258.1574, 254.0244
258.6395, 255.3555
259.1216, 257.9316
259.6037, 261.3255
260.0858, 262.9833
260.5680, 261.5191
261.0501, 259.7916
261.5322, 259.6571
262.0143, 260.7622
262.4964, 262.0100
262.9785, 262.6400
263.4607, 262.7866
263.9428, 263.2488
264.4249, 264.0384
264.9070, 265.1739
265.3891, 266.6788
265.8712, 268.4787
266.3534, 270.3965
266.8355, 272.2213
267.3176, 274.0877
267.7997, 276.7493
268.2818, 281.1844
268.7639, 284.8866
269.2461, 286.9875
269.7282, 287.8979
270.2103, 288.1371
270.6924, 287.8485
271.1745, 287.2206
271.6566, 286.7677
272.1388, 286.0154
272.6209, 286.3646
273.1030, 288.4465
273.5851, 291.5262
274.0672, 295.1111
274.5493, 299.1637
275.0315, 302.8315
275.5136, 303.4796
275.9957, 298.0356
276.4778, 295.4694
276.9599, 299.2960
277.4420, 305.2028
277.9242, 309.2950
278.4063, 310.2071
278.8884, 309.2372
279.3705, 308.6407
279.8526, 308.1756
280.3347, 308.7108
280.8169, 310.9029
281.2990, 313.5689
281.7811, 315.9219
282.2632, 317.7421
282.7453, 319.2102
283.2274, 320.5432
283.7096, 321.6329
284.1917, 322.8640
284.6738, 323.8116
285.1559, 325.2010
285.6380, 328.0002
286.1201, 331.9942
286.6023, 335.7278
287.0844, 337.2696
287.5665, 335.6624
288.0486, 335.6576
288.5307, 338.5705
289.0128, 341.7576
289.4950, 344.1221
289.9771, 345.6572
290.4592, 346.8693
290.9413, 348.1712
291.4234, 349.5458
291.9055, 351.1968
292.3877, 353.9196
292.8698, 356.1301
293.3519, 356.2667
293.8340, 355.4597
294.3161, 356.2589
294.7982, 360.7059
295.2804, 368.4097
295.7625, 374.0510
296.2446, 375.5923
296.7267, 377.1612
297.2088, 380.3267
297.6909, 383.8377
298.1731, 385.5102
298.6552, 384.0580
299.1373, 380.4496
299.6194, 378.3883
300.1015, 380.1056
300.5836, 380.7355
301.0658, 379.2988
301.5479, 376.8386
302.0300, 374.2121
302.5121, 371.8005
302.9942, 369.9105
303.4763, 369.3181
303.9585, 372.4848
304.4406, 373.1068
304.9227, 368.9212
305.4048, 363.7427
305.8869, 361.0069
306.3690, 361.3240
306.8512, 362.3477
307.3333, 360.6670
307.8154, 354.6356
308.2975, 350.2285
308.7796, 348.7648
309.2617, 347.5513
309.7439, 344.9286
310.2260, 340.8610
310.7081, 336.2936
311.1902, 332.0986
311.6723, 328.1838
312.1544, 325.1613
312.6366, 323.8214
313.1187, 322.4461
313.6008, 320.2824
314.0829, 317.5057
314.5650, 314.5816
315.0471, 311.7708
315.5293, 309.1419
316.0114, 307.6451
316.4935, 309.4092
316.9756, 309.9196
317.4577, 307.4453
317.9398, 303.2882
318.4220, 299.1485
318.9041, 295.8463
319.3862, 293.5797
319.8683, 293.0119
320.3504, 296.2762
320.8326, 298.6439
321.3147, 299.6868
321.7968, 299.8397
322.2789, 299.1728
322.7610, 297.8128
323.2431, 296.5191
323.7253, 296.7071
324.2074, 299.7046
324.6895, 301.5868
325.1716, 301.5875
325.6537, 301.2180
326.1358, 301.5284
326.6180, 302.6173
327.1001, 303.8653
327.5822, 304.5303
328.0643, 304.3394
328.5464, 305.0156
329.0285, 307.5251
329.5107, 309.8588
329.9928, 310.6531
330.4749, 310.5000
330.9570, 311.1595
331.4391, 314.1516
331.9212, 319.2056
332.4034, 322.2609
332.8855, 320.2428
333.3676, 319.5251
333.8497, 321.9611
334.3318, 326.2751
334.8139, 330.7312
335.2961, 334.4492
335.7782, 337.5985
336.2603, 340.5892
336.7424, 343.7782
337.2245, 346.2123
337.7066, 347.0054
338.1888, 347.5552
338.6709, 349.1118
339.1530, 352.0066
339.6351, 355.6385
340.1172, 359.1956
340.5993, 362.7910
341.0815, 365.9742
341.5636, 368.3819
342.0457, 370.7204
342.5278, 373.2713
343.0099, 376.1053
343.4920, 379.3049
343.9742, 383.2018
344.4563, 387.9256
344.9384, 390.9369
345.4205, 389.7870
345.9026, 389.2425
346.3847, 390.7637
346.8669, 393.7726
347.3490, 397.3115
347.8311, 400.9749
348.3132, 404.3827
348.7953, 405.7965
349.2774, 403.5573
349.7596, 401.8559
350.2417, 402.2418
350.7238, 403.1084
351.2059, 402.6256
351.6880, 400.1899
352.1701, 397.0928
352.6523, 395.7689
353.1344, 397.2696
353.6165, 397.2905
354.0986, 394.4556
354.5807, 390.7804
355.0628, 387.0596
355.5450, 383.5236
356.0271, 380.3617
356.5092, 378.0748
356.9913, 376.7436
357.4734, 374.2777
357.9555, 368.9498
358.4377, 364.4439
358.9198, 362.8478
359.4019, 363.1437
359.8840, 363.2433
360.3661, 361.9863
360.8482, 359.6559
361.3304, 356.7798
361.8125, 352.4848
362.2946, 349.6810
362.7767, 350.8534
363.2588, 353.2364
363.7409, 354.1031
364.2231, 352.6389
364.7052, 349.5473
365.1873, 344.8127
365.6694, 337.9747
366.1515, 333.6994
366.6336, 335.4131
367.1158, 338.2079
367.5979, 338.3061
368.0800, 335.6815
368.5621, 332.9653
369.0442, 332.3250
369.5263, 333.2885
370.0085, 333.4701
370.4906, 332.1122
370.9727, 331.0298
371.4548, 332.1651
371.9369, 334.4904
372.4190, 335.6389
372.9012, 334.1331
373.3833, 331.3434
373.8654, 329.4923
374.3475, 328.7839
374.8296, 327.2423
375.3117, 322.6616
375.7939, 317.2919
376.2760, 314.6167
376.7581, 315.7165
377.2402, 317.5004
377.7223, 317.6288
378.2044, 316.5077
378.6866, 315.9688
379.1687, 316.7097
379.6508, 317.8743
380.1329, 318.3025
380.6150, 318.0181
381.0971, 317.9345
381.5793, 319.5033
382.0614, 320.9656
382.5435, 318.7241
383.0256, 312.1364
383.5077, 306.8431
383.9898, 308.4656
384.4720, 315.8165
384.9541, 319.3477
385.4362, 315.6152
385.9183, 310.8629
386.4004, 308.8119
386.8825, 308.9135
387.3647, 309.2140
387.8468, 308.9409
388.3289, 308.0741
388.8110, 306.3328
389.2931, 302.8727
389.7752, 300.4677
390.2574, 300.7242
390.7395, 301.8795
391.2216, 301.4910
391.7037, 299.0869
392.1858, 296.5894
392.6679, 296.4528
393.1501, 299.4778
393.6322, 300.5963
394.1143, 299.5397
394.5964, 297.0202
395.0785, 292.0694
395.5606, 285.8066
396.0428, 281.3013
396.5249, 280.6880
397.0070, 283.1539
397.4891, 284.3094
397.9712, 282.8187
398.4533, 281.5839
398.9355, 281.3522
399.4176, 281.3251
399.8997, 280.6025
400.3818, 278.9161
400.8639, 276.6541
401.3460, 274.3032
401.8282, 271.5701
402.3103, 269.6122
402.7924, 268.6612
403.2745, 268.1453
403.7566, 268.2563
404.2387, 268.6133
404.7209, 268.1947
405.2030, 265.9370
405.6851, 262.2904
406.1672, 260.9711
406.6493, 264.2441
407.1314, 266.6456
407.6136, 266.5652
408.0957, 265.2086
408.5778, 263.9266
409.0599, 263.2033
409.5420, 262.4939
410.0241, 260.6363
410.5063, 257.1700
410.9884, 255.0931
411.4705, 256.1190
411.9526, 257.6413
412.4347, 258.6226
412.9168, 258.8783
413.3990, 258.1725
413.8811, 255.4219
414.3632, 251.4925
414.8453, 249.7625
415.3274, 250.7953
415.8095, 252.6578
416.2917, 254.4913
416.7738, 256.4583
417.2559, 258.9468
417.7380, 262.4174
418.2201, 265.6538
418.7022, 267.3889
419.1844, 267.7379
419.6665, 267.6907
420.1486, 267.1764
420.6307, 266.8644
421.1128, 267.7847
421.5949, 269.9278
422.0771, 271.8180
422.5592, 272.5585
423.0413, 272.9008
423.5234, 273.9655
424.0055, 275.8677
424.4876, 277.8666
424.9698, 279.4749
425.4519, 280.6857
425.9340, 281.6827
426.4161, 281.5410
426.8982, 282.1581
427.3803, 285.4206
427.8625, 289.9766
428.3446, 292.7609
428.8267, 292.5303
429.3088, 290.8856
429.7909, 290.5888
430.2730, 292.5596
430.7552, 293.8452
431.2373, 294.4921
431.7194, 294.3952
432.2015, 293.0699
432.6836, 290.7884
433.1657, 288.6577
433.6479, 287.6738
434.1300, 287.6791
434.6121, 286.5033
435.0942, 283.4040
435.5763, 279.9182
436.0584, 276.3368
436.5406, 272.4715
437.0227, 267.7804
437.5048, 262.1624
437.9869, 256.5116
438.4690, 252.1621
438.9511, 249.2068
439.4333, 247.2868
439.9154, 247.8670
440.3975, 248.1447
440.8796, 246.6926
441.3617, 243.8477
441.8438, 240.7586
442.3260, 238.1598
442.8081, 235.8906
443.2902, 233.3887
443.7723, 230.3045
444.2544, 227.8538
444.7365, 227.4116
445.2187, 227.2739
445.7008, 225.6474
446.1829, 222.0981
446.6650, 218.4756
447.1471, 216.4283
447.6292, 215.7463
448.1114, 215.2730
448.5935, 214.8613
449.0756, 214.6051
449.5577, 214.8819
450.0398, 215.4316
450.5219, 215.3967
451.0041, 213.7734
451.4862, 212.0291
451.9683, 211.8455
452.4504, 212.9904
452.9325, 213.7612
453.4146, 213.1523
453.8968, 212.0320
454.3789, 212.6750
454.8610, 216.0619
455.3431, 217.8181
455.8252, 216.1478
456.3073, 212.7979
456.7895, 208.6629
457.2716, 204.2573
457.7537, 201.9604
458.2358, 204.4455
458.7179, 211.7228
459.2000, 215.0862
459.6822, 211.0090
460.1643, 207.7660
460.6464, 208.7626
461.1285, 211.6181
461.6106, 212.7809
462.0927, 210.9491
462.5748, 207.6580
463.0569, 205.3782
463.5391, 204.2780
464.0212, 203.8058
464.5033, 204.1849
464.9854, 204.9354
465.4675, 206.5748
465.9496, 208.4296
466.4318, 208.8329
466.9139, 206.2938
467.3960, 202.0725
467.8781, 200.3116
468.3602, 198.3844
468.8423, 202.5553
469.3245, 204.7733
469.8066, 205.1435
470.2887, 198.1311
470.7708, 200.6518
471.2529, 199.3520
471.7350, 197.8956
472.2172, 201.7580
472.6993, 195.8194
473.1814, 199.5974
473.6635, 199.4968
474.1456, 201.1713
474.6277, 199.0018
475.1099, 198.0196
475.5920, 200.8826
476.0741, 201.6166
476.5562, 199.0046
477.0383, 200.7919
477.5204, 194.7190
478.0026, 195.5436
478.4847, 199.3441
478.9668, 196.9254
479.4489, 198.7831
479.9310, 199.0121
480.4131, 191.8394
480.8953, 197.5389
481.3774, 197.6716
481.8595, 192.0884
482.3416, 197.3469
482.8237, 192.5518
483.3058, 191.3451
483.7880, 192.8391
484.2701, 191.5177
484.7522, 194.6351
485.2343, 193.4763
485.7164, 191.9355
486.1985, 192.0621
486.6807, 190.6509
487.1628, 191.6309
487.6449, 189.8106
488.1270, 190.9664
488.6091, 192.7968
489.0912, 189.4620
489.5734, 191.5954
490.0555, 185.2488
490.5376, 185.9978
491.0197, 185.9828
491.5018, 190.5031
491.9839, 184.1979
492.4661, 184.7497
492.9482, 188.2212
493.4303, 187.6074
493.9124, 188.7017
494.3945, 184.7395
494.8766, 185.5275
495.3588, 185.0061
495.8409, 189.0093
496.3230, 189.4406
496.8051, 185.5641
497.2872, 181.7059
497.7693, 186.0347
498.2515, 182.6037
498.7336, 183.3591
499.2157, 179.7909
499.6978, 179.9558
500.1799, 180.0615
500.6620, 182.0808
501.1442, 181.4022
501.6263, 182.0410
502.1084, 181.4343
502.5905, 182.1090
503.0726, 182.6412
503.5547, 182.8691
504.0369, 181.7035
504.5190, 183.1431
505.0011, 179.0276
505.4832, 177.0199
505.9653, 176.5106
506.4474, 183.0730
506.9296, 183.0622
507.4117, 175.1948
507.8938, 181.4455
508.3759, 179.0105
508.8580, 179.1566
509.3401, 178.3610
509.8223, 177.8441
510.3044, 178.3597
510.7865, 177.5220
511.2686, 177.1543
511.7507, 176.7329
512.2328, 175.6668
512.7150, 175.2534
513.1971, 174.0669
513.6792, 172.4455
514.1613, 171.4615
514.6434, 171.3620
515.1255, 171.3068
515.6077, 170.5573
516.0898, 169.3258
516.5719, 168.5561
517.0540, 168.4885
517.5361, 168.6375
518.0182, 168.6652
518.5004, 168.7960
518.9825, 169.7445
519.4646, 171.6774
519.9467, 173.2466
520.4288, 172.6049
520.9109, 169.1446
521.3931, 167.6010
521.8752, 169.3125
522.3573, 171.1350
522.8394, 172.1542
523.3215, 172.5216
523.8036, 172.5721
524.2858, 172.4413
524.7679, 172.0464
525.2500, 171.0850
525.7321, 169.3116
526.2142, 168.2333
526.6964, 168.5514
527.1785, 168.9439
527.6606, 168.7496
528.1427, 168.1616
528.6248, 167.5847
529.1069, 167.0085
529.5891, 166.8292
530.0712, 168.2872
530.5533, 171.1937
531.0354, 172.0726
531.5175, 169.2224
531.9996, 165.1670
532.4818, 162.6771
532.9639, 161.6339
533.4460, 161.4802
533.9281, 162.9761
534.4102, 164.5977
534.8923, 164.9118
535.3745, 164.2862
535.8566, 164.1893
536.3387, 165.3727
536.8208, 167.0946
537.3029, 167.7808
537.7850, 166.5847
538.2672, 166.1151
538.7493, 167.0298
539.2314, 168.0183
539.7135, 168.2888
540.1956, 167.9940
540.6777, 167.7548
541.1599, 167.9742
541.6420, 168.3608
542.1241, 168.0825
542.6062, 166.8426
543.0883, 165.8820
543.5704, 165.2310
544.0526, 165.1183
544.5347, 166.1465
545.0168, 168.0121
545.4989, 169.3137
545.9810, 169.1721
546.4631, 168.1197
546.9453, 166.6907
547.4274, 164.9060
547.9095, 163.7301
548.3916, 163.7401
548.8737, 164.3389
549.3558, 164.4633
549.8380, 164.0339
550.3201, 163.7761
550.8022, 163.4601
551.2843, 162.3039
551.7664, 163.8046
552.2485, 164.5786
552.7307, 164.6649
553.2128, 162.0043
553.6949, 162.8910
554.1770, 162.3560
554.6591, 161.7627
555.1412, 163.1486
555.6234, 160.8875
556.1055, 162.2420
556.5876, 162.1532
557.0697, 162.7249
557.5518, 161.8664
558.0339, 161.4496
558.5161, 162.4635
558.9982, 162.6853
559.4803, 161.6621
559.9624, 162.2758
560.4445, 159.9648
560.9266, 160.2203
561.4088, 161.5831
561.8909, 160.6318
562.3730, 161.2717
562.8551, 161.3055
563.3372, 158.5853
563.8193, 160.6548
564.3015, 160.6528
564.7836, 158.5240
565.2657, 160.4293
565.7478, 158.5937
566.2299, 158.0934
566.7120, 158.5980
567.1942, 158.0550
567.6763, 159.1636
568.1584, 158.6811
568.6405, 159.5070
569.1226, 159.4883
569.6047, 160.1300
570.0869, 159.3414
570.5690, 158.9946
571.0511, 160.0786
571.5332, 160.3704
572.0153, 159.4171
572.4974, 160.1009
572.9796, 157.8599
573.4617, 158.1854
573.9438, 159.6182
574.4259, 158.7369
574.9080, 159.4468
575.3901, 159.5507
575.8723, 156.9004
576.3544, 159.0398
576.8365, 159.1079
577.3186, 157.0491
577.8007, 159.0244
578.2828, 157.2589
578.7650, 156.8285
579.2471, 157.4031
579.7292, 156.9301
580.2113, 158.1087
580.6934, 157.6962
581.1755, 157.1416
581.6577, 157.2073
582.1398, 155.5151
582.6219, 157.0842
583.1040, 155.9929
583.5861, 155.6915
584.0682, 156.8889
584.5504, 157.2564
585.0325, 156.3196
585.5146, 157.0977
585.9967, 154.8118
586.4788, 155.2146
586.9609, 156.7776
587.4431, 155.9161
587.9252, 156.7216
588.4073, 156.8923
588.8894, 154.1776
589.3715, 156.4809
589.8536, 156.6140
590.3358, 154.5189
590.8179, 156.6502
591.3000, 154.8623
591.7821, 154.4734
592.2642, 155.1371
592.7463, 154.7035
593.2285, 156.0000
593.7106, 155.6297
594.1927, 155.1105
594.6748, 155.2412
595.1569, 153.5302
595.6390, 155.2360
596.1212, 154.6078
596.6033, 155.1397
597.0854, 155.9346
597.5675, 154.7160
598.0496, 155.6291
598.5317, 153.2365
599.0139, 153.6099
599.4960, 153.6854
599.9781, 155.5289
600.4602, 153.1524
600.9423, 153.4489
601.4244, 154.8836
601.9066, 154.7257
602.3887, 155.2337
602.8708, 153.7705
603.3529, 154.1591
603.8350, 154.0372
604.3171, 155.6792
604.7993, 155.9287
605.2814, 154.4990
605.7635, 153.0764
606.2456, 154.8452
606.7277, 153.5892
607.2098, 153.9650
607.6920, 152.6554
608.1741, 152.8011
608.6562, 152.9237
609.1383, 153.7923
609.6204, 152.3988
610.1025, 153.9396
610.5847, 153.7845
611.0668, 154.1289
611.5489, 154.4177
612.0310, 152.4308
612.5131, 152.3095
612.9952, 154.8576
613.4774, 153.3347
613.9595, 152.6334
614.4416, 152.5163
614.9237, 155.1558
615.4058, 155.2331
615.8879, 152.2476
616.3701, 154.7656
616.8522, 153.8978
617.3343, 154.0361
617.8164, 153.8074
618.2985, 153.6873
618.7806, 152.1850
619.2628, 152.5042
619.7449, 154.3044
620.2270, 153.5797
620.7091, 154.5707
621.1912, 152.4349
621.6733, 152.1551
622.1555, 152.3679
622.6376, 152.7605
623.1197, 151.7174
623.6018, 153.5453
624.0839, 153.4617
624.5660, 151.7214
625.0482, 151.7782
625.5303, 151.5366
626.0124, 154.4012
626.4945, 152.9952
626.9766, 151.2867
627.4587, 152.9638
