##NAMES=Tridymite
##RRUFFID=R040143
##IDEAL CHEMISTRY=SiO_2_
##LOCALITY=Big Lue Mountain, Highway 78, Greenlee County, Arizona, USA
##OWNER=RRUFF
##SOURCE=University of Arizona Mineral Museum
##DESCRIPTION=Colorless thin hexagonal plates. Masami Kanzaki (Okayama University) suggests this is polytype tridymite PO-10.
##STATUS=The identification of this mineral is confirmed by single-crystal X-ray diffraction and chemical analysis.
##URL=rruff.info/R040143
##MEASURED CHEMISTRY=(Si_0.99_Al_0.01_)O_2_
149.4643, 2326.170
149.9464, 2411.963
150.4285, 2490.787
150.9106, 2557.680
151.3928, 2612.136
151.8749, 2661.356
152.3570, 2709.637
152.8391, 2750.367
153.3212, 2775.482
153.8033, 2784.012
154.2855, 2786.904
154.7676, 2791.798
155.2497, 2797.999
155.7318, 2802.432
156.2139, 2806.683
156.6960, 2807.908
157.1782, 2800.473
157.6603, 2782.717
158.1424, 2765.850
158.6245, 2759.909
159.1066, 2761.710
159.5887, 2764.409
160.0709, 2761.181
160.5530, 2759.798
161.0351, 2774.833
161.5172, 2810.897
161.9993, 2846.980
162.4814, 2865.659
162.9636, 2873.617
163.4457, 2882.379
163.9278, 2892.628
164.4099, 2906.911
164.8920, 2931.891
165.3741, 2971.453
165.8563, 3010.667
166.3384, 3041.791
166.8205, 3066.259
167.3026, 3085.244
167.7847, 3095.604
168.2668, 3101.992
168.7490, 3116.978
169.2311, 3147.457
169.7132, 3170.594
170.1953, 3166.921
170.6774, 3149.693
171.1595, 3139.859
171.6417, 3150.528
172.1238, 3173.244
172.6059, 3186.125
173.0880, 3184.398
173.5701, 3182.157
174.0522, 3186.980
174.5344, 3195.161
175.0165, 3201.105
175.4986, 3201.070
175.9807, 3197.700
176.4628, 3199.656
176.9449, 3213.233
177.4271, 3220.042
177.9092, 3205.152
178.3913, 3182.114
178.8734, 3169.580
179.3555, 3177.767
179.8376, 3201.183
180.3197, 3223.932
180.8019, 3245.325
181.2840, 3267.295
181.7661, 3296.201
182.2482, 3324.444
182.7303, 3340.750
183.2124, 3337.303
183.6946, 3322.308
184.1767, 3319.426
184.6588, 3333.716
185.1409, 3352.309
185.6230, 3374.000
186.1051, 3396.369
186.5873, 3416.126
187.0694, 3431.196
187.5515, 3444.319
188.0336, 3463.897
188.5157, 3495.371
188.9978, 3523.700
189.4800, 3543.562
189.9621, 3559.839
190.4442, 3577.938
190.9263, 3600.200
191.4084, 3624.754
191.8905, 3647.104
192.3727, 3666.768
192.8548, 3684.962
193.3369, 3698.205
193.8190, 3712.073
194.3011, 3733.857
194.7832, 3766.613
195.2654, 3803.443
195.7475, 3828.394
196.2296, 3833.435
196.7117, 3841.616
197.1938, 3857.202
197.6759, 3875.981
198.1581, 3895.047
198.6402, 3913.363
199.1223, 3930.194
199.6044, 3943.146
200.0865, 3946.729
200.5686, 3957.945
201.0508, 3987.845
201.5329, 4018.737
202.0150, 4034.750
202.4971, 4032.255
202.9792, 4022.071
203.4613, 4022.466
203.9435, 4041.181
204.4256, 4052.991
204.9077, 4057.960
205.3898, 4056.159
205.8719, 4045.091
206.3540, 4025.365
206.8362, 4002.857
207.3183, 3985.287
207.8004, 3974.084
208.2825, 3964.875
208.7646, 3957.316
209.2467, 3951.634
209.7289, 3951.080
210.2110, 3954.314
210.6931, 3954.315
211.1752, 3941.716
211.6573, 3912.368
212.1395, 3885.769
212.6216, 3864.402
213.1037, 3843.594
213.5858, 3817.635
214.0679, 3788.880
214.5500, 3766.750
215.0322, 3763.512
215.5143, 3784.240
215.9964, 3789.833
216.4785, 3768.534
216.9606, 3743.281
217.4427, 3720.312
217.9249, 3700.512
218.4070, 3682.451
218.8891, 3664.066
219.3712, 3645.088
219.8533, 3635.680
220.3354, 3644.551
220.8176, 3655.119
221.2997, 3665.667
221.7818, 3674.497
222.2639, 3678.699
222.7460, 3675.125
223.2281, 3665.074
223.7103, 3663.124
224.1924, 3687.539
224.6745, 3699.805
225.1566, 3680.146
225.6387, 3645.663
226.1208, 3623.060
226.6030, 3629.009
227.0851, 3655.513
227.5672, 3668.700
228.0493, 3657.496
228.5314, 3647.001
229.0135, 3640.531
229.4957, 3637.386
229.9778, 3636.764
230.4599, 3638.345
230.9420, 3641.765
231.4241, 3646.418
231.9062, 3653.899
232.3884, 3659.762
232.8705, 3667.163
233.3526, 3671.055
233.8347, 3664.921
234.3168, 3646.999
234.7989, 3624.705
235.2811, 3612.153
235.7632, 3616.692
236.2453, 3613.234
236.7274, 3588.876
237.2095, 3564.212
237.6916, 3554.592
238.1738, 3562.170
238.6559, 3575.950
239.1380, 3583.745
239.6201, 3585.852
240.1022, 3580.472
240.5843, 3555.579
241.0665, 3532.974
241.5486, 3524.358
242.0307, 3529.221
242.5128, 3538.864
242.9949, 3546.954
243.4770, 3553.969
243.9592, 3553.516
244.4413, 3538.690
244.9234, 3522.337
245.4055, 3506.802
245.8876, 3493.393
246.3697, 3484.578
246.8519, 3484.066
247.3340, 3490.344
247.8161, 3489.355
248.2982, 3474.474
248.7803, 3460.918
249.2624, 3455.514
249.7446, 3454.542
250.2267, 3451.874
250.7088, 3443.957
251.1909, 3432.472
251.6730, 3421.804
252.1551, 3410.924
252.6373, 3403.129
253.1194, 3398.152
253.6015, 3396.870
254.0836, 3400.928
254.5657, 3411.381
255.0478, 3425.581
255.5300, 3440.677
256.0121, 3457.989
256.4942, 3470.932
256.9763, 3474.365
257.4584, 3474.453
257.9406, 3473.999
258.4227, 3473.425
258.9048, 3476.238
259.3869, 3485.774
259.8690, 3502.116
260.3511, 3524.408
260.8333, 3556.500
261.3154, 3591.636
261.7975, 3627.221
262.2796, 3662.537
262.7617, 3693.213
263.2438, 3714.768
263.7260, 3728.507
264.2081, 3741.714
264.6902, 3755.089
265.1723, 3767.990
265.6544, 3780.016
266.1365, 3791.297
266.6187, 3802.031
267.1008, 3812.583
267.5829, 3822.612
268.0650, 3831.671
268.5471, 3840.053
269.0292, 3846.447
269.5114, 3850.811
269.9935, 3852.453
270.4756, 3848.933
270.9577, 3834.432
271.4398, 3818.760
271.9219, 3812.225
272.4041, 3814.919
272.8862, 3824.852
273.3683, 3846.660
273.8504, 3872.565
274.3325, 3887.186
274.8146, 3884.285
275.2968, 3880.170
275.7789, 3888.329
276.2610, 3905.263
276.7431, 3915.102
277.2252, 3908.461
277.7073, 3897.493
278.1895, 3902.809
278.6716, 3925.848
279.1537, 3952.961
279.6358, 3983.097
280.1179, 4013.276
280.6000, 4036.498
281.0822, 4050.317
281.5643, 4063.107
282.0464, 4085.515
282.5285, 4118.162
283.0106, 4150.923
283.4927, 4183.626
283.9749, 4215.362
284.4570, 4244.910
284.9391, 4272.367
285.4212, 4300.221
285.9033, 4331.473
286.3854, 4365.640
286.8676, 4392.057
287.3497, 4405.610
287.8318, 4417.188
288.3139, 4435.107
288.7960, 4455.708
289.2781, 4467.907
289.7603, 4464.704
290.2424, 4449.952
290.7245, 4439.794
291.2066, 4440.522
291.6887, 4437.752
292.1708, 4429.631
292.6530, 4416.735
293.1351, 4398.855
293.6172, 4376.018
294.0993, 4350.486
294.5814, 4326.011
295.0635, 4299.586
295.5457, 4280.656
296.0278, 4277.604
296.5099, 4275.550
296.9920, 4261.907
297.4741, 4236.689
297.9562, 4210.839
298.4384, 4196.551
298.9205, 4196.589
299.4026, 4188.658
299.8847, 4159.826
300.3668, 4136.157
300.8489, 4130.276
301.3311, 4136.585
301.8131, 4142.079
302.2953, 4137.909
302.7774, 4126.328
303.2595, 4118.754
303.7416, 4116.037
304.2237, 4116.613
304.7058, 4120.238
305.1880, 4126.509
305.6701, 4136.862
306.1522, 4152.095
306.6343, 4166.270
307.1164, 4168.556
307.5985, 4155.840
308.0807, 4142.775
308.5628, 4126.658
309.0449, 4114.774
309.5270, 4114.569
310.0091, 4125.646
310.4912, 4137.547
310.9734, 4141.207
311.4555, 4137.275
311.9376, 4132.206
312.4197, 4124.034
312.9018, 4118.425
313.3839, 4123.212
313.8661, 4133.462
314.3482, 4135.783
314.8303, 4115.894
315.3124, 4088.010
315.7945, 4079.247
316.2766, 4092.584
316.7588, 4107.814
317.2409, 4116.918
317.7230, 4119.872
318.2051, 4115.228
318.6872, 4096.638
319.1693, 4081.313
319.6515, 4088.624
320.1336, 4112.422
320.6157, 4123.177
321.0978, 4106.269
321.5799, 4079.321
322.0620, 4071.531
322.5442, 4084.925
323.0263, 4098.286
323.5084, 4101.938
323.9905, 4103.837
324.4726, 4115.742
324.9547, 4139.630
325.4369, 4166.251
325.9190, 4186.627
326.4011, 4199.954
326.8832, 4216.280
327.3653, 4238.902
327.8474, 4261.460
328.3296, 4282.092
328.8117, 4299.917
329.2938, 4312.214
329.7759, 4316.664
330.2580, 4315.776
330.7401, 4320.800
331.2223, 4343.499
331.7044, 4357.531
332.1865, 4350.245
332.6686, 4337.525
333.1507, 4339.767
333.6328, 4362.085
334.1150, 4388.883
334.5971, 4395.589
335.0792, 4371.378
335.5613, 4356.199
336.0434, 4354.850
336.5255, 4357.120
337.0077, 4360.062
337.4898, 4362.293
337.9719, 4361.400
338.4540, 4353.200
338.9361, 4339.817
339.4182, 4341.824
339.9004, 4373.383
340.3825, 4399.542
340.8646, 4405.258
341.3467, 4402.127
341.8288, 4404.852
342.3109, 4419.303
342.7931, 4439.744
343.2752, 4458.225
343.7573, 4474.581
344.2394, 4489.884
344.7215, 4497.312
345.2036, 4510.039
345.6858, 4539.652
346.1679, 4586.504
346.6500, 4639.083
347.1321, 4693.490
347.6142, 4747.993
348.0963, 4798.622
348.5785, 4845.501
349.0606, 4887.104
349.5427, 4921.218
350.0248, 4948.961
350.5069, 4972.526
350.9890, 4982.162
351.4712, 4995.892
351.9533, 5032.169
352.4354, 5087.388
352.9175, 5143.701
353.3996, 5194.830
353.8817, 5239.437
354.3639, 5272.969
354.8460, 5294.968
355.3281, 5310.069
355.8102, 5316.477
356.2923, 5317.721
356.7744, 5319.080
357.2566, 5321.347
357.7387, 5318.776
358.2208, 5303.717
358.7029, 5272.495
359.1850, 5249.168
359.6671, 5236.657
360.1493, 5227.884
360.6314, 5224.561
361.1135, 5222.313
361.5956, 5212.221
362.0777, 5188.336
362.5598, 5154.880
363.0420, 5127.541
363.5241, 5113.126
364.0062, 5093.834
364.4883, 5063.076
364.9704, 5029.954
365.4525, 5002.365
365.9347, 4981.923
366.4168, 4963.931
366.8989, 4941.852
367.3810, 4914.826
367.8631, 4895.666
368.3452, 4888.879
368.8274, 4885.625
369.3095, 4881.823
369.7916, 4877.714
370.2737, 4873.957
370.7558, 4869.694
371.2379, 4866.901
371.7201, 4869.357
372.2022, 4877.383
372.6843, 4887.917
373.1664, 4903.948
373.6485, 4918.883
374.1306, 4920.517
374.6128, 4902.675
375.0949, 4892.474
375.5770, 4916.171
376.0591, 4955.428
376.5412, 4967.342
377.0233, 4939.859
377.5055, 4911.271
377.9876, 4923.943
378.4697, 4983.316
378.9518, 5028.283
379.4339, 5048.943
379.9160, 5063.212
380.3982, 5076.462
380.8803, 5091.577
381.3624, 5115.906
381.8445, 5154.715
382.3266, 5200.878
382.8087, 5233.217
383.2909, 5234.889
383.7730, 5243.944
384.2551, 5258.729
384.7372, 5282.604
385.2193, 5320.587
385.7014, 5372.104
386.1836, 5430.644
386.6657, 5491.979
387.1478, 5556.655
387.6299, 5608.707
388.1120, 5637.098
388.5941, 5665.377
389.0763, 5697.451
389.5584, 5735.251
390.0405, 5781.150
390.5226, 5837.171
391.0047, 5900.111
391.4868, 5968.576
391.9690, 6043.646
392.4511, 6110.638
392.9332, 6156.754
393.4153, 6201.092
393.8974, 6266.613
394.3795, 6353.286
394.8617, 6428.200
395.3438, 6463.617
395.8259, 6480.954
396.3080, 6519.034
396.7901, 6582.208
397.2722, 6645.007
397.7544, 6687.739
398.2365, 6714.933
398.7186, 6753.129
399.2007, 6827.063
399.6828, 6883.877
400.1649, 6896.192
400.6471, 6879.468
401.1292, 6856.871
401.6113, 6835.833
402.0934, 6816.844
402.5755, 6800.162
403.0576, 6785.017
403.5398, 6775.414
404.0219, 6776.986
404.5040, 6777.988
404.9861, 6778.681
405.4682, 6773.831
405.9503, 6750.830
406.4325, 6699.137
406.9146, 6629.337
407.3967, 6581.131
407.8788, 6566.885
408.3609, 6549.188
408.8430, 6520.718
409.3252, 6486.245
409.8073, 6445.235
410.2894, 6398.881
410.7715, 6358.687
411.2536, 6336.375
411.7357, 6329.292
412.2179, 6324.807
412.7000, 6322.000
413.1821, 6322.081
413.6642, 6320.965
414.1463, 6323.722
414.6284, 6343.768
415.1106, 6399.492
415.5927, 6453.834
416.0748, 6477.293
416.5569, 6477.015
417.0390, 6472.723
417.5211, 6469.429
418.0033, 6470.956
418.4854, 6485.796
418.9675, 6522.668
419.4496, 6541.617
419.9317, 6536.638
420.4138, 6516.912
420.8960, 6487.967
421.3781, 6449.816
421.8602, 6398.228
422.3423, 6328.494
422.8244, 6246.688
423.3065, 6179.776
423.7887, 6140.135
424.2708, 6096.234
424.7529, 6044.274
425.2350, 5987.480
425.7171, 5926.362
426.1992, 5861.994
426.6814, 5799.939
427.1635, 5748.115
427.6456, 5704.837
428.1277, 5653.442
428.6098, 5587.970
429.0919, 5526.006
429.5741, 5479.046
430.0562, 5440.273
430.5383, 5400.101
431.0204, 5355.462
431.5025, 5310.716
431.9846, 5265.066
432.4668, 5221.548
432.9489, 5194.202
433.4310, 5190.195
433.9131, 5190.987
434.3952, 5173.724
434.8773, 5136.301
435.3595, 5102.763
435.8416, 5075.841
436.3237, 5051.901
436.8058, 5027.399
437.2879, 5003.950
437.7701, 4986.731
438.2522, 4978.867
438.7343, 4975.810
439.2164, 4964.953
439.6985, 4932.222
440.1806, 4917.588
440.6628, 4936.974
441.1449, 4959.777
441.6270, 4962.764
442.1091, 4949.238
442.5912, 4939.973
443.0733, 4951.472
443.5555, 4979.070
444.0376, 5007.351
444.5197, 5040.946
445.0018, 5062.133
445.4839, 5049.739
445.9660, 5028.938
446.4482, 5025.258
446.9303, 5043.430
447.4124, 5065.831
447.8945, 5088.104
448.3766, 5105.738
448.8587, 5108.491
449.3409, 5094.674
449.8230, 5069.970
450.3051, 5034.592
450.7872, 4990.709
451.2693, 4959.453
451.7514, 4944.004
452.2336, 4936.333
452.7157, 4942.450
453.1978, 4951.737
453.6799, 4947.581
454.1620, 4925.875
454.6441, 4898.699
455.1263, 4882.624
455.6084, 4881.219
456.0905, 4870.784
456.5726, 4840.453
457.0547, 4812.017
457.5368, 4796.519
458.0190, 4786.193
458.5011, 4767.306
458.9832, 4733.035
459.4653, 4693.121
459.9474, 4659.386
460.4295, 4631.938
460.9117, 4612.622
461.3938, 4606.303
461.8759, 4602.197
462.3580, 4591.663
462.8401, 4575.269
463.3222, 4554.792
463.8044, 4523.552
464.2865, 4493.930
464.7686, 4477.700
465.2507, 4473.038
465.7328, 4472.674
466.2149, 4474.000
466.6971, 4476.188
467.1792, 4478.270
467.6613, 4485.407
468.1434, 4480.296
468.6255, 4449.083
469.1076, 4417.847
469.5898, 4403.149
470.0719, 4402.986
470.5540, 4407.965
471.0361, 4412.822
471.5182, 4416.969
472.0003, 4419.135
472.4825, 4420.137
472.9646, 4416.845
473.4467, 4403.231
473.9288, 4388.902
474.4109, 4380.124
474.8930, 4377.009
475.3752, 4375.630
475.8573, 4373.302
476.3394, 4371.455
476.8215, 4373.734
477.3036, 4380.253
477.7857, 4384.917
478.2679, 4384.466
478.7500, 4380.408
479.2321, 4375.871
479.7142, 4369.670
480.1963, 4365.943
480.6784, 4368.861
481.1606, 4372.322
481.6427, 4369.301
482.1248, 4360.513
482.6069, 4353.074
483.0890, 4352.686
483.5711, 4357.634
484.0533, 4357.342
484.5354, 4340.140
485.0175, 4337.614
485.4996, 4364.565
485.9817, 4398.738
486.4638, 4427.010
486.9460, 4445.853
487.4281, 4450.782
487.9102, 4428.905
488.3923, 4390.860
488.8744, 4370.061
489.3565, 4368.905
489.8387, 4372.541
490.3208, 4372.552
490.8029, 4373.667
491.2850, 4386.198
491.7671, 4415.671
492.2492, 4440.468
492.7314, 4451.260
493.2135, 4454.554
493.6956, 4457.034
494.1777, 4459.562
494.6598, 4460.090
495.1419, 4456.405
495.6241, 4449.813
496.1062, 4448.874
496.5883, 4459.655
497.0704, 4467.701
497.5525, 4469.030
498.0346, 4468.975
498.5168, 4470.988
498.9989, 4475.974
499.4810, 4484.575
499.9631, 4503.564
500.4452, 4526.390
500.9273, 4523.311
501.4095, 4486.935
501.8916, 4455.847
502.3737, 4448.318
502.8558, 4455.238
503.3379, 4461.383
503.8200, 4465.787
504.3022, 4472.379
504.7843, 4487.102
505.2664, 4502.205
505.7485, 4507.474
506.2306, 4503.064
506.7127, 4495.386
507.1949, 4487.394
507.6770, 4481.384
508.1591, 4488.005
508.6412, 4527.106
509.1233, 4549.493
509.6054, 4542.300
510.0876, 4526.284
510.5697, 4513.494
511.0518, 4506.262
511.5339, 4503.891
512.0161, 4506.446
512.4982, 4513.130
512.9803, 4525.308
513.4624, 4545.864
513.9445, 4551.856
514.4266, 4519.477
514.9088, 4482.521
515.3909, 4490.078
515.8730, 4546.306
516.3551, 4591.229
516.8372, 4602.871
517.3193, 4598.275
517.8015, 4589.958
518.2836, 4579.538
518.7657, 4565.942
519.2478, 4547.543
519.7299, 4530.711
520.2120, 4532.194
520.6942, 4570.046
521.1763, 4591.591
521.6584, 4590.097
522.1405, 4580.702
522.6226, 4563.534
523.1047, 4545.282
523.5869, 4540.293
524.0690, 4558.324
524.5511, 4588.178
525.0332, 4616.967
525.5153, 4644.589
525.9974, 4652.468
526.4796, 4627.466
526.9617, 4595.541
527.4438, 4584.160
527.9259, 4591.060
528.4080, 4602.030
528.8901, 4623.375
529.3723, 4640.138
529.8544, 4640.258
530.3365, 4630.043
530.8186, 4620.851
531.3007, 4616.674
531.7828, 4616.991
532.2650, 4622.473
532.7471, 4635.400
533.2292, 4639.167
533.7113, 4621.851
534.1934, 4608.978
534.6755, 4608.746
535.1577, 4617.280
535.6398, 4631.070
536.1219, 4650.009
536.6040, 4665.939
537.0861, 4666.466
537.5682, 4657.692
538.0504, 4662.342
538.5325, 4685.068
539.0146, 4705.431
539.4967, 4708.347
539.9788, 4696.822
540.4609, 4686.415
540.9431, 4676.014
541.4252, 4667.945
541.9073, 4663.122
542.3894, 4660.543
542.8715, 4657.558
543.3536, 4655.150
543.8358, 4659.296
544.3179, 4676.449
544.8000, 4702.334
545.2821, 4717.891
545.7642, 4720.521
546.2463, 4719.893
546.7285, 4717.188
547.2106, 4712.846
547.6927, 4705.315
548.1748, 4695.287
548.6569, 4689.363
549.1390, 4691.627
549.6211, 4698.644
550.1032, 4708.728
550.5853, 4720.736
551.0674, 4729.580
551.5496, 4732.897
552.0317, 4734.467
552.5138, 4741.378
552.9959, 4758.650
553.4780, 4763.913
553.9601, 4744.304
554.4423, 4728.234
554.9244, 4727.770
555.4065, 4738.159
555.8886, 4752.767
556.3707, 4769.426
556.8528, 4783.602
557.3350, 4786.738
557.8171, 4780.864
558.2992, 4784.960
558.7813, 4805.259
559.2634, 4820.850
559.7455, 4812.803
560.2277, 4790.046
560.7098, 4782.069
561.1919, 4798.009
561.6740, 4813.049
562.1561, 4815.876
562.6382, 4816.152
563.1204, 4827.007
563.6025, 4847.328
564.0846, 4864.126
564.5667, 4867.954
565.0488, 4861.046
565.5309, 4850.805
566.0131, 4832.489
566.4952, 4822.870
566.9773, 4833.893
567.4594, 4847.330
567.9415, 4851.279
568.4236, 4847.088
568.9058, 4843.550
569.3879, 4843.651
569.8700, 4846.650
570.3521, 4851.109
570.8342, 4857.736
571.3163, 4872.307
571.7985, 4897.822
572.2806, 4918.496
572.7627, 4911.905
573.2448, 4872.682
573.7269, 4857.189
574.2090, 4890.919
574.6912, 4916.528
575.1733, 4909.377
575.6554, 4892.111
576.1375, 4888.771
576.6196, 4905.188
577.1017, 4934.559
577.5839, 4985.383
578.0660, 5044.106
578.5481, 5058.300
579.0302, 5022.327
579.5123, 4984.708
579.9944, 4964.482
580.4766, 4958.108
580.9587, 4962.085
581.4408, 4980.042
581.9229, 4991.393
582.4050, 4988.227
582.8871, 4982.162
583.3693, 4977.542
583.8514, 4976.590
584.3335, 4983.594
584.8156, 5000.583
585.2977, 5021.366
585.7798, 5037.371
586.2620, 5048.682
586.7441, 5052.914
587.2262, 5046.158
587.7083, 5038.589
588.1904, 5039.578
588.6725, 5042.632
589.1547, 5034.526
589.6368, 5005.759
590.1189, 4986.361
590.6010, 5001.344
591.0831, 5028.090
591.5652, 5034.670
592.0474, 5021.505
592.5295, 5012.048
593.0116, 5022.393
593.4937, 5045.794
593.9758, 5061.287
594.4579, 5064.717
594.9401, 5069.940
595.4222, 5084.892
595.9043, 5095.470
596.3864, 5086.451
596.8685, 5067.533
597.3506, 5064.608
597.8328, 5094.178
598.3149, 5129.035
598.7970, 5148.635
599.2791, 5154.061
599.7612, 5143.456
600.2433, 5116.352
600.7255, 5092.217
601.2076, 5088.659
601.6897, 5102.689
602.1718, 5109.765
602.6539, 5097.273
603.1360, 5095.255
603.6182, 5112.333
604.1003, 5135.449
604.5824, 5160.632
605.0645, 5183.604
605.5466, 5193.574
606.0287, 5179.888
606.5109, 5156.068
606.9930, 5140.724
607.4751, 5133.418
607.9572, 5130.504
608.4393, 5130.711
608.9214, 5136.875
609.4036, 5153.921
609.8857, 5181.920
610.3678, 5202.174
610.8499, 5214.419
611.3320, 5220.046
611.8141, 5215.637
612.2963, 5207.098
612.7784, 5196.855
613.2605, 5187.483
613.7426, 5186.494
614.2247, 5203.223
614.7068, 5229.322
615.1890, 5243.958
615.6711, 5246.737
616.1532, 5245.889
616.6353, 5241.033
617.1174, 5238.334
617.5995, 5247.388
618.0817, 5268.509
618.5638, 5281.007
619.0459, 5280.354
619.5280, 5275.285
620.0101, 5262.210
620.4922, 5250.048
620.9744, 5252.461
621.4565, 5270.131
621.9386, 5288.526
622.4207, 5293.161
622.9028, 5288.687
623.3849, 5296.249
623.8671, 5319.731
624.3492, 5331.679
624.8313, 5318.327
625.3134, 5296.189
625.7955, 5283.414
626.2776, 5279.405
626.7598, 5280.714
627.2419, 5285.291
627.7240, 5296.811
628.2061, 5326.042
628.6882, 5359.773
629.1703, 5376.079
629.6525, 5371.588
630.1346, 5364.140
630.6167, 5373.386
631.0988, 5394.313
631.5809, 5395.751
632.0630, 5370.682
632.5452, 5353.994
633.0273, 5361.233
633.5094, 5376.498
633.9915, 5382.492
634.4736, 5379.685
634.9557, 5375.681
635.4379, 5367.187
635.9200, 5362.897
636.4021, 5369.951
636.8842, 5383.590
637.3663, 5396.975
637.8484, 5408.183
638.3306, 5418.397
638.8127, 5429.157
639.2948, 5439.855
639.7769, 5446.150
640.2590, 5447.050
640.7411, 5447.316
641.2233, 5450.346
641.7054, 5451.199
642.1875, 5440.114
642.6696, 5418.848
643.1517, 5411.092
643.6339, 5429.609
