##NAMES=Trigonite
##RRUFFID=R100050
##IDEAL CHEMISTRY=Pb^2+^_3_Mn^2+^(As^3+^O_3_)_2_(As^3+^O_2_OH)
##LOCALITY=Langban, Filipstad, Varmland, Sweden
##OWNER=RRUFF
##SOURCE=William W Pinch
##DESCRIPTION=Yellow masses, some with crystal faces
##STATUS=The identification of this mineral has been confirmed by single-crystal X-ray diffraction.
##URL=rruff.info/R100050
92.49744, 2785.174
92.97955, 2836.624
93.46167, 2915.335
93.94379, 2963.945
94.42590, 2997.239
94.90802, 3021.952
95.39014, 3036.939
95.87225, 3039.801
96.35437, 3043.843
96.83649, 3055.981
97.31860, 3073.956
97.80072, 3095.498
98.28284, 3115.289
98.76495, 3131.802
99.24707, 3153.812
99.72919, 3179.747
100.2113, 3215.386
100.6934, 3262.605
101.1755, 3319.687
101.6577, 3383.625
102.1398, 3454.246
102.6219, 3534.922
103.1040, 3602.200
103.5861, 3657.032
104.0682, 3701.956
104.5504, 3734.306
105.0325, 3755.139
105.5146, 3772.162
105.9967, 3794.023
106.4788, 3817.191
106.9609, 3855.991
107.4431, 3913.172
107.9252, 3985.823
108.4073, 4071.016
108.8894, 4168.998
109.3715, 4276.944
109.8536, 4391.750
110.3358, 4517.475
110.8179, 4636.399
111.3000, 4747.104
111.7821, 4847.811
112.2642, 4919.841
112.7463, 4950.835
113.2285, 4949.021
113.7106, 4919.436
114.1927, 4857.997
114.6748, 4781.853
115.1569, 4711.321
115.6390, 4641.161
116.1212, 4590.305
116.6033, 4572.404
117.0854, 4569.909
117.5675, 4568.109
118.0496, 4560.976
118.5317, 4547.149
119.0139, 4520.214
119.4960, 4467.626
119.9781, 4413.663
120.4602, 4353.904
120.9423, 4295.868
121.4244, 4250.572
121.9066, 4225.986
122.3887, 4222.299
122.8708, 4240.559
123.3529, 4284.394
123.8350, 4340.734
124.3171, 4411.226
124.7993, 4492.413
125.2814, 4570.897
125.7635, 4635.858
126.2456, 4685.667
126.7277, 4712.055
127.2098, 4707.416
127.6920, 4682.532
128.1741, 4646.390
128.6562, 4599.910
129.1383, 4546.690
129.6204, 4487.897
130.1025, 4424.032
130.5847, 4363.178
131.0668, 4304.694
131.5489, 4250.877
132.0310, 4209.792
132.5131, 4183.335
132.9952, 4171.864
133.4774, 4171.744
133.9595, 4182.972
134.4416, 4206.979
134.9237, 4246.839
135.4058, 4304.165
135.8879, 4367.896
136.3701, 4438.890
136.8522, 4513.905
137.3343, 4595.861
137.8164, 4685.207
138.2985, 4771.064
138.7806, 4838.742
139.2628, 4897.821
139.7449, 4914.665
140.2270, 4884.797
140.7091, 4820.783
141.1912, 4727.525
141.6733, 4607.796
142.1555, 4469.350
142.6376, 4340.648
143.1197, 4211.149
143.6018, 4104.618
144.0839, 4023.899
144.5660, 3968.013
145.0482, 3935.753
145.5303, 3927.219
146.0124, 3941.433
146.4945, 3971.141
146.9766, 4022.914
147.4587, 4079.537
147.9409, 4137.712
148.4230, 4196.003
148.9051, 4249.826
149.3872, 4298.032
149.8693, 4337.804
150.3514, 4365.407
150.8336, 4378.198
151.3157, 4380.348
151.7978, 4373.215
152.2799, 4355.791
152.7620, 4336.308
153.2441, 4316.545
153.7263, 4299.073
154.2084, 4289.689
154.6905, 4291.539
155.1726, 4302.708
155.6547, 4318.866
156.1368, 4338.855
156.6190, 4366.897
157.1011, 4404.127
157.5832, 4449.480
158.0653, 4501.772
158.5474, 4559.894
159.0295, 4623.956
159.5117, 4695.584
159.9938, 4780.109
160.4759, 4868.503
160.9580, 4958.791
161.4401, 5050.168
161.9222, 5141.748
162.4044, 5234.955
162.8865, 5333.753
163.3686, 5412.412
163.8507, 5474.225
164.3328, 5515.878
164.8149, 5534.335
165.2971, 5530.026
165.7792, 5504.904
166.2613, 5459.837
166.7434, 5387.927
167.2255, 5313.737
167.7076, 5236.407
168.1898, 5157.507
168.6719, 5075.536
169.1540, 4990.755
169.6361, 4909.780
170.1182, 4841.400
170.6003, 4787.195
171.0825, 4745.432
171.5646, 4719.147
172.0467, 4704.334
172.5288, 4696.711
173.0109, 4695.101
173.4930, 4700.271
173.9752, 4714.994
174.4573, 4738.311
174.9394, 4768.362
175.4215, 4806.007
175.9036, 4850.133
176.3857, 4898.830
176.8679, 4954.094
177.3500, 5010.700
177.8321, 5061.857
178.3142, 5107.720
178.7963, 5151.000
179.2784, 5193.386
179.7606, 5234.990
180.2427, 5273.911
180.7248, 5309.897
181.2069, 5342.343
181.6890, 5370.813
182.1711, 5395.354
182.6533, 5416.714
183.1354, 5436.670
183.6175, 5455.892
184.0996, 5468.473
184.5817, 5469.430
185.0638, 5465.138
185.5460, 5459.279
186.0281, 5452.570
186.5102, 5442.202
186.9923, 5424.042
187.4744, 5396.724
187.9565, 5364.520
188.4387, 5328.877
188.9208, 5288.747
189.4029, 5243.073
189.8850, 5191.383
190.3671, 5135.114
190.8492, 5075.929
191.3314, 5014.416
191.8135, 4948.999
192.2956, 4880.909
192.7777, 4809.146
193.2598, 4732.114
193.7419, 4649.487
194.2241, 4562.917
194.7062, 4476.532
195.1883, 4388.890
195.6704, 4302.732
196.1525, 4219.210
196.6346, 4137.126
197.1168, 4054.605
197.5989, 3970.736
198.0810, 3886.946
198.5631, 3807.619
199.0452, 3733.001
199.5273, 3661.899
200.0095, 3593.685
200.4916, 3529.073
200.9737, 3468.616
201.4558, 3412.107
201.9379, 3360.275
202.4200, 3314.686
202.9022, 3277.233
203.3843, 3241.326
203.8664, 3205.194
204.3485, 3168.865
204.8306, 3132.633
205.3127, 3096.583
205.7949, 3060.758
206.2770, 3025.300
206.7591, 2989.382
207.2412, 2955.088
207.7233, 2923.522
208.2054, 2894.482
208.6876, 2867.635
209.1697, 2843.238
209.6518, 2820.919
210.1339, 2799.647
210.6160, 2779.224
211.0981, 2760.618
211.5803, 2744.789
212.0624, 2731.763
212.5445, 2720.425
213.0266, 2711.407
213.5087, 2703.543
213.9908, 2695.894
214.4730, 2688.431
214.9551, 2680.920
215.4372, 2673.031
215.9193, 2664.580
216.4014, 2656.768
216.8836, 2650.569
217.3657, 2644.780
217.8478, 2638.817
218.3299, 2632.583
218.8120, 2625.643
219.2941, 2617.135
219.7763, 2606.376
220.2584, 2596.286
220.7405, 2588.501
221.2226, 2580.763
221.7047, 2571.914
222.1868, 2561.556
222.6690, 2549.243
223.1511, 2533.932
223.6332, 2514.022
224.1153, 2494.439
224.5974, 2476.560
225.0795, 2458.664
225.5617, 2439.731
226.0438, 2419.422
226.5259, 2397.794
227.0080, 2374.930
227.4901, 2351.156
227.9722, 2325.465
228.4544, 2296.302
228.9365, 2266.511
229.4186, 2238.865
229.9007, 2214.051
230.3828, 2190.347
230.8649, 2165.099
231.3471, 2137.817
231.8292, 2109.235
232.3113, 2078.477
232.7934, 2047.111
233.2755, 2016.045
233.7576, 1985.737
234.2398, 1955.957
234.7219, 1926.750
235.2040, 1897.524
235.6861, 1870.082
236.1682, 1844.163
236.6503, 1820.072
237.1325, 1798.246
237.6146, 1778.870
238.0967, 1761.599
238.5788, 1745.993
239.0609, 1732.216
239.5430, 1720.423
240.0252, 1710.859
240.5073, 1703.252
240.9894, 1697.876
241.4715, 1694.756
241.9536, 1692.561
242.4357, 1688.977
242.9179, 1682.859
243.4000, 1680.953
243.8821, 1686.563
244.3642, 1695.488
244.8463, 1702.756
245.3284, 1707.300
245.8106, 1712.297
246.2927, 1721.801
246.7748, 1735.915
247.2569, 1750.901
247.7390, 1766.645
248.2211, 1782.862
248.7033, 1799.251
249.1854, 1815.796
249.6675, 1832.500
250.1496, 1849.118
250.6317, 1865.881
251.1138, 1883.932
251.5960, 1905.143
252.0781, 1927.138
252.5602, 1946.629
253.0423, 1962.829
253.5244, 1978.722
254.0065, 1996.369
254.4887, 2015.500
254.9708, 2035.911
255.4529, 2058.339
255.9350, 2081.674
256.4171, 2104.054
256.8992, 2125.189
257.3813, 2146.438
257.8635, 2169.797
258.3456, 2193.907
258.8277, 2216.535
259.3098, 2235.856
259.7919, 2253.848
260.2740, 2273.735
260.7562, 2296.190
261.2383, 2317.536
261.7204, 2335.779
262.2025, 2351.633
262.6846, 2365.780
263.1667, 2378.487
263.6489, 2389.447
264.1310, 2398.251
264.6131, 2404.779
265.0952, 2409.659
265.5773, 2413.370
266.0594, 2415.436
266.5416, 2415.303
267.0237, 2412.991
267.5058, 2408.020
267.9879, 2399.646
268.4700, 2387.757
268.9521, 2373.109
269.4343, 2355.898
269.9164, 2335.918
270.3985, 2312.764
270.8806, 2286.331
271.3627, 2256.763
271.8448, 2223.943
272.3270, 2187.396
272.8091, 2149.274
273.2912, 2108.378
273.7733, 2067.004
274.2554, 2026.069
274.7375, 1985.550
275.2197, 1946.108
275.7018, 1908.163
276.1839, 1871.979
276.6660, 1836.470
277.1481, 1801.552
277.6302, 1767.427
278.1124, 1734.004
278.5945, 1701.443
279.0766, 1671.221
279.5587, 1645.121
280.0408, 1623.409
280.5229, 1602.865
281.0051, 1583.759
281.4872, 1565.734
281.9693, 1548.194
282.4514, 1531.546
282.9335, 1516.884
283.4156, 1505.405
283.8978, 1497.147
284.3799, 1490.183
284.8620, 1486.327
285.3441, 1481.974
285.8262, 1474.766
286.3083, 1466.047
286.7905, 1458.889
287.2726, 1455.970
287.7547, 1456.696
288.2368, 1455.417
288.7189, 1450.800
289.2010, 1445.535
289.6832, 1440.653
290.1653, 1435.609
290.6474, 1429.714
291.1295, 1422.783
291.6116, 1414.453
292.0938, 1403.156
292.5759, 1387.617
293.0580, 1370.647
293.5401, 1351.708
294.0222, 1332.218
294.5043, 1314.016
294.9865, 1297.944
295.4686, 1283.030
295.9507, 1266.690
296.4328, 1247.025
296.9149, 1229.466
297.3970, 1214.952
297.8792, 1202.322
298.3613, 1190.698
298.8434, 1179.759
299.3255, 1169.760
299.8076, 1161.153
300.2897, 1154.111
300.7719, 1148.199
301.2540, 1142.696
301.7361, 1138.568
302.2182, 1136.243
302.7003, 1135.892
303.1824, 1137.589
303.6646, 1141.920
304.1467, 1150.016
304.6288, 1156.576
305.1109, 1161.113
305.5930, 1164.688
306.0751, 1168.195
306.5573, 1171.288
307.0394, 1172.932
307.5215, 1172.734
308.0036, 1170.965
308.4857, 1162.886
308.9678, 1145.904
309.4500, 1124.738
309.9321, 1100.094
310.4142, 1072.085
310.8963, 1040.370
311.3784, 1004.147
311.8605, 964.0558
312.3427, 925.8617
312.8248, 889.4214
313.3069, 854.9539
313.7890, 821.9070
314.2711, 790.9095
314.7532, 762.6019
315.2354, 737.5041
315.7175, 715.0134
316.1996, 693.7482
316.6817, 673.2468
317.1638, 654.8398
317.6459, 638.3825
318.1281, 623.9152
318.6102, 611.9333
319.0923, 602.4796
319.5744, 594.5797
320.0565, 586.5648
320.5386, 577.8456
321.0208, 570.4835
321.5029, 564.9580
321.9850, 560.2896
322.4671, 555.9050
322.9492, 551.7063
323.4313, 547.9182
323.9135, 544.7573
324.3956, 542.2828
324.8777, 540.1707
325.3598, 538.1229
325.8419, 536.7043
326.3240, 536.5266
326.8062, 537.2287
327.2883, 537.8436
327.7704, 537.5536
328.2525, 536.4353
328.7346, 535.8308
329.2167, 535.8932
329.6989, 536.3739
330.1810, 537.4653
330.6631, 538.8738
331.1452, 540.1376
331.6273, 540.9785
332.1094, 541.6254
332.5916, 542.8085
333.0737, 544.8048
333.5558, 546.9061
334.0379, 549.1094
334.5200, 551.2865
335.0021, 553.2596
335.4843, 554.9840
335.9664, 556.6169
336.4485, 558.4876
336.9306, 560.8630
337.4127, 562.6678
337.8948, 563.5352
338.3770, 564.0328
338.8591, 564.4805
339.3412, 564.9028
339.8233, 565.1153
340.3055, 564.8702
340.7876, 564.1191
341.2697, 563.3949
341.7518, 562.4289
342.2339, 561.7859
342.7160, 562.0409
343.1982, 562.8138
343.6803, 563.2698
344.1624, 562.9925
344.6445, 561.9227
345.1266, 559.6072
345.6087, 555.1381
346.0909, 550.8782
346.5730, 547.5981
347.0551, 544.9394
347.5372, 542.4901
348.0193, 540.0598
348.5014, 537.7479
348.9836, 535.7596
349.4657, 534.2270
349.9478, 532.6053
350.4299, 530.0734
350.9120, 527.8138
351.3941, 526.7013
351.8763, 526.9000
352.3584, 528.0582
352.8405, 530.2191
353.3226, 533.4371
353.8047, 535.9084
354.2868, 536.6991
354.7690, 537.3974
355.2511, 538.7280
355.7332, 540.7640
356.2153, 543.6044
356.6974, 547.8448
357.1795, 553.0309
357.6617, 557.2511
358.1438, 559.9358
358.6259, 562.7517
359.1080, 566.9406
359.5901, 571.7980
360.0722, 576.2766
360.5544, 580.1028
361.0365, 583.2630
361.5186, 585.9164
362.0007, 588.1198
362.4828, 589.2354
362.9649, 589.0541
363.4471, 587.4938
363.9292, 584.4309
364.4113, 579.7369
364.8934, 573.9854
365.3755, 567.3363
365.8576, 559.9021
366.3398, 552.3323
366.8219, 544.8079
367.3040, 537.0593
367.7861, 528.3567
368.2682, 518.8422
368.7503, 510.3457
369.2325, 504.1505
369.7146, 499.2336
370.1967, 493.7897
370.6788, 487.5436
371.1609, 481.3926
371.6430, 475.7386
372.1252, 470.7504
372.6073, 467.0992
373.0894, 465.8564
373.5715, 465.2173
374.0536, 463.5749
374.5357, 461.1628
375.0179, 459.3912
375.5000, 459.0937
375.9821, 459.7632
376.4642, 460.2488
376.9463, 460.7651
377.4284, 460.6753
377.9106, 459.3408
378.3927, 457.3330
378.8748, 455.7059
379.3569, 454.7786
379.8390, 453.9633
380.3211, 452.4413
380.8033, 450.0560
381.2854, 447.8744
381.7675, 446.3968
382.2496, 444.8578
382.7317, 442.4797
383.2138, 439.3199
383.6960, 436.1100
384.1781, 433.2776
384.6602, 430.8663
385.1423, 429.3172
385.6244, 428.7337
386.1065, 428.6973
386.5887, 429.2865
387.0708, 430.2910
387.5529, 431.4518
388.0350, 432.6701
388.5171, 433.8308
388.9992, 434.6740
389.4814, 434.7449
389.9635, 435.2019
390.4456, 436.5837
390.9277, 437.9937
391.4098, 438.6323
391.8919, 438.4415
392.3741, 437.9761
392.8562, 437.7982
393.3383, 437.9425
393.8204, 438.1263
394.3025, 438.2318
394.7846, 438.4976
395.2668, 439.1872
395.7489, 440.0806
396.2310, 440.7004
396.7131, 440.7223
397.1952, 440.4476
397.6773, 440.9316
398.1595, 442.4726
398.6416, 444.3492
399.1237, 446.7578
399.6058, 449.2374
400.0879, 451.1907
400.5700, 452.5619
401.0522, 454.1073
401.5343, 456.9621
402.0164, 461.4061
402.4985, 465.4165
402.9806, 468.5436
403.4627, 471.5645
403.9449, 474.5401
404.4270, 477.6579
404.9091, 481.3370
405.3912, 486.0187
405.8733, 491.3651
406.3554, 496.2833
406.8376, 500.7276
407.3197, 504.9379
407.8018, 509.0981
408.2839, 513.0364
408.7660, 516.3802
409.2481, 518.9656
409.7303, 521.5429
410.2124, 524.8719
410.6945, 528.9224
411.1766, 533.3319
411.6587, 538.2776
412.1408, 543.2732
412.6230, 547.7358
413.1051, 551.7546
413.5872, 556.0117
414.0693, 561.2390
414.5514, 566.7228
415.0335, 571.0829
415.5157, 574.1385
415.9978, 577.2231
416.4799, 581.1152
416.9620, 585.7338
417.4441, 590.6931
417.9262, 596.4758
418.4084, 601.9436
418.8905, 606.0215
419.3726, 609.2557
419.8547, 613.1443
420.3368, 618.3102
420.8189, 623.9454
421.3011, 628.5203
421.7832, 631.4896
422.2653, 635.7604
422.7474, 643.4651
423.2295, 651.3693
423.7116, 656.3829
424.1938, 658.5290
424.6759, 660.1573
425.1580, 663.0547
425.6401, 667.1530
426.1222, 671.2988
426.6043, 675.8155
427.0865, 679.9919
427.5686, 683.7689
428.0507, 687.0706
428.5328, 689.7982
429.0149, 691.9185
429.4970, 693.5133
429.9792, 694.7955
430.4613, 696.1370
430.9434, 696.2539
431.4255, 694.5826
431.9076, 692.4199
432.3897, 690.4951
432.8719, 688.7615
433.3540, 686.7894
433.8361, 684.2943
434.3182, 681.2755
434.8003, 677.6102
435.2824, 672.9628
435.7646, 668.1759
436.2467, 663.0071
436.7288, 658.0504
437.2109, 654.0961
437.6930, 651.3974
438.1751, 649.1827
438.6573, 646.1410
439.1394, 642.1122
439.6215, 639.6561
440.1036, 640.2216
440.5857, 641.2513
441.0678, 641.2317
441.5500, 640.2598
442.0321, 638.8363
442.5142, 636.5937
442.9963, 634.2991
443.4784, 633.7703
443.9605, 635.3172
444.4427, 636.1868
444.9248, 634.6367
445.4069, 631.7060
445.8890, 629.3388
446.3711, 627.8542
446.8532, 626.2438
447.3354, 624.1597
447.8175, 621.5325
448.2996, 618.0354
448.7817, 613.5058
449.2638, 608.7225
449.7459, 604.5975
450.2281, 601.1782
450.7102, 597.4163
451.1923, 592.7803
451.6744, 588.2272
452.1565, 584.4932
452.6386, 581.3747
453.1208, 578.3099
453.6029, 575.0445
454.0850, 571.4628
454.5671, 567.2287
455.0492, 560.7051
455.5313, 555.8129
456.0135, 553.6649
456.4956, 552.4404
456.9777, 550.4843
457.4598, 547.7236
457.9419, 545.3586
458.4240, 544.6451
458.9062, 545.6185
459.3883, 545.9698
459.8704, 544.6286
460.3525, 543.8793
460.8346, 544.2787
461.3167, 545.5233
461.7989, 547.3973
462.2810, 549.8410
462.7631, 552.3002
463.2452, 553.7216
463.7273, 553.8226
464.2094, 554.5733
464.6916, 556.8396
465.1737, 559.2352
465.6558, 560.8733
466.1379, 561.9088
466.6200, 563.0565
467.1021, 564.8215
467.5843, 566.8965
468.0664, 568.6727
468.5485, 570.1385
469.0306, 571.4367
469.5127, 572.6065
469.9948, 573.6555
470.4770, 574.5504
470.9591, 575.2250
471.4412, 576.0099
471.9233, 577.5178
472.4054, 579.1463
472.8875, 579.7438
473.3697, 579.0908
473.8518, 577.6953
474.3339, 575.8966
474.8160, 573.6896
475.2981, 571.4724
475.7802, 569.4977
476.2624, 567.2567
476.7445, 564.1774
477.2266, 560.7050
477.7087, 557.9739
478.1908, 556.4341
478.6729, 554.9733
479.1551, 551.5467
479.6372, 545.1674
480.1193, 538.9886
480.6014, 532.6050
481.0835, 526.7193
481.5656, 522.0840
482.0478, 518.3290
482.5299, 514.4758
483.0120, 509.9133
483.4941, 504.7260
483.9762, 499.3546
484.4583, 493.7578
484.9405, 488.0635
485.4226, 482.5821
485.9047, 476.8203
486.3868, 469.9476
486.8689, 462.0469
487.3510, 454.8758
487.8332, 450.9539
488.3153, 449.3216
488.7974, 444.7088
489.2795, 435.7734
489.7616, 426.7196
490.2437, 420.2453
490.7259, 415.2731
491.2080, 410.1588
491.6901, 404.4655
492.1722, 398.9753
492.6543, 394.5436
493.1364, 390.7988
493.6186, 386.6277
494.1007, 381.6483
494.5828, 376.4165
495.0649, 371.3991
495.5470, 366.5832
496.0291, 362.5695
496.5113, 360.0058
496.9934, 357.6451
497.4755, 354.6621
497.9576, 351.2935
498.4397, 348.1608
498.9218, 345.5757
499.4040, 343.4366
499.8861, 341.5499
500.3682, 339.8479
500.8503, 338.5887
501.3324, 337.8600
501.8145, 337.4359
502.2967, 337.3724
502.7788, 337.5076
503.2609, 337.4433
503.7430, 336.8623
504.2251, 335.9150
504.7072, 335.1789
505.1894, 334.6610
505.6715, 334.3382
506.1536, 334.6088
506.6357, 334.8027
507.1178, 334.2826
507.5999, 333.0027
508.0821, 331.6263
508.5642, 330.8846
509.0463, 330.4234
509.5284, 329.1190
510.0105, 326.8040
510.4926, 324.1339
510.9748, 321.6740
511.4569, 319.0822
511.9390, 315.4647
512.4211, 309.8911
512.9032, 304.9580
513.3853, 302.5922
513.8674, 301.5507
514.3495, 299.6905
514.8317, 296.5145
515.3138, 292.8929
515.7959, 289.6006
516.2780, 286.6142
516.7601, 284.3166
517.2422, 283.1554
517.7244, 282.0507
518.2065, 280.3716
518.6886, 278.6100
519.1707, 277.5766
519.6528, 277.5362
520.1349, 277.9497
520.6171, 277.9935
521.0992, 277.5417
521.5813, 277.2409
522.0634, 277.1153
522.5455, 277.1356
523.0276, 277.1176
523.5098, 277.2688
523.9919, 278.0284
524.4740, 279.7056
524.9561, 281.7432
525.4382, 283.2898
525.9203, 284.3233
526.4025, 285.5965
526.8846, 287.2490
527.3667, 289.2339
527.8488, 291.4232
528.3309, 293.8394
528.8130, 296.8180
529.2952, 300.6693
529.7773, 304.9524
530.2594, 309.4470
530.7415, 314.0699
531.2236, 318.4506
531.7057, 322.3234
532.1879, 326.1560
532.6700, 330.7915
533.1521, 336.2099
533.6342, 342.7320
534.1163, 351.3440
534.5984, 360.1974
535.0806, 367.7682
535.5627, 374.4810
536.0448, 381.8844
536.5269, 390.9507
537.0090, 401.1269
537.4911, 410.4743
537.9733, 418.2523
538.4554, 427.0392
538.9375, 437.7741
539.4196, 449.0206
539.9017, 459.9596
540.3839, 470.6345
540.8660, 481.5085
541.3481, 492.8527
541.8302, 504.6274
542.3123, 516.7918
542.7944, 529.3481
543.2766, 542.1039
543.7587, 554.8785
544.2408, 567.8836
544.7229, 581.3683
545.2050, 595.3755
545.6871, 609.4604
546.1693, 622.8443
546.6514, 636.5525
547.1335, 652.2049
547.6156, 669.5559
548.0977, 686.8353
548.5798, 702.8995
549.0620, 718.2070
549.5441, 734.1740
550.0262, 751.8644
550.5083, 768.7608
550.9904, 785.2889
551.4725, 800.6980
551.9547, 814.8287
552.4368, 827.3671
552.9189, 837.7101
553.4010, 845.2879
553.8831, 850.3451
554.3652, 853.7726
554.8474, 855.7377
555.3295, 855.6149
555.8116, 853.2381
556.2937, 848.6406
556.7758, 841.4303
557.2579, 831.7168
557.7401, 820.4658
558.2222, 807.5569
558.7043, 793.7844
559.1864, 780.1873
559.6685, 766.8707
560.1506, 753.7174
560.6328, 740.4688
561.1149, 727.6705
561.5970, 716.2693
562.0791, 706.0074
562.5612, 697.6215
563.0433, 691.7474
563.5255, 687.4393
564.0076, 683.9132
564.4897, 681.1638
564.9718, 679.4174
565.4539, 678.7784
565.9360, 679.3859
566.4182, 681.7953
566.9003, 687.0048
567.3824, 692.2332
567.8645, 697.7430
568.3466, 702.8536
568.8287, 707.1536
569.3109, 710.6696
569.7930, 713.4993
570.2751, 715.5975
570.7572, 717.2013
571.2393, 718.9856
571.7214, 721.0423
572.2036, 722.0670
572.6857, 721.1846
573.1678, 719.5595
573.6499, 718.8613
574.1320, 719.0641
574.6141, 718.1335
575.0963, 714.5245
575.5784, 710.3460
576.0605, 707.4660
576.5426, 705.6306
577.0247, 703.7352
577.5068, 701.3000
577.9890, 698.4730
578.4711, 695.4903
578.9532, 692.1500
579.4353, 689.1948
579.9174, 686.8489
580.3995, 684.6133
580.8817, 681.9594
581.3638, 679.2944
581.8459, 677.5773
582.3280, 677.3420
582.8101, 677.5520
583.2922, 676.2462
583.7744, 673.2615
584.2565, 671.2193
584.7386, 670.7529
585.2207, 670.8671
585.7029, 671.2634
586.1850, 671.6679
586.6671, 671.3001
587.1492, 669.5199
587.6313, 667.5195
588.1135, 666.3536
588.5956, 665.6060
589.0777, 664.2927
589.5598, 662.1656
590.0419, 659.5536
