##NAMES=Trilithionite
##RRUFFID=R060004
##IDEAL CHEMISTRY=KLi_1.5_Al_1.5_(Si_3_Al)O_10_F_2_
##LOCALITY=Mount Begbie, Revelstoke, British Columbia, Canada
##OWNER=RRUFF
##SOURCE=Bob Downs
##DESCRIPTION=Aggregate of coarse purple crystals associated with elbaite, R060003
##STATUS=The identification of this mineral has been confirmed by X-ray diffraction and chemical analysis
##URL=rruff.info/R060004
##MEASURED CHEMISTRY=(K_0.99_[box]_0.01_)(Li_0.56_Al_0.43_Mn_0.01_)_3_(Si_0.85_Al_0.15_)_4_O_10_(F_0.54_(OH)_0.46_)_2_
112.8305, 60.72259
113.3126, 60.45717
113.7947, 60.09970
114.2769, 59.78179
114.7590, 59.46824
115.2411, 59.21779
115.7232, 59.09171
116.2053, 59.06432
116.6874, 59.04646
117.1695, 58.94998
117.6517, 58.75627
118.1338, 58.53220
118.6159, 58.21922
119.0980, 57.91061
119.5801, 57.68145
120.0622, 57.54945
120.5444, 57.48607
121.0265, 57.49278
121.5086, 57.57703
121.9907, 57.59023
122.4728, 57.46311
122.9549, 57.23103
123.4371, 56.97374
123.9192, 56.68509
124.4013, 56.41245
124.8834, 56.21357
125.3655, 56.09147
125.8476, 55.97715
126.3298, 55.79988
126.8119, 55.55210
127.2940, 55.34508
127.7761, 55.21465
128.2582, 55.13538
128.7404, 55.11755
129.2225, 55.16432
129.7046, 55.22477
130.1867, 55.21193
130.6688, 55.09814
131.1509, 54.95400
131.6331, 54.73181
132.1152, 54.51432
132.5973, 54.40494
133.0794, 54.45749
133.5615, 54.60764
134.0436, 54.58379
134.5258, 54.14928
135.0079, 53.78526
135.4900, 53.54462
135.9721, 53.41789
136.4542, 53.39345
136.9363, 53.47849
137.4184, 53.66099
137.9006, 53.74397
138.3827, 53.69949
138.8648, 53.60803
139.3469, 53.50206
139.8290, 53.38303
140.3111, 53.23464
140.7933, 53.01247
141.2754, 52.74002
141.7575, 52.58702
142.2396, 52.67989
142.7217, 52.83904
143.2038, 52.85172
143.6860, 52.67488
144.1681, 52.48980
144.6502, 52.47467
145.1323, 52.56881
145.6144, 52.64748
146.0965, 52.65639
146.5787, 52.61069
147.0608, 52.55656
147.5429, 52.49333
148.0250, 52.42367
148.5071, 52.34087
148.9892, 52.25177
149.4714, 52.17459
149.9535, 52.12471
150.4356, 52.10325
150.9177, 52.09275
151.3998, 52.09343
151.8819, 52.10632
152.3641, 52.15156
152.8462, 52.21864
153.3283, 52.26815
153.8104, 52.24435
154.2925, 52.09784
154.7746, 52.01870
155.2568, 52.00672
155.7389, 52.04493
156.2210, 52.14822
156.7031, 52.30863
157.1852, 52.47842
157.6673, 52.58123
158.1495, 52.55667
158.6316, 52.56132
159.1137, 52.54649
159.5958, 52.58017
160.0779, 52.75303
160.5600, 53.10062
161.0422, 53.54003
161.5243, 53.90103
162.0064, 54.15027
162.4885, 54.41253
162.9706, 54.68921
163.4527, 54.99837
163.9349, 55.39838
164.4170, 55.95306
164.8991, 56.54608
165.3812, 56.95380
165.8633, 57.13092
166.3454, 57.29485
166.8276, 57.58148
167.3097, 57.97418
167.7918, 58.35011
168.2739, 58.62156
168.7560, 58.88383
169.2381, 59.26406
169.7203, 59.80481
170.2024, 60.36184
170.6845, 60.77478
171.1666, 61.01534
171.6487, 61.26934
172.1308, 61.58148
172.6130, 61.94286
173.0951, 62.36198
173.5772, 62.84585
174.0593, 63.36314
174.5414, 63.85905
175.0235, 64.30843
175.5057, 64.78690
175.9878, 65.37676
176.4699, 65.96775
176.9520, 66.46044
177.4341, 66.80611
177.9162, 67.03561
178.3984, 67.25296
178.8805, 67.52686
179.3626, 67.68659
179.8447, 67.70943
180.3268, 67.61511
180.8089, 67.42114
181.2911, 67.13512
181.7732, 66.76796
182.2553, 66.37264
182.7374, 66.01036
183.2195, 65.55286
183.7016, 64.95398
184.1838, 64.24290
184.6659, 63.45688
185.1480, 62.60198
185.6301, 61.69410
186.1122, 60.91204
186.5943, 60.32629
187.0765, 59.76560
187.5586, 59.14042
188.0407, 58.47909
188.5228, 57.87897
189.0049, 57.41618
189.4870, 57.07898
189.9692, 56.72704
190.4513, 56.32956
190.9334, 55.94281
191.4155, 55.60263
191.8976, 55.30931
192.3797, 55.04210
192.8619, 54.80565
193.3440, 54.58493
193.8261, 54.33821
194.3082, 54.02174
194.7903, 53.70496
195.2724, 53.46714
195.7546, 53.31607
196.2367, 53.19629
196.7188, 53.09372
197.2009, 52.99815
197.6830, 52.89691
198.1651, 52.79298
198.6473, 52.67725
199.1294, 52.52485
199.6115, 52.31680
200.0936, 52.12061
200.5757, 51.95877
201.0578, 51.82710
201.5400, 51.73827
202.0221, 51.74053
202.5042, 51.75983
202.9863, 51.54950
203.4684, 50.92072
203.9505, 50.36913
204.4327, 50.07300
204.9148, 49.93337
205.3969, 49.81165
205.8790, 49.62681
206.3611, 49.39990
206.8432, 49.23482
207.3254, 49.16406
207.8075, 49.12550
208.2896, 49.11256
208.7717, 49.11980
209.2538, 49.14405
209.7359, 49.18526
210.2181, 49.24069
210.7002, 49.28230
211.1823, 49.29109
211.6644, 49.30552
212.1465, 49.33929
212.6286, 49.38364
213.1108, 49.42553
213.5929, 49.45787
214.0750, 49.47952
214.5571, 49.47076
215.0392, 49.42281
215.5213, 49.35775
216.0035, 49.28287
216.4856, 49.19555
216.9677, 49.09261
217.4498, 48.97357
217.9319, 48.83721
218.4140, 48.65061
218.8961, 48.34838
219.3783, 48.07537
219.8604, 47.89756
220.3425, 47.79732
220.8246, 47.70818
221.3067, 47.57629
221.7888, 47.42356
222.2710, 47.38114
222.7531, 47.53097
223.2352, 47.69792
223.7173, 47.77325
224.1994, 47.77856
224.6815, 47.82517
225.1637, 47.98411
225.6458, 48.24128
226.1279, 48.50542
226.6100, 48.77589
227.0921, 49.05335
227.5742, 49.35761
228.0564, 49.68179
228.5385, 49.95980
229.0206, 50.10625
229.5027, 50.20364
229.9848, 50.42658
230.4669, 50.84909
230.9491, 51.31514
231.4312, 51.67748
231.9133, 51.93597
232.3954, 52.22736
232.8775, 52.65106
233.3596, 53.12701
233.8418, 53.54629
234.3239, 53.88493
234.8060, 54.19370
235.2881, 54.50801
235.7702, 54.82220
236.2523, 55.19727
236.7345, 55.69931
237.2166, 56.25389
237.6987, 56.80037
238.1808, 57.32877
238.6629, 57.84074
239.1451, 58.31275
239.6272, 58.72417
240.1093, 59.20871
240.5914, 59.87881
241.0735, 60.59528
241.5556, 61.25375
242.0378, 61.83131
242.5199, 62.38640
243.0020, 63.01402
243.4841, 63.73840
243.9662, 64.43069
244.4483, 65.04178
244.9305, 65.63210
245.4126, 66.23863
245.8947, 66.86887
246.3768, 67.51761
246.8589, 68.19358
247.3410, 68.92982
247.8232, 69.58399
248.3053, 70.08324
248.7874, 70.54933
249.2695, 71.04671
249.7516, 71.59064
250.2337, 72.16675
250.7159, 72.76876
251.1980, 73.43098
251.6801, 74.02324
252.1622, 74.43002
252.6443, 74.86214
253.1264, 75.42514
253.6086, 76.14118
254.0907, 76.99178
254.5728, 77.97740
255.0549, 79.19714
255.5370, 80.25707
256.0191, 81.04277
256.5013, 81.79291
256.9834, 82.62359
257.4655, 83.54536
257.9476, 84.50529
258.4297, 85.45541
258.9118, 86.42403
259.3940, 87.26400
259.8761, 87.95922
260.3582, 88.56858
260.8403, 89.18273
261.3224, 89.76061
261.8045, 90.15810
262.2867, 90.23639
262.7688, 89.97221
263.2509, 89.49512
263.7330, 88.91557
264.2151, 88.08606
264.6972, 86.85913
265.1794, 85.29876
265.6615, 83.59218
266.1436, 81.89764
266.6257, 80.21225
267.1078, 78.46233
267.5899, 76.53796
268.0721, 74.65362
268.5542, 72.92410
269.0363, 71.31865
269.5184, 69.71088
270.0005, 68.01173
270.4826, 66.23149
270.9648, 64.61317
271.4469, 63.17389
271.9290, 61.83681
272.4111, 60.61102
272.8932, 59.47013
273.3753, 58.33323
273.8575, 57.14173
274.3396, 55.93667
274.8217, 54.94211
275.3038, 54.27660
275.7859, 53.63435
276.2680, 52.87618
276.7502, 52.07607
277.2323, 51.39555
277.7144, 50.92653
278.1965, 50.59461
278.6786, 50.17474
279.1607, 49.61345
279.6429, 49.08505
280.1250, 48.64084
280.6071, 48.25896
281.0892, 47.90344
281.5713, 47.55929
282.0534, 47.23559
282.5356, 46.96001
283.0177, 46.74801
283.4998, 46.52016
283.9819, 46.21289
284.4640, 45.88983
284.9461, 45.66322
285.4283, 45.57324
285.9104, 45.53392
286.3925, 45.42110
286.8746, 45.22994
287.3567, 45.04384
287.8388, 44.89945
288.3210, 44.76053
288.8031, 44.55546
289.2852, 44.26015
289.7673, 43.99278
290.2494, 43.92165
290.7315, 44.03305
291.2137, 44.06518
291.6958, 43.93620
292.1779, 43.73211
292.6600, 43.51166
293.1421, 43.27832
293.6242, 43.11967
294.1064, 43.16849
294.5885, 43.37221
295.0706, 43.44481
295.5527, 43.25573
296.0348, 42.99606
296.5169, 42.82355
296.9991, 42.73973
297.4812, 42.68677
297.9633, 42.64610
298.4454, 42.60604
298.9275, 42.53626
299.4096, 42.42200
299.8918, 42.29281
300.3739, 42.14466
300.8560, 41.98654
301.3381, 41.89851
301.8202, 41.97390
302.3023, 42.09428
302.7845, 42.01001
303.2666, 41.62428
303.7487, 41.27086
304.2308, 41.20035
304.7129, 41.33179
305.1950, 41.37027
305.6772, 41.19676
306.1593, 40.92281
306.6414, 40.71322
307.1235, 40.57286
307.6056, 40.42813
308.0877, 40.22806
308.5699, 40.00106
309.0520, 39.82177
309.5341, 39.72242
310.0162, 39.63066
310.4983, 39.44574
310.9804, 39.18259
311.4626, 38.95062
311.9447, 38.79546
312.4268, 38.68845
312.9089, 38.57487
313.3910, 38.43961
313.8731, 38.34618
314.3553, 38.40290
314.8374, 38.55384
315.3195, 38.61584
315.8016, 38.47159
316.2837, 38.26920
316.7658, 38.19665
317.2480, 38.26199
317.7301, 38.27561
318.2122, 38.06830
318.6943, 37.74004
319.1764, 37.54150
319.6585, 37.56825
320.1407, 37.63166
320.6228, 37.60040
321.1049, 37.48169
321.5870, 37.31577
322.0691, 37.08543
322.5512, 36.84863
323.0334, 36.70453
323.5155, 36.67192
323.9976, 36.66975
324.4797, 36.67547
324.9618, 36.68076
325.4439, 36.65953
325.9261, 36.60245
326.4082, 36.51978
326.8903, 36.42660
327.3724, 36.32567
327.8545, 36.19603
328.3366, 35.97472
328.8188, 35.73524
329.3009, 35.62903
329.7830, 35.70538
330.2651, 35.78535
330.7472, 35.66281
331.2293, 35.37745
331.7115, 35.14122
332.1936, 35.00259
332.6757, 34.92450
333.1578, 34.89968
333.6399, 34.92674
334.1220, 34.90417
334.6042, 34.73470
335.0863, 34.46238
335.5684, 34.26776
336.0505, 34.20934
336.5326, 34.17540
337.0147, 34.09975
337.4969, 33.98789
337.9790, 33.86179
338.4611, 33.72456
338.9432, 33.58606
339.4253, 33.45795
339.9074, 33.31934
340.3896, 33.23827
340.8717, 33.31687
341.3538, 33.46329
341.8359, 33.46864
342.3180, 33.24943
342.8001, 32.96454
343.2822, 32.84876
343.7643, 32.91231
344.2465, 32.97280
344.7286, 32.99704
345.2107, 33.00137
345.6928, 33.01475
346.1749, 33.04056
346.6570, 33.02956
347.1392, 32.91447
347.6213, 32.69406
348.1034, 32.57413
348.5855, 32.61354
349.0676, 32.70348
349.5497, 32.79964
350.0319, 32.89114
350.5140, 32.94198
350.9961, 32.92002
351.4782, 32.84643
351.9603, 32.82283
352.4424, 32.88639
352.9246, 32.94541
353.4067, 32.94963
353.8888, 32.93380
354.3709, 32.96576
354.8530, 33.07449
355.3351, 33.22351
355.8173, 33.34373
356.2994, 33.42149
356.7815, 33.50418
357.2636, 33.62587
357.7457, 33.73774
358.2278, 33.76368
358.7100, 33.70041
359.1921, 33.65466
359.6742, 33.75624
360.1563, 34.04682
360.6384, 34.22769
361.1205, 34.23111
361.6027, 34.19878
362.0848, 34.17339
362.5669, 34.17397
363.0490, 34.23923
363.5311, 34.40462
364.0132, 34.65233
364.4954, 34.83368
364.9775, 34.85797
365.4596, 34.92653
365.9417, 35.12573
366.4238, 35.37814
366.9059, 35.56844
367.3881, 35.65088
367.8702, 35.68087
368.3523, 35.77167
368.8344, 35.94643
369.3165, 36.15233
369.7986, 36.43715
370.2808, 36.71823
370.7629, 36.92368
371.2450, 37.05111
371.7271, 37.15825
372.2092, 37.30742
372.6913, 37.50863
373.1735, 37.69393
373.6556, 37.82663
374.1377, 37.98070
374.6198, 38.19695
375.1019, 38.45532
375.5840, 38.70988
376.0662, 38.93208
376.5483, 39.12673
377.0304, 39.31281
377.5125, 39.49913
377.9946, 39.66117
378.4767, 39.76200
378.9589, 39.85369
379.4410, 39.98642
379.9231, 40.17685
380.4052, 40.40804
380.8873, 40.66295
381.3694, 40.95341
381.8516, 41.22581
382.3337, 41.49856
382.8158, 41.73391
383.2979, 41.89838
383.7800, 42.00038
384.2621, 42.07862
384.7443, 42.13370
385.2264, 42.17674
385.7085, 42.36389
386.1906, 42.81010
386.6727, 43.23962
387.1548, 43.54992
387.6370, 43.77340
388.1191, 43.94230
388.6012, 44.04816
389.0833, 44.15498
389.5654, 44.39946
390.0475, 44.81999
390.5297, 45.20140
391.0118, 45.42752
391.4939, 45.61612
391.9760, 45.85404
392.4581, 46.15335
392.9402, 46.48424
393.4224, 46.84878
393.9045, 47.23438
394.3866, 47.55153
394.8687, 47.74172
395.3508, 47.93842
395.8329, 48.27398
396.3151, 48.70847
396.7972, 49.11330
397.2793, 49.41527
397.7614, 49.67130
398.2435, 49.88114
398.7256, 50.04483
399.2078, 50.37271
399.6899, 50.66038
400.1720, 50.91003
400.6541, 51.00785
401.1362, 51.30173
401.6183, 51.51704
402.1005, 51.72918
402.5826, 52.05067
403.0647, 52.17056
403.5468, 52.49032
404.0289, 52.73029
404.5110, 52.69799
404.9932, 52.81199
405.4753, 52.84765
405.9574, 52.73468
406.4395, 52.56470
406.9216, 52.42104
407.4037, 52.31062
407.8859, 52.21278
408.3680, 52.12595
408.8501, 52.04052
409.3322, 51.85818
409.8143, 51.52605
410.2964, 51.17079
410.7786, 50.83844
411.2607, 50.51283
411.7428, 50.15850
412.2249, 49.76261
412.7070, 49.33780
413.1891, 48.90556
413.6713, 48.42573
414.1534, 48.02131
414.6355, 47.76551
415.1176, 47.52817
415.5997, 47.19750
416.0818, 46.78036
416.5640, 46.38134
417.0461, 46.10897
417.5282, 45.96712
418.0103, 45.69732
418.4924, 45.14429
418.9745, 44.62910
419.4567, 44.22756
419.9388, 43.90361
420.4209, 43.59731
420.9030, 43.28420
421.3851, 42.98401
421.8672, 42.74849
422.3494, 42.61135
422.8315, 42.45083
423.3136, 42.20081
423.7957, 41.96553
424.2778, 41.81902
424.7599, 41.75620
425.2421, 41.71231
425.7242, 41.61372
426.2063, 41.47400
426.6884, 41.44068
427.1705, 41.58457
427.6526, 41.71775
428.1348, 41.75715
428.6169, 41.73684
429.0990, 41.69538
429.5811, 41.63230
430.0632, 41.58665
430.5453, 41.60969
431.0275, 41.70222
431.5096, 41.83084
431.9917, 42.01559
432.4738, 42.20423
432.9559, 42.34557
433.4380, 42.43993
433.9202, 42.51224
434.4023, 42.54556
434.8844, 42.57267
435.3665, 42.64698
435.8486, 42.77303
436.3307, 42.95226
436.8129, 43.21809
437.2950, 43.53969
437.7771, 43.78737
438.2592, 43.93722
438.7413, 44.03551
439.2234, 44.08933
439.7056, 44.11002
440.1877, 44.13200
440.6698, 44.17244
441.1519, 44.19601
441.6340, 44.13056
442.1161, 43.91447
442.5983, 43.79639
443.0804, 43.88538
443.5625, 44.00361
444.0446, 44.01793
444.5267, 43.92821
445.0089, 43.80143
445.4910, 43.67950
445.9731, 43.56816
446.4552, 43.52136
446.9373, 43.61676
447.4194, 43.68404
447.9016, 43.71975
448.3837, 43.70539
448.8658, 43.60439
449.3479, 43.41253
449.8300, 43.18621
450.3121, 43.00710
450.7943, 42.88747
451.2764, 42.76917
451.7585, 42.65963
452.2406, 42.54406
452.7227, 42.40129
453.2048, 42.24834
453.6870, 42.12741
454.1691, 42.07474
454.6512, 42.05402
455.1333, 41.95850
455.6154, 41.75350
456.0975, 41.57797
456.5797, 41.52928
457.0618, 41.49488
457.5439, 41.36420
458.0260, 41.12391
458.5081, 40.90643
458.9902, 40.85731
459.4724, 40.91917
459.9545, 40.86605
460.4366, 40.63551
460.9187, 40.39800
461.4008, 40.30741
461.8829, 40.30952
462.3651, 40.27386
462.8472, 40.15031
463.3293, 40.01192
463.8114, 39.92202
464.2935, 39.86537
464.7756, 39.78645
465.2578, 39.66426
465.7399, 39.51229
466.2220, 39.34608
466.7041, 39.15190
467.1862, 38.99786
467.6683, 38.87376
468.1505, 38.80522
468.6326, 38.83246
469.1147, 38.94336
469.5968, 39.08545
470.0789, 39.23179
470.5610, 39.37101
471.0432, 39.42546
471.5253, 39.29485
472.0074, 39.20154
472.4895, 39.19809
472.9716, 39.22730
473.4537, 39.24920
473.9359, 39.24642
474.4180, 39.19421
474.9001, 39.04033
475.3822, 38.76127
475.8643, 38.58554
476.3464, 38.66051
476.8286, 38.68321
477.3107, 38.55740
477.7928, 38.31520
478.2749, 38.00285
478.7570, 37.62913
479.2391, 37.23702
479.7213, 36.89692
480.2034, 36.61025
480.6855, 36.35278
481.1676, 36.12337
481.6497, 35.91661
482.1318, 35.75845
482.6140, 35.63360
483.0961, 35.43666
483.5782, 35.05479
484.0603, 34.59587
484.5424, 34.22583
485.0245, 33.95260
485.5067, 33.71471
485.9888, 33.48950
486.4709, 33.27231
486.9530, 33.04716
487.4351, 32.78885
487.9172, 32.57683
488.3994, 32.47201
488.8815, 32.41408
489.3636, 32.32534
489.8457, 32.19051
490.3278, 32.03431
490.8099, 31.87807
491.2921, 31.72298
491.7742, 31.56056
492.2563, 31.35774
492.7384, 31.18714
493.2205, 31.11087
493.7026, 31.06773
494.1848, 30.96198
494.6669, 30.76048
495.1490, 30.52542
495.6311, 30.35616
496.1132, 30.27529
496.5953, 30.18913
497.0775, 30.08081
497.5596, 29.98269
498.0417, 29.89422
498.5238, 29.82699
499.0059, 29.80997
499.4880, 29.87383
499.9702, 29.96635
500.4523, 29.97682
500.9344, 29.89264
501.4165, 29.80532
501.8986, 29.72548
502.3807, 29.66623
502.8629, 29.64584
503.3450, 29.66288
503.8271, 29.67916
504.3092, 29.70784
504.7913, 29.71148
505.2734, 29.57958
505.7556, 29.30852
506.2377, 29.14299
506.7198, 29.25865
507.2019, 29.56317
507.6840, 29.76642
508.1661, 29.85387
508.6482, 29.88587
509.1303, 29.84581
509.6125, 29.77530
510.0946, 29.71407
510.5767, 29.67179
511.0588, 29.64844
511.5409, 29.63984
512.0231, 29.64624
512.5052, 29.71810
512.9873, 29.94789
513.4694, 30.13367
513.9515, 30.19873
514.4337, 30.21690
514.9158, 30.28284
515.3979, 30.42018
515.8800, 30.56160
516.3621, 30.61726
516.8442, 30.57827
517.3264, 30.54293
517.8085, 30.48966
518.2906, 30.47156
518.7727, 30.52789
519.2548, 30.62745
519.7369, 30.71769
520.2191, 30.77905
520.7012, 30.83159
521.1833, 30.89125
521.6654, 30.95945
522.1475, 31.05196
522.6296, 31.18336
523.1118, 31.31788
523.5939, 31.38713
524.0760, 31.40536
524.5581, 31.50783
525.0402, 31.84181
525.5223, 32.15724
526.0045, 32.26496
526.4866, 32.20414
526.9687, 32.09148
527.4508, 31.97234
527.9329, 31.85807
528.4150, 31.76523
528.8972, 31.66446
529.3793, 31.66587
529.8614, 31.84458
530.3435, 32.04865
530.8256, 32.20642
531.3077, 32.31812
531.7899, 32.40427
532.2720, 32.47392
532.7541, 32.53852
533.2362, 32.63329
533.7183, 32.77799
534.2004, 32.89756
534.6826, 32.87856
535.1647, 32.91234
535.6468, 33.16943
536.1289, 33.60714
536.6110, 33.99787
537.0931, 34.20391
537.5753, 34.27948
538.0574, 34.28036
538.5395, 34.19944
539.0216, 34.20407
539.5037, 34.38691
539.9858, 34.67508
540.4680, 34.96353
540.9501, 35.26887
541.4322, 35.50146
541.9143, 35.56497
542.3964, 35.59172
542.8785, 35.72446
543.3607, 35.95699
543.8428, 36.18679
544.3249, 36.34200
544.8070, 36.45541
545.2891, 36.64998
545.7712, 37.07433
546.2534, 37.37313
546.7355, 37.39956
547.2176, 37.40151
547.6997, 37.57169
548.1818, 37.90469
548.6639, 38.28019
549.1461, 38.61237
549.6282, 38.90344
550.1103, 39.15777
550.5924, 39.37886
551.0745, 39.55526
551.5566, 39.58764
552.0388, 39.63636
552.5209, 39.87657
553.0030, 40.31318
553.4851, 40.69670
553.9672, 40.83445
554.4493, 40.84516
554.9315, 40.94721
555.4136, 41.15223
555.8957, 41.36141
556.3778, 41.51677
556.8599, 41.64302
557.3420, 41.81491
557.8242, 42.08628
558.3063, 42.27206
558.7884, 42.28277
559.2705, 42.22944
559.7526, 42.20919
560.2347, 42.22638
560.7169, 42.23090
561.1990, 42.18221
561.6811, 42.09930
562.1632, 42.08104
562.6453, 42.24366
563.1274, 42.26429
563.6096, 42.02857
564.0917, 41.71974
564.5738, 41.47454
565.0559, 41.29036
565.5380, 41.07231
566.0201, 40.75246
566.5023, 40.35091
566.9844, 39.90352
567.4665, 39.39738
567.9486, 38.92192
568.4307, 38.53767
568.9128, 38.18210
569.3950, 37.76131
569.8771, 37.26578
570.3592, 36.79863
570.8413, 36.42039
571.3234, 36.06618
571.8055, 35.66686
572.2877, 35.22673
572.7698, 34.78605
573.2519, 34.36418
573.7340, 33.97039
574.2161, 33.63950
574.6982, 33.47371
575.1804, 33.18520
575.6625, 32.63282
576.1446, 32.08992
576.6267, 31.74767
577.1088, 31.55930
577.5909, 31.36315
578.0731, 31.06318
578.5552, 30.70531
579.0373, 30.37877
579.5194, 30.07778
580.0015, 29.84454
580.4836, 29.72341
580.9658, 29.63963
581.4479, 29.54121
581.9300, 29.42954
582.4121, 29.31296
582.8942, 29.22894
583.3763, 29.11318
583.8585, 28.85496
584.3406, 28.50236
584.8227, 28.23742
585.3048, 28.12690
585.7869, 28.10585
586.2690, 28.09906
586.7512, 28.12040
587.2333, 28.07919
587.7154, 27.89754
588.1975, 27.74133
588.6796, 27.71301
589.1617, 27.74686
589.6438, 27.72162
590.1259, 27.59587
590.6080, 27.45249
591.0901, 27.42761
591.5723, 27.54035
592.0544, 27.57925
592.5365, 27.49381
593.0186, 27.40302
593.5007, 27.36705
593.9828, 27.35965
594.4650, 27.33616
594.9471, 27.27707
595.4292, 27.23601
595.9113, 27.29288
596.3934, 27.39268
596.8755, 27.38789
597.3577, 27.25304
597.8398, 27.10934
598.3219, 27.04741
598.8040, 27.05715
599.2861, 27.06939
599.7682, 27.08593
600.2504, 27.10273
600.7325, 27.10532
601.2146, 27.11744
601.6967, 27.16711
602.1788, 27.25212
602.6609, 27.34757
603.1431, 27.43690
603.6252, 27.51677
604.1073, 27.56594
604.5894, 27.57012
605.0715, 27.58086
605.5536, 27.61411
606.0358, 27.65614
606.5179, 27.71817
