##NAMES=Trilithionite
##RRUFFID=R040105
##IDEAL CHEMISTRY=KLi_1.5_Al_1.5_(Si_3_Al)O_10_F_2_
##LOCALITY=Brown Derby mine, Ohio City, Gunnison County, Colorado, USA
##OWNER=RRUFF
##SOURCE=University of Arizona Mineral Museum
##DESCRIPTION=Purple hexagonal tablet
##STATUS=The identification of this mineral has been confirmed by X-ray diffraction and chemical analysis
##URL=rruff.info/R040105
##MEASURED CHEMISTRY=(K_0.82_Li_0.14_Na_0.04_)(Li_0.53_Al_0.42_Mn_0.05_)_3_(Si_0.84_Al_0.17_)_4_O_10_((OH)_0.59_F_0.41_)_2_
132.0585, 1019.827
132.5406, 1015.604
133.0227, 1008.365
133.5048, 990.3405
133.9869, 977.7004
134.4691, 975.2936
134.9512, 979.3857
135.4333, 984.0474
135.9154, 985.6843
136.3975, 984.3425
136.8796, 981.7340
137.3618, 977.0226
137.8439, 972.1091
138.3260, 967.0381
138.8081, 962.1416
139.2902, 959.3174
139.7723, 961.4053
140.2545, 968.2153
140.7366, 970.7492
141.2187, 967.0339
141.7008, 959.4888
142.1829, 949.3576
142.6650, 935.8926
143.1472, 923.7692
143.6293, 918.5579
144.1114, 918.9539
144.5935, 920.5126
145.0756, 922.2750
145.5577, 923.9370
146.0399, 924.5342
146.5220, 923.9764
147.0041, 921.9911
147.4862, 917.7204
147.9683, 911.3592
148.4504, 905.8268
148.9326, 905.0250
149.4147, 909.7348
149.8968, 910.8295
150.3789, 902.1574
150.8610, 892.0167
151.3431, 884.4462
151.8252, 880.4025
152.3074, 878.8022
152.7895, 878.1035
153.2716, 878.3043
153.7537, 879.5677
154.2358, 880.6926
154.7179, 883.1984
155.2001, 890.0410
155.6822, 902.5872
156.1643, 917.1274
156.6464, 922.1917
157.1285, 907.0327
157.6106, 893.7301
158.0928, 885.6742
158.5749, 880.5796
159.0570, 874.1932
159.5391, 863.4817
160.0212, 849.5684
160.5033, 846.1537
160.9855, 863.8785
161.4676, 879.6537
161.9497, 886.0091
162.4318, 884.2927
162.9139, 879.0339
163.3960, 872.4788
163.8782, 864.8157
164.3603, 864.6432
164.8424, 881.1221
165.3245, 897.3209
165.8066, 899.7926
166.2887, 888.1776
166.7709, 875.1475
167.2530, 873.1785
167.7351, 882.1863
168.2172, 888.7505
168.6993, 888.2955
169.1814, 885.9381
169.6636, 888.3627
170.1457, 897.1429
170.6278, 908.1622
171.1099, 917.8676
171.5920, 926.4714
172.0741, 934.1231
172.5563, 942.1376
173.0384, 949.3893
173.5205, 951.8535
174.0026, 946.0735
174.4847, 939.2686
174.9668, 936.7260
175.4490, 938.3545
175.9311, 943.7368
176.4132, 954.9877
176.8953, 971.9127
177.3774, 984.8550
177.8595, 990.9201
178.3417, 993.0992
178.8238, 992.1871
179.3059, 988.4635
179.7880, 984.2122
180.2701, 982.3071
180.7522, 983.5699
181.2344, 983.6711
181.7165, 982.1089
182.1986, 979.1417
182.6807, 974.6859
183.1628, 968.7486
183.6449, 961.6243
184.1271, 953.3853
184.6092, 942.2144
185.0913, 933.7674
185.5734, 930.2753
186.0555, 928.4089
186.5376, 925.5438
187.0198, 920.5972
187.5019, 914.0313
187.9840, 906.8342
188.4661, 897.2284
188.9482, 889.3760
189.4303, 885.5701
189.9125, 883.0058
190.3946, 878.4620
190.8767, 870.2048
191.3588, 858.8911
191.8409, 847.2817
192.3230, 831.0543
192.8052, 819.3465
193.2873, 815.9622
193.7694, 818.1705
194.2515, 821.8601
194.7336, 825.0624
195.2157, 827.3961
195.6979, 824.5373
196.1800, 811.0118
196.6621, 799.1484
197.1442, 793.6340
197.6263, 793.5899
198.1084, 796.0795
198.5906, 799.7647
199.0727, 804.3442
199.5548, 806.7797
200.0369, 810.2775
200.5190, 809.3127
201.0011, 795.8361
201.4833, 771.5436
201.9654, 752.0768
202.4475, 751.0872
202.9296, 767.0531
203.4117, 777.3105
203.8938, 777.9368
204.3760, 774.6791
204.8581, 771.9421
205.3402, 769.9522
205.8223, 768.7148
206.3044, 769.3411
206.7865, 770.9414
207.2687, 770.1365
207.7508, 764.5870
208.2329, 756.9293
208.7150, 749.8750
209.1971, 743.0022
209.6792, 738.9299
210.1614, 742.1736
210.6435, 750.0687
211.1256, 756.7144
211.6077, 760.4422
212.0898, 761.4113
212.5719, 758.6328
213.0541, 748.8928
213.5362, 742.0559
214.0183, 748.1653
214.5004, 762.5748
214.9825, 773.7460
215.4646, 774.1198
215.9468, 765.8811
216.4289, 757.4518
216.9110, 746.3958
217.3931, 739.3474
217.8752, 741.2347
218.3573, 749.7893
218.8395, 758.4634
219.3216, 762.4852
219.8037, 762.2531
220.2858, 763.0054
220.7679, 766.8949
221.2500, 769.3994
221.7322, 768.5519
222.2143, 764.6387
222.6964, 758.8235
223.1785, 750.2621
223.6606, 738.5753
224.1427, 732.6864
224.6249, 736.9968
225.1070, 743.8376
225.5891, 751.4586
226.0712, 759.2798
226.5533, 766.6925
227.0354, 773.7127
227.5176, 780.7806
227.9997, 784.0665
228.4818, 777.6102
228.9639, 772.2739
229.4460, 772.0100
229.9281, 777.0146
230.4103, 785.8401
230.8924, 798.6823
231.3745, 818.5662
231.8566, 828.5314
232.3387, 814.3995
232.8208, 803.0142
233.3030, 811.4865
233.7851, 837.5029
234.2672, 863.9849
234.7493, 870.2614
235.2314, 846.6143
235.7135, 838.3869
236.1957, 859.2577
236.6778, 881.6715
237.1599, 888.7050
237.6420, 880.5869
238.1241, 870.2578
238.6062, 873.2943
239.0884, 895.7998
239.5705, 911.8322
240.0526, 919.3207
240.5347, 923.2403
241.0168, 923.1093
241.4989, 920.6745
241.9811, 922.3194
242.4632, 936.9373
242.9453, 973.2084
243.4274, 994.7173
243.9095, 990.8932
244.3916, 982.4281
244.8738, 980.9103
245.3559, 988.4844
245.8380, 1002.344
246.3201, 1020.466
246.8022, 1047.121
247.2843, 1062.625
247.7665, 1057.565
248.2486, 1049.168
248.7307, 1049.191
249.2128, 1059.242
249.6949, 1074.327
250.1770, 1089.146
250.6592, 1103.683
251.1413, 1117.843
251.6234, 1131.758
252.1055, 1145.217
252.5876, 1157.883
253.0697, 1169.730
253.5519, 1181.809
254.0340, 1195.791
254.5161, 1213.268
254.9982, 1224.328
255.4803, 1223.641
255.9624, 1220.180
256.4445, 1219.475
256.9267, 1222.635
257.4088, 1230.367
257.8909, 1244.597
258.3730, 1267.531
258.8551, 1285.074
259.3372, 1295.349
259.8194, 1301.401
260.3015, 1304.777
260.7836, 1305.869
261.2657, 1306.063
261.7478, 1306.860
262.2299, 1308.447
262.7121, 1308.192
263.1942, 1306.081
263.6763, 1302.121
264.1584, 1296.650
264.6405, 1289.631
265.1227, 1279.910
265.6048, 1265.758
266.0869, 1246.678
266.5690, 1229.245
267.0511, 1218.063
267.5332, 1205.510
268.0154, 1182.910
268.4975, 1150.222
268.9796, 1118.083
269.4617, 1095.019
269.9438, 1081.464
270.4259, 1070.649
270.9081, 1070.352
271.3902, 1067.203
271.8723, 1047.168
272.3544, 1010.397
272.8365, 973.4315
273.3186, 947.8314
273.8008, 933.8257
274.2829, 922.3508
274.7650, 917.0678
275.2471, 911.4810
275.7292, 898.9814
276.2113, 880.1385
276.6935, 862.9392
277.1756, 853.2836
277.6577, 850.4619
278.1398, 846.6980
278.6219, 842.8517
279.1040, 837.3654
279.5862, 827.5237
280.0683, 814.0148
280.5504, 802.6407
281.0325, 798.1859
281.5146, 798.6059
281.9967, 794.8065
282.4789, 782.0131
282.9610, 769.4055
283.4431, 764.0637
283.9252, 764.7025
284.4073, 763.8528
284.8894, 756.7782
285.3716, 745.7868
285.8537, 738.2851
286.3358, 736.0138
286.8179, 734.8705
287.3000, 733.1084
287.7821, 730.7211
288.2643, 727.7186
288.7464, 724.0627
289.2285, 719.7347
289.7106, 714.4706
290.1927, 706.3765
290.6748, 700.6911
291.1570, 702.3375
291.6391, 708.8062
292.1212, 712.0438
292.6033, 708.1133
293.0854, 700.3632
293.5675, 695.3423
294.0497, 692.7552
294.5318, 692.6313
295.0139, 697.8449
295.4960, 705.5131
295.9781, 708.0558
296.4602, 701.5947
296.9424, 692.0556
297.4245, 691.0980
297.9066, 700.6997
298.3887, 707.2090
298.8708, 704.3144
299.3529, 695.9200
299.8351, 688.6245
300.3172, 684.1165
300.7993, 681.1054
301.2814, 678.0445
301.7635, 674.9925
302.2456, 671.6198
302.7278, 666.1673
303.2099, 660.9636
303.6920, 660.0090
304.1741, 664.4138
304.6562, 669.9736
305.1383, 671.6648
305.6205, 669.2299
306.1026, 667.8334
306.5847, 668.9282
307.0668, 670.9587
307.5489, 673.5903
308.0310, 676.7481
308.5132, 676.7665
308.9953, 668.7641
309.4774, 652.3764
309.9595, 640.3375
310.4416, 634.0429
310.9237, 631.6156
311.4059, 633.2088
311.8880, 638.2804
312.3701, 642.9193
312.8522, 644.2014
313.3343, 642.0968
313.8164, 610.3995
314.2986, 644.3179
314.7807, 662.2045
315.2628, 664.9203
315.7449, 607.0267
316.2270, 627.3975
316.7091, 616.4034
317.1913, 604.1227
317.6734, 635.5089
318.1555, 586.4309
318.6376, 617.1245
319.1197, 615.9747
319.6018, 629.3988
320.0840, 611.2639
320.5661, 602.8771
321.0482, 626.0588
321.5303, 631.7606
322.0124, 609.9935
322.4945, 624.3440
322.9767, 574.1630
323.4588, 580.6094
323.9409, 611.4879
324.4230, 591.3073
324.9051, 579.2808
325.3872, 581.5562
325.8694, 590.7693
326.3515, 596.8704
326.8336, 598.2690
327.3157, 596.6033
327.7978, 591.9827
328.2799, 584.7459
328.7621, 578.6422
329.2442, 579.4443
329.7263, 592.5116
330.2084, 598.8497
330.6905, 593.1519
331.1726, 584.8699
331.6548, 580.9984
332.1369, 582.1190
332.6190, 584.1431
333.1011, 582.7784
333.5832, 577.1818
334.0653, 572.8680
334.5475, 568.9003
335.0296, 566.7620
335.5117, 568.3552
335.9938, 572.6513
336.4759, 576.9871
336.9580, 579.6207
337.4402, 580.5225
337.9223, 577.2363
338.4044, 562.2417
338.8865, 551.3445
339.3686, 551.4460
339.8507, 558.1220
340.3329, 563.6813
340.8150, 563.7271
341.2971, 559.3871
341.7792, 555.5635
342.2613, 554.3878
342.7434, 550.9070
343.2256, 540.8017
343.7077, 529.7629
344.1898, 524.2887
344.6719, 526.8875
345.1540, 534.4462
345.6361, 541.2686
346.1183, 549.0169
346.6004, 552.3599
347.0825, 548.7909
347.5646, 543.0027
348.0467, 538.0807
348.5288, 534.7725
349.0110, 532.0751
349.4931, 528.1858
349.9752, 521.9206
350.4573, 519.1755
350.9394, 521.9802
351.4215, 526.8085
351.9037, 534.4897
352.3858, 543.4728
352.8679, 549.1955
353.3500, 546.0295
353.8321, 534.3651
354.3142, 527.1154
354.7964, 524.7318
355.2785, 526.9218
355.7606, 536.9912
356.2427, 550.9665
356.7248, 561.2150
357.2069, 562.6070
357.6891, 557.8044
358.1712, 553.9017
358.6533, 550.4695
359.1354, 548.9808
359.6175, 551.6612
360.0996, 555.8594
360.5818, 558.2580
361.0639, 557.1693
361.5460, 555.5351
362.0281, 558.3565
362.5102, 566.4293
362.9923, 571.7809
363.4745, 569.9493
363.9566, 565.3494
364.4387, 561.5970
364.9208, 558.8339
365.4029, 558.4459
365.8850, 563.1099
366.3672, 571.6954
366.8493, 578.2234
367.3314, 581.5255
367.8135, 582.0809
368.2956, 578.8405
368.7777, 572.1926
369.2599, 568.5905
369.7420, 574.1735
370.2241, 583.5229
370.7062, 586.7737
371.1883, 582.1113
371.6704, 575.5457
372.1526, 570.4053
372.6347, 567.2134
373.1168, 568.9702
373.5989, 581.1694
374.0810, 594.6812
374.5631, 601.8843
375.0453, 603.1125
375.5274, 602.8399
376.0095, 603.5502
376.4916, 604.8370
376.9737, 604.9822
377.4558, 601.7674
377.9380, 600.0485
378.4201, 602.4622
378.9022, 607.5148
379.3843, 612.7493
379.8664, 617.3761
380.3485, 620.7916
380.8307, 621.3763
381.3128, 615.9653
381.7949, 613.6472
382.2770, 617.1797
382.7591, 622.8578
383.2412, 627.5660
383.7234, 630.5797
384.2055, 632.2772
384.6876, 632.8904
385.1697, 631.8878
385.6518, 632.1522
386.1339, 634.9405
386.6161, 637.6072
387.0982, 638.4766
387.5803, 638.0394
388.0624, 637.8094
388.5445, 638.8121
389.0266, 641.0447
389.5088, 644.4667
389.9909, 652.4534
390.4730, 657.6522
390.9551, 656.3309
391.4372, 652.3565
391.9193, 650.4169
392.4015, 652.5410
392.8836, 657.5986
393.3657, 664.0236
393.8478, 673.6699
394.3299, 679.8510
394.8120, 676.5320
395.2942, 673.2339
395.7763, 678.9083
396.2584, 693.8959
396.7405, 707.5077
397.2226, 706.1729
397.7047, 689.7400
398.1869, 681.0265
398.6690, 684.1305
399.1511, 692.6240
399.6332, 705.1783
400.1153, 719.9344
400.5974, 732.0003
401.0796, 739.1667
401.5617, 741.7952
402.0438, 739.1251
402.5259, 729.2749
403.0080, 721.6087
403.4901, 723.8420
403.9723, 730.8113
404.4544, 734.6041
404.9365, 732.1949
405.4186, 729.1851
405.9007, 731.4474
406.3828, 737.7562
406.8650, 741.0067
407.3471, 737.6031
407.8292, 731.3766
408.3113, 729.1578
408.7934, 732.0232
409.2755, 732.9190
409.7577, 728.7552
410.2398, 721.7148
410.7219, 714.6288
411.2040, 708.0206
411.6861, 701.0483
412.1682, 692.0641
412.6504, 680.4980
413.1325, 674.6402
413.6146, 681.1107
414.0967, 687.0036
414.5788, 684.6572
415.0609, 675.4573
415.5431, 664.2668
416.0252, 653.5978
416.5073, 644.0323
416.9894, 638.1915
417.4715, 640.0049
417.9536, 640.9011
418.4358, 639.7344
418.9179, 637.4147
419.4000, 635.2634
419.8821, 633.5895
420.3642, 631.1731
420.8463, 625.7155
421.3285, 615.4322
421.8106, 607.0951
422.2927, 600.4113
422.7748, 595.8192
423.2569, 595.4855
423.7390, 597.9105
424.2212, 598.2576
424.7033, 590.9884
425.1854, 578.3193
425.6675, 575.0679
426.1496, 588.2604
426.6317, 599.0175
427.1139, 599.0514
427.5960, 593.2422
428.0781, 586.9264
428.5602, 581.0513
429.0423, 577.7411
429.5244, 582.2452
430.0066, 594.8558
430.4887, 601.5546
430.9708, 594.1654
431.4529, 583.1337
431.9350, 581.1389
432.4171, 588.7156
432.8993, 595.2601
433.3814, 592.3482
433.8635, 585.8779
434.3456, 588.7867
434.8277, 603.9764
435.3098, 618.2189
435.7920, 619.1818
436.2741, 607.7375
436.7562, 600.0991
437.2383, 599.9437
437.7204, 600.8348
438.2025, 598.4909
438.6847, 594.0109
439.1668, 590.7125
439.6489, 590.1445
440.1310, 591.9914
440.6131, 595.5259
441.0952, 605.1617
441.5774, 610.2227
442.0595, 606.2070
442.5416, 599.7816
443.0237, 596.4794
443.5058, 597.4817
443.9879, 601.5795
444.4701, 608.2496
444.9522, 618.5121
445.4343, 623.8439
445.9164, 621.5425
446.3985, 616.9092
446.8806, 608.4124
447.3628, 599.1373
447.8449, 595.2379
448.3270, 601.3351
448.8091, 611.5457
449.2912, 609.3246
449.7733, 588.0929
450.2555, 572.8383
450.7376, 576.1565
451.2197, 584.1174
451.7018, 585.7358
452.1839, 579.3041
452.6660, 573.1232
453.1482, 575.4831
453.6303, 584.2316
454.1124, 589.0656
454.5945, 587.8973
455.0766, 584.8043
455.5587, 583.1064
456.0409, 582.2396
456.5230, 580.4540
457.0051, 576.1478
457.4872, 571.6669
457.9693, 569.9751
458.4514, 570.3935
458.9336, 568.7563
459.4156, 562.4727
459.8978, 553.6418
460.3799, 547.9750
460.8620, 546.2950
461.3441, 545.5692
461.8262, 544.1415
462.3083, 544.0082
462.7905, 548.9887
463.2726, 559.0391
463.7547, 568.3210
464.2368, 570.5245
464.7189, 564.7671
465.2010, 559.5348
465.6832, 553.9095
466.1653, 549.7781
466.6474, 548.0870
467.1295, 548.2565
467.6116, 549.2205
468.0938, 550.4167
468.5759, 552.3254
469.0580, 556.8644
469.5401, 566.4814
470.0222, 571.7552
470.5043, 566.7032
470.9865, 559.9368
471.4686, 557.3931
471.9507, 559.2093
472.4328, 560.5023
472.9149, 556.2029
473.3970, 548.2925
473.8792, 543.9949
474.3613, 544.0493
474.8434, 546.4486
475.3255, 551.3802
475.8076, 557.6186
476.2897, 562.9690
476.7719, 569.8268
477.2540, 572.2388
477.7361, 560.6332
478.2182, 540.6353
478.7003, 531.1873
479.1824, 540.6201
479.6646, 556.3975
480.1467, 558.0513
480.6288, 538.9241
481.1109, 526.8922
481.5930, 530.7288
482.0751, 536.3260
482.5573, 532.6354
483.0394, 520.6725
483.5215, 508.5147
484.0036, 502.0420
484.4857, 500.3114
484.9678, 497.0316
485.4500, 489.9847
485.9321, 484.3341
486.4142, 479.8583
486.8963, 477.5095
487.3784, 480.0074
487.8605, 487.4148
488.3427, 493.7116
488.8248, 490.6725
489.3069, 477.7982
489.7890, 467.2875
490.2711, 460.2723
490.7532, 455.0992
491.2354, 449.5807
491.7175, 444.9272
492.1996, 444.3691
492.6817, 453.5240
493.1638, 462.8662
493.6459, 457.9295
494.1281, 439.9842
494.6102, 427.1123
495.0923, 426.8490
495.5744, 434.3373
496.0565, 442.3364
496.5386, 451.8767
497.0208, 457.9587
497.5029, 459.4543
497.9850, 456.9335
498.4671, 448.4252
498.9492, 435.1101
499.4313, 424.1235
499.9135, 421.5781
500.3956, 426.7803
500.8777, 430.3663
501.3598, 432.1947
501.8419, 432.5373
502.3240, 431.7744
502.8062, 429.3656
503.2883, 423.8934
503.7704, 415.2068
504.2525, 406.0094
504.7346, 399.1723
505.2167, 394.5667
505.6989, 393.7212
506.1810, 398.7459
506.6631, 405.3622
507.1452, 413.9285
507.6273, 422.3411
508.1094, 425.6061
508.5916, 418.3547
509.0737, 409.0144
509.5558, 410.9502
510.0379, 423.6818
510.5200, 433.4734
511.0021, 435.5526
511.4843, 432.4744
511.9664, 427.2513
512.4485, 419.4755
512.9306, 412.8692
513.4127, 406.9360
513.8948, 403.5424
514.3770, 407.0998
514.8591, 416.3876
515.3412, 422.4166
515.8233, 417.9691
516.3054, 405.4534
516.7875, 400.4684
517.2697, 411.0729
517.7518, 419.4424
518.2339, 423.6319
518.7160, 425.0014
519.1981, 424.2407
519.6802, 421.8438
520.1624, 419.1779
520.6445, 417.7322
521.1266, 417.5320
521.6087, 417.4573
522.0908, 417.1749
522.5729, 417.5545
523.0551, 418.2937
523.5372, 420.0153
524.0193, 424.2348
524.5014, 432.6845
524.9835, 440.7585
525.4656, 442.7935
525.9478, 440.0112
526.4299, 438.7288
526.9120, 440.4512
527.3941, 444.3921
527.8762, 451.3008
528.3583, 461.5154
528.8405, 466.1472
529.3226, 460.2221
529.8047, 452.1563
530.2868, 445.9764
530.7689, 442.1976
531.2510, 441.0137
531.7332, 442.5246
532.2153, 446.6674
532.6974, 453.9386
533.1795, 470.3706
533.6616, 478.5934
534.1437, 472.3542
534.6259, 463.9298
535.1080, 460.4253
535.5901, 461.8292
536.0722, 464.8060
536.5543, 467.1773
537.0364, 469.2566
537.5186, 472.0531
538.0007, 475.7519
538.4828, 479.5439
538.9649, 483.8868
539.4470, 487.6557
539.9291, 489.7393
540.4113, 490.1049
540.8934, 488.5105
541.3755, 481.1956
541.8576, 473.2320
542.3397, 473.9005
542.8218, 484.0056
543.3040, 495.5797
543.7861, 503.2115
544.2682, 507.1306
544.7503, 509.0942
545.2324, 506.4828
545.7145, 505.4565
546.1967, 508.0917
546.6788, 512.4421
547.1609, 516.2256
547.6430, 519.0293
548.1251, 522.4781
548.6072, 529.5995
549.0894, 540.7506
549.5715, 544.1797
550.0536, 532.7493
550.5357, 523.8020
551.0178, 525.1068
551.4999, 531.8870
551.9821, 537.7574
552.4642, 540.8251
552.9463, 543.0007
553.4284, 545.5454
553.9105, 548.5911
554.3926, 552.8154
554.8748, 558.5614
555.3569, 564.7356
555.8390, 570.8647
556.3211, 576.8209
556.8032, 580.2943
557.2853, 579.1741
557.7675, 577.7440
558.2496, 577.1042
558.7317, 577.7218
559.2138, 581.1571
559.6959, 587.8262
560.1780, 594.6776
560.6602, 596.7397
561.1423, 592.5693
561.6244, 589.4153
562.1065, 587.4354
562.5886, 586.4330
563.0707, 587.8036
563.5529, 589.8672
564.0350, 589.6598
564.5171, 585.7371
564.9992, 579.5904
565.4813, 571.7529
565.9634, 562.5328
566.4456, 557.9107
566.9277, 561.8613
567.4098, 566.1050
567.8919, 559.5654
568.3740, 543.6459
568.8561, 531.9904
569.3383, 529.4672
569.8204, 529.0903
570.3025, 526.5215
570.7846, 522.4285
571.2667, 519.3497
571.7488, 518.4106
572.2310, 517.4327
572.7131, 512.2881
573.1952, 500.8252
573.6773, 490.9129
574.1594, 481.4130
574.6415, 474.4763
575.1237, 473.3251
575.6058, 475.2668
576.0879, 474.7444
576.5700, 468.7574
577.0521, 459.9070
577.5342, 450.8017
578.0164, 441.4377
578.4985, 436.9059
578.9806, 440.6920
579.4627, 446.2654
579.9448, 447.0411
580.4269, 443.4996
580.9091, 438.1932
581.3912, 428.1778
581.8733, 419.6454
582.3554, 418.9548
582.8375, 423.1253
583.3196, 423.8102
583.8018, 417.4146
584.2839, 408.4054
584.7660, 404.9376
585.2481, 410.1978
585.7302, 411.9276
586.2123, 407.4376
586.6945, 402.3270
587.1766, 398.0677
587.6587, 395.0320
588.1408, 393.4807
588.6229, 393.5504
589.1050, 395.0943
589.5872, 398.4102
590.0693, 403.4366
590.5514, 408.4095
591.0335, 414.2222
591.5156, 417.6363
591.9977, 413.4290
592.4799, 402.8137
592.9620, 394.8796
593.4441, 391.0454
593.9262, 390.0201
594.4083, 393.9547
594.8904, 399.6957
595.3726, 399.7724
595.8547, 391.6974
596.3368, 382.1809
596.8189, 381.6902
597.3010, 392.9614
597.7831, 400.0872
598.2653, 399.0360
598.7474, 397.8520
599.2295, 399.7423
599.7116, 402.8976
600.1937, 404.0354
600.6758, 401.6113
601.1580, 398.9399
601.6401, 400.5001
602.1222, 405.1725
602.6043, 406.7168
603.0864, 403.1767
603.5685, 400.3593
604.0507, 404.8844
604.5328, 415.3630
605.0149, 418.3944
605.4970, 406.1852
605.9791, 395.7504
606.4612, 393.5659
606.9434, 396.2378
607.4255, 400.2518
607.9076, 404.3818
608.3897, 407.8123
608.8718, 409.6253
609.3539, 409.8401
609.8361, 409.3653
610.3182, 408.1592
610.8003, 406.2882
611.2824, 402.3995
611.7645, 398.6270
612.2466, 397.6910
612.7288, 400.2406
613.2109, 402.9065
613.6930, 402.8223
614.1751, 401.5764
614.6572, 402.7739
615.1393, 406.6203
615.6215, 409.1872
616.1036, 407.8436
616.5857, 403.5379
617.0678, 399.6614
617.5499, 394.5443
618.0320, 392.2383
618.5142, 396.6915
618.9963, 401.1176
619.4784, 399.3954
619.9605, 392.4673
620.4426, 385.7643
620.9247, 383.1149
621.4069, 383.1607
621.8890, 382.1693
622.3711, 379.7947
622.8532, 378.4838
623.3353, 379.4675
623.8174, 381.1680
624.2996, 382.1855
624.7817, 382.5313
625.2638, 382.1203
625.7459, 380.8557
