##NAMES=Trilithionite
##RRUFFID=R040101
##IDEAL CHEMISTRY=KLi_1.5_Al_1.5_(Si_3_Al)O_10_F_2_
##LOCALITY=Zambezi Region, Mozambique
##OWNER=RRUFF
##SOURCE=University of Arizona Mineral Museum
##DESCRIPTION=Aggregate of purple hexagonal plates, polytype is 2M1
##STATUS=The identification of this mineral has been confirmed by X-ray diffraction and chemical analysis
##URL=rruff.info/R040101
##MEASURED CHEMISTRY=(K_0.84_Li_0.13_Na_0.02_)(Li_0.54_Al_0.44_Mn_0.02_)_3_(Si_0.82_Al_0.18_)_4_O_10_F_2.00_
143.2600, 10549.85
143.7421, 10539.11
144.2243, 10531.90
144.7064, 10543.23
145.1885, 10590.13
145.6706, 10623.25
146.1527, 10635.75
146.6348, 10633.76
147.1170, 10642.98
147.5991, 10675.47
148.0812, 10707.79
148.5633, 10725.88
149.0454, 10704.30
149.5275, 10698.12
150.0097, 10718.87
150.4918, 10766.66
150.9739, 10800.84
151.4560, 10806.16
151.9381, 10803.99
152.4202, 10811.66
152.9024, 10835.67
153.3845, 10863.13
153.8666, 10895.09
154.3487, 10934.69
154.8308, 10960.75
155.3129, 10956.32
155.7950, 10939.87
156.2772, 10936.76
156.7593, 10958.10
157.2414, 10988.98
157.7235, 11026.92
158.2056, 11081.32
158.6877, 11121.17
159.1699, 11124.51
159.6520, 11106.39
160.1341, 11103.00
160.6162, 11141.05
161.0983, 11189.41
161.5804, 11227.85
162.0626, 11239.71
162.5447, 11255.66
163.0268, 11292.77
163.5089, 11347.24
163.9910, 11397.48
164.4731, 11425.16
164.9553, 11446.93
165.4374, 11478.83
165.9195, 11540.98
166.4016, 11603.19
166.8837, 11642.44
167.3658, 11658.20
167.8480, 11679.70
168.3301, 11723.70
168.8122, 11784.72
169.2943, 11854.70
169.7764, 11946.63
170.2585, 12036.68
170.7407, 12098.32
171.2228, 12125.38
171.7049, 12150.88
172.1870, 12203.68
172.6691, 12275.96
173.1512, 12347.22
173.6334, 12410.25
174.1155, 12465.62
174.5976, 12514.05
175.0797, 12556.48
175.5618, 12589.98
176.0439, 12604.71
176.5260, 12604.87
177.0082, 12609.08
177.4903, 12638.45
177.9724, 12680.35
178.4545, 12707.69
178.9366, 12709.76
179.4187, 12702.53
179.9009, 12712.20
180.3830, 12737.86
180.8651, 12759.91
181.3472, 12757.63
181.8293, 12738.29
182.3114, 12723.93
182.7936, 12719.45
183.2757, 12724.72
183.7578, 12742.71
184.2399, 12773.87
184.7220, 12806.79
185.2041, 12827.29
185.6863, 12837.19
186.1684, 12847.61
186.6505, 12853.85
187.1326, 12862.06
187.6147, 12900.04
188.0968, 12971.80
188.5790, 13056.46
189.0611, 13125.52
189.5432, 13179.43
190.0253, 13239.62
190.5074, 13320.79
190.9895, 13419.23
191.4717, 13515.24
191.9538, 13608.70
192.4359, 13701.42
192.9180, 13795.64
193.4001, 13892.50
193.8822, 13994.46
194.3644, 14115.15
194.8465, 14253.25
195.3286, 14354.85
195.8107, 14407.05
196.2928, 14427.91
196.7749, 14468.17
197.2570, 14533.22
197.7392, 14585.37
198.2213, 14591.87
198.7034, 14549.85
199.1855, 14502.05
199.6676, 14454.11
200.1497, 14404.51
200.6319, 14346.70
201.1140, 14278.92
201.5961, 14207.97
202.0782, 14136.08
202.5603, 14060.10
203.0424, 14003.62
203.5246, 13977.13
204.0067, 13977.18
204.4888, 13969.85
204.9709, 13951.34
205.4530, 13933.35
205.9352, 13929.55
206.4173, 13942.56
206.8994, 13959.35
207.3815, 13973.54
207.8636, 13984.90
208.3457, 14014.94
208.8279, 14068.48
209.3100, 14134.29
209.7921, 14197.90
210.2742, 14259.53
210.7563, 14319.37
211.2384, 14379.08
211.7206, 14441.95
212.2027, 14487.84
212.6848, 14518.06
213.1669, 14530.12
213.6490, 14521.25
214.1311, 14495.08
214.6133, 14439.55
215.0954, 14339.78
215.5775, 14177.36
216.0596, 14045.27
216.5417, 13961.86
217.0238, 13899.67
217.5059, 13787.57
217.9881, 13604.70
218.4702, 13410.25
218.9523, 13226.62
219.4344, 13050.14
219.9165, 12900.78
220.3986, 12785.90
220.8808, 12697.56
221.3629, 12602.37
221.8450, 12488.71
222.3271, 12386.22
222.8092, 12314.93
223.2913, 12295.80
223.7735, 12257.18
224.2556, 12182.77
224.7377, 12081.52
225.2198, 12009.58
225.7019, 11976.06
226.1840, 11958.08
226.6662, 11940.45
227.1483, 11922.91
227.6304, 11904.94
228.1125, 11882.51
228.5946, 11857.22
229.0767, 11847.99
229.5589, 11863.18
230.0410, 11884.90
230.5231, 11900.12
231.0052, 11909.29
231.4873, 11910.86
231.9694, 11900.26
232.4516, 11877.81
232.9337, 11872.35
233.4158, 11896.34
233.8979, 11925.40
234.3800, 11933.20
234.8621, 11899.24
235.3443, 11882.83
235.8264, 11899.83
236.3085, 11952.92
236.7906, 11998.51
237.2727, 12029.71
237.7548, 12059.37
238.2369, 12102.58
238.7191, 12166.95
239.2012, 12231.09
239.6833, 12286.68
240.1654, 12330.81
240.6475, 12391.53
241.1296, 12476.53
241.6118, 12571.91
242.0939, 12659.07
242.5760, 12728.77
243.0581, 12806.02
243.5402, 12898.69
244.0223, 13008.15
244.5045, 13120.35
244.9866, 13231.51
245.4687, 13348.32
245.9508, 13480.71
246.4329, 13631.65
246.9150, 13793.26
247.3972, 13959.60
247.8793, 14120.90
248.3614, 14322.61
248.8435, 14570.48
249.3256, 14856.83
249.8077, 15165.15
250.2899, 15499.45
250.7720, 15851.84
251.2541, 16217.68
251.7362, 16585.29
252.2183, 16999.08
252.7004, 17468.72
253.1826, 17974.58
253.6647, 18473.60
254.1468, 18948.90
254.6289, 19447.68
255.1110, 19996.40
255.5931, 20619.46
256.0753, 21223.86
256.5574, 21811.66
257.0395, 22389.41
257.5216, 22966.67
258.0037, 23565.61
258.4858, 24130.77
258.9680, 24630.05
259.4501, 25051.58
259.9322, 25464.71
260.4143, 25890.54
260.8964, 26297.48
261.3785, 26610.74
261.8607, 26842.78
262.3428, 26963.61
262.8249, 26961.63
263.3070, 26834.72
263.7891, 26590.19
264.2712, 26216.57
264.7534, 25737.20
265.2355, 25213.29
265.7176, 24631.56
266.1997, 24026.64
266.6818, 23404.07
267.1639, 22763.16
267.6461, 22115.22
268.1282, 21448.49
268.6103, 20784.75
269.0924, 20160.70
269.5745, 19575.28
270.0566, 19043.56
270.5387, 18576.94
271.0208, 18188.98
271.5030, 17801.98
271.9851, 17401.20
272.4672, 17008.50
272.9493, 16683.04
273.4314, 16438.26
273.9135, 16215.27
274.3957, 15984.61
274.8778, 15743.70
275.3599, 15518.82
275.8420, 15311.69
276.3241, 15121.78
276.8062, 14947.63
277.2884, 14789.39
277.7705, 14647.42
278.2526, 14527.58
278.7347, 14431.28
279.2168, 14324.52
279.6989, 14193.26
280.1811, 14062.67
280.6632, 13994.63
281.1453, 13997.41
281.6274, 13998.99
282.1095, 13951.51
282.5916, 13855.98
283.0738, 13773.04
283.5559, 13708.13
284.0380, 13655.50
284.5201, 13606.99
285.0022, 13562.49
285.4843, 13517.76
285.9665, 13466.40
286.4486, 13410.34
286.9307, 13368.57
287.4128, 13346.02
287.8949, 13333.12
288.3770, 13315.67
288.8592, 13293.92
289.3413, 13268.39
289.8234, 13232.79
290.3055, 13191.72
290.7876, 13169.59
291.2697, 13171.61
291.7519, 13185.25
292.2340, 13195.68
292.7161, 13202.32
293.1982, 13199.58
293.6803, 13173.58
294.1624, 13134.56
294.6446, 13118.13
295.1267, 13131.83
295.6088, 13152.06
296.0909, 13138.97
296.5730, 13099.80
297.0551, 13072.26
297.5373, 13085.70
298.0194, 13124.18
298.5015, 13161.58
298.9836, 13199.30
299.4657, 13219.51
299.9478, 13182.20
300.4300, 13104.87
300.9121, 13044.27
301.3942, 13042.17
301.8763, 13072.36
302.3584, 13101.04
302.8405, 13128.04
303.3227, 13142.68
303.8048, 13124.44
304.2869, 13085.31
304.7690, 13053.50
305.2511, 13044.82
305.7332, 13050.30
306.2154, 13065.09
306.6975, 13090.77
307.1796, 13109.81
307.6617, 13096.76
308.1438, 13067.63
308.6259, 13051.27
309.1081, 13079.91
309.5901, 13114.60
310.0723, 13120.13
310.5544, 13091.32
311.0365, 13062.54
311.5186, 13059.64
312.0007, 13069.32
312.4828, 13071.72
312.9650, 13040.49
313.4471, 13013.89
313.9292, 13026.84
314.4113, 13084.22
314.8934, 13121.40
315.3755, 13080.21
315.8577, 13010.58
316.3398, 12971.68
316.8219, 13010.00
317.3040, 13058.33
317.7861, 13091.82
318.2682, 13109.19
318.7504, 13116.23
319.2325, 13093.00
319.7146, 13069.54
320.1967, 13074.22
320.6788, 13156.77
321.1609, 13225.33
321.6431, 13245.68
322.1252, 13218.71
322.6073, 13199.64
323.0894, 13207.50
323.5715, 13222.58
324.0536, 13230.32
324.5358, 13220.16
325.0179, 13211.49
325.5000, 13207.70
325.9821, 13208.38
326.4642, 13208.62
326.9464, 13214.78
327.4285, 13215.87
327.9106, 13205.18
328.3927, 13163.01
328.8748, 13134.87
329.3569, 13133.42
329.8391, 13151.39
330.3212, 13151.26
330.8033, 13121.72
331.2854, 13086.29
331.7675, 13057.04
332.2496, 13035.32
332.7318, 13018.05
333.2139, 13007.53
333.6960, 13001.48
334.1781, 12991.41
334.6602, 12972.67
335.1423, 12957.91
335.6245, 12954.11
336.1066, 12965.89
336.5887, 12973.02
337.0708, 12972.22
337.5529, 12968.63
338.0350, 12975.13
338.5172, 12995.73
338.9993, 13012.60
339.4814, 13013.47
339.9635, 12994.96
340.4456, 12995.56
340.9277, 13020.72
341.4099, 13054.79
341.8920, 13071.75
342.3741, 13069.54
342.8562, 13070.70
343.3383, 13087.00
343.8204, 13115.79
344.3026, 13096.79
344.7847, 13161.99
345.2668, 13204.46
345.7489, 13225.42
346.2310, 13160.46
346.7131, 13206.45
347.1953, 13207.98
347.6774, 13207.69
348.1595, 13269.30
348.6416, 13216.83
349.1237, 13277.46
349.6058, 13292.95
350.0880, 13329.09
350.5700, 13320.50
351.0522, 13325.72
351.5343, 13375.70
352.0164, 13400.90
352.4985, 13394.45
352.9806, 13439.03
353.4627, 13458.87
353.9449, 13468.44
354.4270, 13490.41
354.9091, 13535.32
355.3912, 13586.40
355.8733, 13628.16
356.3554, 13662.10
356.8376, 13696.60
357.3197, 13740.62
357.8018, 13784.40
358.2839, 13816.90
358.7660, 13828.72
359.2481, 13844.97
359.7303, 13886.15
360.2124, 13941.72
360.6945, 13990.06
361.1766, 14014.42
361.6587, 14035.46
362.1408, 14065.60
362.6230, 14110.05
363.1051, 14153.88
363.5872, 14189.17
364.0693, 14222.96
364.5514, 14264.71
365.0335, 14317.78
365.5157, 14378.51
365.9978, 14447.99
366.4799, 14528.17
366.9620, 14605.19
367.4441, 14667.54
367.9262, 14729.19
368.4084, 14803.27
368.8905, 14912.21
369.3726, 15006.24
369.8547, 15070.15
370.3368, 15104.12
370.8189, 15149.52
371.3011, 15205.73
371.7832, 15273.48
372.2653, 15357.93
372.7474, 15474.57
373.2295, 15572.69
373.7116, 15643.50
374.1938, 15691.99
374.6759, 15736.84
375.1580, 15777.94
375.6401, 15816.85
376.1222, 15855.73
376.6043, 15895.16
377.0865, 15929.92
377.5686, 15959.37
378.0507, 15984.75
378.5328, 16007.95
379.0149, 16029.29
379.4970, 16046.60
379.9792, 16046.52
380.4613, 16034.45
380.9434, 16066.40
381.4255, 16151.05
381.9076, 16251.61
382.3897, 16320.76
382.8719, 16362.64
383.3540, 16399.62
383.8361, 16434.97
384.3182, 16473.27
384.8003, 16528.27
385.2824, 16600.16
385.7646, 16672.69
386.2467, 16730.02
386.7288, 16778.35
387.2109, 16830.87
387.6930, 16899.59
388.1751, 16967.72
388.6573, 17011.09
389.1394, 17035.83
389.6215, 17074.50
390.1036, 17156.55
390.5857, 17257.74
391.0678, 17357.92
391.5499, 17458.65
392.0320, 17545.69
392.5142, 17592.58
392.9963, 17618.47
393.4784, 17669.19
393.9605, 17787.66
394.4426, 17915.85
394.9247, 18021.17
395.4069, 18090.72
395.8890, 18166.19
396.3711, 18260.78
396.8532, 18365.02
397.3353, 18465.41
397.8174, 18557.45
398.2996, 18648.27
398.7817, 18742.47
399.2638, 18842.90
399.7459, 18925.06
400.2280, 18977.59
400.7101, 19019.56
401.1923, 19068.87
401.6744, 19137.77
402.1565, 19190.67
402.6386, 19222.79
403.1207, 19235.12
403.6028, 19231.79
404.0850, 19207.97
404.5671, 19178.13
405.0492, 19152.20
405.5313, 19132.30
406.0134, 19104.46
406.4955, 19069.42
406.9777, 19024.37
407.4598, 18961.11
407.9419, 18878.20
408.4240, 18790.01
408.9061, 18701.57
409.3882, 18612.92
409.8704, 18531.38
410.3525, 18459.81
410.8346, 18379.22
411.3167, 18253.20
411.7988, 18092.63
412.2809, 17950.20
412.7631, 17856.63
413.2452, 17782.28
413.7273, 17676.91
414.2094, 17542.93
414.6915, 17417.99
415.1736, 17349.01
415.6558, 17301.81
416.1379, 17230.84
416.6200, 17114.67
417.1021, 16985.96
417.5842, 16855.57
418.0663, 16727.65
418.5485, 16616.83
419.0306, 16536.23
419.5127, 16469.48
419.9948, 16405.08
420.4769, 16341.69
420.9590, 16283.81
421.4412, 16243.68
421.9233, 16206.84
422.4054, 16152.22
422.8875, 16056.12
423.3696, 15961.35
423.8517, 15875.13
424.3339, 15797.59
424.8160, 15743.46
425.2981, 15744.50
425.7802, 15746.40
426.2623, 15704.80
426.7444, 15579.98
427.2266, 15485.73
427.7087, 15443.51
428.1908, 15440.19
428.6729, 15419.72
429.1550, 15378.68
429.6371, 15329.40
430.1193, 15275.94
430.6014, 15216.92
431.0835, 15166.30
431.5656, 15124.69
432.0477, 15090.83
432.5298, 15065.42
433.0119, 15048.17
433.4940, 15029.21
433.9762, 15005.83
434.4583, 14977.18
434.9404, 14938.78
435.4225, 14889.99
435.9046, 14839.62
436.3867, 14797.88
436.8689, 14760.95
437.3510, 14719.70
437.8331, 14666.21
438.3152, 14614.97
438.7973, 14589.94
439.2794, 14583.39
439.7616, 14564.57
440.2437, 14493.01
440.7258, 14415.00
441.2079, 14373.67
441.6900, 14385.16
442.1721, 14400.26
442.6543, 14402.27
443.1364, 14392.29
443.6185, 14371.86
444.1006, 14332.70
444.5827, 14291.92
445.0648, 14255.66
445.5470, 14224.64
446.0291, 14191.53
446.5112, 14137.38
446.9933, 14092.61
447.4754, 14079.61
447.9576, 14135.58
448.4397, 14166.17
448.9218, 14156.67
449.4039, 14118.04
449.8860, 14086.14
450.3681, 14064.37
450.8503, 14042.36
451.3324, 14009.70
451.8145, 13960.91
452.2966, 13947.03
452.7787, 13979.04
453.2608, 14022.55
453.7430, 14029.42
454.2251, 13999.91
454.7072, 13967.56
455.1893, 13938.84
455.6714, 13917.02
456.1535, 13914.11
456.6357, 13929.98
457.1178, 13948.78
457.5999, 13957.28
458.0820, 13959.86
458.5641, 13963.15
459.0462, 13965.13
459.5284, 13976.28
460.0105, 14023.17
460.4926, 14088.18
460.9747, 14127.45
461.4568, 14089.27
461.9389, 14038.66
462.4211, 14022.06
462.9032, 14044.71
463.3853, 14074.87
463.8674, 14105.45
464.3495, 14134.05
464.8316, 14158.46
465.3138, 14172.30
465.7959, 14188.30
466.2780, 14216.83
466.7601, 14253.20
467.2422, 14268.03
467.7243, 14237.01
468.2065, 14209.28
468.6886, 14208.71
469.1707, 14253.79
469.6528, 14273.88
470.1349, 14258.68
470.6170, 14228.54
471.0992, 14212.06
471.5813, 14210.02
472.0634, 14220.98
472.5455, 14253.94
473.0276, 14299.73
473.5097, 14303.07
473.9918, 14258.81
474.4739, 14211.57
474.9561, 14202.41
475.4382, 14223.03
475.9203, 14236.59
476.4024, 14234.51
476.8845, 14230.62
477.3666, 14246.75
477.8488, 14277.05
478.3309, 14302.57
478.8130, 14310.24
479.2951, 14310.06
479.7772, 14310.66
480.2593, 14312.49
480.7415, 14316.50
481.2236, 14323.03
481.7057, 14332.03
482.1878, 14343.51
482.6699, 14367.24
483.1520, 14382.34
483.6342, 14375.15
484.1163, 14353.09
484.5984, 14341.17
485.0805, 14359.06
485.5626, 14373.05
486.0447, 14367.04
486.5269, 14328.47
487.0090, 14313.92
487.4911, 14342.29
487.9732, 14378.72
488.4553, 14380.84
488.9374, 14336.50
489.4196, 14296.92
489.9017, 14272.20
490.3838, 14260.31
490.8659, 14251.93
491.3480, 14247.10
491.8301, 14246.67
492.3123, 14257.86
492.7944, 14275.88
493.2765, 14272.90
493.7586, 14242.53
494.2407, 14208.70
494.7228, 14213.25
495.2050, 14239.16
495.6871, 14240.47
496.1692, 14170.11
496.6513, 14085.56
497.1334, 14041.02
497.6155, 14033.63
498.0977, 14037.86
498.5798, 14050.09
499.0619, 14062.22
499.5440, 14068.19
500.0261, 14069.07
500.5082, 14059.68
500.9904, 14028.07
501.4725, 13987.27
501.9546, 13958.37
502.4367, 13946.45
502.9188, 13944.66
503.4009, 13954.01
503.8831, 13974.53
504.3652, 13991.32
504.8473, 14005.04
505.3294, 14013.04
505.8115, 14010.49
506.2936, 13992.55
506.7758, 13985.13
507.2579, 13992.78
507.7400, 14008.19
508.2221, 14021.50
508.7042, 14032.95
509.1863, 14032.24
509.6685, 14002.32
510.1506, 13959.70
510.6327, 13958.19
511.1148, 13998.10
511.5969, 14035.47
512.0790, 14027.58
512.5612, 13994.89
513.0433, 13968.63
513.5254, 13954.34
514.0075, 13951.82
514.4896, 13958.65
514.9717, 13976.96
515.4539, 14011.38
515.9360, 14103.25
516.4181, 14176.65
516.9002, 14181.13
517.3823, 14106.23
517.8644, 14057.67
518.3466, 14068.92
518.8287, 14101.76
519.3108, 14129.51
519.7929, 14155.54
520.2750, 14170.01
520.7571, 14168.17
521.2393, 14156.49
521.7214, 14150.01
522.2035, 14151.04
522.6856, 14150.87
523.1677, 14146.18
523.6498, 14137.59
524.1320, 14127.34
524.6141, 14114.49
525.0962, 14106.67
525.5783, 14111.66
526.0604, 14127.55
526.5425, 14150.72
527.0247, 14185.52
527.5068, 14214.07
527.9889, 14206.42
528.4710, 14174.75
528.9531, 14151.24
529.4352, 14156.46
529.9174, 14172.72
530.3995, 14190.47
530.8816, 14208.84
531.3637, 14223.51
531.8458, 14233.97
532.3279, 14239.35
532.8101, 14238.39
533.2922, 14217.20
533.7743, 14208.94
534.2564, 14225.20
534.7385, 14253.61
535.2206, 14272.80
535.7027, 14278.07
536.1848, 14280.97
536.6669, 14280.69
537.1490, 14278.17
537.6312, 14296.91
538.1133, 14342.26
538.5954, 14390.42
539.0775, 14425.81
539.5596, 14448.34
540.0417, 14453.84
540.5239, 14437.73
541.0060, 14417.64
541.4881, 14420.67
541.9702, 14440.47
542.4523, 14456.72
542.9344, 14453.80
543.4166, 14447.90
543.8987, 14456.89
544.3808, 14478.99
544.8629, 14499.37
545.3450, 14505.85
545.8271, 14510.64
546.3093, 14524.40
546.7914, 14555.87
547.2735, 14578.64
547.7556, 14576.15
548.2377, 14565.43
548.7198, 14570.03
549.2020, 14600.36
549.6841, 14631.67
550.1662, 14662.06
550.6483, 14690.18
551.1304, 14709.67
551.6125, 14717.87
552.0947, 14723.58
552.5768, 14727.99
553.0589, 14731.14
553.5410, 14750.00
554.0231, 14787.49
554.5052, 14827.86
554.9874, 14855.29
555.4695, 14870.50
555.9516, 14874.54
556.4337, 14862.99
556.9158, 14847.11
557.3979, 14843.63
557.8801, 14847.12
558.3622, 14840.00
558.8443, 14799.13
559.3264, 14756.13
559.8085, 14733.79
560.2906, 14736.03
560.7728, 14739.03
561.2549, 14735.16
561.7370, 14730.86
562.2191, 14731.60
562.7012, 14743.90
563.1833, 14752.42
563.6655, 14759.90
564.1476, 14761.85
564.6297, 14744.93
565.1118, 14701.08
565.5939, 14664.28
566.0760, 14645.34
566.5582, 14643.12
567.0403, 14655.58
567.5224, 14684.20
568.0045, 14706.07
568.4866, 14690.70
568.9688, 14654.78
569.4509, 14647.62
569.9330, 14683.97
570.4151, 14715.41
570.8972, 14672.30
571.3793, 14596.58
571.8615, 14560.33
572.3436, 14636.56
572.8257, 14715.76
573.3078, 14738.54
573.7899, 14715.88
574.2720, 14702.64
574.7542, 14719.60
575.2363, 14741.10
575.7184, 14760.50
576.2005, 14784.64
576.6826, 14774.10
577.1647, 14702.15
577.6469, 14626.50
578.1290, 14614.55
578.6111, 14681.40
579.0932, 14717.60
579.5753, 14699.25
580.0574, 14654.68
580.5396, 14640.56
581.0217, 14654.73
581.5038, 14673.27
581.9859, 14687.19
582.4680, 14696.89
582.9501, 14701.01
583.4323, 14699.96
583.9144, 14699.64
584.3965, 14706.14
584.8786, 14713.82
585.3607, 14718.88
585.8428, 14723.34
586.3250, 14716.97
586.8071, 14686.13
587.2892, 14646.24
587.7713, 14617.13
588.2534, 14598.80
588.7355, 14595.89
589.2177, 14617.73
589.6998, 14656.35
590.1819, 14677.71
590.6640, 14675.51
591.1461, 14673.48
591.6282, 14681.82
592.1104, 14700.11
592.5925, 14725.04
593.0746, 14757.51
593.5567, 14787.88
594.0388, 14803.11
594.5209, 14808.33
595.0031, 14818.44
595.4852, 14838.96
595.9673, 14856.69
596.4494, 14855.27
596.9315, 14842.63
597.4136, 14834.16
597.8958, 14835.78
598.3779, 14843.59
598.8600, 14861.06
599.3421, 14886.50
599.8242, 14903.92
600.3063, 14907.46
600.7885, 14906.33
601.2706, 14901.37
601.7527, 14887.77
602.2348, 14895.36
602.7169, 14932.66
603.1990, 14976.90
603.6812, 15001.10
604.1633, 15003.60
604.6454, 15017.41
605.1275, 15049.07
605.6096, 15090.41
606.0917, 15131.58
606.5739, 15171.50
607.0560, 15208.51
607.5381, 15245.57
608.0202, 15276.13
608.5023, 15288.70
608.9844, 15285.91
609.4666, 15285.13
609.9487, 15300.61
610.4308, 15317.69
610.9129, 15324.57
611.3950, 15313.04
611.8771, 15316.32
612.3593, 15356.77
612.8414, 15403.84
613.3235, 15429.89
613.8056, 15426.65
614.2877, 15422.50
614.7698, 15413.91
615.2520, 15411.43
615.7341, 15445.84
616.2162, 15518.57
616.6983, 15587.31
617.1804, 15629.10
617.6625, 15656.76
618.1446, 15700.00
618.6267, 15757.26
619.1088, 15819.13
619.5909, 15887.13
620.0731, 15951.43
620.5552, 15999.39
621.0373, 16028.09
621.5194, 16052.72
622.0015, 16078.81
622.4836, 16105.59
622.9658, 16132.41
623.4479, 16152.21
623.9300, 16182.74
624.4121, 16234.05
624.8942, 16293.60
625.3763, 16335.13
625.8585, 16351.79
626.3406, 16370.26
626.8227, 16396.39
627.3048, 16430.67
627.7869, 16480.25
628.2690, 16545.56
628.7512, 16607.62
629.2333, 16660.14
629.7154, 16699.24
630.1975, 16714.36
630.6796, 16703.89
631.1617, 16685.27
631.6439, 16662.17
632.1260, 16642.20
632.6081, 16634.84
633.0902, 16651.95
633.5723, 16666.70
634.0544, 16688.17
634.5366, 16699.30
635.0187, 16668.60
635.5008, 16567.88
635.9829, 16465.50
636.4650, 16368.50
636.9471, 16280.38
637.4293, 16227.15
