##NAMES=Trilithionite
##RRUFFID=R050486
##IDEAL CHEMISTRY=KLi_1.5_Al_1.5_(Si_3_Al)O_10_F_2_
##LOCALITY=Cotopaxie, Colorado, USA
##OWNER=RRUFF
##SOURCE=California Institute of Technology
##DESCRIPTION=Microcrystalline massive, no visible indication of foliation, polytype 1M
##STATUS=The identification of this mineral has been confirmed by X-ray diffraction and chemical analysis
##URL=rruff.info/R050486
##MEASURED CHEMISTRY=(K_0.98_Ca_0.02_)(Li_0.53_Al_0.47_)_3_(Si_0.79_Al_0.21_)_4_O_10_(OH)_2_
93.30109, 0.0000000E+00
93.78320, 112.3090
94.26532, 111.4860
94.74744, 111.8252
95.22955, 113.0561
95.71167, 114.9888
96.19379, 116.7838
96.67590, 118.7731
97.15802, 120.4163
97.64014, 121.5122
98.12225, 122.2426
98.60437, 122.9553
99.08649, 123.8377
99.56860, 124.7298
100.0507, 125.4696
100.5328, 125.9590
101.0150, 125.9972
101.4971, 125.4058
101.9792, 124.1887
102.4613, 122.7242
102.9434, 120.9090
103.4255, 118.9784
103.9077, 117.0807
104.3898, 115.2502
104.8719, 113.4684
105.3540, 111.7130
105.8361, 110.0324
106.3182, 108.2452
106.8004, 106.1555
107.2825, 103.9791
107.7646, 101.9279
108.2467, 100.1119
108.7288, 98.53233
109.2109, 97.30220
109.6931, 96.77630
110.1752, 96.22117
110.6573, 95.38506
111.1394, 94.33689
111.6215, 93.29884
112.1036, 92.46432
112.5858, 91.85499
113.0679, 91.35278
113.5500, 90.98177
114.0321, 90.68766
114.5142, 90.46841
114.9964, 90.32264
115.4785, 90.16286
115.9606, 89.86594
116.4427, 89.44057
116.9248, 89.02377
117.4069, 88.57275
117.8891, 88.15627
118.3712, 87.94530
118.8533, 88.07408
119.3354, 88.26270
119.8175, 88.25280
120.2996, 88.05782
120.7818, 87.79068
121.2639, 87.45414
121.7460, 87.03787
122.2281, 86.83303
122.7102, 87.27661
123.1923, 87.69214
123.6745, 87.68121
124.1566, 87.18608
124.6387, 86.47569
125.1208, 85.92252
125.6029, 85.58086
126.0850, 85.29913
126.5672, 84.99567
127.0493, 84.76467
127.5314, 84.71785
128.0135, 84.89440
128.4956, 85.20460
128.9777, 85.39969
129.4599, 85.49508
129.9420, 85.43739
130.4241, 85.13340
130.9062, 84.68701
131.3883, 84.21754
131.8704, 83.76708
132.3526, 83.37404
132.8347, 83.24763
133.3168, 83.61104
133.7989, 83.95425
134.2810, 84.05564
134.7632, 83.94273
135.2453, 83.76680
135.7274, 83.58508
136.2095, 83.42366
136.6916, 83.34864
137.1737, 83.46832
137.6559, 83.61214
138.1380, 83.58006
138.6201, 83.33582
139.1022, 83.08509
139.5843, 82.95034
140.0664, 82.89503
140.5486, 82.88551
141.0307, 82.92788
141.5128, 83.00341
141.9949, 83.05612
142.4770, 83.07674
142.9591, 83.08617
143.4413, 83.07907
143.9234, 83.06899
144.4055, 83.08241
144.8876, 83.14906
145.3697, 83.26949
145.8518, 83.34673
146.3340, 83.30866
146.8161, 83.28878
147.2982, 83.34081
147.7803, 83.45164
148.2624, 83.57232
148.7445, 83.65433
149.2267, 83.68550
149.7088, 83.72368
150.1909, 83.84689
150.6730, 83.91687
151.1551, 83.77438
151.6372, 83.43595
152.1194, 83.13557
152.6015, 83.19579
153.0836, 83.87783
153.5657, 84.18430
154.0478, 83.79133
154.5299, 83.17793
155.0121, 82.81441
155.4942, 82.82336
155.9763, 83.03765
156.4584, 83.27045
156.9405, 83.54250
157.4226, 83.70106
157.9048, 83.60278
158.3869, 83.36549
158.8690, 83.26871
159.3511, 83.46500
159.8332, 83.69203
160.3153, 83.55045
160.7975, 83.02260
161.2796, 82.63207
161.7617, 82.83837
162.2438, 83.58733
162.7259, 84.14693
163.2081, 84.25160
163.6902, 84.17098
164.1723, 84.08403
164.6544, 84.00898
165.1365, 83.94174
165.6186, 83.87667
166.1008, 83.81300
166.5829, 83.75818
167.0650, 83.60873
167.5471, 83.53504
168.0292, 83.73085
168.5113, 84.22476
168.9935, 84.77657
169.4756, 84.96516
169.9577, 84.56071
170.4398, 84.21309
170.9219, 83.95580
171.4040, 83.77486
171.8862, 83.68119
172.3683, 83.67441
172.8504, 83.71064
173.3325, 83.68338
173.8146, 83.41948
174.2967, 83.30534
174.7789, 83.43300
175.2610, 83.68763
175.7431, 83.92794
176.2252, 84.08970
176.7073, 84.21706
177.1894, 84.46032
177.6716, 84.92424
178.1537, 85.36174
178.6358, 85.79281
179.1179, 86.16502
179.6000, 86.33268
180.0821, 86.15515
180.5643, 85.81763
181.0464, 85.89608
181.5285, 86.57555
182.0106, 87.31536
182.4927, 87.93439
182.9748, 88.42518
183.4570, 88.74189
183.9391, 88.81355
184.4212, 88.70913
184.9033, 88.58571
185.3854, 88.34985
185.8675, 88.25229
186.3497, 88.60216
186.8318, 89.41460
187.3139, 90.14001
187.7960, 90.41460
188.2781, 90.52178
188.7602, 90.76594
189.2424, 91.22721
189.7245, 91.79166
190.2066, 92.33082
190.6887, 92.85218
191.1708, 93.32030
191.6530, 93.64647
192.1351, 93.95021
192.6172, 94.37076
193.0993, 94.97972
193.5814, 95.62910
194.0635, 95.95419
194.5457, 95.63654
195.0278, 95.64632
195.5099, 96.55328
195.9920, 97.67239
196.4741, 98.28512
196.9562, 98.05415
197.4384, 97.28399
197.9205, 96.86380
198.4026, 97.18717
198.8847, 97.34010
199.3668, 97.14302
199.8489, 96.74725
200.3311, 96.31873
200.8132, 95.94085
201.2953, 95.59340
201.7774, 95.20071
202.2595, 94.71284
202.7416, 94.23046
203.2238, 93.72168
203.7059, 93.23106
204.1880, 92.81279
204.6701, 92.49843
205.1522, 92.27605
205.6343, 92.10008
206.1165, 91.93902
206.5986, 91.84993
207.0807, 91.99319
207.5628, 92.20984
208.0449, 92.16090
208.5270, 91.62189
209.0092, 90.75706
209.4913, 90.25837
209.9734, 90.33829
210.4555, 90.44064
210.9376, 90.36357
211.4197, 90.15546
211.9019, 89.95329
212.3840, 89.83961
212.8661, 89.76414
213.3482, 89.57559
213.8303, 89.15309
214.3124, 88.81543
214.7946, 88.87871
215.2767, 89.24887
215.7588, 89.39587
216.2409, 88.99490
216.7230, 88.28066
217.2052, 87.69105
217.6873, 87.20075
218.1694, 86.90977
218.6515, 87.04713
219.1336, 87.59023
219.6157, 87.91621
220.0979, 87.68021
220.5800, 87.16172
221.0621, 86.65285
221.5442, 86.17506
222.0263, 85.74300
222.5084, 85.40199
222.9906, 85.16369
223.4727, 84.86933
223.9548, 84.35752
224.4369, 83.84023
224.9190, 83.49924
225.4011, 83.37215
225.8833, 83.30833
226.3654, 83.11263
226.8475, 82.74752
227.3296, 82.43462
227.8117, 82.26003
228.2938, 82.12705
228.7760, 81.99746
229.2581, 81.85886
229.7402, 81.69396
230.2223, 81.47784
230.7044, 81.20126
231.1865, 80.89822
231.6687, 80.44140
232.1508, 80.05178
232.6329, 79.92269
233.1150, 80.06693
233.5971, 80.29319
234.0792, 80.28149
234.5614, 79.78154
235.0435, 79.68569
235.5256, 80.43276
236.0077, 81.22220
236.4898, 81.46700
236.9719, 81.11440
237.4541, 80.61401
237.9362, 80.60196
238.4183, 81.36784
238.9004, 81.92872
239.3825, 82.14338
239.8646, 82.29527
240.3468, 82.55874
240.8289, 82.95947
241.3110, 83.40720
241.7931, 83.78815
242.2752, 84.03769
242.7573, 84.41223
243.2395, 84.88745
243.7216, 85.48100
244.2037, 86.28409
244.6858, 87.26588
245.1679, 88.23144
245.6501, 88.94909
246.1322, 89.32413
246.6143, 89.82358
247.0964, 90.56321
247.5785, 91.32837
248.0606, 91.91888
248.5428, 92.34573
249.0249, 92.84798
249.5070, 93.68673
249.9891, 94.94168
250.4712, 95.98862
250.9533, 96.71912
251.4355, 97.34426
251.9176, 97.92757
252.3997, 98.50401
252.8818, 99.22830
253.3639, 100.2745
253.8460, 101.6527
254.3282, 102.8406
254.8103, 103.6503
255.2924, 104.4239
255.7745, 105.4108
256.2566, 106.6012
256.7387, 107.7921
257.2209, 108.8269
257.7030, 109.7306
258.1851, 110.7217
258.6672, 111.8699
259.1493, 113.0437
259.6314, 114.1660
260.1136, 115.2366
260.5957, 116.2779
261.0778, 117.3641
261.5599, 118.3968
262.0420, 119.1825
262.5241, 119.7502
263.0063, 120.0337
263.4884, 119.8924
263.9705, 119.3652
264.4526, 118.8024
264.9347, 118.4313
265.4168, 118.0676
265.8990, 117.4390
266.3811, 116.5618
266.8632, 115.3658
267.3453, 113.5672
267.8274, 111.2714
268.3095, 109.3302
268.7917, 108.3658
269.2738, 107.6253
269.7559, 106.0496
270.2380, 103.4744
270.7201, 100.8801
271.2022, 98.99966
271.6844, 97.73804
272.1665, 96.39484
272.6486, 94.65134
273.1307, 92.94912
273.6128, 91.73683
274.0949, 91.00387
274.5771, 90.34666
275.0592, 89.46623
275.5413, 88.41196
276.0234, 87.49098
276.5055, 86.79533
276.9876, 86.18507
277.4698, 85.51535
277.9519, 84.81025
278.4340, 84.18536
278.9161, 83.74245
279.3982, 83.44590
279.8803, 83.12825
280.3625, 82.77504
280.8446, 82.40897
281.3267, 82.03291
281.8088, 81.65660
282.2909, 81.30286
282.7730, 81.02318
283.2552, 80.77487
283.7373, 80.38438
284.2194, 79.72169
284.7015, 79.16654
285.1836, 78.99306
285.6658, 79.00489
286.1479, 78.89041
286.6300, 78.44395
287.1121, 77.85061
287.5942, 77.58409
288.0764, 77.84272
288.5585, 77.95719
289.0406, 77.51985
289.5227, 76.89168
290.0048, 76.45376
290.4869, 76.35123
290.9691, 76.43797
291.4512, 76.49217
291.9333, 76.53673
292.4154, 76.47378
292.8975, 76.12509
293.3796, 75.75151
293.8618, 75.58099
294.3439, 75.67104
294.8260, 75.84495
295.3081, 75.88423
295.7902, 75.77297
296.2723, 75.60247
296.7545, 75.29672
297.2366, 74.99767
297.7187, 74.78958
298.2008, 74.67809
298.6829, 74.61140
299.1650, 74.57455
299.6472, 74.58411
300.1293, 74.45938
300.6114, 74.02187
301.0935, 73.59206
301.5756, 73.26308
302.0577, 73.05783
302.5399, 72.99710
303.0220, 73.13515
303.5041, 73.46188
303.9862, 73.76978
304.4683, 74.20942
304.9504, 74.43363
305.4326, 74.21088
305.9147, 73.70618
306.3968, 73.21612
306.8789, 72.91542
307.3610, 72.77061
307.8431, 72.63640
308.3253, 72.45467
308.8074, 72.38830
309.2895, 72.59139
309.7716, 72.87967
310.2537, 73.02787
310.7358, 72.93262
311.2180, 72.67492
311.7001, 72.40359
312.1822, 72.02902
312.6643, 71.84686
313.1464, 72.07610
313.6285, 72.39730
314.1107, 72.53548
314.5928, 72.41949
315.0749, 72.21611
315.5570, 72.19804
316.0391, 72.46320
316.5212, 72.55178
317.0034, 72.20614
317.4855, 71.83393
317.9676, 71.63371
318.4497, 71.63138
318.9318, 71.76133
319.4139, 72.02287
319.8961, 72.44807
320.3782, 72.68514
320.8603, 72.52614
321.3424, 72.36271
321.8245, 72.34998
322.3066, 72.45654
322.7888, 72.58713
323.2709, 72.70100
323.7530, 72.78306
324.2351, 72.69534
324.7172, 72.22347
325.1993, 71.88538
325.6815, 71.96420
326.1636, 72.22678
326.6457, 72.33599
327.1278, 72.10941
327.6099, 71.68214
328.0920, 71.35665
328.5742, 71.09720
329.0563, 71.03319
329.5384, 71.31679
330.0205, 71.71449
330.5026, 72.07285
330.9847, 72.34721
331.4669, 72.47884
331.9490, 72.32215
332.4311, 71.77919
332.9132, 71.38042
333.3953, 71.35855
333.8774, 71.39004
334.3596, 71.29588
334.8417, 71.07146
335.3238, 70.83569
335.8059, 70.68771
336.2880, 70.62756
336.7701, 70.62825
337.2523, 70.72411
337.7344, 70.84777
338.2165, 70.97205
338.6986, 71.09810
339.1807, 71.23593
339.6628, 71.40469
340.1450, 71.58625
340.6271, 71.72597
341.1092, 71.86195
341.5913, 71.87186
342.0735, 71.61745
342.5556, 71.25894
343.0377, 70.99966
343.5198, 70.93199
344.0019, 70.94024
344.4840, 70.78994
344.9662, 70.39935
345.4483, 70.20479
345.9304, 70.51572
346.4125, 70.97757
346.8946, 71.42785
347.3767, 71.83888
347.8589, 72.05730
348.3410, 71.81126
348.8231, 71.11646
349.3052, 70.64587
349.7873, 70.57535
350.2694, 70.67165
350.7516, 70.80772
351.2337, 70.96815
351.7158, 71.10481
352.1979, 71.22523
352.6800, 71.30274
353.1621, 71.22668
353.6443, 70.93434
354.1264, 70.62666
354.6085, 70.32945
355.0906, 70.10832
355.5727, 70.11025
356.0548, 70.48382
356.5370, 70.98026
357.0191, 71.25173
357.5012, 71.27658
357.9833, 71.31287
358.4654, 71.55865
358.9475, 71.80872
359.4297, 71.77138
359.9118, 71.35560
360.3939, 70.96714
360.8760, 70.96645
361.3581, 71.27550
361.8402, 71.50145
362.3224, 71.55895
362.8045, 71.49506
363.2866, 71.25512
363.7687, 70.86993
364.2508, 70.72062
364.7329, 71.19886
365.2151, 71.93259
365.6972, 72.24886
366.1793, 72.03688
366.6614, 71.74741
367.1435, 71.71413
367.6256, 71.87341
368.1078, 72.02453
368.5899, 72.04586
369.0720, 72.13240
369.5541, 72.56321
370.0362, 73.26880
370.5183, 73.77011
371.0005, 73.81228
371.4826, 73.53162
371.9647, 73.23048
372.4468, 72.85305
372.9289, 72.59333
373.4110, 72.61094
373.8932, 72.78226
374.3753, 72.86458
374.8574, 72.78255
375.3395, 72.67966
375.8216, 72.77235
376.3037, 73.09690
376.7859, 73.27428
377.2680, 73.06786
377.7501, 72.83653
378.2322, 72.95171
378.7143, 73.39657
379.1964, 73.82509
379.6786, 73.98557
380.1607, 73.89244
380.6428, 73.77440
381.1249, 73.52441
381.6070, 73.36995
382.0891, 73.46551
382.5713, 73.70483
383.0534, 73.89009
383.5355, 73.93737
384.0176, 73.88567
384.4997, 73.81081
384.9818, 73.58454
385.4640, 73.56101
385.9461, 74.00449
386.4282, 74.49509
386.9103, 74.62971
387.3924, 74.37550
387.8745, 74.00228
388.3567, 73.77792
388.8388, 73.69689
389.3209, 73.82481
389.8030, 74.41578
390.2851, 74.92322
390.7672, 75.11968
391.2494, 75.07402
391.7315, 74.92101
392.2136, 74.72588
392.6957, 74.53786
393.1778, 74.56446
393.6599, 75.11919
394.1421, 75.43977
394.6242, 75.26022
395.1063, 74.94701
395.5884, 74.81739
396.0706, 74.95369
396.5527, 75.24384
397.0348, 75.58664
397.5169, 76.04235
397.9990, 76.30021
398.4811, 76.14848
398.9633, 75.98373
399.4454, 75.95020
399.9275, 76.03477
400.4096, 76.17454
400.8917, 76.35325
401.3738, 76.54000
401.8560, 76.57703
402.3381, 76.33762
402.8202, 76.19289
403.3023, 76.31215
403.7844, 76.54328
404.2665, 76.76124
404.7487, 76.93587
405.2308, 77.01759
405.7129, 76.88771
406.1950, 76.52824
406.6771, 76.28706
407.1592, 76.28648
407.6414, 76.36641
408.1235, 76.41282
408.6056, 76.43040
409.0877, 76.46272
409.5698, 76.58781
410.0519, 76.73725
410.5341, 76.72771
411.0162, 76.51897
411.4983, 76.29005
411.9804, 76.18842
412.4625, 76.12719
412.9446, 75.93587
413.4268, 75.46700
413.9089, 75.06665
414.3910, 75.13184
414.8731, 75.55040
415.3552, 75.75487
415.8373, 75.49916
416.3195, 75.06330
416.8016, 74.88335
417.2837, 74.97210
417.7658, 74.98698
418.2479, 74.80101
418.7300, 74.51377
419.2122, 74.21800
419.6943, 73.92722
420.1764, 73.65597
420.6585, 73.40506
421.1406, 73.18375
421.6227, 73.06360
422.1049, 73.16272
422.5870, 73.22186
423.0691, 73.12355
423.5512, 72.91730
424.0333, 72.67934
424.5154, 72.43829
424.9976, 72.21703
425.4797, 72.06984
425.9618, 72.10827
426.4439, 71.98690
426.9260, 71.61608
427.4081, 71.16206
427.8903, 70.68489
428.3724, 70.22352
428.8545, 69.85583
429.3366, 69.65386
429.8187, 69.60908
430.3008, 69.54556
430.7830, 69.41889
431.2651, 69.32387
431.7472, 69.37159
432.2293, 69.42191
432.7114, 69.24918
433.1935, 68.77920
433.6757, 68.24981
434.1578, 68.10575
434.6399, 68.51141
435.1220, 68.71725
435.6041, 68.53593
436.0862, 68.24837
436.5684, 67.89352
437.0505, 67.53136
437.5326, 67.30578
438.0147, 67.41105
438.4968, 67.70190
438.9789, 67.61031
439.4611, 66.95634
439.9432, 66.37518
440.4253, 66.12571
440.9074, 66.08465
441.3895, 66.19798
441.8716, 66.49297
442.3538, 66.72263
442.8359, 66.62151
443.3180, 66.24062
443.8001, 65.88321
444.2822, 65.60270
444.7643, 65.36449
445.2465, 65.12247
445.7286, 64.88425
446.2107, 64.71391
446.6928, 64.63703
447.1749, 64.62972
447.6570, 64.69366
448.1392, 64.81938
448.6213, 64.94062
449.1034, 65.03348
449.5855, 65.08772
450.0677, 65.06940
450.5498, 64.95786
451.0319, 64.83394
451.5140, 64.68282
451.9961, 64.54617
452.4782, 64.50911
452.9604, 64.57687
453.4425, 64.62131
453.9246, 64.49910
454.4067, 64.18691
454.8888, 63.95549
455.3709, 63.87666
455.8531, 63.78708
456.3352, 63.58186
456.8173, 63.33561
457.2994, 63.19112
457.7815, 63.21600
458.2636, 63.32117
458.7458, 63.30195
459.2279, 63.02006
459.7100, 62.90905
460.1921, 63.17135
460.6742, 63.42537
461.1563, 63.37832
461.6385, 63.09422
462.1206, 62.88466
462.6027, 63.02807
463.0848, 63.43655
463.5669, 63.65308
464.0490, 63.62893
464.5312, 63.50126
465.0133, 63.24035
465.4954, 62.94463
465.9775, 62.71819
466.4596, 62.58678
466.9417, 62.47650
467.4239, 62.30162
467.9060, 62.07761
468.3881, 61.89568
468.8702, 61.74176
469.3523, 61.68584
469.8344, 61.89770
470.3166, 62.27151
470.7987, 62.48378
471.2808, 62.34861
471.7629, 62.10277
472.2450, 61.87680
472.7271, 61.69841
473.2093, 61.76281
473.6914, 62.24403
474.1735, 62.84322
474.6556, 62.91982
475.1377, 62.30566
475.6198, 61.83295
476.1020, 61.63459
476.5841, 61.61982
477.0662, 61.82416
477.5483, 62.17961
478.0304, 62.38514
478.5125, 62.17261
478.9947, 61.61507
479.4768, 61.36837
479.9589, 61.86169
480.4410, 62.13941
480.9231, 61.91288
481.4052, 61.49842
481.8874, 61.22679
482.3695, 61.17488
482.8516, 61.19162
483.3337, 61.07069
483.8158, 60.77692
484.2979, 60.65508
484.7801, 60.96740
485.2622, 61.15327
485.7443, 60.90003
486.2264, 60.42471
486.7085, 60.08532
487.1906, 60.04462
487.6728, 60.14643
488.1549, 60.14718
488.6370, 60.03491
489.1191, 60.04136
489.6012, 60.35319
490.0833, 60.64332
490.5655, 60.58369
491.0476, 60.22322
491.5297, 59.89804
492.0118, 59.75481
492.4939, 59.71302
492.9760, 59.68061
493.4582, 59.65540
493.9403, 59.65977
494.4224, 59.73011
494.9045, 59.81480
495.3866, 59.75665
495.8687, 59.45415
496.3509, 59.28217
496.8330, 59.43169
497.3151, 59.69421
497.7972, 59.86831
498.2793, 59.92277
498.7614, 59.89945
499.2436, 59.82772
499.7257, 59.70945
500.2078, 59.57643
500.6899, 59.42594
501.1720, 59.26305
501.6541, 58.99327
502.1363, 58.75888
502.6184, 58.76574
503.1005, 59.04343
503.5826, 59.36420
504.0647, 59.41141
504.5468, 59.14318
505.0290, 59.03021
505.5111, 59.19240
505.9932, 59.36762
506.4753, 59.49998
506.9575, 59.56554
507.4396, 59.52416
507.9217, 59.35121
508.4038, 59.10155
508.8859, 58.79026
509.3680, 58.42706
509.8502, 58.20918
510.3323, 58.22010
510.8144, 58.32257
511.2965, 58.44320
511.7786, 58.56231
512.2607, 58.53553
512.7429, 58.16061
513.2250, 57.75764
513.7071, 57.62645
514.1892, 57.71864
514.6713, 57.79795
515.1534, 57.75460
515.6356, 57.66064
516.1177, 57.66721
516.5998, 57.87373
517.0819, 57.95404
517.5640, 57.83421
518.0461, 57.64010
518.5283, 57.38615
519.0104, 57.12763
519.4925, 57.01234
519.9746, 57.15744
520.4567, 57.46180
520.9388, 57.52559
521.4210, 57.12342
521.9031, 56.90394
522.3852, 57.13659
522.8673, 57.40630
523.3494, 57.33906
523.8315, 56.97358
524.3137, 56.70209
524.7958, 56.89919
525.2779, 57.41825
525.7600, 57.75277
526.2421, 57.88502
526.7242, 57.89404
527.2064, 57.71634
527.6885, 57.48383
528.1706, 57.38297
528.6527, 57.45681
529.1348, 57.49470
529.6169, 57.31644
530.0991, 57.05908
530.5812, 56.97050
531.0633, 57.07864
531.5454, 57.20698
532.0275, 57.22496
532.5096, 57.15152
532.9918, 57.11729
533.4739, 57.12164
533.9560, 57.15861
534.4381, 57.27177
534.9202, 57.39310
535.4023, 57.45657
535.8845, 57.44619
536.3666, 57.36396
536.8487, 57.18445
537.3308, 56.90783
537.8129, 56.83436
538.2950, 57.14429
538.7772, 57.42916
539.2593, 57.63914
539.7414, 57.75653
540.2235, 57.74199
540.7056, 57.58912
541.1877, 57.39019
541.6699, 57.22973
542.1520, 57.10374
542.6341, 56.97713
543.1162, 56.83535
543.5983, 56.72367
544.0804, 56.67831
544.5626, 56.68325
545.0447, 56.71985
545.5268, 56.81773
546.0089, 56.88591
546.4910, 56.80598
546.9731, 56.67408
547.4553, 56.71571
547.9374, 56.98094
548.4195, 57.25032
548.9016, 57.30996
549.3837, 57.15559
549.8658, 57.00187
550.3480, 56.69181
550.8301, 56.56600
551.3122, 56.88367
551.7943, 57.36388
552.2764, 57.70630
552.7585, 57.81380
553.2407, 57.70210
553.7228, 57.32163
554.2049, 56.64528
554.6870, 56.19313
555.1691, 55.96806
555.6512, 55.98561
556.1334, 56.51595
556.6155, 57.15467
557.0976, 57.31556
557.5797, 56.79241
558.0618, 56.18133
558.5439, 56.09082
559.0261, 56.36870
559.5082, 56.40448
559.9903, 56.06090
560.4724, 55.72683
560.9545, 55.73899
561.4366, 56.02210
561.9188, 56.15236
562.4009, 55.96988
562.8830, 55.83053
563.3651, 55.96311
563.8472, 56.17812
564.3293, 56.20714
564.8115, 55.99810
565.2936, 55.66587
565.7757, 55.29498
566.2578, 54.88337
566.7399, 54.70397
567.2220, 55.02001
567.7042, 55.25948
568.1863, 55.27331
568.6684, 55.19554
569.1505, 55.17240
569.6326, 55.23119
570.1147, 55.27950
570.5969, 55.21770
571.0790, 55.06205
571.5611, 54.90687
572.0432, 54.73932
572.5253, 54.61285
573.0074, 54.58341
573.4896, 54.60044
573.9717, 54.59255
574.4538, 54.55632
574.9359, 54.48906
575.4180, 54.36319
575.9001, 54.21789
576.3823, 54.10107
576.8644, 54.01966
577.3465, 53.97892
577.8286, 53.99004
578.3107, 54.03905
578.7928, 54.05672
579.2750, 54.00581
579.7571, 53.97176
580.2392, 53.96852
580.7213, 53.97626
581.2034, 53.99285
581.6855, 54.00780
582.1677, 53.98931
582.6498, 53.90046
583.1319, 53.77319
583.6140, 53.73999
584.0961, 53.84971
584.5782, 53.87835
585.0604, 53.59371
585.5425, 52.97153
586.0246, 53.29727
586.5067, 53.47631
586.9889, 53.51653
587.4710, 53.00216
