##NAMES=Trilithionite
##RRUFFID=R040101
##IDEAL CHEMISTRY=KLi_1.5_Al_1.5_(Si_3_Al)O_10_F_2_
##LOCALITY=Zambezi Region, Mozambique
##OWNER=RRUFF
##SOURCE=University of Arizona Mineral Museum
##DESCRIPTION=Aggregate of purple hexagonal plates, polytype is 2M1
##STATUS=The identification of this mineral has been confirmed by X-ray diffraction and chemical analysis
##URL=rruff.info/R040101
##MEASURED CHEMISTRY=(K_0.84_Li_0.13_Na_0.02_)(Li_0.54_Al_0.44_Mn_0.02_)_3_(Si_0.82_Al_0.18_)_4_O_10_F_2.00_
123.5578, 1194.873
124.0400, 1308.013
124.5221, 1427.581
125.0042, 1547.301
125.4863, 1668.317
125.9684, 1797.545
126.4505, 1944.995
126.9327, 2090.335
127.4148, 2231.873
127.8969, 2368.807
128.3790, 2500.189
128.8611, 2625.587
129.3432, 2745.441
129.8254, 2854.597
130.3075, 2954.859
130.7896, 3045.025
131.2717, 3130.004
131.7538, 3205.183
132.2359, 3260.656
132.7181, 3289.741
133.2002, 3292.348
133.6823, 3254.525
134.1644, 3159.087
134.6465, 3047.390
135.1286, 2930.244
135.6108, 2813.343
136.0929, 2705.036
136.5750, 2612.814
137.0571, 2538.175
137.5392, 2483.726
138.0213, 2449.626
138.5035, 2433.128
138.9856, 2431.697
139.4677, 2445.361
139.9498, 2477.947
140.4319, 2534.992
140.9140, 2622.040
141.3961, 2715.486
141.8783, 2815.274
142.3604, 2921.282
142.8425, 3035.719
143.3246, 3159.022
143.8067, 3284.417
144.2888, 3405.752
144.7710, 3523.456
145.2531, 3635.896
145.7352, 3735.147
146.2173, 3781.227
146.6994, 3771.079
147.1815, 3748.222
147.6637, 3713.139
148.1458, 3659.319
148.6279, 3588.081
149.1100, 3523.747
149.5921, 3482.501
150.0742, 3448.541
150.5564, 3394.017
151.0385, 3309.731
151.5206, 3212.999
152.0027, 3121.676
152.4848, 3034.071
152.9669, 2948.894
153.4491, 2860.543
153.9312, 2773.199
154.4133, 2700.173
154.8954, 2647.160
155.3775, 2602.612
155.8596, 2550.487
156.3418, 2490.463
156.8239, 2439.973
157.3060, 2412.427
157.7881, 2402.134
158.2702, 2388.058
158.7523, 2363.574
159.2345, 2337.438
159.7166, 2316.514
160.1987, 2300.639
160.6808, 2291.736
161.1629, 2297.502
161.6451, 2314.334
162.1272, 2319.147
162.6093, 2302.301
163.0914, 2278.511
163.5735, 2259.332
164.0556, 2244.982
164.5378, 2236.802
165.0199, 2240.397
165.5020, 2254.359
165.9841, 2259.738
166.4662, 2245.971
166.9483, 2229.612
167.4305, 2222.592
167.9126, 2225.441
168.3947, 2233.302
168.8768, 2242.673
169.3589, 2253.537
169.8410, 2267.410
170.3232, 2289.949
170.8053, 2310.818
171.2874, 2321.533
171.7695, 2321.507
172.2516, 2319.887
172.7337, 2325.009
173.2159, 2337.098
173.6980, 2349.283
174.1801, 2357.577
174.6622, 2367.729
175.1443, 2384.785
175.6264, 2408.871
176.1085, 2433.405
176.5907, 2452.020
177.0728, 2464.463
177.5549, 2474.068
178.0370, 2481.694
178.5191, 2485.834
179.0012, 2483.462
179.4834, 2474.774
179.9655, 2465.877
180.4476, 2463.937
180.9297, 2470.188
181.4118, 2474.590
181.8939, 2476.305
182.3761, 2475.269
182.8582, 2472.721
183.3403, 2468.314
183.8224, 2458.249
184.3045, 2433.771
184.7866, 2390.734
185.2688, 2360.925
185.7509, 2362.840
186.2330, 2368.893
186.7151, 2366.395
187.1972, 2353.767
187.6793, 2336.417
188.1615, 2316.771
188.6436, 2292.452
189.1257, 2279.531
189.6078, 2285.107
190.0899, 2298.728
190.5720, 2316.849
191.0542, 2338.712
191.5363, 2364.764
192.0184, 2395.760
192.5005, 2432.133
192.9826, 2470.821
193.4647, 2514.533
193.9469, 2558.614
194.4290, 2604.013
194.9111, 2649.373
195.3932, 2689.054
195.8753, 2717.322
196.3574, 2733.473
196.8396, 2743.617
197.3217, 2743.224
197.8038, 2740.282
198.2859, 2739.053
198.7680, 2739.054
199.2501, 2736.204
199.7323, 2726.512
200.2144, 2709.522
200.6965, 2688.713
201.1786, 2660.542
201.6607, 2630.958
202.1428, 2600.082
202.6250, 2569.181
203.1071, 2541.434
203.5892, 2520.130
204.0713, 2505.710
204.5534, 2492.452
205.0355, 2481.946
205.5177, 2471.174
205.9998, 2454.134
206.4819, 2434.505
206.9640, 2423.402
207.4461, 2432.211
207.9282, 2461.473
208.4104, 2490.048
208.8925, 2515.323
209.3746, 2542.506
209.8567, 2577.031
210.3388, 2615.362
210.8209, 2649.095
211.3030, 2671.309
211.7852, 2682.305
212.2673, 2691.193
212.7494, 2698.709
213.2315, 2702.762
213.7136, 2703.969
214.1957, 2701.394
214.6779, 2693.840
215.1600, 2682.794
215.6421, 2666.648
216.1242, 2631.586
216.6063, 2565.159
217.0884, 2494.664
217.5706, 2426.703
218.0527, 2361.528
218.5348, 2299.401
219.0169, 2240.877
219.4990, 2185.273
219.9811, 2129.284
220.4633, 2070.570
220.9454, 2015.414
221.4275, 1966.390
221.9096, 1921.453
222.3917, 1876.786
222.8738, 1828.723
223.3560, 1781.701
223.8381, 1750.081
224.3202, 1742.378
224.8023, 1734.672
225.2844, 1720.426
225.7665, 1701.823
226.2487, 1680.486
226.7308, 1656.165
227.2129, 1631.736
227.6950, 1613.618
228.1771, 1603.514
228.6592, 1595.598
229.1414, 1590.145
229.6235, 1585.010
230.1056, 1577.026
230.5877, 1564.400
231.0698, 1552.446
231.5519, 1550.083
232.0341, 1559.760
232.5162, 1569.876
232.9983, 1580.061
233.4804, 1587.878
233.9625, 1590.848
234.4446, 1588.225
234.9268, 1582.846
235.4089, 1575.415
235.8910, 1564.646
236.3731, 1562.730
236.8552, 1579.619
237.3373, 1601.922
237.8195, 1621.069
238.3016, 1635.937
238.7837, 1648.855
239.2658, 1660.020
239.7479, 1669.562
240.2300, 1683.930
240.7122, 1706.404
241.1943, 1732.269
241.6764, 1759.861
242.1585, 1788.720
242.6406, 1813.653
243.1227, 1825.536
243.6049, 1828.159
244.0870, 1844.395
244.5691, 1883.296
245.0512, 1927.588
245.5333, 1959.976
246.0154, 1983.903
246.4975, 2016.269
246.9797, 2068.142
247.4618, 2134.879
247.9439, 2204.179
248.4260, 2274.460
248.9081, 2349.379
249.3902, 2430.633
249.8724, 2517.936
250.3545, 2612.296
250.8366, 2710.901
251.3187, 2817.692
251.8008, 2936.821
252.2829, 3067.417
252.7651, 3213.638
253.2472, 3381.650
253.7293, 3567.808
254.2114, 3766.315
254.6935, 3977.082
255.1756, 4199.132
255.6578, 4430.909
256.1399, 4672.363
256.6220, 4922.613
257.1041, 5185.004
257.5862, 5454.435
258.0684, 5722.395
258.5505, 5995.360
259.0326, 6257.602
259.5147, 6505.810
259.9968, 6737.254
260.4789, 6932.621
260.9611, 7082.917
261.4432, 7193.867
261.9253, 7288.277
262.4074, 7383.388
262.8895, 7431.410
263.3716, 7414.306
263.8537, 7336.771
264.3358, 7202.620
264.8180, 7008.680
265.3001, 6772.687
265.7822, 6518.352
266.2643, 6238.449
266.7464, 5963.592
267.2285, 5698.886
267.7107, 5442.308
268.1928, 5190.475
268.6749, 4943.026
269.1570, 4702.833
269.6391, 4475.240
270.1212, 4262.251
270.6034, 4057.369
271.0855, 3856.156
271.5676, 3664.783
272.0497, 3488.095
272.5318, 3326.524
273.0139, 3183.570
273.4961, 3063.392
273.9782, 2969.146
274.4603, 2872.615
274.9424, 2764.912
275.4245, 2664.565
275.9066, 2579.768
276.3888, 2509.279
276.8709, 2448.456
277.3530, 2394.633
277.8351, 2347.207
278.3172, 2299.726
278.7993, 2251.183
279.2815, 2203.524
279.7636, 2154.503
280.2457, 2107.172
280.7278, 2066.126
281.2099, 2033.762
281.6920, 2006.877
282.1742, 1976.112
282.6563, 1932.515
283.1384, 1898.844
283.6205, 1881.785
284.1026, 1871.588
284.5847, 1861.414
285.0669, 1848.837
285.5490, 1832.489
286.0311, 1808.587
286.5132, 1770.626
286.9953, 1742.920
287.4774, 1734.016
287.9596, 1728.468
288.4417, 1715.826
288.9238, 1696.797
289.4059, 1681.284
289.8880, 1682.607
290.3701, 1702.431
290.8523, 1708.566
291.3344, 1688.131
291.8165, 1666.740
292.2986, 1655.204
292.7807, 1651.094
293.2628, 1647.272
293.7450, 1638.569
294.2271, 1627.033
294.7092, 1620.940
295.1913, 1623.871
295.6734, 1624.587
296.1555, 1615.616
296.6377, 1602.395
297.1198, 1591.731
297.6019, 1585.522
298.0840, 1583.331
298.5661, 1585.914
299.0482, 1593.859
299.5304, 1600.970
300.0125, 1606.512
300.4946, 1608.937
300.9767, 1605.865
301.4588, 1595.918
301.9409, 1585.383
302.4231, 1579.418
302.9052, 1576.810
303.3873, 1571.790
303.8694, 1561.189
304.3515, 1550.701
304.8336, 1548.480
305.3158, 1554.435
305.7979, 1559.483
306.2800, 1561.225
306.7621, 1560.178
307.2442, 1556.785
307.7263, 1551.081
308.2085, 1543.533
308.6906, 1532.881
309.1727, 1519.318
309.6548, 1512.820
310.1369, 1518.185
310.6190, 1527.008
311.1012, 1536.429
311.5833, 1545.081
312.0654, 1548.682
312.5475, 1543.606
313.0296, 1531.610
313.5117, 1523.991
313.9939, 1523.200
314.4760, 1523.009
314.9581, 1522.609
315.4402, 1521.721
315.9223, 1519.859
316.4044, 1516.820
316.8866, 1513.122
317.3687, 1509.808
317.8508, 1506.898
318.3329, 1504.373
318.8150, 1502.350
319.2971, 1500.585
319.7793, 1500.339
320.2614, 1500.971
320.7435, 1498.633
321.2256, 1487.174
321.7077, 1463.229
322.1898, 1451.112
322.6720, 1461.365
323.1541, 1473.575
323.6362, 1482.894
324.1183, 1488.543
324.6004, 1490.530
325.0826, 1488.568
325.5647, 1483.130
326.0468, 1475.257
326.5289, 1460.807
327.0110, 1451.917
327.4931, 1457.866
327.9753, 1468.307
328.4574, 1471.553
328.9395, 1463.222
329.4216, 1449.415
329.9037, 1434.999
330.3858, 1419.276
330.8680, 1413.403
331.3501, 1430.318
331.8322, 1449.644
332.3143, 1450.139
332.7964, 1430.784
333.2785, 1413.650
333.7606, 1416.506
334.2427, 1431.354
334.7249, 1435.539
335.2070, 1423.513
335.6891, 1408.904
336.1712, 1404.677
336.6533, 1408.778
337.1354, 1411.512
337.6176, 1408.358
338.0997, 1405.183
338.5818, 1408.596
339.0639, 1417.809
339.5460, 1425.521
340.0281, 1427.398
340.5103, 1424.513
340.9924, 1421.716
341.4745, 1419.549
341.9566, 1416.817
342.4387, 1412.022
342.9208, 1406.765
343.4030, 1403.890
343.8851, 1404.345
344.3672, 1406.062
344.8493, 1405.499
345.3314, 1400.862
345.8135, 1397.849
346.2957, 1393.871
346.7778, 1393.360
347.2599, 1401.997
347.7420, 1417.995
348.2241, 1433.133
348.7062, 1439.817
349.1884, 1438.120
349.6705, 1438.517
350.1526, 1443.406
350.6347, 1447.891
351.1168, 1450.776
351.5989, 1452.556
352.0811, 1453.139
352.5632, 1451.897
353.0453, 1451.978
353.5274, 1461.525
354.0095, 1484.519
354.4916, 1502.860
354.9738, 1506.618
355.4559, 1507.383
355.9380, 1512.789
356.4201, 1523.788
356.9022, 1537.014
357.3843, 1551.499
357.8665, 1566.327
358.3486, 1576.730
358.8307, 1580.236
359.3128, 1583.086
359.7949, 1592.637
360.2770, 1606.306
360.7592, 1615.218
361.2413, 1610.137
361.7234, 1603.908
362.2055, 1610.476
362.6876, 1629.039
363.1697, 1649.408
363.6519, 1666.796
364.1340, 1681.778
364.6161, 1696.041
365.0982, 1708.486
365.5803, 1722.168
366.0624, 1738.009
366.5446, 1755.554
367.0267, 1774.448
367.5088, 1794.453
367.9909, 1815.544
368.4730, 1837.250
368.9551, 1859.192
369.4373, 1883.680
369.9194, 1914.163
370.4015, 1943.719
370.8836, 1969.546
371.3657, 1991.182
371.8478, 2007.677
372.3300, 2017.277
372.8121, 2022.398
373.2942, 2037.366
373.7763, 2071.455
374.2584, 2101.291
374.7405, 2116.964
375.2227, 2129.297
375.7048, 2151.332
376.1869, 2186.867
376.6690, 2223.670
377.1511, 2246.070
377.6332, 2253.461
378.1154, 2260.185
378.5975, 2268.802
379.0796, 2276.363
379.5617, 2281.165
380.0438, 2283.317
380.5259, 2283.557
381.0081, 2277.313
381.4902, 2271.290
381.9723, 2278.927
382.4544, 2301.451
382.9365, 2322.055
383.4186, 2329.595
383.9008, 2328.306
384.3829, 2332.597
384.8650, 2345.901
385.3471, 2359.535
385.8292, 2372.037
386.3113, 2382.002
386.7935, 2384.188
387.2756, 2376.660
387.7577, 2369.526
388.2398, 2377.380
388.7219, 2406.479
389.2040, 2432.776
389.6862, 2452.641
390.1683, 2473.293
390.6504, 2501.942
391.1325, 2535.535
391.6146, 2563.308
392.0967, 2577.000
392.5789, 2580.380
393.0610, 2593.063
393.5431, 2615.901
394.0252, 2648.021
394.5073, 2698.358
394.9894, 2751.546
395.4716, 2793.510
395.9537, 2820.558
396.4358, 2839.720
396.9179, 2856.394
397.4000, 2870.582
397.8821, 2889.488
398.3643, 2916.889
398.8464, 2944.878
399.3285, 2971.707
399.8106, 2995.527
400.2927, 3010.292
400.7748, 3006.245
401.2570, 2996.448
401.7391, 2998.376
402.2212, 3011.154
402.7033, 3020.778
403.1854, 3020.718
403.6675, 3013.140
404.1497, 3003.007
404.6317, 2989.127
405.1139, 2975.606
405.5960, 2967.690
406.0781, 2958.686
406.5602, 2938.370
407.0423, 2905.878
407.5244, 2871.875
408.0066, 2848.785
408.4887, 2838.954
408.9708, 2814.747
409.4529, 2764.664
409.9350, 2714.115
410.4171, 2671.339
410.8993, 2633.288
411.3814, 2593.691
411.8635, 2549.332
412.3456, 2504.850
412.8277, 2469.422
413.3098, 2444.503
413.7920, 2423.780
414.2741, 2418.449
414.7562, 2407.711
415.2383, 2374.444
415.7204, 2321.437
416.2025, 2270.917
416.6847, 2237.433
417.1668, 2216.518
417.6489, 2199.006
418.1310, 2185.533
418.6131, 2171.209
419.0952, 2156.696
419.5774, 2137.926
420.0595, 2105.546
420.5416, 2048.340
421.0237, 1995.883
421.5058, 1963.092
421.9879, 1944.364
422.4701, 1931.691
422.9522, 1923.092
423.4343, 1915.062
423.9164, 1903.319
424.3985, 1886.946
424.8806, 1870.813
425.3628, 1859.820
425.8449, 1844.159
426.3270, 1811.882
426.8091, 1772.282
427.2912, 1744.993
427.7733, 1741.521
428.2555, 1751.433
428.7376, 1748.825
429.2197, 1729.491
429.7018, 1707.513
430.1839, 1676.497
430.6660, 1649.840
431.1482, 1640.234
431.6303, 1646.219
432.1124, 1650.815
432.5945, 1641.510
433.0766, 1621.647
433.5587, 1599.126
434.0409, 1572.901
434.5230, 1549.613
435.0051, 1534.250
435.4872, 1524.312
435.9693, 1513.561
436.4514, 1500.535
436.9336, 1488.768
437.4157, 1481.863
437.8978, 1476.922
438.3799, 1467.565
438.8620, 1452.132
439.3441, 1436.807
439.8263, 1429.156
440.3084, 1431.247
440.7905, 1428.633
441.2726, 1420.208
441.7547, 1409.031
442.2368, 1394.464
442.7190, 1378.405
443.2011, 1363.712
443.6832, 1351.763
444.1653, 1341.898
444.6474, 1333.564
445.1295, 1328.133
445.6117, 1319.688
446.0938, 1301.349
446.5759, 1284.863
447.0580, 1278.875
447.5401, 1281.660
448.0222, 1283.742
448.5044, 1279.873
448.9865, 1271.730
449.4686, 1260.613
449.9507, 1246.097
450.4328, 1235.605
450.9149, 1234.325
451.3971, 1238.265
451.8792, 1238.458
452.3613, 1233.876
452.8434, 1228.493
453.3255, 1221.461
453.8076, 1215.260
454.2898, 1214.164
454.7719, 1218.055
455.2540, 1221.220
455.7361, 1218.468
456.2182, 1209.985
456.7003, 1201.927
457.1825, 1190.318
457.6646, 1183.911
458.1467, 1189.429
458.6288, 1198.483
459.1109, 1201.336
459.5930, 1195.285
460.0752, 1186.021
460.5573, 1179.842
461.0394, 1176.769
461.5215, 1174.707
462.0036, 1173.750
462.4857, 1173.481
462.9679, 1172.995
463.4500, 1172.983
463.9321, 1175.301
464.4142, 1182.475
464.8963, 1189.640
465.3784, 1193.025
465.8606, 1193.071
466.3427, 1191.429
466.8248, 1188.795
467.3069, 1183.645
467.7890, 1172.147
468.2711, 1149.316
468.7533, 1140.093
469.2354, 1157.946
469.7175, 1176.392
470.1996, 1177.905
470.6817, 1168.778
471.1638, 1166.941
471.6460, 1182.739
472.1281, 1205.795
472.6102, 1209.118
473.0923, 1181.340
473.5744, 1166.085
474.0565, 1182.571
474.5387, 1202.608
475.0208, 1210.911
475.5029, 1208.149
475.9850, 1203.276
476.4671, 1199.160
476.9492, 1197.037
477.4313, 1201.904
477.9135, 1213.829
478.3956, 1218.414
478.8777, 1205.808
479.3598, 1185.314
479.8419, 1177.326
480.3240, 1185.504
480.8062, 1191.817
481.2883, 1194.688
481.7704, 1192.911
482.2525, 1181.838
482.7346, 1163.935
483.2167, 1149.543
483.6989, 1146.942
484.1810, 1153.407
484.6631, 1154.351
485.1452, 1144.736
485.6273, 1137.950
486.1094, 1136.869
486.5916, 1138.336
487.0737, 1140.629
487.5558, 1143.185
488.0379, 1144.946
488.5200, 1147.601
489.0021, 1148.765
489.4843, 1137.157
489.9664, 1108.919
490.4485, 1088.422
490.9306, 1092.730
491.4127, 1112.163
491.8948, 1123.073
492.3770, 1124.249
492.8591, 1119.793
493.3412, 1104.029
493.8233, 1086.959
494.3054, 1082.216
494.7875, 1090.567
495.2697, 1102.036
495.7518, 1108.690
496.2339, 1110.701
496.7160, 1110.226
497.1981, 1105.958
497.6802, 1100.746
498.1624, 1093.628
498.6445, 1086.640
499.1266, 1081.946
499.6087, 1079.847
500.0908, 1078.381
500.5729, 1075.259
501.0551, 1071.191
501.5372, 1070.029
502.0193, 1073.061
502.5014, 1074.485
502.9835, 1070.178
503.4656, 1062.085
503.9478, 1055.077
504.4299, 1049.045
504.9120, 1044.512
505.3941, 1041.450
505.8762, 1040.131
506.3583, 1041.930
506.8405, 1046.582
507.3226, 1051.151
507.8047, 1053.617
508.2868, 1053.742
508.7689, 1047.547
509.2510, 1025.511
509.7332, 1010.041
510.2153, 1007.324
510.6974, 1010.928
511.1795, 1016.454
511.6616, 1022.505
512.1437, 1026.435
512.6259, 1024.005
513.1080, 1017.433
513.5901, 1015.294
514.0722, 1018.529
514.5543, 1022.820
515.0364, 1027.027
515.5186, 1030.072
516.0007, 1029.314
516.4828, 1022.028
516.9649, 1016.782
517.4470, 1016.842
517.9291, 1019.900
518.4113, 1025.185
518.8934, 1031.557
519.3755, 1034.670
519.8576, 1030.162
520.3397, 1019.941
520.8218, 1017.393
521.3040, 1030.780
521.7861, 1037.801
522.2682, 1029.410
522.7503, 1017.758
523.2324, 1011.915
523.7145, 1013.005
524.1967, 1017.783
524.6788, 1026.905
525.1609, 1037.369
525.6430, 1042.169
526.1251, 1041.002
526.6072, 1038.988
527.0894, 1038.562
527.5715, 1038.814
528.0536, 1037.445
528.5357, 1033.536
529.0178, 1030.686
529.4999, 1030.801
529.9821, 1031.045
530.4642, 1028.131
530.9463, 1023.152
531.4284, 1020.380
531.9105, 1022.826
532.3926, 1028.259
532.8748, 1030.027
533.3569, 1026.685
533.8390, 1024.081
534.3211, 1019.587
534.8032, 1019.458
535.2853, 1031.659
535.7675, 1053.258
536.2496, 1069.669
536.7317, 1074.090
537.2138, 1070.706
537.6959, 1059.418
538.1780, 1043.008
538.6602, 1034.537
539.1423, 1039.496
539.6244, 1051.167
540.1065, 1060.118
540.5886, 1066.368
541.0707, 1069.352
541.5529, 1064.070
542.0350, 1061.056
542.5171, 1066.475
542.9992, 1076.831
543.4813, 1086.398
543.9634, 1092.952
544.4456, 1097.067
544.9277, 1099.853
545.4098, 1101.273
545.8919, 1098.542
546.3740, 1088.891
546.8561, 1080.080
547.3383, 1078.739
547.8204, 1082.456
548.3025, 1085.058
548.7846, 1084.579
549.2667, 1084.707
549.7488, 1087.449
550.2310, 1091.720
550.7131, 1095.489
551.1952, 1098.595
551.6773, 1103.404
552.1594, 1112.818
552.6415, 1126.218
553.1237, 1133.964
553.6058, 1132.270
554.0879, 1130.723
554.5700, 1133.128
555.0521, 1135.313
555.5342, 1133.276
556.0164, 1126.669
556.4985, 1118.794
556.9806, 1108.722
557.4627, 1100.017
557.9448, 1100.959
558.4269, 1111.286
558.9091, 1120.528
559.3912, 1123.700
559.8733, 1122.970
560.3554, 1122.742
560.8375, 1123.876
561.3196, 1123.492
561.8018, 1120.891
562.2839, 1117.369
562.7660, 1113.234
563.2481, 1108.805
563.7302, 1104.273
564.2123, 1099.579
564.6945, 1095.734
565.1766, 1096.615
565.6587, 1102.725
566.1408, 1099.285
566.6229, 1078.542
567.1050, 1057.612
567.5872, 1050.062
568.0693, 1053.051
568.5514, 1059.550
569.0335, 1074.216
569.5156, 1085.573
569.9977, 1084.801
570.4799, 1078.688
570.9620, 1077.752
571.4441, 1083.679
571.9262, 1089.852
572.4083, 1089.801
572.8904, 1084.135
573.3726, 1080.191
573.8547, 1080.541
574.3368, 1078.014
574.8189, 1065.377
575.3010, 1053.057
575.7831, 1051.783
576.2653, 1061.919
576.7474, 1070.811
577.2295, 1070.822
577.7116, 1066.303
578.1937, 1062.117
578.6758, 1058.528
579.1580, 1055.983
579.6401, 1054.699
580.1222, 1054.505
580.6042, 1055.413
581.0864, 1058.868
581.5685, 1058.972
582.0506, 1055.874
582.5327, 1049.747
583.0148, 1034.675
583.4969, 1018.344
583.9791, 1014.561
584.4612, 1029.008
584.9433, 1048.008
585.4254, 1057.488
585.9075, 1058.702
586.3896, 1057.176
586.8718, 1053.211
587.3539, 1047.707
587.8360, 1040.297
588.3181, 1032.031
588.8002, 1027.067
589.2823, 1028.497
589.7645, 1028.064
590.2466, 1022.216
590.7287, 1015.678
591.2108, 1012.180
591.6929, 1011.812
592.1750, 1013.019
592.6572, 1015.105
593.1393, 1017.380
593.6214, 1017.573
594.1035, 1015.174
594.5856, 1008.376
595.0677, 1017.474
595.5499, 1023.679
596.0320, 1027.145
596.5141, 1019.671
596.9962, 1026.324
597.4783, 1027.315
597.9604, 1028.074
598.4426, 1036.715
598.9247, 1030.832
599.4068, 1039.348
599.8889, 1042.116
600.3710, 1047.515
600.8531, 1047.217
601.3353, 1048.680
601.8174, 1055.839
602.2995, 1059.844
602.7816, 1058.891
603.2637, 1064.457
603.7458, 1058.375
604.2280, 1062.515
604.7101, 1057.354
605.1922, 1058.158
605.6743, 1082.719
606.1564, 1109.618
606.6385, 1117.498
607.1207, 1111.328
607.6028, 1105.719
608.0849, 1106.082
608.5670, 1111.239
609.0491, 1120.789
609.5313, 1136.101
610.0134, 1144.728
610.4955, 1141.486
610.9776, 1138.381
611.4597, 1137.325
611.9418, 1139.283
612.4240, 1146.329
612.9061, 1159.062
613.3882, 1171.844
613.8703, 1181.930
614.3524, 1189.766
614.8345, 1195.000
615.3167, 1198.190
615.7988, 1202.075
616.2809, 1207.729
616.7630, 1216.040
617.2451, 1229.572
617.7272, 1252.291
