##NAMES=Trilithionite
##RRUFFID=R040105
##IDEAL CHEMISTRY=KLi_1.5_Al_1.5_(Si_3_Al)O_10_F_2_
##LOCALITY=Brown Derby mine, Ohio City, Gunnison County, Colorado, USA
##OWNER=RRUFF
##SOURCE=University of Arizona Mineral Museum
##DESCRIPTION=Purple hexagonal tablet
##STATUS=The identification of this mineral has been confirmed by X-ray diffraction and chemical analysis
##URL=rruff.info/R040105
##MEASURED CHEMISTRY=(K_0.82_Li_0.14_Na_0.04_)(Li_0.53_Al_0.42_Mn_0.05_)_3_(Si_0.84_Al_0.17_)_4_O_10_((OH)_0.59_F_0.41_)_2_
134.5908, 874.5208
135.0729, 866.9689
135.5550, 866.5017
136.0372, 873.7092
136.5193, 882.8646
137.0014, 891.4542
137.4835, 899.3625
137.9656, 907.7620
138.4477, 918.8304
138.9299, 929.7211
139.4120, 928.5966
139.8941, 910.8173
140.3762, 891.1887
140.8583, 881.6553
141.3404, 885.9062
141.8226, 888.7369
142.3047, 886.8372
142.7868, 880.0544
143.2689, 875.7994
143.7510, 876.0664
144.2331, 877.2045
144.7152, 873.9050
145.1974, 861.2762
145.6795, 851.8015
146.1616, 850.0582
146.6437, 861.3041
147.1258, 866.8845
147.6079, 863.3180
148.0901, 854.1705
148.5722, 849.1454
149.0543, 849.7980
149.5364, 853.0359
150.0185, 857.5416
150.5006, 867.2479
150.9828, 873.5618
151.4649, 875.3018
151.9470, 872.7823
152.4291, 869.5918
152.9112, 862.0796
153.3933, 855.9587
153.8755, 855.1956
154.3576, 869.8177
154.8397, 880.4227
155.3218, 880.8328
155.8039, 868.8575
156.2860, 860.2829
156.7682, 861.7126
157.2503, 867.0959
157.7324, 868.9071
158.2145, 858.8160
158.6966, 849.9439
159.1787, 848.0507
159.6609, 855.9971
160.1430, 866.0640
160.6251, 879.9962
161.1072, 894.6442
161.5893, 902.6422
162.0714, 895.3771
162.5536, 883.8697
163.0357, 875.6918
163.5178, 876.2523
163.9999, 876.4771
164.4820, 869.1729
164.9641, 856.0989
165.4463, 848.7879
165.9284, 860.4006
166.4105, 878.3251
166.8926, 888.9661
167.3747, 873.7081
167.8568, 859.1204
168.3390, 867.8332
168.8211, 901.9129
169.3032, 933.0934
169.7853, 939.7166
170.2674, 930.9965
170.7495, 923.0256
171.2317, 923.7229
171.7138, 928.6016
172.1959, 933.3813
172.6780, 937.5309
173.1601, 941.7992
173.6422, 947.1002
174.1244, 953.1661
174.6065, 958.9724
175.0886, 963.8460
175.5707, 968.1731
176.0528, 972.3325
176.5349, 975.7949
177.0171, 979.9177
177.4992, 987.2284
177.9813, 997.2767
178.4634, 1006.848
178.9455, 1013.372
179.4276, 1017.486
179.9098, 1020.808
180.3919, 1023.589
180.8740, 1025.926
181.3561, 1029.246
181.8382, 1033.701
182.3203, 1035.460
182.8025, 1028.957
183.2846, 1015.905
183.7667, 1002.903
184.2488, 993.7595
184.7309, 986.8304
185.2130, 977.2896
185.6951, 964.3077
186.1773, 951.2965
186.6594, 943.4084
187.1415, 940.2402
187.6236, 936.8812
188.1057, 929.7520
188.5878, 919.8824
189.0700, 912.2081
189.5521, 907.9296
190.0342, 904.9656
190.5163, 898.5989
190.9984, 888.7017
191.4805, 879.8678
191.9627, 874.7232
192.4448, 873.2730
192.9269, 877.0984
193.4090, 890.0549
193.8911, 906.3876
194.3732, 906.8096
194.8554, 889.2791
195.3375, 867.4943
195.8196, 853.3371
196.3017, 846.9224
196.7838, 843.1528
197.2659, 840.6803
197.7481, 839.7644
198.2302, 844.1790
198.7123, 856.4304
199.1944, 866.9961
199.6765, 860.0891
200.1586, 832.3990
200.6408, 812.4819
201.1229, 813.6025
201.6050, 836.1259
202.0871, 852.0850
202.5692, 861.2104
203.0513, 864.1912
203.5335, 860.2422
204.0156, 847.3944
204.4977, 835.7845
204.9798, 831.3063
205.4619, 835.5197
205.9440, 835.1489
206.4262, 827.9932
206.9083, 817.3068
207.3904, 811.5543
207.8725, 811.8450
208.3546, 813.9677
208.8367, 815.3489
209.3189, 815.4597
209.8010, 817.2664
210.2831, 821.7040
210.7652, 827.9740
211.2473, 832.7372
211.7294, 836.1927
212.2116, 837.8187
212.6937, 836.4979
213.1758, 830.7363
213.6579, 827.1601
214.1400, 827.7746
214.6221, 832.1436
215.1043, 833.1386
215.5864, 829.4172
216.0685, 824.3472
216.5506, 821.2695
217.0327, 820.6602
217.5148, 820.7986
217.9970, 821.4634
218.4791, 822.6791
218.9612, 823.7679
219.4433, 824.8760
219.9254, 825.6470
220.4075, 824.9503
220.8897, 820.4943
221.3718, 819.4147
221.8539, 825.9563
222.3360, 843.8718
222.8181, 850.3946
223.3002, 838.5935
223.7824, 819.6780
224.2645, 815.0377
224.7466, 832.2330
225.2287, 850.6407
225.7108, 862.4216
226.1929, 865.3127
226.6750, 867.6593
227.1572, 868.5566
227.6393, 869.1713
228.1214, 873.2989
228.6035, 884.7562
229.0856, 893.9974
229.5677, 894.8381
230.0499, 879.5637
230.5320, 873.9292
231.0141, 882.6180
231.4962, 901.8779
231.9783, 917.1112
232.4604, 929.1130
232.9426, 935.8510
233.4247, 934.6912
233.9068, 918.4055
234.3889, 909.3339
234.8710, 911.5073
235.3531, 923.6440
235.8353, 934.2098
236.3174, 944.3737
236.7995, 951.6866
237.2816, 953.5336
237.7637, 945.4476
238.2458, 940.4739
238.7280, 940.2862
239.2101, 944.8618
239.6922, 953.5801
240.1743, 970.0698
240.6564, 987.1021
241.1385, 997.2289
241.6207, 994.8680
242.1028, 995.9125
242.5849, 1005.265
243.0670, 1024.110
243.5491, 1035.521
244.0313, 1034.558
244.5134, 1030.291
244.9955, 1033.404
245.4776, 1047.259
245.9597, 1062.830
246.4418, 1079.004
246.9240, 1096.644
247.4061, 1109.860
247.8882, 1117.503
248.3703, 1121.458
248.8524, 1123.543
249.3345, 1120.368
249.8167, 1121.249
250.2988, 1129.835
250.7809, 1148.477
251.2630, 1165.977
251.7451, 1183.812
252.2272, 1199.469
252.7094, 1207.178
253.1915, 1201.322
253.6736, 1197.107
254.1557, 1200.543
254.6378, 1214.497
255.1199, 1227.288
255.6021, 1238.915
256.0842, 1249.280
256.5663, 1257.600
257.0484, 1262.139
257.5305, 1267.735
258.0126, 1276.986
258.4948, 1292.118
258.9769, 1304.610
259.4590, 1312.806
259.9411, 1318.946
260.4232, 1331.234
260.9053, 1356.529
261.3875, 1375.474
261.8696, 1376.031
262.3517, 1350.781
262.8338, 1330.833
263.3159, 1318.971
263.7980, 1313.165
264.2802, 1307.641
264.7623, 1303.554
265.2444, 1297.301
265.7265, 1285.791
266.2086, 1267.419
266.6907, 1250.339
267.1729, 1235.508
267.6550, 1222.532
268.1371, 1209.906
268.6192, 1198.163
269.1013, 1185.760
269.5834, 1172.472
270.0656, 1159.348
270.5477, 1140.728
271.0298, 1113.517
271.5119, 1080.863
271.9940, 1056.170
272.4761, 1041.455
272.9583, 1030.107
273.4404, 1015.863
273.9225, 997.0754
274.4046, 985.6194
274.8867, 985.6661
275.3688, 994.0172
275.8510, 995.9553
276.3331, 990.4174
276.8152, 981.6297
277.2973, 972.8966
277.7794, 964.3297
278.2615, 954.6242
278.7437, 942.9617
279.2258, 930.0413
279.7079, 919.4824
280.1900, 911.8662
280.6721, 904.3798
281.1542, 892.5143
281.6364, 875.7960
282.1185, 865.7087
282.6006, 866.7139
283.0827, 875.7839
283.5648, 881.3453
284.0469, 883.3762
284.5291, 882.0776
285.0112, 874.9662
285.4933, 862.3578
285.9754, 855.2202
286.4575, 858.9811
286.9396, 869.6107
287.4217, 871.8062
287.9038, 864.4677
288.3860, 856.5129
288.8681, 858.4222
289.3502, 868.9181
289.8323, 876.8881
290.3144, 879.8670
290.7965, 877.7950
291.2787, 867.3994
291.7608, 847.7295
292.2429, 805.8970
292.7250, 835.0049
293.2071, 851.0677
293.6892, 854.7863
294.1714, 809.1887
294.6535, 827.2728
295.1356, 819.8362
295.6177, 811.3531
296.0998, 838.4001
296.5819, 799.9755
297.0641, 826.4589
297.5462, 827.0323
298.0283, 839.4642
298.5104, 826.2177
298.9925, 820.9025
299.4746, 841.2737
299.9568, 847.4221
300.4389, 831.2195
300.9210, 844.4052
301.4031, 805.0837
301.8852, 811.8379
302.3673, 838.4717
302.8495, 823.5603
303.3316, 837.2154
303.8137, 839.9908
304.2958, 793.3227
304.7779, 832.6419
305.2600, 834.7744
305.7422, 798.7241
306.2243, 835.0970
306.7064, 804.3108
307.1885, 797.4963
307.6706, 808.7220
308.1527, 801.1414
308.6349, 823.2111
309.1170, 816.7165
309.5991, 813.7903
310.0812, 823.3869
310.5633, 828.8604
311.0454, 830.3578
311.5276, 829.5707
312.0097, 827.2695
312.4918, 823.3652
312.9739, 817.7060
313.4560, 806.7146
313.9381, 796.8867
314.4203, 791.8959
314.9024, 791.5009
315.3845, 793.5648
315.8666, 800.9822
316.3487, 808.7106
316.8308, 811.9847
317.3130, 802.9362
317.7951, 795.1312
318.2772, 796.4277
318.7593, 805.7603
319.2414, 810.8393
319.7235, 802.0405
320.2057, 790.1906
320.6878, 783.8701
321.1699, 792.1937
321.6520, 798.9767
322.1341, 799.1002
322.6162, 793.2183
323.0984, 788.2148
323.5805, 788.1552
324.0626, 787.8146
324.5447, 783.6704
325.0268, 766.1489
325.5089, 754.8089
325.9911, 754.6846
326.4732, 764.7680
326.9553, 773.8997
327.4374, 782.2706
327.9195, 788.9437
328.4016, 793.5231
328.8838, 797.8909
329.3659, 797.6287
329.8480, 789.0677
330.3301, 774.2162
330.8122, 765.6509
331.2943, 766.8325
331.7765, 770.7617
332.2586, 773.8757
332.7407, 777.3497
333.2228, 777.6026
333.7049, 772.1651
334.1870, 763.2512
334.6692, 760.7146
335.1513, 768.9493
335.6334, 776.5004
336.1155, 776.1822
336.5976, 764.6223
337.0797, 755.8480
337.5619, 750.7263
338.0440, 748.8687
338.5261, 750.3369
339.0082, 756.7288
339.4903, 761.6284
339.9724, 760.7253
340.4546, 753.2341
340.9367, 746.4827
341.4188, 740.4326
341.9009, 735.7191
342.3830, 733.8836
342.8651, 735.0988
343.3473, 737.6175
343.8294, 741.8690
344.3115, 747.5206
344.7936, 748.5444
345.2757, 743.2638
345.7578, 736.7028
346.2400, 737.3819
346.7221, 744.9391
347.2042, 753.1154
347.6863, 760.9413
348.1684, 767.1090
348.6505, 765.7866
349.1327, 755.3135
349.6148, 743.7287
350.0969, 740.9736
350.5790, 745.5174
351.0611, 751.4873
351.5432, 759.3909
352.0254, 765.8720
352.5075, 763.0436
352.9896, 749.5883
353.4717, 737.6169
353.9538, 741.6560
354.4359, 755.1837
354.9181, 765.2921
355.4002, 762.5983
355.8823, 756.4059
356.3644, 755.8571
356.8465, 761.1803
357.3286, 766.5056
357.8108, 767.1812
358.2929, 765.8640
358.7750, 766.0427
359.2571, 770.9225
359.7392, 776.0362
360.2213, 779.0775
360.7035, 780.0828
361.1856, 780.0569
361.6677, 777.5294
362.1498, 775.0686
362.6319, 774.8659
363.1140, 780.8150
363.5962, 785.7195
364.0783, 786.8268
364.5604, 784.6532
365.0425, 782.9451
365.5246, 783.2881
366.0067, 783.9000
366.4889, 783.6867
366.9710, 781.2761
367.4531, 779.4946
367.9352, 779.8580
368.4173, 781.4586
368.8994, 780.1229
369.3815, 768.8471
369.8636, 760.6886
370.3458, 761.8956
370.8279, 781.6795
371.3100, 794.8679
371.7921, 798.1121
372.2742, 795.5658
372.7563, 797.8536
373.2385, 808.1313
373.7206, 818.0077
374.2027, 824.2368
374.6848, 826.4838
375.1669, 826.2426
375.6490, 822.9020
376.1312, 817.6998
376.6133, 811.4816
377.0954, 802.9619
377.5775, 798.6816
378.0596, 802.4868
378.5417, 814.0287
379.0239, 824.2149
379.5060, 833.2874
379.9881, 840.0435
380.4702, 840.5973
380.9523, 835.2949
381.4344, 834.1128
381.9166, 843.7574
382.3987, 859.2771
382.8808, 865.0081
383.3629, 860.4329
383.8450, 853.2778
384.3271, 848.9966
384.8093, 847.7955
385.2914, 851.1047
385.7735, 863.1232
386.2556, 876.1805
386.7377, 876.8497
387.2198, 866.7679
387.7020, 858.4077
388.1841, 865.0659
388.6662, 877.5462
389.1483, 882.8120
389.6304, 873.3403
390.1125, 863.0120
390.5947, 863.1196
391.0768, 871.1096
391.5589, 878.9965
392.0410, 882.7001
392.5231, 884.8170
393.0052, 887.2274
393.4874, 890.3670
393.9695, 893.5062
394.4516, 895.1415
394.9337, 896.6981
395.4158, 900.7916
395.8979, 910.5450
396.3801, 920.8976
396.8622, 930.2289
397.3443, 938.8463
397.8264, 944.7255
398.3085, 943.9421
398.7906, 941.4524
399.2728, 943.3287
399.7549, 957.3517
400.2370, 967.1268
400.7191, 967.1958
401.2012, 956.4451
401.6833, 953.3511
402.1655, 962.7888
402.6476, 975.1168
403.1297, 982.0986
403.6118, 982.1745
404.0939, 980.5387
404.5760, 977.0035
405.0582, 972.2925
405.5403, 971.2918
406.0224, 975.6361
406.5045, 978.9554
406.9866, 974.9367
407.4688, 962.8549
407.9509, 956.9255
408.4330, 960.5994
408.9151, 968.3270
409.3972, 966.6923
409.8793, 955.6835
410.3615, 947.0378
410.8436, 950.7490
411.3257, 962.5360
411.8078, 967.5085
412.2899, 964.1746
412.7720, 956.6357
413.2542, 948.6019
413.7363, 940.2341
414.2184, 931.8232
414.7005, 921.3322
415.1826, 908.2432
415.6647, 910.1937
416.1469, 910.1367
416.6290, 908.1813
417.1111, 898.6387
417.5932, 898.8934
418.0753, 895.2219
418.5574, 891.3892
419.0396, 893.0221
419.5217, 884.5831
420.0038, 886.1299
420.4859, 883.6907
420.9680, 883.0758
421.4501, 878.5103
421.9323, 875.1644
422.4144, 875.7710
422.8965, 874.1893
423.3786, 869.1691
423.8607, 855.6735
424.3428, 847.8575
424.8250, 845.7714
425.3071, 846.3835
425.7892, 849.5005
426.2713, 858.1666
426.7534, 861.0226
427.2355, 854.4304
427.7177, 844.2709
428.1998, 839.3442
428.6819, 841.4377
429.1640, 844.6551
429.6461, 847.1776
430.1282, 849.0125
430.6104, 853.9571
431.0925, 863.3041
431.5746, 872.3091
432.0567, 875.7992
432.5388, 873.6361
433.0209, 870.1362
433.5031, 865.2694
433.9852, 860.3911
434.4673, 859.5192
434.9494, 862.5754
435.4315, 865.7082
435.9136, 865.2341
436.3958, 862.7393
436.8779, 862.4190
437.3600, 865.2576
437.8421, 869.3463
438.3242, 873.5925
438.8063, 877.5436
439.2885, 879.9056
439.7706, 879.3176
440.2527, 877.2455
440.7348, 873.9769
441.2169, 869.1611
441.6990, 867.0680
442.1812, 873.7057
442.6633, 883.1547
443.1454, 888.4557
443.6275, 883.8488
444.1096, 878.1712
444.5917, 874.7529
445.0739, 873.4020
445.5560, 870.8082
446.0381, 861.9005
446.5202, 854.5225
447.0023, 853.3459
447.4844, 867.4716
447.9666, 876.5422
448.4487, 879.6365
448.9308, 877.6871
449.4129, 872.1711
449.8950, 858.3738
450.3771, 849.0269
450.8593, 851.3108
451.3413, 868.6246
451.8235, 876.8101
452.3056, 873.0938
452.7877, 864.6656
453.2698, 861.3216
453.7519, 863.5562
454.2340, 865.2968
454.7162, 864.0081
455.1983, 861.0209
455.6804, 862.2223
456.1625, 867.9194
456.6446, 872.4075
457.1267, 870.0827
457.6089, 862.7313
458.0910, 854.6526
458.5731, 845.6564
459.0552, 838.4013
459.5373, 837.6440
460.0194, 841.7624
460.5016, 845.3765
460.9837, 843.8223
461.4658, 841.3101
461.9479, 842.4488
462.4300, 848.7111
462.9121, 853.2384
463.3943, 851.2349
463.8764, 845.7855
464.3585, 840.8941
464.8406, 838.3242
465.3227, 835.9274
465.8048, 831.2535
466.2870, 824.3422
466.7691, 823.4176
467.2512, 836.7161
467.7333, 851.2103
468.2154, 858.7881
468.6975, 853.5777
469.1797, 851.1650
469.6618, 854.2295
470.1439, 859.9368
470.6260, 860.1790
471.1081, 852.4736
471.5902, 845.2501
472.0724, 841.6735
472.5545, 841.7576
473.0366, 846.0116
473.5187, 856.0301
474.0008, 865.6327
474.4829, 865.0990
474.9651, 855.4434
475.4472, 849.1151
475.9293, 851.9786
476.4114, 859.1022
476.8935, 860.5123
477.3756, 856.4874
477.8578, 850.4531
478.3399, 843.7078
478.8220, 836.9139
479.3041, 831.0189
479.7862, 826.2074
480.2683, 822.3337
480.7505, 818.8185
481.2326, 816.1707
481.7147, 815.4129
482.1968, 820.9068
482.6789, 825.1234
483.1610, 823.1844
483.6432, 813.9396
484.1253, 805.6401
484.6074, 800.9594
485.0895, 797.8094
485.5716, 794.3392
486.0537, 790.0353
486.5359, 785.7188
487.0180, 780.0732
487.5001, 774.1478
487.9822, 773.6790
488.4643, 783.2118
488.9464, 790.7667
489.4286, 789.5615
489.9107, 777.5409
490.3928, 767.7541
490.8749, 760.2365
491.3570, 755.0594
491.8391, 752.9337
492.3213, 753.8722
492.8034, 754.7499
493.2855, 754.1441
493.7676, 752.8665
494.2497, 753.5689
494.7318, 756.1964
495.2140, 757.9858
495.6961, 755.7498
496.1782, 751.3150
496.6603, 747.7945
497.1424, 745.6237
497.6245, 744.8142
498.1067, 747.1796
498.5888, 750.9375
499.0709, 751.9951
499.5530, 742.8779
500.0351, 735.1198
500.5172, 737.1774
500.9994, 751.5748
501.4815, 760.7197
501.9636, 755.8835
502.4457, 746.4431
502.9278, 740.8693
503.4099, 743.8168
503.8921, 745.4207
504.3742, 743.7284
504.8563, 739.9703
505.3384, 739.7699
505.8205, 745.6468
506.3026, 750.3748
506.7848, 750.1349
507.2669, 744.2460
507.7490, 738.2817
508.2311, 731.8790
508.7132, 726.2921
509.1953, 723.4993
509.6775, 723.2940
510.1596, 723.1543
510.6417, 721.2043
511.1238, 719.4958
511.6059, 723.5716
512.0880, 732.8559
512.5701, 740.9010
513.0522, 742.3664
513.5344, 740.2635
514.0165, 738.1659
514.4986, 736.4924
514.9807, 735.4850
515.4628, 734.3489
515.9449, 734.1296
516.4271, 736.5929
516.9092, 750.2507
517.3913, 759.2883
517.8734, 754.2382
518.3555, 734.1089
518.8376, 721.0238
519.3198, 722.2928
519.8019, 727.9521
520.2840, 732.4135
520.7661, 736.5560
521.2482, 737.2604
521.7303, 731.8958
522.2125, 724.4217
522.6946, 725.1345
523.1767, 736.4676
523.6588, 745.5642
524.1409, 745.2225
524.6230, 737.2953
525.1052, 737.5563
525.5873, 747.1168
526.0694, 756.0656
526.5515, 751.0385
527.0336, 737.3073
527.5157, 730.8228
527.9979, 738.4050
528.4800, 749.4586
528.9621, 751.1279
529.4442, 746.6975
529.9263, 745.9406
530.4084, 759.0800
530.8906, 774.0029
531.3727, 781.6524
531.8548, 780.5107
532.3369, 779.0298
532.8190, 779.2043
533.3011, 780.6980
533.7833, 783.1995
534.2654, 788.0469
534.7475, 792.2415
535.2296, 795.5357
535.7117, 797.9976
536.1938, 799.9402
536.6760, 801.6776
537.1581, 802.3499
537.6402, 800.9047
538.1223, 796.9838
538.6044, 796.3062
539.0865, 799.7015
539.5687, 803.9332
540.0508, 804.0291
540.5329, 800.8696
541.0150, 801.2621
541.4971, 808.4458
541.9792, 818.0963
542.4614, 823.3597
542.9435, 824.8954
543.4256, 825.7510
543.9077, 827.7645
544.3898, 829.9700
544.8719, 831.2215
545.3541, 831.2289
545.8362, 831.5950
546.3183, 833.9505
546.8004, 836.7180
547.2825, 838.1953
547.7646, 834.7676
548.2468, 833.5786
548.7289, 835.1548
549.2110, 839.8665
549.6931, 849.8718
550.1752, 871.8182
550.6573, 889.9143
551.1395, 896.2477
551.6216, 887.8606
552.1037, 886.2390
552.5858, 894.0304
553.0679, 902.8173
553.5500, 900.8824
554.0322, 888.8099
554.5143, 880.5370
554.9964, 879.8848
555.4785, 884.1147
555.9606, 889.1196
556.4427, 894.8359
556.9249, 900.7946
557.4070, 907.1456
557.8891, 913.3597
558.3712, 919.1139
558.8533, 924.4271
559.3354, 928.3085
559.8176, 929.2568
560.2997, 928.9213
560.7818, 928.9960
561.2639, 930.4260
561.7460, 931.6885
562.2281, 932.9630
562.7103, 933.8935
563.1924, 933.2838
563.6745, 930.9315
564.1566, 927.2991
564.6387, 922.3121
565.1208, 915.7719
565.6030, 909.6676
566.0851, 904.0435
566.5672, 898.9448
567.0493, 893.8768
567.5314, 889.0298
568.0135, 887.4151
568.4957, 891.3685
568.9778, 895.7224
569.4599, 890.2340
569.9420, 876.9818
570.4241, 865.0137
570.9063, 861.3157
571.3884, 859.8704
571.8705, 853.9099
572.3526, 843.2144
572.8347, 832.8269
573.3168, 823.2492
573.7990, 816.3690
574.2811, 814.2650
574.7632, 824.3569
575.2453, 829.2043
575.7274, 821.4218
576.2095, 807.4002
576.6917, 800.4127
577.1738, 807.0775
577.6559, 809.6143
578.1380, 800.5663
578.6201, 781.1867
579.1022, 773.9641
579.5844, 781.9433
580.0665, 790.7603
580.5486, 786.5516
581.0307, 771.8504
581.5128, 766.1111
581.9949, 773.2051
582.4771, 783.5284
582.9592, 785.4578
583.4413, 781.3322
583.9234, 776.9333
584.4055, 777.1151
584.8876, 776.0575
585.3698, 765.7252
585.8519, 748.6707
586.3340, 738.5453
586.8161, 751.1253
587.2982, 764.8540
587.7803, 765.8639
588.2625, 743.8317
588.7446, 732.7657
589.2267, 742.4105
589.7088, 757.9669
590.1909, 762.6831
590.6730, 751.0037
591.1552, 743.7261
591.6373, 745.1971
592.1194, 752.6826
592.6015, 759.3668
593.0836, 765.4100
593.5657, 768.0269
594.0479, 763.0662
594.5300, 753.7662
595.0121, 748.8362
595.4942, 748.4879
595.9763, 750.7645
596.4584, 757.2928
596.9406, 764.2986
597.4227, 766.6743
597.9048, 761.1219
598.3869, 754.2376
598.8690, 746.9814
599.3511, 740.7531
599.8333, 738.1147
600.3154, 741.0516
600.7975, 746.2870
601.2796, 755.1979
601.7617, 767.5603
602.2438, 771.9446
602.7260, 765.3008
603.2081, 756.0634
603.6902, 748.5645
604.1723, 742.5621
604.6544, 741.9760
605.1365, 748.4349
605.6187, 755.9822
606.1008, 755.5064
606.5829, 748.8435
607.0650, 743.7922
607.5471, 744.0170
608.0292, 745.6661
608.5114, 742.7686
608.9935, 737.0709
609.4756, 734.7662
609.9577, 740.8228
610.4398, 749.9870
610.9219, 760.6775
611.4041, 773.7488
611.8862, 781.1248
612.3683, 776.2860
612.8504, 768.3171
613.3325, 764.5309
613.8146, 769.5852
614.2968, 769.0692
614.7789, 759.8615
615.2610, 741.8818
615.7431, 746.0842
616.2252, 748.2797
616.7073, 748.5760
617.1895, 741.2852
617.6716, 743.7917
618.1537, 742.3718
618.6358, 740.7910
619.1179, 744.6763
619.6000, 738.4891
620.0822, 742.2876
620.5643, 742.1001
621.0464, 743.7369
621.5285, 741.4232
622.0106, 740.3297
622.4927, 743.1880
622.9749, 743.8580
623.4570, 741.0896
623.9391, 742.8424
624.4212, 736.5172
624.9033, 738.7071
625.3854, 737.7012
625.8676, 737.5145
626.3497, 735.1260
626.8318, 728.1643
627.3139, 717.4890
627.7960, 711.9506
628.2781, 711.9296
