##NAMES=Trilithionite
##RRUFFID=R060004
##IDEAL CHEMISTRY=KLi_1.5_Al_1.5_(Si_3_Al)O_10_F_2_
##LOCALITY=Mount Begbie, Revelstoke, British Columbia, Canada
##OWNER=RRUFF
##SOURCE=Bob Downs
##DESCRIPTION=Aggregate of coarse purple crystals associated with elbaite, R060003
##STATUS=The identification of this mineral has been confirmed by X-ray diffraction and chemical analysis
##URL=rruff.info/R060004
##MEASURED CHEMISTRY=(K_0.99_[box]_0.01_)(Li_0.56_Al_0.43_Mn_0.01_)_3_(Si_0.85_Al_0.15_)_4_O_10_(F_0.54_(OH)_0.46_)_2_
131.4935, 124.2765
131.9756, 124.0650
132.4577, 123.8251
132.9398, 123.5759
133.4219, 123.3408
133.9040, 123.0992
134.3862, 122.9823
134.8683, 123.2548
135.3504, 123.9062
135.8325, 124.3495
136.3146, 124.3135
136.7967, 123.8570
137.2789, 123.5756
137.7610, 123.4842
138.2431, 123.5163
138.7252, 123.6566
139.2073, 123.9700
139.6894, 124.0782
140.1716, 123.7253
140.6537, 122.7907
141.1358, 122.3351
141.6179, 122.4937
142.1000, 122.9814
142.5821, 123.2673
143.0643, 123.3042
143.5464, 123.2527
144.0285, 123.1409
144.5106, 122.8575
144.9927, 122.8146
145.4748, 123.0956
145.9570, 123.6005
146.4391, 124.0411
146.9212, 124.4628
147.4033, 124.7728
147.8854, 124.9301
148.3675, 124.8992
148.8497, 124.7612
149.3318, 124.3865
149.8139, 123.8622
150.2960, 123.6408
150.7781, 124.0161
151.2602, 124.4771
151.7424, 124.7450
152.2245, 124.6505
152.7066, 124.5585
153.1887, 124.4777
153.6708, 124.4101
154.1529, 124.3782
154.6351, 124.4067
155.1172, 124.4554
155.5993, 124.4974
156.0814, 124.5021
156.5635, 124.5282
157.0456, 124.5291
157.5278, 124.5063
158.0099, 124.6861
158.4920, 125.2937
158.9741, 126.0453
159.4562, 126.6905
159.9383, 127.0919
160.4205, 127.4539
160.9026, 127.8583
161.3847, 128.3156
161.8668, 128.7222
162.3489, 128.9866
162.8310, 129.1991
163.3132, 129.4640
163.7953, 130.0532
164.2774, 130.5204
164.7595, 130.5262
165.2416, 129.9636
165.7237, 129.5292
166.2059, 129.6345
166.6880, 130.0697
167.1701, 130.5167
167.6522, 130.8353
168.1343, 131.1172
168.6164, 131.4192
169.0985, 131.7453
169.5807, 132.1058
170.0628, 132.5069
170.5449, 132.9484
171.0270, 133.4273
171.5091, 134.0297
171.9912, 134.6289
172.4734, 135.1057
172.9555, 135.4429
173.4376, 135.6740
173.9197, 135.7240
174.4018, 135.6730
174.8839, 135.7401
175.3661, 136.0773
175.8482, 136.5943
176.3303, 137.2192
176.8124, 138.0108
177.2945, 138.7380
177.7766, 139.1297
178.2588, 139.2347
178.7409, 139.2386
179.2230, 139.2386
179.7051, 139.2213
180.1872, 139.1646
180.6693, 139.0671
181.1515, 138.9232
181.6336, 138.7769
182.1157, 138.6094
182.5978, 138.2868
183.0799, 137.5909
183.5620, 136.6538
184.0442, 135.8478
184.5263, 135.2461
185.0084, 134.7927
185.4905, 134.4284
185.9726, 134.1505
186.4547, 133.8490
186.9369, 133.4162
187.4190, 132.8794
187.9011, 132.3781
188.3832, 131.9615
188.8653, 131.5731
189.3474, 131.0274
189.8296, 130.3117
190.3117, 129.6765
190.7938, 129.3753
191.2759, 129.3711
191.7580, 129.3724
192.2401, 129.3140
192.7223, 129.2191
193.2044, 129.1793
193.6865, 129.2060
194.1686, 129.1885
194.6507, 128.9574
195.1328, 128.5264
195.6150, 128.2426
196.0971, 128.2506
196.5792, 128.4513
197.0613, 128.4196
197.5434, 128.1109
198.0255, 127.7774
198.5077, 127.7177
198.9898, 127.9449
199.4719, 128.0735
199.9540, 127.9923
200.4361, 127.7380
200.9182, 127.4960
201.4004, 127.2668
201.8825, 127.0562
202.3646, 126.8663
202.8467, 126.6982
203.3288, 126.5667
203.8109, 126.4874
204.2931, 126.4533
204.7752, 126.3945
205.2573, 126.3005
205.7394, 126.2087
206.2215, 126.1723
206.7036, 126.2097
207.1858, 126.2016
207.6679, 126.0866
208.1500, 125.8787
208.6321, 125.8149
209.1142, 125.9423
209.5963, 126.1245
210.0785, 126.1945
210.5606, 126.1012
211.0427, 126.0927
211.5248, 126.2768
212.0069, 126.6459
212.4890, 126.8050
212.9712, 126.6594
213.4533, 126.4517
213.9354, 126.4906
214.4175, 126.8977
214.8996, 127.1781
215.3817, 127.1717
215.8639, 126.8775
216.3460, 126.7215
216.8281, 126.7662
217.3102, 126.8642
217.7923, 126.8296
218.2744, 126.5761
218.7565, 126.4115
219.2387, 126.4282
219.7208, 126.6297
220.2029, 126.8163
220.6850, 126.9992
221.1671, 127.1509
221.6492, 127.2272
222.1314, 127.1854
222.6135, 127.1685
223.0956, 127.2141
223.5777, 127.3258
224.0598, 127.4340
224.5419, 127.5411
225.0241, 127.6436
225.5062, 127.7237
225.9883, 127.7210
226.4704, 127.8295
226.9525, 128.1408
227.4346, 128.6745
227.9168, 129.0039
228.3989, 128.9943
228.8810, 128.9242
229.3631, 129.0927
229.8452, 129.6178
230.3273, 130.1562
230.8095, 130.6582
231.2916, 131.1259
231.7737, 131.5011
232.2558, 131.7237
232.7379, 131.9166
233.2200, 132.2050
233.7022, 132.6379
234.1843, 133.0681
234.6664, 133.4551
235.1485, 133.7945
235.6306, 134.1903
236.1127, 134.6817
236.5949, 135.1941
237.0770, 135.6496
237.5591, 135.9840
238.0412, 136.3872
238.5233, 136.9254
239.0054, 137.6010
239.4876, 138.1620
239.9697, 138.5411
240.4518, 138.8856
240.9339, 139.3159
241.4160, 139.8201
241.8981, 140.4381
242.3803, 141.2206
242.8624, 142.1637
243.3445, 142.9946
243.8266, 143.6924
244.3087, 144.3092
244.7908, 144.8808
245.2730, 145.3842
245.7551, 145.8822
246.2372, 146.3647
246.7193, 146.8363
247.2014, 147.3929
247.6835, 148.1074
248.1657, 148.8093
248.6478, 149.3408
249.1299, 149.5863
249.6120, 149.9197
250.0941, 150.4047
250.5762, 151.0243
251.0584, 151.6339
251.5405, 152.1854
252.0226, 152.7875
252.5047, 153.5243
252.9868, 154.4846
253.4689, 155.3849
253.9511, 156.1703
254.4332, 156.8745
254.9153, 157.6758
255.3974, 158.6663
255.8795, 159.6177
256.3616, 160.3491
256.8438, 160.7429
257.3259, 161.2388
257.8080, 161.8695
258.2901, 162.6246
258.7722, 163.5353
259.2543, 164.7778
259.7365, 165.8802
260.2186, 166.5733
260.7007, 166.7197
261.1828, 166.8504
261.6649, 167.0449
262.1470, 167.2189
262.6292, 167.1297
263.1113, 166.7515
263.5934, 166.1515
264.0755, 165.3153
264.5576, 164.1355
265.0397, 163.1002
265.5219, 162.3141
266.0040, 161.6133
266.4861, 160.5776
266.9682, 159.1401
267.4503, 157.5565
267.9324, 155.9239
268.4146, 154.1625
268.8967, 152.6376
269.3788, 151.4088
269.8609, 150.3596
270.3430, 149.3078
270.8251, 148.2566
271.3073, 147.1972
271.7894, 146.1267
272.2715, 145.0340
272.7536, 144.0328
273.2357, 143.1437
273.7178, 142.3265
274.2000, 141.4983
274.6821, 140.6445
275.1642, 139.8538
275.6463, 139.1327
276.1284, 138.4804
276.6105, 138.0298
277.0927, 137.8246
277.5748, 137.7254
278.0569, 137.5668
278.5390, 137.3462
279.0211, 137.1027
279.5032, 136.8407
279.9854, 136.5673
280.4675, 136.3073
280.9496, 136.0522
281.4317, 135.8428
281.9138, 135.7678
282.3959, 135.8362
282.8781, 135.8116
283.3602, 135.6107
283.8423, 135.2727
284.3244, 134.9483
284.8065, 134.6278
285.2886, 134.3678
285.7708, 134.2140
286.2529, 134.1650
286.7350, 134.2336
287.2171, 134.5061
287.6992, 134.8381
288.1813, 134.7287
288.6635, 134.1506
289.1456, 133.6144
289.6277, 133.6090
290.1098, 134.0479
290.5919, 134.3507
291.0740, 134.4149
291.5562, 134.3180
292.0383, 134.1531
292.5204, 133.9249
293.0025, 133.7648
293.4846, 133.8385
293.9667, 134.0635
294.4489, 134.1273
294.9310, 133.9580
295.4131, 133.7149
295.8952, 133.6272
296.3773, 133.6800
296.8594, 133.7643
297.3416, 133.8614
297.8237, 133.9446
298.3058, 133.9381
298.7879, 133.8275
299.2700, 133.6794
299.7521, 133.5533
300.2343, 133.4505
300.7164, 133.3822
301.1985, 133.3702
301.6806, 133.3879
302.1627, 133.3980
302.6448, 133.3985
303.1270, 133.3862
303.6091, 133.3367
304.0912, 133.2713
304.5733, 133.2328
305.0554, 133.2444
305.5375, 133.2881
306.0197, 133.3946
306.5018, 133.5547
306.9839, 133.6132
307.4660, 133.3258
307.9481, 132.8944
308.4302, 132.6085
308.9124, 132.6250
309.3945, 132.7514
309.8766, 132.8627
310.3587, 132.9586
310.8408, 133.0295
311.3229, 133.0860
311.8051, 133.1091
312.2872, 133.0723
312.7693, 132.9392
313.2514, 132.7988
313.7335, 132.7160
314.2156, 132.6694
314.6978, 132.5957
315.1799, 132.3355
315.6620, 132.1165
316.1441, 132.1427
316.6262, 132.5517
317.1083, 132.9146
317.5905, 133.0498
318.0726, 133.0149
318.5547, 132.9122
319.0368, 132.6561
319.5189, 132.4348
320.0010, 132.3761
320.4832, 132.5338
320.9653, 132.6242
321.4474, 132.5440
321.9295, 132.3634
322.4116, 132.1647
322.8937, 131.8937
323.3759, 131.6796
323.8580, 131.5700
324.3401, 131.5720
324.8222, 131.6064
325.3043, 131.6636
325.7864, 131.7493
326.2686, 131.8675
326.7507, 132.0700
327.2328, 132.2480
327.7149, 132.4391
328.1970, 132.6242
328.6791, 132.6213
329.1613, 132.1453
329.6434, 131.7030
330.1255, 131.5620
330.6076, 132.1678
331.0897, 132.4201
331.5718, 132.0684
332.0540, 131.3565
332.5361, 130.9939
333.0182, 131.2135
333.5003, 131.4732
333.9824, 131.5562
334.4645, 131.4051
334.9467, 131.2498
335.4288, 131.0618
335.9109, 130.8917
336.3930, 130.8377
336.8751, 130.9514
337.3572, 131.0626
337.8394, 131.1353
338.3215, 131.1711
338.8036, 131.0923
339.2857, 130.8204
339.7678, 130.5701
340.2499, 130.6381
340.7320, 131.1013
341.2141, 131.4041
341.6963, 131.3580
342.1784, 131.0594
342.6605, 130.9801
343.1426, 131.1530
343.6247, 131.3889
344.1068, 131.5622
344.5890, 131.6702
345.0711, 131.6866
345.5532, 131.5743
346.0353, 131.4131
346.5174, 131.3903
346.9995, 131.5035
347.4817, 131.6124
347.9638, 131.5861
348.4459, 131.4787
348.9280, 131.5234
349.4101, 131.7702
349.8922, 132.0299
350.3744, 131.9667
350.8565, 131.6764
351.3386, 131.5309
351.8207, 131.8453
352.3028, 132.3705
352.7849, 132.7148
353.2671, 132.8758
353.7492, 132.9261
354.2313, 132.8041
354.7134, 132.6332
355.1955, 132.6388
355.6776, 133.0342
356.1598, 133.5083
356.6419, 133.8138
357.1240, 133.9581
357.6061, 133.9774
358.0882, 133.7765
358.5703, 133.5173
359.0525, 133.3582
359.5346, 133.3385
360.0167, 133.4121
360.4988, 133.5874
360.9809, 133.8351
361.4630, 134.0911
361.9452, 134.3856
362.4273, 134.6348
362.9094, 134.7623
363.3915, 134.7221
363.8736, 134.7316
364.3557, 134.9060
364.8379, 135.1515
365.3200, 135.3582
365.8021, 135.4608
366.2842, 135.5620
366.7663, 135.7138
367.2484, 135.9198
367.7306, 136.0493
368.2127, 135.9628
368.6948, 135.8761
369.1769, 135.9323
369.6590, 136.2760
370.1411, 136.5983
370.6233, 136.9319
371.1054, 137.2445
371.5875, 137.3974
372.0696, 137.2341
372.5517, 137.0993
373.0338, 137.1329
373.5160, 137.3686
373.9981, 137.6957
374.4802, 138.1947
374.9623, 138.7240
375.4444, 139.0327
375.9265, 139.0489
376.4087, 139.0462
376.8908, 139.0760
377.3729, 139.1407
377.8550, 139.3898
378.3371, 139.9003
378.8192, 140.3842
379.3014, 140.4733
379.7835, 140.1437
380.2656, 139.9855
380.7477, 140.1477
381.2298, 140.5134
381.7119, 140.7937
382.1941, 140.9835
382.6762, 141.1857
383.1583, 141.5086
383.6404, 141.9079
384.1225, 142.1988
384.6046, 142.3565
385.0868, 142.4274
385.5689, 142.3933
386.0510, 142.3018
386.5331, 142.3282
387.0152, 142.6721
387.4973, 143.1367
387.9795, 143.4379
388.4616, 143.5735
388.9437, 143.6533
389.4258, 143.7069
389.9079, 143.7753
390.3900, 143.9207
390.8722, 144.2158
391.3543, 144.5323
391.8364, 144.6550
392.3185, 144.6837
392.8006, 145.2243
393.2827, 145.7177
393.7649, 146.1545
394.2470, 146.5378
394.7291, 146.7071
395.2112, 147.1527
395.6933, 147.4875
396.1754, 147.8179
396.6576, 148.3024
397.1397, 148.5028
397.6218, 148.9848
398.1039, 149.3544
398.5860, 149.4104
399.0681, 149.7505
399.5503, 149.9023
400.0324, 150.0215
400.5145, 150.2229
400.9966, 150.5978
401.4787, 150.9344
401.9608, 151.2326
402.4430, 151.4859
402.9251, 151.6674
403.4072, 151.7845
403.8893, 151.8200
404.3714, 151.7462
404.8535, 151.5228
405.3357, 151.3500
405.8178, 151.2237
406.2999, 151.1528
406.7820, 151.1719
407.2641, 151.3004
407.7462, 151.4098
408.2284, 151.4902
408.7105, 151.5207
409.1926, 151.3671
409.6747, 151.0106
410.1568, 150.6152
410.6389, 150.3233
411.1211, 150.1210
411.6032, 149.9042
412.0853, 149.6459
412.5674, 149.3881
413.0495, 149.2029
413.5316, 149.0750
414.0138, 148.9282
414.4959, 148.6589
414.9780, 148.3645
415.4601, 148.2579
415.9422, 148.3653
416.4243, 148.3814
416.9065, 147.9034
417.3886, 147.2056
417.8707, 146.7093
418.3528, 146.7412
418.8349, 146.8396
419.3170, 146.6722
419.7992, 146.2979
420.2813, 146.0060
420.7634, 146.0139
421.2455, 146.0799
421.7276, 146.0336
422.2097, 145.7903
422.6919, 145.5732
423.1740, 145.4699
423.6561, 145.4188
424.1382, 145.3229
424.6203, 144.9642
425.1024, 144.7670
425.5846, 144.9120
426.0667, 145.4244
426.5488, 145.7988
427.0309, 145.9955
427.5130, 146.0930
427.9951, 146.1359
428.4773, 146.0851
428.9594, 146.0666
429.4415, 146.0941
429.9236, 146.1577
430.4057, 146.2359
430.8878, 146.3315
431.3700, 146.4369
431.8521, 146.5722
432.3342, 146.7385
432.8163, 146.7783
433.2984, 146.6565
433.7805, 146.5349
434.2627, 146.6109
434.7448, 146.8687
435.2269, 147.1531
435.7090, 147.4389
436.1911, 147.7174
436.6732, 147.9676
437.1554, 148.1909
437.6375, 148.3978
438.1196, 148.6129
438.6017, 148.8083
439.0838, 148.9192
439.5659, 148.9208
440.0480, 148.9278
440.5302, 149.1309
441.0123, 149.3920
441.4944, 149.4798
441.9765, 149.0978
442.4586, 148.6826
442.9407, 148.5104
443.4229, 148.5638
443.9050, 148.6471
444.3871, 148.7430
444.8692, 148.8026
445.3513, 148.7846
445.8334, 148.6168
446.3156, 148.4915
446.7977, 148.5091
447.2798, 148.5808
447.7619, 148.5492
448.2440, 148.3230
448.7261, 148.0771
449.2083, 147.8186
449.6904, 147.5383
450.1725, 147.4073
450.6546, 147.5131
451.1367, 147.6610
451.6188, 147.7114
452.1010, 147.6552
452.5831, 147.5223
453.0652, 147.2850
453.5473, 147.0009
454.0294, 146.7773
454.5115, 146.6101
454.9937, 146.5396
455.4758, 146.6800
455.9579, 146.9580
456.4400, 146.8746
456.9221, 146.3858
457.4042, 145.9345
457.8864, 146.0679
458.3685, 146.5949
458.8506, 146.9613
459.3327, 146.9991
459.8148, 146.8629
460.2969, 146.6608
460.7791, 146.4206
461.2612, 146.2408
461.7433, 146.2674
462.2254, 146.3220
462.7075, 146.2356
463.1896, 145.9833
463.6718, 145.7190
464.1539, 145.5089
464.6360, 145.3361
465.1181, 145.1881
465.6002, 144.9847
466.0823, 144.8903
466.5645, 145.0268
467.0466, 145.3264
467.5287, 145.5290
468.0108, 145.5510
468.4929, 145.5167
468.9750, 145.4555
469.4572, 145.3439
469.9393, 145.2848
470.4214, 145.2767
470.9035, 145.3200
471.3856, 145.4332
471.8677, 145.6580
472.3499, 145.8110
472.8320, 145.8372
473.3141, 145.7821
473.7962, 145.8185
474.2783, 145.9627
474.7604, 146.0912
475.2426, 146.1328
475.7247, 146.0973
476.2068, 146.0530
476.6889, 146.0137
477.1710, 145.9048
477.6531, 145.5809
478.1353, 145.1157
478.6174, 144.7085
479.0995, 144.4150
479.5816, 144.2154
480.0637, 144.1217
480.5458, 144.1123
481.0280, 144.1116
481.5101, 144.1290
481.9922, 144.1006
482.4743, 143.9697
482.9564, 143.7199
483.4385, 143.4137
483.9207, 142.9600
484.4028, 142.5135
484.8849, 142.2380
485.3670, 142.3858
485.8491, 142.4707
486.3312, 142.3475
486.8134, 142.0703
487.2955, 141.9160
487.7776, 142.0069
488.2597, 142.0848
488.7418, 142.0490
489.2239, 141.8839
489.7061, 141.6708
490.1882, 141.3486
490.6703, 141.0699
491.1524, 141.0522
491.6345, 141.3426
492.1166, 141.5197
492.5988, 141.4896
493.0809, 141.3069
493.5630, 141.0518
494.0451, 140.7260
494.5272, 140.5093
495.0093, 140.5993
495.4915, 140.8578
495.9736, 140.9478
496.4557, 140.8447
496.9378, 140.7312
497.4199, 140.8283
497.9020, 141.0072
498.3842, 141.0589
498.8663, 140.8311
499.3484, 140.5935
499.8305, 140.5442
500.3126, 140.6215
500.7947, 140.6668
501.2769, 140.6141
501.7590, 140.5255
502.2411, 140.4103
502.7232, 140.2572
503.2053, 140.1650
503.6874, 140.1580
504.1696, 140.2104
504.6517, 140.3137
505.1338, 140.5753
505.6159, 140.6827
506.0980, 140.5204
506.5801, 140.2338
507.0623, 140.1796
507.5444, 140.4265
508.0265, 140.6820
508.5086, 140.8347
508.9907, 140.8997
509.4728, 141.0255
509.9550, 141.2258
510.4371, 141.3819
510.9192, 141.3345
511.4013, 141.1450
511.8834, 141.0501
512.3655, 141.0973
512.8477, 141.2129
513.3298, 141.3747
513.8119, 141.5423
514.2940, 141.6168
514.7761, 141.4511
515.2582, 141.2564
515.7404, 141.1722
516.2225, 141.1981
516.7046, 141.3082
517.1867, 141.6047
517.6688, 141.9022
518.1509, 142.0644
518.6331, 141.9936
519.1152, 141.9773
519.5973, 142.0631
520.0794, 142.2243
520.5615, 142.4292
521.0436, 142.7587
521.5258, 142.9945
522.0079, 143.0435
522.4900, 142.9637
522.9721, 143.0973
523.4542, 143.5564
523.9363, 143.8902
524.4185, 143.7700
524.9006, 143.2000
525.3827, 142.9090
525.8648, 142.9281
526.3469, 143.0681
526.8290, 143.1192
527.3112, 143.1178
527.7933, 143.2074
528.2754, 143.4537
528.7575, 143.7542
529.2396, 144.0356
529.7217, 144.2812
530.2039, 144.4352
530.6860, 144.4003
531.1681, 144.3161
531.6502, 144.2581
532.1323, 144.2306
532.6144, 144.2737
533.0966, 144.4118
533.5787, 144.6165
534.0608, 144.8755
534.5429, 145.2486
535.0250, 145.5688
535.5071, 145.7852
535.9893, 145.9510
536.4714, 146.1454
536.9535, 146.4251
537.4356, 146.6196
537.9177, 146.6562
538.3998, 146.5724
538.8820, 146.5930
539.3641, 146.7278
539.8462, 146.9218
540.3283, 147.1736
540.8104, 147.4669
541.2925, 147.6919
541.7747, 147.8406
542.2568, 147.9352
542.7389, 147.9312
543.2210, 147.8934
543.7031, 147.9908
544.1852, 148.3477
544.6674, 148.7317
545.1495, 148.9015
545.6316, 148.9280
546.1137, 148.9880
546.5958, 149.1498
547.0779, 149.3771
547.5601, 149.7048
548.0422, 150.1379
548.5243, 150.4385
549.0064, 150.4172
549.4885, 150.3453
549.9706, 150.3857
550.4528, 150.5428
550.9349, 150.8126
551.4170, 151.2764
551.8991, 151.7900
552.3812, 152.1207
552.8633, 152.2107
553.3455, 152.3588
553.8276, 152.6739
554.3097, 153.0757
554.7918, 153.2980
555.2739, 153.3383
555.7560, 153.3171
556.2382, 153.2741
556.7203, 153.2291
557.2024, 153.2109
557.6845, 153.2207
558.1666, 153.3020
558.6487, 153.5942
559.1309, 153.9428
559.6130, 154.1346
560.0951, 154.0561
560.5772, 153.9382
561.0593, 153.8791
561.5414, 153.8560
562.0236, 153.8304
562.5057, 153.8567
562.9878, 153.8106
563.4699, 153.6103
563.9520, 153.2766
564.4341, 153.0288
564.9163, 152.9556
565.3984, 152.8401
565.8805, 152.5377
566.3626, 151.9875
566.8447, 151.6317
567.3268, 151.5097
567.8090, 151.4568
568.2911, 151.2786
568.7732, 150.9904
569.2553, 150.7505
569.7374, 150.6065
570.2195, 150.4880
570.7017, 150.2947
571.1838, 150.0391
571.6659, 149.7651
572.1480, 149.5689
572.6301, 149.3055
573.1122, 148.7741
573.5944, 148.0095
574.0765, 147.3553
574.5586, 146.9408
575.0407, 146.7006
575.5228, 146.6423
576.0049, 146.9085
576.4871, 146.9548
576.9692, 146.5889
577.4513, 146.0814
577.9334, 145.6725
578.4155, 145.4062
578.8976, 145.1486
579.3798, 144.8720
579.8619, 144.6062
580.3440, 144.4171
580.8261, 144.3032
581.3082, 144.2948
581.7903, 144.4502
582.2725, 144.7094
582.7546, 144.9491
583.2367, 145.1607
583.7188, 145.2108
584.2009, 144.8546
584.6830, 144.3372
585.1652, 143.9559
585.6473, 143.7431
586.1294, 143.6950
586.6115, 143.9456
587.0936, 144.2953
587.5757, 144.5312
588.0578, 144.4626
588.5399, 144.4337
589.0220, 144.5910
589.5042, 144.8203
589.9863, 144.8452
590.4684, 144.4622
590.9505, 144.2112
591.4326, 144.2971
591.9147, 144.6625
592.3969, 144.7749
592.8790, 144.5955
593.3611, 144.3361
593.8432, 144.0940
594.3253, 143.8831
594.8074, 143.7559
595.2896, 143.7180
595.7717, 143.7435
596.2538, 143.8354
596.7359, 143.9689
597.2180, 144.1203
597.7001, 144.3451
598.1823, 144.4495
598.6644, 144.1435
599.1465, 143.6544
599.6286, 143.3712
600.1107, 143.6180
600.5928, 143.8855
601.0750, 144.0009
601.5571, 143.9824
602.0392, 144.0346
602.5213, 144.2306
603.0034, 144.3982
603.4855, 144.4392
603.9677, 144.3348
604.4498, 144.3846
604.9319, 144.6314
605.4140, 144.8943
605.8961, 144.9899
606.3782, 144.9420
606.8604, 144.8857
607.3425, 144.8214
607.8246, 144.8161
608.3067, 145.0494
608.7888, 145.3969
609.2709, 145.5825
609.7531, 145.4246
610.2352, 145.1720
610.7173, 144.9590
611.1994, 144.7785
611.6815, 144.6083
612.1636, 144.2582
612.6458, 144.0927
613.1279, 144.3889
613.6100, 145.1720
614.0921, 145.5844
614.5742, 145.4509
615.0563, 145.1862
615.5385, 145.0127
616.0206, 144.9513
616.5027, 144.8508
616.9848, 144.7044
617.4669, 144.5429
617.9490, 144.3665
618.4312, 144.1960
618.9133, 144.1658
619.3954, 144.3432
619.8775, 144.5613
620.3596, 144.6051
620.8417, 144.5368
621.3239, 144.4943
621.8060, 144.6530
622.2881, 144.7444
622.7702, 144.4960
623.2523, 144.0157
623.7344, 143.7505
624.2166, 144.0304
624.6987, 144.3430
625.1808, 144.4927
