##NAMES=Triphylite
##RRUFFID=R100156
##IDEAL CHEMISTRY=LiFe^2+^PO_4_
##LOCALITY=Conselheira Pena, Minas Gera√¨s, Brazil
##OWNER=RRUFF
##SOURCE=William W. Pinch
##DESCRIPTION=Brownish-orange cut stone
##STATUS=The identification of this mineral has been confirmed by single-crystal X-ray diffraction.
##URL=rruff.info/R100156
91.03516, 10.98553
91.51727, 11.15434
91.99939, 11.08863
92.48151, 10.82453
92.96362, 10.46307
93.44574, 9.906168
93.92786, 9.303462
94.40997, 9.008117
94.89210, 9.092579
95.37421, 9.339917
95.85633, 9.438559
96.33845, 9.395051
96.82056, 9.331420
97.30268, 9.333109
97.78480, 9.391866
98.26691, 9.432467
98.74903, 9.464200
99.23115, 9.457749
99.71326, 9.285396
100.1954, 8.903787
100.6775, 8.528986
101.1596, 8.349758
101.6417, 8.406480
102.1239, 8.472874
102.6060, 8.529096
103.0881, 8.571280
103.5702, 8.530032
104.0523, 8.407432
104.5344, 8.198851
105.0166, 7.862653
105.4987, 7.243469
105.9808, 6.780227
106.4629, 6.602207
106.9450, 6.775100
107.4271, 6.931102
107.9093, 7.082520
108.3914, 7.213356
108.8735, 7.303761
109.3556, 7.431926
109.8377, 7.444891
110.3198, 7.258474
110.8020, 6.624407
111.2841, 6.272702
111.7662, 6.528579
112.2483, 7.086884
112.7304, 7.274907
113.2125, 6.549966
113.6947, 5.762115
114.1768, 5.318061
114.6589, 5.452711
115.1410, 5.684707
115.6231, 5.972951
116.1052, 6.289614
116.5874, 6.535120
117.0695, 6.552136
117.5516, 6.543475
118.0337, 6.665751
118.5158, 7.438938
118.9980, 7.930474
119.4801, 7.443199
119.9622, 6.075509
120.4443, 4.957348
120.9264, 4.907579
121.4085, 5.420217
121.8907, 5.873998
122.3728, 6.046511
122.8549, 6.046916
123.3370, 5.891764
123.8191, 5.572737
124.3012, 5.306125
124.7834, 5.299368
125.2655, 5.476055
125.7476, 5.673287
126.2297, 5.835527
126.7118, 5.963699
127.1939, 6.042002
127.6761, 6.059102
128.1582, 6.078134
128.6403, 6.190667
129.1224, 6.378349
129.6045, 6.552635
130.0867, 6.637880
130.5688, 6.667143
131.0509, 6.740932
131.5330, 6.868455
132.0151, 7.045229
132.4972, 7.266677
132.9794, 7.532816
133.4615, 7.838219
133.9436, 8.178999
134.4257, 8.557430
134.9078, 8.943491
135.3899, 9.296021
135.8721, 9.684676
136.3542, 10.34121
136.8363, 11.29617
137.3184, 12.38822
137.8005, 13.51476
138.2826, 14.70011
138.7648, 15.78311
139.2469, 16.60773
139.7290, 17.27875
140.2111, 18.54335
140.6932, 20.52825
141.1753, 22.89146
141.6575, 25.31430
142.1396, 27.84089
142.6217, 30.36084
143.1038, 32.75473
143.5859, 35.01576
144.0681, 37.77700
144.5502, 41.31304
145.0323, 45.12523
145.5144, 48.78120
145.9965, 52.62524
146.4786, 55.73342
146.9608, 57.72618
147.4429, 58.40700
147.9250, 58.92256
148.4071, 58.99712
148.8892, 59.00969
149.3713, 59.50990
149.8535, 60.52080
150.3356, 62.00795
150.8177, 64.05118
151.2998, 67.02929
151.7819, 69.73965
152.2640, 72.08355
152.7462, 74.17961
153.2283, 76.19160
153.7104, 79.48560
154.1925, 81.59951
154.6746, 81.55012
155.1567, 78.36591
155.6389, 74.59435
156.1210, 70.00235
156.6031, 64.98167
157.0852, 60.44768
157.5673, 56.77804
158.0495, 53.51732
158.5316, 50.36861
159.0137, 46.89933
159.4958, 44.13369
159.9779, 42.76717
160.4600, 42.40110
160.9422, 41.73347
161.4243, 40.02929
161.9064, 38.04777
162.3885, 36.30537
162.8706, 35.02137
163.3527, 33.85632
163.8349, 32.60682
164.3170, 31.32091
164.7991, 30.22821
165.2812, 29.35081
165.7633, 28.75222
166.2454, 28.49875
166.7276, 28.91132
167.2097, 29.40105
167.6918, 29.65284
168.1739, 29.67847
168.6560, 29.59772
169.1381, 28.90962
169.6203, 28.30502
170.1024, 28.43045
170.5845, 31.21843
171.0666, 33.97746
171.5487, 34.07940
172.0309, 31.72259
172.5130, 29.21210
172.9951, 28.06860
173.4772, 27.81757
173.9593, 27.72693
174.4414, 27.61385
174.9236, 27.46572
175.4057, 27.24474
175.8878, 26.94786
176.3699, 26.67203
176.8520, 26.41434
177.3341, 26.22932
177.8163, 26.24056
178.2984, 26.65276
178.7805, 27.23530
179.2626, 27.67155
179.7447, 27.95040
180.2268, 28.08884
180.7090, 27.93810
181.1911, 27.61902
181.6732, 27.51281
182.1553, 27.86830
182.6374, 28.54386
183.1195, 29.27494
183.6017, 30.08006
184.0838, 30.84725
184.5659, 31.44844
185.0480, 31.90369
185.5301, 32.34278
186.0123, 32.83543
186.4944, 33.36000
186.9765, 33.77211
187.4586, 34.01813
187.9407, 34.34436
188.4228, 35.17740
188.9050, 36.46956
189.3871, 37.78497
189.8692, 38.77107
190.3513, 39.53465
190.8334, 40.68348
191.3155, 42.28399
191.7977, 44.15215
192.2798, 46.06441
192.7619, 48.02142
193.2440, 49.91556
193.7261, 51.56837
194.2082, 53.02565
194.6904, 54.99370
195.1725, 57.63681
195.6546, 60.55397
196.1367, 62.83542
196.6188, 64.44600
197.1009, 66.06497
197.5831, 68.10777
198.0652, 70.58941
198.5473, 73.02941
199.0294, 75.58399
199.5115, 77.83514
199.9937, 78.99909
200.4758, 79.07436
200.9579, 78.08272
201.4400, 75.75736
201.9221, 71.99905
202.4042, 68.32850
202.8864, 64.86514
203.3685, 61.49923
203.8506, 57.92082
204.3327, 54.10125
204.8148, 50.32326
205.2969, 46.58559
205.7791, 42.77562
206.2612, 39.87323
206.7433, 38.13554
207.2254, 37.17863
207.7075, 36.00011
208.1896, 34.46939
208.6718, 33.08759
209.1539, 32.16570
209.6360, 31.81296
210.1181, 31.40242
210.6002, 30.88659
211.0823, 30.30186
211.5645, 29.68729
212.0466, 28.91607
212.5287, 28.41125
213.0108, 28.50573
213.4929, 29.42688
213.9750, 30.03394
214.4572, 30.15764
214.9393, 29.97231
215.4214, 29.98478
215.9035, 30.21633
216.3856, 30.60386
216.8678, 31.14240
217.3499, 31.91672
217.8320, 32.55578
218.3141, 32.90838
218.7962, 33.14742
219.2783, 33.87831
219.7605, 35.35181
220.2426, 36.84674
220.7247, 37.91579
221.2068, 38.30708
221.6889, 39.00254
222.1710, 40.16058
222.6532, 41.62002
223.1353, 42.79061
223.6174, 43.43994
224.0995, 44.21111
224.5816, 45.43287
225.0637, 47.23870
225.5459, 49.21115
226.0280, 51.43254
226.5101, 53.79842
226.9922, 55.86198
227.4743, 57.35921
227.9564, 58.99651
228.4386, 61.18254
228.9207, 64.12095
229.4028, 66.99900
229.8849, 69.71241
230.3670, 72.38250
230.8492, 75.44005
231.3313, 78.90672
231.8134, 82.67712
232.2955, 86.87490
232.7776, 91.93244
233.2597, 96.23539
233.7419, 99.56131
234.2240, 102.2022
234.7061, 104.8888
235.1882, 108.0244
235.6703, 110.5956
236.1524, 112.1477
236.6346, 112.3197
237.1167, 112.2650
237.5988, 111.9482
238.0809, 111.4216
238.5630, 110.7467
239.0451, 109.6748
239.5273, 108.8322
240.0094, 108.4609
240.4915, 108.5977
240.9736, 109.0983
241.4557, 109.9169
241.9378, 111.1150
242.4200, 112.8733
242.9021, 115.5470
243.3842, 118.2604
243.8663, 120.7507
244.3484, 123.1164
244.8306, 124.9687
245.3127, 126.2705
245.7948, 127.0667
246.2769, 127.4353
246.7590, 127.4360
247.2411, 126.9142
247.7233, 125.8615
248.2054, 124.3647
248.6875, 121.9713
249.1696, 118.4486
249.6517, 114.2184
250.1338, 109.9715
250.6160, 105.7853
251.0981, 101.4234
251.5802, 96.81139
252.0623, 91.85334
252.5444, 87.00645
253.0265, 82.35731
253.5087, 77.78203
253.9908, 73.11405
254.4729, 67.98209
254.9550, 63.44794
255.4371, 59.88282
255.9192, 57.42344
256.4014, 55.06566
256.8835, 52.77718
257.3656, 50.62207
257.8477, 48.62842
258.3298, 46.84480
258.8120, 45.09803
259.2941, 43.29765
259.7762, 41.41987
260.2583, 39.78733
260.7404, 38.43165
261.2225, 37.26142
261.7047, 36.14357
262.1868, 35.05518
262.6689, 34.07136
263.1510, 33.20270
263.6331, 32.45491
264.1152, 31.79870
264.5974, 31.29694
265.0795, 30.79561
265.5616, 30.14189
266.0437, 29.26167
266.5258, 28.43366
267.0079, 27.67271
267.4901, 26.99043
267.9722, 26.59374
268.4543, 26.59153
268.9364, 26.65019
269.4185, 26.48267
269.9006, 26.03334
270.3828, 25.59143
270.8649, 25.15565
271.3470, 24.76157
271.8291, 24.58961
272.3112, 24.68624
272.7933, 24.87770
273.2755, 25.07825
273.7576, 25.31093
274.2397, 25.37177
274.7218, 25.15418
275.2039, 24.79531
275.6860, 24.73324
276.1682, 25.01726
276.6503, 25.41021
277.1324, 25.77209
277.6145, 26.09505
278.0966, 26.47914
278.5787, 26.98660
279.0609, 27.49575
279.5430, 27.68569
280.0251, 27.50250
280.5072, 27.33227
280.9893, 27.39264
281.4715, 27.68209
281.9536, 27.96384
282.4357, 28.17801
282.9178, 28.47824
283.3999, 29.29618
283.8820, 30.67550
284.3642, 31.78026
284.8463, 32.06752
285.3284, 31.61863
285.8105, 31.40683
286.2926, 31.47951
286.7747, 31.64883
287.2569, 31.69269
287.7390, 31.61109
288.2211, 31.41084
288.7032, 31.01392
289.1853, 30.48776
289.6674, 30.12415
290.1496, 29.92751
290.6317, 29.84884
291.1138, 30.01026
291.5959, 30.33392
292.0780, 30.25889
292.5602, 29.40353
293.0423, 28.10012
293.5244, 27.16570
294.0065, 26.61189
294.4886, 26.28255
294.9707, 26.17365
295.4529, 26.19959
295.9350, 26.04677
296.4171, 25.58357
296.8992, 24.94226
297.3813, 24.28734
297.8634, 23.63244
298.3456, 23.10584
298.8277, 22.94994
299.3098, 22.99301
299.7919, 22.83087
300.2740, 22.30320
300.7561, 21.67781
301.2383, 21.27222
301.7204, 21.06827
302.2025, 21.01481
302.6846, 21.22040
303.1667, 21.51381
303.6488, 21.60799
304.1310, 21.40488
304.6131, 21.16727
305.0952, 21.18959
305.5773, 21.39293
306.0594, 21.56338
306.5415, 21.53774
307.0237, 21.44760
307.5058, 21.45916
307.9879, 21.60790
308.4700, 21.71630
308.9521, 21.60878
309.4343, 21.37195
309.9164, 21.15714
310.3985, 20.95406
310.8806, 20.84737
311.3627, 20.97156
311.8448, 21.33606
312.3270, 21.62977
312.8091, 21.51328
313.2912, 21.27022
313.7733, 21.23566
314.2554, 21.81252
314.7375, 22.38233
315.2197, 22.62880
315.7018, 22.57334
316.1839, 22.39819
316.6660, 22.08334
317.1481, 21.73602
317.6302, 21.44797
318.1124, 21.27047
318.5945, 21.11575
319.0766, 20.97655
319.5587, 20.84123
320.0408, 20.66795
320.5229, 20.38520
321.0051, 20.10174
321.4872, 19.89602
321.9693, 19.89750
322.4514, 19.75943
322.9335, 19.26624
323.4156, 18.59787
323.8978, 18.10118
324.3799, 18.04081
324.8620, 17.98343
325.3441, 17.76212
325.8262, 17.30702
326.3083, 16.87938
326.7905, 16.47495
327.2726, 16.11476
327.7547, 15.82960
328.2368, 15.61450
328.7189, 15.47783
329.2010, 15.44631
329.6832, 15.53216
330.1653, 15.59030
330.6474, 15.63208
331.1295, 15.63798
331.6116, 15.58569
332.0938, 15.40214
332.5759, 15.28059
333.0580, 15.29118
333.5401, 15.40298
334.0222, 15.38517
334.5043, 15.21240
334.9865, 14.94537
335.4686, 14.58399
335.9507, 14.02314
336.4328, 13.65375
336.9149, 13.51425
337.3970, 13.56728
337.8792, 13.75853
338.3613, 14.17465
338.8434, 14.49289
339.3255, 14.50912
339.8076, 14.15817
340.2898, 14.04030
340.7719, 14.23243
341.2540, 14.52372
341.7361, 14.56865
342.2182, 14.33475
342.7003, 14.15968
343.1825, 14.18342
343.6646, 14.37404
344.1467, 14.54160
344.6288, 14.69907
345.1109, 14.77535
345.5930, 14.52733
346.0752, 14.02451
346.5573, 14.00155
347.0394, 14.90354
347.5215, 16.16057
348.0036, 16.39981
348.4857, 15.63926
348.9679, 14.74016
349.4500, 14.28105
349.9321, 14.17750
350.4142, 14.21133
350.8963, 14.38762
351.3784, 14.58730
351.8606, 14.65349
352.3427, 14.60781
352.8248, 14.53006
353.3069, 14.47964
353.7890, 14.41853
354.2711, 14.21710
354.7533, 13.83222
355.2354, 13.61382
355.7175, 14.05514
356.1996, 14.85067
356.6817, 15.46751
357.1638, 15.57757
357.6460, 15.49953
358.1281, 15.45756
358.6102, 15.45117
359.0923, 15.42111
359.5744, 15.30763
360.0565, 15.16605
360.5387, 15.04402
361.0208, 14.88220
361.5029, 14.83314
361.9850, 15.05693
362.4671, 15.46494
362.9492, 15.78201
363.4314, 15.86390
363.9135, 15.86472
364.3956, 15.86135
364.8777, 15.85505
365.3598, 15.86840
365.8419, 15.94805
366.3241, 16.04122
366.8062, 16.06792
367.2883, 15.81707
367.7704, 15.69137
368.2526, 15.83735
368.7347, 16.31291
369.2168, 16.74721
369.6989, 17.21401
370.1810, 17.59008
370.6631, 17.76043
371.1453, 17.43572
371.6274, 17.34013
372.1095, 17.62623
372.5916, 18.23670
373.0737, 18.78329
373.5558, 19.27261
374.0380, 19.69528
374.5201, 20.07944
375.0022, 20.48879
375.4843, 20.59286
375.9664, 20.22204
376.4485, 19.68008
376.9307, 19.60148
377.4128, 20.07857
377.8949, 20.62818
378.3770, 21.02652
378.8591, 21.28734
379.3412, 21.77919
379.8234, 22.54904
380.3055, 23.36959
380.7876, 23.98107
381.2697, 24.39569
381.7518, 24.72701
382.2339, 24.97256
382.7161, 25.17881
383.1982, 25.42284
383.6803, 25.70530
384.1624, 26.11072
384.6445, 26.72995
385.1266, 27.51660
385.6088, 28.37203
386.0909, 29.29520
386.5730, 30.23311
387.0551, 31.12723
387.5372, 31.97393
388.0193, 32.77961
388.5015, 33.52913
388.9836, 34.23967
389.4657, 34.88482
389.9478, 35.45833
390.4299, 36.13135
390.9120, 37.02173
391.3942, 38.08089
391.8763, 39.24007
392.3584, 40.71834
392.8405, 42.05960
393.3226, 42.86940
393.8047, 43.28107
394.2869, 43.90469
394.7690, 45.20015
395.2511, 46.62984
395.7332, 47.82802
396.2154, 48.51959
396.6975, 49.43182
397.1796, 50.98835
397.6617, 52.83062
398.1438, 54.33155
398.6259, 55.03304
399.1081, 55.76529
399.5902, 56.88313
400.0723, 58.52294
400.5544, 59.60487
401.0365, 59.71309
401.5186, 59.57215
402.0008, 59.78279
402.4829, 60.57684
402.9650, 61.28526
403.4471, 61.83422
403.9292, 62.24375
404.4113, 62.62494
404.8935, 63.07911
405.3756, 63.28164
405.8577, 62.93560
406.3398, 61.92207
406.8219, 61.34002
407.3040, 61.33907
407.7862, 61.50719
408.2683, 61.13691
408.7504, 60.20583
409.2325, 59.52238
409.7146, 59.49493
410.1967, 59.89528
410.6789, 59.85856
411.1610, 59.36475
411.6431, 58.97111
412.1252, 59.39323
412.6073, 60.31654
413.0894, 60.76243
413.5716, 60.35749
414.0537, 59.80256
414.5358, 60.02439
415.0179, 60.83366
415.5000, 61.62148
415.9821, 61.84893
416.4643, 61.98888
416.9464, 62.60322
417.4285, 63.75865
417.9106, 64.93064
418.3927, 65.73975
418.8748, 66.38735
419.3570, 67.09815
419.8391, 67.80837
420.3212, 68.73801
420.8033, 70.03135
421.2854, 71.64528
421.7675, 73.39426
422.2497, 75.59471
422.7318, 77.64083
423.2139, 79.14372
423.6960, 79.75961
424.1781, 80.49380
424.6602, 81.19712
425.1424, 82.14847
425.6245, 83.77103
426.1066, 86.67862
426.5887, 89.44888
427.0709, 91.78898
427.5530, 93.69894
428.0351, 95.33427
428.5172, 96.41830
428.9993, 97.63095
429.4814, 99.51669
429.9636, 102.2503
430.4457, 104.9704
430.9278, 107.5663
431.4099, 110.1505
431.8920, 113.1103
432.3741, 116.5701
432.8563, 119.6310
433.3384, 121.6680
433.8205, 122.8772
434.3026, 124.5679
434.7847, 126.7905
435.2668, 129.1454
435.7490, 131.2690
436.2311, 133.2033
436.7132, 135.0452
437.1953, 136.8990
437.6774, 138.5665
438.1595, 139.6900
438.6417, 140.3745
439.1238, 141.0527
439.6059, 142.0533
440.0880, 143.1474
440.5701, 144.2123
441.0522, 145.3013
441.5344, 145.8992
442.0165, 145.5492
442.4986, 144.5730
442.9807, 143.3619
443.4628, 142.3006
443.9449, 140.7790
444.4271, 138.2305
444.9092, 134.8673
445.3913, 131.8769
445.8734, 130.0210
446.3555, 128.3147
446.8376, 126.3278
447.3198, 124.1806
447.8019, 121.4081
448.2840, 117.4461
448.7661, 113.1202
449.2482, 109.6346
449.7303, 107.6415
450.2125, 105.4331
450.6946, 102.5868
451.1767, 99.13541
451.6588, 95.73672
452.1409, 92.32244
452.6230, 89.05808
453.1052, 86.12351
453.5873, 83.51216
454.0694, 80.99519
454.5515, 78.58141
455.0337, 76.20786
455.5158, 73.79294
455.9979, 71.32622
456.4800, 68.97673
456.9621, 66.86507
457.4442, 64.88282
457.9264, 62.68116
458.4085, 60.28141
458.8906, 57.99807
459.3727, 56.13497
459.8548, 54.56457
460.3369, 53.13309
460.8191, 51.80788
461.3012, 50.57146
461.7833, 49.54841
462.2654, 48.59686
462.7475, 47.42680
463.2296, 45.61020
463.7118, 43.77265
464.1939, 42.21119
464.6760, 40.93074
465.1581, 39.93579
465.6402, 39.64880
466.1223, 39.40008
466.6045, 38.72102
467.0866, 36.89311
467.5687, 35.44847
468.0508, 34.70547
468.5329, 34.36900
469.0150, 33.76435
469.4972, 32.69530
469.9793, 31.66717
470.4614, 30.84739
470.9435, 30.24533
471.4256, 29.69379
471.9077, 29.24947
472.3899, 28.74394
472.8720, 27.90225
473.3541, 26.65014
473.8362, 25.90803
474.3183, 25.93490
474.8004, 26.31091
475.2826, 26.22556
475.7647, 25.70152
476.2468, 25.06001
476.7289, 24.26746
477.2110, 23.50898
477.6931, 23.36191
478.1753, 23.82502
478.6574, 24.20923
479.1395, 23.89171
479.6216, 23.14810
480.1037, 22.35299
480.5858, 21.50802
481.0680, 20.80594
481.5501, 20.45174
482.0322, 20.33240
482.5143, 20.21665
482.9964, 19.93890
483.4786, 19.70918
483.9607, 19.68405
484.4428, 19.89423
484.9249, 19.97103
485.4070, 19.71040
485.8892, 19.37528
486.3713, 19.15622
486.8534, 19.27192
487.3355, 19.17676
487.8176, 18.67492
488.2997, 18.01652
488.7819, 17.76824
489.2640, 18.14344
489.7461, 18.44389
490.2282, 18.42445
490.7103, 18.10425
491.1924, 17.81283
491.6746, 17.54872
492.1567, 17.31091
492.6388, 17.10275
493.1209, 16.92108
493.6030, 16.76693
494.0851, 16.64373
494.5673, 16.53115
495.0494, 16.38707
495.5315, 16.22528
496.0136, 16.10094
496.4957, 16.08241
496.9778, 16.08845
497.4600, 15.99649
497.9421, 15.82103
498.4242, 15.70220
498.9063, 15.86238
499.3884, 16.03679
499.8705, 15.97669
500.3527, 15.54777
500.8348, 15.09755
501.3169, 14.69365
501.7990, 14.36319
502.2811, 14.14315
502.7632, 14.19857
503.2454, 14.19900
503.7275, 14.01210
504.2096, 13.66677
504.6917, 13.47891
505.1738, 13.51083
505.6559, 13.61739
506.1381, 13.72674
506.6202, 13.83268
507.1023, 13.98759
507.5844, 14.23586
508.0665, 14.45381
508.5486, 14.46467
509.0308, 14.26484
509.5129, 13.95515
509.9950, 13.46868
510.4771, 12.97914
510.9592, 12.94813
511.4413, 13.33043
511.9235, 13.68863
512.4056, 13.74255
512.8877, 13.59878
513.3698, 13.35544
513.8519, 13.00670
514.3340, 12.76883
514.8162, 12.91013
515.2983, 13.21282
515.7804, 13.41571
516.2625, 13.39587
516.7446, 13.32079
517.2267, 13.25471
517.7089, 13.18357
518.1910, 13.07271
518.6731, 12.82008
519.1552, 12.61535
519.6373, 12.54221
520.1194, 12.61179
520.6016, 12.68673
521.0837, 12.85168
521.5658, 12.92721
522.0479, 12.70063
522.5300, 11.97406
523.0121, 11.73142
523.4943, 12.20769
523.9764, 12.96788
524.4585, 13.18582
524.9406, 12.84566
525.4227, 12.54492
525.9048, 12.54669
526.3870, 12.71088
526.8691, 12.64763
527.3513, 12.37313
527.8334, 12.13585
528.3155, 12.15302
528.7976, 12.30330
529.2797, 12.40898
529.7618, 12.44226
530.2440, 12.47057
530.7261, 12.59223
531.2082, 12.72095
531.6903, 12.74424
532.1724, 12.44503
532.6545, 12.22635
533.1367, 12.29080
533.6188, 12.55297
534.1009, 12.70819
534.5830, 12.57019
535.0651, 12.45421
535.5472, 12.47283
536.0294, 12.64840
536.5115, 12.79995
536.9936, 12.91833
537.4757, 13.02563
537.9578, 13.14663
538.4399, 13.29094
538.9221, 13.36998
539.4042, 13.32648
539.8863, 13.29971
540.3684, 13.59475
540.8505, 14.18372
541.3326, 14.73973
541.8148, 15.19441
542.2969, 15.49451
542.7790, 15.42972
543.2611, 15.05134
543.7432, 14.76624
544.2253, 14.98811
544.7075, 15.36969
545.1896, 15.49622
545.6717, 15.24347
546.1538, 15.12543
546.6359, 15.50284
547.1180, 16.10068
547.6002, 16.62238
548.0823, 16.79395
548.5644, 17.12124
549.0465, 17.89866
549.5286, 18.90898
550.0107, 19.50806
550.4929, 19.44851
550.9750, 19.34077
551.4571, 19.31632
551.9392, 19.37539
552.4213, 19.78106
552.9034, 20.61714
553.3856, 21.54180
553.8677, 22.24548
554.3498, 22.75534
554.8319, 23.41264
555.3140, 24.26675
555.7961, 25.21877
556.2783, 26.12209
556.7604, 27.01036
557.2425, 27.97385
557.7246, 29.10787
558.2067, 30.27122
558.6888, 31.16441
559.1710, 31.92777
559.6531, 33.03454
560.1352, 34.97673
560.6173, 37.11645
561.0994, 39.10893
561.5815, 40.93835
562.0637, 42.58160
562.5458, 43.58742
563.0279, 44.69740
563.5100, 46.47996
563.9921, 49.47121
564.4742, 52.18330
564.9564, 54.38342
565.4385, 56.43739
565.9206, 58.94772
566.4027, 61.92602
566.8848, 65.20395
567.3669, 68.73914
567.8491, 72.51515
568.3312, 76.50395
568.8133, 80.67342
569.2954, 84.62687
569.7775, 87.61736
570.2596, 90.32716
570.7418, 94.10319
571.2239, 99.08692
571.7060, 104.1310
572.1881, 108.3502
572.6702, 112.1571
573.1523, 116.1448
573.6345, 120.9480
574.1166, 124.9808
574.5987, 127.5129
575.0808, 128.8817
575.5629, 129.6789
576.0450, 130.0933
576.5272, 129.7846
577.0093, 128.7681
577.4914, 127.0211
577.9735, 124.2165
578.4556, 120.0744
578.9377, 115.4958
579.4199, 110.6424
579.9020, 105.5589
580.3841, 101.2085
580.8662, 97.64698
581.3483, 94.57909
581.8304, 91.59367
582.3126, 88.87328
582.7947, 87.09193
583.2768, 86.44492
583.7589, 86.54816
584.2410, 86.95627
584.7231, 87.81648
585.2053, 89.42053
585.6874, 92.61839
586.1696, 95.91643
586.6517, 98.29676
587.1338, 100.0164
587.6159, 102.2511
588.0980, 105.8634
588.5801, 109.5522
589.0623, 112.9652
589.5444, 116.2372
