##NAMES=Triphylite
##RRUFFID=R050366
##IDEAL CHEMISTRY=LiFe^2+^PO_4_
##LOCALITY=Cornelia mine, Hagendorf, Bavaria, Germany
##OWNER=RRUFF
##SOURCE=Marcus Origlieri
##DESCRIPTION=Bluish gray massive associated with brown zwieselite R050279
##STATUS=The identification of this mineral has been confirmed by X-ray diffraction and chemical analysis
##URL=rruff.info/R050366
##MEASURED CHEMISTRY=Li_1.00_(Fe^2+^_0.80_Mn^2+^_0.20_)_Î£=1_P_1.00_O_4_ ; Li not measured but estimated by difference and charge balance.
91.87140, 0.0000000E+00
92.35352, 2.685334
92.83563, 2.641632
93.31775, 2.623088
93.79987, 2.628217
94.28198, 2.658329
94.76410, 2.723018
95.24622, 2.837450
95.72833, 2.973425
96.21045, 3.048524
96.69257, 3.057588
97.17468, 3.092025
97.65680, 3.275197
98.13892, 3.603578
98.62103, 3.849351
99.10315, 3.911060
99.58527, 3.827948
100.0674, 3.858379
100.5495, 4.007637
101.0316, 4.258742
101.5137, 4.606285
101.9958, 5.076913
102.4780, 5.555751
102.9601, 5.978881
103.4422, 6.315064
103.9243, 6.812867
104.4064, 7.545853
104.8885, 8.396081
105.3707, 9.194992
105.8528, 10.05894
106.3349, 10.69684
106.8170, 10.96362
107.2991, 10.60379
107.7813, 10.35558
108.2634, 10.24590
108.7455, 10.25110
109.2276, 10.29415
109.7097, 10.45126
110.1918, 10.59120
110.6740, 10.65971
111.1561, 10.48024
111.6382, 10.42606
112.1203, 10.50804
112.6024, 10.73033
113.0845, 11.11650
113.5667, 11.81744
114.0488, 12.59975
114.5309, 13.31421
115.0130, 13.89087
115.4951, 14.42387
115.9772, 14.90235
116.4594, 15.33490
116.9415, 15.84474
117.4236, 16.58701
117.9057, 17.39540
118.3878, 18.08899
118.8699, 18.40835
119.3521, 18.74657
119.8342, 19.36610
120.3163, 20.30377
120.7984, 21.29139
121.2805, 22.09091
121.7626, 22.83436
122.2448, 23.74742
122.7269, 25.13877
123.2090, 26.65282
123.6911, 27.89532
124.1732, 28.76525
124.6553, 29.61291
125.1375, 30.59228
125.6196, 31.77170
126.1017, 33.36731
126.5838, 35.54585
127.0659, 38.22555
127.5480, 41.27980
128.0302, 44.73466
128.5123, 48.50321
128.9944, 52.70860
129.4765, 57.28265
129.9586, 61.58846
130.4407, 65.14655
130.9229, 68.04532
131.4050, 70.61238
131.8871, 72.72464
132.3692, 74.64176
132.8513, 76.88633
133.3334, 79.34153
133.8156, 81.65292
134.2977, 83.74411
134.7798, 85.90116
135.2619, 88.31592
135.7440, 91.09305
136.2261, 94.13189
136.7083, 97.21489
137.1904, 100.3500
137.6725, 103.5446
138.1546, 106.8912
138.6367, 110.4502
139.1188, 113.9088
139.6010, 117.1693
140.0831, 120.2191
140.5652, 123.3702
141.0473, 126.3354
141.5294, 129.8161
142.0115, 134.6261
142.4937, 140.8349
142.9758, 148.2118
143.4579, 156.6497
143.9400, 165.9202
144.4221, 177.1491
144.9042, 190.8416
145.3864, 206.1775
145.8685, 221.8496
146.3506, 240.9118
146.8327, 256.4753
147.3148, 266.9911
147.7969, 274.0412
148.2791, 272.4512
148.7612, 259.5014
149.2433, 238.4060
149.7254, 216.0148
150.2075, 188.3764
150.6896, 163.0108
151.1718, 142.8160
151.6539, 128.9793
152.1360, 118.3377
152.6181, 111.3325
153.1002, 107.5021
153.5823, 105.5269
154.0645, 105.9956
154.5466, 107.7388
155.0287, 110.2626
155.5108, 115.8758
155.9929, 119.4692
156.4750, 120.5511
156.9572, 119.1235
157.4393, 115.0472
157.9214, 105.8890
158.4035, 95.50697
158.8856, 86.28496
159.3677, 78.60680
159.8499, 72.22881
160.3320, 67.47471
160.8141, 64.16983
161.2962, 61.31627
161.7783, 59.42012
162.2604, 57.45693
162.7426, 54.58199
163.2247, 49.62207
163.7068, 44.51145
164.1889, 39.87326
164.6710, 35.76646
165.1531, 32.33136
165.6353, 29.86098
166.1174, 28.02597
166.5995, 26.47215
167.0816, 25.09829
167.5637, 23.94256
168.0458, 23.05847
168.5280, 22.45236
169.0101, 21.98664
169.4922, 21.64037
169.9743, 21.37270
170.4564, 21.12931
170.9385, 20.93666
171.4207, 20.72986
171.9028, 20.43016
172.3849, 20.03187
172.8670, 19.63744
173.3491, 19.27251
173.8312, 18.96573
174.3134, 18.77171
174.7955, 18.83489
175.2776, 18.97334
175.7597, 18.94888
176.2418, 18.73323
176.7239, 18.49428
177.2061, 18.35955
177.6882, 18.31855
178.1703, 18.34413
178.6524, 18.50019
179.1345, 18.69534
179.6166, 18.75528
180.0988, 18.65382
180.5809, 18.50934
181.0630, 18.45499
181.5451, 18.47323
182.0272, 18.49631
182.5093, 18.48960
182.9915, 18.46183
183.4736, 18.42150
183.9557, 18.35805
184.4378, 18.32091
184.9199, 18.40217
185.4020, 18.58499
185.8842, 18.76168
186.3663, 18.88373
186.8484, 18.95322
187.3305, 18.95873
187.8126, 18.88344
188.2947, 18.78679
188.7769, 18.73560
189.2590, 18.73174
189.7411, 18.81800
190.2232, 19.08275
190.7053, 19.48813
191.1874, 19.78619
191.6696, 19.94032
192.1517, 20.01863
192.6338, 20.12426
193.1159, 20.25577
193.5980, 20.44939
194.0801, 20.75563
194.5623, 21.16368
195.0444, 21.53312
195.5265, 21.83065
196.0086, 22.10892
196.4907, 22.51056
196.9728, 23.05455
197.4550, 23.56164
197.9371, 23.88246
198.4192, 24.01268
198.9013, 24.27443
199.3834, 24.79045
199.8655, 25.35553
200.3477, 25.44036
200.8298, 24.98030
201.3119, 24.32207
201.7940, 23.60993
202.2761, 22.82859
202.7582, 22.17328
203.2404, 21.68392
203.7225, 21.31389
204.2046, 20.93313
204.6867, 20.53089
205.1688, 20.15341
205.6509, 19.82122
206.1331, 19.52511
206.6152, 19.32435
207.0973, 19.23755
207.5794, 19.24198
208.0615, 19.27905
208.5436, 19.36271
209.0258, 19.44243
209.5079, 19.47249
209.9900, 19.42986
210.4721, 19.45078
210.9542, 19.57119
211.4363, 19.75370
211.9185, 19.85128
212.4006, 19.80480
212.8827, 19.80189
213.3648, 19.98943
213.8469, 20.45164
214.3290, 20.78138
214.8112, 20.86395
215.2933, 20.80959
215.7754, 21.06249
216.2575, 21.78942
216.7396, 22.51023
217.2217, 22.86482
217.7039, 22.61552
218.1860, 22.74449
218.6681, 23.43134
219.1502, 24.52317
219.6323, 25.46009
220.1144, 26.18566
220.5966, 26.83988
221.0787, 27.50483
221.5608, 28.22446
222.0429, 28.82334
222.5250, 29.23416
223.0071, 29.52209
223.4893, 29.91651
223.9714, 30.47633
224.4535, 31.05572
224.9356, 31.57200
225.4177, 31.96162
225.8998, 32.43999
226.3820, 33.04699
226.8641, 33.74849
227.3462, 34.38367
227.8283, 34.83436
228.3104, 35.39641
228.7925, 36.22352
229.2747, 37.41907
229.7568, 38.67529
230.2389, 39.98635
230.7210, 41.36078
231.2031, 42.78202
231.6852, 44.23062
232.1674, 45.75066
232.6495, 47.32795
233.1316, 48.85126
233.6137, 50.69432
234.0958, 52.95567
234.5779, 55.50246
235.0601, 57.92564
235.5422, 60.18918
236.0243, 62.42193
236.5064, 64.72633
236.9885, 67.31412
237.4706, 69.52188
237.9528, 71.40559
238.4349, 72.86681
238.9170, 73.60292
239.3991, 73.40861
239.8812, 72.79549
240.3633, 71.92607
240.8455, 70.66212
241.3276, 69.44973
241.8097, 68.09776
242.2918, 66.88439
242.7739, 66.45835
243.2560, 67.04888
243.7382, 68.07490
244.2203, 69.38343
244.7024, 71.13177
245.1845, 72.70154
245.6666, 73.95364
246.1487, 75.09093
246.6309, 76.55969
247.1130, 78.58090
247.5951, 80.58256
248.0772, 82.37688
248.5593, 83.99709
249.0414, 85.33231
249.5236, 86.39537
250.0057, 87.16231
250.4878, 87.66537
250.9699, 88.14198
251.4520, 87.92154
251.9341, 86.71799
252.4163, 84.36963
252.8984, 81.83107
253.3805, 79.17848
253.8626, 76.24976
254.3447, 72.82266
254.8268, 68.53835
255.3090, 64.38286
255.7911, 60.66191
256.2732, 57.37953
256.7553, 54.34492
257.2374, 51.59114
257.7195, 49.04284
258.2017, 46.59382
258.6838, 44.17880
259.1659, 41.96167
259.6480, 39.94691
260.1301, 38.14906
260.6122, 36.64199
261.0944, 35.55278
261.5765, 34.59069
262.0586, 33.38575
262.5407, 31.75375
263.0228, 30.40567
263.5049, 29.57424
263.9871, 29.22998
264.4692, 28.79683
264.9513, 28.23443
265.4334, 27.64216
265.9155, 27.10034
266.3976, 26.63088
266.8798, 26.16268
267.3619, 25.65295
267.8440, 25.12288
268.3261, 24.79699
268.8082, 24.72300
269.2903, 24.75266
269.7725, 24.79345
270.2546, 24.86255
270.7367, 24.85449
271.2188, 24.72336
271.7009, 24.50944
272.1830, 24.38252
272.6652, 24.35795
273.1473, 24.38090
273.6294, 24.41096
274.1115, 24.44158
274.5936, 24.52323
275.0757, 24.66582
275.5579, 24.85922
276.0400, 25.08958
276.5221, 25.37526
277.0042, 25.62278
277.4863, 25.74038
277.9684, 25.71118
278.4506, 25.78189
278.9327, 25.97096
279.4148, 26.26542
279.8969, 26.69465
280.3790, 27.29101
280.8611, 27.79621
281.3433, 28.00251
281.8254, 27.91436
282.3075, 28.01493
282.7896, 28.34895
283.2717, 28.80823
283.7538, 29.25951
284.2360, 29.70586
284.7181, 30.07048
285.2002, 30.22172
285.6823, 30.20728
286.1644, 30.53778
286.6465, 31.28830
287.1287, 32.09862
287.6108, 32.46731
288.0929, 32.41571
288.5750, 32.33867
289.0571, 32.41453
289.5392, 32.58255
290.0214, 32.59900
290.5035, 32.45783
290.9856, 32.22215
291.4677, 31.96340
291.9498, 31.67097
292.4319, 31.28250
292.9141, 30.72713
293.3962, 30.08921
293.8783, 29.60127
294.3604, 29.26838
294.8425, 28.89976
295.3246, 28.28111
295.8068, 27.47846
296.2889, 26.72320
296.7710, 26.06160
297.2531, 25.47241
297.7352, 24.92961
298.2173, 24.43576
298.6995, 23.99273
299.1816, 23.61622
299.6637, 23.29319
300.1458, 23.00655
300.6279, 22.75123
301.1100, 22.52805
301.5922, 22.31614
302.0743, 22.13031
302.5564, 22.03151
303.0385, 22.12323
303.5206, 22.30092
304.0027, 22.41385
304.4849, 22.43369
304.9670, 22.42059
305.4491, 22.41627
305.9312, 22.42171
306.4133, 22.43932
306.8954, 22.44700
307.3776, 22.48035
307.8597, 22.57461
308.3418, 22.73407
308.8239, 22.94416
309.3060, 23.26958
309.7881, 23.62985
310.2703, 23.88758
310.7524, 23.82996
311.2345, 23.76948
311.7166, 23.97281
312.1987, 24.43411
312.6808, 24.87798
313.1630, 25.11191
313.6451, 25.26421
314.1272, 25.47571
314.6093, 25.89102
315.0914, 26.27944
315.5735, 26.47717
316.0557, 26.52380
316.5378, 26.63050
317.0199, 26.93284
317.5020, 27.30177
317.9841, 27.64544
318.4662, 27.89761
318.9484, 28.18070
319.4305, 28.67088
319.9126, 29.23658
320.3947, 29.53181
320.8768, 29.27274
321.3589, 28.85749
321.8411, 28.47207
322.3232, 28.15166
322.8053, 27.84366
323.2874, 27.60423
323.7695, 27.35953
324.2516, 26.99260
324.7338, 26.36711
325.2159, 25.72579
325.6980, 25.12781
326.1801, 24.56637
326.6622, 24.08631
327.1443, 23.78509
327.6265, 23.52243
328.1086, 23.15473
328.5907, 22.51613
329.0728, 21.96086
329.5549, 21.55170
330.0370, 21.28858
330.5192, 21.06824
331.0013, 20.91046
331.4834, 20.77709
331.9655, 20.63964
332.4476, 20.48332
332.9297, 20.35159
333.4119, 20.28233
333.8940, 20.24476
334.3761, 20.08008
334.8582, 19.67628
335.3403, 19.32796
335.8224, 19.21207
336.3046, 19.43964
336.7867, 19.56772
337.2688, 19.57507
337.7509, 19.48910
338.2330, 19.35559
338.7151, 19.16409
339.1973, 18.95789
339.6794, 18.70563
340.1615, 18.39706
340.6436, 18.36459
341.1257, 18.70509
341.6078, 19.11196
342.0900, 19.14470
342.5721, 18.77230
343.0542, 18.44768
343.5363, 18.31266
344.0184, 18.33239
344.5005, 18.36875
344.9827, 18.42475
345.4648, 18.47394
345.9469, 18.49104
346.4290, 18.47830
346.9111, 18.44828
347.3932, 18.39217
347.8754, 18.33450
348.3575, 18.31566
348.8396, 18.33556
349.3217, 18.39867
349.8038, 18.56025
350.2859, 18.76440
350.7681, 18.86815
351.2502, 18.84377
351.7323, 18.75937
352.2144, 18.63664
352.6965, 18.50668
353.1786, 18.46733
353.6608, 18.66452
354.1429, 18.93457
354.6250, 19.06669
355.1071, 19.04951
355.5892, 18.98891
356.0714, 18.92617
356.5535, 18.88157
357.0356, 18.88564
357.5177, 18.99352
357.9998, 19.11744
358.4819, 19.18119
358.9641, 19.19731
359.4462, 19.23444
359.9283, 19.40246
360.4104, 19.56713
360.8925, 19.59806
361.3746, 19.35131
361.8568, 19.16617
362.3389, 19.20481
362.8210, 19.40701
363.3031, 19.63626
363.7852, 19.94009
364.2673, 20.18863
364.7495, 20.29802
365.2316, 20.21161
365.7137, 20.16355
366.1958, 20.23565
366.6779, 20.35746
367.1600, 20.44680
367.6422, 20.40539
368.1243, 20.42303
368.6064, 20.55511
369.0885, 20.80870
369.5706, 21.05947
370.0527, 21.35567
370.5349, 21.61366
371.0170, 21.77551
371.4991, 21.75497
371.9812, 21.78213
372.4633, 21.87919
372.9454, 22.03495
373.4276, 22.21677
373.9097, 22.46458
374.3918, 22.67225
374.8739, 22.76067
375.3560, 22.67613
375.8381, 22.72379
376.3203, 22.92805
376.8024, 23.23127
377.2845, 23.57034
377.7666, 23.95797
378.2487, 24.29557
378.7308, 24.53349
379.2130, 24.68781
379.6951, 24.83488
380.1772, 24.97115
380.6593, 25.12398
381.1414, 25.28638
381.6235, 25.46897
382.1057, 25.81208
382.5878, 26.40462
383.0699, 27.08603
383.5520, 27.50915
384.0341, 27.70331
384.5162, 27.92729
384.9984, 28.39681
385.4805, 29.01103
385.9626, 29.55033
386.4447, 29.98387
386.9268, 30.39166
387.4089, 30.85159
387.8911, 31.34989
388.3732, 31.84513
388.8553, 32.32234
389.3374, 32.78719
389.8195, 33.21362
390.3016, 33.60214
390.7838, 34.04968
391.2659, 34.67259
391.7480, 35.35665
392.2301, 35.98142
392.7122, 36.47875
393.1943, 36.95962
393.6765, 37.42928
394.1586, 37.91652
394.6407, 38.49195
395.1228, 39.31556
395.6049, 40.12984
396.0870, 40.79525
396.5692, 41.23336
397.0513, 41.71379
397.5334, 42.27823
398.0155, 42.91829
398.4976, 43.61509
398.9797, 44.50518
399.4619, 45.30874
399.9440, 45.94741
400.4261, 46.42140
400.9082, 46.91621
401.3903, 47.48101
401.8724, 48.01851
402.3546, 48.44883
402.8367, 48.64829
403.3188, 49.00660
403.8009, 49.59474
404.2830, 50.33250
404.7651, 51.02038
405.2473, 51.63655
405.7294, 52.24616
406.2115, 52.87264
406.6936, 53.51069
407.1757, 54.18361
407.6578, 54.91266
408.1400, 55.62445
408.6221, 56.18388
409.1042, 56.59755
409.5863, 57.17037
410.0684, 58.02105
410.5505, 59.05103
411.0327, 60.07128
411.5148, 61.08793
411.9969, 62.14343
412.4790, 63.36462
412.9611, 64.65594
413.4432, 65.69020
413.9254, 66.34907
414.4075, 67.08859
414.8896, 68.48478
415.3717, 70.34802
415.8538, 72.22823
416.3359, 73.89767
416.8181, 75.48318
417.3002, 77.04001
417.7823, 78.59294
418.2644, 80.18315
418.7465, 81.86747
419.2286, 83.62442
419.7108, 85.39909
420.1929, 87.04019
420.6750, 88.91344
421.1571, 91.31125
421.6392, 94.06930
422.1213, 96.70142
422.6035, 98.90525
423.0856, 101.0968
423.5677, 103.4550
424.0498, 105.9866
424.5319, 108.6541
425.0140, 111.5517
425.4962, 114.5646
425.9783, 117.5894
426.4604, 120.6758
426.9425, 123.6973
427.4246, 126.5354
427.9067, 129.2760
428.3889, 132.3515
428.8710, 135.8749
429.3531, 139.5208
429.8352, 143.2043
430.3173, 146.9125
430.7994, 150.4367
431.2816, 153.7110
431.7637, 156.8844
432.2458, 160.1835
432.7279, 163.6235
433.2100, 166.8865
433.6921, 169.7585
434.1743, 172.3910
434.6564, 175.2271
435.1385, 178.2999
435.6206, 181.5968
436.1027, 185.3045
436.5848, 189.2421
437.0670, 192.9661
437.5491, 196.4780
438.0312, 199.5624
438.5133, 201.9180
438.9954, 203.6765
439.4775, 205.1985
439.9597, 206.5844
440.4418, 207.8767
440.9239, 209.2861
441.4060, 210.8270
441.8881, 211.7969
442.3702, 211.5910
442.8524, 210.7049
443.3345, 209.6155
443.8166, 208.6666
444.2987, 207.2737
444.7808, 205.1896
445.2629, 202.5126
445.7451, 199.5098
446.2272, 196.1299
446.7093, 192.5922
447.1914, 188.9866
447.6735, 185.3251
448.1556, 181.5295
448.6378, 177.6631
449.1199, 173.6573
449.6020, 169.4256
450.0841, 165.0422
450.5662, 160.4612
451.0483, 155.6564
451.5305, 150.6337
452.0126, 145.4324
452.4947, 139.8178
452.9768, 134.6148
453.4589, 130.4074
453.9410, 127.1915
454.4232, 123.7028
454.9053, 119.7961
455.3874, 115.8282
455.8695, 112.1779
456.3516, 108.8105
456.8337, 105.6210
457.3159, 102.6272
457.7980, 99.70021
458.2801, 96.46416
458.7622, 92.99841
459.2443, 89.74335
459.7264, 87.22166
460.2086, 85.03642
460.6907, 82.66765
461.1728, 79.98994
461.6549, 77.39250
462.1370, 75.26907
462.6191, 73.41826
463.1013, 71.59486
463.5834, 69.62541
464.0655, 67.73466
464.5476, 66.05961
465.0297, 64.59010
465.5118, 63.15307
465.9940, 61.75506
466.4761, 60.36842
466.9582, 58.98725
467.4403, 57.59867
467.9224, 56.20666
468.4045, 54.72538
468.8867, 53.28257
469.3688, 52.05646
469.8509, 51.21068
470.3330, 50.31552
470.8151, 49.21792
471.2972, 47.95851
471.7794, 47.00501
472.2615, 46.44444
472.7436, 45.92848
473.2257, 45.16998
473.7078, 44.15960
474.1899, 43.32938
474.6721, 42.74644
475.1542, 42.23970
475.6363, 41.54039
476.1184, 40.67685
476.6005, 39.82868
477.0826, 39.03111
477.5648, 38.31502
478.0469, 37.74739
478.5290, 37.31623
479.0111, 36.91320
479.4932, 36.49761
479.9753, 36.05198
480.4575, 35.52111
480.9396, 34.83899
481.4217, 34.25726
481.9038, 34.08500
482.3859, 34.08553
482.8680, 33.91302
483.3502, 33.22702
483.8323, 32.56856
484.3144, 32.19408
484.7965, 32.08419
485.2786, 31.83829
485.7607, 31.16617
486.2429, 30.53023
486.7250, 30.18667
487.2071, 30.39721
487.6892, 30.33411
488.1713, 29.84636
488.6534, 29.19149
489.1356, 28.74237
489.6177, 28.56000
490.0998, 28.40254
490.5819, 28.21094
491.0640, 27.99520
491.5461, 27.80249
492.0283, 27.62970
492.5104, 27.49691
492.9925, 27.47350
493.4746, 27.51950
493.9567, 27.40286
494.4388, 27.08109
494.9210, 26.72687
495.4031, 26.54859
495.8852, 26.49094
496.3673, 26.41054
496.8494, 26.25024
497.3315, 26.04812
497.8137, 25.78860
498.2958, 25.50006
498.7779, 25.31127
499.2600, 25.40021
499.7421, 25.53366
500.2242, 25.54901
500.7064, 25.41091
501.1885, 25.22509
501.6706, 24.94596
502.1527, 24.67051
502.6348, 24.50187
503.1169, 24.64000
503.5991, 24.66057
504.0812, 24.44320
504.5633, 24.06899
505.0454, 23.83224
505.5275, 23.76411
506.0096, 23.79000
506.4918, 23.92274
506.9739, 24.18546
507.4560, 24.27534
507.9381, 24.16934
508.4202, 23.95266
508.9023, 23.66709
509.3845, 23.32066
509.8666, 23.05017
510.3487, 22.87486
510.8308, 22.79786
511.3129, 22.89940
511.7950, 23.13311
512.2772, 23.28204
512.7593, 23.13503
513.2414, 22.89183
513.7235, 22.79250
514.2056, 22.83868
514.6877, 22.92954
515.1699, 23.09701
515.6520, 23.22934
516.1341, 23.20265
516.6162, 22.87626
517.0983, 22.61218
517.5804, 22.59024
518.0626, 22.69243
518.5447, 22.72529
519.0268, 22.56636
519.5089, 22.43250
519.9910, 22.36484
520.4731, 22.36191
520.9553, 22.41780
521.4374, 22.56996
521.9195, 22.72425
522.4016, 22.83009
522.8837, 22.88190
523.3658, 22.90509
523.8480, 22.88938
524.3301, 22.86837
524.8122, 22.90207
525.2943, 22.98541
525.7764, 23.03094
526.2585, 23.00473
526.7407, 22.93966
527.2228, 22.88672
527.7049, 22.84582
528.1870, 22.81732
528.6691, 22.77470
529.1512, 22.75784
529.6334, 22.84068
530.1155, 23.03265
530.5976, 23.19156
531.0797, 23.16358
531.5618, 23.09421
532.0439, 23.13334
532.5261, 23.43366
533.0082, 23.67905
533.4903, 23.75221
533.9724, 23.72077
534.4545, 23.73111
534.9366, 23.78681
535.4188, 23.89696
535.9009, 24.08162
536.3830, 24.33863
536.8651, 24.56775
537.3472, 24.77019
537.8293, 24.94291
538.3115, 25.06491
538.7936, 25.12871
539.2757, 25.24923
539.7578, 25.43951
540.2399, 25.66375
540.7220, 25.88062
541.2042, 26.09011
541.6863, 26.30330
542.1684, 26.50663
542.6505, 26.73857
543.1326, 27.09620
543.6147, 27.54229
544.0969, 27.94456
544.5790, 28.12900
545.0611, 28.29187
545.5432, 28.59251
546.0253, 29.04547
546.5074, 29.57067
546.9896, 30.15014
547.4717, 30.77486
547.9538, 31.43665
548.4359, 32.09752
548.9180, 32.84866
549.4001, 33.77954
549.8823, 34.78405
550.3644, 35.66590
550.8465, 36.32062
551.3286, 37.06134
551.8107, 37.93658
552.2928, 38.96221
552.7750, 40.28299
553.2571, 41.97570
553.7392, 43.61916
554.2213, 44.78070
554.7034, 45.59023
555.1855, 46.86795
555.6677, 48.66582
556.1498, 50.83810
556.6319, 53.40201
557.1140, 56.19071
557.5961, 58.81591
558.0782, 61.04173
558.5604, 63.29100
559.0425, 65.85188
559.5246, 68.67918
560.0067, 71.66476
560.4888, 74.97104
560.9709, 78.21069
561.4531, 81.02493
561.9352, 83.42190
562.4173, 86.20015
562.8994, 89.78968
563.3815, 93.52568
563.8636, 97.09616
564.3458, 100.3188
564.8279, 103.7999
565.3100, 107.5776
565.7921, 111.6131
566.2742, 115.8064
566.7563, 120.1734
567.2385, 124.7860
567.7206, 129.7298
568.2027, 134.8065
568.6848, 139.3702
569.1669, 143.5142
569.6490, 147.4659
570.1312, 151.3368
570.6133, 155.1544
571.0954, 159.2094
571.5775, 163.4804
572.0596, 166.8333
572.5417, 168.5961
573.0239, 169.1539
573.5060, 168.8494
573.9881, 167.8653
574.4702, 165.6960
574.9523, 161.9729
575.4344, 157.0270
575.9166, 151.3235
576.3987, 144.1917
576.8808, 137.1225
577.3629, 129.9716
577.8450, 122.9870
578.3271, 116.9375
578.8093, 112.0145
579.2914, 107.4883
579.7735, 103.0189
580.2556, 98.72846
580.7377, 95.10650
581.2198, 92.17298
581.7020, 89.90058
582.1841, 88.29050
582.6662, 87.32420
583.1483, 87.04398
583.6304, 87.53930
584.1125, 88.29527
584.5947, 88.85857
585.0768, 89.39204
585.5589, 90.13583
