##NAMES=Triplite
##RRUFFID=R050186
##IDEAL CHEMISTRY=Mn^2+^_2_(PO_4_)F
##LOCALITY=Wuzhou, Guangxi Autonomous Region, China
##OWNER=RRUFF
##SOURCE=John Lucking
##DESCRIPTION=Orangish red fragments
##STATUS=The identification of this mineral has been confirmed by X-ray diffraction and chemical analysis
##URL=rruff.info/R050186
##MEASURED CHEMISTRY=(Mn^2+^_1.60_Fe^2+^_0.21_Mg_0.15_Ca_0.04_)_Σ=2_(P_1.00_O_4_)(F_0.80_(OH)_0.20_)_Σ=1_
125.0042, 157.6878
125.4863, 156.1600
125.9684, 157.5130
126.4506, 160.0915
126.9327, 167.6463
127.4148, 185.3082
127.8969, 208.5671
128.3790, 229.1174
128.8611, 240.1720
129.3432, 241.5665
129.8254, 249.4124
130.3075, 272.8637
130.7896, 293.2599
131.2717, 301.3139
131.7538, 299.9560
132.2359, 298.8828
132.7181, 306.7360
133.2002, 325.1673
133.6823, 338.2006
134.1644, 341.8167
134.6465, 344.5996
135.1286, 351.1573
135.6108, 361.4136
136.0929, 372.3215
136.5750, 380.4910
137.0571, 384.6924
137.5392, 393.6529
138.0213, 411.7939
138.5035, 431.1752
138.9856, 446.6979
139.4677, 457.5727
139.9498, 465.2351
140.4319, 469.9624
140.9140, 469.8984
141.3962, 476.8913
141.8783, 496.6144
142.3604, 520.5618
142.8425, 540.3864
143.3246, 554.4053
143.8067, 567.7325
144.2889, 587.2863
144.7710, 614.1231
145.2531, 639.3659
145.7352, 658.9484
146.2173, 668.3972
146.6994, 670.4366
147.1816, 673.3593
147.6637, 675.6654
148.1458, 674.3401
148.6279, 669.2949
149.1100, 666.8777
149.5921, 673.7903
150.0743, 683.1550
150.5564, 681.0677
151.0385, 661.4324
151.5206, 638.0117
152.0027, 629.9329
152.4848, 636.8693
152.9670, 641.8616
153.4491, 635.3126
153.9312, 621.9084
154.4133, 613.0704
154.8954, 612.0709
155.3775, 615.3133
155.8597, 620.0386
156.3418, 626.6967
156.8239, 628.7430
157.3060, 618.5283
157.7881, 600.0551
158.2702, 588.0443
158.7524, 587.3275
159.2345, 592.9449
159.7166, 600.2032
160.1987, 609.4705
160.6808, 615.9851
161.1629, 615.1065
161.6451, 608.2466
162.1272, 603.2250
162.6093, 601.4630
163.0914, 602.9167
163.5735, 608.6052
164.0556, 618.9542
164.5378, 627.0757
165.0199, 625.3548
165.5020, 614.9667
165.9841, 609.9495
166.4662, 617.5690
166.9483, 628.1005
167.4305, 633.0803
167.9126, 631.8510
168.3947, 629.4454
168.8768, 629.6081
169.3589, 632.3063
169.8410, 636.2729
170.3232, 641.0272
170.8053, 647.2648
171.2874, 656.8778
171.7695, 670.1509
172.2516, 681.7665
172.7337, 685.6425
173.2159, 681.2712
173.6980, 677.5644
174.1801, 674.8636
174.6622, 674.6605
175.1443, 679.2413
175.6264, 688.9059
176.1086, 698.9005
176.5907, 704.9135
177.0728, 706.8028
177.5549, 705.7996
178.0370, 700.2807
178.5191, 692.9254
179.0013, 684.7493
179.4834, 675.9376
179.9655, 667.4235
180.4476, 660.1896
180.9297, 654.3226
181.4118, 649.1182
181.8940, 644.1274
182.3761, 640.0423
182.8582, 638.5919
183.3403, 639.8339
183.8224, 639.8688
184.3046, 633.4757
184.7867, 619.4457
185.2688, 606.6534
185.7509, 596.8248
186.2330, 588.5602
186.7151, 582.1232
187.1973, 577.3020
187.6794, 571.7924
188.1615, 562.9299
188.6436, 550.4620
189.1257, 536.4216
189.6078, 515.7496
190.0900, 497.4524
190.5721, 487.5045
191.0542, 486.4019
191.5363, 488.3366
192.0184, 487.9432
192.5005, 485.4735
192.9827, 479.3449
193.4648, 465.5120
193.9469, 450.5933
194.4290, 436.9177
194.9111, 425.1213
195.3932, 415.9369
195.8754, 410.7662
196.3575, 410.2481
196.8396, 409.8165
197.3217, 410.8008
197.8038, 410.4583
198.2859, 406.6180
198.7681, 399.4624
199.2502, 391.7212
199.7323, 385.9624
200.2144, 382.3443
200.6965, 379.7168
201.1786, 379.7749
201.6608, 379.4896
202.1429, 377.2349
202.6250, 373.0959
203.1071, 368.4918
203.5892, 364.2740
204.0713, 360.2288
204.5535, 358.3392
205.0356, 361.9282
205.5177, 365.0601
205.9998, 364.5244
206.4819, 360.8000
206.9640, 356.8631
207.4462, 355.3650
207.9283, 356.4416
208.4104, 357.9680
208.8925, 360.2657
209.3746, 362.7540
209.8567, 365.5320
210.3388, 368.3596
210.8210, 370.5708
211.3031, 371.0920
211.7852, 369.9428
212.2673, 370.4895
212.7494, 374.8636
213.2315, 378.7462
213.7137, 379.4524
214.1958, 378.1053
214.6779, 377.7213
215.1600, 380.9907
215.6421, 387.5096
216.1242, 392.9295
216.6064, 397.6749
217.0885, 400.5385
217.5706, 400.3946
218.0527, 398.2099
218.5348, 396.0713
219.0169, 396.0276
219.4991, 397.1684
219.9812, 393.9297
220.4633, 380.9163
220.9454, 371.5534
221.4275, 373.6448
221.9096, 381.9982
222.3918, 387.8820
222.8739, 386.3297
223.3560, 379.0894
223.8381, 371.5546
224.3202, 362.2383
224.8023, 355.4554
225.2845, 355.4997
225.7666, 357.9355
226.2487, 356.1286
226.7308, 345.2920
227.2129, 330.7282
227.6950, 325.3478
228.1772, 333.8989
228.6593, 340.2296
229.1414, 336.5682
229.6235, 328.5211
230.1056, 321.8546
230.5877, 318.7025
231.0699, 317.5557
231.5520, 316.4792
232.0341, 315.9327
232.5162, 313.7773
232.9983, 306.8310
233.4804, 299.1047
233.9626, 293.8466
234.4447, 291.8946
234.9268, 292.6570
235.4089, 296.5209
235.8910, 304.1281
236.3731, 309.9281
236.8553, 311.5495
237.3374, 311.0330
237.8195, 309.5354
238.3016, 307.0871
238.7837, 304.8830
239.2658, 304.4987
239.7480, 305.9034
240.2301, 306.3203
240.7122, 304.1161
241.1943, 301.5446
241.6764, 300.8847
242.1585, 302.2926
242.6407, 303.5104
243.1228, 302.7468
243.6049, 300.2966
244.0870, 297.7934
244.5691, 295.0815
245.0512, 293.0445
245.5334, 292.0867
246.0155, 292.2136
246.4976, 293.8614
246.9797, 299.1534
247.4618, 306.1580
247.9439, 309.1498
248.4261, 305.9435
248.9082, 301.7456
249.3903, 301.2473
249.8724, 303.7043
250.3545, 306.4601
250.8366, 308.9382
251.3188, 311.0118
251.8009, 312.4407
252.2830, 313.1533
252.7651, 313.4709
253.2472, 314.0156
253.7293, 314.4273
254.2115, 313.3201
254.6936, 308.1346
255.1757, 302.6884
255.6578, 301.8586
256.1399, 305.7686
256.6220, 309.2034
257.1042, 308.7242
257.5863, 304.9677
258.0684, 301.3621
258.5505, 298.6848
259.0326, 295.6163
259.5147, 290.6447
259.9969, 284.2243
260.4790, 278.6487
260.9611, 274.9417
261.4432, 273.0057
261.9253, 272.2457
262.4074, 273.5117
262.8896, 274.6164
263.3717, 274.6544
263.8538, 273.9115
264.3359, 272.9114
264.8180, 271.7646
265.3001, 270.7114
265.7823, 270.3406
266.2644, 270.7006
266.7465, 271.4764
267.2286, 271.7235
267.7107, 272.6691
268.1928, 276.6313
268.6750, 284.2842
269.1571, 292.9105
269.6392, 298.5500
270.1213, 300.2617
270.6034, 300.5244
271.0855, 297.9370
271.5677, 294.7928
272.0498, 293.0212
272.5319, 292.8373
273.0140, 293.0617
273.4961, 292.2512
273.9782, 289.7480
274.4604, 289.9672
274.9425, 295.3796
275.4246, 300.8360
275.9067, 303.8980
276.3888, 304.6644
276.8709, 304.2494
277.3531, 303.4456
277.8352, 302.2576
278.3173, 300.7578
278.7994, 300.1193
279.2815, 297.9177
279.7636, 291.5754
280.2458, 283.5623
280.7279, 278.3040
281.2100, 278.5293
281.6921, 282.2213
282.1742, 281.7687
282.6563, 274.3857
283.1385, 266.4212
283.6206, 255.9918
284.1027, 246.7031
284.5848, 243.2988
285.0669, 247.3546
285.5490, 254.1776
286.0312, 254.8618
286.5133, 246.0703
286.9954, 239.9300
287.4775, 239.0402
287.9596, 240.0090
288.4417, 240.8548
288.9239, 241.2685
289.4060, 242.1249
289.8881, 245.6931
290.3702, 252.5749
290.8523, 254.1247
291.3344, 244.0219
291.8166, 234.0620
292.2987, 230.7778
292.7808, 233.0046
293.2629, 235.7789
293.7450, 235.4143
294.2271, 232.7797
294.7093, 231.8058
295.1914, 233.2123
295.6735, 234.9180
296.1556, 236.1007
296.6377, 236.7603
297.1198, 236.7635
297.6020, 235.5163
298.0841, 234.0617
298.5662, 233.9575
299.0483, 235.3082
299.5304, 237.1776
300.0125, 240.0172
300.4947, 242.6894
300.9768, 243.1189
301.4589, 239.7451
301.9410, 236.9246
302.4231, 238.2857
302.9052, 243.0578
303.3874, 248.1015
303.8695, 253.0820
304.3516, 256.9044
304.8337, 256.8150
305.3158, 251.5425
305.7979, 249.2166
306.2801, 254.7225
306.7622, 263.9881
307.2443, 270.7611
307.7264, 273.6453
308.2085, 275.5996
308.6906, 279.9032
309.1728, 287.1325
309.6549, 293.4893
310.1370, 298.2899
310.6191, 302.6631
311.1012, 307.4374
311.5833, 312.5951
312.0655, 317.9739
312.5476, 323.9555
313.0297, 330.2937
313.5118, 331.1774
313.9939, 319.9971
314.4760, 311.6101
314.9582, 311.3714
315.4403, 316.7696
315.9224, 324.3276
316.4045, 332.5900
316.8866, 339.9464
317.3687, 341.8731
317.8509, 333.6074
318.3330, 326.3847
318.8151, 320.0403
319.2972, 315.3196
319.7793, 313.0403
320.2614, 313.2962
320.7436, 315.2907
321.2257, 318.5609
321.7078, 324.0641
322.1899, 327.1762
322.6720, 327.0054
323.1541, 325.1516
323.6363, 322.0779
324.1184, 317.8498
324.6005, 312.2921
325.0826, 304.4577
325.5647, 295.0174
326.0468, 288.7555
326.5290, 287.3897
327.0111, 286.3642
327.4932, 284.4052
327.9753, 281.4375
328.4574, 277.1501
328.9395, 271.0489
329.4217, 264.2699
329.9038, 257.8755
330.3859, 251.7654
330.8680, 247.7480
331.3501, 248.2692
331.8322, 250.0587
332.3144, 249.3368
332.7965, 245.7324
333.2786, 240.5729
333.7607, 232.6894
334.2428, 223.7845
334.7249, 219.4897
335.2070, 222.0525
335.6891, 226.2648
336.1713, 225.7153
336.6534, 220.6020
337.1355, 216.6425
337.6176, 214.9009
338.0997, 214.6826
338.5818, 216.8264
339.0640, 220.7868
339.5461, 222.2066
340.0282, 217.3528
340.5103, 206.8839
340.9924, 198.9571
341.4745, 194.1039
341.9567, 190.7097
342.4388, 188.3296
342.9209, 187.0452
343.4030, 187.6253
343.8851, 190.4897
344.3672, 193.9084
344.8494, 193.8655
345.3315, 185.8548
345.8136, 181.3570
346.2957, 182.8499
346.7778, 185.8212
347.2599, 187.3607
347.7421, 186.8837
348.2242, 184.9799
348.7063, 181.9919
349.1884, 177.7418
349.6705, 174.2250
350.1526, 171.6535
350.6348, 169.6828
351.1169, 168.2096
351.5990, 167.2487
352.0811, 166.9612
352.5632, 167.6607
353.0453, 168.7826
353.5275, 168.9372
354.0096, 167.9292
354.4917, 166.5946
354.9738, 164.2904
355.4559, 162.2771
355.9380, 162.3432
356.4202, 165.2174
356.9023, 167.3348
357.3844, 165.0575
357.8665, 159.2243
358.3486, 153.7291
358.8307, 148.5907
359.3129, 145.3743
359.7950, 146.9579
360.2771, 152.7282
360.7592, 157.5792
361.2413, 160.0362
361.7234, 161.0142
362.2056, 161.3863
362.6877, 161.2096
363.1698, 160.2371
363.6519, 158.1287
364.1340, 155.0801
364.6161, 152.5065
365.0983, 148.7104
365.5804, 147.1975
366.0625, 151.3678
366.5446, 157.9021
367.0267, 161.5534
367.5089, 160.4281
367.9910, 156.6629
368.4731, 153.9402
368.9552, 152.9026
369.4373, 151.6270
369.9194, 149.0158
370.4016, 147.0926
370.8837, 147.8965
371.3658, 150.8280
371.8479, 153.1894
372.3300, 152.4473
372.8121, 148.9666
373.2943, 147.1400
373.7764, 148.2462
374.2585, 149.2481
374.7406, 147.7749
375.2227, 146.1881
375.7048, 148.2180
376.1870, 155.9392
376.6691, 164.5971
377.1512, 166.9062
377.6333, 162.4973
378.1154, 159.2712
378.5975, 159.9978
379.0797, 161.7286
379.5618, 161.3178
380.0439, 158.7851
380.5260, 156.7089
381.0081, 156.8591
381.4902, 158.0192
381.9724, 157.7733
382.4545, 155.7686
382.9366, 154.3973
383.4187, 155.9519
383.9008, 159.8906
384.3829, 161.6764
384.8651, 158.6996
385.3472, 156.3342
385.8293, 157.3790
386.3114, 160.7048
386.7935, 164.3109
387.2756, 167.4563
387.7578, 169.8680
388.2399, 170.9012
388.7220, 168.9302
389.2041, 168.7087
389.6862, 170.8630
390.1683, 174.1398
390.6505, 178.4413
391.1326, 183.2458
391.6147, 187.2542
392.0968, 189.1388
392.5789, 189.1496
393.0610, 190.5099
393.5432, 194.9392
394.0253, 198.1932
394.5074, 197.8624
394.9895, 196.3179
395.4716, 196.6660
395.9537, 200.1319
396.4359, 204.3482
396.9180, 206.0096
397.4001, 205.1063
397.8822, 205.2179
398.3643, 207.5917
398.8464, 210.5496
399.3286, 212.5317
399.8107, 213.6284
400.2928, 214.7142
400.7749, 215.5470
401.2570, 216.8516
401.7391, 219.4982
402.2213, 223.5368
402.7034, 228.7992
403.1855, 235.5095
403.6676, 243.2740
404.1497, 250.1518
404.6318, 257.0519
405.1140, 262.1513
405.5961, 262.8318
406.0782, 262.2460
406.5603, 264.7641
407.0424, 271.4522
407.5245, 279.9462
408.0067, 286.8451
408.4888, 291.0565
408.9709, 298.1751
409.4530, 309.1694
409.9351, 321.8478
410.4172, 336.1511
410.8994, 351.3516
411.3815, 366.0487
411.8636, 379.2481
412.3457, 391.9074
412.8278, 406.2611
413.3099, 421.6922
413.7921, 440.7130
414.2742, 466.4577
414.7563, 494.6795
415.2384, 523.1893
415.7205, 551.5286
416.2026, 579.3410
416.6848, 603.2982
417.1669, 626.6904
417.6490, 657.8833
418.1311, 698.3546
418.6132, 744.6304
419.0953, 793.9255
419.5775, 847.3372
420.0596, 907.8615
420.5417, 987.6794
421.0238, 1062.627
421.5059, 1115.211
421.9880, 1155.033
422.4702, 1201.153
422.9523, 1260.169
423.4344, 1327.752
423.9165, 1396.647
424.3986, 1467.041
424.8807, 1537.564
425.3629, 1607.985
425.8450, 1678.668
426.3271, 1753.333
426.8092, 1828.696
427.2913, 1897.584
427.7734, 1956.298
428.2556, 2003.984
428.7377, 2038.689
429.2198, 2060.860
429.7019, 2068.386
430.1840, 2062.809
430.6661, 2041.542
431.1483, 1999.534
431.6304, 1936.038
432.1125, 1860.238
432.5946, 1770.604
433.0767, 1673.815
433.5588, 1592.489
434.0410, 1531.177
434.5231, 1474.881
435.0052, 1412.012
435.4873, 1344.665
435.9694, 1283.534
436.4515, 1229.746
436.9337, 1181.661
437.4158, 1138.830
437.8979, 1101.139
438.3800, 1068.549
438.8621, 1040.696
439.3442, 1018.911
439.8264, 1005.720
440.3085, 1004.973
440.7906, 1002.199
441.2727, 990.7415
441.7548, 983.7507
442.2369, 989.8111
442.7191, 1005.786
443.2012, 1023.353
443.6833, 1037.508
444.1654, 1049.985
444.6475, 1065.251
445.1296, 1083.676
445.6118, 1103.773
446.0939, 1125.642
446.5760, 1148.852
447.0581, 1172.914
447.5402, 1197.883
448.0223, 1224.642
448.5045, 1256.572
448.9866, 1289.903
449.4687, 1317.857
449.9508, 1339.646
450.4329, 1358.195
450.9150, 1377.108
451.3972, 1393.568
451.8793, 1397.295
452.3614, 1383.314
452.8435, 1363.903
453.3256, 1339.553
453.8077, 1313.137
454.2899, 1290.447
454.7720, 1272.080
455.2541, 1249.581
455.7362, 1212.407
456.2183, 1158.684
456.7004, 1106.314
457.1826, 1054.007
457.6647, 1004.131
458.1468, 959.6797
458.6289, 917.5620
459.1110, 872.3768
459.5931, 821.3889
460.0753, 770.9846
460.5574, 731.7610
461.0395, 703.7622
461.5216, 674.6285
462.0037, 641.8166
462.4858, 607.7136
462.9680, 571.7251
463.4501, 535.2717
463.9322, 506.3396
464.4143, 492.8595
464.8964, 483.5092
465.3785, 468.7001
465.8607, 449.3059
466.3428, 429.3326
466.8249, 410.2503
467.3070, 392.6332
467.7891, 377.6156
468.2712, 366.6229
468.7534, 355.8900
469.2355, 346.1125
469.7176, 335.9965
470.1997, 323.4272
470.6818, 309.5657
471.1639, 298.0365
471.6461, 291.9232
472.1282, 289.2278
472.6103, 282.6339
473.0924, 269.8760
473.5745, 258.9303
474.0566, 253.3355
474.5388, 249.5046
475.0209, 245.1687
475.5030, 240.0589
475.9851, 234.4986
476.4672, 228.5236
476.9493, 222.2616
477.4315, 215.8473
477.9136, 209.2946
478.3957, 203.0891
478.8778, 197.6185
479.3599, 192.7569
479.8420, 188.0307
480.3242, 182.9030
480.8063, 178.6458
481.2884, 175.9241
481.7705, 173.9833
482.2526, 171.8480
482.7347, 169.5222
483.2169, 168.1422
483.6990, 169.2619
484.1811, 172.6197
484.6632, 172.4409
485.1453, 166.1266
485.6274, 160.1800
486.1096, 156.2591
486.5917, 153.6072
487.0738, 151.4263
487.5559, 149.5342
488.0380, 148.2486
488.5201, 148.5667
489.0023, 149.7851
489.4844, 149.0283
489.9665, 145.4845
490.4486, 142.5338
490.9307, 143.4781
491.4128, 147.2532
491.8950, 147.7460
492.3771, 142.5480
492.8592, 136.9328
493.3413, 131.5456
493.8234, 127.2330
494.3055, 125.6590
494.7877, 126.9967
495.2698, 129.0331
495.7519, 129.3120
496.2340, 127.7270
496.7161, 125.9129
497.1982, 123.9065
497.6804, 121.5979
498.1625, 118.5122
498.6446, 115.3064
499.1267, 112.6301
499.6088, 110.6229
500.0909, 109.7568
500.5730, 111.3068
501.0551, 114.6136
501.5373, 116.6626
502.0194, 117.0775
502.5015, 116.0385
502.9836, 112.9078
503.4657, 108.2056
503.9478, 105.1319
504.4300, 104.9736
504.9121, 105.1069
505.3942, 104.9384
505.8763, 104.2572
506.3584, 102.1471
506.8405, 98.59167
507.3227, 95.63721
507.8048, 95.84933
508.2869, 99.47653
508.7690, 103.1988
509.2511, 109.4110
509.7332, 112.6250
510.2154, 108.9337
510.6975, 102.4564
511.1796, 98.50832
511.6617, 98.72054
512.1439, 100.4076
512.6260, 101.6460
513.1081, 102.3016
513.5902, 101.5953
514.0723, 99.17718
514.5544, 96.47987
515.0366, 94.19859
515.5187, 92.57178
516.0008, 92.65849
516.4829, 96.95081
516.9650, 99.96555
517.4471, 98.52385
517.9293, 95.42010
518.4114, 94.77042
518.8935, 97.15713
519.3756, 99.16786
519.8577, 96.58203
520.3398, 89.45025
520.8220, 86.78378
521.3041, 92.22463
521.7862, 96.64476
522.2683, 96.23458
522.7504, 94.05341
523.2325, 93.63464
523.7147, 95.82378
524.1968, 98.16908
524.6789, 98.48679
525.1610, 97.70349
525.6431, 98.45548
526.1252, 101.1134
526.6074, 102.7308
527.0895, 100.9776
527.5716, 96.63033
528.0537, 93.61275
528.5358, 92.55190
529.0179, 91.79353
529.5001, 91.43834
529.9822, 91.07378
530.4643, 90.11075
530.9464, 88.64979
531.4285, 87.52244
531.9106, 87.58427
532.3928, 88.44926
532.8749, 87.99606
533.3570, 85.41060
533.8391, 83.77312
534.3212, 84.18301
534.8033, 85.91364
535.2855, 88.83237
535.7676, 92.94961
536.2497, 96.18327
536.7318, 97.83169
537.2139, 97.96317
537.6960, 95.91231
538.1782, 92.08601
538.6603, 88.53056
539.1424, 86.11752
539.6245, 85.12715
540.1066, 86.44359
540.5887, 93.13226
541.0709, 96.38994
541.5530, 93.51415
542.0351, 90.00179
542.5172, 88.64694
542.9993, 89.22263
543.4814, 90.33112
543.9636, 91.20748
544.4457, 92.29047
544.9278, 95.03735
545.4099, 99.43839
545.8920, 101.1791
546.3741, 98.10239
546.8563, 94.18233
547.3384, 93.73286
547.8205, 96.37675
548.3026, 98.56700
548.7847, 98.73862
549.2668, 99.55699
549.7490, 103.9671
550.2311, 109.5750
550.7132, 111.9054
551.1953, 109.6534
551.6774, 105.5686
552.1595, 102.9167
552.6417, 101.7131
553.1238, 101.7805
553.6059, 103.4145
554.0880, 105.9894
554.5701, 110.1875
555.0522, 114.6934
555.5344, 117.7550
556.0165, 118.8399
556.4986, 119.4446
556.9807, 120.5891
557.4628, 121.9856
557.9449, 123.1319
558.4271, 123.9741
558.9092, 124.4385
559.3913, 124.3437
559.8734, 123.9328
560.3555, 124.2321
560.8376, 125.1295
561.3198, 126.9630
561.8019, 130.2456
562.2840, 134.0746
562.7661, 138.2666
563.2482, 142.4592
563.7303, 145.5218
564.2125, 146.0643
564.6946, 145.9482
565.1767, 149.9328
565.6588, 158.3149
566.1409, 164.7829
566.6230, 166.2480
567.1052, 167.1062
567.5873, 172.5263
568.0694, 182.1948
568.5515, 193.3104
569.0336, 209.0249
569.5157, 222.4591
569.9979, 227.6234
570.4800, 228.3151
570.9621, 231.5653
571.4442, 239.6477
571.9263, 249.3723
572.4084, 256.8283
572.8906, 261.9196
573.3727, 265.6125
573.8548, 267.4445
574.3369, 268.5270
574.8190, 269.6288
575.3011, 270.1400
575.7833, 269.0418
576.2654, 265.9100
576.7475, 262.6271
577.2296, 260.9941
577.7117, 259.5092
578.1938, 255.4242
578.6760, 248.8652
579.1581, 242.6822
579.6402, 238.5619
580.1223, 236.1895
580.6044, 234.5248
581.0865, 232.4910
581.5686, 233.2222
582.0507, 237.9611
582.5328, 244.0465
583.0150, 249.3916
583.4971, 254.8297
583.9792, 262.9023
584.4613, 275.3687
584.9434, 289.9117
585.4255, 304.5569
585.9077, 318.9870
586.3898, 330.0851
586.8719, 335.9459
587.3540, 344.1793
587.8361, 362.9549
588.3182, 392.0707
588.8004, 417.8100
589.2825, 436.1116
589.7646, 456.3693
590.2467, 480.4641
590.7288, 507.7358
591.2109, 538.8030
591.6931, 572.9203
592.1752, 606.6396
592.6573, 635.9218
593.1394, 662.9103
593.6215, 696.3306
594.1036, 737.6400
594.5858, 775.8115
595.0679, 804.1699
595.5500, 830.8693
596.0321, 869.1771
596.5142, 919.7685
596.9963, 967.2897
597.4785, 1010.463
597.9606, 1048.730
598.4427, 1081.089
598.9248, 1108.651
599.4069, 1134.374
599.8890, 1159.116
600.3712, 1178.366
600.8533, 1183.953
601.3354, 1175.396
601.8175, 1170.236
602.2996, 1168.406
602.7817, 1170.192
603.2639, 1177.398
603.7460, 1187.705
604.2281, 1197.852
604.7102, 1207.099
605.1923, 1218.328
605.6744, 1232.929
606.1566, 1249.804
606.6387, 1267.102
607.1208, 1285.489
607.6029, 1307.937
608.0850, 1336.363
608.5671, 1368.287
609.0493, 1401.161
609.5314, 1440.481
610.0135, 1460.257
610.4956, 1451.413
610.9777, 1431.093
611.4598, 1408.218
611.9420, 1380.638
612.4241, 1344.082
612.9062, 1296.764
613.3883, 1242.276
613.8704, 1180.769
614.3525, 1114.236
614.8347, 1044.447
615.3168, 972.5422
615.7989, 904.5910
616.2810, 845.2856
616.7631, 793.2882
617.2452, 743.8020
617.7274, 698.3427
618.2095, 652.9314
618.6916, 604.1586
619.1737, 558.3488
619.6558, 519.3440
620.1379, 486.3259
620.6201, 456.0275
