##NAMES=Triplite
##RRUFFID=R050186
##IDEAL CHEMISTRY=Mn^2+^_2_(PO_4_)F
##LOCALITY=Wuzhou, Guangxi Autonomous Region, China
##OWNER=RRUFF
##SOURCE=John Lucking
##DESCRIPTION=Orangish red fragments
##STATUS=The identification of this mineral has been confirmed by X-ray diffraction and chemical analysis
##URL=rruff.info/R050186
##MEASURED CHEMISTRY=(Mn^2+^_1.60_Fe^2+^_0.21_Mg_0.15_Ca_0.04_)_Σ=2_(P_1.00_O_4_)(F_0.80_(OH)_0.20_)_Σ=1_
82.99548, 128.9619
83.47760, 120.4863
83.95972, 119.5999
84.44183, 139.2037
84.92395, 156.5582
85.40607, 159.5552
85.88818, 148.3979
86.37030, 137.6932
86.85242, 137.6090
87.33453, 142.9399
87.81665, 145.8298
88.29876, 140.8406
88.78088, 132.5827
89.26299, 124.8169
89.74511, 117.4699
90.22723, 112.3954
90.70934, 111.9724
91.19146, 115.6948
91.67358, 121.2900
92.15569, 131.1431
92.63781, 141.8398
93.11993, 144.9831
93.60204, 134.8714
94.08416, 118.3969
94.56628, 111.2306
95.04839, 114.0247
95.53051, 118.4306
96.01263, 112.8685
96.49474, 97.95136
96.97686, 88.39504
97.45898, 93.19553
97.94109, 111.4037
98.42320, 123.1930
98.90532, 127.7802
99.38744, 126.9671
99.86955, 123.6738
100.3517, 117.3315
100.8338, 110.4871
101.3159, 103.4162
101.7980, 94.69533
102.2801, 92.04659
102.7623, 98.84087
103.2444, 113.5602
103.7265, 121.3360
104.2086, 119.1886
104.6907, 113.3048
105.1728, 109.3851
105.6550, 108.8219
106.1371, 108.0451
106.6192, 105.5155
107.1013, 99.48557
107.5834, 98.31554
108.0655, 105.4557
108.5477, 116.9866
109.0298, 125.6841
109.5119, 127.4417
109.9940, 129.8170
110.4761, 135.2095
110.9582, 145.1104
111.4403, 156.2278
111.9225, 167.3443
112.4046, 179.0356
112.8867, 194.3146
113.3688, 214.5189
113.8509, 237.7635
114.3330, 263.0033
114.8152, 288.3759
115.2973, 316.9585
115.7794, 352.6371
116.2615, 395.8626
116.7436, 434.4521
117.2257, 456.7052
117.7079, 472.1920
118.1900, 493.3558
118.6721, 530.3317
119.1542, 571.1428
119.6363, 608.7681
120.1184, 641.8171
120.6006, 672.2953
121.0827, 697.9267
121.5648, 721.1373
122.0469, 748.4269
122.5290, 790.7834
123.0111, 837.1857
123.4933, 872.5477
123.9754, 883.4356
124.4575, 892.3282
124.9396, 927.6008
125.4217, 987.4132
125.9038, 1049.972
126.3860, 1087.029
126.8681, 1097.626
127.3502, 1106.462
127.8323, 1134.411
128.3144, 1171.880
128.7965, 1199.392
129.2787, 1216.491
129.7608, 1229.126
130.2429, 1244.943
130.7250, 1263.153
131.2071, 1277.718
131.6892, 1281.864
132.1714, 1277.990
132.6535, 1280.993
133.1356, 1292.157
133.6177, 1309.429
134.0998, 1329.996
134.5819, 1353.985
135.0640, 1377.350
135.5462, 1396.731
136.0283, 1411.887
136.5104, 1426.115
136.9925, 1437.798
137.4746, 1448.732
137.9567, 1472.163
138.4389, 1512.552
138.9210, 1555.278
139.4031, 1584.134
139.8852, 1596.192
140.3673, 1606.937
140.8494, 1620.626
141.3316, 1638.024
141.8137, 1654.047
142.2958, 1668.466
142.7779, 1682.353
143.2600, 1698.958
143.7421, 1723.957
144.2243, 1742.713
144.7064, 1748.735
145.1885, 1733.578
145.6706, 1723.665
146.1527, 1723.740
146.6348, 1729.499
147.1170, 1724.146
147.5991, 1695.811
148.0812, 1666.857
148.5633, 1649.655
149.0454, 1658.754
149.5275, 1661.241
150.0097, 1651.441
150.4918, 1629.362
150.9739, 1611.979
151.4560, 1598.664
151.9381, 1590.287
152.4202, 1587.405
152.9024, 1592.195
153.3845, 1600.237
153.8666, 1611.941
154.3487, 1628.350
154.8308, 1642.254
155.3129, 1652.557
155.7950, 1659.915
156.2772, 1665.022
156.7593, 1662.126
157.2414, 1661.734
157.7235, 1669.481
158.2056, 1691.732
158.6877, 1709.434
159.1699, 1715.179
159.6520, 1712.622
160.1341, 1710.263
160.6162, 1709.424
161.0983, 1710.675
161.5804, 1714.927
162.0626, 1729.349
162.5447, 1738.411
163.0268, 1732.675
163.5089, 1714.685
163.9910, 1697.652
164.4731, 1686.107
164.9553, 1679.020
165.4374, 1675.394
165.9195, 1678.697
166.4016, 1682.383
166.8837, 1680.251
167.3658, 1672.195
167.8480, 1668.691
168.3301, 1677.689
168.8122, 1695.085
169.2943, 1714.725
169.7764, 1737.385
170.2585, 1759.213
170.7407, 1776.415
171.2228, 1788.395
171.7049, 1798.258
172.1870, 1806.942
172.6691, 1815.247
173.1512, 1825.012
173.6334, 1842.184
174.1155, 1859.881
174.5976, 1867.774
175.0797, 1861.689
175.5618, 1852.120
176.0439, 1851.601
176.5260, 1858.135
177.0082, 1862.058
177.4903, 1853.883
177.9724, 1838.866
178.4545, 1828.174
178.9366, 1826.619
179.4187, 1827.522
179.9009, 1820.528
180.3830, 1806.005
180.8651, 1790.336
181.3472, 1778.898
181.8293, 1770.488
182.3114, 1761.418
182.7936, 1749.505
183.2757, 1736.583
183.7578, 1727.808
184.2399, 1723.806
184.7220, 1717.160
185.2041, 1695.114
185.6863, 1660.704
186.1684, 1633.267
186.6505, 1624.703
187.1326, 1629.801
187.6147, 1627.882
188.0968, 1617.586
188.5790, 1605.096
189.0611, 1601.497
189.5432, 1606.173
190.0253, 1604.976
190.5074, 1586.562
190.9895, 1554.083
191.4717, 1528.794
191.9538, 1512.630
192.4359, 1502.007
192.9180, 1492.144
193.4001, 1483.292
193.8822, 1471.093
194.3644, 1451.265
194.8465, 1424.144
195.3286, 1399.042
195.8107, 1377.627
196.2928, 1358.216
196.7749, 1335.798
197.2570, 1309.841
197.7392, 1284.233
198.2213, 1262.249
198.7034, 1243.943
199.1855, 1226.857
199.6676, 1210.658
200.1497, 1195.188
200.6319, 1179.821
201.1140, 1164.532
201.5961, 1149.454
202.0782, 1134.412
202.5603, 1119.040
203.0424, 1105.885
203.5246, 1095.502
204.0067, 1087.844
204.4888, 1084.260
204.9709, 1086.894
205.4530, 1089.395
205.9352, 1083.174
206.4173, 1065.646
206.8994, 1049.583
207.3815, 1038.707
207.8636, 1032.955
208.3457, 1030.697
208.8279, 1033.681
209.3100, 1037.852
209.7921, 1037.423
210.2742, 1031.849
210.7563, 1023.114
211.2384, 1010.153
211.7206, 990.7838
212.2027, 980.1636
212.6848, 980.9769
213.1669, 988.3470
213.6490, 993.1324
214.1311, 995.1519
214.6133, 995.0947
215.0954, 992.7144
215.5775, 987.0182
216.0596, 982.5070
216.5417, 979.3620
217.0238, 977.3586
217.5059, 976.4515
217.9881, 978.5342
218.4702, 978.2862
218.9523, 971.6602
219.4344, 954.2119
219.9165, 943.4587
220.3986, 943.8036
220.8808, 951.1898
221.3629, 948.5086
221.8450, 928.9980
222.3271, 909.5845
222.8092, 901.5181
223.2913, 911.8969
223.7735, 916.8391
224.2556, 912.1783
224.7377, 899.5934
225.2198, 891.2781
225.7019, 889.7540
226.1840, 889.1228
226.6662, 884.0211
227.1483, 868.9145
227.6304, 861.3962
228.1125, 867.4802
228.5946, 885.7951
229.0767, 892.7170
229.5589, 881.6884
230.0410, 866.3427
230.5231, 858.1999
231.0052, 859.9185
231.4873, 863.9495
231.9694, 868.9566
232.4516, 874.8851
232.9337, 884.6555
233.4158, 902.2767
233.8979, 919.9411
234.3800, 928.7112
234.8621, 922.4719
235.3443, 918.5692
235.8264, 921.5046
236.3085, 932.2032
236.7906, 939.9125
237.2727, 942.8191
237.7548, 944.2276
238.2369, 948.7036
238.7191, 960.6323
239.2012, 968.1022
239.6833, 967.2202
240.1654, 956.4655
240.6475, 946.1009
241.1296, 933.6780
241.6118, 923.3491
242.0939, 921.5350
242.5760, 932.7263
243.0581, 944.9738
243.5402, 955.7889
244.0223, 965.8159
244.5045, 970.9786
244.9866, 970.0595
245.4687, 965.0484
245.9508, 958.3414
246.4329, 946.4960
246.9150, 938.7697
247.3972, 940.1410
247.8793, 955.6746
248.3614, 961.6316
248.8435, 953.2792
249.3256, 937.7537
249.8077, 928.7188
250.2899, 928.5075
250.7720, 930.7228
251.2541, 933.3839
251.7362, 936.8039
252.2183, 939.7353
252.7004, 942.8154
253.1826, 945.0471
253.6647, 944.2244
254.1468, 939.6118
254.6289, 933.0869
255.1110, 924.6373
255.5931, 911.9823
256.0753, 903.7007
256.5574, 901.0607
257.0395, 902.0710
257.5216, 902.1132
258.0037, 900.9003
258.4858, 899.2521
258.9680, 897.4497
259.4501, 895.2788
259.9322, 893.4521
260.4143, 891.5719
260.8964, 890.2363
261.3785, 891.1497
261.8607, 894.9063
262.3428, 899.7745
262.8249, 904.7732
263.3070, 909.2575
263.7891, 916.5302
264.2712, 928.5273
264.7534, 942.4810
265.2355, 948.3908
265.7176, 940.8221
266.1997, 937.6632
266.6818, 951.2927
267.1639, 988.2514
267.6461, 1015.441
268.1282, 1029.525
268.6103, 1033.655
269.0924, 1034.268
269.5745, 1027.656
270.0566, 1027.232
270.5387, 1044.620
271.0208, 1085.452
271.5030, 1113.404
271.9851, 1122.073
272.4672, 1118.974
272.9493, 1125.652
273.4314, 1144.630
273.9135, 1164.679
274.3957, 1178.179
274.8778, 1184.024
275.3599, 1193.029
275.8420, 1208.164
276.3241, 1225.330
276.8062, 1233.376
277.2884, 1231.360
277.7705, 1224.545
278.2526, 1213.515
278.7347, 1197.690
279.2168, 1189.818
279.6989, 1194.152
280.1811, 1204.025
280.6632, 1202.119
281.1453, 1187.094
281.6274, 1169.078
282.1095, 1154.307
282.5916, 1142.698
283.0738, 1130.052
283.5559, 1115.569
284.0380, 1100.190
284.5201, 1085.999
285.0022, 1072.902
285.4843, 1061.223
285.9665, 1051.937
286.4486, 1044.753
286.9307, 1036.667
287.4128, 1027.545
287.8949, 1017.264
288.3770, 1005.152
288.8592, 991.2048
289.3413, 977.7910
289.8234, 968.0944
290.3055, 960.8185
290.7876, 948.2941
291.2697, 927.4588
291.7519, 905.3239
292.2340, 895.2751
292.7161, 896.6112
293.1982, 898.7490
293.6803, 893.7814
294.1624, 884.2184
294.6446, 878.8914
295.1267, 880.0796
295.6088, 882.5000
296.0909, 877.2233
296.5730, 865.5237
297.0551, 854.5789
297.5373, 849.9565
298.0194, 849.0878
298.5015, 846.6687
298.9836, 841.9130
299.4657, 836.0726
299.9478, 829.4452
300.4300, 822.6812
300.9121, 818.4249
301.3942, 821.1364
301.8763, 826.5480
302.3584, 827.4390
302.8405, 822.1008
303.3227, 815.7334
303.8048, 814.5247
304.2869, 816.6204
304.7690, 816.7613
305.2511, 808.4046
305.7332, 798.3159
306.2154, 794.2208
306.6975, 797.5895
307.1796, 804.0139
307.6617, 811.8127
308.1438, 819.9690
308.6259, 826.6851
309.1081, 830.6513
309.5901, 832.9420
310.0723, 835.1985
310.5544, 838.0967
311.0365, 837.5952
311.5186, 826.6613
312.0007, 811.0714
312.4828, 800.6404
312.9650, 801.9314
313.4471, 807.7383
313.9292, 816.2448
314.4113, 828.4318
314.8934, 833.7282
315.3755, 819.7136
315.8577, 797.5820
316.3398, 782.5063
316.8219, 784.9066
317.3040, 790.8876
317.7861, 795.3811
318.2682, 798.1400
318.7504, 798.0254
319.2325, 792.4739
319.7146, 784.6147
320.1967, 777.8834
320.6788, 770.9189
321.1609, 767.2078
321.6431, 770.4195
322.1252, 781.0989
322.6073, 786.4510
323.0894, 781.7713
323.5715, 771.7899
324.0536, 760.4932
324.5358, 745.5452
325.0179, 732.4918
325.5000, 723.5696
325.9821, 718.8867
326.4642, 711.8476
326.9464, 699.6037
327.4285, 686.3832
327.9106, 674.9925
328.3927, 663.3873
328.8748, 656.3760
329.3569, 656.8621
329.8391, 663.7536
330.3212, 666.7280
330.8033, 664.4866
331.2854, 659.5806
331.7675, 653.4092
332.2496, 644.8417
332.7318, 636.9997
333.2139, 630.0085
333.6960, 623.9001
334.1781, 618.6008
334.6602, 614.4473
335.1423, 610.5773
335.6245, 606.1992
336.1066, 600.4337
336.5887, 596.9654
337.0708, 596.6918
337.5529, 598.3425
338.0350, 599.0112
338.5172, 599.1615
338.9993, 596.9086
339.4814, 589.0063
339.9635, 573.9798
340.4456, 568.3713
340.9277, 576.0168
341.4099, 588.2690
341.8920, 587.9476
342.3741, 573.6826
342.8562, 559.9804
343.3383, 555.0910
343.8204, 558.0390
344.3026, 556.8453
344.7847, 550.4918
345.2668, 542.8589
345.7489, 540.4690
346.2310, 542.6937
346.7131, 542.7705
347.1953, 535.0699
347.6774, 523.0472
348.1595, 518.5278
348.6416, 522.1357
349.1237, 527.3425
349.6058, 527.1101
350.0880, 522.9047
350.5700, 519.1304
351.0522, 517.4572
351.5343, 517.1763
352.0164, 518.0428
352.4985, 519.9713
352.9806, 520.6554
353.4627, 516.6292
353.9449, 510.4129
354.4270, 506.1933
354.9091, 506.5108
355.3912, 507.9194
355.8733, 507.9670
356.3554, 506.5961
356.8376, 503.5812
357.3197, 495.0959
357.8018, 486.5623
358.2839, 483.8318
358.7660, 492.0127
359.2481, 500.1880
359.7303, 501.7262
360.2124, 498.4963
360.6945, 495.8736
361.1766, 498.4928
361.6587, 500.8282
362.1408, 498.5810
362.6230, 487.5836
363.1051, 480.1966
363.5872, 482.2847
364.0693, 490.1463
364.5514, 496.9052
365.0335, 501.4308
365.5157, 504.3660
365.9978, 505.6432
366.4799, 504.7052
366.9620, 503.9359
367.4441, 502.7380
367.9262, 502.0588
368.4084, 503.1086
368.8905, 506.7799
369.3726, 511.1695
369.8547, 516.4765
370.3368, 523.0239
370.8189, 527.2873
371.3011, 529.4840
371.7832, 529.1810
372.2653, 524.9746
372.7474, 512.1760
373.2295, 505.7726
373.7116, 510.2155
374.1938, 523.7435
374.6759, 533.2017
375.1580, 537.9294
375.6401, 539.8871
376.1222, 539.0433
376.6043, 534.2902
377.0865, 534.7413
377.5686, 543.4360
378.0507, 556.1904
378.5328, 560.6100
379.0149, 555.6210
379.4970, 551.3658
379.9792, 554.7598
380.4613, 565.0725
380.9434, 574.6408
381.4255, 583.4009
381.9076, 590.4661
382.3897, 592.6936
382.8719, 590.9913
383.3540, 591.7985
383.8361, 600.1049
384.3182, 612.8465
384.8003, 623.7825
385.2824, 632.7796
385.7646, 639.6096
386.2467, 642.2031
386.7288, 642.5138
387.2109, 644.8416
387.6930, 652.9194
388.1751, 662.4451
388.6573, 669.2853
389.1394, 673.6641
389.6215, 677.1918
390.1036, 677.9974
390.5857, 679.6816
391.0678, 686.5114
391.5499, 703.9702
392.0320, 721.3233
392.5142, 732.6998
392.9963, 739.2567
393.4784, 744.7589
393.9605, 750.0920
394.4426, 755.1278
394.9247, 759.2146
395.4069, 759.8660
395.8890, 764.6852
396.3711, 778.2048
396.8532, 796.5898
397.3353, 812.8638
397.8174, 825.8409
398.2996, 836.8697
398.7817, 846.1417
399.2638, 853.5896
399.7459, 859.4083
400.2280, 859.3209
400.7101, 860.1223
401.1923, 869.2867
401.6744, 890.5223
402.1565, 913.5244
402.6386, 936.9581
403.1207, 960.7732
403.6028, 984.1058
404.0850, 1006.779
404.5671, 1029.375
405.0492, 1052.442
405.5313, 1075.907
406.0134, 1099.922
406.4955, 1123.069
406.9777, 1147.703
407.4598, 1180.139
407.9419, 1220.976
408.4240, 1265.845
408.9061, 1312.811
409.3882, 1361.900
409.8704, 1411.314
410.3525, 1460.332
410.8346, 1512.292
411.3167, 1572.235
411.7988, 1640.264
412.2809, 1713.037
412.7631, 1790.005
413.2452, 1871.999
413.7273, 1959.550
414.2094, 2052.993
414.6915, 2150.898
415.1736, 2244.876
415.6558, 2344.080
416.1379, 2459.407
416.6200, 2605.337
417.1021, 2759.095
417.5842, 2905.118
418.0663, 3046.644
418.5485, 3194.017
419.0306, 3360.902
419.5127, 3531.426
419.9948, 3698.365
420.4769, 3861.005
420.9590, 4011.487
421.4412, 4139.688
421.9233, 4255.275
422.4054, 4379.291
422.8875, 4530.370
423.3696, 4675.994
423.8517, 4800.451
424.3339, 4892.343
424.8160, 5001.808
425.2981, 5143.890
425.7802, 5293.246
426.2623, 5427.461
426.7444, 5539.854
427.2266, 5647.943
427.7087, 5764.853
428.1908, 5883.083
428.6729, 5956.793
429.1550, 5982.925
429.6371, 5971.524
430.1193, 5929.485
430.6014, 5857.693
431.0835, 5746.259
431.5656, 5590.354
432.0477, 5399.918
432.5298, 5186.943
433.0119, 4950.960
433.4940, 4713.250
433.9762, 4476.304
434.4583, 4244.975
434.9404, 4039.076
435.4225, 3860.012
435.9046, 3696.541
436.3867, 3534.342
436.8689, 3379.493
437.3510, 3249.509
437.8331, 3157.612
438.3152, 3087.395
438.7973, 3023.015
439.2794, 2964.883
439.7616, 2915.164
440.2437, 2875.496
440.7258, 2845.301
441.2079, 2823.967
441.6900, 2810.422
442.1721, 2807.846
442.6543, 2823.130
443.1364, 2850.090
443.6185, 2876.734
444.1006, 2898.540
444.5827, 2919.737
445.0648, 2940.106
445.5470, 2957.804
446.0291, 2985.082
446.5112, 3031.411
446.9933, 3083.770
447.4754, 3130.883
447.9576, 3168.396
448.4397, 3206.404
448.9218, 3245.962
449.4039, 3286.848
449.8860, 3329.804
450.3681, 3383.707
450.8503, 3422.500
451.3324, 3427.965
451.8145, 3394.475
452.2966, 3360.001
452.7787, 3327.213
453.2608, 3291.605
453.7430, 3246.724
454.2251, 3193.073
454.7072, 3126.110
455.1893, 3040.844
455.6714, 2941.075
456.1535, 2836.622
456.6357, 2727.826
457.1178, 2617.884
457.5999, 2508.658
458.0820, 2401.180
458.5641, 2301.021
459.0462, 2210.367
459.5284, 2123.780
460.0105, 2036.140
460.4926, 1947.651
460.9747, 1863.367
461.4568, 1783.666
461.9389, 1709.449
462.4211, 1641.678
462.9032, 1580.180
463.3853, 1523.178
463.8674, 1469.949
464.3495, 1420.693
464.8316, 1375.667
465.3138, 1335.853
465.7959, 1299.349
466.2780, 1267.508
466.7601, 1240.168
467.2422, 1211.283
467.7243, 1180.500
468.2065, 1148.136
468.6886, 1113.551
469.1707, 1074.003
469.6528, 1038.821
470.1349, 1010.515
470.6170, 985.4502
471.0992, 955.1481
471.5813, 917.1125
472.0634, 882.8919
472.5455, 856.8788
473.0276, 838.4589
473.5097, 823.0636
473.9918, 811.3267
474.4739, 798.2947
474.9561, 776.6855
475.4382, 748.5106
475.9203, 724.5392
476.4024, 707.9747
476.8845, 695.1107
477.3666, 679.9717
477.8488, 663.5721
478.3309, 650.2521
478.8130, 646.8545
479.2951, 645.6395
479.7772, 637.7626
480.2593, 621.6110
480.7415, 604.3652
481.2236, 589.5823
481.7057, 576.3024
482.1878, 563.3534
482.6699, 548.9607
483.1520, 536.2070
483.6342, 526.2797
484.1163, 518.9526
484.5984, 512.9149
485.0805, 508.7169
485.5626, 505.1997
486.0447, 501.7388
486.5269, 498.0532
487.0090, 495.1533
487.4911, 494.2156
487.9732, 493.3389
488.4553, 489.2402
488.9374, 480.8282
489.4196, 472.4533
489.9017, 464.8479
490.3838, 458.2404
490.8659, 454.6404
491.3480, 454.7084
491.8301, 454.3690
492.3123, 449.8136
492.7944, 441.7754
493.2765, 434.2825
493.7586, 428.3363
494.2407, 422.1335
494.7228, 410.6251
495.2050, 396.2609
495.6871, 387.1626
496.1692, 392.4533
496.6513, 401.7805
497.1334, 404.4650
497.6155, 400.2505
498.0977, 394.8113
498.5798, 391.7261
499.0619, 388.9157
499.5440, 384.2510
500.0261, 373.0916
500.5082, 365.6519
500.9904, 368.3702
501.4725, 377.0254
501.9546, 381.2862
502.4367, 375.1549
502.9188, 368.7175
503.4009, 364.9304
503.8831, 364.1494
504.3652, 364.0952
504.8473, 366.5902
505.3294, 367.6785
505.8115, 362.0274
506.2936, 346.4050
506.7758, 338.3925
507.2579, 343.6833
507.7400, 355.1598
508.2221, 352.5880
508.7042, 335.3820
509.1863, 319.8302
509.6685, 315.7536
510.1506, 320.2291
510.6327, 325.0765
511.1148, 330.2097
511.5969, 333.9717
512.0790, 334.7426
512.5612, 333.0603
513.0433, 329.5948
513.5254, 322.2568
514.0075, 316.1691
514.4896, 316.2991
514.9717, 320.9931
515.4539, 325.2280
515.9360, 327.9802
516.4181, 328.8190
516.9002, 326.6499
517.3823, 320.2465
517.8644, 316.0243
518.3466, 317.0304
518.8287, 319.6628
519.3108, 320.2694
519.7929, 315.5415
520.2750, 314.2264
520.7571, 319.5285
521.2393, 328.6963
521.7214, 331.5439
522.2035, 326.2609
522.6856, 319.7335
523.1677, 314.7310
523.6498, 311.2714
524.1320, 310.2935
524.6141, 312.1897
525.0962, 314.8623
525.5783, 316.3722
526.0604, 316.7808
526.5425, 316.1468
527.0247, 313.8237
527.5068, 311.4478
527.9889, 311.8058
528.4710, 314.0825
528.9531, 315.3827
529.4352, 312.5798
529.9174, 309.1325
530.3995, 308.1504
530.8816, 310.2640
531.3637, 311.9403
531.8458, 311.1217
532.3279, 309.5225
532.8101, 308.7288
533.2922, 310.0819
533.7743, 310.9825
534.2564, 309.7462
534.7385, 307.7710
535.2206, 309.6888
535.7027, 319.5536
536.1848, 326.6581
536.6669, 326.2170
537.1490, 317.6613
537.6312, 310.9769
538.1133, 306.0201
538.5954, 303.4643
539.0775, 305.3180
539.5596, 311.1042
540.0417, 314.8674
540.5239, 315.2056
541.0060, 313.7164
541.4881, 311.1481
541.9702, 308.4166
542.4523, 309.2146
542.9344, 319.5739
543.4166, 332.0017
543.8987, 338.9032
544.3808, 340.0849
544.8629, 338.6716
545.3450, 332.6159
545.8271, 326.8245
546.3093, 325.6312
546.7914, 332.4616
547.2735, 340.0635
547.7556, 348.1780
548.2377, 355.9603
548.7198, 361.6383
549.2020, 363.3721
549.6841, 365.4601
550.1662, 369.2921
550.6483, 374.7113
551.1304, 378.3307
551.6125, 379.4767
552.0947, 380.4355
552.5768, 383.2537
553.0589, 387.8962
553.5410, 390.3105
554.0231, 389.1357
554.5052, 388.7988
554.9874, 397.5588
555.4695, 413.0023
555.9516, 425.7374
556.4337, 427.8813
556.9158, 428.9199
557.3979, 442.6217
557.8801, 466.3860
558.3622, 486.4058
558.8443, 492.3586
559.3264, 493.8158
559.8085, 496.9162
560.2906, 501.9700
560.7728, 510.7961
561.2549, 527.9556
561.7370, 547.4131
562.2191, 562.3742
562.7012, 567.1904
563.1833, 575.3464
563.6655, 588.0436
564.1476, 604.9775
564.6297, 626.2721
565.1118, 654.0974
565.5939, 679.3887
566.0760, 696.8777
566.5582, 707.0211
567.0403, 719.5280
567.5224, 734.0643
568.0045, 752.5936
568.4866, 779.9028
568.9688, 812.6911
569.4509, 841.1770
569.9330, 861.5912
570.4151, 879.9642
570.8972, 902.7343
571.3793, 927.7850
571.8615, 949.9227
572.3436, 963.2835
572.8257, 976.5217
573.3078, 996.6981
573.7899, 1023.466
574.2720, 1043.843
574.7542, 1053.696
575.2363, 1057.498
575.7184, 1057.145
576.2005, 1049.452
576.6826, 1045.414
577.1647, 1047.614
577.6469, 1051.094
578.1290, 1047.853
578.6111, 1035.671
