##NAMES=Triphylite
##RRUFFID=R050624
##IDEAL CHEMISTRY=LiFe^2+^PO_4_
##LOCALITY=Minas Gerais, Brazil
##OWNER=RRUFF
##SOURCE=Gemological Center
##DESCRIPTION=Brown fragment
##STATUS=The identification of this mineral has been confirmed by X-ray diffraction and chemical analysis
##URL=rruff.info/R050624
##MEASURED CHEMISTRY=Li_1.00_(Fe^2+^_0.55_Mn^2+^_0.45_)_Î£=1_P_1.00_O_4_ ; Li not measured, but estimated by difference
91.11523, 22.76855
91.59735, 23.39395
92.07947, 22.93369
92.56158, 21.68430
93.04370, 20.57661
93.52582, 20.15215
94.00793, 20.24054
94.49006, 20.55176
94.97218, 21.12513
95.45429, 21.75875
95.93641, 22.13716
96.41853, 22.26452
96.90064, 22.31317
97.38276, 22.35862
97.86488, 22.40692
98.34699, 22.54177
98.82911, 22.79983
99.31123, 23.13965
99.79334, 23.53258
100.2755, 24.07923
100.7576, 24.31726
101.2397, 23.47439
101.7218, 21.10154
102.2039, 19.84863
102.6861, 20.74318
103.1682, 23.75716
103.6503, 25.09207
104.1324, 24.00246
104.6145, 22.07247
105.0966, 21.17229
105.5788, 21.64456
106.0609, 22.60141
106.5430, 24.10486
107.0251, 26.75027
107.5072, 27.78192
107.9893, 25.88881
108.4715, 22.70930
108.9536, 21.19121
109.4357, 23.17874
109.9178, 25.17267
110.3999, 26.01111
110.8820, 24.50024
111.3642, 23.78814
111.8463, 24.30938
112.3284, 25.74493
112.8105, 27.20045
113.2926, 28.14102
113.7747, 29.38235
114.2569, 31.35658
114.7390, 35.47605
115.2211, 38.80570
115.7032, 39.67877
116.1853, 38.74329
116.6674, 39.28481
117.1496, 43.25236
117.6317, 48.79075
118.1138, 54.31822
118.5959, 58.56557
119.0780, 63.42110
119.5602, 69.92796
120.0423, 78.08829
120.5244, 86.72160
121.0065, 95.22095
121.4886, 103.7972
121.9707, 112.7676
122.4529, 121.4844
122.9350, 131.0099
123.4171, 142.7725
123.8992, 157.0087
124.3813, 171.1840
124.8634, 182.3039
125.3456, 191.7066
125.8277, 202.4797
126.3098, 216.9866
126.7919, 233.4615
127.2740, 249.4037
127.7561, 264.6539
128.2383, 279.2006
128.7204, 292.2285
129.2025, 304.1435
129.6846, 317.0766
130.1667, 332.3114
130.6488, 349.4268
131.1310, 368.1570
131.6131, 388.6027
132.0952, 410.3813
132.5773, 432.7018
133.0594, 455.6562
133.5415, 479.7068
134.0237, 505.0874
134.5058, 531.9813
134.9879, 561.3958
135.4700, 594.6414
135.9521, 630.0135
136.4343, 663.4279
136.9164, 694.9570
137.3985, 724.6296
137.8806, 752.3708
138.3627, 778.1042
138.8448, 803.8258
139.3270, 830.3498
139.8091, 857.6564
140.2912, 883.8185
140.7733, 907.9441
141.2554, 932.9193
141.7375, 960.8429
142.2197, 991.2496
142.7018, 1026.720
143.1839, 1068.268
143.6660, 1115.900
144.1481, 1167.472
144.6302, 1226.976
145.1124, 1286.662
145.5945, 1337.275
146.0766, 1385.991
146.5587, 1415.348
147.0408, 1419.656
147.5230, 1395.523
148.0051, 1358.724
148.4872, 1295.336
148.9693, 1215.634
149.4514, 1146.389
149.9335, 1085.044
150.4157, 1035.584
150.8978, 1000.452
151.3799, 983.1414
151.8620, 970.5197
152.3441, 966.6081
152.8262, 966.8556
153.3084, 962.7738
153.7905, 957.3317
154.2726, 945.0283
154.7547, 923.0806
155.2368, 885.5957
155.7189, 848.8882
156.2011, 813.0912
156.6832, 778.9756
157.1653, 749.5582
157.6474, 725.9152
158.1295, 706.4871
158.6116, 690.5147
159.0938, 678.3330
159.5759, 668.7530
160.0580, 663.1148
160.5401, 660.2135
161.0222, 655.9628
161.5044, 649.2894
161.9865, 640.6774
162.4686, 630.3864
162.9507, 616.9763
163.4328, 603.6017
163.9149, 590.5275
164.3971, 577.9809
164.8792, 567.8267
165.3613, 562.6774
165.8434, 559.5023
166.3255, 555.5007
166.8076, 548.0093
167.2898, 541.0818
167.7719, 537.5988
168.2540, 537.1823
168.7361, 536.5540
169.2182, 532.2977
169.7003, 527.1724
170.1825, 524.4748
170.6646, 528.1116
171.1467, 532.7869
171.6288, 534.4083
172.1109, 533.0221
172.5931, 530.3129
173.0752, 526.0354
173.5573, 521.3984
174.0394, 518.3580
174.5215, 518.4595
175.0036, 520.1666
175.4858, 522.3838
175.9679, 525.1475
176.4500, 527.0144
176.9321, 525.7260
177.4142, 522.5607
177.8963, 520.4605
178.3785, 521.3918
178.8606, 523.9079
179.3427, 526.0168
179.8248, 527.7440
180.3069, 528.7214
180.7890, 527.7934
181.2712, 525.6046
181.7533, 524.2278
182.2354, 525.4975
182.7175, 528.1501
183.1996, 529.1431
183.6818, 528.1427
184.1639, 526.9150
184.6460, 527.7727
185.1281, 530.3607
185.6102, 532.8685
186.0923, 533.8726
186.5745, 534.0416
187.0566, 535.7802
187.5387, 539.5464
188.0208, 543.6578
188.5029, 545.6154
188.9850, 545.5962
189.4672, 545.7854
189.9493, 547.5822
190.4314, 550.6340
190.9135, 553.0167
191.3956, 554.4102
191.8777, 555.6840
192.3599, 558.2511
192.8420, 562.1061
193.3241, 566.5413
193.8062, 570.9128
194.2883, 575.3648
194.7704, 581.4768
195.2526, 589.8107
195.7347, 598.8911
196.2168, 605.8170
196.6989, 610.4143
197.1810, 614.8406
197.6632, 620.7395
198.1453, 628.1458
198.6274, 633.6447
199.1095, 636.9190
199.5916, 638.4187
200.0737, 639.2644
200.5559, 639.6674
201.0380, 638.2460
201.5201, 633.7684
202.0022, 625.9814
202.4843, 618.4389
202.9664, 611.5472
203.4486, 604.8204
203.9307, 596.8649
204.4128, 587.4269
204.8949, 578.1273
205.3770, 569.6417
205.8591, 561.8799
206.3413, 555.5892
206.8234, 550.9816
207.3055, 547.7133
207.7876, 544.8924
208.2697, 542.4268
208.7519, 540.7020
209.2340, 540.2393
209.7161, 541.4646
210.1982, 541.5620
210.6803, 539.7186
211.1624, 537.0286
211.6446, 536.8242
212.1267, 540.0513
212.6088, 543.4628
213.0909, 545.1456
213.5730, 544.3996
214.0551, 544.7184
214.5373, 546.5424
215.0194, 549.4358
215.5015, 552.0984
215.9836, 554.1799
216.4657, 556.7946
216.9478, 560.6973
217.4300, 566.3439
217.9121, 571.8450
218.3942, 577.1172
218.8763, 582.1437
219.3584, 586.7769
219.8405, 590.7750
220.3227, 594.7289
220.8048, 598.9387
221.2869, 603.5610
221.7690, 608.0342
222.2511, 612.2386
222.7333, 616.2957
223.2154, 620.3634
223.6975, 624.2897
224.1796, 628.5802
224.6617, 633.3606
225.1438, 638.2352
225.6260, 644.6537
226.1081, 652.7635
226.5902, 662.4218
227.0723, 673.0618
227.5544, 685.3405
228.0365, 697.7829
228.5187, 709.5780
229.0008, 719.9484
229.4829, 731.5402
229.9650, 744.7488
230.4471, 759.1582
230.9292, 773.8446
231.4114, 789.2177
231.8935, 804.5059
232.3756, 819.0728
232.8577, 832.5496
233.3398, 846.9339
233.8220, 863.7111
234.3041, 880.9396
234.7862, 893.5179
235.2683, 900.9451
235.7504, 904.5201
236.2325, 904.7278
236.7147, 901.4680
237.1968, 894.9467
237.6789, 883.7999
238.1610, 869.9896
238.6431, 857.6864
239.1252, 846.6453
239.6074, 837.3108
240.0895, 829.4673
240.5716, 822.1305
241.0537, 819.6807
241.5358, 824.5508
242.0179, 833.1292
242.5001, 837.9302
242.9822, 835.6833
243.4643, 834.9569
243.9464, 839.3716
244.4285, 851.2948
244.9106, 860.6163
245.3928, 867.3426
245.8749, 871.4982
246.3570, 872.8979
246.8391, 870.3851
247.3212, 867.0982
247.8034, 864.5353
248.2855, 863.7761
248.7676, 858.9820
249.2497, 849.1080
249.7318, 835.9820
250.2139, 822.3635
250.6961, 808.6956
251.1782, 793.6781
251.6603, 776.4114
252.1424, 756.2334
252.6245, 737.3943
253.1066, 719.6649
253.5888, 703.3360
254.0709, 688.4843
254.5530, 675.0113
255.0351, 663.2051
255.5172, 653.6516
255.9993, 646.5668
256.4815, 638.7326
256.9636, 629.6579
257.4457, 620.4540
257.9278, 612.2010
258.4099, 604.7283
258.8921, 598.5941
259.3742, 594.1335
259.8563, 591.4090
260.3384, 588.5867
260.8205, 585.6869
261.3026, 582.7051
261.7848, 579.4713
262.2669, 575.6943
262.7490, 572.5658
263.2311, 570.4606
263.7132, 569.3117
264.1953, 568.3187
264.6775, 567.6922
265.1596, 566.8847
265.6417, 565.2250
266.1238, 562.2894
266.6059, 560.0201
267.0880, 558.9670
267.5702, 558.9088
268.0523, 558.3851
268.5344, 557.2629
269.0165, 555.9339
269.4986, 554.3948
269.9807, 552.2708
270.4629, 551.7708
270.9450, 553.9567
271.4271, 557.7934
271.9092, 558.5709
272.3913, 555.2180
272.8734, 551.8405
273.3556, 551.4174
273.8377, 554.4100
274.3198, 557.1896
274.8019, 559.4699
275.2840, 561.3162
275.7661, 563.0067
276.2483, 564.6154
276.7304, 565.7455
277.2125, 565.6702
277.6946, 564.2089
278.1768, 564.4033
278.6589, 566.8687
279.1410, 570.5090
279.6231, 573.1010
280.1052, 574.5607
280.5873, 575.7334
281.0695, 576.9689
281.5516, 578.2745
282.0337, 579.6086
282.5158, 580.9106
282.9979, 582.3715
283.4800, 584.3199
283.9622, 586.7631
284.4443, 589.4452
284.9264, 592.7868
285.4085, 596.5217
285.8906, 598.2442
286.3727, 597.5995
286.8549, 596.1882
287.3370, 596.3073
287.8191, 597.8562
288.3012, 598.7868
288.7833, 597.9983
289.2654, 596.0157
289.7476, 594.8961
290.2297, 594.7553
290.7118, 594.6102
291.1939, 593.4258
291.6760, 591.3196
292.1581, 588.8586
292.6403, 585.9828
293.1224, 583.0120
293.6045, 580.7014
294.0866, 579.0776
294.5687, 577.5830
295.0508, 575.5626
295.5330, 573.2364
296.0151, 571.4189
296.4972, 570.3563
296.9793, 569.7932
297.4614, 569.4018
297.9435, 569.1680
298.4257, 569.0201
298.9078, 568.9690
299.3899, 568.9609
299.8720, 568.8499
300.3541, 568.5428
300.8362, 568.2703
301.3184, 568.1260
301.8005, 568.1936
302.2826, 568.8190
302.7647, 570.6700
303.2469, 573.0607
303.7290, 575.0074
304.2111, 576.3171
304.6932, 577.3948
305.1753, 578.1588
305.6574, 578.9296
306.1396, 580.4451
306.6217, 583.7408
307.1038, 587.6341
307.5859, 590.7740
308.0680, 593.0213
308.5501, 595.3418
309.0323, 598.8484
309.5144, 602.8605
309.9965, 606.2829
310.4786, 607.9539
310.9607, 609.4187
311.4428, 611.8459
311.9250, 615.2288
312.4071, 618.9494
312.8892, 622.9377
313.3713, 626.8854
313.8534, 630.5010
314.3355, 633.9008
314.8177, 636.7056
315.2998, 638.3326
315.7819, 639.0093
316.2640, 640.0054
316.7461, 643.2396
317.2282, 646.2266
317.7104, 647.0980
318.1925, 644.9583
318.6746, 641.3638
319.1567, 636.0446
319.6388, 629.5517
320.1209, 623.5018
320.6031, 618.5090
321.0852, 614.0016
321.5673, 609.6580
322.0494, 605.4279
322.5315, 601.3971
323.0136, 597.7618
323.4958, 594.3171
323.9779, 590.7267
324.4600, 587.4562
324.9421, 583.5565
325.4242, 578.0686
325.9064, 569.9735
326.3885, 564.6129
326.8706, 564.4531
327.3527, 566.4094
327.8348, 567.2167
328.3170, 566.1835
328.7991, 564.6093
329.2812, 562.6074
329.7633, 560.1598
330.2454, 557.4280
330.7275, 553.1578
331.2097, 549.6172
331.6918, 548.6051
332.1739, 552.6736
332.6560, 555.0538
333.1381, 554.5557
333.6202, 551.7699
334.1024, 549.4501
334.5845, 547.5975
335.0666, 546.2347
335.5487, 545.4642
336.0308, 545.5541
336.5129, 545.5261
336.9951, 545.4584
337.4772, 545.2156
337.9593, 544.4398
338.4414, 542.9871
338.9235, 541.4538
339.4056, 539.8669
339.8878, 538.1707
340.3699, 537.6572
340.8520, 538.6801
341.3341, 540.2308
341.8162, 541.0549
342.2983, 541.0990
342.7805, 540.8604
343.2626, 540.3372
343.7447, 539.6287
344.2268, 539.4691
344.7089, 539.9581
345.1910, 540.3079
345.6732, 539.2029
346.1553, 536.9339
346.6374, 536.3043
347.1195, 538.5563
347.6016, 541.9359
348.0837, 542.4837
348.5659, 540.3730
349.0480, 538.3630
349.5301, 539.0263
350.0122, 541.2452
350.4944, 541.9550
350.9765, 540.5140
351.4586, 538.4625
351.9407, 537.4116
352.4228, 537.2845
352.9049, 537.8149
353.3871, 539.4476
353.8692, 541.4114
354.3513, 542.6436
354.8334, 543.0662
355.3155, 543.2405
355.7976, 543.7902
356.2798, 544.3489
356.7619, 544.3276
357.2440, 541.8967
357.7261, 540.0471
358.2082, 542.2737
358.6903, 547.8214
359.1725, 551.5108
359.6546, 547.9532
360.1367, 542.5513
360.6188, 540.2691
361.1009, 544.2629
361.5830, 548.4847
362.0652, 550.5530
362.5473, 550.9262
363.0294, 550.7303
363.5115, 549.5037
363.9936, 548.4637
364.4757, 548.3981
364.9579, 549.8243
365.4400, 550.8243
365.9221, 550.5593
366.4042, 549.8127
366.8863, 549.5768
367.3684, 549.7350
367.8506, 550.6799
368.3327, 553.2208
368.8148, 557.6239
369.2969, 559.9677
369.7790, 558.4498
370.2611, 556.1451
370.7433, 555.1146
371.2254, 555.3380
371.7075, 556.9541
372.1896, 560.9078
372.6717, 566.3641
373.1538, 569.6542
373.6360, 569.6951
374.1181, 569.3113
374.6002, 569.7601
375.0823, 571.1463
375.5645, 573.1334
376.0466, 576.1574
376.5287, 579.2707
377.0108, 580.3992
377.4929, 578.8630
377.9750, 578.5687
378.4572, 581.2283
378.9393, 586.5032
379.4214, 591.2689
379.9035, 595.5485
380.3856, 599.0786
380.8677, 601.1400
381.3499, 601.8663
381.8320, 602.9643
382.3141, 604.7274
382.7962, 607.1500
383.2783, 610.6959
383.7604, 615.2598
384.2426, 619.4317
384.7247, 621.5187
385.2068, 622.5814
385.6889, 625.4218
386.1710, 630.5968
386.6531, 636.4212
387.1353, 641.2594
387.6174, 645.3610
388.0995, 649.4153
388.5816, 653.5217
389.0637, 657.9202
389.5458, 663.0186
390.0280, 668.8568
390.5101, 674.8792
390.9922, 681.2426
391.4743, 687.3858
391.9564, 692.7225
392.4385, 696.4820
392.9207, 700.0773
393.4028, 704.3417
393.8849, 709.0085
394.3670, 713.3126
394.8491, 715.7249
395.3312, 718.5441
395.8134, 723.1650
396.2955, 730.2599
396.7776, 737.7809
397.2597, 746.1791
397.7418, 754.4122
398.2239, 761.1703
398.7061, 764.7978
399.1882, 768.3831
399.6703, 772.8482
400.1524, 778.2812
400.6346, 782.8558
401.1167, 786.4955
401.5988, 789.3044
402.0809, 791.1420
402.5630, 790.7192
403.0451, 791.9061
403.5273, 795.4269
404.0094, 800.5564
404.4915, 805.3728
404.9736, 810.0778
405.4557, 813.9559
405.9378, 816.4158
406.4200, 817.2641
406.9021, 819.0406
407.3842, 822.0090
407.8663, 825.2551
408.3484, 827.3500
408.8305, 828.2789
409.3127, 829.9008
409.7948, 832.7635
410.2769, 836.6674
410.7590, 841.3078
411.2411, 846.7230
411.7232, 852.0555
412.2054, 856.2012
412.6875, 859.8372
413.1696, 864.8602
413.6517, 871.8964
414.1338, 879.4090
414.6159, 885.2758
415.0981, 890.0703
415.5802, 895.3223
416.0623, 901.8251
416.5444, 909.1143
417.0265, 916.2379
417.5086, 923.2269
417.9908, 931.4335
418.4729, 943.4359
418.9550, 956.3510
419.4371, 966.8121
419.9192, 971.6064
420.4013, 976.7079
420.8835, 984.6210
421.3656, 994.7979
421.8477, 1005.778
422.3298, 1018.989
422.8119, 1031.272
423.2940, 1040.623
423.7762, 1044.942
424.2583, 1052.022
424.7404, 1065.184
425.2225, 1080.441
425.7047, 1093.520
426.1868, 1101.641
426.6689, 1111.095
427.1510, 1123.460
427.6331, 1138.394
428.1152, 1152.504
428.5974, 1165.948
429.0795, 1178.589
429.5616, 1190.051
430.0437, 1199.516
430.5258, 1211.471
431.0079, 1227.149
431.4901, 1243.940
431.9722, 1256.424
432.4543, 1264.009
432.9364, 1272.855
433.4185, 1285.818
433.9006, 1301.889
434.3828, 1316.398
434.8649, 1329.308
435.3470, 1341.168
435.8291, 1352.506
436.3112, 1363.264
436.7933, 1372.783
437.2755, 1380.482
437.7576, 1388.051
438.2397, 1398.622
438.7218, 1411.058
439.2039, 1421.514
439.6860, 1427.916
440.1682, 1431.315
440.6503, 1432.278
441.1324, 1430.832
441.6145, 1428.221
442.0966, 1425.199
442.5787, 1421.351
443.0609, 1416.236
443.5430, 1410.047
444.0251, 1402.152
444.5072, 1392.470
444.9893, 1380.910
445.4714, 1367.148
445.9536, 1349.951
446.4357, 1331.434
446.9178, 1312.387
447.3999, 1292.619
447.8820, 1272.969
448.3641, 1253.595
448.8463, 1234.253
449.3284, 1214.404
449.8105, 1194.588
450.2926, 1173.660
450.7747, 1150.944
451.2569, 1126.768
451.7390, 1103.711
452.2211, 1081.290
452.7032, 1060.565
453.1853, 1042.722
453.6674, 1027.794
454.1496, 1012.112
454.6317, 995.3035
455.1138, 977.9238
455.5959, 960.6326
456.0780, 943.3686
456.5602, 927.2368
457.0423, 913.1393
457.5244, 900.1321
458.0065, 885.5142
458.4886, 869.6461
458.9707, 854.9582
459.4529, 844.3598
459.9350, 835.8484
460.4171, 826.6526
460.8992, 815.9116
461.3813, 805.4518
461.8634, 796.9119
462.3456, 789.5212
462.8277, 782.1658
463.3098, 774.1130
463.7919, 766.1018
464.2740, 758.4450
464.7561, 751.1404
465.2383, 744.0944
465.7204, 737.1915
466.2025, 730.5627
466.6846, 724.3349
467.1667, 718.3526
467.6488, 713.0470
468.1310, 708.8134
468.6131, 705.1285
469.0952, 701.0065
469.5773, 695.8629
470.0594, 691.2487
470.5415, 687.6711
471.0237, 685.1023
471.5058, 682.2438
471.9879, 679.1979
472.4700, 675.6350
472.9521, 670.9567
473.4342, 665.0323
473.9164, 660.4136
474.3985, 657.5428
474.8806, 655.5352
475.3627, 652.8480
475.8448, 649.5646
476.3270, 646.5408
476.8091, 644.3887
477.2912, 642.6666
477.7733, 640.5137
478.2554, 637.9519
478.7375, 635.3116
479.2197, 632.6564
479.7018, 630.1287
480.1839, 628.0224
480.6660, 626.5577
481.1481, 625.0701
481.6302, 623.5261
482.1124, 621.6114
482.5945, 618.7938
483.0766, 612.3313
483.5587, 607.2457
484.0408, 606.9102
484.5229, 611.1852
485.0051, 613.5833
485.4872, 611.2602
485.9693, 607.8963
486.4514, 605.6927
486.9335, 605.7657
487.4156, 605.0795
487.8978, 603.0270
488.3799, 600.5508
488.8620, 599.1243
489.3441, 599.1047
489.8262, 599.3220
490.3083, 599.7958
490.7905, 600.3257
491.2726, 599.1022
491.7547, 595.7793
492.2368, 592.3752
492.7189, 590.5865
493.2010, 590.1611
493.6832, 589.5194
494.1653, 588.4502
494.6474, 587.3636
495.1295, 586.7286
495.6116, 586.4841
496.0938, 586.4508
496.5759, 586.7367
497.0580, 587.0447
497.5401, 587.1885
498.0222, 587.1224
498.5044, 586.6095
498.9865, 585.1415
499.4686, 583.4055
499.9507, 581.7795
500.4328, 580.1245
500.9149, 579.3707
501.3971, 581.1205
501.8792, 583.4467
502.3613, 584.1250
502.8434, 579.9307
503.3255, 577.3305
503.8076, 578.5820
504.2898, 582.5976
504.7719, 584.2927
505.2540, 582.6026
505.7361, 580.1276
506.2182, 577.6094
506.7003, 574.8275
507.1825, 573.8076
507.6646, 575.1661
508.1467, 576.9725
508.6288, 576.7952
509.1109, 574.6498
509.5930, 573.2264
510.0752, 573.1691
510.5573, 573.9700
511.0394, 575.1037
511.5215, 576.4297
512.0037, 577.0300
512.4858, 575.8719
512.9679, 573.9146
513.4500, 572.4590
513.9321, 571.5485
514.4142, 570.8705
514.8964, 570.2823
515.3785, 569.7695
515.8606, 569.3295
516.3427, 568.9875
516.8248, 568.6489
517.3069, 568.0463
517.7891, 567.4451
518.2712, 567.3404
518.7533, 568.7034
519.2354, 569.7025
519.7175, 569.6824
520.1996, 568.6701
520.6818, 567.7397
521.1639, 566.9694
521.6460, 566.1843
522.1281, 565.0671
522.6102, 563.1227
523.0923, 563.0034
523.5745, 565.4617
524.0566, 568.6084
524.5387, 569.4395
525.0208, 567.9630
525.5029, 566.8309
525.9850, 566.8320
526.4672, 567.6373
526.9493, 568.8366
527.4314, 570.3580
527.9135, 571.4880
528.3956, 571.6729
528.8777, 571.2748
529.3599, 570.4894
529.8420, 569.2587
530.3241, 568.7462
530.8062, 571.1906
531.2883, 574.1881
531.7704, 574.9133
532.2526, 570.1410
532.7347, 566.2853
533.2168, 565.9913
533.6989, 568.0075
534.1810, 569.3869
534.6631, 568.2531
535.1453, 567.9630
535.6274, 569.8420
536.1095, 574.0072
536.5916, 576.7754
537.0737, 577.7081
537.5558, 577.9667
538.0380, 578.1973
538.5201, 578.3414
539.0022, 578.8311
539.4843, 579.6395
539.9664, 580.8849
540.4485, 583.2184
540.9307, 586.4094
541.4128, 588.4953
541.8949, 588.0211
542.3770, 586.8385
542.8591, 588.4947
543.3412, 592.4288
543.8234, 595.8234
544.3055, 596.1362
544.7876, 595.5562
545.2697, 596.2148
545.7518, 598.3841
546.2339, 600.8032
546.7161, 603.1415
547.1982, 605.2910
547.6803, 607.1898
548.1624, 607.5030
548.6445, 609.2353
549.1266, 614.2095
549.6088, 620.6863
550.0909, 625.0963
550.5730, 626.2214
551.0551, 627.2428
551.5372, 628.6888
552.0193, 630.6403
552.5015, 633.8994
552.9836, 638.5911
553.4657, 644.1574
553.9478, 650.5638
554.4299, 657.6903
554.9120, 664.1854
555.3942, 669.7809
555.8763, 675.4122
556.3584, 681.9872
556.8405, 689.3994
557.3226, 697.4101
557.8047, 706.0469
558.2869, 715.1428
558.7690, 724.0948
559.2511, 733.3684
559.7332, 744.0709
560.2154, 757.9313
560.6975, 772.2979
561.1796, 785.8790
561.6617, 798.5903
562.1439, 811.5594
562.6260, 825.2288
563.1081, 839.0482
563.5902, 852.7867
564.0723, 865.3434
564.5544, 880.3894
565.0366, 898.9838
565.5187, 919.2175
566.0008, 937.9442
566.4829, 954.7745
566.9650, 973.1385
567.4471, 993.6733
567.9293, 1016.288
568.4114, 1040.537
568.8935, 1066.424
569.3756, 1092.942
569.8577, 1119.338
570.3398, 1146.011
570.8220, 1172.786
571.3041, 1199.968
571.7862, 1226.839
572.2683, 1254.040
572.7504, 1280.368
573.2325, 1305.309
573.7147, 1329.161
574.1968, 1350.026
574.6789, 1368.760
575.1610, 1383.562
575.6431, 1392.305
576.1252, 1394.261
576.6074, 1390.298
577.0895, 1380.606
577.5716, 1365.159
578.0537, 1343.021
578.5358, 1311.840
579.0179, 1279.337
579.5001, 1247.734
579.9822, 1216.948
580.4643, 1189.765
580.9464, 1166.063
581.4285, 1146.798
581.9106, 1133.190
582.3928, 1124.584
582.8749, 1118.893
583.3570, 1115.847
583.8391, 1115.322
584.3212, 1116.875
584.8033, 1120.920
585.2855, 1128.185
585.7676, 1140.659
586.2497, 1154.557
586.7318, 1169.237
587.2139, 1184.058
