##NAMES=Triphylite
##RRUFFID=R050424
##IDEAL CHEMISTRY=LiFe^2+^PO_4_
##LOCALITY=Karibib, Namibia
##OWNER=RRUFF
##SOURCE=John Lucking
##DESCRIPTION=Lime-green fine-grained massive
##STATUS=The identification of this mineral has been confirmed by X-ray diffraction and chemical analysis
##URL=rruff.info/R050424
##MEASURED CHEMISTRY=Li_1.00_(Fe^2+^_0.70_Mn^2+^_0.28_Mg_0.02_)_Î£=1_P_1.00_O_4_
103.8984, 25.42904
104.3806, 22.71390
104.8627, 21.88253
105.3448, 24.91860
105.8269, 27.66612
106.3090, 27.80151
106.7911, 22.29994
107.2733, 18.49116
107.7554, 18.43265
108.2375, 22.19350
108.7196, 22.00418
109.2017, 10.12339
109.6838, -1.992905
110.1659, -4.979763
110.6481, 13.68084
111.1302, 30.34843
111.6123, 39.48609
112.0944, 39.45939
112.5765, 37.06962
113.0586, 28.35916
113.5408, 18.56263
114.0229, 16.08596
114.5050, 29.69960
114.9871, 46.70823
115.4692, 60.97175
115.9513, 71.95703
116.4335, 79.14906
116.9156, 80.55140
117.3977, 77.27533
117.8798, 73.81103
118.3619, 70.89443
118.8440, 69.35437
119.3262, 69.92447
119.8083, 72.53291
120.2904, 77.56410
120.7725, 85.51247
121.2546, 96.38416
121.7367, 109.2439
122.2189, 126.2195
122.7010, 144.6072
123.1831, 159.7008
123.6652, 166.4569
124.1473, 169.7145
124.6294, 174.2839
125.1115, 179.6564
125.5937, 189.6268
126.0758, 212.1729
126.5579, 244.9977
127.0400, 275.9669
127.5221, 293.7186
128.0043, 303.7638
128.4864, 320.3357
128.9685, 346.5868
129.4506, 380.1290
129.9327, 418.9851
130.4148, 463.3849
130.8969, 506.9409
131.3791, 541.7504
131.8612, 568.7121
132.3433, 597.3326
132.8254, 629.3878
133.3075, 665.1372
133.7896, 707.1567
134.2718, 756.1625
134.7539, 808.1410
135.2360, 855.6517
135.7181, 896.3959
136.2002, 944.0391
136.6823, 1005.277
137.1645, 1081.634
137.6466, 1159.682
138.1287, 1238.162
138.6108, 1320.123
139.0929, 1412.016
139.5750, 1515.185
140.0572, 1624.594
140.5393, 1735.922
141.0214, 1843.811
141.5035, 1970.767
141.9856, 2122.417
142.4677, 2295.697
142.9499, 2479.277
143.4320, 2670.165
143.9141, 2870.395
144.3962, 3081.337
144.8783, 3328.347
145.3604, 3549.547
145.8425, 3750.721
146.3247, 3941.017
146.8068, 4035.094
147.2889, 4007.404
147.7710, 3893.894
148.2531, 3734.850
148.7352, 3477.521
149.2174, 3227.960
149.6995, 3012.335
150.1816, 2831.534
150.6637, 2683.904
151.1458, 2570.704
151.6279, 2492.567
152.1101, 2446.343
152.5922, 2447.013
153.0743, 2469.115
153.5564, 2504.017
154.0385, 2593.548
154.5206, 2643.181
155.0028, 2640.834
155.4849, 2588.443
155.9670, 2495.545
156.4491, 2335.717
156.9312, 2151.669
157.4133, 1972.033
157.8955, 1784.925
158.3776, 1620.846
158.8597, 1487.846
159.3418, 1386.400
159.8239, 1307.240
160.3060, 1265.918
160.7882, 1238.189
161.2703, 1198.173
161.7524, 1134.572
162.2345, 1058.786
162.7166, 971.5742
163.1987, 869.5937
163.6808, 774.8896
164.1630, 692.9590
164.6451, 624.9941
165.1272, 573.0046
165.6093, 547.5129
166.0914, 532.7800
166.5735, 517.0102
167.0557, 496.9554
167.5378, 479.0787
168.0199, 470.2308
168.5020, 467.6849
168.9841, 463.7387
169.4662, 450.5419
169.9484, 434.9734
170.4305, 425.1485
170.9126, 427.4689
171.3947, 430.3082
171.8768, 420.0109
172.3589, 398.5901
172.8411, 380.4095
173.3232, 377.2200
173.8053, 383.5725
174.2874, 390.6824
174.7695, 396.1134
175.2516, 400.4422
175.7338, 404.8577
176.2159, 409.3611
176.6980, 412.0188
177.1801, 410.1837
177.6622, 405.0370
178.1443, 399.7435
178.6264, 393.0931
179.1086, 387.6600
179.5907, 390.6550
180.0728, 403.7248
180.5549, 416.1571
181.0370, 414.1991
181.5191, 400.3583
182.0013, 385.9683
182.4834, 377.1911
182.9655, 372.4087
183.4476, 366.1554
183.9297, 356.9169
184.4118, 348.8820
184.8940, 349.8718
185.3761, 359.3021
185.8582, 369.3330
186.3403, 376.6877
186.8224, 380.9745
187.3046, 379.6853
187.7867, 370.4821
188.2688, 357.9539
188.7509, 351.6708
189.2330, 351.7887
189.7151, 354.6192
190.1973, 356.7855
190.6794, 358.6224
191.1615, 364.4042
191.6436, 376.8548
192.1257, 393.2715
192.6078, 403.5190
193.0900, 406.8696
193.5721, 409.1710
194.0542, 415.9728
194.5363, 427.2513
195.0184, 440.2346
195.5005, 454.8370
195.9826, 470.6428
196.4648, 485.2306
196.9469, 498.7920
197.4290, 510.1093
197.9111, 517.5099
198.3932, 520.7246
198.8753, 521.9366
199.3575, 522.2518
199.8396, 521.6475
200.3217, 517.2305
200.8038, 508.6035
201.2859, 496.9575
201.7680, 483.1831
202.2502, 466.3046
202.7323, 451.2020
203.2144, 440.8025
203.6965, 435.9850
204.1786, 428.8582
204.6607, 418.5999
205.1429, 406.8522
205.6250, 396.1288
206.1071, 385.4076
206.5892, 379.2715
207.0713, 382.6903
207.5534, 399.2011
208.0356, 406.9245
208.5177, 401.7019
208.9998, 388.4510
209.4819, 382.2754
209.9640, 385.9765
210.4461, 390.4120
210.9282, 389.0641
211.4104, 379.3124
211.8925, 373.2720
212.3746, 372.4144
212.8567, 376.2162
213.3388, 382.8946
213.8209, 394.9942
214.3031, 405.5251
214.7852, 407.4837
215.2673, 395.2437
215.7494, 390.6396
216.2315, 398.5043
216.7136, 417.7912
217.1958, 436.4370
217.6779, 456.3239
218.1600, 473.2011
218.6421, 482.7707
219.1242, 481.7237
219.6063, 481.0348
220.0885, 482.6779
220.5706, 486.6758
221.0527, 491.5184
221.5348, 498.6848
222.0169, 505.1287
222.4990, 507.0221
222.9812, 501.0092
223.4633, 497.3032
223.9454, 498.5936
224.4275, 505.4327
224.9096, 513.2577
225.3917, 524.7463
225.8739, 535.0640
226.3560, 536.2139
226.8381, 518.4734
227.3202, 509.4078
227.8023, 519.0558
228.2844, 552.5174
228.7665, 579.7694
229.2487, 598.4408
229.7308, 611.9239
230.2129, 624.8301
230.6950, 634.5783
231.1771, 647.8005
231.6592, 667.1270
232.1414, 693.9423
232.6235, 722.5833
233.1056, 754.8741
233.5877, 787.9509
234.0698, 815.0577
234.5519, 833.3059
235.0341, 849.9043
235.5162, 866.6658
235.9983, 880.4302
236.4804, 902.6637
236.9625, 937.8586
237.4446, 980.0868
237.9268, 1015.939
238.4089, 1042.542
238.8910, 1067.413
239.3731, 1093.319
239.8552, 1118.805
240.3373, 1148.271
240.8195, 1181.014
241.3016, 1217.738
241.7837, 1261.781
242.2658, 1315.200
242.7479, 1373.070
243.2300, 1433.690
243.7122, 1499.664
244.1943, 1562.946
244.6764, 1623.953
245.1585, 1681.835
245.6406, 1735.383
246.1227, 1783.278
246.6048, 1828.629
247.0870, 1873.965
247.5691, 1923.714
248.0512, 1964.267
248.5333, 1996.281
249.0154, 2018.582
249.4975, 2026.743
249.9797, 2021.220
250.4618, 2001.172
250.9439, 1966.208
251.4260, 1916.402
251.9081, 1849.636
252.3902, 1756.579
252.8724, 1643.547
253.3545, 1553.197
253.8366, 1498.049
254.3187, 1448.009
254.8008, 1380.549
255.2829, 1280.361
255.7651, 1198.794
256.2472, 1144.789
256.7293, 1114.577
257.2114, 1083.754
257.6935, 1053.753
258.1756, 1021.099
258.6577, 980.5012
259.1399, 921.4496
259.6220, 881.9136
260.1041, 872.7415
260.5862, 889.5203
261.0683, 893.5878
261.5504, 879.2066
262.0326, 861.3191
262.5147, 851.1542
262.9968, 850.3620
263.4789, 853.0960
263.9610, 860.4581
264.4431, 871.3951
264.9253, 876.5241
265.4074, 876.1504
265.8895, 869.4699
266.3716, 854.1587
266.8537, 827.3564
267.3358, 802.1277
267.8180, 780.2048
268.3001, 761.5944
268.7822, 745.5133
269.2643, 733.5550
269.7464, 721.1772
270.2285, 701.9785
270.7107, 672.7000
271.1928, 651.9937
271.6749, 646.0427
272.1570, 652.1752
272.6391, 650.8464
273.1212, 639.5552
273.6034, 626.9285
274.0855, 621.1743
274.5676, 623.3829
275.0497, 625.6384
275.5318, 626.8258
276.0139, 626.8506
276.4961, 623.2762
276.9782, 613.8093
277.4603, 607.7769
277.9424, 616.0612
278.4245, 639.9889
278.9066, 661.7546
279.3888, 677.3832
279.8709, 688.0187
280.3530, 697.2942
280.8351, 704.4720
281.3172, 713.3470
281.7993, 730.8473
282.2815, 757.2420
282.7636, 774.0411
283.2457, 774.9053
283.7278, 763.8640
284.2099, 753.1154
284.6920, 741.7664
285.1741, 736.3381
285.6563, 749.1148
286.1384, 778.3530
286.6205, 794.9024
287.1026, 788.6665
287.5847, 767.4986
288.0668, 752.2245
288.5490, 742.9055
289.0311, 738.7498
289.5132, 739.4690
289.9953, 744.9151
290.4774, 755.5901
290.9595, 776.5472
291.4417, 799.0634
291.9238, 799.7139
292.4059, 778.2977
292.8880, 754.2085
293.3701, 744.7471
293.8522, 746.5162
294.3344, 746.4026
294.8165, 740.8113
295.2986, 732.2915
295.7807, 727.9581
296.2628, 727.1884
296.7449, 720.4605
297.2271, 692.2915
297.7092, 652.4101
298.1913, 625.2101
298.6734, 622.1886
299.1555, 627.3912
299.6376, 619.7753
300.1198, 600.2830
300.6019, 575.4434
301.0840, 543.9717
301.5661, 511.4595
302.0482, 488.3985
302.5303, 479.1951
303.0125, 476.6783
303.4946, 474.5714
303.9767, 472.7368
304.4588, 470.4104
304.9409, 468.1719
305.4230, 464.8367
305.9052, 458.0865
306.3873, 445.2792
306.8694, 433.0015
307.3515, 427.9353
307.8336, 428.5285
308.3157, 429.5702
308.7979, 428.9713
309.2800, 426.9277
309.7621, 423.1897
310.2442, 416.5218
310.7263, 410.7627
311.2084, 408.1529
311.6906, 408.3443
312.1727, 410.3425
312.6548, 418.2572
313.1369, 425.1058
313.6190, 423.6986
314.1011, 407.9392
314.5833, 396.3209
315.0654, 401.6470
315.5475, 417.3957
316.0296, 430.0509
316.5117, 433.6106
316.9938, 433.0869
317.4760, 430.6972
317.9580, 425.9501
318.4402, 421.7949
318.9223, 418.4108
319.4044, 416.3059
319.8865, 416.3971
320.3686, 421.4791
320.8507, 426.7012
321.3329, 431.7512
321.8150, 439.1245
322.2971, 437.1835
322.7792, 411.2168
323.2613, 377.8198
323.7434, 359.7972
324.2256, 378.8296
324.7077, 396.5919
325.1898, 401.4039
325.6719, 389.5675
326.1540, 378.3077
326.6361, 364.8052
327.1183, 353.6679
327.6004, 350.1104
328.0825, 365.2419
328.5646, 375.8063
329.0467, 374.6379
329.5288, 359.4068
330.0110, 353.2578
330.4931, 364.6159
330.9752, 379.0523
331.4573, 382.4315
331.9394, 367.5711
332.4215, 353.4550
332.9037, 342.6534
333.3858, 335.2239
333.8679, 330.8296
334.3500, 328.6991
334.8321, 330.5254
335.3142, 339.1894
335.7964, 359.0599
336.2785, 373.7296
336.7606, 380.4998
337.2427, 380.1385
337.7248, 376.2237
338.2069, 367.0342
338.6891, 358.5037
339.1712, 354.2748
339.6533, 354.2924
340.1354, 360.4329
340.6175, 376.0479
341.0996, 395.7526
341.5818, 402.0183
342.0639, 393.1755
342.5460, 381.8390
343.0281, 375.6744
343.5102, 374.4669
343.9923, 373.8608
344.4745, 373.4933
344.9566, 373.4306
345.4387, 373.2473
345.9208, 373.0193
346.4029, 374.6044
346.8850, 379.6792
347.3672, 387.5395
347.8493, 396.6860
348.3314, 407.9169
348.8135, 416.9324
349.2956, 413.6947
349.7777, 401.7019
350.2599, 395.4158
350.7419, 410.0358
351.2241, 432.5542
351.7062, 440.1544
352.1883, 430.9713
352.6704, 416.8322
353.1525, 405.7532
353.6346, 397.9366
354.1168, 393.5448
354.5989, 394.1282
355.0810, 397.2813
355.5631, 400.5159
356.0452, 403.8093
356.5273, 409.0484
357.0095, 421.2784
357.4916, 435.0787
357.9737, 443.6430
358.4558, 439.1915
358.9379, 433.7431
359.4200, 432.3017
359.9022, 434.9588
360.3843, 442.2370
360.8664, 460.5030
361.3485, 480.2428
361.8306, 493.5960
362.3127, 492.3762
362.7949, 492.6317
363.2770, 499.7528
363.7591, 512.1746
364.2412, 524.2101
364.7233, 535.2869
365.2054, 545.1584
365.6876, 553.3304
366.1697, 557.2240
366.6518, 563.6879
367.1339, 575.7386
367.6160, 590.6968
368.0981, 602.4457
368.5803, 609.4607
369.0624, 614.7021
369.5445, 618.9745
370.0266, 622.3201
370.5087, 624.8404
370.9908, 629.4259
371.4730, 631.4956
371.9551, 624.0484
372.4372, 602.2725
372.9193, 579.5524
373.4014, 558.2584
373.8835, 538.2469
374.3657, 524.6197
374.8478, 518.5367
375.3299, 517.1737
375.8120, 518.9775
376.2941, 525.0878
376.7762, 528.0693
377.2584, 524.4033
377.7405, 516.4246
378.2226, 516.6522
378.7047, 526.1686
379.1868, 537.9381
379.6689, 547.1125
380.1511, 553.6911
380.6332, 558.7471
381.1153, 562.6183
381.5974, 564.7223
382.0795, 562.1153
382.5616, 555.2325
383.0438, 550.2202
383.5259, 550.6851
384.0080, 555.9374
384.4901, 565.9313
384.9722, 582.5217
385.4543, 597.3071
385.9364, 596.6149
386.4185, 585.9630
386.9007, 581.4537
387.3828, 597.2866
387.8649, 620.2616
388.3470, 635.9277
388.8291, 643.1279
389.3112, 647.6180
389.7934, 650.6968
390.2755, 654.1138
390.7576, 660.2281
391.2397, 672.8270
391.7218, 685.9858
392.2039, 695.6012
392.6861, 702.0533
393.1682, 710.3926
393.6503, 729.4984
394.1324, 747.5518
394.6145, 755.2465
395.0966, 730.1912
395.5788, 717.9482
396.0609, 737.0759
396.5430, 778.8338
397.0251, 811.0385
397.5072, 824.2982
397.9893, 830.9227
398.4715, 835.2674
398.9536, 830.4629
399.4357, 836.7307
399.9178, 862.1266
400.3999, 896.1403
400.8820, 919.6316
401.3642, 924.2217
401.8463, 931.2274
402.3284, 948.3502
402.8105, 977.4153
403.2926, 1000.845
403.7747, 1018.355
404.2569, 1030.622
404.7390, 1036.473
405.2211, 1033.584
405.7032, 1035.127
406.1853, 1044.671
406.6674, 1060.848
407.1496, 1078.353
407.6317, 1097.766
408.1138, 1115.506
408.5959, 1126.808
409.0780, 1132.834
409.5602, 1143.221
410.0423, 1159.243
410.5244, 1180.196
411.0065, 1206.060
411.4886, 1236.517
411.9707, 1268.115
412.4529, 1298.798
412.9350, 1329.809
413.4171, 1363.273
413.8992, 1400.389
414.3813, 1436.357
414.8634, 1468.661
415.3456, 1497.076
415.8277, 1520.704
416.3098, 1528.370
416.7919, 1539.171
417.2740, 1571.255
417.7561, 1623.789
418.2382, 1677.013
418.7203, 1713.696
419.2025, 1749.406
419.6846, 1797.513
420.1667, 1871.701
420.6488, 1948.017
421.1309, 2022.410
421.6130, 2093.577
422.0952, 2162.243
422.5773, 2221.032
423.0594, 2282.255
423.5415, 2352.898
424.0236, 2440.117
424.5057, 2522.886
424.9879, 2592.858
425.4700, 2659.896
425.9521, 2743.180
426.4342, 2856.678
426.9163, 2963.141
427.3984, 3044.365
427.8806, 3097.445
428.3627, 3191.622
428.8448, 3338.747
429.3269, 3507.584
429.8090, 3671.125
430.2911, 3829.759
430.7733, 3979.579
431.2554, 4116.716
431.7375, 4245.885
432.2196, 4384.475
432.7017, 4532.373
433.1838, 4684.535
433.6660, 4836.954
434.1481, 4990.000
434.6302, 5143.733
435.1123, 5299.338
435.5944, 5451.509
436.0765, 5588.629
436.5587, 5715.444
437.0408, 5848.476
437.5229, 6004.657
438.0050, 6165.322
438.4871, 6308.340
438.9692, 6433.052
439.4514, 6547.556
439.9335, 6660.669
440.4156, 6765.603
440.8977, 6854.637
441.3798, 6920.448
441.8619, 6973.812
442.3441, 7027.138
442.8262, 7074.278
443.3083, 7091.037
443.7904, 7055.812
444.2725, 6997.993
444.7546, 6932.719
445.2368, 6866.543
445.7189, 6783.984
446.2010, 6684.114
446.6831, 6567.017
447.1652, 6432.540
447.6473, 6252.980
448.1295, 6091.489
448.6116, 5973.544
449.0937, 5901.385
449.5758, 5796.897
450.0579, 5651.694
450.5400, 5487.863
451.0221, 5320.266
451.5042, 5148.286
451.9864, 4983.559
452.4685, 4828.035
452.9506, 4680.158
453.4327, 4534.963
453.9148, 4393.168
454.3969, 4251.455
454.8791, 4107.560
455.3612, 3962.824
455.8433, 3824.770
456.3254, 3695.053
456.8075, 3571.009
457.2896, 3455.510
457.7718, 3345.489
458.2539, 3237.553
458.7360, 3129.558
459.2181, 3022.013
459.7002, 2912.031
460.1823, 2799.973
460.6645, 2697.009
461.1466, 2617.453
461.6287, 2546.203
462.1108, 2468.012
462.5929, 2369.427
463.0750, 2281.172
463.5572, 2224.539
464.0393, 2186.000
464.5214, 2139.270
465.0035, 2069.957
465.4856, 1998.904
465.9677, 1932.380
466.4499, 1870.010
466.9320, 1816.578
467.4141, 1779.089
467.8962, 1745.377
468.3783, 1703.922
468.8604, 1647.171
469.3426, 1597.534
469.8247, 1559.182
470.3068, 1529.381
470.7889, 1495.006
471.2710, 1453.781
471.7531, 1414.939
472.2353, 1387.368
472.7174, 1371.105
473.1995, 1339.302
473.6816, 1287.110
474.1637, 1231.894
474.6458, 1200.856
475.1280, 1190.553
475.6101, 1178.716
476.0922, 1154.567
476.5743, 1125.135
477.0564, 1103.855
477.5385, 1089.890
478.0207, 1075.982
478.5028, 1056.887
478.9849, 1034.691
479.4670, 1010.995
479.9491, 983.8197
480.4312, 960.5970
480.9134, 947.3447
481.3955, 941.2604
481.8776, 937.2363
482.3597, 937.2911
482.8418, 935.6951
483.3239, 931.0912
483.8060, 923.7098
484.2881, 909.6203
484.7703, 879.9465
485.2524, 848.5853
485.7345, 825.8951
486.2166, 814.2014
486.6987, 808.0170
487.1808, 809.5896
487.6630, 815.9892
488.1451, 818.3712
488.6272, 816.6158
489.1093, 811.0292
489.5914, 800.6328
490.0735, 785.2965
490.5557, 771.4529
491.0378, 759.6422
491.5199, 747.9935
492.0020, 731.8660
492.4841, 712.5674
492.9662, 700.3746
493.4484, 699.5566
493.9305, 705.6083
494.4126, 713.2328
494.8947, 721.9296
495.3768, 728.2533
495.8589, 727.1169
496.3411, 723.7562
496.8232, 726.3475
497.3053, 737.8118
497.7874, 744.6920
498.2695, 731.8058
498.7516, 711.1680
499.2338, 698.5956
499.7159, 711.7458
500.1980, 721.6915
500.6801, 713.3760
501.1622, 689.4336
501.6443, 675.4340
502.1265, 683.9615
502.6086, 696.3387
503.0907, 703.2872
503.5728, 699.5720
504.0549, 702.1022
504.5370, 715.4218
505.0192, 731.6302
505.5013, 737.0303
505.9834, 727.4673
506.4655, 721.7950
506.9476, 726.3170
507.4297, 739.0824
507.9119, 750.8870
508.3940, 762.4440
508.8761, 767.3829
509.3582, 756.3904
509.8403, 734.0497
510.3224, 717.8921
510.8046, 711.5786
511.2867, 707.2462
511.7688, 694.7640
512.2509, 677.0421
512.7330, 660.9811
513.2151, 650.8413
513.6973, 642.8393
514.1794, 633.9438
514.6615, 624.2368
515.1436, 615.5090
515.6257, 608.0377
516.1078, 602.1613
516.5900, 598.5635
517.0721, 599.8471
517.5542, 599.0013
518.0363, 592.5450
518.5184, 583.7020
519.0005, 578.5114
519.4827, 580.4384
519.9648, 581.3652
520.4469, 579.4242
520.9290, 574.6559
521.4111, 568.6656
521.8932, 561.4121
522.3754, 552.9888
522.8575, 540.3259
523.3396, 522.8865
523.8217, 520.7115
524.3038, 540.8607
524.7859, 566.1034
525.2681, 566.0507
525.7502, 544.8692
526.2323, 527.6087
526.7144, 529.8820
527.1965, 540.8536
527.6786, 544.4309
528.1608, 541.1141
528.6429, 536.9021
529.1250, 535.7256
529.6071, 535.7540
530.0892, 534.8718
530.5714, 531.2478
531.0535, 529.7176
531.5356, 533.4672
532.0176, 540.3802
532.4998, 546.8981
532.9819, 559.4012
533.4640, 564.1302
533.9461, 549.8940
534.4282, 517.3464
534.9103, 508.6907
535.3925, 540.5848
535.8746, 574.9104
536.3567, 586.1767
536.8388, 567.8666
537.3209, 556.6042
537.8030, 555.4133
538.2852, 559.4976
538.7673, 561.7756
539.2494, 562.2788
539.7315, 562.9031
540.2136, 564.3917
540.6957, 566.3892
541.1779, 568.3834
541.6600, 570.3182
542.1421, 571.7380
542.6242, 569.7916
543.1063, 568.2067
543.5884, 572.7340
544.0706, 585.9355
544.5527, 598.1582
545.0348, 602.1573
545.5169, 602.2832
545.9990, 604.3419
546.4811, 605.7096
546.9633, 613.6776
547.4454, 634.6758
547.9275, 666.4880
548.4096, 691.3162
548.8917, 704.4433
549.3738, 715.2973
549.8560, 728.0948
550.3381, 743.9182
550.8202, 756.8217
551.3023, 765.9430
551.7844, 773.5889
552.2665, 780.8814
552.7487, 787.6265
553.2308, 801.8021
553.7129, 828.0942
554.1950, 859.4152
554.6771, 877.7089
555.1592, 885.4341
555.6414, 900.1047
556.1235, 935.8044
556.6056, 982.6104
557.0877, 1029.043
557.5698, 1074.378
558.0519, 1118.854
558.5341, 1163.224
559.0162, 1206.895
559.4983, 1247.671
559.9804, 1275.695
560.4625, 1314.396
560.9446, 1371.855
561.4268, 1443.964
561.9089, 1522.075
562.3910, 1607.818
562.8731, 1697.284
563.3552, 1790.624
563.8373, 1887.533
564.3195, 1979.241
564.8016, 2062.708
565.2837, 2145.927
565.7658, 2229.551
566.2479, 2313.724
566.7300, 2420.932
567.2122, 2558.832
567.6943, 2703.743
568.1764, 2818.155
568.6585, 2909.619
569.1406, 3003.347
569.6227, 3114.396
570.1049, 3230.676
570.5870, 3338.342
571.0691, 3437.038
571.5512, 3532.997
572.0333, 3638.184
572.5154, 3734.687
572.9976, 3810.423
573.4797, 3866.094
573.9618, 3895.030
574.4439, 3907.706
574.9260, 3887.014
575.4081, 3814.911
575.8903, 3665.214
576.3724, 3503.470
576.8545, 3329.890
577.3366, 3149.626
577.8187, 2984.591
578.3008, 2837.549
578.7830, 2695.293
579.2651, 2550.765
579.7472, 2405.592
580.2293, 2268.092
580.7114, 2138.197
581.1935, 2023.281
581.6757, 1933.458
582.1578, 1864.536
582.6399, 1808.656
583.1220, 1766.866
583.6041, 1732.272
584.0862, 1700.421
584.5684, 1672.258
585.0505, 1649.424
585.5326, 1627.129
586.0147, 1615.542
586.4968, 1621.390
586.9789, 1643.362
587.4611, 1668.867
587.9432, 1701.199
588.4253, 1732.333
588.9074, 1758.623
589.3895, 1778.506
589.8716, 1800.543
590.3538, 1826.648
590.8359, 1851.917
591.3180, 1873.993
591.8001, 1893.220
592.2822, 1896.885
592.7643, 1878.127
593.2465, 1850.310
593.7286, 1841.045
594.2107, 1845.824
594.6928, 1842.192
595.1749, 1818.049
595.6570, 1780.234
596.1392, 1733.237
596.6213, 1677.546
597.1034, 1620.193
597.5854, 1566.468
598.0676, 1510.665
598.5497, 1447.628
599.0318, 1368.903
599.5139, 1299.585
599.9960, 1247.181
600.4781, 1203.806
