##NAMES=Triphylite
##RRUFFID=R050366
##IDEAL CHEMISTRY=LiFe^2+^PO_4_
##LOCALITY=Cornelia mine, Hagendorf, Bavaria, Germany
##OWNER=RRUFF
##SOURCE=Marcus Origlieri
##DESCRIPTION=Bluish gray massive associated with brown zwieselite R050279
##STATUS=The identification of this mineral has been confirmed by X-ray diffraction and chemical analysis
##URL=rruff.info/R050366
##MEASURED CHEMISTRY=Li_1.00_(Fe^2+^_0.80_Mn^2+^_0.20_)_Î£=1_P_1.00_O_4_ ; Li not measured but estimated by difference and charge balance.
92.52344, 26.73553
93.00555, 26.85237
93.48767, 26.86322
93.96979, 27.12671
94.45190, 27.43668
94.93402, 27.73788
95.41614, 27.65287
95.89825, 27.28735
96.38037, 26.86010
96.86249, 26.39565
97.34460, 25.99191
97.82672, 25.84241
98.30884, 25.56979
98.79095, 25.08384
99.27307, 24.40734
99.75519, 23.61324
100.2373, 22.76926
100.7194, 21.95389
101.2015, 21.40387
101.6837, 21.23355
102.1658, 21.19029
102.6479, 21.07166
103.1300, 20.85941
103.6121, 20.70558
104.0942, 20.83656
104.5764, 21.09751
105.0585, 21.23880
105.5406, 21.24259
106.0227, 21.07054
106.5048, 20.55340
106.9869, 19.41610
107.4691, 18.29494
107.9512, 17.48809
108.4333, 16.93510
108.9154, 16.47689
109.3975, 15.95445
109.8796, 15.32556
110.3618, 14.90564
110.8439, 14.84113
111.3260, 14.85570
111.8081, 14.84412
112.2902, 14.78872
112.7723, 14.72918
113.2544, 14.72202
113.7366, 14.79715
114.2187, 14.87668
114.7008, 14.98495
115.1829, 15.08580
115.6650, 15.13302
116.1471, 15.10948
116.6293, 15.05635
117.1114, 15.07423
117.5935, 15.18663
118.0756, 15.31065
118.5577, 15.41472
119.0398, 15.51490
119.5220, 15.65358
120.0041, 15.85600
120.4862, 16.10638
120.9683, 16.34213
121.4504, 16.50943
121.9325, 16.74730
122.4147, 17.19552
122.8968, 17.86899
123.3789, 18.56984
123.8610, 19.15051
124.3431, 19.72586
124.8252, 20.40457
125.3074, 21.21212
125.7895, 22.15066
126.2716, 23.25955
126.7537, 24.67076
127.2358, 26.00384
127.7179, 27.23496
128.2001, 28.31448
128.6822, 29.17815
129.1643, 29.75833
129.6464, 30.07878
130.1285, 30.41059
130.6107, 30.69750
131.0928, 31.05579
131.5749, 31.50296
132.0570, 32.04328
132.5391, 32.68071
133.0212, 33.41454
133.5034, 34.25164
133.9855, 35.19586
134.4676, 36.21741
134.9497, 37.34133
135.4318, 38.63469
135.9139, 40.08015
136.3960, 41.55344
136.8782, 42.91236
137.3603, 44.14009
137.8424, 45.30175
138.3245, 46.40343
138.8066, 47.43682
139.2887, 48.33301
139.7709, 49.03402
140.2530, 49.74855
140.7351, 50.73997
141.2172, 51.96658
141.6993, 53.34241
142.1814, 54.79734
142.6636, 56.35463
143.1457, 58.12261
143.6278, 60.14089
144.1099, 62.37660
144.5920, 64.81110
145.0741, 67.43123
145.5563, 70.14173
146.0384, 73.26611
146.5205, 77.01941
147.0026, 79.30756
147.4847, 79.49667
147.9668, 78.20382
148.4490, 75.28226
148.9311, 70.80933
149.4132, 65.50404
149.8953, 60.30565
150.3774, 54.76103
150.8595, 50.32663
151.3417, 47.13430
151.8238, 44.83921
152.3059, 43.22577
152.7880, 42.21200
153.2701, 41.77203
153.7522, 41.86800
154.2344, 43.27663
154.7165, 44.37451
155.1986, 45.26863
155.6807, 45.78494
156.1628, 45.71332
156.6449, 44.94484
157.1271, 43.52667
157.6092, 41.56852
158.0913, 38.68862
158.5734, 35.80207
159.0555, 33.02324
159.5376, 30.41576
160.0198, 28.16172
160.5019, 26.41474
160.9840, 25.09881
161.4661, 23.82759
161.9482, 22.66889
162.4303, 21.48228
162.9125, 20.12286
163.3946, 18.60069
163.8767, 17.15370
164.3588, 15.89691
164.8409, 14.83666
165.3230, 13.97528
165.8052, 13.38625
166.2873, 12.93657
166.7694, 12.45045
167.2515, 11.88901
167.7336, 11.42252
168.2157, 11.15701
168.6979, 11.01941
169.1800, 10.94748
169.6621, 10.94447
170.1442, 10.96908
170.6263, 10.89223
171.1084, 10.62301
171.5906, 10.39659
172.0727, 10.30771
172.5548, 10.29769
173.0369, 10.28503
173.5190, 10.22026
174.0011, 10.10947
174.4833, 10.00371
174.9654, 9.872681
175.4475, 9.780069
175.9296, 9.743582
176.4117, 9.755776
176.8938, 9.810866
177.3760, 9.915039
177.8581, 10.07229
178.3402, 10.11698
178.8223, 9.939836
179.3044, 9.770825
179.7865, 9.683594
180.2687, 9.674829
180.7508, 9.715011
181.2329, 9.787847
181.7150, 9.899137
182.1971, 9.953169
182.6792, 9.900235
183.1614, 9.840214
183.6435, 9.845651
184.1256, 9.913054
184.6077, 9.966745
185.0898, 9.924881
185.5719, 9.781370
186.0541, 9.710074
186.5362, 9.750149
187.0183, 9.843526
187.5004, 9.940264
187.9825, 10.03510
188.4646, 10.14017
188.9468, 10.28378
189.4289, 10.45250
189.9110, 10.59109
190.3931, 10.69234
190.8752, 10.75439
191.3573, 10.76787
191.8395, 10.72122
192.3216, 10.65534
192.8037, 10.56563
193.2858, 10.47635
193.7679, 10.45455
194.2500, 10.56348
194.7322, 10.76659
195.2143, 10.94850
195.6964, 11.09875
196.1785, 11.23848
196.6606, 11.38258
197.1427, 11.52756
197.6249, 11.66552
198.1070, 11.80621
198.5891, 11.94334
199.0712, 12.01214
199.5533, 11.98638
200.0354, 11.91065
200.5176, 11.80715
200.9997, 11.67081
201.4818, 11.48297
201.9639, 11.21073
202.4460, 10.84985
202.9281, 10.56926
203.4103, 10.46098
203.8924, 10.35646
204.3745, 10.18723
204.8566, 9.975866
205.3387, 9.792389
205.8208, 9.699668
206.3030, 9.706279
206.7851, 9.724445
207.2672, 9.773436
207.7493, 9.815022
208.2314, 9.814000
208.7135, 9.786062
209.1957, 9.785645
209.6778, 9.870749
210.1599, 10.06219
210.6420, 10.16787
211.1241, 10.12264
211.6062, 10.06605
212.0884, 10.06139
212.5705, 10.11279
213.0526, 10.19537
213.5347, 10.28461
214.0168, 10.37970
214.4989, 10.53497
214.9811, 10.82203
215.4632, 11.10901
215.9453, 11.29330
216.4274, 11.37588
216.9095, 11.44730
217.3916, 11.57705
217.8737, 11.77313
218.3559, 12.00700
218.8380, 12.28008
219.3201, 12.59178
219.8022, 12.99916
220.2843, 13.50605
220.7664, 13.91246
221.2486, 13.95120
221.7307, 13.73164
222.2128, 13.72473
222.6949, 14.16828
223.1770, 14.76742
223.6591, 15.16670
224.1413, 15.32771
224.6234, 15.49221
225.1055, 15.87036
225.5876, 16.37269
226.0697, 16.84146
226.5518, 17.18710
227.0340, 17.50023
227.5161, 17.91119
227.9982, 18.42985
228.4803, 19.01519
228.9624, 19.69299
229.4445, 20.40661
229.9267, 21.08040
230.4088, 21.63079
230.8909, 22.16563
231.3730, 22.91400
231.8551, 23.96684
232.3372, 25.00140
232.8194, 25.82287
233.3015, 26.57766
233.7836, 27.45631
234.2657, 28.56701
234.7478, 29.79850
235.2299, 30.89607
235.7121, 31.81661
236.1942, 32.69107
236.6763, 33.63626
237.1584, 34.53659
237.6405, 35.26855
238.1227, 35.77681
238.6048, 36.10802
239.0869, 36.37669
239.5690, 36.58082
240.0511, 36.71679
240.5332, 36.66679
241.0154, 36.61010
241.4975, 36.73409
241.9796, 37.11928
242.4617, 37.68693
242.9438, 38.22486
243.4259, 38.59924
243.9081, 39.17845
244.3902, 40.13228
244.8723, 41.22063
245.3544, 42.25677
245.8365, 43.16738
246.3186, 43.92789
246.8008, 44.47069
247.2829, 44.46823
247.7650, 44.72640
248.2471, 45.61251
248.7292, 46.58840
249.2113, 47.20464
249.6935, 47.29808
250.1756, 46.94600
250.6577, 46.28669
251.1398, 45.12872
251.6219, 43.90532
252.1040, 42.60632
252.5862, 41.26017
253.0683, 39.93296
253.5504, 38.63910
254.0325, 37.26167
254.5146, 35.59531
254.9967, 33.39318
255.4789, 31.36081
255.9610, 29.51240
256.4431, 27.83172
256.9252, 26.34630
257.4073, 25.04918
257.8894, 23.81896
258.3716, 22.46703
258.8537, 20.85018
259.3358, 19.54613
259.8179, 18.69095
260.3000, 18.06068
260.7821, 17.49852
261.2643, 16.96799
261.7464, 16.45123
262.2285, 15.91801
262.7106, 15.35227
263.1927, 14.86517
263.6748, 14.52089
264.1570, 14.21731
264.6391, 13.85805
265.1212, 13.43620
265.6033, 13.03282
266.0854, 12.73322
266.5675, 12.54579
267.0497, 12.34900
267.5318, 12.10960
268.0139, 11.88230
268.4960, 11.72045
268.9781, 11.62465
269.4602, 11.54039
269.9424, 11.42389
270.4245, 11.28259
270.9066, 11.16891
271.3887, 11.08337
271.8708, 11.02619
272.3529, 11.00245
272.8351, 11.01067
273.3172, 11.03574
273.7993, 11.06955
274.2814, 11.11559
274.7635, 11.17913
275.2456, 11.28092
275.7278, 11.37691
276.2099, 11.43625
276.6920, 11.46124
277.1741, 11.46679
277.6562, 11.44330
278.1383, 11.41603
278.6205, 11.43674
279.1026, 11.53031
279.5847, 11.61847
280.0668, 11.64303
280.5489, 11.61312
281.0310, 11.57454
281.5132, 11.51282
281.9953, 11.48548
282.4774, 11.57191
282.9595, 11.78788
283.4416, 12.01978
283.9237, 12.21458
284.4059, 12.37259
284.8880, 12.49585
285.3701, 12.58080
285.8522, 12.63190
286.3343, 12.65326
286.8164, 12.64634
287.2986, 12.63126
287.7807, 12.63064
288.2628, 12.63177
288.7449, 12.59291
289.2270, 12.50424
289.7091, 12.37957
290.1913, 12.19634
290.6734, 11.97859
291.1555, 11.81551
291.6376, 11.82262
292.1197, 11.90819
292.6018, 11.82858
293.0840, 11.50629
293.5661, 11.17796
294.0482, 11.03122
294.5303, 10.98707
295.0124, 10.90069
295.4945, 10.69395
295.9767, 10.42547
296.4588, 10.19513
296.9409, 10.00507
297.4230, 9.846033
297.9051, 9.754025
298.3872, 9.676663
298.8694, 9.538871
299.3515, 9.288575
299.8336, 9.023179
300.3157, 8.896683
300.7978, 8.939272
301.2799, 8.932242
301.7621, 8.692189
302.2442, 8.416099
302.7263, 8.295407
303.2084, 8.381488
303.6905, 8.520846
304.1726, 8.545873
304.6548, 8.450153
305.1369, 8.396415
305.6190, 8.484150
306.1011, 8.577453
306.5832, 8.561705
307.0653, 8.432193
307.5475, 8.283224
308.0296, 8.178882
308.5117, 8.118275
308.9938, 8.096150
309.4759, 8.157353
309.9580, 8.202425
310.4402, 8.130988
310.9223, 7.977503
311.4044, 7.874160
311.8865, 7.956810
312.3686, 8.171231
312.8507, 8.268419
313.3329, 8.178802
313.8150, 8.084212
314.2971, 8.092492
314.7792, 8.163901
315.2613, 8.227715
315.7434, 8.256011
316.2256, 8.254323
316.7077, 8.229269
317.1898, 8.170417
317.6719, 8.116529
318.1540, 8.070292
318.6361, 8.043085
319.1183, 8.063423
319.6004, 8.158002
320.0825, 8.251527
320.5646, 8.220957
321.0467, 8.041518
321.5288, 7.895823
322.0110, 7.846991
322.4931, 7.854791
322.9752, 7.918104
323.4573, 8.038977
323.9394, 8.130518
324.4215, 8.083574
324.9037, 7.902034
325.3858, 7.769972
325.8679, 7.761323
326.3500, 7.769501
326.8321, 7.725111
327.3142, 7.629502
327.7964, 7.506144
328.2785, 7.329964
328.7606, 7.127167
329.2427, 7.034911
329.7248, 7.111929
330.2069, 7.213739
330.6891, 7.265901
331.1712, 7.276135
331.6533, 7.255277
332.1354, 7.178749
332.6175, 7.089042
333.0996, 7.096484
333.5818, 7.246528
334.0639, 7.346156
334.5460, 7.232739
335.0281, 7.036705
335.5102, 6.897916
335.9923, 6.853878
336.4745, 6.870853
336.9566, 6.938687
337.4387, 7.063569
337.9208, 7.125453
338.4029, 7.019394
338.8850, 6.879267
339.3671, 6.848880
339.8492, 6.946459
340.3314, 7.049139
340.8135, 7.063392
341.2956, 7.000656
341.7777, 6.928698
342.2598, 6.850698
342.7419, 6.778818
343.2241, 6.719853
343.7062, 6.673490
344.1883, 6.642037
344.6704, 6.617282
345.1525, 6.609557
345.6346, 6.659558
346.1168, 6.795289
346.5989, 6.904560
347.0810, 6.855941
347.5631, 6.727740
348.0452, 6.657846
348.5273, 6.710740
349.0095, 6.810025
349.4916, 6.886787
349.9737, 6.941340
350.4558, 6.945467
350.9379, 6.860030
351.4200, 6.728591
351.9022, 6.608826
352.3843, 6.479632
352.8664, 6.429762
353.3485, 6.587918
353.8306, 6.892920
354.3127, 7.094710
354.7949, 7.101681
355.2770, 7.019528
355.7591, 6.977293
356.2412, 6.973640
356.7233, 6.969514
357.2054, 6.967882
357.6876, 6.951812
358.1697, 6.855972
358.6518, 6.651546
359.1339, 6.518870
359.6160, 6.693588
360.0981, 7.104087
360.5803, 7.351935
361.0624, 7.269814
361.5445, 7.097363
362.0266, 7.013557
362.5087, 7.015677
362.9908, 7.055243
363.4730, 7.123065
363.9551, 7.199136
364.4372, 7.222905
364.9193, 7.157383
365.4014, 7.105462
365.8835, 7.122105
366.3657, 7.180919
366.8478, 7.227355
367.3299, 7.241639
367.8120, 7.244598
368.2941, 7.267344
368.7762, 7.309442
369.2584, 7.369919
369.7405, 7.465936
370.2226, 7.570116
370.7047, 7.662161
371.1868, 7.738111
371.6689, 7.789877
372.1511, 7.809332
372.6332, 7.794268
373.1153, 7.765371
373.5974, 7.663439
374.0795, 7.606009
374.5616, 7.662347
375.0438, 7.809464
375.5259, 7.998312
376.0080, 8.210784
376.4901, 8.423207
376.9722, 8.546884
377.4543, 8.488406
377.9365, 8.463009
378.4186, 8.509151
378.9007, 8.591461
379.3828, 8.668052
379.8649, 8.728237
380.3470, 8.796619
380.8292, 8.912532
381.3113, 9.109720
381.7934, 9.252236
382.2755, 9.286740
382.7576, 9.320437
383.2397, 9.417142
383.7219, 9.570535
384.2040, 9.733790
384.6861, 9.865957
385.1682, 9.972346
385.6503, 10.13509
386.1324, 10.41968
386.6146, 10.69014
387.0967, 10.93683
387.5788, 11.14993
388.0609, 11.31207
388.5430, 11.41560
389.0251, 11.48839
389.5073, 11.58446
389.9894, 11.70127
390.4715, 11.85047
390.9536, 12.07708
391.4357, 12.29702
391.9178, 12.42261
392.4000, 12.46896
392.8821, 12.55578
393.3642, 12.84092
393.8463, 13.33614
394.3284, 13.63058
394.8105, 13.50310
395.2927, 13.42647
395.7748, 13.60912
396.2569, 13.94025
396.7390, 14.22780
397.2211, 14.36934
397.7032, 14.42741
398.1854, 14.55189
398.6675, 14.78371
399.1496, 14.95856
399.6317, 14.96332
400.1138, 14.93531
400.5959, 14.97261
401.0781, 15.09211
401.5602, 15.25772
402.0423, 15.45274
402.5244, 15.67285
403.0065, 15.88455
403.4886, 16.12858
403.9708, 16.29063
404.4529, 16.27059
404.9350, 16.11330
405.4171, 15.93851
405.8992, 15.74076
406.3813, 15.58426
406.8635, 15.59601
407.3456, 15.79314
407.8277, 16.00680
408.3098, 16.20158
408.7919, 16.33664
409.2740, 16.32890
409.7562, 16.10421
410.2383, 15.92078
410.7204, 15.95171
411.2025, 16.14832
411.6846, 16.38250
412.1667, 16.63985
412.6489, 16.87850
413.1310, 17.00200
413.6131, 17.01249
414.0952, 17.15442
414.5773, 17.61963
415.0594, 18.13343
415.5416, 18.37737
416.0237, 18.37443
416.5058, 18.46022
416.9879, 18.87839
417.4700, 19.56014
417.9521, 20.12465
418.4343, 20.49550
418.9164, 20.86232
419.3985, 21.27134
419.8806, 21.70977
420.3627, 22.15627
420.8448, 22.60526
421.3270, 23.06314
421.8091, 23.54379
422.2912, 24.06468
422.7733, 24.54936
423.2554, 24.88489
423.7375, 25.28187
424.2197, 25.87493
424.7018, 26.64260
425.1839, 27.49787
425.6660, 28.39393
426.1481, 29.30573
426.6302, 30.08373
427.1124, 30.55406
427.5945, 31.09244
428.0766, 31.74978
428.5587, 32.48998
429.0408, 33.30814
429.5229, 34.19179
430.0051, 35.08085
430.4872, 35.90014
430.9693, 36.64830
431.4514, 37.31791
431.9335, 37.77848
432.4156, 38.27946
432.8978, 38.94724
433.3799, 39.74103
433.8620, 40.55596
434.3441, 41.33656
434.8262, 42.07985
435.3083, 42.76475
435.7905, 43.36805
436.2726, 43.97049
436.7547, 44.68686
437.2368, 45.37303
437.7189, 45.87164
438.2010, 46.14560
438.6832, 46.35358
439.1653, 46.66388
439.6474, 47.03786
440.1295, 47.26099
440.6116, 47.27254
441.0938, 47.17815
441.5759, 47.02880
442.0580, 46.84313
442.5401, 46.67815
443.0222, 46.67290
443.5043, 46.61088
443.9865, 46.21721
444.4686, 45.52612
444.9507, 44.84628
445.4328, 44.34943
445.9149, 43.92201
446.3970, 43.30507
446.8792, 42.47699
447.3613, 41.57792
447.8434, 40.58897
448.3255, 39.57525
448.8076, 38.64350
449.2897, 37.80050
449.7719, 36.92421
450.2540, 35.88775
450.7361, 34.67675
451.2182, 33.53017
451.7003, 32.41788
452.1824, 31.39119
452.6646, 30.48764
453.1467, 29.67274
453.6288, 28.91464
454.1109, 28.19742
454.5930, 27.48860
455.0751, 26.70196
455.5573, 25.70868
456.0394, 24.89828
456.5215, 24.41486
457.0036, 23.96073
457.4857, 23.35365
457.9678, 22.60824
458.4500, 21.83171
458.9321, 21.09196
459.4142, 20.39583
459.8963, 19.77707
460.3784, 19.25390
460.8605, 18.78332
461.3427, 18.37728
461.8248, 17.99374
462.3069, 17.57780
462.7890, 17.11606
463.2711, 16.67370
463.7532, 16.34937
464.2354, 16.12938
464.7175, 15.83789
465.1996, 15.41447
465.6817, 14.98175
466.1638, 14.65623
466.6459, 14.39064
467.1281, 14.05746
467.6102, 13.53086
468.0923, 12.99589
468.5744, 12.68029
469.0565, 12.56308
469.5386, 12.46242
470.0208, 12.31972
470.5029, 12.14066
470.9850, 11.92325
471.4671, 11.65405
471.9492, 11.42105
472.4313, 11.28402
472.9135, 11.17111
473.3956, 10.97821
473.8777, 10.70955
474.3598, 10.49106
474.8419, 10.43668
475.3240, 10.52098
475.8062, 10.49104
476.2883, 10.27126
476.7704, 10.04725
477.2525, 9.837625
477.7346, 9.651809
478.2167, 9.512633
478.6989, 9.420670
479.1810, 9.336172
479.6631, 9.200064
480.1452, 8.993527
480.6273, 8.836681
481.1094, 8.763551
481.5916, 8.706607
482.0737, 8.652645
482.5558, 8.598466
483.0379, 8.541822
483.5200, 8.481058
484.0021, 8.418650
484.4843, 8.365259
484.9664, 8.329107
485.4485, 8.261521
485.9306, 8.112856
486.4127, 7.964093
486.8948, 7.874289
487.3770, 7.836931
487.8591, 7.803714
488.3412, 7.738218
488.8233, 7.661372
489.3054, 7.621603
489.7875, 7.624129
490.2697, 7.615725
490.7518, 7.556840
491.2339, 7.477460
491.7160, 7.447339
492.1981, 7.499593
492.6802, 7.504745
493.1624, 7.333410
493.6445, 7.108956
494.1266, 7.057746
494.6087, 7.212202
495.0908, 7.343642
495.5729, 7.224034
496.0551, 6.858543
496.5372, 6.666962
497.0193, 6.787109
497.5014, 6.892715
497.9835, 6.863011
498.4656, 6.765811
498.9478, 6.702198
499.4299, 6.704822
499.9120, 6.732504
500.3941, 6.725001
500.8762, 6.671278
501.3583, 6.625858
501.8405, 6.604371
502.3226, 6.575374
502.8047, 6.500594
503.2868, 6.414454
503.7689, 6.390535
504.2510, 6.474583
504.7331, 6.594958
505.2152, 6.620096
505.6974, 6.539739
506.1795, 6.422772
506.6616, 6.202856
507.1437, 6.030570
507.6258, 6.060450
508.1079, 6.254468
508.5901, 6.398221
509.0722, 6.334242
509.5543, 6.186798
510.0364, 6.161741
510.5185, 6.257627
511.0006, 6.291278
511.4828, 6.141549
511.9649, 5.909978
512.4470, 5.818092
512.9291, 5.895417
513.4113, 5.979114
513.8934, 6.061655
514.3755, 6.110184
514.8576, 6.066933
515.3397, 5.940630
515.8218, 5.812146
516.3040, 5.736818
516.7861, 5.713454
517.2682, 5.734156
517.7503, 5.873612
518.2324, 5.963458
518.7145, 5.972506
519.1967, 5.935356
519.6788, 5.864211
520.1609, 5.773460
520.6430, 5.706559
521.1251, 5.719981
521.6072, 5.810104
522.0894, 5.840756
522.5715, 5.756460
523.0536, 5.701372
523.5357, 5.760725
524.0178, 5.855846
524.4999, 5.887033
524.9821, 5.824130
525.4642, 5.750677
525.9463, 5.751970
526.4284, 5.810454
526.9105, 5.842929
527.3926, 5.829771
527.8748, 5.815137
528.3569, 5.842011
528.8390, 5.896274
529.3211, 5.928476
529.8032, 5.908201
530.2853, 5.894004
530.7675, 5.932701
531.2496, 5.997451
531.7317, 6.035745
532.2138, 6.032324
532.6959, 6.002132
533.1780, 5.956069
533.6602, 5.882097
534.1423, 5.870615
534.6244, 5.976649
535.1065, 6.074712
535.5886, 6.107737
536.0707, 6.104790
536.5529, 6.112356
537.0350, 6.148956
537.5171, 6.202967
537.9992, 6.252864
538.4813, 6.293063
538.9634, 6.359987
539.4456, 6.510069
539.9277, 6.624569
540.4098, 6.608705
540.8919, 6.523623
541.3740, 6.502019
541.8561, 6.625209
542.3383, 6.769058
542.8204, 6.741189
543.3025, 6.567108
543.7846, 6.503842
544.2667, 6.643664
544.7488, 6.854393
545.2310, 7.001078
545.7131, 7.090261
546.1952, 7.169757
546.6773, 7.218461
547.1594, 7.284887
547.6415, 7.405159
548.1237, 7.568442
548.6058, 7.751866
549.0879, 7.946136
549.5700, 8.144538
550.0521, 8.333001
550.5342, 8.495360
551.0164, 8.697038
551.4985, 8.966277
551.9806, 9.238009
552.4627, 9.467290
552.9448, 9.682575
553.4269, 9.934969
553.9091, 10.24749
554.3912, 10.62013
554.8733, 11.08263
555.3554, 11.66368
555.8375, 12.14444
556.3196, 12.43064
556.8018, 12.68446
557.2839, 12.98093
557.7660, 13.32910
558.2481, 13.75289
558.7302, 14.28984
559.2123, 14.86932
559.6945, 15.43225
560.1766, 15.97702
560.6587, 16.48765
561.1408, 16.95593
561.6229, 17.40244
562.1050, 17.85990
562.5872, 18.33208
563.0693, 18.76740
563.5514, 18.99849
564.0335, 19.35919
564.5156, 20.08389
564.9977, 21.04306
565.4799, 21.99179
565.9620, 22.83088
566.4441, 23.66724
566.9262, 24.73712
567.4083, 26.21438
567.8904, 27.21550
568.3726, 27.25975
568.8547, 27.30461
569.3368, 27.68923
569.8189, 28.28849
570.3010, 28.88476
570.7831, 29.41130
571.2653, 29.87186
571.7474, 30.35832
572.2295, 30.82849
572.7116, 30.90490
573.1937, 30.42351
573.6758, 29.80079
574.1580, 29.41471
574.6401, 29.17963
575.1222, 28.75448
575.6043, 28.04061
576.0864, 27.20699
576.5685, 26.31158
577.0507, 25.36343
577.5328, 24.33248
578.0149, 23.22261
578.4970, 22.17798
578.9791, 21.35592
579.4612, 20.76241
579.9434, 20.24186
580.4255, 19.79243
580.9076, 19.42302
581.3897, 19.11338
581.8718, 18.89343
582.3539, 18.80898
582.8361, 18.86370
583.3182, 18.99805
583.8003, 19.17833
584.2824, 19.39597
584.7645, 19.56251
585.2466, 19.62828
585.7288, 19.78866
586.2108, 20.20515
