##NAMES=Triphylite
##RRUFFID=R050257
##IDEAL CHEMISTRY=LiFe^2+^PO_4_
##LOCALITY=Palermo mine, North Groton, Grafton County, New Hampshire, USA
##OWNER=RRUFF
##SOURCE=Marcus Origlieri
##DESCRIPTION=Dark gray massive
##STATUS=The identification of this mineral has been confirmed by X-ray diffraction and chemical analysis
##URL=rruff.info/R050257
##MEASURED CHEMISTRY=Li_1.00_(Fe^2+^_0.73_Mn^2+^_0.19_Mg_0.08_)_Î£=1_P_1.00_O_4_
103.8984, 7.884615
104.3806, 3.751063
104.8627, 1.497555
105.3448, 2.191635
105.8269, 3.618567
106.3090, 4.684218
106.7911, 5.553767
107.2733, 5.813404
107.7554, 5.264027
108.2375, 3.890932
108.7196, 2.518398
109.2017, -0.3222312
109.6838, -2.477658
110.1659, -2.171159
110.6481, 4.617051
111.1302, 10.20615
111.6123, 12.53522
112.0944, 10.71656
112.5765, 8.708500
113.0586, 5.968014
113.5408, 3.593810
114.0229, 3.348604
114.5050, 7.775042
114.9871, 13.03137
115.4692, 17.17328
115.9513, 19.47881
116.4335, 21.19562
116.9156, 23.00451
117.3977, 24.68840
117.8798, 25.37070
118.3619, 22.91678
118.8440, 19.93537
119.3262, 18.86194
119.8083, 21.58020
120.2904, 25.69893
120.7725, 30.03679
121.2546, 34.59185
121.7367, 38.63634
122.2189, 41.45659
122.7010, 43.38568
123.1831, 45.10649
123.6652, 46.64294
124.1473, 48.24635
124.6294, 49.93886
125.1115, 51.44951
125.5937, 54.01436
126.0758, 59.71713
126.5579, 68.07117
127.0400, 76.45953
127.5221, 82.31239
128.0043, 86.94976
128.4864, 94.08392
128.9685, 105.4892
129.4506, 118.5734
129.9327, 127.9900
130.4148, 133.6217
130.8969, 138.8432
131.3791, 146.9605
131.8612, 157.6221
132.3433, 167.9224
132.8254, 176.2195
133.3075, 183.2901
133.7896, 193.9945
134.2718, 209.0736
134.7539, 225.3374
135.2360, 238.3554
135.7181, 247.5511
136.2002, 256.2597
136.6823, 264.9872
137.1645, 273.4303
137.6466, 285.8320
138.1287, 304.0564
138.6108, 324.9759
139.0929, 339.9922
139.5750, 346.7730
140.0572, 353.1916
140.5393, 363.9954
141.0214, 380.9649
141.5035, 397.0079
141.9856, 410.2592
142.4677, 421.5148
142.9499, 438.6493
143.4320, 463.1727
143.9141, 491.4879
144.3962, 520.3281
144.8783, 550.0148
145.3604, 580.1257
145.8425, 611.1055
146.3247, 642.8658
146.8068, 674.5423
147.2889, 711.1291
147.7710, 745.0768
148.2531, 767.6968
148.7352, 770.1550
149.2174, 769.7752
149.6995, 770.8617
150.1816, 774.8210
150.6637, 777.2872
151.1458, 774.1002
151.6279, 769.4456
152.1101, 772.0090
152.5922, 787.3686
153.0743, 806.3341
153.5564, 825.1423
154.0385, 843.1102
154.5206, 861.5980
155.0028, 882.1580
155.4849, 903.9570
155.9670, 922.9026
156.4491, 942.2424
156.9312, 956.1880
157.4133, 960.8592
157.8955, 955.0537
158.3776, 940.2803
158.8597, 916.5687
159.3418, 883.8224
159.8239, 843.0469
160.3060, 787.5640
160.7882, 726.3001
161.2703, 668.7847
161.7524, 621.6319
162.2345, 576.2958
162.7166, 526.8506
163.1987, 471.0011
163.6808, 420.9895
164.1630, 384.1291
164.6451, 356.5091
165.1272, 331.5302
165.6093, 306.9226
166.0914, 283.4893
166.5735, 261.4197
167.0557, 239.9767
167.5378, 221.7502
168.0199, 209.8104
168.5020, 202.8529
168.9841, 197.3309
169.4662, 191.1592
169.9484, 185.4194
170.4305, 181.4346
170.9126, 180.7376
171.3947, 180.3083
171.8768, 176.6723
172.3589, 170.3199
172.8411, 164.8261
173.3232, 162.8268
173.8053, 163.2811
174.2874, 164.5835
174.7695, 167.7686
175.2516, 170.5778
175.7338, 168.8291
176.2159, 162.4406
176.6980, 157.1072
177.1801, 159.8525
177.6622, 167.8601
178.1443, 173.6797
178.6264, 170.9605
179.1086, 164.7289
179.5907, 164.9508
180.0728, 172.5812
180.5549, 182.1575
181.0370, 187.9616
181.5191, 190.4975
182.0013, 192.3115
182.4834, 193.9932
182.9655, 195.9056
183.4476, 199.1488
183.9297, 203.8934
184.4118, 209.7619
184.8940, 215.9746
185.3761, 222.6495
185.8582, 230.5651
186.3403, 241.6451
186.8224, 254.9158
187.3046, 265.8772
187.7867, 273.8384
188.2688, 279.4071
188.7509, 282.5661
189.2330, 283.1304
189.7151, 285.4445
190.1973, 292.3428
190.6794, 303.8126
191.1615, 320.2838
191.6436, 344.3055
192.1257, 372.7178
192.6078, 393.8165
193.0900, 407.0174
193.5721, 418.1273
194.0542, 432.0473
194.5363, 448.7017
195.0184, 468.1953
195.5005, 491.9865
195.9826, 519.0033
196.4648, 542.0247
196.9469, 560.6725
197.4290, 575.7388
197.9111, 587.9116
198.3932, 597.0146
198.8753, 604.1775
199.3575, 610.5463
199.8396, 616.0826
200.3217, 616.5480
200.8038, 612.2087
201.2859, 602.3588
201.7680, 583.9529
202.2502, 554.7641
202.7323, 526.4625
203.2144, 505.1879
203.6965, 492.3841
204.1786, 475.0205
204.6607, 451.6981
205.1429, 425.2827
205.6250, 401.5215
206.1071, 380.6362
206.5892, 362.4193
207.0713, 347.8972
207.5534, 338.3833
208.0356, 325.7195
208.5177, 308.1867
208.9998, 287.9005
209.4819, 270.5100
209.9640, 256.3429
210.4461, 244.2844
210.9282, 233.7797
211.4104, 224.6580
211.8925, 217.4771
212.3746, 212.3530
212.8567, 209.2319
213.3388, 208.4952
213.8209, 212.2979
214.3031, 214.6455
214.7852, 209.5366
215.2673, 192.2881
215.7494, 181.3339
216.2315, 181.0622
216.7136, 190.4665
217.1958, 197.0716
217.6779, 200.4494
218.1600, 201.7063
218.6421, 201.2774
219.1242, 197.5257
219.6063, 196.0255
220.0885, 198.7356
220.5706, 205.7328
221.0527, 209.8907
221.5348, 209.8888
222.0169, 208.5350
222.4990, 208.5542
222.9812, 209.6619
223.4633, 212.8451
223.9454, 219.2550
224.4275, 229.7118
224.9096, 236.3675
225.3917, 237.1840
225.8739, 236.0947
226.3560, 238.1585
226.8381, 244.5717
227.3202, 251.9841
227.8023, 259.3829
228.2844, 266.2768
228.7665, 275.5136
229.2487, 288.5458
229.7308, 302.7693
230.2129, 313.9164
230.6950, 319.4612
231.1771, 325.8894
231.6592, 335.3054
232.1414, 348.1008
232.6235, 362.6128
233.1056, 378.9850
233.5877, 396.9113
234.0698, 415.4370
234.5519, 434.9232
235.0341, 454.3720
235.5162, 473.5768
235.9983, 492.2164
236.4804, 511.1671
236.9625, 530.8061
237.4446, 550.5853
237.9268, 570.2501
238.4089, 593.4482
238.8910, 611.6389
239.3731, 620.7358
239.8552, 616.9334
240.3373, 611.9733
240.8195, 605.2695
241.3016, 597.5356
241.7837, 590.5507
242.2658, 584.0805
242.7479, 578.6866
243.2300, 574.6501
243.7122, 572.1077
244.1943, 570.6923
244.6764, 570.7833
245.1585, 571.9885
245.6406, 572.6172
246.1227, 571.0509
246.6048, 571.1123
247.0870, 575.2837
247.5691, 586.0490
248.0512, 595.6984
248.5333, 604.0495
249.0154, 610.9630
249.4975, 615.8375
249.9797, 618.0114
250.4618, 619.1249
250.9439, 620.7631
251.4260, 625.7316
251.9081, 624.8063
252.3902, 615.7341
252.8724, 599.7409
253.3545, 584.9547
253.8366, 573.6720
254.3187, 560.4183
254.8008, 540.9958
255.2829, 512.2212
255.7651, 484.3726
256.2472, 457.3910
256.7293, 431.6838
257.2114, 411.5978
257.6935, 400.1489
258.1756, 389.8825
258.6577, 374.9497
259.1399, 352.3122
259.6220, 332.6463
260.1041, 317.8147
260.5862, 307.2207
261.0683, 296.2477
261.5504, 284.5536
262.0326, 273.0732
262.5147, 262.4274
262.9968, 252.8872
263.4789, 243.5684
263.9610, 234.0442
264.4431, 224.4888
264.9253, 217.6307
265.4074, 214.8615
265.8895, 212.3131
266.3716, 206.0764
266.8537, 194.3922
267.3358, 185.4707
267.8180, 181.5183
268.3001, 181.7573
268.7822, 179.2489
269.2643, 172.6782
269.7464, 165.9846
270.2285, 162.6845
270.7107, 163.5738
271.1928, 164.4759
271.6749, 164.5507
272.1570, 163.9723
272.6391, 164.3820
273.1212, 166.5146
273.6034, 167.8350
274.0855, 165.2796
274.5676, 157.9992
275.0497, 152.3223
275.5318, 149.8062
276.0139, 149.9232
276.4961, 149.4330
276.9782, 147.9161
277.4603, 147.0792
277.9424, 149.0530
278.4245, 154.1374
278.9066, 158.4402
279.3888, 161.4767
279.8709, 163.0799
280.3530, 161.1890
280.8351, 154.7354
281.3172, 149.1347
281.7993, 150.6973
282.2815, 159.5100
282.7636, 166.8075
283.2457, 170.8145
283.7278, 171.8469
284.2099, 169.9188
284.6920, 164.4334
285.1741, 159.7310
285.6563, 160.9559
286.1384, 167.6550
286.6205, 172.6272
287.1026, 173.8161
287.5847, 172.4895
288.0668, 172.0817
288.5490, 172.6230
289.0311, 173.7172
289.5132, 175.4682
289.9953, 177.6511
290.4774, 179.1356
290.9595, 179.8498
291.4417, 179.5560
291.9238, 177.1068
292.4059, 172.5005
292.8880, 167.9361
293.3701, 165.4426
293.8522, 164.5938
294.3344, 163.7384
294.8165, 162.4723
295.2986, 161.0047
295.7807, 160.2392
296.2628, 160.0625
296.7449, 158.7335
297.2271, 152.7346
297.7092, 144.5150
298.1913, 140.2550
298.6734, 142.8397
299.1555, 148.2626
299.6376, 151.5383
300.1198, 152.7781
300.6019, 152.6043
301.0840, 150.1657
301.5661, 146.8123
302.0482, 145.0554
302.5303, 145.9666
303.0125, 147.8473
303.4946, 149.3102
303.9767, 150.2761
304.4588, 150.4338
304.9409, 148.5165
305.4230, 146.0131
305.9052, 144.7054
306.3873, 144.8493
306.8694, 146.5558
307.3515, 150.7046
307.8336, 156.6911
308.3157, 162.6161
308.7979, 167.4553
309.2800, 171.6007
309.7621, 175.2410
310.2442, 177.9078
310.7263, 181.1613
311.2084, 186.1815
311.6906, 192.6224
312.1727, 199.6055
312.6548, 207.6499
313.1369, 215.5560
313.6190, 221.4958
314.1011, 223.2722
314.5833, 227.9868
315.0654, 242.8562
315.5475, 263.1270
316.0296, 278.6915
316.5117, 279.6337
316.9938, 279.0426
317.4760, 285.1864
317.9580, 302.0516
318.4402, 317.0027
318.9223, 324.9862
319.4044, 328.6484
319.8865, 332.2027
320.3686, 336.1297
320.8507, 340.7528
321.3329, 347.4274
321.8150, 358.3380
322.2971, 363.8190
322.7792, 358.7772
323.2613, 348.1112
323.7434, 338.5529
324.2256, 330.4079
324.7077, 324.1341
325.1898, 321.5382
325.6719, 325.1275
326.1540, 321.8303
326.6361, 304.6526
327.1183, 282.6559
327.6004, 265.9084
328.0825, 259.0953
328.5646, 252.4599
329.0467, 243.6855
329.5288, 232.1172
330.0110, 223.6633
330.4931, 220.6833
330.9752, 219.0618
331.4573, 214.9364
331.9394, 207.0269
332.4215, 198.6357
332.9037, 189.8636
333.3858, 180.7844
333.8679, 172.9522
334.3500, 165.5609
334.8321, 160.3525
335.3142, 159.5458
335.7964, 165.7282
336.2785, 169.0166
336.7606, 167.1756
337.2427, 161.1436
337.7248, 156.7121
338.2069, 154.2850
338.6891, 152.4836
339.1712, 149.8356
339.6533, 145.9514
340.1354, 144.6735
340.6175, 147.6104
341.0996, 152.6887
341.5818, 153.3725
342.0639, 149.1002
342.5460, 144.1195
343.0281, 141.3621
343.5102, 140.6715
343.9923, 138.9068
344.4745, 135.5141
344.9566, 131.3593
345.4387, 127.5160
345.9208, 124.0800
346.4029, 122.2848
346.8850, 124.0589
347.3672, 128.2541
347.8493, 130.9079
348.3314, 131.6919
348.8135, 131.0490
349.2956, 128.5239
349.7777, 124.7120
350.2599, 122.0044
350.7419, 122.3690
351.2241, 124.3525
351.7062, 125.6456
352.1883, 126.1314
352.6704, 126.1277
353.1525, 125.6861
353.6346, 124.9696
354.1168, 124.3016
354.5989, 124.6298
355.0810, 124.5765
355.5631, 122.1558
356.0452, 117.3759
356.5273, 113.3155
357.0095, 112.9211
357.4916, 114.1526
357.9737, 114.5021
358.4558, 111.4423
358.9379, 108.7209
359.4200, 108.9024
359.9022, 111.5740
360.3843, 113.7776
360.8664, 113.6137
361.3485, 112.7896
361.8306, 112.6366
362.3127, 113.5917
362.7949, 115.0842
363.2770, 117.5995
363.7591, 120.6905
364.2412, 122.7334
364.7233, 122.5665
365.2054, 121.8348
365.6876, 121.2889
366.1697, 120.5558
366.6518, 120.7397
367.1339, 122.6327
367.6160, 125.4968
368.0981, 127.6718
368.5803, 129.1473
369.0624, 129.9165
369.5445, 129.7799
370.0266, 128.2215
370.5087, 127.3737
370.9908, 127.3474
371.4730, 127.9696
371.9551, 129.0504
372.4372, 130.7776
372.9193, 132.6269
373.4014, 134.4455
373.8835, 136.2179
374.3657, 138.2663
374.8478, 140.9141
375.3299, 143.2875
375.8120, 144.0256
376.2941, 142.5929
376.7762, 142.3605
377.2584, 144.2356
377.7405, 147.8990
378.2226, 151.9843
378.7047, 156.7670
379.1868, 160.7942
379.6689, 162.2863
380.1511, 161.5004
380.6332, 161.9064
381.1153, 164.3525
381.5974, 167.8480
382.0795, 170.1930
382.5616, 171.5217
383.0438, 173.1772
383.5259, 175.7812
384.0080, 179.3819
384.4901, 184.8619
384.9722, 193.1817
385.4543, 200.3852
385.9364, 199.8021
386.4185, 194.2307
386.9007, 191.8347
387.3828, 199.3102
387.8649, 210.7245
388.3470, 219.8140
388.8291, 226.1151
389.3112, 231.2767
389.7934, 235.4483
390.2755, 239.3286
390.7576, 243.8304
391.2397, 249.6250
391.7218, 255.9142
392.2039, 261.6729
392.6861, 267.0962
393.1682, 274.5087
393.6503, 289.2462
394.1324, 303.9363
394.6145, 312.8370
395.0966, 306.8492
395.5788, 303.9520
396.0609, 308.9495
396.5430, 320.2830
397.0251, 332.2123
397.5072, 346.3736
397.9893, 359.0209
398.4715, 368.2599
398.9536, 370.8531
399.4357, 376.1362
399.9178, 386.6800
400.3999, 399.1299
400.8820, 407.3390
401.3642, 408.3452
401.8463, 409.6329
402.3284, 413.4189
402.8105, 419.9611
403.2926, 426.8395
403.7747, 434.2158
404.2569, 441.7031
404.7390, 449.1729
405.2211, 457.0124
405.7032, 462.9630
406.1853, 465.4292
406.6674, 465.8134
407.1496, 471.7921
407.6317, 484.3942
408.1138, 496.8853
408.5959, 503.1747
409.0780, 504.0604
409.5602, 505.8786
410.0423, 509.1074
410.5244, 514.5280
411.0065, 523.4115
411.4886, 535.7370
411.9707, 550.8404
412.4529, 573.2932
412.9350, 597.3870
413.4171, 609.8846
413.8992, 608.2725
414.3813, 605.9770
414.8634, 615.6562
415.3456, 633.4962
415.8277, 651.8036
416.3098, 666.7739
416.7919, 681.4432
417.2740, 699.3199
417.7561, 720.0061
418.2382, 739.1058
418.7203, 750.0114
419.2025, 760.1721
419.6846, 776.1295
420.1667, 807.5644
420.6488, 836.4084
421.1309, 855.2010
421.6130, 866.4330
422.0952, 881.2631
422.5773, 903.7641
423.0594, 928.6500
423.5415, 954.3768
424.0236, 984.2433
424.5057, 1007.965
424.9879, 1021.454
425.4700, 1029.831
425.9521, 1041.274
426.4342, 1055.759
426.9163, 1073.313
427.3984, 1094.302
427.8806, 1119.077
428.3627, 1144.979
428.8448, 1173.532
429.3269, 1200.716
429.8090, 1220.616
430.2911, 1231.209
430.7733, 1248.591
431.2554, 1278.896
431.7375, 1315.947
432.2196, 1339.404
432.7017, 1348.025
433.1838, 1356.450
433.6660, 1376.813
434.1481, 1405.867
434.6302, 1429.499
435.1123, 1445.599
435.5944, 1458.345
436.0765, 1472.051
436.5587, 1486.647
437.0408, 1501.964
437.5229, 1521.928
438.0050, 1540.351
438.4871, 1545.919
438.9692, 1538.350
439.4514, 1535.673
439.9335, 1559.505
440.4156, 1592.049
440.8977, 1612.169
441.3798, 1601.108
441.8619, 1589.019
442.3441, 1591.809
442.8262, 1605.744
443.3083, 1616.139
443.7904, 1623.737
444.2725, 1622.256
444.7546, 1606.768
445.2368, 1568.581
445.7189, 1533.586
446.2010, 1505.865
446.6831, 1482.778
447.1652, 1460.719
447.6473, 1442.949
448.1295, 1421.936
448.6116, 1395.883
449.0937, 1364.412
449.5758, 1331.299
450.0579, 1297.035
450.5400, 1260.636
451.0221, 1220.100
451.5042, 1174.328
451.9864, 1131.859
452.4685, 1093.974
452.9506, 1059.975
453.4327, 1027.788
453.9148, 997.5505
454.3969, 968.7611
454.8791, 943.5524
455.3612, 920.2296
455.8433, 890.1177
456.3254, 851.6718
456.8075, 813.6987
457.2896, 790.1712
457.7718, 776.1737
458.2539, 759.3354
458.7360, 730.5065
459.2181, 698.9163
459.7002, 674.8198
460.1823, 657.3724
460.6645, 641.3476
461.1466, 624.8896
461.6287, 607.5585
462.1108, 588.4177
462.5929, 564.2153
463.0750, 543.5720
463.5572, 533.7380
464.0393, 529.5991
464.5214, 521.0000
465.0035, 498.7297
465.4856, 477.6993
465.9677, 464.4219
466.4499, 461.5081
466.9320, 455.3588
467.4141, 443.8454
467.8962, 430.1443
468.3783, 416.8344
468.8604, 403.5074
469.3426, 391.4029
469.8247, 380.7505
470.3068, 371.3014
470.7889, 361.5166
471.2710, 350.8277
471.7531, 341.5433
472.2353, 335.7293
472.7174, 333.4014
473.1995, 329.2353
473.6816, 322.7055
474.1637, 315.4297
474.6458, 310.1003
475.1280, 306.3280
475.6101, 301.4883
476.0922, 292.9665
476.5743, 283.7023
477.0564, 279.9948
477.5385, 281.3283
478.0207, 282.2711
478.5028, 279.0748
478.9849, 273.1908
479.4670, 266.0053
479.9491, 256.9193
480.4312, 248.6497
480.9134, 243.2366
481.3955, 239.8270
481.8776, 236.8678
482.3597, 234.9843
482.8418, 232.4348
483.3239, 227.7101
483.8060, 220.3033
484.2881, 215.0711
484.7703, 214.9627
485.2524, 216.0807
485.7345, 215.4198
486.2166, 210.3485
486.6987, 207.6724
487.1808, 209.2377
487.6630, 213.2865
488.1451, 214.2222
488.6272, 211.2143
489.1093, 207.0370
489.5914, 202.5961
490.0735, 197.9086
490.5557, 193.6547
491.0378, 190.0493
491.5199, 186.3105
492.0020, 180.6512
492.4841, 173.5428
492.9662, 168.8531
493.4484, 168.7427
493.9305, 170.3475
494.4126, 168.3881
494.8947, 163.4308
495.3768, 159.0032
495.8589, 157.9109
496.3411, 158.3231
496.8232, 157.9396
497.3053, 156.2856
497.7874, 154.8683
498.2695, 155.4381
498.7516, 156.5927
499.2338, 156.4694
499.7159, 154.0439
500.1980, 150.6273
500.6801, 146.0668
501.1622, 140.5930
501.6443, 136.1339
502.1265, 133.4369
502.6086, 131.5009
503.0907, 129.7853
503.5728, 127.7326
504.0549, 127.1160
504.5370, 128.5162
505.0192, 130.9238
505.5013, 133.0110
505.9834, 135.0082
506.4655, 135.7783
506.9476, 134.4698
507.4297, 131.6374
507.9119, 130.8283
508.3940, 132.3015
508.8761, 133.7186
509.3582, 132.8184
509.8403, 130.2904
510.3224, 128.6636
510.8046, 128.3494
511.2867, 128.7312
511.7688, 129.2152
512.2509, 129.8438
512.7330, 130.7364
513.2151, 132.5522
513.6973, 134.2104
514.1794, 134.5960
514.6615, 133.8060
515.1436, 133.2176
515.6257, 134.4977
516.1078, 135.6057
516.5900, 134.8344
517.0721, 130.0651
517.5542, 126.5558
518.0363, 125.4346
518.5184, 126.0394
519.0005, 127.2131
519.4827, 130.6743
519.9648, 132.2950
520.4469, 130.4798
520.9290, 125.3307
521.4111, 121.4444
521.8932, 118.9736
522.3754, 117.4256
522.8575, 116.3168
523.3396, 115.6141
523.8217, 116.5591
524.3038, 119.8741
524.7859, 123.5996
525.2681, 124.3181
525.7502, 122.5017
526.2323, 120.9710
526.7144, 121.2195
527.1965, 122.4160
527.6786, 123.7563
528.1608, 125.1564
528.6429, 125.6452
529.1250, 122.9981
529.6071, 119.8668
530.0892, 119.1198
530.5714, 122.4076
531.0535, 125.7723
531.5356, 127.6922
532.0176, 128.6206
532.4998, 129.3109
532.9819, 131.6376
533.4640, 131.9528
533.9461, 127.1982
534.4282, 117.5557
534.9103, 114.6163
535.3925, 122.8679
535.8746, 132.0341
536.3567, 135.4991
536.8388, 131.9162
537.3209, 128.3095
537.8030, 124.1244
538.2852, 121.5044
538.7673, 125.8961
539.2494, 137.0465
539.7315, 144.6062
540.2136, 143.4222
540.6957, 137.1896
541.1779, 132.5546
541.6600, 129.5986
542.1421, 129.0043
542.6242, 132.4113
543.1063, 138.0039
543.5884, 144.1534
544.0706, 151.2168
544.5527, 156.2686
545.0348, 155.0297
545.5169, 151.5094
545.9990, 151.0585
546.4811, 158.4968
546.9633, 165.7536
547.4454, 169.8104
547.9275, 171.1460
548.4096, 174.6992
548.8917, 183.1423
549.3738, 190.9572
549.8560, 195.4040
550.3381, 195.3131
550.8202, 196.5701
551.3023, 198.7411
551.7844, 202.9986
552.2665, 212.5722
552.7487, 227.7302
553.2308, 238.2924
553.7129, 240.3384
554.1950, 238.3893
554.6771, 241.3404
555.1592, 248.8189
555.6414, 257.8552
556.1235, 266.6778
556.6056, 276.0239
557.0877, 287.2951
557.5698, 300.6629
558.0519, 313.5819
558.5341, 322.3487
559.0162, 330.8530
559.4983, 342.9832
559.9804, 362.7229
560.4625, 382.3208
560.9446, 398.6612
561.4268, 413.4116
561.9089, 431.0939
562.3910, 451.5693
562.8731, 475.6775
563.3552, 505.2189
563.8373, 540.1599
564.3195, 569.3796
564.8016, 590.3755
565.2837, 610.5554
565.7658, 633.8589
566.2479, 660.3304
566.7300, 695.0917
567.2122, 740.8699
567.6943, 788.4451
568.1764, 821.5168
568.6585, 844.1917
569.1406, 871.4130
569.6227, 913.5341
570.1049, 960.4238
570.5870, 1001.262
571.0691, 1036.032
571.5512, 1067.674
572.0333, 1095.800
572.5154, 1122.263
572.9976, 1149.157
573.4797, 1179.014
573.9618, 1201.393
574.4439, 1211.094
574.9260, 1213.591
575.4081, 1214.863
575.8903, 1217.984
576.3724, 1215.570
576.8545, 1206.802
577.3366, 1192.009
577.8187, 1171.230
578.3008, 1142.678
578.7830, 1114.861
579.2651, 1091.534
579.7472, 1072.193
580.2293, 1051.951
580.7114, 1030.435
581.1935, 1014.123
581.6757, 1011.064
582.1578, 1017.482
582.6399, 1024.359
583.1220, 1027.869
583.6041, 1037.605
584.0862, 1065.446
584.5684, 1104.433
585.0505, 1142.462
585.5326, 1168.061
586.0147, 1198.474
586.4968, 1245.886
586.9789, 1307.459
587.4611, 1359.656
587.9432, 1399.693
588.4253, 1429.576
588.9074, 1450.616
589.3895, 1464.234
589.8716, 1463.087
590.3538, 1446.823
590.8359, 1416.230
591.3180, 1368.191
591.8001, 1302.095
592.2822, 1236.501
592.7643, 1174.197
593.2465, 1115.102
593.7286, 1059.698
594.2107, 1007.206
594.6928, 956.7009
595.1749, 906.6149
595.6570, 857.7599
596.1392, 809.3643
596.6213, 761.7043
597.1034, 720.5270
597.5854, 693.8040
598.0676, 670.8937
598.5497, 644.1577
599.0318, 610.3762
599.5139, 576.9579
