##NAMES=Triplite
##RRUFFID=R050615
##IDEAL CHEMISTRY=Mn^2+^_2_(PO_4_)F
##LOCALITY=Vienna, Austria
##OWNER=RRUFF
##SOURCE=University of Arizona Mineral Museum
##DESCRIPTION=Brown massive
##STATUS=The identification of this mineral has been confirmed by X-ray diffraction and chemical analysis
##URL=rruff.info/R050615
##MEASURED CHEMISTRY=(Mn^2+^_1.09_Fe^2+^_0.88_Ca_0.02_Mg_0.01_)_Σ=2_(P_1.00_O_4_)(F_0.72_(OH)_0.28_)_Σ=1_ ; = light phase (triplite) while the dark phase is fluorapatite: (Ca_4.44_Mn^2+^_0.44_Fe^2+^_0.12_)_Σ=5_(P_1.00_O_4_)F_1.00_
91.11523, 20.17190
91.59735, 19.60651
92.07947, 20.19366
92.56158, 21.54236
93.04370, 22.41902
93.52582, 21.34224
94.00793, 19.34744
94.49006, 18.80386
94.97218, 20.16692
95.45429, 22.55243
95.93641, 25.22670
96.41853, 28.15602
96.90064, 29.96634
97.38276, 28.89832
97.86488, 25.27640
98.34699, 22.74413
98.82911, 22.18258
99.31123, 22.94747
99.79334, 22.75305
100.2755, 21.30297
100.7576, 19.92740
101.2397, 20.06210
101.7218, 22.11937
102.2039, 23.70952
102.6861, 24.22540
103.1682, 23.68278
103.6503, 23.37782
104.1324, 23.56867
104.6145, 23.71002
105.0966, 23.07844
105.5788, 21.22497
106.0609, 19.36207
106.5430, 17.63797
107.0251, 15.75362
107.5072, 15.08201
107.9893, 16.52589
108.4715, 18.95790
108.9536, 20.35443
109.4357, 19.82868
109.9178, 19.06635
110.3999, 18.55435
110.8820, 18.19791
111.3642, 18.25190
111.8463, 18.64754
112.3284, 19.45039
112.8105, 20.82863
113.2926, 23.65462
113.7747, 26.50993
114.2569, 28.65182
114.7390, 29.42680
115.2211, 30.12480
115.7032, 31.05891
116.1853, 32.16841
116.6674, 33.14101
117.1496, 32.94585
117.6317, 33.01021
118.1138, 34.50198
118.5959, 39.83644
119.0780, 44.93164
119.5602, 47.29075
120.0423, 47.07905
120.5244, 47.33913
121.0065, 49.79038
121.4886, 53.73699
121.9707, 58.28140
122.4529, 63.48866
122.9350, 68.83510
123.4171, 74.27095
123.8992, 79.88966
124.3813, 84.34254
124.8634, 85.13138
125.3456, 83.79039
125.8277, 83.80653
126.3098, 87.96886
126.7919, 94.23416
127.2740, 99.75630
127.7561, 104.3323
128.2383, 108.0585
128.7204, 110.2603
129.2025, 111.3244
129.6846, 113.2807
130.1667, 117.9046
130.6488, 124.4080
131.1310, 130.7811
131.6131, 136.9309
132.0952, 142.5918
132.5773, 146.5355
133.0594, 148.7330
133.5415, 151.9403
134.0237, 159.0955
134.5058, 169.9020
134.9879, 179.0717
135.4700, 185.5524
135.9521, 190.0591
136.4343, 194.7932
136.9164, 199.7056
137.3985, 205.1243
137.8806, 212.1742
138.3627, 221.4934
138.8448, 228.1568
139.3270, 230.7808
139.8091, 229.8107
140.2912, 229.4357
140.7733, 229.9134
141.2554, 230.5259
141.7375, 230.3714
142.2197, 228.9282
142.7018, 228.1103
143.1839, 228.3693
143.6660, 229.7386
144.1481, 231.5920
144.6302, 233.9380
145.1124, 236.7503
145.5945, 239.9469
146.0766, 243.5593
146.5587, 247.5824
147.0408, 252.2126
147.5230, 257.8086
148.0051, 262.4860
148.4872, 264.5320
148.9693, 264.2786
149.4514, 264.4604
149.9335, 265.4681
150.4157, 266.5083
150.8978, 267.3044
151.3799, 267.5555
151.8620, 268.2538
152.3441, 269.6375
152.8262, 271.4431
153.3084, 273.1472
153.7905, 275.3216
154.2726, 276.9098
154.7547, 277.6100
155.2368, 277.6204
155.7189, 276.3814
156.2011, 272.4064
156.6832, 267.0198
157.1653, 263.6172
157.6474, 264.7619
158.1295, 266.6424
158.6116, 267.2834
159.0938, 265.1975
159.5759, 263.4776
160.0580, 263.1163
160.5401, 263.7786
161.0222, 264.3391
161.5044, 264.2328
161.9865, 264.0059
162.4686, 264.0678
162.9507, 265.4327
163.4328, 266.0756
163.9149, 264.7289
164.3971, 261.7663
164.8792, 259.0826
165.3613, 257.5533
165.8434, 256.6996
166.3255, 256.0838
166.8076, 255.5570
167.2898, 255.2478
167.7719, 255.1172
168.2540, 255.1951
168.7361, 255.7658
169.2182, 258.0379
169.7003, 260.6007
170.1825, 261.7665
170.6646, 259.7776
171.1467, 256.9412
171.6288, 254.8509
172.1109, 253.5166
172.5931, 252.7813
173.0752, 252.8602
173.5573, 253.4212
174.0394, 253.9314
174.5215, 254.3009
175.0036, 254.4434
175.4858, 254.0897
175.9679, 253.2194
176.4500, 252.4628
176.9321, 252.9175
177.4142, 253.9252
177.8963, 253.9821
178.3785, 252.1476
178.8606, 249.0620
179.3427, 245.4172
179.8248, 241.1084
180.3069, 237.1875
180.7890, 234.7185
181.2712, 233.5381
181.7533, 233.1935
182.2354, 234.1803
182.7175, 235.7720
183.1996, 236.3673
183.6818, 235.8674
184.1639, 234.7047
184.6460, 232.8536
185.1281, 230.5475
185.6102, 228.9365
186.0923, 229.5098
186.5745, 231.3258
187.0566, 231.1064
187.5387, 228.4008
188.0208, 224.8277
188.5029, 222.3459
188.9850, 220.9190
189.4672, 219.9563
189.9493, 219.1418
190.4314, 218.5290
190.9135, 218.4431
191.3956, 219.0069
191.8777, 219.8363
192.3599, 220.5895
192.8420, 221.2651
193.3241, 221.2829
193.8062, 220.1293
194.2883, 217.8894
194.7704, 215.5439
195.2526, 212.9856
195.7347, 210.6188
196.2168, 209.2144
196.6989, 208.8034
197.1810, 208.9078
197.6632, 209.5252
198.1453, 210.6557
198.6274, 211.2726
199.1095, 211.2903
199.5916, 210.8164
200.0737, 209.8145
200.5559, 208.1220
201.0380, 206.9088
201.5201, 207.3867
202.0022, 209.8080
202.4843, 210.1381
202.9664, 207.3829
203.4486, 203.2218
203.9307, 201.8023
204.4128, 203.7312
204.8949, 205.9879
205.3770, 207.0634
205.8591, 206.8992
206.3413, 205.8406
206.8234, 203.5025
207.3055, 200.5758
207.7876, 198.7667
208.2697, 198.1336
208.7519, 198.4656
209.2340, 200.1775
209.7161, 203.8966
210.1982, 205.6793
210.6803, 204.8014
211.1624, 202.1555
211.6446, 200.0808
212.1267, 198.6062
212.6088, 197.6766
213.0909, 197.4255
213.5730, 198.1474
214.0551, 198.3501
214.5373, 197.6492
215.0194, 196.5219
215.5015, 196.4394
215.9836, 197.8833
216.4657, 199.3978
216.9478, 200.3487
217.4300, 200.7999
217.9121, 200.3975
218.3942, 198.7929
218.8763, 196.4392
219.3584, 194.6325
219.8405, 193.3957
220.3227, 192.6780
220.8048, 192.5795
221.2869, 193.4558
221.7690, 193.8380
222.2511, 193.2603
222.7333, 192.2767
223.2154, 192.8032
223.6975, 196.1611
224.1796, 198.8098
224.6617, 198.7000
225.1438, 194.2524
225.6260, 191.2978
226.1081, 190.4299
226.5902, 191.0308
227.0723, 191.3732
227.5544, 191.2845
228.0365, 191.2234
228.5187, 191.4644
229.0008, 192.3082
229.4829, 192.6618
229.9650, 192.1655
230.4471, 191.2650
230.9292, 191.2019
231.4114, 192.4632
231.8935, 193.8085
232.3756, 194.7467
232.8577, 195.4124
233.3398, 195.2695
233.8220, 193.6713
234.3041, 191.4681
234.7862, 190.9704
235.2683, 193.4525
235.7504, 195.6700
236.2325, 196.1869
236.7147, 194.1790
237.1968, 192.5416
237.6789, 191.1111
238.1610, 190.1231
238.6431, 190.2906
239.1252, 192.7760
239.6074, 194.6308
240.0895, 194.4228
240.5716, 190.8809
241.0537, 189.0210
241.5358, 189.4881
242.0179, 191.3235
242.5001, 192.7285
242.9822, 193.7807
243.4643, 194.2589
243.9464, 193.9197
244.4285, 192.3158
244.9106, 191.3577
245.3928, 191.2137
245.8749, 191.5961
246.3570, 192.0664
246.8391, 192.8155
247.3212, 193.3235
247.8034, 193.5076
248.2855, 193.4876
248.7676, 192.4608
249.2497, 189.5311
249.7318, 186.2455
250.2139, 185.0953
250.6961, 187.1937
251.1782, 189.4301
251.6603, 191.1218
252.1424, 192.3795
252.6245, 192.2678
253.1066, 189.8217
253.5888, 186.8768
254.0709, 186.0178
254.5530, 188.5163
255.0351, 190.4958
255.5172, 190.7543
255.9993, 189.0921
256.4815, 187.9164
256.9636, 187.4819
257.4457, 187.2721
257.9278, 186.6353
258.4099, 185.2746
258.8921, 184.1612
259.3742, 183.5381
259.8563, 183.4160
260.3384, 183.3860
260.8205, 183.4666
261.3026, 183.6156
261.7848, 183.8067
262.2669, 184.0661
262.7490, 184.2967
263.2311, 184.5013
263.7132, 184.6742
264.1953, 184.6439
264.6775, 184.2503
265.1596, 183.9132
265.6417, 184.0753
266.1238, 184.9310
266.6059, 185.6262
267.0880, 186.0835
267.5702, 186.2744
268.0523, 185.8230
268.5344, 184.3467
269.0165, 183.0067
269.4986, 182.8375
269.9807, 184.1841
270.4629, 185.1725
270.9450, 185.5608
271.4271, 185.4173
271.9092, 184.8615
272.3913, 183.6859
272.8734, 182.6842
273.3556, 182.4964
273.8377, 183.2631
274.3198, 183.9114
274.8019, 184.4521
275.2840, 184.7371
275.7661, 184.1863
276.2483, 182.5843
276.7304, 181.0483
277.2125, 180.3053
277.6946, 180.4019
278.1768, 180.5894
278.6589, 180.9356
279.1410, 181.2061
279.6231, 180.7479
280.1052, 179.4217
280.5873, 178.2881
281.0695, 178.0926
281.5516, 178.8164
282.0337, 179.0287
282.5158, 178.6207
282.9979, 177.8524
283.4800, 177.0343
283.9622, 176.1550
284.4443, 175.4402
284.9264, 175.0540
285.4085, 174.9570
285.8906, 174.7500
286.3727, 174.3928
286.8549, 174.0603
287.3370, 174.0530
287.8191, 174.3506
288.3012, 174.5508
288.7833, 174.5233
289.2654, 174.2840
289.7476, 173.8967
290.2297, 173.3696
290.7118, 172.6457
291.1939, 171.4689
291.6760, 169.9568
292.1581, 168.7498
292.6403, 168.0607
293.1224, 167.7976
293.6045, 167.7739
294.0866, 167.9909
294.5687, 168.3689
295.0508, 169.1465
295.5330, 170.0923
296.0151, 170.3376
296.4972, 169.4581
296.9793, 168.0455
297.4614, 167.0620
297.9435, 166.4691
298.4257, 166.0472
298.9078, 165.6888
299.3899, 165.3835
299.8720, 165.0974
300.3541, 164.7827
300.8362, 164.5708
301.3184, 164.7242
301.8005, 165.1599
302.2826, 165.5289
302.7647, 165.5933
303.2469, 165.4729
303.7290, 165.3896
304.2111, 165.4208
304.6932, 165.2788
305.1753, 164.4321
305.6574, 163.1708
306.1396, 162.2150
306.6217, 162.2263
307.1038, 162.5543
307.5859, 162.4775
308.0680, 161.9129
308.5501, 161.3077
309.0323, 160.9440
309.5144, 160.7707
309.9965, 160.7072
310.4786, 160.9452
310.9607, 161.1199
311.4428, 160.9953
311.9250, 160.5686
312.4071, 159.8594
312.8892, 158.6297
313.3713, 157.2342
313.8534, 156.0328
314.3355, 154.9492
314.8177, 154.2849
315.2998, 154.4880
315.7819, 155.3787
316.2640, 156.0027
316.7461, 155.2172
317.2282, 154.3967
317.7104, 154.6990
318.1925, 157.6075
318.6746, 159.8323
319.1567, 159.7165
319.6388, 158.0075
320.1209, 156.6987
320.6031, 156.7955
321.0852, 157.1621
321.5673, 157.2103
322.0494, 156.7287
322.5315, 156.2459
323.0136, 156.0991
323.4958, 155.9835
323.9779, 155.4033
324.4600, 153.4353
324.9421, 151.7505
325.4242, 150.9273
325.9064, 151.1026
326.3885, 151.6189
326.8706, 152.9429
327.3527, 154.3737
327.8348, 155.1900
328.3170, 154.8103
328.7991, 154.4075
329.2812, 154.0978
329.7633, 153.8748
330.2454, 153.8746
330.7275, 154.4236
331.2097, 154.9261
331.6918, 154.9462
332.1739, 154.1707
332.6560, 153.4227
333.1381, 152.9444
333.6202, 152.5838
334.1024, 151.4590
334.5845, 148.6823
335.0666, 146.4774
335.5487, 146.3831
336.0308, 149.7757
336.5129, 151.1283
336.9951, 149.4630
337.4772, 146.2900
337.9593, 144.7379
338.4414, 145.2849
338.9235, 146.0805
339.4056, 146.3916
339.8878, 146.1750
340.3699, 146.0976
340.8520, 146.2124
341.3341, 146.3697
341.8162, 146.3687
342.2983, 146.1965
342.7805, 146.0058
343.2626, 145.9115
343.7447, 145.8386
344.2268, 145.1972
344.7089, 143.8386
345.1910, 142.7436
345.6732, 143.3963
346.1553, 145.4827
346.6374, 146.2225
347.1195, 144.5876
347.6016, 141.8624
348.0837, 140.7139
348.5659, 141.0602
349.0480, 141.6768
349.5301, 141.8283
350.0122, 141.6116
350.4944, 141.2907
350.9765, 140.9435
351.4586, 140.3640
351.9407, 139.0056
352.4228, 137.1338
352.9049, 135.6260
353.3871, 135.0943
353.8692, 135.1128
354.3513, 135.2863
354.8334, 135.6139
355.3155, 135.6667
355.7976, 134.6986
356.2798, 133.2905
356.7619, 132.3682
357.2440, 132.5722
357.7261, 133.1734
358.2082, 133.6904
358.6903, 134.1418
359.1725, 134.6671
359.6546, 135.7883
360.1367, 136.7935
360.6188, 136.9951
361.1009, 135.8132
361.5830, 134.4585
362.0652, 133.2617
362.5473, 132.2688
363.0294, 131.5921
363.5115, 131.3843
363.9936, 131.4153
364.4757, 131.6162
364.9579, 132.0529
365.4400, 132.4238
365.9221, 132.6840
366.4042, 132.8456
366.8863, 132.9234
367.3684, 133.1620
367.8506, 133.0769
368.3327, 132.3040
368.8148, 130.7417
369.2969, 129.8670
369.7790, 130.4598
370.2611, 131.1926
370.7433, 131.1022
371.2254, 129.3218
371.7075, 128.0916
372.1896, 127.7421
372.6717, 128.0854
373.1538, 128.3068
373.6360, 128.1414
374.1181, 128.2789
374.6002, 129.2579
375.0823, 131.6389
375.5645, 132.7351
376.0466, 132.0334
376.5287, 130.6046
377.0108, 130.4438
377.4929, 131.9419
377.9750, 132.7779
378.4572, 131.5812
378.9393, 128.7483
379.4214, 128.5948
379.9035, 131.6543
380.3856, 135.1633
380.8677, 136.1387
381.3499, 134.7714
381.8320, 133.5392
382.3141, 132.9147
382.7962, 132.7736
383.2783, 133.0013
383.7604, 133.5707
384.2426, 134.0642
384.7247, 134.2141
385.2068, 134.0822
385.6889, 133.6776
386.1710, 132.8829
386.6531, 132.3430
387.1353, 132.8659
387.6174, 134.2062
388.0995, 135.7187
388.5816, 137.9982
389.0637, 139.7910
389.5458, 139.1881
390.0280, 136.2421
390.5101, 133.8977
390.9922, 134.6753
391.4743, 136.8882
391.9564, 138.6906
392.4385, 139.3718
392.9207, 139.7026
393.4028, 139.8126
393.8849, 139.8372
394.3670, 140.1933
394.8491, 141.4866
395.3312, 142.8242
395.8134, 143.6743
396.2955, 143.8040
396.7776, 143.9079
397.2597, 143.8358
397.7418, 143.9052
398.2239, 144.5381
398.7061, 146.2370
399.1882, 148.0470
399.6703, 149.8415
400.1524, 151.6304
400.6346, 153.1529
401.1167, 153.8594
401.5988, 154.7580
402.0809, 156.6167
402.5630, 160.2976
403.0451, 163.2230
403.5273, 164.8975
404.0094, 165.7825
404.4915, 167.2048
404.9736, 169.3911
405.4557, 171.5613
405.9378, 173.1979
406.4200, 174.1717
406.9021, 176.2693
407.3842, 179.7627
407.8663, 183.6931
408.3484, 186.7918
408.8305, 189.0569
409.3127, 191.3256
409.7948, 193.6362
410.2769, 196.2195
410.7590, 200.1142
411.2411, 205.3491
411.7232, 210.1639
412.2054, 212.5574
412.6875, 213.5367
413.1696, 216.0078
413.6517, 220.7377
414.1338, 225.9751
414.6159, 229.7355
415.0981, 232.3333
415.5802, 234.5819
416.0623, 236.6572
416.5444, 238.7013
417.0265, 240.6222
417.5086, 242.4401
417.9908, 244.7596
418.4729, 249.1567
418.9550, 253.7580
419.4371, 256.4425
419.9192, 255.2266
420.4013, 253.7197
420.8835, 253.7756
421.3656, 254.7967
421.8477, 254.9806
422.3298, 253.2139
422.8119, 250.9622
423.2940, 248.7871
423.7762, 246.6687
424.2583, 244.9272
424.7404, 244.3441
425.2225, 243.8794
425.7047, 242.2845
426.1868, 238.0766
426.6689, 234.7559
427.1510, 233.3861
427.6331, 233.7025
428.1152, 232.6006
428.5974, 229.8253
429.0795, 225.9768
429.5616, 221.2188
430.0437, 215.3460
430.5258, 209.3574
431.0079, 202.9757
431.4901, 196.9542
431.9722, 192.9778
432.4543, 191.2654
432.9364, 189.4572
433.4185, 186.5432
433.9006, 182.8113
434.3828, 179.5731
434.8649, 176.8357
435.3470, 174.5053
435.8291, 172.5360
436.3112, 170.9045
436.7933, 169.5526
437.2755, 168.4310
437.7576, 167.6425
438.2397, 167.7892
438.7218, 168.5083
439.2039, 168.5819
439.6860, 166.3506
440.1682, 163.6856
440.6503, 162.8291
441.1324, 163.9720
441.6145, 165.0533
442.0966, 164.7297
442.5787, 163.7309
443.0609, 162.8392
443.5430, 162.1906
444.0251, 161.7886
444.5072, 161.8457
444.9893, 162.1983
445.4714, 162.2610
445.9536, 161.4173
446.4357, 160.6627
446.9178, 160.4517
447.3999, 160.9927
447.8820, 161.6170
448.3641, 162.7019
448.8463, 163.6516
449.3284, 163.7107
449.8105, 161.8742
450.2926, 161.0450
450.7747, 162.1483
451.2569, 164.7591
451.7390, 166.2019
452.2211, 166.2850
452.7032, 165.7094
453.1853, 164.6499
453.6674, 163.0358
454.1496, 162.0491
454.6317, 161.8374
455.1138, 161.9665
455.5959, 162.0154
456.0780, 161.9463
456.5602, 161.2775
457.0423, 159.3229
457.5244, 156.9994
458.0065, 156.4953
458.4886, 157.6519
458.9707, 158.6289
459.4529, 157.7126
459.9350, 155.8616
460.4171, 154.6351
460.8992, 154.4421
461.3813, 154.2227
461.8634, 152.8150
462.3456, 150.8675
462.8277, 149.5038
463.3098, 149.7430
463.7919, 150.1634
464.2740, 150.1702
464.7561, 149.7355
465.2383, 148.8503
465.7204, 146.6360
466.2025, 144.5576
466.6846, 143.6016
467.1667, 144.9000
467.6488, 145.6630
468.1310, 145.3787
468.6131, 144.5701
469.0952, 144.0678
469.5773, 144.0635
470.0594, 144.0673
470.5415, 144.0134
471.0237, 143.8951
471.5058, 143.5091
471.9879, 142.8138
472.4700, 141.9435
472.9521, 140.7924
473.4342, 139.3006
473.9164, 138.7975
474.3985, 139.7126
474.8806, 141.0093
475.3627, 140.8899
475.8448, 139.4596
476.3270, 137.7774
476.8091, 135.9364
477.2912, 134.3047
477.7733, 134.0000
478.2554, 134.9243
478.7375, 135.5939
479.2197, 134.5037
479.7018, 132.5983
480.1839, 131.0859
480.6660, 130.0919
481.1481, 129.8505
481.6302, 131.4313
482.1124, 133.7398
482.5945, 134.9231
483.0766, 132.6664
483.5587, 130.6387
484.0408, 130.9289
484.5229, 133.4862
485.0051, 135.0569
485.4872, 134.2439
485.9693, 132.8432
486.4514, 131.9040
486.9335, 131.6996
487.4156, 131.5027
487.8978, 131.2122
488.3799, 130.9856
488.8620, 131.1433
489.3441, 131.9694
489.8262, 132.4548
490.3083, 132.2104
490.7905, 131.3718
491.2726, 131.0079
491.7547, 131.2005
492.2368, 131.4539
492.7189, 131.5150
493.2010, 131.3569
493.6832, 130.5336
494.1653, 128.7620
494.6474, 127.2472
495.1295, 128.0032
495.6116, 130.3446
496.0938, 132.1365
496.5759, 132.0712
497.0580, 131.4455
497.5401, 131.7878
498.0222, 132.8909
498.5044, 133.6837
498.9865, 133.5531
499.4686, 132.8733
499.9507, 131.8006
500.4328, 130.1718
500.9149, 128.8983
501.3971, 128.2871
501.8792, 128.1864
502.3613, 128.4120
502.8434, 129.6761
503.3255, 130.4221
503.8076, 130.0761
504.2898, 128.9213
504.7719, 128.2817
505.2540, 128.4439
505.7361, 128.6958
506.2182, 128.7122
506.7003, 128.4235
507.1825, 128.4107
507.6646, 128.8145
508.1467, 129.1952
508.6288, 128.9998
509.1109, 128.2317
509.5930, 127.4446
510.0752, 126.6358
510.5573, 126.0363
511.0394, 126.3938
511.5215, 127.5278
512.0037, 128.2917
512.4858, 127.5631
512.9679, 126.2957
513.4500, 125.9142
513.9321, 126.4573
514.4142, 127.1364
514.8964, 127.8206
515.3785, 128.1652
515.8606, 127.6606
516.3427, 125.3374
516.8248, 123.6588
517.3069, 124.2557
517.7891, 126.0641
518.2712, 127.1151
518.7533, 126.2960
519.2354, 125.3569
519.7175, 124.8638
520.1996, 124.8066
520.6818, 124.3452
521.1639, 122.9754
521.6460, 121.8219
522.1281, 121.7065
522.6102, 123.0846
523.0923, 123.6208
523.5745, 122.9605
524.0566, 118.9980
524.5387, 122.5573
525.0208, 124.5219
525.5029, 124.9775
525.9850, 119.4045
526.4672, 121.6162
526.9493, 120.7081
527.4314, 119.6721
527.9135, 122.9795
528.3956, 118.2833
528.8777, 121.5218
529.3599, 121.5929
529.8420, 123.1137
530.3241, 121.4954
530.8062, 120.8467
531.2883, 123.3380
531.7704, 124.0906
532.2526, 122.1109
532.7347, 123.7238
533.2168, 118.9180
533.6989, 119.7447
534.1810, 123.0016
534.6631, 121.1798
535.1453, 122.8500
535.6274, 123.1903
536.1095, 122.7307
536.5916, 122.2940
537.0737, 122.5557
537.5558, 119.8695
538.0380, 119.4311
538.5201, 118.1917
539.0022, 117.9021
539.4843, 118.8611
539.9664, 120.3243
540.4485, 121.2729
540.9307, 121.7340
541.4128, 121.9658
541.8949, 122.0704
542.3770, 121.9664
542.8591, 121.2972
543.3412, 120.2013
543.8234, 119.3656
544.3055, 119.2269
544.7876, 119.5378
545.2697, 120.1253
545.7518, 120.9845
546.2339, 121.9371
546.7161, 123.4618
547.1982, 124.7391
547.6803, 125.0541
548.1624, 122.7525
548.6445, 121.3823
549.1266, 121.8187
549.6088, 123.4479
550.0909, 125.1055
550.5730, 127.2514
551.0551, 128.6789
551.5372, 128.8761
552.0193, 127.9894
552.5015, 127.3412
552.9836, 126.8614
553.4657, 126.8650
553.9478, 127.9401
554.4299, 129.9158
554.9120, 130.7488
555.3942, 130.1045
555.8763, 129.4681
556.3584, 130.9274
556.8405, 133.7303
557.3226, 135.9135
557.8047, 136.5590
558.2869, 136.8667
558.7690, 138.0139
559.2511, 139.7146
559.7332, 141.2367
560.2154, 142.1699
560.6975, 142.9087
561.1796, 143.4534
561.6617, 143.8017
562.1439, 144.7948
562.6260, 147.6499
563.1081, 150.4033
563.5902, 151.8610
564.0723, 150.8496
564.5544, 151.1104
565.0366, 153.1867
565.5187, 156.0073
566.0008, 158.1277
566.4829, 159.4815
566.9650, 160.5397
567.4471, 161.2359
567.9293, 161.8587
568.4114, 163.4396
568.8935, 165.8814
569.3756, 167.7473
569.8577, 167.7661
570.3398, 166.8165
570.8220, 166.2993
571.3041, 166.2414
571.7862, 166.6259
572.2683, 167.6315
572.7504, 168.9738
573.2325, 170.5179
573.7147, 172.5461
574.1968, 173.9077
574.6789, 173.4323
575.1610, 172.3013
575.6431, 172.0367
576.1252, 174.0491
576.6074, 175.5322
577.0895, 175.8128
577.5716, 175.2762
578.0537, 175.4187
578.5358, 176.4435
579.0179, 177.6629
579.5001, 178.6634
579.9822, 179.5162
580.4643, 181.4980
580.9464, 184.7790
581.4285, 188.0008
581.9106, 189.5714
582.3928, 190.1228
582.8749, 191.8090
583.3570, 195.0317
583.8391, 198.8532
