##NAMES=Tripuhyite
##RRUFFID=R070383
##IDEAL CHEMISTRY=Fe^3+^Sb^5+^O_4_
##LOCALITY=Cetine mine, Chiusdino, Siena Province, Tuscany, Italy
##OWNER=RRUFF
##SOURCE=Michael Scott
##DESCRIPTION=Transparent grey greenish acicular crystals associated with valentinite, clinocervantite R070385, and rosiaite R070384
##STATUS=The identification of this mineral has been confirmed only by single crystal X-ray diffraction.
##URL=rruff.info/R070383
139.0553, 115.8224
139.5374, 116.9168
140.0195, 118.8555
140.5016, 121.2323
140.9837, 122.4417
141.4658, 122.4505
141.9480, 121.3633
142.4301, 118.7843
142.9122, 112.8059
143.3943, 109.5476
143.8764, 111.0354
144.3585, 117.1005
144.8407, 119.7303
145.3228, 116.6897
145.8049, 111.8892
146.2870, 109.0124
146.7691, 109.7560
147.2512, 110.2446
147.7334, 109.7510
148.2155, 108.0643
148.6976, 106.3092
149.1797, 104.2642
149.6618, 102.2105
150.1439, 100.5356
150.6261, 99.21419
151.1082, 98.31375
151.5903, 97.80569
152.0724, 97.48155
152.5545, 98.01920
153.0366, 100.2892
153.5188, 103.4268
154.0009, 105.7224
154.4830, 106.1902
154.9651, 106.3423
155.4472, 106.8478
155.9293, 107.9490
156.4115, 109.1734
156.8936, 111.3309
157.3757, 113.7744
157.8578, 114.3227
158.3399, 109.9229
158.8221, 104.8206
159.3042, 101.7488
159.7863, 103.5705
160.2684, 105.3558
160.7505, 104.9880
161.2326, 102.8076
161.7148, 101.4752
162.1969, 103.5158
162.6790, 106.4080
163.1611, 107.6973
163.6432, 105.8066
164.1253, 102.7442
164.6075, 98.54889
165.0896, 93.18597
165.5717, 89.83442
166.0538, 92.56040
166.5359, 98.02310
167.0180, 101.4504
167.5002, 97.90972
167.9823, 93.46595
168.4644, 93.26402
168.9465, 98.20937
169.4286, 103.7114
169.9107, 106.6162
170.3929, 107.5983
170.8750, 108.1525
171.3571, 109.4762
171.8392, 110.5592
172.3213, 109.8377
172.8034, 106.4992
173.2856, 103.4186
173.7677, 104.1861
174.2498, 107.7529
174.7319, 110.5051
175.2140, 108.8057
175.6961, 105.2463
176.1783, 103.9841
176.6604, 106.4060
177.1425, 110.2176
177.6246, 112.8418
178.1067, 114.3770
178.5888, 115.6354
179.0710, 117.4433
179.5531, 119.3840
180.0352, 120.2707
180.5173, 118.9561
180.9994, 117.3398
181.4815, 119.2345
181.9637, 124.5467
182.4458, 129.8224
182.9279, 130.4881
183.4100, 128.2284
183.8921, 129.7213
184.3742, 139.4055
184.8564, 152.9611
185.3385, 159.6138
185.8206, 159.0672
186.3027, 155.9107
186.7848, 153.7371
187.2669, 152.6372
187.7491, 153.1802
188.2312, 155.8603
188.7133, 160.3314
189.1954, 166.3943
189.6775, 174.6524
190.1596, 181.5948
190.6418, 182.5011
191.1239, 177.4558
191.6060, 170.7191
192.0881, 162.8706
192.5702, 154.2599
193.0524, 148.3653
193.5345, 145.7540
194.0166, 144.4117
194.4987, 140.6872
194.9808, 134.3206
195.4629, 129.4874
195.9451, 128.5419
196.4272, 131.4013
196.9093, 134.7893
197.3914, 138.6553
197.8735, 142.9679
198.3556, 148.4110
198.8378, 155.4370
199.3199, 160.6499
199.8020, 160.8817
200.2841, 155.5979
200.7662, 153.7436
201.2483, 157.0331
201.7305, 162.9296
202.2126, 164.8525
202.6947, 161.9410
203.1768, 158.2675
203.6589, 156.1883
204.1410, 155.8892
204.6232, 156.1132
205.1053, 157.0913
205.5874, 158.3754
206.0695, 158.3874
206.5516, 156.8637
207.0337, 154.7590
207.5159, 152.4753
207.9980, 149.8544
208.4801, 148.0070
208.9622, 147.1255
209.4443, 147.1219
209.9264, 147.4976
210.4086, 148.0744
210.8907, 149.3986
211.3728, 152.4984
211.8549, 158.6440
212.3370, 162.1394
212.8191, 161.3026
213.3013, 156.8016
213.7834, 154.3064
214.2655, 154.4692
214.7476, 155.5927
215.2297, 156.2711
215.7118, 156.3946
216.1940, 156.4182
216.6761, 156.5596
217.1582, 156.7820
217.6403, 156.0626
218.1224, 153.9060
218.6045, 151.4818
219.0867, 149.8488
219.5688, 149.0436
220.0509, 149.0795
220.5330, 150.6029
221.0151, 153.7201
221.4972, 153.7906
221.9794, 148.6509
222.4615, 142.8800
222.9436, 141.8408
223.4257, 148.5184
223.9078, 153.7755
224.3899, 155.1151
224.8721, 152.1928
225.3542, 150.1700
225.8363, 149.4844
226.3184, 149.2657
226.8005, 148.4463
227.2827, 146.7368
227.7648, 144.9808
228.2469, 143.3576
228.7290, 141.8729
229.2111, 140.4703
229.6932, 138.9277
230.1754, 137.6629
230.6575, 137.3552
231.1396, 138.7903
231.6217, 139.7896
232.1038, 139.6605
232.5859, 138.1657
233.0681, 136.7912
233.5502, 135.4689
234.0323, 134.3194
234.5144, 133.4121
234.9965, 132.3282
235.4786, 132.2341
235.9608, 133.7433
236.4429, 137.3090
236.9250, 140.4216
237.4071, 143.8133
237.8892, 146.2633
238.3713, 145.3127
238.8535, 137.9497
239.3356, 132.2363
239.8177, 131.0378
240.2998, 135.5909
240.7819, 140.0032
241.2640, 144.4879
241.7462, 148.7788
242.2283, 152.3242
242.7104, 154.4007
243.1925, 156.9215
243.6746, 160.5468
244.1567, 165.5274
244.6389, 170.8287
245.1210, 176.3588
245.6031, 182.2458
246.0852, 188.8228
246.5673, 196.7800
247.0494, 204.2178
247.5316, 209.8565
248.0137, 212.0226
248.4958, 218.5639
248.9779, 232.2332
249.4600, 248.7003
249.9421, 259.0006
250.4243, 259.2296
250.9064, 260.4104
251.3885, 266.7730
251.8706, 279.8600
252.3527, 293.3131
252.8348, 307.5156
253.3170, 321.8141
253.7991, 335.5196
254.2812, 350.5074
254.7633, 361.0797
255.2454, 365.3943
255.7275, 363.6231
256.2097, 354.2391
256.6918, 334.7349
257.1739, 309.4585
257.6560, 285.4223
258.1381, 261.2125
258.6202, 241.1118
259.1024, 227.0660
259.5845, 220.4663
260.0666, 214.6708
260.5487, 209.3993
261.0308, 205.1635
261.5129, 203.0900
261.9951, 204.2421
262.4772, 205.0356
262.9593, 203.3460
263.4414, 197.8293
263.9235, 196.5175
264.4056, 200.7955
264.8878, 207.9888
265.3699, 212.6677
265.8520, 212.8060
266.3341, 216.3538
266.8162, 227.5246
267.2983, 247.7028
267.7805, 266.0334
268.2626, 282.1081
268.7447, 296.6107
269.2268, 310.5104
269.7089, 323.6336
270.1910, 336.7062
270.6732, 349.8151
271.1553, 362.7344
271.6374, 377.3906
272.1195, 393.8220
272.6016, 411.9737
273.0837, 430.6070
273.5659, 449.2242
274.0480, 471.1438
274.5301, 497.8209
275.0122, 529.1931
275.4943, 564.9352
275.9764, 605.8582
276.4586, 649.6270
276.9407, 694.0491
277.4228, 738.9506
277.9049, 781.1411
278.3870, 815.9785
278.8691, 844.1779
279.3513, 883.5631
279.8334, 936.3007
280.3155, 994.6547
280.7976, 1048.873
281.2798, 1098.346
281.7619, 1147.705
282.2440, 1208.946
282.7261, 1275.918
283.2082, 1302.414
283.6903, 1287.536
284.1725, 1235.453
284.6546, 1137.222
285.1367, 995.5070
285.6188, 857.5586
286.1009, 735.8202
286.5830, 631.0672
287.0652, 548.4825
287.5473, 490.0406
288.0294, 446.3954
288.5115, 409.3968
288.9936, 378.9336
289.4757, 355.5137
289.9579, 341.6140
290.4400, 334.1518
290.9221, 324.1295
291.4042, 311.3547
291.8863, 298.4191
292.3684, 286.8127
292.8506, 276.9478
293.3327, 270.4753
293.8148, 268.9421
294.2969, 270.4733
294.7790, 272.4094
295.2611, 274.7533
295.7433, 275.2504
296.2254, 270.1374
296.7075, 261.3829
297.1896, 254.7276
297.6717, 252.1374
298.1538, 252.0449
298.6360, 252.4124
299.1181, 253.2475
299.6002, 254.5961
300.0823, 257.0718
300.5644, 260.0346
301.0465, 262.2523
301.5287, 263.1278
302.0108, 263.4726
302.4929, 263.9251
302.9750, 264.5356
303.4571, 265.5640
303.9392, 266.0783
304.4214, 267.4448
304.9035, 272.0359
305.3856, 282.2410
305.8677, 292.6992
306.3498, 297.5439
306.8319, 298.2315
307.3141, 300.0145
307.7962, 304.8333
308.2783, 312.7397
308.7604, 324.6405
309.2425, 342.4230
309.7246, 359.9427
310.2068, 371.4384
310.6889, 379.4209
311.1710, 390.5218
311.6531, 410.1036
312.1352, 432.7281
312.6173, 454.2590
313.0995, 473.3430
313.5816, 492.6296
314.0637, 514.0310
314.5458, 536.5532
315.0279, 558.4919
315.5100, 575.3002
315.9922, 594.2872
316.4743, 620.9089
316.9564, 658.2692
317.4385, 692.9573
317.9206, 731.0672
318.4027, 761.4805
318.8849, 768.6599
319.3670, 740.1962
319.8491, 695.0349
320.3312, 634.0670
320.8133, 552.8378
321.2954, 482.9338
321.7776, 432.2755
322.2597, 394.6604
322.7418, 363.4771
323.2239, 340.5833
323.7060, 321.2401
324.1881, 305.2178
324.6703, 292.7380
325.1524, 280.3385
325.6345, 266.8333
326.1166, 253.9727
326.5987, 243.0705
327.0808, 236.9536
327.5630, 229.4594
328.0451, 218.7736
328.5272, 205.1563
329.0093, 194.1965
329.4914, 186.6066
329.9735, 181.2547
330.4557, 177.6536
330.9378, 177.1004
331.4199, 176.0119
331.9020, 173.8224
332.3841, 170.8303
332.8662, 168.5730
333.3484, 167.6040
333.8305, 166.5635
334.3126, 164.5201
334.7947, 160.8955
335.2768, 158.2470
335.7589, 157.2674
336.2411, 157.0252
336.7232, 154.6159
337.2053, 148.9306
337.6874, 144.3740
338.1695, 143.7379
338.6516, 147.7014
339.1338, 149.4497
339.6159, 148.2268
340.0980, 145.7607
340.5801, 145.2428
341.0622, 146.9274
341.5443, 148.1287
342.0265, 146.9818
342.5086, 143.9534
342.9907, 143.6986
343.4728, 146.6270
343.9549, 150.7349
344.4370, 154.6186
344.9192, 158.0314
345.4013, 158.4324
345.8834, 152.7820
346.3655, 144.0547
346.8476, 140.7712
347.3297, 143.0619
347.8119, 147.0464
348.2940, 150.0333
348.7761, 151.9224
349.2582, 152.3067
349.7403, 150.6422
350.2225, 147.8860
350.7046, 144.8624
351.1867, 141.6782
351.6688, 139.3698
352.1509, 139.0240
352.6331, 139.9342
353.1152, 141.1549
353.5973, 142.7525
354.0794, 144.0895
354.5615, 144.3068
355.0436, 143.7330
355.5258, 143.3684
356.0079, 144.2800
356.4900, 145.3541
356.9721, 145.4619
357.4542, 144.1053
357.9363, 142.8852
358.4185, 142.5505
358.9006, 142.9752
359.3827, 143.9415
359.8648, 146.3677
360.3469, 148.5184
360.8290, 149.3517
361.3112, 148.6216
361.7933, 147.7423
362.2754, 147.1058
362.7575, 146.5710
363.2396, 145.9821
363.7217, 145.0302
364.2039, 144.3028
364.6860, 143.8632
365.1681, 143.7156
365.6502, 144.1160
366.1323, 146.3511
366.6144, 148.3868
367.0966, 148.8052
367.5787, 145.4241
368.0608, 143.0494
368.5429, 142.2756
369.0250, 142.8377
369.5071, 143.3816
369.9893, 143.7305
370.4714, 144.2619
370.9535, 145.0460
371.4356, 145.5640
371.9177, 147.7020
372.3998, 152.6284
372.8820, 158.6185
373.3641, 161.5330
373.8462, 160.3202
374.3283, 158.7630
374.8104, 158.5828
375.2925, 160.0064
375.7747, 159.9156
376.2568, 157.8866
376.7389, 155.1824
377.2210, 153.6642
377.7031, 153.4373
378.1852, 152.8255
378.6674, 150.8804
379.1495, 148.1598
379.6316, 147.5249
380.1137, 149.2433
380.5958, 150.6711
381.0779, 148.7659
381.5601, 144.1865
382.0422, 140.2888
382.5243, 137.6494
383.0064, 136.1702
383.4885, 136.0400
383.9706, 137.1153
384.4528, 138.3450
384.9349, 139.0203
385.4170, 139.3873
385.8991, 139.9522
386.3812, 140.9219
386.8633, 141.6806
387.3455, 141.4957
387.8276, 140.6560
388.3097, 139.8159
388.7918, 139.1899
389.2739, 138.7775
389.7560, 138.5787
390.2382, 138.5933
390.7203, 138.8212
391.2024, 139.2948
391.6845, 139.9680
392.1666, 140.7959
392.6487, 142.6365
393.1309, 143.8042
393.6130, 142.9126
394.0951, 140.2233
394.5772, 138.7906
395.0593, 139.8810
395.5414, 142.1601
396.0236, 144.7915
396.5057, 148.2002
396.9878, 151.3282
397.4699, 154.7873
397.9520, 157.9732
398.4341, 158.9727
398.9163, 156.4934
399.3984, 153.1524
399.8805, 149.6627
400.3626, 145.5851
400.8447, 142.5730
401.3268, 140.1318
401.8090, 139.1294
402.2911, 141.4502
402.7732, 149.0588
403.2553, 154.7334
403.7374, 156.0166
404.2195, 153.1916
404.7017, 151.4547
405.1838, 151.0476
405.6659, 151.0685
406.1480, 150.9380
406.6301, 150.6678
407.1122, 149.3772
407.5944, 146.2849
408.0765, 142.7207
408.5586, 142.2920
409.0407, 144.9403
409.5228, 147.9673
410.0049, 150.1916
410.4871, 151.4112
410.9692, 150.5212
411.4513, 146.8823
411.9334, 143.2551
412.4155, 142.8525
412.8976, 145.0238
413.3798, 147.8480
413.8619, 151.1405
414.3440, 154.2732
414.8261, 156.8239
415.3082, 158.7788
415.7903, 159.6943
416.2725, 158.3033
416.7546, 156.0961
417.2367, 154.7835
417.7188, 156.6055
418.2009, 157.5821
418.6830, 154.4729
419.1652, 148.6170
419.6473, 145.0493
420.1294, 147.1734
420.6115, 150.7231
421.0937, 153.3354
421.5758, 153.8097
422.0579, 155.1731
422.5400, 159.9595
423.0221, 165.4342
423.5042, 167.0974
423.9864, 158.2368
424.4685, 153.0023
424.9506, 156.6135
425.4327, 170.2166
425.9148, 176.6851
426.3969, 171.5575
426.8791, 164.3834
427.3612, 164.0615
427.8433, 173.4516
428.3254, 180.6314
428.8075, 183.5153
429.2896, 183.2201
429.7718, 183.2399
430.2539, 183.5285
430.7360, 184.3454
431.2181, 186.2033
431.7002, 188.9858
432.1823, 190.6162
432.6645, 190.5831
433.1466, 190.7704
433.6287, 194.4331
434.1108, 200.8790
434.5929, 206.7021
435.0750, 210.1966
435.5572, 212.2707
436.0393, 214.2779
436.5214, 216.2286
437.0035, 218.3556
437.4856, 221.5040
437.9677, 224.7277
438.4499, 226.5679
438.9320, 226.0310
439.4141, 225.0889
439.8962, 224.0780
440.3783, 223.6562
440.8604, 225.4924
441.3426, 234.0375
441.8247, 242.2166
442.3068, 244.9496
442.7889, 240.0507
443.2710, 237.6309
443.7531, 242.5284
444.2353, 250.4394
444.7174, 256.6903
445.1995, 258.9294
445.6816, 261.2474
446.1637, 265.1828
446.6458, 270.3420
447.1280, 272.4084
447.6101, 267.8842
448.0922, 264.1270
448.5743, 265.7602
449.0564, 276.0078
449.5385, 282.8389
450.0207, 284.6021
450.5028, 284.0257
450.9849, 287.2440
451.4670, 295.6082
451.9491, 300.6575
452.4312, 297.5131
452.9134, 287.5716
453.3955, 281.5151
453.8776, 279.4957
454.3597, 280.3028
454.8418, 284.3246
455.3239, 290.6241
455.8061, 294.7773
456.2882, 294.6455
456.7703, 293.7983
457.2524, 298.6007
457.7345, 307.6020
458.2166, 314.9880
458.6988, 314.2624
459.1809, 311.5732
459.6630, 314.5719
460.1451, 324.9406
460.6272, 334.4573
461.1093, 336.8765
461.5915, 335.7105
462.0736, 335.2585
462.5557, 337.4737
463.0378, 340.1283
463.5199, 341.5576
464.0020, 342.2066
464.4842, 345.5371
464.9663, 354.0916
465.4484, 364.1505
465.9305, 373.9144
466.4126, 384.1375
466.8947, 392.8094
467.3769, 399.7921
467.8590, 405.2642
468.3411, 409.2373
468.8232, 410.1760
469.3053, 412.7482
469.7874, 418.9087
470.2696, 428.3604
470.7517, 435.5544
471.2338, 440.1965
471.7159, 443.4502
472.1980, 446.0260
472.6801, 447.9411
473.1623, 449.4459
473.6444, 450.3401
474.1265, 451.3265
474.6086, 454.5519
475.0907, 459.4807
475.5728, 462.6493
476.0550, 460.1572
476.5371, 455.4515
477.0192, 454.3823
477.5013, 457.1652
477.9834, 460.9073
478.4655, 466.9864
478.9477, 471.5624
479.4298, 469.0620
479.9119, 450.6371
480.3940, 433.8397
480.8761, 428.9835
481.3582, 433.1736
481.8404, 438.2279
482.3225, 443.2234
482.8046, 447.0443
483.2867, 449.2267
483.7688, 449.6462
484.2509, 448.7135
484.7331, 444.7688
485.2152, 440.3642
485.6973, 437.8117
486.1794, 437.7924
486.6615, 438.4037
487.1436, 438.9380
487.6258, 439.8741
488.1079, 443.9189
488.5900, 452.0222
489.0721, 460.5583
489.5542, 467.4007
490.0363, 472.5628
490.5185, 478.3118
491.0006, 484.8123
491.4827, 491.3811
491.9648, 495.9953
492.4470, 499.3571
492.9291, 505.3642
493.4112, 515.7622
493.8933, 529.0244
494.3754, 544.0891
494.8575, 560.5202
495.3397, 574.6703
495.8218, 581.7161
496.3039, 586.6249
496.7860, 594.7222
497.2681, 607.3079
497.7502, 621.5201
498.2324, 637.7529
498.7145, 654.2267
499.1966, 668.8354
499.6787, 677.7965
500.1608, 687.8154
500.6429, 701.7438
501.1251, 719.3052
501.6072, 735.3912
502.0893, 749.0063
502.5714, 761.8461
503.0535, 774.2928
503.5356, 784.3373
504.0178, 799.1215
504.4999, 820.9774
504.9820, 845.3348
505.4641, 865.1589
505.9462, 879.3729
506.4283, 894.2119
506.9105, 910.8481
507.3926, 929.4922
507.8747, 952.2059
508.3568, 979.3470
508.8389, 1005.478
509.3210, 1024.531
509.8032, 1039.835
510.2853, 1061.165
510.7674, 1090.343
511.2495, 1122.979
511.7316, 1155.365
512.2137, 1187.983
512.6959, 1221.260
513.1780, 1252.489
513.6601, 1287.207
514.1422, 1328.234
514.6243, 1375.670
515.1064, 1429.818
515.5886, 1494.356
516.0707, 1563.423
516.5528, 1632.596
517.0349, 1699.980
517.5170, 1771.487
517.9991, 1842.629
518.4813, 1919.691
518.9634, 2010.260
519.4455, 2113.657
519.9276, 2231.706
520.4097, 2365.811
520.8918, 2513.760
521.3740, 2675.108
521.8561, 2847.046
522.3382, 3041.708
522.8203, 3267.854
523.3024, 3523.275
523.7845, 3804.518
524.2667, 4114.924
524.7488, 4445.058
525.2309, 4789.582
525.7130, 5152.854
526.1951, 5541.663
526.6772, 5962.965
527.1594, 6412.794
527.6415, 6890.496
528.1236, 7389.836
528.6057, 7896.247
529.0878, 8403.449
529.5699, 8908.113
530.0521, 9395.462
530.5342, 9861.461
531.0163, 10340.97
531.4984, 10869.51
531.9805, 11411.66
532.4626, 11932.05
532.9448, 12406.90
533.4269, 12882.40
533.9090, 13367.66
534.3911, 13857.66
534.8732, 14322.22
535.3553, 14796.96
535.8375, 15189.75
536.3196, 15464.01
536.8017, 15623.86
537.2838, 15667.35
537.7659, 15603.81
538.2480, 15393.19
538.7302, 14982.43
539.2123, 14378.14
539.6944, 13639.82
540.1765, 12748.74
540.6586, 11786.98
541.1407, 10805.32
541.6229, 9821.982
542.1050, 8887.176
542.5871, 8012.245
543.0692, 7206.686
543.5513, 6493.533
544.0334, 5879.528
544.5156, 5324.792
544.9977, 4818.748
545.4798, 4359.949
545.9619, 3953.665
546.4440, 3612.481
546.9261, 3305.943
547.4083, 3029.836
547.8904, 2785.565
548.3725, 2581.111
548.8546, 2433.042
549.3367, 2295.213
549.8188, 2156.115
550.3010, 2016.892
550.7831, 1891.235
551.2652, 1780.144
551.7473, 1678.904
552.2294, 1585.048
552.7115, 1498.448
553.1937, 1422.993
553.6758, 1359.778
554.1579, 1304.441
554.6400, 1253.508
555.1221, 1206.079
555.6042, 1160.634
556.0864, 1117.275
556.5685, 1074.232
557.0506, 1026.946
557.5327, 977.8879
558.0148, 937.1069
558.4969, 917.3367
558.9791, 901.3420
559.4612, 878.3871
559.9433, 845.9346
560.4254, 814.4116
560.9075, 781.4854
561.3896, 752.8853
561.8718, 733.5463
562.3539, 732.5776
562.8360, 724.9684
563.3181, 705.8301
563.8002, 680.5171
564.2823, 661.9990
564.7645, 651.7705
565.2466, 642.2895
565.7287, 630.4484
566.2108, 616.9774
566.6929, 605.6782
567.1750, 596.6810
567.6572, 588.9653
568.1393, 582.0806
568.6214, 575.9374
569.1035, 570.9272
569.5856, 567.4468
570.0677, 563.5038
570.5499, 556.5073
571.0320, 548.0969
571.5141, 540.8229
571.9962, 536.3049
572.4783, 532.4147
572.9604, 528.6145
573.4426, 524.8584
573.9247, 520.8766
574.4068, 515.9429
574.8889, 511.4700
575.3710, 508.6247
575.8531, 508.4296
576.3353, 504.3446
576.8174, 494.5547
577.2995, 483.6246
577.7816, 475.4412
578.2637, 470.0976
578.7458, 467.3974
579.2280, 467.9769
579.7101, 469.9706
580.1922, 471.5574
580.6743, 472.1951
581.1564, 468.8240
581.6385, 456.3350
582.1207, 441.0011
582.6028, 430.1936
583.0849, 423.9425
583.5670, 421.6743
584.0491, 426.2774
584.5313, 432.6979
585.0134, 436.9214
585.4955, 437.6693
585.9776, 438.3970
586.4597, 440.0086
586.9418, 442.0240
587.4240, 443.9879
587.9061, 447.6951
588.3882, 448.3597
588.8703, 443.5734
589.3524, 435.9314
589.8345, 433.4638
590.3167, 437.2731
590.7988, 442.0604
591.2809, 445.4789
591.7630, 447.9323
592.2451, 450.9588
592.7272, 454.5153
593.2094, 459.7051
593.6915, 470.7065
594.1736, 483.3347
594.6557, 487.5309
595.1378, 478.9966
595.6199, 473.1909
596.1021, 484.4763
596.5842, 505.0746
597.0663, 523.9690
597.5485, 537.3091
598.0306, 548.2778
598.5127, 554.9601
598.9948, 559.2808
599.4769, 569.6258
599.9590, 590.1543
600.4412, 612.3323
600.9233, 633.0900
601.4054, 652.2870
601.8875, 673.7945
602.3696, 697.6604
602.8517, 723.3981
603.3339, 750.4343
603.8160, 778.8497
604.2981, 807.1249
604.7802, 835.0222
605.2623, 862.1249
605.7444, 885.6005
606.2266, 907.5859
606.7087, 932.7134
607.1908, 965.7401
607.6729, 999.9955
608.1550, 1030.424
608.6371, 1057.812
609.1193, 1085.777
609.6014, 1119.217
610.0835, 1150.395
610.5656, 1173.941
611.0477, 1188.378
611.5298, 1204.976
612.0120, 1229.094
612.4941, 1250.405
612.9762, 1261.831
613.4583, 1261.946
613.9404, 1257.574
614.4225, 1249.533
614.9047, 1235.973
615.3868, 1213.879
615.8689, 1183.267
616.3510, 1146.658
616.8331, 1103.749
617.3152, 1056.723
617.7974, 1006.548
618.2795, 954.5283
618.7616, 903.1512
619.2437, 850.1208
619.7258, 801.2979
620.2079, 761.5146
620.6901, 731.1680
621.1722, 703.5586
621.6543, 675.6984
622.1364, 650.1904
622.6185, 629.0521
623.1006, 612.4810
623.5828, 599.7602
624.0649, 592.6011
624.5470, 587.7232
625.0291, 580.7399
625.5112, 570.7561
625.9933, 563.8823
626.4755, 562.4177
626.9576, 563.1251
627.4397, 557.9308
627.9218, 547.8268
628.4039, 540.3846
628.8860, 541.9228
629.3682, 546.9127
629.8503, 547.2687
630.3324, 543.6428
630.8145, 541.1563
631.2966, 544.4927
631.7787, 548.8736
632.2609, 550.8948
632.7430, 549.6787
633.2251, 547.8331
633.7072, 542.7686
634.1893, 539.2276
634.6714, 541.4507
