##NAMES=Triphylite
##RRUFFID=R050257
##IDEAL CHEMISTRY=LiFe^2+^PO_4_
##LOCALITY=Palermo mine, North Groton, Grafton County, New Hampshire, USA
##OWNER=RRUFF
##SOURCE=Marcus Origlieri
##DESCRIPTION=Dark gray massive
##STATUS=The identification of this mineral has been confirmed by X-ray diffraction and chemical analysis
##URL=rruff.info/R050257
##MEASURED CHEMISTRY=Li_1.00_(Fe^2+^_0.73_Mn^2+^_0.19_Mg_0.08_)_Î£=1_P_1.00_O_4_
54.29523, 0.0000000E+00
54.77734, -1.446067
55.25946, -2.528304
55.74158, -2.670571
56.22369, -1.318715
56.70581, 0.3660465
57.18793, 1.681589
57.67004, 2.622017
58.15216, 3.267237
58.63428, 4.075922
59.11639, 5.298519
59.59851, 4.684276
60.08063, -2.126065
60.56274, -8.088416
61.04486, -8.688756
61.52698, -3.224870
62.00909, 4.761070
62.49121, 9.951598
62.97333, 11.80736
63.45544, 11.23524
63.93756, 5.640143
64.41968, -0.6490373
64.90179, -3.724795
65.38391, -1.854473
65.86603, 3.686638
66.34814, 8.602220
66.83026, 13.56376
67.31238, 17.08890
67.79449, 19.13263
68.27661, 19.61502
68.75873, 18.11138
69.24084, 14.07005
69.72296, 7.839419
70.20508, 3.729214
70.68719, 0.7967265
71.16931, 0.2073574
71.65143, 4.125502
72.13354, 11.65006
72.61566, 18.53846
73.09778, 21.48119
73.57990, 20.23360
74.06201, 18.83057
74.54413, 18.36844
75.02625, 17.20560
75.50836, 12.14642
75.99048, 2.082251
76.47260, -6.136211
76.95471, -2.014305
77.43683, 10.80793
77.91895, 19.63472
78.40106, 16.92160
78.88318, 7.417943
79.36530, 2.711909
79.84741, 5.981682
80.32953, 11.51124
80.81165, 14.85382
81.29376, 16.26936
81.77588, 16.92435
82.25800, 17.74041
82.74011, 18.68258
83.22223, 18.51520
83.70435, 15.20763
84.18646, 12.28078
84.66858, 12.55543
85.15070, 15.97784
85.63281, 19.37092
86.11493, 18.30137
86.59705, 10.70044
87.07916, 5.960723
87.56128, 7.386572
88.04340, 10.26981
88.52551, 12.25375
89.00763, 12.53596
89.48975, 11.12340
89.97186, 7.393135
90.45398, -3.585233
90.93610, -8.435455
91.41821, -1.548925
91.90033, 9.023748
92.38245, 15.83823
92.86456, 15.50511
93.34668, 9.875265
93.82880, 5.005236
94.31091, -0.2304404
94.79303, -3.336455
95.27515, -3.074062
95.75726, -0.6515258
96.23938, 2.435977
96.72150, 5.524375
97.20361, 8.369173
97.68573, 9.072461
98.16785, 6.217010
98.64996, 3.211810
99.13208, 0.7474808
99.61420, -1.009591
100.0963, -1.649831
100.5784, -0.5943614
101.0605, 1.938449
101.5427, 3.305696
102.0248, 1.956605
102.5069, 0.7427168
102.9890, 1.577172
103.4711, 4.453286
103.9532, 8.239302
104.4354, 12.57675
104.9175, 17.18784
105.3996, 20.66599
105.8817, 23.52012
106.3638, 24.87169
106.8459, 22.56870
107.3281, 15.58034
107.8102, 9.280396
108.2923, 9.810174
108.7744, 14.72051
109.2565, 18.63480
109.7386, 18.48352
110.2208, 16.12893
110.7029, 15.95054
111.1850, 19.02679
111.6671, 22.79086
112.1492, 26.22466
112.6313, 29.03859
113.1135, 30.22310
113.5956, 26.70755
114.0777, 19.82152
114.5598, 19.21296
115.0419, 30.39222
115.5240, 42.66909
116.0062, 50.50079
116.4883, 54.30773
116.9704, 56.76863
117.4525, 60.42384
117.9346, 65.56676
118.4167, 68.40517
118.8989, 65.85718
119.3810, 63.14426
119.8631, 61.94710
120.3452, 62.54423
120.8273, 64.65330
121.3094, 68.54948
121.7916, 75.30220
122.2737, 80.03399
122.7558, 79.37002
123.2379, 79.34247
123.7200, 82.87103
124.2021, 90.52683
124.6843, 101.4106
125.1664, 114.9017
125.6485, 134.5107
126.1306, 149.3344
126.6127, 156.0823
127.0948, 161.2256
127.5770, 169.7635
128.0591, 182.6678
128.5412, 197.0468
129.0233, 207.1671
129.5054, 202.0461
129.9875, 211.2340
130.4697, 245.1555
130.9518, 287.0114
131.4339, 324.3155
131.9160, 352.6037
132.3981, 371.1617
132.8802, 378.0446
133.3624, 361.3187
133.8445, 349.1784
134.3266, 345.5934
134.8087, 346.1223
135.2908, 345.4725
135.7729, 341.5943
136.2551, 336.2374
136.7372, 333.6298
137.2193, 336.2222
137.7014, 337.2383
138.1835, 333.2615
138.6656, 327.3269
139.1478, 324.8018
139.6299, 328.3724
140.1120, 335.2498
140.5941, 337.7549
141.0762, 332.5147
141.5583, 330.3476
142.0405, 336.1801
142.5226, 347.8066
143.0047, 359.7682
143.4868, 369.4232
143.9689, 378.9023
144.4510, 392.8639
144.9332, 411.7179
145.4153, 433.1718
145.8974, 456.3366
146.3795, 481.2422
146.8616, 508.7824
147.3438, 541.9115
147.8259, 575.4237
148.3080, 600.2600
148.7901, 614.2897
149.2722, 624.6693
149.7543, 635.0767
150.2365, 645.6011
150.7186, 656.6317
151.2007, 669.6537
151.6828, 682.2886
152.1649, 691.7793
152.6470, 698.0551
153.1292, 700.9896
153.6113, 697.8746
154.0934, 688.7037
154.5755, 684.1425
155.0576, 692.5070
155.5397, 705.1880
156.0219, 712.1035
156.5040, 710.4431
156.9861, 707.3989
157.4682, 713.8477
157.9503, 731.7252
158.4324, 739.4146
158.9146, 722.6961
159.3967, 694.9015
159.8788, 666.5679
160.3609, 640.3595
160.8430, 612.2710
161.3251, 574.6696
161.8073, 524.3952
162.2894, 481.6348
162.7715, 459.8476
163.2536, 444.7133
163.7357, 425.2797
164.2178, 398.3726
164.7000, 369.9839
165.1821, 348.3506
165.6642, 334.3025
166.1463, 324.3223
166.6284, 319.1389
167.1105, 316.6464
167.5927, 316.8907
168.0748, 320.1129
168.5569, 322.3246
169.0390, 316.0377
169.5211, 296.9169
170.0032, 281.5983
170.4854, 274.8505
170.9675, 271.8972
171.4496, 269.5525
171.9317, 266.8436
172.4138, 264.5730
172.8959, 264.7321
173.3781, 269.6579
173.8602, 271.0597
174.3423, 264.4309
174.8244, 256.2436
175.3065, 251.7729
175.7886, 252.4915
176.2708, 255.2842
176.7529, 253.7749
177.2350, 242.2155
177.7171, 239.7661
178.1992, 256.4976
178.6813, 276.5462
179.1635, 287.7888
179.6456, 287.0682
180.1277, 280.1415
180.6098, 276.1788
181.0919, 275.2482
181.5740, 277.6032
182.0562, 284.2253
182.5383, 292.8043
183.0204, 301.9950
183.5025, 311.3387
183.9846, 320.7751
184.4667, 330.1893
184.9489, 339.3088
185.4310, 348.8884
185.9131, 357.8383
186.3952, 367.8223
186.8773, 380.9674
187.3594, 397.3811
187.8416, 414.3362
188.3237, 427.9061
188.8058, 436.0093
189.2879, 444.5820
189.7700, 452.8391
190.2521, 461.9273
190.7343, 472.2963
191.2164, 484.1766
191.6985, 498.0948
192.1806, 514.6659
192.6627, 533.8682
193.1448, 556.4525
193.6270, 584.8709
194.1091, 614.2426
194.5912, 643.3572
195.0733, 671.0923
195.5554, 694.7523
196.0375, 709.9643
196.5197, 712.0838
197.0018, 720.0399
197.4839, 737.0152
197.9660, 756.0408
198.4481, 775.4998
198.9302, 793.8636
199.4124, 807.7579
199.8945, 813.1357
200.3766, 808.0872
200.8587, 801.5320
201.3408, 798.5840
201.8229, 790.2943
202.3051, 769.9121
202.7872, 738.7515
203.2693, 704.2768
203.7514, 673.8719
204.2335, 648.9819
204.7156, 618.8991
205.1978, 575.7391
205.6799, 535.4448
206.1620, 506.6364
206.6441, 487.6536
207.1262, 471.4675
207.6083, 452.3840
208.0905, 430.4771
208.5726, 405.9540
209.0547, 371.9902
209.5368, 342.3833
210.0189, 324.3466
210.5010, 315.3341
210.9832, 307.8905
211.4653, 296.2968
211.9474, 280.8793
212.4295, 270.9879
212.9116, 271.3630
213.3937, 271.8235
213.8759, 270.1135
214.3580, 266.3315
214.8401, 260.7374
215.3222, 253.1940
215.8043, 244.2762
216.2864, 238.4236
216.7686, 238.8631
217.2507, 238.6721
217.7328, 234.9658
218.2149, 230.0512
218.6970, 227.6087
219.1791, 229.6431
219.6613, 235.2641
220.1434, 241.0190
220.6255, 249.2564
221.1076, 254.8145
221.5897, 254.6839
222.0718, 252.4101
222.5540, 252.1807
223.0361, 255.8004
223.5182, 262.3889
224.0003, 269.6795
224.4824, 280.1794
224.9645, 288.0692
225.4467, 291.1057
225.9288, 292.5633
226.4109, 295.6235
226.8930, 301.3236
227.3751, 308.4977
227.8572, 314.9230
228.3394, 318.4263
228.8215, 325.0623
229.3036, 337.2021
229.7857, 350.6601
230.2678, 362.0875
230.7499, 370.8455
231.2321, 378.6552
231.7142, 388.0461
232.1963, 400.3770
232.6784, 410.6172
233.1605, 415.5625
233.6426, 421.2476
234.1248, 431.0770
234.6069, 445.4328
235.0890, 463.1568
235.5711, 483.4124
236.0532, 507.2562
236.5353, 528.4932
237.0175, 546.2390
237.4996, 562.8018
237.9817, 579.0620
238.4638, 595.0792
238.9459, 610.6218
239.4280, 625.5001
239.9102, 639.7200
240.3923, 654.0758
240.8744, 675.7954
241.3565, 690.1818
241.8386, 688.3743
242.3207, 676.4230
242.8029, 665.4041
243.2850, 662.3499
243.7671, 666.5380
244.2492, 672.9406
244.7313, 680.8709
245.2134, 692.3619
245.6956, 711.9298
246.1777, 734.0200
246.6598, 750.7379
247.1419, 758.0822
247.6240, 759.7897
248.1061, 766.8589
248.5883, 784.4897
249.0704, 799.3951
249.5525, 812.2319
250.0346, 820.9515
250.5167, 822.3067
250.9988, 815.4705
251.4810, 804.7957
251.9631, 799.0422
252.4452, 804.3711
252.9273, 799.3068
253.4094, 776.2240
253.8915, 747.8227
254.3737, 722.3032
254.8558, 700.9041
255.3379, 679.4269
255.8200, 652.4409
256.3021, 618.7683
256.7842, 585.2888
257.2664, 549.5981
257.7485, 516.4066
258.2306, 489.0477
258.7127, 466.4193
259.1948, 443.9070
259.6769, 416.0411
260.1591, 383.0088
260.6412, 357.1650
261.1233, 343.4533
261.6054, 331.4581
262.0875, 316.8769
262.5696, 300.8449
263.0518, 285.8808
263.5339, 273.3684
264.0160, 262.9797
264.4981, 254.0554
264.9802, 248.1170
265.4623, 240.6710
265.9445, 227.2903
266.4266, 212.5115
266.9087, 202.6045
267.3908, 201.0480
267.8729, 202.8410
268.3550, 198.9348
268.8372, 187.4513
269.3193, 178.1302
269.8014, 176.7224
270.2835, 177.8108
270.7656, 177.6751
271.2477, 175.6831
271.7299, 171.7397
272.2120, 163.7950
272.6941, 151.8985
273.1762, 144.9991
273.6583, 148.2585
274.1404, 154.3445
274.6226, 157.7801
275.1047, 158.3794
275.5868, 155.5729
276.0689, 146.0536
276.5510, 132.4251
277.0331, 123.9274
277.5153, 122.8472
277.9974, 124.9982
278.4795, 127.2395
278.9616, 129.6730
279.4437, 132.9122
279.9258, 138.7235
280.4080, 144.8744
280.8901, 148.1362
281.3722, 148.3328
281.8543, 145.9048
282.3364, 138.8455
282.8185, 129.4200
283.3007, 123.9346
283.7828, 124.6490
284.2649, 128.2031
284.7470, 133.4687
285.2291, 139.9809
285.7112, 144.4224
286.1934, 144.7923
286.6755, 142.2325
287.1576, 139.5854
287.6397, 135.6090
288.1218, 133.7595
288.6039, 136.5802
289.0861, 142.4112
289.5682, 148.5533
290.0503, 154.5530
290.5324, 158.8871
291.0145, 158.3064
291.4966, 151.2726
291.9788, 145.2585
292.4609, 141.0196
292.9430, 138.3557
293.4251, 137.8490
293.9072, 139.3728
294.3893, 140.6401
294.8715, 139.0492
295.3536, 133.9483
295.8357, 131.0214
296.3178, 130.0804
296.7999, 131.2714
297.2820, 137.2894
297.7642, 145.9909
298.2463, 150.6618
298.7284, 146.0407
299.2105, 133.8447
299.6926, 128.8113
300.1747, 138.5879
300.6569, 146.3373
301.1390, 147.8783
301.6211, 145.9937
302.1032, 144.5990
302.5853, 145.3631
303.0674, 147.1105
303.5496, 147.2070
304.0317, 144.3185
304.5138, 141.9600
304.9959, 138.8511
305.4780, 137.1613
305.9601, 140.3437
306.4423, 147.9162
306.9244, 154.3346
307.4065, 151.4286
307.8886, 135.9628
308.3707, 129.5959
308.8528, 142.3269
309.3350, 155.4761
309.8171, 162.0630
310.2992, 163.5388
310.7813, 164.7619
311.2634, 169.1640
311.7455, 175.9048
312.2277, 180.9906
312.7098, 183.6781
313.1919, 185.8826
313.6740, 188.2061
314.1561, 190.4915
314.6382, 191.8315
315.1204, 191.2661
315.6025, 192.1507
316.0846, 201.4908
316.5667, 221.0113
317.0488, 235.1698
317.5309, 235.9666
318.0131, 232.2720
318.4952, 230.3965
318.9773, 230.8453
319.4594, 234.2757
319.9415, 243.7135
320.4236, 256.9712
320.9058, 265.6454
321.3879, 267.5994
321.8700, 266.8789
322.3521, 267.4341
322.8342, 268.5191
323.3163, 266.7616
323.7985, 259.2123
324.2806, 249.4861
324.7627, 241.7066
325.2448, 235.9398
325.7269, 230.2377
326.2090, 223.2032
326.6912, 215.4293
327.1733, 208.9118
327.6554, 202.7278
328.1375, 198.8375
328.6196, 201.0382
329.1017, 206.0141
329.5839, 206.0779
330.0660, 198.1109
330.5481, 185.9241
331.0302, 176.3172
331.5123, 170.2224
331.9944, 164.4037
332.4766, 157.4775
332.9587, 151.4847
333.4408, 149.0930
333.9229, 150.1224
334.4050, 151.1773
334.8871, 148.8262
335.3693, 142.6338
335.8514, 138.6015
336.3335, 138.1288
336.8156, 138.0406
337.2977, 137.4848
337.7798, 136.5286
338.2620, 135.4986
338.7441, 134.5930
339.2262, 133.6400
339.7083, 132.1582
340.1904, 130.4706
340.6725, 127.6028
341.1547, 120.7070
341.6368, 114.4458
342.1189, 114.6491
342.6010, 121.6255
343.0831, 127.9519
343.5652, 121.9339
344.0474, 100.9918
344.5295, 91.97804
345.0116, 108.6750
345.4937, 124.1060
345.9758, 123.6721
346.4579, 111.5803
346.9401, 99.81607
347.4222, 94.36715
347.9043, 94.04832
348.3864, 97.48223
348.8685, 106.3360
349.3506, 112.7291
349.8328, 110.4173
350.3149, 104.4974
350.7970, 100.9812
351.2791, 100.9339
351.7612, 102.8243
352.2433, 108.0888
352.7255, 114.9861
353.2076, 114.9322
353.6897, 103.0356
354.1718, 88.69206
354.6539, 85.69935
355.1360, 93.66713
355.6182, 99.82825
356.1003, 100.0817
356.5824, 97.96137
357.0645, 96.82447
357.5466, 96.92464
358.0287, 97.12996
358.5109, 96.44473
358.9930, 95.07406
359.4751, 95.27882
359.9572, 96.37156
360.4393, 99.50038
360.9214, 108.6239
361.4036, 119.0813
361.8857, 123.1947
362.3678, 118.0301
362.8499, 107.7040
363.3320, 99.61523
363.8141, 94.45061
364.2963, 90.38063
364.7784, 86.67957
365.2605, 84.48528
365.7426, 85.70923
366.2247, 89.46116
366.7068, 92.21661
367.1890, 90.14362
367.6711, 84.01550
368.1532, 84.35106
368.6353, 97.12814
369.1174, 108.0602
369.5995, 113.6035
370.0817, 115.0798
370.5638, 113.3363
371.0459, 108.2428
371.5280, 102.7924
372.0101, 101.8082
372.4922, 105.7011
372.9744, 108.2976
373.4565, 107.8292
373.9386, 106.0008
374.4207, 104.5345
374.9028, 103.3367
375.3849, 101.0434
375.8671, 92.83539
376.3492, 84.34669
376.8313, 88.23611
377.3134, 106.6423
377.7955, 124.2814
378.2776, 130.8068
378.7598, 128.0397
379.2419, 125.8167
379.7240, 125.0385
380.2061, 123.8927
380.6882, 119.7923
381.1703, 114.8478
381.6525, 114.1053
382.1346, 119.5434
382.6167, 127.6549
383.0988, 132.9529
383.5809, 133.2924
384.0630, 136.1382
384.5452, 146.1916
385.0273, 154.8601
385.5094, 154.8784
385.9915, 147.8250
386.4736, 140.8456
386.9557, 139.1537
387.4379, 142.2214
387.9200, 146.2295
388.4021, 152.8191
388.8842, 158.1700
389.3663, 159.7620
389.8484, 160.8522
390.3306, 165.3318
390.8127, 174.1970
391.2948, 183.9530
391.7769, 190.0356
392.2590, 192.0935
392.7411, 194.8298
393.2233, 199.9721
393.7054, 204.1794
394.1875, 204.7334
394.6696, 202.7941
395.1517, 201.5767
395.6339, 201.0920
396.1160, 203.1255
396.5981, 212.4473
397.0802, 229.4262
397.5623, 243.7509
398.0444, 250.7793
398.5266, 252.3124
399.0087, 251.9327
399.4908, 248.7639
399.9729, 246.4986
400.4550, 245.4753
400.9371, 246.6030
401.4193, 252.2747
401.9014, 262.8426
402.3835, 273.9242
402.8656, 281.3286
403.3477, 284.7474
403.8298, 288.9533
404.3120, 295.7890
404.7941, 301.3705
405.2762, 303.9986
405.7583, 304.4330
406.2404, 304.0367
406.7225, 303.4154
407.2047, 302.1408
407.6868, 298.2555
408.1689, 286.4242
408.6510, 284.6211
409.1331, 303.3471
409.6152, 323.0020
410.0974, 331.6300
410.5795, 330.6921
411.0616, 329.4892
411.5437, 334.3131
412.0258, 344.1310
412.5079, 356.1108
412.9901, 371.9447
413.4722, 385.0568
413.9543, 389.2626
414.4364, 390.6623
414.9185, 396.2741
415.4006, 408.3703
415.8828, 419.2683
416.3649, 421.1001
416.8470, 417.6355
417.3291, 419.4797
417.8112, 429.1532
418.2933, 441.7326
418.7755, 453.1046
419.2576, 463.1916
419.7397, 472.8654
420.2218, 482.8552
420.7039, 491.6769
421.1860, 497.4698
421.6682, 501.5437
422.1503, 506.5070
422.6324, 513.4861
423.1145, 522.6310
423.5966, 534.4321
424.0787, 551.6136
424.5609, 566.4099
425.0430, 577.7672
425.5251, 587.9255
426.0072, 598.5794
426.4893, 609.3899
426.9714, 618.3939
427.4536, 623.5859
427.9357, 626.2287
428.4178, 631.9144
428.8999, 641.9302
429.3820, 652.1422
429.8641, 661.7997
430.3463, 670.8431
430.8284, 680.3701
431.3105, 690.7654
431.7926, 696.7321
432.2747, 688.6755
432.7568, 672.6801
433.2390, 669.6403
433.7211, 684.4048
434.2032, 702.6841
434.6853, 715.3080
435.1674, 722.0770
435.6495, 723.9311
436.1317, 714.1923
436.6138, 706.3787
437.0959, 709.7502
437.5780, 719.5405
438.0601, 726.9507
438.5422, 728.9661
439.0244, 726.5344
439.5065, 720.6306
439.9886, 709.4152
440.4707, 700.5235
440.9528, 694.6498
441.4349, 689.9619
441.9171, 685.8319
442.3992, 682.1581
442.8813, 679.2165
443.3634, 677.3872
443.8455, 675.6110
444.3276, 671.7494
444.8098, 666.4796
445.2919, 656.9064
445.7740, 639.2855
446.2561, 619.2065
446.7382, 599.0861
447.2203, 579.4945
447.7025, 561.8312
448.1846, 548.2364
448.6667, 536.6942
449.1488, 522.8658
449.6309, 506.3520
450.1130, 491.4214
450.5952, 480.8418
451.0773, 473.1456
451.5594, 464.1364
452.0415, 452.7647
452.5236, 442.3559
453.0057, 435.1656
453.4879, 428.8405
453.9700, 420.1822
454.4521, 408.9401
454.9342, 398.0291
455.4163, 390.6597
455.8984, 386.7707
456.3806, 377.8189
456.8627, 356.5148
457.3448, 338.5010
457.8269, 327.4602
458.3090, 320.6072
458.7911, 315.6942
459.2733, 311.8199
459.7554, 307.1318
460.2375, 298.1712
460.7196, 285.0086
461.2017, 275.7767
461.6838, 272.7536
462.1660, 270.8406
462.6481, 267.6474
463.1302, 263.2368
463.6123, 257.5098
464.0944, 249.7629
464.5765, 241.6601
465.0587, 233.6574
465.5408, 226.3409
466.0229, 222.2953
466.5050, 222.7746
466.9871, 224.1530
467.4692, 221.8795
467.9514, 215.0899
468.4335, 208.7604
468.9156, 204.0124
469.3977, 198.6003
469.8798, 188.7657
470.3619, 177.8285
470.8441, 173.3621
471.3262, 178.9654
471.8083, 188.7007
472.2904, 190.2831
472.7725, 179.6741
473.2546, 173.1353
473.7368, 177.9970
474.2189, 181.5490
474.7010, 176.1761
475.1831, 164.4525
475.6652, 154.3456
476.1473, 150.1118
476.6295, 149.3264
477.1116, 148.7277
477.5937, 148.3147
478.0758, 148.0010
478.5579, 147.9682
479.0400, 147.7471
479.5222, 147.1669
480.0043, 146.5604
480.4864, 143.0857
480.9685, 129.7693
481.4506, 118.4518
481.9327, 123.1272
482.4149, 139.2312
482.8970, 148.6423
483.3791, 140.7186
483.8612, 122.7750
484.3433, 114.8426
484.8254, 124.9848
485.3076, 130.8686
485.7897, 130.4269
486.2718, 127.3649
486.7539, 122.5278
487.2360, 116.9286
487.7181, 112.7062
488.2003, 111.5022
488.6824, 112.3232
489.1645, 113.4101
489.6466, 115.0807
490.1287, 114.5354
490.6108, 108.6566
491.0930, 102.0582
491.5751, 100.9877
492.0572, 105.7550
492.5393, 109.7306
493.0214, 109.9861
493.5035, 108.8574
493.9857, 108.1012
494.4678, 108.0440
494.9499, 109.6090
495.4320, 113.6218
495.9141, 118.8514
496.3962, 121.9152
496.8784, 122.5823
497.3605, 121.1521
497.8426, 114.6066
498.3247, 108.5797
498.8068, 107.3325
499.2889, 110.1829
499.7711, 113.8897
500.2532, 116.9544
500.7353, 118.5517
501.2174, 115.7093
501.6995, 107.3719
502.1816, 99.46128
502.6638, 91.42512
503.1459, 86.63007
503.6280, 89.69833
504.1101, 100.5338
504.5922, 109.8548
505.0743, 114.7060
505.5565, 116.0577
506.0386, 112.9905
506.5207, 106.6592
507.0028, 102.4889
507.4849, 103.4035
507.9670, 107.2961
508.4492, 109.3329
508.9313, 108.1365
509.4134, 107.5901
509.8955, 110.0488
510.3776, 111.0258
510.8597, 106.1758
511.3419, 97.55572
511.8240, 90.31179
512.3061, 87.05727
512.7882, 87.91890
513.2703, 95.93021
513.7524, 113.2486
514.2346, 121.3483
514.7167, 110.5118
515.1988, 95.31850
515.6809, 88.43899
516.1630, 88.96927
516.6451, 91.13214
517.1273, 94.14152
517.6094, 97.30129
518.0915, 100.7429
518.5736, 103.9256
519.0557, 104.7230
519.5378, 102.0624
520.0200, 98.73092
520.5021, 99.75446
520.9842, 108.5566
521.4663, 110.1884
521.9484, 97.69448
522.4305, 86.30966
522.9127, 82.25570
523.3948, 83.70332
523.8769, 87.77835
524.3590, 93.56489
524.8411, 98.43736
525.3232, 97.78645
525.8054, 91.77654
526.2875, 87.21541
526.7696, 84.70233
527.2517, 84.25703
527.7338, 87.65489
528.2159, 93.25846
528.6981, 96.35036
529.1802, 94.26427
529.6623, 91.99290
530.1444, 94.14798
530.6265, 97.22856
531.1086, 93.78700
531.5908, 82.58195
532.0729, 71.45385
532.5550, 68.77357
533.0371, 74.66373
533.5192, 79.74061
534.0013, 83.37096
534.4835, 86.97522
534.9656, 91.16148
535.4477, 95.26109
535.9298, 98.45164
536.4119, 100.6352
536.8940, 102.7026
537.3762, 106.8140
537.8583, 111.3268
538.3404, 110.2864
538.8225, 102.8100
539.3046, 95.35505
539.7867, 90.66079
540.2689, 88.72052
540.7510, 89.48131
541.2331, 92.78816
541.7152, 98.64709
542.1973, 110.7590
542.6794, 122.6449
543.1616, 128.9588
543.6437, 129.8366
544.1258, 127.1017
544.6079, 121.2692
545.0900, 115.0837
545.5721, 117.3449
546.0543, 132.0225
546.5364, 143.3156
547.0185, 148.3598
547.5006, 149.8565
547.9827, 146.7028
548.4648, 140.9296
548.9470, 139.1534
549.4291, 146.9780
