##NAMES=Triplite
##RRUFFID=R060935
##IDEAL CHEMISTRY=Mn^2+^_2_(PO_4_)F
##LOCALITY=near Alchuri, Shigar Valley, Pakistan
##OWNER=RRUFF
##SOURCE=Herb Obodda
##DESCRIPTION=Red translucent single crystal fragment
##STATUS=The identification of this mineral has been confirmed by X-ray diffraction and chemical analysis
##URL=rruff.info/R060935
##MEASURED CHEMISTRY=(Mn^2+^_1.63_Fe^2+^_0.24_Ca_0.13_)_Σ=2_(P_1.00_O_4_)(F_0.75_(OH)_0.25_)_Σ=1_
115.7376, 1281.742
116.2198, 1256.450
116.7019, 1221.830
117.1840, 1191.202
117.6661, 1167.909
118.1482, 1152.213
118.6303, 1146.014
119.1124, 1152.929
119.5946, 1169.286
120.0767, 1190.473
120.5588, 1219.703
121.0409, 1249.748
121.5230, 1274.910
122.0051, 1293.752
122.4873, 1312.109
122.9694, 1337.903
123.4515, 1366.995
123.9336, 1389.321
124.4157, 1396.250
124.8979, 1394.124
125.3800, 1390.271
125.8621, 1384.036
126.3442, 1380.075
126.8263, 1384.275
127.3084, 1396.101
127.7905, 1412.152
128.2727, 1430.611
128.7548, 1451.368
129.2369, 1474.134
129.7190, 1499.678
130.2011, 1526.615
130.6832, 1549.836
131.1654, 1568.872
131.6475, 1592.076
132.1296, 1631.640
132.6117, 1685.824
133.0938, 1735.825
133.5759, 1772.620
134.0581, 1799.130
134.5402, 1832.214
135.0223, 1872.300
135.5044, 1918.247
135.9865, 1972.778
136.4686, 2037.883
136.9508, 2093.016
137.4329, 2126.989
137.9150, 2137.481
138.3971, 2149.312
138.8792, 2165.689
139.3613, 2180.838
139.8434, 2181.416
140.3256, 2164.817
140.8077, 2140.446
141.2898, 2110.916
141.7719, 2073.059
142.2540, 2041.351
142.7361, 2019.111
143.2183, 2003.972
143.7004, 1985.824
144.1825, 1965.141
144.6646, 1940.784
145.1467, 1910.453
145.6288, 1860.990
146.1110, 1827.622
146.5931, 1820.880
147.0752, 1841.262
147.5573, 1849.135
148.0394, 1835.236
148.5215, 1814.646
149.0037, 1800.472
149.4858, 1795.065
149.9679, 1793.643
150.4500, 1796.000
150.9321, 1802.764
151.4142, 1810.672
151.8964, 1815.955
152.3785, 1823.608
152.8606, 1839.613
153.3427, 1873.120
153.8248, 1907.608
154.3069, 1937.904
154.7890, 1961.762
155.2712, 1987.424
155.7533, 2018.128
156.2354, 2051.282
156.7175, 2082.379
157.1996, 2107.357
157.6817, 2132.752
158.1639, 2161.535
158.6460, 2194.285
159.1281, 2230.121
159.6102, 2273.393
160.0923, 2320.441
160.5744, 2360.132
161.0566, 2383.044
161.5387, 2400.082
162.0208, 2418.528
162.5029, 2439.598
162.9850, 2462.788
163.4671, 2490.053
163.9493, 2520.169
164.4314, 2547.307
164.9135, 2562.805
165.3956, 2576.207
165.8777, 2596.799
166.3598, 2631.045
166.8420, 2670.940
167.3241, 2713.008
167.8062, 2757.401
168.2883, 2802.089
168.7704, 2844.572
169.2525, 2887.340
169.7346, 2934.050
170.2168, 2993.991
170.6989, 3053.516
171.1810, 3097.996
171.6631, 3125.622
172.1452, 3152.852
172.6273, 3194.726
173.1095, 3245.850
173.5916, 3295.982
174.0737, 3338.921
174.5558, 3378.730
175.0379, 3420.162
175.5201, 3464.307
176.0022, 3508.146
176.4843, 3551.108
176.9664, 3591.471
177.4485, 3624.445
177.9306, 3646.391
178.4128, 3659.076
178.8949, 3666.461
179.3770, 3669.843
179.8591, 3665.985
180.3412, 3646.259
180.8233, 3612.892
181.3055, 3580.778
181.7876, 3566.081
182.2697, 3560.351
182.7518, 3539.418
183.2339, 3494.161
183.7160, 3438.817
184.1982, 3399.887
184.6803, 3376.645
185.1624, 3353.310
185.6445, 3313.090
186.1266, 3261.014
186.6087, 3217.127
187.0908, 3189.098
187.5730, 3170.139
188.0551, 3145.981
188.5372, 3116.125
189.0193, 3083.260
189.5014, 3049.362
189.9835, 3014.072
190.4657, 2976.645
190.9478, 2936.217
191.4299, 2893.504
191.9120, 2853.877
192.3941, 2818.366
192.8762, 2780.448
193.3584, 2732.375
193.8405, 2674.569
194.3226, 2613.831
194.8047, 2551.645
195.2868, 2488.448
195.7689, 2426.451
196.2511, 2364.344
196.7332, 2305.387
197.2153, 2256.321
197.6974, 2217.724
198.1795, 2177.596
198.6616, 2130.641
199.1438, 2076.761
199.6259, 2026.358
200.1080, 1979.414
200.5901, 1935.770
201.0722, 1896.684
201.5543, 1862.585
202.0364, 1828.957
202.5186, 1792.165
203.0007, 1751.340
203.4828, 1719.416
203.9649, 1698.515
204.4470, 1683.594
204.9291, 1665.104
205.4113, 1641.390
205.8934, 1619.990
206.3755, 1604.660
206.8576, 1596.181
207.3397, 1589.231
207.8218, 1584.688
208.3040, 1580.838
208.7861, 1573.111
209.2682, 1559.995
209.7503, 1547.602
210.2324, 1539.273
210.7145, 1535.997
211.1967, 1533.205
211.6788, 1531.214
212.1609, 1529.473
212.6430, 1526.636
213.1251, 1523.307
213.6072, 1517.745
214.0894, 1507.687
214.5715, 1490.234
215.0536, 1478.358
215.5357, 1475.095
216.0178, 1477.599
216.4999, 1475.222
216.9820, 1465.722
217.4642, 1455.210
217.9463, 1447.405
218.4284, 1443.584
218.9105, 1439.014
219.3926, 1433.871
219.8747, 1427.713
220.3569, 1418.497
220.8390, 1406.962
221.3211, 1391.191
221.8032, 1368.268
222.2853, 1333.706
222.7674, 1303.742
223.2496, 1280.755
223.7317, 1264.005
224.2138, 1249.914
224.6959, 1239.136
225.1780, 1230.025
225.6601, 1220.861
226.1423, 1210.234
226.6244, 1203.283
227.1065, 1203.319
227.5886, 1209.097
228.0707, 1205.508
228.5528, 1186.113
229.0350, 1164.695
229.5171, 1152.177
229.9992, 1150.982
230.4813, 1153.556
230.9634, 1161.153
231.4455, 1173.295
231.9276, 1177.822
232.4098, 1169.236
232.8919, 1159.058
233.3740, 1157.446
233.8561, 1168.421
234.3382, 1180.103
234.8203, 1192.139
235.3025, 1204.399
235.7846, 1210.597
236.2667, 1205.074
236.7488, 1199.371
237.2309, 1204.854
237.7130, 1229.872
238.1952, 1250.084
238.6773, 1260.528
239.1594, 1261.188
239.6415, 1261.294
240.1236, 1257.120
240.6057, 1256.045
241.0879, 1267.073
241.5700, 1302.396
242.0521, 1326.371
242.5342, 1328.605
243.0163, 1308.415
243.4984, 1297.873
243.9806, 1301.708
244.4627, 1310.582
244.9448, 1315.164
245.4269, 1311.769
245.9090, 1310.732
246.3911, 1313.890
246.8732, 1321.277
247.3554, 1331.590
247.8375, 1348.227
248.3196, 1364.370
248.8017, 1372.895
249.2838, 1370.210
249.7659, 1366.637
250.2481, 1363.386
250.7302, 1360.414
251.2123, 1360.850
251.6944, 1367.672
252.1765, 1374.919
252.6586, 1377.252
253.1408, 1375.291
253.6229, 1366.875
254.1050, 1348.066
254.5871, 1318.648
255.0692, 1301.285
255.5513, 1300.751
256.0334, 1306.937
256.5156, 1310.199
256.9977, 1310.040
257.4798, 1307.826
257.9619, 1302.741
258.4440, 1294.658
258.9261, 1290.420
259.4083, 1291.215
259.8904, 1294.212
260.3725, 1296.165
260.8546, 1295.413
261.3367, 1297.807
261.8188, 1305.198
262.3010, 1317.553
262.7831, 1328.766
263.2652, 1337.732
263.7473, 1347.220
264.2294, 1360.358
264.7115, 1378.059
265.1937, 1396.251
265.6758, 1413.255
266.1579, 1429.197
266.6400, 1450.127
267.1221, 1476.752
267.6042, 1506.886
268.0864, 1538.643
268.5685, 1573.115
269.0506, 1606.376
269.5327, 1637.004
270.0148, 1665.482
270.4969, 1697.361
270.9791, 1734.294
271.4612, 1771.013
271.9433, 1801.027
272.4254, 1822.292
272.9075, 1846.848
273.3896, 1878.223
273.8718, 1914.811
274.3539, 1948.711
274.8360, 1981.008
275.3181, 2008.609
275.8002, 2027.886
276.2823, 2037.912
276.7645, 2046.636
277.2466, 2056.673
277.7287, 2066.439
278.2108, 2068.220
278.6929, 2061.268
279.1750, 2049.208
279.6572, 2035.422
280.1393, 2020.092
280.6214, 1998.869
281.1035, 1970.012
281.5856, 1935.188
282.0677, 1900.705
282.5499, 1867.238
283.0320, 1830.181
283.5141, 1783.396
283.9962, 1727.163
284.4783, 1674.985
284.9604, 1629.123
285.4425, 1588.431
285.9247, 1550.861
286.4068, 1516.603
286.8889, 1484.946
287.3710, 1455.882
287.8531, 1429.288
288.3352, 1404.172
288.8174, 1380.694
289.2995, 1358.219
289.7816, 1335.695
290.2637, 1313.485
290.7458, 1290.306
291.2279, 1262.344
291.7101, 1231.854
292.1922, 1209.866
292.6743, 1199.907
293.1564, 1195.280
293.6385, 1185.466
294.1206, 1170.868
294.6028, 1155.380
295.0849, 1138.407
295.5670, 1122.188
296.0491, 1114.105
296.5312, 1116.672
297.0133, 1122.946
297.4955, 1124.469
297.9776, 1121.759
298.4597, 1117.375
298.9418, 1110.399
299.4239, 1103.205
299.9060, 1101.135
300.3882, 1105.567
300.8703, 1111.439
301.3524, 1111.712
301.8345, 1108.396
302.3166, 1107.729
302.7987, 1113.089
303.2809, 1122.812
303.7630, 1137.298
304.2451, 1157.645
304.7272, 1173.909
305.2093, 1171.068
305.6914, 1156.973
306.1736, 1148.857
306.6557, 1160.877
307.1378, 1179.000
307.6199, 1188.574
308.1020, 1188.642
308.5841, 1187.920
309.0663, 1193.364
309.5484, 1202.152
310.0305, 1209.748
310.5126, 1214.587
310.9947, 1217.559
311.4768, 1219.788
311.9590, 1221.244
312.4411, 1219.660
312.9232, 1209.044
313.4053, 1196.189
313.8874, 1188.951
314.3695, 1195.602
314.8517, 1203.387
315.3337, 1206.772
315.8159, 1205.814
316.2980, 1201.677
316.7801, 1193.027
317.2622, 1182.284
317.7443, 1171.425
318.2264, 1158.781
318.7086, 1148.526
319.1907, 1146.000
319.6728, 1148.630
320.1549, 1143.931
320.6370, 1117.736
321.1191, 1089.695
321.6013, 1072.195
322.0834, 1078.751
322.5655, 1081.358
323.0476, 1072.894
323.5297, 1056.230
324.0118, 1040.266
324.4940, 1023.482
324.9761, 1009.932
325.4582, 1001.960
325.9403, 1004.769
326.4224, 1004.557
326.9045, 999.6000
327.3867, 991.0512
327.8688, 981.4120
328.3509, 968.1281
328.8330, 956.1675
329.3151, 947.0440
329.7972, 941.6165
330.2794, 936.8779
330.7615, 933.8573
331.2436, 931.0693
331.7257, 926.2692
332.2078, 918.1075
332.6899, 909.8237
333.1721, 901.7322
333.6542, 893.4911
334.1363, 888.6896
334.6184, 890.3832
335.1005, 892.4811
335.5826, 887.1957
336.0648, 870.3168
336.5469, 856.3902
337.0290, 849.5618
337.5111, 849.3557
337.9932, 845.1534
338.4753, 834.7815
338.9575, 824.7811
339.4396, 822.1788
339.9217, 828.8506
340.4038, 832.0851
340.8859, 829.0558
341.3680, 821.2339
341.8502, 813.7299
342.3323, 806.6173
342.8144, 800.1634
343.2965, 796.0780
343.7786, 794.1530
344.2607, 786.6549
344.7429, 769.4965
345.2250, 750.6684
345.7071, 750.0939
346.1892, 767.7509
346.6713, 783.2949
347.1534, 782.0152
347.6355, 768.1185
348.1176, 758.6428
348.5998, 755.7673
349.0819, 754.6560
349.5640, 747.6455
350.0461, 735.9907
350.5282, 726.3165
351.0103, 722.7722
351.4925, 722.9907
351.9746, 723.0931
352.4567, 722.8889
352.9388, 722.7993
353.4209, 723.7682
353.9030, 725.1363
354.3852, 725.5560
354.8673, 723.3550
355.3494, 720.6729
355.8315, 720.4152
356.3136, 722.3781
356.7957, 722.9514
357.2779, 717.7357
357.7600, 710.4194
358.2421, 705.5642
358.7242, 706.4319
359.2063, 708.0135
359.6884, 707.4435
360.1706, 705.1021
360.6527, 702.6962
361.1348, 696.6190
361.6169, 693.3652
362.0990, 698.9172
362.5811, 722.6050
363.0633, 740.7372
363.5454, 740.8615
364.0275, 730.0421
364.5096, 724.1840
364.9917, 730.7345
365.4738, 740.1951
365.9560, 749.1844
366.4381, 758.1575
366.9202, 764.3138
367.4023, 765.6906
367.8844, 764.6148
368.3665, 764.2753
368.8487, 765.4543
369.3308, 766.7556
369.8129, 767.5542
370.2950, 767.5905
370.7771, 769.5076
371.2592, 775.3981
371.7414, 781.4962
372.2235, 783.9919
372.7056, 778.9859
373.1877, 777.8538
373.6698, 782.7946
374.1519, 793.1396
374.6341, 805.6055
375.1162, 822.3983
375.5983, 836.6921
376.0804, 842.7290
376.5625, 838.5731
377.0446, 835.9376
377.5267, 835.5942
378.0089, 837.6074
378.4910, 842.4293
378.9731, 850.2106
379.4552, 859.5100
379.9373, 870.0780
380.4194, 881.8558
380.9016, 892.7753
381.3837, 902.8231
381.8658, 912.3166
382.3479, 922.4733
382.8300, 932.9059
383.3121, 941.1055
383.7943, 944.6547
384.2764, 945.5215
384.7585, 946.4007
385.2406, 947.1935
385.7227, 952.5769
386.2048, 971.4929
386.6870, 997.5492
387.1691, 1018.043
387.6512, 1027.225
388.1333, 1031.078
388.6154, 1033.133
389.0975, 1034.249
389.5797, 1038.786
390.0618, 1050.834
390.5439, 1066.869
391.0260, 1084.449
391.5081, 1105.526
391.9902, 1122.020
392.4724, 1124.367
392.9545, 1119.323
393.4366, 1120.260
393.9187, 1138.202
394.4008, 1158.652
394.8829, 1174.685
395.3651, 1184.859
395.8472, 1194.708
396.3293, 1204.537
396.8114, 1215.215
397.2935, 1227.653
397.7756, 1243.898
398.2578, 1259.875
398.7399, 1273.571
399.2220, 1285.073
399.7041, 1300.910
400.1862, 1326.660
400.6683, 1352.157
401.1505, 1371.154
401.6326, 1378.680
402.1147, 1388.367
402.5968, 1400.344
403.0789, 1415.039
403.5610, 1434.002
404.0432, 1458.493
404.5253, 1484.665
405.0074, 1510.121
405.4895, 1534.026
405.9716, 1564.652
406.4537, 1604.126
406.9359, 1646.124
407.4180, 1679.256
407.9001, 1702.561
408.3822, 1732.385
408.8643, 1776.583
409.3464, 1831.204
409.8285, 1878.648
410.3106, 1917.791
410.7928, 1960.498
411.2749, 2017.870
411.7570, 2088.178
412.2391, 2162.580
412.7212, 2236.987
413.2033, 2319.907
413.6855, 2428.564
414.1676, 2557.498
414.6497, 2685.915
415.1318, 2783.788
415.6139, 2880.349
416.0960, 3010.374
416.5782, 3180.872
417.0603, 3371.558
417.5424, 3571.021
418.0245, 3778.873
418.5066, 3993.624
418.9887, 4216.775
419.4709, 4446.573
419.9530, 4683.788
420.4351, 4926.579
420.9172, 5181.376
421.3993, 5433.715
421.8814, 5706.347
422.3636, 6016.237
422.8457, 6392.698
423.3278, 6776.006
423.8099, 7145.134
424.2920, 7513.226
424.7741, 7912.194
425.2563, 8377.354
425.7384, 8844.180
426.2205, 9290.662
426.7026, 9734.896
427.1847, 10108.56
427.6668, 10407.59
428.1490, 10635.78
428.6311, 10803.17
429.1132, 10926.85
429.5953, 10945.59
430.0774, 10834.04
430.5595, 10602.17
431.0417, 10314.28
431.5238, 9964.540
432.0059, 9582.993
432.4880, 9181.098
432.9701, 8760.312
433.4522, 8361.321
433.9344, 7981.635
434.4165, 7631.837
434.8986, 7324.244
435.3807, 7057.071
435.8628, 6814.114
436.3449, 6584.624
436.8271, 6373.700
437.3092, 6189.799
437.7913, 6034.810
438.2734, 5908.501
438.7555, 5815.468
439.2376, 5750.871
439.7197, 5706.481
440.2018, 5681.436
440.6840, 5673.471
441.1661, 5684.825
441.6482, 5713.378
442.1303, 5748.742
442.6124, 5792.279
443.0945, 5836.854
443.5767, 5873.230
444.0588, 5884.371
444.5409, 5921.153
445.0230, 6015.750
445.5051, 6142.139
445.9872, 6255.067
446.4694, 6345.379
446.9515, 6423.478
447.4336, 6492.542
447.9157, 6553.352
448.3978, 6600.560
448.8799, 6636.169
449.3621, 6656.082
449.8442, 6659.052
450.3263, 6653.437
450.8084, 6609.767
451.2905, 6519.151
451.7726, 6390.726
452.2548, 6249.478
452.7369, 6096.124
453.2190, 5924.752
453.7011, 5726.407
454.1832, 5502.465
454.6653, 5271.920
455.1475, 5030.549
455.6296, 4792.472
456.1117, 4573.558
456.5938, 4372.477
457.0759, 4169.934
457.5580, 3955.690
458.0402, 3741.731
458.5223, 3545.686
459.0044, 3365.885
459.4865, 3203.490
459.9686, 3066.712
460.4507, 2943.144
460.9329, 2812.720
461.4150, 2669.476
461.8971, 2533.406
462.3792, 2415.858
462.8613, 2314.032
463.3434, 2220.457
463.8256, 2135.550
464.3077, 2056.934
464.7898, 1983.376
465.2719, 1914.917
465.7540, 1850.176
466.2361, 1789.888
466.7183, 1731.859
467.2004, 1675.207
467.6825, 1617.099
468.1646, 1564.113
468.6467, 1517.172
469.1288, 1474.932
469.6110, 1433.953
470.0930, 1392.726
470.5752, 1355.274
471.0573, 1324.709
471.5394, 1302.364
472.0215, 1270.262
472.5036, 1224.495
472.9857, 1178.007
473.4679, 1146.641
473.9500, 1130.572
474.4321, 1112.095
474.9142, 1085.783
475.3963, 1056.738
475.8784, 1037.827
476.3606, 1028.005
476.8427, 1015.940
477.3248, 991.7137
477.8069, 961.3883
478.2890, 934.7592
478.7711, 912.6685
479.2533, 894.5062
479.7354, 881.2229
480.2175, 871.2440
480.6996, 862.0794
481.1817, 854.3128
481.6638, 845.8107
482.1460, 834.7117
482.6281, 821.5892
483.1102, 809.1306
483.5923, 798.3882
484.0744, 788.4261
484.5565, 778.6028
485.0387, 768.4252
485.5208, 759.3893
486.0029, 754.3333
486.4850, 749.4329
486.9671, 739.0074
487.4492, 715.3931
487.9314, 698.9007
488.4135, 696.4302
488.8956, 706.3221
489.3777, 709.6957
489.8598, 706.0831
490.3419, 697.3088
490.8241, 681.5757
491.3062, 658.2108
491.7883, 644.1242
492.2704, 642.2475
492.7525, 645.7411
493.2346, 645.3745
493.7168, 641.2599
494.1989, 633.9515
494.6810, 618.8492
495.1631, 602.8950
495.6452, 601.0469
496.1273, 612.1706
496.6095, 621.6968
497.0916, 616.5050
497.5737, 604.6242
498.0558, 595.1559
498.5379, 590.8431
499.0201, 587.4225
499.5022, 582.8434
499.9843, 577.5596
500.4664, 572.4145
500.9485, 566.6080
501.4306, 562.0743
501.9127, 560.3105
502.3948, 561.5047
502.8770, 561.3524
503.3591, 560.3923
503.8412, 557.3090
504.3233, 550.8633
504.8054, 537.8027
505.2875, 527.6476
505.7697, 520.2686
506.2518, 516.0710
506.7339, 517.7676
507.2160, 527.7211
507.6981, 533.1998
508.1802, 527.4251
508.6624, 513.0305
509.1445, 505.6093
509.6266, 505.5355
510.1087, 508.6570
510.5908, 512.6134
511.0729, 516.9850
511.5551, 520.9705
512.0372, 525.1190
512.5193, 526.8885
513.0014, 520.4984
513.4835, 509.4596
513.9656, 501.8812
514.4478, 504.5728
514.9299, 509.7513
515.4120, 512.2126
515.8941, 511.9007
516.3762, 511.2278
516.8583, 512.1176
517.3405, 512.3786
517.8226, 510.3570
518.3047, 503.6725
518.7868, 498.1042
519.2689, 495.2624
519.7510, 493.6311
520.2332, 490.6678
520.7153, 485.4025
521.1974, 480.4431
521.6795, 475.8976
522.1616, 471.9210
522.6437, 471.1720
523.1259, 474.2050
523.6080, 478.8815
524.0901, 484.6752
524.5722, 491.5114
525.0543, 495.7146
525.5364, 497.2523
526.0186, 495.4421
526.5007, 485.6930
526.9828, 470.7612
527.4649, 461.3146
527.9470, 466.6527
528.4291, 476.4683
528.9113, 477.4119
529.3934, 470.8673
529.8755, 465.5763
530.3576, 468.0640
530.8397, 473.1890
531.3218, 476.9265
531.8040, 478.4999
532.2861, 478.9247
532.7682, 477.5195
533.2503, 475.4842
533.7324, 474.3376
534.2145, 473.9251
534.6967, 474.9093
535.1788, 478.7033
535.6609, 484.3934
536.1430, 486.5005
536.6251, 483.2493
537.1072, 479.5102
537.5894, 477.3059
538.0715, 476.5500
538.5536, 478.8435
539.0357, 485.2674
539.5178, 491.6893
539.9999, 491.9344
540.4821, 486.9332
540.9642, 484.6150
541.4463, 488.2656
541.9284, 493.7400
542.4105, 493.5634
542.8926, 489.1373
543.3748, 486.1974
543.8569, 488.8253
544.3390, 494.0997
544.8211, 500.4662
545.3032, 507.9995
545.7853, 512.6725
546.2675, 508.2213
546.7495, 502.2427
547.2316, 501.4809
547.7137, 513.7639
548.1959, 523.2576
548.6780, 524.5233
549.1601, 521.9172
549.6422, 525.6288
550.1243, 541.3900
550.6064, 554.7288
551.0886, 560.9001
551.5707, 560.1649
552.0528, 560.3060
552.5349, 560.5146
553.0170, 564.0183
553.4991, 575.8197
553.9813, 595.0057
554.4634, 608.2987
554.9455, 613.4458
555.4276, 615.5431
555.9097, 621.0304
556.3918, 629.0278
556.8740, 636.9091
557.3561, 640.4297
557.8382, 646.0348
558.3203, 663.3695
558.8024, 689.7619
559.2845, 712.1294
559.7667, 720.6832
560.2488, 725.6385
560.7309, 732.7700
561.2130, 742.2607
561.6951, 756.2185
562.1772, 775.1904
562.6594, 798.8894
563.1415, 827.4891
563.6236, 866.5771
564.1057, 900.6224
564.5878, 926.9074
565.0699, 947.7825
565.5521, 969.7523
566.0342, 992.3115
566.5163, 1018.302
566.9984, 1050.031
567.4805, 1086.597
567.9626, 1123.518
568.4448, 1161.151
568.9269, 1198.250
569.4090, 1231.915
569.8911, 1264.764
570.3732, 1304.942
570.8553, 1356.114
571.3375, 1406.187
571.8196, 1440.063
572.3017, 1465.648
572.7838, 1495.085
573.2659, 1547.988
573.7480, 1591.450
574.2302, 1608.141
574.7123, 1601.161
575.1944, 1594.033
575.6765, 1595.045
576.1586, 1592.717
576.6407, 1581.388
577.1229, 1557.623
577.6050, 1538.189
578.0871, 1522.286
578.5692, 1511.874
579.0513, 1509.257
579.5334, 1514.622
580.0156, 1525.622
580.4977, 1541.032
580.9798, 1563.367
581.4619, 1597.254
581.9440, 1642.171
582.4261, 1696.454
582.9083, 1761.833
583.3904, 1834.230
583.8725, 1906.155
584.3546, 1978.864
584.8367, 2063.748
585.3188, 2173.072
585.8010, 2295.117
586.2831, 2419.489
586.7652, 2541.528
587.2473, 2676.083
587.7294, 2832.897
588.2115, 3002.675
588.6937, 3174.509
589.1758, 3337.295
589.6579, 3517.042
590.1400, 3714.861
590.6221, 3931.905
591.1042, 4175.144
591.5864, 4446.046
592.0685, 4728.599
592.5506, 5011.857
593.0327, 5299.465
593.5148, 5622.463
593.9969, 5984.383
594.4791, 6346.906
594.9612, 6668.796
595.4433, 6970.761
595.9254, 7294.918
596.4075, 7656.336
596.8896, 8010.629
597.3718, 8338.244
597.8539, 8629.510
598.3360, 8867.910
598.8181, 9052.706
599.3002, 9178.977
599.7823, 9241.503
600.2645, 9243.764
600.7466, 9195.351
601.2287, 9064.258
601.7108, 8922.361
602.1929, 8789.681
602.6750, 8666.916
603.1572, 8550.616
603.6393, 8436.189
604.1214, 8336.950
604.6035, 8259.410
605.0856, 8203.851
605.5677, 8182.552
606.0499, 8200.579
606.5320, 8239.684
607.0141, 8287.524
607.4962, 8337.682
607.9783, 8375.081
608.4604, 8410.142
608.9425, 8412.997
609.4246, 8359.793
609.9067, 8253.515
610.3889, 8105.333
610.8710, 7931.585
611.3531, 7706.769
