##NAMES=Triphylite
##RRUFFID=R100156
##IDEAL CHEMISTRY=LiFe^2+^PO_4_
##LOCALITY=Conselheira Pena, Minas Gera√¨s, Brazil
##OWNER=RRUFF
##SOURCE=William W. Pinch
##DESCRIPTION=Brownish-orange cut stone
##STATUS=The identification of this mineral has been confirmed by single-crystal X-ray diffraction.
##URL=rruff.info/R100156
90.60547, 40.84948
91.08759, 41.60857
91.56970, 42.34874
92.05182, 42.34114
92.53394, 42.09100
93.01605, 41.54304
93.49817, 40.56060
93.98029, 39.31093
94.46240, 38.40430
94.94452, 38.04272
95.42664, 37.90796
95.90874, 37.90541
96.39086, 38.00656
96.87298, 38.07664
97.35509, 37.92867
97.83721, 37.45122
98.31933, 36.97257
98.80145, 36.42749
99.28356, 35.94462
99.76568, 35.53180
100.2478, 35.20201
100.7299, 35.07442
101.2120, 35.46730
101.6941, 36.56645
102.1763, 38.04683
102.6584, 40.14146
103.1405, 42.56356
103.6226, 45.06572
104.1047, 47.63696
104.5868, 50.06430
105.0690, 50.90126
105.5511, 49.89009
106.0332, 47.97594
106.5153, 45.25206
106.9974, 41.82257
107.4795, 38.30489
107.9617, 34.97310
108.4438, 31.92636
108.9259, 29.43857
109.4080, 27.79241
109.8901, 26.62674
110.3722, 25.40414
110.8544, 24.01919
111.3365, 22.84322
111.8186, 22.22066
112.3007, 21.96343
112.7828, 21.71989
113.2649, 21.21697
113.7471, 20.48692
114.2292, 19.99314
114.7113, 19.88279
115.1934, 19.89736
115.6755, 19.98405
116.1576, 20.11505
116.6397, 20.24154
117.1219, 20.27924
117.6040, 20.11924
118.0861, 20.22594
118.5682, 20.89223
119.0503, 21.56291
119.5324, 21.86001
120.0146, 21.72495
120.4967, 21.41186
120.9788, 21.34590
121.4609, 21.80202
121.9430, 22.11121
122.4251, 22.09490
122.9073, 21.98984
123.3894, 22.09593
123.8715, 22.54725
124.3536, 23.20102
124.8357, 23.68567
125.3178, 23.94609
125.8000, 24.21017
126.2821, 24.54853
126.7642, 24.95551
127.2463, 25.42069
127.7284, 26.01633
128.2105, 26.61017
128.6927, 26.95175
129.1748, 26.86451
129.6569, 26.80613
130.1390, 27.27968
130.6211, 28.36910
131.1032, 29.48754
131.5854, 30.33656
132.0675, 31.09851
132.5496, 31.92830
133.0317, 32.88066
133.5138, 33.93796
133.9959, 35.06970
134.4781, 36.29343
134.9602, 37.58744
135.4423, 39.10106
135.9244, 40.64174
136.4065, 41.93365
136.8886, 42.78697
137.3708, 43.24135
137.8529, 43.77752
138.3350, 44.36125
138.8171, 45.07034
139.2992, 45.90482
139.7813, 46.88178
140.2635, 47.99409
140.7456, 49.18372
141.2277, 50.39586
141.7098, 52.45879
142.1919, 55.64705
142.6740, 59.24632
143.1561, 63.09887
143.6383, 67.09777
144.1204, 70.99599
144.6025, 74.75343
145.0846, 78.43140
145.5667, 80.38909
146.0488, 79.85078
146.5310, 77.87107
147.0131, 75.28957
147.4952, 72.11933
147.9773, 68.99886
148.4594, 66.50229
148.9415, 64.54607
149.4237, 63.37000
149.9058, 63.17067
150.3879, 63.82970
150.8700, 65.18173
151.3521, 67.80985
151.8342, 70.28053
152.3164, 71.83698
152.7985, 72.44189
153.2806, 71.81674
153.7627, 69.56866
154.2448, 65.67695
154.7269, 61.11267
155.2091, 54.98225
155.6912, 48.96655
156.1733, 43.83258
156.6554, 39.65869
157.1375, 36.23169
157.6196, 33.31122
158.1018, 30.90924
158.5839, 29.04547
159.0660, 27.97392
159.5481, 27.18125
160.0302, 26.43781
160.5123, 25.65802
160.9945, 24.81814
161.4766, 23.88043
161.9587, 22.75852
162.4408, 21.64347
162.9229, 20.41677
163.4050, 19.25448
163.8871, 18.34703
164.3693, 17.76002
164.8514, 17.39507
165.3335, 17.02057
165.8156, 16.55459
166.2977, 16.19576
166.7798, 16.04308
167.2620, 15.99568
167.7441, 15.90262
168.2262, 15.69663
168.7083, 15.41087
169.1904, 15.12793
169.6725, 14.79284
170.1547, 14.54641
170.6368, 14.55739
171.1189, 14.73329
171.6010, 14.73346
172.0831, 14.31793
172.5652, 13.69876
173.0474, 13.31967
173.5295, 13.26075
174.0116, 13.28768
174.4937, 13.14128
174.9758, 12.82172
175.4579, 12.77821
175.9401, 13.63439
176.4222, 14.65587
176.9043, 14.97616
177.3864, 14.27946
177.8685, 13.23620
178.3506, 12.71633
178.8328, 12.86586
179.3149, 13.02135
179.7970, 12.93429
180.2791, 12.75934
180.7612, 12.62059
181.2433, 12.56239
181.7255, 12.56012
182.2076, 12.56411
182.6897, 12.57957
183.1718, 12.59152
183.6539, 12.59152
184.1360, 12.58901
184.6181, 12.58477
185.1003, 12.57675
185.5824, 12.58153
186.0645, 12.66005
186.5466, 12.89686
187.0287, 13.10961
187.5108, 13.24981
187.9930, 13.35807
188.4751, 13.48395
188.9572, 13.65410
189.4393, 13.86498
189.9214, 14.09756
190.4035, 14.30511
190.8857, 14.58517
191.3678, 14.94745
191.8499, 15.39462
192.3320, 15.93921
192.8141, 16.59643
193.2962, 17.35244
193.7784, 18.11447
194.2605, 18.78681
194.7426, 19.55916
195.2247, 20.56320
195.7068, 21.73392
196.1889, 22.89552
196.6711, 23.94842
197.1532, 24.89888
197.6353, 25.81532
198.1174, 26.90172
198.5995, 27.78289
199.0816, 28.24880
199.5638, 28.32141
200.0459, 28.14824
200.5280, 27.79774
201.0101, 27.23352
201.4922, 26.45810
201.9743, 25.35608
202.4565, 24.15395
202.9386, 23.01976
203.4207, 21.95172
203.9028, 20.92896
204.3849, 19.94973
204.8670, 19.01289
205.3492, 18.11848
205.8313, 17.24117
206.3134, 16.43992
206.7955, 15.78839
207.2776, 15.28940
207.7597, 14.93006
208.2419, 14.83569
208.7240, 14.82967
209.2061, 14.73839
209.6882, 14.48734
210.1703, 14.16687
210.6524, 13.94325
211.1346, 13.86842
211.6167, 13.75928
212.0988, 13.44569
212.5809, 13.12024
213.0630, 12.98493
213.5451, 13.13355
214.0273, 13.46015
214.5094, 13.72199
214.9915, 13.84706
215.4736, 14.04165
215.9557, 14.45161
216.4378, 14.89421
216.9200, 15.15826
217.4021, 15.14230
217.8842, 14.97593
218.3663, 15.02845
218.8484, 15.49519
219.3305, 15.91301
219.8127, 16.22635
220.2948, 16.46935
220.7769, 16.66238
221.2590, 16.81454
221.7411, 16.95544
222.2232, 17.17055
222.7054, 17.40474
223.1875, 17.80265
223.6696, 18.52969
224.1517, 19.36905
224.6338, 20.02038
225.1159, 20.34980
225.5980, 20.52742
226.0802, 21.05246
226.5623, 22.25296
227.0444, 23.42216
227.5265, 24.35045
228.0086, 25.26590
228.4907, 26.44013
228.9729, 27.98561
229.4550, 29.84829
229.9371, 31.89214
230.4192, 34.10201
230.9013, 36.49609
231.3834, 39.15985
231.8656, 41.98714
232.3477, 44.90424
232.8298, 47.92698
233.3119, 50.84880
233.7940, 53.22225
234.2761, 55.15969
234.7583, 56.49158
235.2404, 57.18103
235.7225, 57.23195
236.2046, 56.56397
236.6867, 55.04290
237.1688, 53.04127
237.6510, 51.09379
238.1331, 49.16215
238.6152, 47.43180
239.0973, 45.86379
239.5794, 44.54502
240.0615, 43.70660
240.5437, 43.47179
241.0258, 43.61269
241.5079, 43.83060
241.9900, 44.10988
242.4721, 44.55476
242.9542, 45.19889
243.4364, 46.04024
243.9185, 47.19111
244.4006, 48.93446
244.8827, 50.48756
245.3648, 51.00928
245.8469, 50.61938
246.3290, 49.99097
246.8112, 49.44363
247.2933, 48.91211
247.7754, 48.17690
248.2575, 47.18476
248.7396, 46.01379
249.2217, 44.75944
249.7039, 43.41115
250.1860, 41.91730
250.6681, 40.16510
251.1502, 38.23379
251.6323, 36.39695
252.1144, 34.73710
252.5966, 33.07218
253.0787, 31.16796
253.5608, 29.17284
254.0429, 27.40717
254.5250, 26.14683
255.0071, 25.27080
255.4893, 24.28176
255.9714, 23.06322
256.4535, 21.93006
256.9356, 21.01207
257.4177, 20.25858
257.8998, 19.58690
258.3820, 18.96963
258.8641, 18.39797
259.3462, 17.83506
259.8283, 17.24437
260.3104, 16.73162
260.7925, 16.33995
261.2747, 16.02490
261.7568, 15.73373
262.2389, 15.44197
262.7210, 15.15076
263.2031, 14.86437
263.6852, 14.60964
264.1674, 14.30882
264.6495, 13.88491
265.1316, 13.43762
265.6137, 13.07620
266.0958, 12.84891
266.5779, 12.71901
267.0601, 12.60177
267.5422, 12.48390
268.0243, 12.40855
268.5064, 12.44283
268.9885, 12.48346
269.4706, 12.41970
269.9528, 12.21581
270.4349, 11.95389
270.9170, 11.79743
271.3991, 11.82548
271.8812, 11.80709
272.3633, 11.60652
272.8455, 11.43503
273.3276, 11.49412
273.8097, 11.81515
274.2918, 12.23243
274.7739, 12.49361
275.2560, 12.52355
275.7382, 12.54741
276.2202, 12.50120
276.7024, 12.49654
277.1845, 12.62041
277.6666, 12.87506
278.1487, 13.18698
278.6308, 13.47178
279.1129, 13.72536
279.5951, 13.96130
280.0772, 14.15226
280.5593, 14.35241
281.0414, 14.58963
281.5235, 14.86436
282.0056, 15.15793
282.4878, 15.44481
282.9699, 15.71233
283.4520, 16.08700
283.9341, 16.77546
284.4162, 17.35990
284.8983, 17.61404
285.3805, 17.61027
285.8626, 17.57711
286.3447, 17.69990
286.8268, 17.97329
287.3089, 18.08071
287.7910, 17.89471
288.2732, 17.69511
288.7553, 17.56505
289.2374, 17.47893
289.7195, 17.38633
290.2016, 17.26046
290.6837, 17.09646
291.1659, 16.85676
291.6480, 16.49998
292.1301, 16.11806
292.6122, 15.70325
293.0943, 15.27730
293.5764, 14.84265
294.0586, 14.39436
294.5407, 13.98936
295.0228, 13.78148
295.5049, 14.12202
295.9870, 14.23129
296.4691, 13.91144
296.9513, 13.42058
297.4334, 13.03332
297.9155, 12.83948
298.3976, 12.73731
298.8797, 12.55248
299.3618, 12.16911
299.8440, 11.93069
300.3261, 11.97218
300.8082, 12.07243
301.2903, 12.04015
301.7724, 11.84563
302.2545, 11.60226
302.7367, 11.44039
303.2188, 11.38364
303.7009, 11.33241
304.1830, 11.25475
304.6651, 11.20674
305.1472, 11.24992
305.6294, 11.36901
306.1115, 11.48001
306.5936, 11.50941
307.0757, 11.45200
307.5578, 11.40012
308.0399, 11.27479
308.5221, 11.22926
309.0042, 11.44631
309.4863, 11.81141
309.9684, 12.00156
310.4505, 11.77834
310.9326, 11.22906
311.4148, 10.97792
311.8969, 11.23172
312.3790, 11.49236
312.8611, 11.63206
313.3432, 11.70347
313.8253, 11.79481
314.3075, 11.94483
314.7896, 12.14290
315.2717, 12.36943
315.7538, 12.79407
316.2359, 12.99952
316.7180, 12.78372
317.2001, 12.40644
317.6823, 12.16662
318.1644, 12.14733
318.6465, 12.20036
319.1286, 12.10205
319.6107, 11.77186
320.0928, 11.46859
320.5750, 11.15577
321.0571, 10.89203
321.5392, 10.77267
322.0213, 10.78298
322.5034, 10.75722
322.9855, 10.50310
323.4677, 9.955964
323.9498, 9.675937
324.4319, 9.931933
324.9140, 10.16247
325.3961, 10.05205
325.8782, 9.663651
326.3604, 9.237475
326.8425, 8.929416
327.3246, 8.737671
327.8067, 8.642888
328.2888, 8.748069
328.7709, 8.819032
329.2531, 8.755421
329.7352, 8.625652
330.2173, 8.557393
330.6994, 8.615284
331.1815, 8.735946
331.6636, 8.747147
332.1458, 8.470098
332.6279, 8.303570
333.1100, 8.384230
333.5921, 8.519698
334.0742, 8.497267
334.5563, 8.265028
335.0385, 7.957387
335.5206, 7.771238
336.0027, 7.759870
336.4848, 7.743116
336.9669, 7.735346
337.4490, 7.711749
337.9312, 7.635640
338.4133, 7.518464
338.8954, 7.416718
339.3775, 7.381595
339.8596, 7.415402
340.3417, 7.489283
340.8239, 7.685407
341.3060, 7.831678
341.7881, 7.822671
342.2702, 7.718590
342.7523, 7.651397
343.2344, 7.707048
343.7166, 7.852419
344.1987, 7.925649
344.6808, 7.856689
345.1629, 7.789343
345.6450, 7.728823
346.1271, 7.679382
346.6093, 7.641378
347.0914, 7.615736
347.5735, 7.608821
348.0556, 7.636342
348.5377, 7.730286
349.0198, 7.801559
349.5020, 7.857642
349.9841, 7.889561
350.4662, 7.869292
350.9483, 7.807065
351.4304, 7.757564
351.9125, 7.786446
352.3947, 7.910211
352.8768, 8.001717
353.3589, 8.076316
353.8410, 8.104062
354.3231, 8.031836
354.8052, 7.904291
355.2874, 7.808180
355.7695, 7.802991
356.2516, 7.877325
356.7337, 7.969584
357.2158, 8.115587
357.6979, 8.228994
358.1800, 8.304395
358.6621, 8.337913
359.1443, 8.301768
359.6264, 8.186056
360.1085, 8.062297
360.5906, 8.080268
361.0727, 8.330233
361.5548, 8.484682
362.0370, 8.410543
362.5191, 8.313000
363.0012, 8.325938
363.4833, 8.455721
363.9654, 8.612123
364.4475, 8.709135
364.9297, 8.744111
365.4118, 8.761629
365.8939, 8.725139
366.3760, 8.712428
366.8581, 8.765428
367.3402, 8.863883
367.8224, 8.963251
368.3045, 9.031284
368.7866, 9.086638
369.2687, 9.197626
369.7508, 9.410478
370.2329, 9.574079
370.7151, 9.581142
371.1972, 9.545071
371.6793, 9.589059
372.1614, 9.755642
372.6435, 9.948409
373.1256, 10.03028
373.6078, 9.989813
374.0899, 10.00341
374.5720, 10.14515
375.0541, 10.32226
375.5362, 10.46550
376.0183, 10.57625
376.5005, 10.68955
376.9826, 10.85119
377.4647, 11.03748
377.9468, 11.14162
378.4289, 11.10299
378.9110, 11.10361
379.3932, 11.29549
379.8753, 11.60901
380.3574, 11.92241
380.8395, 12.20343
381.3216, 12.46309
381.8037, 12.69736
382.2859, 12.90538
382.7680, 13.14866
383.2501, 13.46386
383.7322, 13.82664
384.2143, 14.21616
384.6964, 14.66078
385.1786, 15.02290
385.6607, 15.10690
386.1428, 15.04233
386.6249, 15.18921
387.1070, 15.65568
387.5891, 16.27802
388.0713, 16.93816
388.5534, 17.62995
389.0355, 18.19791
389.5176, 18.49856
389.9997, 18.73088
390.4818, 19.11398
390.9640, 19.65216
391.4461, 20.15438
391.9282, 20.41952
392.4103, 20.55542
392.8924, 21.09873
393.3745, 22.43863
393.8567, 23.72324
394.3388, 24.55622
394.8209, 25.10501
395.3030, 25.66012
395.7851, 26.32814
396.2672, 27.09648
396.7494, 27.97825
397.2315, 29.10607
397.7136, 30.00794
398.1957, 30.48612
398.6778, 30.85716
399.1599, 31.39354
399.6420, 32.11208
400.1241, 32.86654
400.6063, 33.54131
401.0884, 34.14085
401.5705, 34.57735
402.0526, 34.76226
402.5347, 34.90910
403.0168, 35.11292
403.4990, 35.31620
403.9811, 35.43119
404.4632, 35.41671
404.9453, 35.27154
405.4274, 34.97366
405.9095, 34.34845
406.3917, 33.87145
406.8738, 33.63047
407.3559, 33.47382
407.8380, 33.32641
408.3201, 33.15928
408.8022, 32.93961
409.2844, 32.60459
409.7665, 32.13990
410.2486, 31.81357
410.7307, 31.71148
411.2128, 31.66659
411.6949, 31.69336
412.1771, 31.73110
412.6592, 31.67142
413.1413, 31.44204
413.6234, 31.15072
414.1055, 31.05694
414.5876, 31.25048
415.0698, 31.36617
415.5519, 31.15177
416.0340, 30.94152
416.5161, 30.98947
416.9982, 31.31763
417.4803, 31.72441
417.9625, 32.03891
418.4446, 32.27929
418.9267, 32.59190
419.4088, 33.03170
419.8909, 33.45920
420.3730, 33.70901
420.8552, 33.88374
421.3373, 34.20269
421.8194, 34.80642
422.3015, 35.51501
422.7836, 36.13737
423.2657, 36.67229
423.7479, 37.10901
424.2300, 37.31930
424.7121, 37.54472
425.1942, 38.17619
425.6763, 39.28027
426.1584, 40.41605
426.6406, 41.46932
427.1227, 42.41294
427.6048, 43.14087
428.0869, 43.62593
428.5690, 44.08962
429.0511, 44.69390
429.5333, 45.46183
430.0154, 46.42309
430.4975, 47.66471
430.9796, 49.02024
431.4617, 50.55198
431.9438, 52.12468
432.4260, 53.34785
432.9081, 53.98186
433.3902, 54.35133
433.8723, 55.23431
434.3544, 57.07043
434.8365, 58.70381
435.3187, 60.00050
435.8008, 61.14564
436.2829, 62.26431
436.7650, 63.38100
437.2471, 64.47743
437.7292, 65.54341
438.2114, 66.58521
438.6935, 67.50091
439.1756, 68.39260
439.6577, 69.04097
440.1398, 69.27737
440.6219, 69.27505
441.1040, 69.25484
441.5862, 69.31017
442.0683, 69.38088
442.5504, 69.40297
443.0325, 69.47688
443.5146, 69.18914
443.9967, 68.16228
444.4789, 67.05145
444.9610, 66.27946
445.4431, 65.76337
445.9252, 65.08383
446.4073, 63.93675
446.8894, 62.39579
447.3716, 60.70326
447.8537, 58.77732
448.3358, 56.90712
448.8179, 55.20089
449.3000, 53.61568
449.7821, 52.14668
450.2643, 50.82322
450.7464, 49.46682
451.2285, 47.82985
451.7106, 45.99216
452.1927, 44.43018
452.6748, 43.31343
453.1570, 42.35099
453.6391, 41.27269
454.1212, 40.10232
454.6033, 38.93083
455.0854, 37.81240
455.5675, 36.68363
456.0497, 35.44140
456.5318, 34.11554
457.0139, 32.85840
457.4960, 31.75203
457.9781, 30.75825
458.4602, 29.76172
458.9424, 28.67402
459.4245, 27.75868
459.9066, 27.18264
460.3887, 26.73717
460.8708, 26.25340
461.3529, 25.68681
461.8351, 24.99439
462.3172, 24.09575
462.7993, 22.98200
463.2814, 22.11083
463.7635, 21.63122
464.2456, 21.20430
464.7278, 20.79814
465.2099, 20.37202
465.6920, 19.84604
466.1741, 19.19236
466.6562, 18.53711
467.1383, 18.12080
467.6205, 18.05231
468.1026, 17.87258
468.5847, 17.50281
469.0668, 17.07450
469.5489, 16.57714
470.0310, 16.06457
470.5132, 15.67572
470.9953, 15.55655
471.4774, 15.55910
471.9595, 15.24299
472.4416, 14.48307
472.9237, 13.87335
473.4059, 13.75418
473.8880, 13.80918
474.3701, 13.79795
474.8522, 13.69806
475.3343, 13.46999
475.8164, 12.95149
476.2986, 12.29914
476.7807, 11.92591
477.2628, 11.91422
477.7449, 11.99489
478.2270, 12.01823
478.7091, 11.96868
479.1913, 11.80574
479.6734, 11.36999
480.1555, 10.99555
480.6376, 10.90771
481.1197, 11.00061
481.6018, 11.05933
482.0839, 11.01512
482.5660, 10.90836
483.0482, 10.79300
483.5303, 10.67290
484.0124, 10.52497
484.4945, 10.32940
484.9766, 10.12687
485.4587, 9.916566
485.9409, 9.716681
486.4230, 9.555888
486.9051, 9.447543
487.3872, 9.400204
487.8693, 9.457916
488.3514, 9.771888
488.8336, 9.900283
489.3157, 9.657434
489.7978, 9.370379
490.2799, 9.292203
490.7620, 9.401351
491.2441, 9.478299
491.7263, 9.321134
492.2084, 8.987761
492.6905, 8.763251
493.1726, 8.684175
493.6547, 8.627374
494.1368, 8.504926
494.6190, 8.398433
495.1011, 8.444325
495.5832, 8.696552
496.0653, 8.858652
496.5474, 8.555833
497.0295, 7.978902
497.5117, 7.761087
497.9938, 8.063624
498.4759, 8.437119
498.9580, 8.509756
499.4401, 8.331489
499.9222, 8.201174
500.4044, 8.196710
500.8865, 8.181586
501.3686, 8.072947
501.8507, 7.904009
502.3328, 7.733462
502.8149, 7.580568
503.2971, 7.453473
503.7792, 7.362388
504.2613, 7.305122
504.7434, 7.299124
505.2255, 7.390475
505.7076, 7.481822
506.1898, 7.558980
506.6719, 7.596997
507.1540, 7.544751
507.6361, 7.372070
508.1182, 7.131269
508.6003, 6.928365
509.0825, 6.727170
509.5646, 6.661813
510.0467, 6.885463
510.5288, 7.128295
511.0109, 7.279868
511.4930, 7.324618
511.9752, 7.255540
512.4573, 6.995275
512.9394, 6.664225
513.4215, 6.582175
513.9036, 6.798579
514.3857, 6.944542
514.8679, 6.822252
515.3500, 6.599192
515.8321, 6.503053
516.3142, 6.553078
516.7963, 6.592601
517.2784, 6.520980
517.7606, 6.414725
518.2427, 6.388924
518.7248, 6.450632
519.2069, 6.529953
519.6890, 6.593844
520.1711, 6.633069
520.6533, 6.595255
521.1354, 6.292845
521.6175, 6.172438
522.0996, 6.516311
522.5817, 6.956483
523.0638, 7.089067
523.5460, 6.872648
524.0281, 6.567478
524.5102, 6.421234
524.9923, 6.429232
525.4744, 6.414515
525.9565, 6.349533
526.4387, 6.297828
526.9208, 6.288430
527.4029, 6.289370
527.8850, 6.245084
528.3671, 6.147135
528.8492, 6.087249
529.3314, 6.217299
529.8135, 6.505956
530.2956, 6.620705
530.7777, 6.458648
531.2598, 6.297426
531.7419, 6.340482
532.2241, 6.492159
532.7062, 6.605182
533.1883, 6.646032
533.6704, 6.658445
534.1525, 6.649195
534.6346, 6.636091
535.1168, 6.689101
535.5989, 6.833908
536.0810, 6.929805
536.5631, 6.791062
537.0452, 6.402555
537.5273, 6.267723
538.0095, 6.578264
538.4916, 6.903393
538.9737, 7.074258
539.4558, 7.163552
539.9379, 7.323640
540.4200, 7.593401
540.9022, 7.819931
541.3843, 7.745722
541.8664, 7.274622
542.3485, 7.049634
542.8306, 7.335282
543.3127, 7.590219
543.7948, 7.604889
544.2769, 7.492123
544.7590, 7.421349
545.2411, 7.451158
545.7233, 7.559063
546.2054, 7.709781
546.6875, 7.907088
547.1696, 8.233087
547.6517, 8.802179
548.1339, 9.306864
548.6160, 9.411667
549.0981, 9.236614
549.5802, 9.099849
550.0623, 9.057290
550.5444, 9.071105
551.0266, 9.117068
551.5087, 9.201070
551.9908, 9.334532
552.4729, 9.520604
552.9550, 9.771025
553.4371, 10.13077
553.9193, 10.65936
554.4014, 10.92370
554.8835, 10.60208
555.3656, 10.41110
555.8477, 10.69737
556.3298, 11.25105
556.8120, 11.73791
557.2941, 12.03966
557.7762, 12.29543
558.2583, 12.74091
558.7404, 13.41409
559.2225, 13.93023
559.7047, 14.14905
560.1868, 14.37298
560.6689, 14.73790
561.1510, 15.20311
561.6331, 15.69884
562.1152, 16.19339
562.5974, 16.74029
563.0795, 17.39756
563.5616, 18.14953
564.0437, 18.94392
564.5258, 19.77799
565.0079, 20.62913
565.4901, 21.43917
565.9722, 22.22872
566.4543, 23.23691
566.9364, 24.59336
567.4185, 26.01645
567.9006, 27.33731
568.3828, 28.68188
568.8649, 30.25855
569.3470, 32.10322
569.8291, 34.10830
570.3112, 36.13662
570.7933, 38.19763
571.2755, 40.24789
571.7576, 42.24110
572.2397, 44.29501
572.7218, 46.61705
573.2039, 48.93144
573.6860, 50.98485
574.1682, 52.71593
574.6503, 54.06485
575.1324, 55.01609
575.6145, 55.54760
576.0966, 55.51422
576.5787, 54.84291
577.0609, 53.86612
577.5430, 52.84951
578.0251, 51.62640
578.5072, 49.79443
578.9893, 46.94139
579.4714, 44.39245
579.9536, 42.71313
580.4357, 41.58467
580.9178, 40.58148
581.3999, 39.67580
581.8820, 39.10736
582.3641, 39.05914
582.8463, 39.50757
583.3284, 40.30650
583.8105, 41.43507
584.2926, 42.99311
584.7747, 45.12137
585.2568, 47.55984
585.7390, 50.08448
586.2211, 52.71266
586.7032, 55.65942
587.1853, 59.18726
587.6674, 63.06596
588.1495, 66.65089
588.6317, 69.93391
589.1138, 73.05211
