##NAMES=Troilite
##RRUFFID=R070242
##IDEAL CHEMISTRY=Fe^2+^S^2-^
##LOCALITY=Union Mine (Salt Lake-California Mine), Low Divide District, Del Norte County, California, USA
##OWNER=RRUFF
##SOURCE=Michael Scott
##DESCRIPTION=Fine grained massive, brownish-gray with metallic luster
##STATUS=The identification of this mineral has been confirmed by X-ray diffraction.
##URL=rruff.info/R070242
167.5002, 3950.539
167.9823, 3989.161
168.4644, 4015.676
168.9465, 4028.086
169.4286, 4035.243
169.9107, 4042.716
170.3929, 4049.619
170.8750, 4054.274
171.3571, 4050.783
171.8392, 4046.724
172.3213, 4052.198
172.8034, 4071.188
173.2856, 4090.534
173.7677, 4095.149
174.2498, 4088.935
174.7319, 4085.211
175.2140, 4092.088
175.6961, 4106.481
176.1783, 4125.504
176.6604, 4152.125
177.1425, 4176.535
177.6246, 4184.158
178.1067, 4176.858
178.5888, 4167.206
179.0710, 4161.796
179.5531, 4160.777
180.0352, 4165.402
180.5173, 4178.350
180.9994, 4194.596
181.4815, 4205.830
181.9637, 4212.238
182.4458, 4216.648
182.9279, 4220.253
183.4100, 4223.584
183.8921, 4228.579
184.3742, 4235.194
184.8564, 4244.102
185.3385, 4258.613
185.8206, 4279.399
186.3027, 4299.130
186.7848, 4309.007
187.2669, 4310.236
187.7491, 4312.458
188.2312, 4320.183
188.7133, 4331.529
189.1954, 4338.345
189.6775, 4339.422
190.1596, 4341.226
190.6418, 4356.796
191.1239, 4385.479
191.6060, 4404.228
192.0881, 4392.696
192.5702, 4356.785
193.0524, 4352.271
193.5345, 4385.067
194.0166, 4433.762
194.4987, 4469.784
194.9808, 4493.250
195.4629, 4502.209
195.9451, 4483.952
196.4272, 4439.255
196.9093, 4427.922
197.3914, 4459.916
197.8735, 4512.559
198.3556, 4542.712
198.8378, 4547.455
199.3199, 4547.893
199.8020, 4557.425
200.2841, 4577.290
200.7662, 4586.131
201.2483, 4581.224
201.7305, 4566.001
202.2126, 4545.693
202.6947, 4517.310
203.1768, 4495.001
203.6589, 4489.528
204.1410, 4503.469
204.6232, 4517.430
205.1053, 4532.811
205.5874, 4545.785
206.0695, 4538.839
206.5516, 4503.065
207.0337, 4470.770
207.5159, 4466.575
207.9980, 4496.542
208.4801, 4527.508
208.9622, 4560.604
209.4443, 4591.528
209.9264, 4594.877
210.4086, 4559.563
210.8907, 4518.828
211.3728, 4499.458
211.8549, 4507.148
212.3370, 4515.750
212.8191, 4519.217
213.3013, 4519.452
213.7834, 4536.188
214.2655, 4579.627
214.7476, 4623.264
215.2297, 4642.283
215.7118, 4628.534
216.1940, 4612.531
216.6761, 4596.422
217.1582, 4580.688
217.6403, 4581.659
218.1224, 4610.568
218.6045, 4641.161
219.0867, 4644.462
219.5688, 4604.183
220.0509, 4575.400
220.5330, 4572.932
221.0151, 4597.408
221.4972, 4615.795
221.9794, 4626.385
222.4615, 4632.984
222.9436, 4638.469
223.4257, 4638.648
223.9078, 4647.340
224.3899, 4673.500
224.8721, 4720.752
225.3542, 4740.800
225.8363, 4722.039
226.3184, 4687.287
226.8005, 4661.402
227.2827, 4641.988
227.7648, 4637.177
228.2469, 4655.078
228.7290, 4701.208
229.2111, 4724.924
229.6932, 4712.731
230.1754, 4688.794
230.6575, 4686.932
231.1396, 4724.445
231.6217, 4753.114
232.1038, 4755.451
232.5859, 4723.313
233.0681, 4709.454
233.5502, 4721.208
234.0323, 4745.917
234.5144, 4766.908
234.9965, 4787.500
235.4786, 4797.995
235.9608, 4790.182
236.4429, 4755.120
236.9250, 4745.844
237.4071, 4779.191
237.8892, 4827.959
238.3713, 4846.552
238.8535, 4813.923
239.3356, 4786.442
239.8177, 4784.614
240.2998, 4818.023
240.7819, 4840.088
241.2640, 4847.477
241.7462, 4845.823
242.2283, 4844.852
242.7104, 4845.978
243.1925, 4845.394
243.6746, 4840.789
244.1567, 4829.255
244.6389, 4823.526
245.1210, 4823.706
245.6031, 4829.568
246.0852, 4840.981
246.5673, 4858.893
247.0494, 4880.931
247.5316, 4909.461
248.0137, 4952.148
248.4958, 4974.273
248.9779, 4968.127
249.4600, 4945.585
249.9421, 4928.636
250.4243, 4919.813
250.9064, 4911.766
251.3885, 4900.456
251.8706, 4881.822
252.3527, 4873.959
252.8348, 4879.922
253.3170, 4894.701
253.7991, 4909.781
254.2812, 4926.842
254.7633, 4940.682
255.2454, 4948.865
255.7275, 4949.872
256.2097, 4950.284
256.6918, 4949.011
257.1739, 4947.889
257.6560, 4950.667
258.1381, 4958.901
258.6202, 4967.833
259.1024, 4975.031
259.5845, 4978.785
260.0666, 4988.622
260.5487, 5009.007
261.0308, 5032.052
261.5129, 5043.326
261.9951, 5039.274
262.4772, 5031.617
262.9593, 5022.733
263.4414, 5010.014
263.9235, 5009.178
264.4056, 5024.058
264.8878, 5047.288
265.3699, 5065.327
265.8520, 5075.234
266.3341, 5088.838
266.8162, 5112.979
267.2983, 5150.141
267.7805, 5179.983
268.2626, 5200.039
268.7447, 5215.219
269.2268, 5235.707
269.7089, 5264.815
270.1910, 5287.125
270.6732, 5291.880
271.1553, 5275.496
271.6374, 5279.048
272.1195, 5308.400
272.6016, 5349.132
273.0837, 5379.326
273.5659, 5399.398
274.0480, 5407.638
274.5301, 5396.469
275.0122, 5364.601
275.4943, 5356.006
275.9764, 5376.884
276.4586, 5409.373
276.9407, 5426.323
277.4228, 5425.850
277.9049, 5424.660
278.3870, 5430.529
278.8691, 5442.900
279.3513, 5448.831
279.8334, 5447.799
280.3155, 5441.664
280.7976, 5432.235
281.2798, 5419.542
281.7619, 5404.877
282.2440, 5387.658
282.7261, 5368.449
283.2082, 5352.087
283.6903, 5339.171
284.1725, 5326.891
284.6546, 5308.918
285.1367, 5285.874
285.6188, 5270.492
286.1009, 5272.823
286.5830, 5287.020
287.0652, 5285.119
287.5473, 5264.893
288.0294, 5241.987
288.5115, 5233.215
288.9936, 5237.542
289.4757, 5246.741
289.9579, 5261.318
290.4400, 5278.003
290.9221, 5287.701
291.4042, 5290.123
291.8863, 5289.134
292.3684, 5286.124
292.8506, 5282.222
293.3327, 5282.299
293.8148, 5288.882
294.2969, 5299.794
294.7790, 5315.813
295.2611, 5336.986
295.7433, 5348.289
296.2254, 5323.815
296.7075, 5277.583
297.1896, 5250.930
297.6717, 5265.405
298.1538, 5296.451
298.6360, 5307.818
299.1181, 5300.687
299.6002, 5287.817
300.0823, 5273.736
300.5644, 5261.373
301.0465, 5256.504
301.5287, 5262.761
302.0108, 5274.431
302.4929, 5286.883
302.9750, 5299.858
303.4571, 5311.160
303.9392, 5321.787
304.4214, 5329.224
304.9035, 5329.146
305.3856, 5316.209
305.8677, 5302.456
306.3498, 5301.113
306.8319, 5308.745
307.3141, 5313.175
307.7962, 5301.530
308.2783, 5285.826
308.7604, 5279.085
309.2425, 5288.638
309.7246, 5297.392
310.2068, 5287.364
310.6889, 5267.127
311.1710, 5258.757
311.6531, 5287.372
312.1352, 5323.102
312.6173, 5343.927
313.0995, 5344.052
313.5816, 5335.231
314.0637, 5314.687
314.5458, 5289.442
315.0279, 5272.528
315.5100, 5276.207
315.9922, 5284.051
316.4743, 5286.885
316.9564, 5282.083
317.4385, 5278.771
317.9206, 5281.953
318.4027, 5287.974
318.8849, 5291.728
319.3670, 5291.859
319.8491, 5289.479
320.3312, 5281.675
320.8133, 5265.528
321.2954, 5260.858
321.7776, 5282.953
322.2597, 5313.936
322.7418, 5334.749
323.2239, 5336.683
323.7060, 5334.164
324.1881, 5327.502
324.6703, 5315.873
325.1524, 5311.666
325.6345, 5323.914
326.1166, 5339.631
326.5987, 5348.471
327.0808, 5345.158
327.5630, 5341.080
328.0451, 5337.010
328.5272, 5332.988
329.0093, 5329.699
329.4914, 5325.298
329.9735, 5323.351
330.4557, 5327.219
330.9378, 5346.041
331.4199, 5354.001
331.9020, 5342.491
332.3841, 5317.502
332.8662, 5310.226
333.3484, 5332.377
333.8305, 5354.578
334.3126, 5356.972
334.7947, 5326.087
335.2768, 5319.051
335.7589, 5348.706
336.2411, 5398.226
336.7232, 5425.277
337.2053, 5424.704
337.6874, 5416.062
338.1695, 5406.697
338.6516, 5396.278
339.1338, 5388.404
339.6159, 5382.746
340.0980, 5380.386
340.5801, 5384.019
341.0622, 5394.179
341.5443, 5406.079
342.0265, 5421.549
342.5086, 5438.961
342.9907, 5443.604
343.4728, 5434.559
343.9549, 5416.152
344.4370, 5382.584
344.9192, 5337.600
345.4013, 5317.614
345.8834, 5348.672
346.3655, 5410.531
346.8476, 5450.510
347.3297, 5468.216
347.8119, 5473.145
348.2940, 5470.497
348.7761, 5461.464
349.2582, 5448.999
349.7403, 5429.615
350.2225, 5411.321
350.7046, 5410.483
351.1867, 5424.528
351.6688, 5433.659
352.1509, 5412.537
352.6331, 5380.230
353.1152, 5367.854
353.5973, 5391.339
354.0794, 5419.326
354.5615, 5418.814
355.0436, 5398.694
355.5258, 5386.021
356.0079, 5404.853
356.4900, 5432.539
356.9721, 5449.100
357.4542, 5449.445
357.9363, 5445.540
358.4185, 5440.956
358.9006, 5436.986
359.3827, 5435.872
359.8648, 5441.953
360.3469, 5448.366
360.8290, 5449.933
361.3112, 5444.935
361.7933, 5444.785
362.2754, 5459.542
362.7575, 5478.597
363.2396, 5490.467
363.7217, 5485.157
364.2039, 5479.659
364.6860, 5477.050
365.1681, 5477.470
365.6502, 5482.710
366.1323, 5500.875
366.6144, 5519.168
367.0966, 5528.725
367.5787, 5517.790
368.0608, 5512.151
368.5429, 5516.371
369.0250, 5528.108
369.5071, 5535.490
369.9893, 5538.832
370.4714, 5537.490
370.9535, 5529.812
371.4356, 5509.465
371.9177, 5497.196
372.3998, 5493.276
372.8820, 5497.599
373.3641, 5514.069
373.8462, 5552.405
374.3283, 5577.281
374.8104, 5566.435
375.2925, 5514.367
375.7747, 5494.133
376.2568, 5514.181
376.7389, 5548.958
377.2210, 5562.679
377.7031, 5553.743
378.1852, 5546.867
378.6674, 5550.291
379.1495, 5561.780
379.6316, 5574.295
380.1137, 5588.445
380.5958, 5597.147
381.0779, 5586.371
381.5601, 5561.556
382.0422, 5551.583
382.5243, 5567.776
383.0064, 5595.291
383.4885, 5612.202
383.9706, 5618.978
384.4528, 5617.971
384.9349, 5605.058
385.4170, 5586.879
385.8991, 5573.242
386.3812, 5564.710
386.8633, 5563.377
387.3455, 5580.488
387.8276, 5606.700
388.3097, 5620.816
388.7918, 5599.359
389.2739, 5569.487
389.7560, 5551.730
390.2382, 5547.973
390.7203, 5552.670
391.2024, 5570.718
391.6845, 5592.861
392.1666, 5608.645
392.6487, 5605.683
393.1309, 5603.947
393.6130, 5617.463
394.0951, 5643.920
394.5772, 5655.241
395.0593, 5624.923
395.5414, 5589.477
396.0236, 5572.047
396.5057, 5597.808
396.9878, 5615.582
397.4699, 5612.833
397.9520, 5597.651
398.4341, 5595.760
398.9163, 5623.386
399.3984, 5647.482
399.8805, 5655.359
400.3626, 5641.029
400.8447, 5627.711
401.3268, 5613.150
401.8090, 5601.294
402.2911, 5598.952
402.7732, 5610.777
403.2553, 5619.687
403.7374, 5618.832
404.2195, 5609.225
404.7017, 5611.520
405.1838, 5629.871
405.6659, 5648.969
406.1480, 5651.646
406.6301, 5637.565
407.1122, 5632.272
407.5944, 5643.731
408.0765, 5663.133
408.5586, 5668.111
409.0407, 5658.950
409.5228, 5648.234
410.0049, 5645.330
410.4871, 5647.396
410.9692, 5647.052
411.4513, 5643.927
411.9334, 5636.786
412.4155, 5616.436
412.8976, 5589.541
413.3798, 5575.792
413.8619, 5594.947
414.3440, 5625.118
414.8261, 5646.750
415.3082, 5659.276
415.7903, 5661.178
416.2725, 5639.778
416.7546, 5611.703
417.2367, 5595.452
417.7188, 5603.560
418.2009, 5617.712
418.6830, 5634.804
419.1652, 5652.566
419.6473, 5661.987
420.1294, 5644.087
420.6115, 5628.928
421.0937, 5636.331
421.5758, 5688.092
422.0579, 5720.543
422.5400, 5710.665
423.0221, 5679.735
423.5042, 5662.549
423.9864, 5676.593
424.4685, 5686.098
424.9506, 5678.816
425.4327, 5652.260
425.9148, 5643.896
426.3969, 5665.198
426.8791, 5691.604
427.3612, 5698.912
427.8433, 5676.777
428.3254, 5669.841
428.8075, 5692.011
429.2896, 5730.594
429.7718, 5738.423
430.2539, 5710.278
430.7360, 5679.554
431.2181, 5664.996
431.7002, 5665.907
432.1823, 5673.001
432.6645, 5686.610
433.1466, 5703.836
433.6287, 5726.266
434.1108, 5750.985
434.5929, 5762.693
435.0750, 5744.595
435.5572, 5713.915
436.0393, 5701.477
436.5214, 5706.675
437.0035, 5716.587
437.4856, 5720.352
437.9677, 5722.711
438.4499, 5731.604
438.9320, 5755.389
439.4141, 5775.351
439.8962, 5774.221
440.3783, 5758.473
440.8604, 5744.768
441.3426, 5743.547
441.8247, 5744.268
442.3068, 5739.688
442.7889, 5726.906
443.2710, 5719.060
443.7531, 5728.970
444.2353, 5741.968
444.7174, 5742.000
445.1995, 5696.551
445.6816, 5671.172
446.1637, 5687.166
446.6458, 5739.521
447.1280, 5776.613
447.6101, 5790.916
448.0922, 5798.295
448.5743, 5808.421
449.0564, 5827.588
449.5385, 5830.665
450.0207, 5808.474
450.5028, 5777.732
450.9849, 5773.428
451.4670, 5801.193
451.9491, 5826.682
452.4312, 5832.823
452.9134, 5823.612
453.3955, 5834.760
453.8776, 5869.092
454.3597, 5903.259
454.8418, 5913.322
455.3239, 5903.243
455.8061, 5887.565
456.2882, 5865.476
456.7703, 5845.415
457.2524, 5839.714
457.7345, 5846.657
458.2166, 5859.310
458.6988, 5875.966
459.1809, 5894.938
459.6630, 5917.047
460.1451, 5944.198
460.6272, 5962.326
461.1093, 5949.459
461.5915, 5926.354
462.0736, 5919.116
462.5557, 5952.819
463.0378, 5987.700
463.5199, 6009.310
464.0020, 6018.664
464.4842, 6026.010
464.9663, 6027.432
465.4484, 6031.719
465.9305, 6044.647
466.4126, 6080.297
466.8947, 6099.919
467.3769, 6093.535
467.8590, 6075.493
468.3411, 6070.406
468.8232, 6087.895
469.3053, 6099.135
469.7874, 6095.471
470.2696, 6077.677
470.7517, 6057.641
471.2338, 6032.502
471.7159, 6013.976
472.1980, 6015.811
472.6801, 6037.527
473.1623, 6058.421
473.6444, 6078.858
474.1265, 6091.118
474.6086, 6074.283
475.0907, 6032.976
475.5728, 5997.099
476.0550, 5986.042
476.5371, 5989.218
477.0192, 5991.407
477.5013, 5992.128
477.9834, 5990.324
478.4655, 5976.927
478.9477, 5963.070
479.4298, 5964.838
479.9119, 6006.863
480.3940, 6040.491
480.8761, 6024.648
481.3582, 5978.103
481.8404, 5955.060
482.3225, 6006.267
482.8046, 6057.705
483.2867, 6071.504
483.7688, 6029.812
484.2509, 6001.400
484.7331, 6002.060
485.2152, 6013.471
485.6973, 6019.203
486.1794, 6019.354
486.6615, 6013.153
487.1436, 5997.529
487.6258, 5975.303
488.1079, 5959.430
488.5900, 5950.228
489.0721, 5946.862
489.5542, 5950.291
490.0363, 5960.574
490.5185, 5971.665
491.0006, 5984.495
491.4827, 5994.189
491.9648, 5990.711
492.4470, 5976.771
492.9291, 5966.910
493.4112, 5964.556
493.8933, 5970.471
494.3754, 5993.629
494.8575, 6030.484
495.3397, 6057.322
495.8218, 6048.582
496.3039, 6026.782
496.7860, 6017.572
497.2681, 6027.665
497.7502, 6038.280
498.2324, 6038.494
498.7145, 6033.499
499.1966, 6030.357
499.6787, 6029.722
500.1608, 6032.708
500.6429, 6042.388
501.1251, 6058.030
501.6072, 6068.402
502.0893, 6072.596
502.5714, 6071.607
503.0535, 6063.637
503.5356, 6037.460
504.0178, 6033.352
504.4999, 6063.730
504.9820, 6104.909
505.4641, 6118.778
505.9462, 6099.777
506.4283, 6082.566
506.9105, 6078.630
507.3926, 6083.759
507.8747, 6079.008
508.3568, 6063.671
508.8389, 6051.310
509.3210, 6051.727
509.8032, 6062.771
510.2853, 6082.105
510.7674, 6112.815
511.2495, 6137.246
511.7316, 6132.587
512.2137, 6108.445
512.6959, 6084.562
513.1780, 6059.150
513.6601, 6044.883
514.1422, 6060.113
514.6243, 6099.323
515.1064, 6125.054
515.5886, 6104.056
516.0707, 6078.077
516.5528, 6074.896
517.0349, 6115.725
517.5170, 6142.185
517.9991, 6136.879
518.4813, 6118.729
518.9634, 6112.250
519.4455, 6129.902
519.9276, 6136.935
520.4097, 6119.647
520.8918, 6084.431
521.3740, 6076.187
521.8561, 6103.575
522.3382, 6129.255
522.8203, 6122.276
523.3024, 6085.522
523.7845, 6071.017
524.2667, 6085.481
524.7488, 6107.306
525.2309, 6109.189
525.7130, 6096.016
526.1951, 6084.545
526.6772, 6079.002
527.1594, 6079.410
527.6415, 6089.328
528.1236, 6106.487
528.6057, 6121.167
529.0878, 6125.999
529.5699, 6127.281
530.0521, 6129.678
530.5342, 6134.274
531.0163, 6137.914
531.4984, 6137.895
531.9805, 6137.169
532.4626, 6138.879
532.9448, 6148.994
533.4269, 6154.772
533.9090, 6152.464
534.3911, 6144.533
534.8732, 6141.109
535.3553, 6145.152
535.8375, 6147.979
536.3196, 6143.609
536.8017, 6131.146
537.2838, 6131.030
537.7659, 6146.051
538.2480, 6164.220
538.7302, 6170.890
539.2123, 6168.125
539.6944, 6171.604
540.1765, 6189.424
540.6586, 6206.317
541.1407, 6190.961
541.6229, 6153.805
542.1050, 6132.086
542.5871, 6163.662
543.0692, 6207.914
543.5513, 6229.383
544.0334, 6226.023
544.5156, 6213.041
544.9977, 6178.276
545.4798, 6147.880
545.9619, 6144.525
546.4440, 6203.051
546.9261, 6243.149
547.4083, 6244.682
547.8904, 6222.633
548.3725, 6203.021
548.8546, 6180.581
549.3367, 6169.130
549.8188, 6173.751
550.3010, 6193.318
550.7831, 6218.455
551.2652, 6254.009
551.7473, 6278.986
552.2294, 6268.300
552.7115, 6227.140
553.1937, 6210.895
553.6758, 6227.400
554.1579, 6254.492
554.6400, 6270.225
555.1221, 6274.850
555.6042, 6267.997
556.0864, 6236.567
556.5685, 6206.717
557.0506, 6210.136
557.5327, 6238.483
558.0148, 6260.774
558.4969, 6257.973
558.9791, 6247.417
559.4612, 6238.756
559.9433, 6233.140
560.4254, 6228.992
560.9075, 6224.010
561.3896, 6221.630
561.8718, 6224.718
562.3539, 6235.607
562.8360, 6248.818
563.3181, 6268.166
563.8002, 6287.477
564.2823, 6289.642
564.7645, 6270.807
565.2466, 6252.126
565.7287, 6243.021
566.2108, 6241.058
566.6929, 6230.923
567.1750, 6212.004
567.6572, 6200.673
568.1393, 6216.056
568.6214, 6248.164
569.1035, 6278.063
569.5856, 6304.011
570.0677, 6323.579
570.5499, 6332.965
571.0320, 6335.259
571.5141, 6335.463
571.9962, 6335.335
572.4783, 6333.542
572.9604, 6328.068
573.4426, 6319.924
573.9247, 6314.145
574.4068, 6312.996
574.8889, 6313.135
575.3710, 6313.582
575.8531, 6314.544
576.3353, 6314.292
576.8174, 6311.167
577.2995, 6309.288
577.7816, 6312.932
578.2637, 6322.480
578.7458, 6334.246
579.2280, 6349.167
579.7101, 6363.387
580.1922, 6369.816
580.6743, 6369.160
581.1564, 6365.401
581.6385, 6357.449
582.1207, 6349.001
582.6028, 6343.979
583.0849, 6342.577
583.5670, 6345.866
584.0491, 6361.771
584.5313, 6377.975
585.0134, 6381.615
585.4955, 6362.813
585.9776, 6357.619
586.4597, 6392.145
586.9418, 6437.914
587.4240, 6461.858
587.9061, 6447.714
588.3882, 6436.048
588.8703, 6431.433
589.3524, 6431.994
589.8345, 6432.589
590.3167, 6433.379
590.7988, 6433.503
591.2809, 6431.657
591.7630, 6428.700
592.2451, 6429.770
592.7272, 6434.997
593.2094, 6441.073
593.6915, 6445.060
594.1736, 6447.976
594.6557, 6451.820
595.1378, 6456.944
595.6199, 6462.575
596.1021, 6469.700
596.5842, 6476.532
597.0663, 6480.538
597.5485, 6479.473
598.0306, 6476.869
598.5127, 6467.820
598.9948, 6456.538
599.4769, 6461.702
599.9590, 6509.167
600.4412, 6543.098
600.9233, 6541.412
601.4054, 6501.361
601.8875, 6467.681
602.3696, 6438.544
602.8517, 6420.969
603.3339, 6425.732
603.8160, 6451.018
604.2981, 6474.418
604.7802, 6494.052
605.2623, 6508.490
605.7444, 6513.033
606.2266, 6510.518
606.7087, 6508.306
607.1908, 6508.467
607.6729, 6510.646
608.1550, 6516.167
608.6371, 6523.750
609.1193, 6529.414
609.6014, 6530.300
610.0835, 6529.921
610.5656, 6530.975
611.0477, 6534.526
611.5298, 6531.421
612.0120, 6509.555
612.4941, 6492.773
612.9762, 6500.389
613.4583, 6543.356
613.9404, 6570.188
614.4225, 6575.778
614.9047, 6569.909
615.3868, 6560.933
615.8689, 6549.985
616.3510, 6555.970
616.8331, 6596.389
617.3152, 6640.802
617.7974, 6632.705
618.2795, 6584.821
618.7616, 6546.327
619.2437, 6550.626
619.7258, 6569.961
620.2079, 6586.646
620.6901, 6599.450
621.1722, 6608.195
621.6543, 6607.660
622.1364, 6606.676
622.6185, 6611.154
623.1006, 6623.778
623.5828, 6637.167
624.0649, 6655.025
624.5470, 6670.247
625.0291, 6671.201
625.5112, 6653.455
625.9933, 6645.998
626.4755, 6656.393
626.9576, 6676.731
627.4397, 6694.052
627.9218, 6707.817
628.4039, 6713.912
628.8860, 6704.765
629.3682, 6689.651
629.8503, 6680.167
630.3324, 6676.072
630.8145, 6675.433
631.2966, 6679.589
631.7787, 6685.098
632.2609, 6688.968
632.7430, 6689.624
633.2251, 6693.419
633.7072, 6710.826
634.1893, 6726.034
634.6714, 6724.424
635.1536, 6692.694
635.6357, 6673.543
636.1178, 6671.605
636.5999, 6682.113
637.0820, 6698.854
637.5641, 6722.050
638.0463, 6744.638
638.5284, 6766.225
639.0105, 6784.344
639.4926, 6794.730
639.9747, 6797.593
640.4568, 6794.087
640.9390, 6774.912
641.4211, 6756.210
641.9032, 6757.291
642.3853, 6779.423
642.8674, 6795.315
643.3495, 6790.310
643.8317, 6777.738
644.3138, 6765.477
644.7959, 6745.849
645.2780, 6744.860
645.7601, 6774.336
646.2422, 6812.021
646.7244, 6831.478
647.2065, 6829.453
647.6886, 6824.501
648.1707, 6818.329
648.6528, 6812.963
649.1349, 6813.728
649.6171, 6819.761
650.0992, 6825.000
650.5813, 6832.447
651.0634, 6833.934
651.5455, 6811.678
652.0276, 6770.810
652.5098, 6739.981
652.9919, 6738.382
653.4740, 6748.477
653.9561, 6761.613
654.4382, 6778.003
654.9203, 6790.482
655.4025, 6789.686
655.8846, 6791.645
656.3667, 6809.197
656.8488, 6851.914
657.3309, 6881.853
657.8130, 6897.613
658.2952, 6900.938
658.7773, 6888.968
659.2594, 6863.293
659.7415, 6844.467
660.2236, 6839.307
660.7057, 6840.976
661.1879, 6839.417
661.6700, 6836.631
662.1521, 6838.270
662.6342, 6854.108
663.1163, 6869.160
663.5984, 6873.383
664.0806, 6867.642
664.5627, 6860.917
