##NAMES=Trolleite
##RRUFFID=R050425
##IDEAL CHEMISTRY=Al_4_(PO_4_)_3_(OH)_3_
##LOCALITY=Halsjoberg, Varmland, Sweden
##OWNER=RRUFF
##SOURCE=Marcus Origlieri
##DESCRIPTION=Pale green granular aggregate
##STATUS=The identification of this mineral has been confirmed by X-ray diffraction and chemical analysis
##URL=rruff.info/R050425
##MEASURED CHEMISTRY=(Al_3.95_Fe^3+^_0.05_)_Î£=4_(P_1.00_O_4_)_3_(OH)_3_
96.19379, 114.6495
96.67590, 114.5237
97.15802, 113.9940
97.64014, 112.6336
98.12225, 110.8276
98.60437, 109.2677
99.08649, 108.2796
99.56861, 107.5768
100.0507, 106.6312
100.5328, 105.1786
101.0150, 103.7997
101.4971, 102.9356
101.9792, 102.5881
102.4613, 102.4706
102.9434, 102.5792
103.4255, 102.8024
103.9077, 103.0958
104.3898, 103.4609
104.8719, 103.8450
105.3540, 104.1453
105.8361, 104.3422
106.3182, 104.4649
106.8004, 104.4914
107.2825, 104.4657
107.7646, 104.3855
108.2467, 104.2160
108.7288, 103.9895
109.2109, 104.2126
109.6931, 105.3460
110.1752, 106.4552
110.6573, 107.1683
111.1394, 107.6163
111.6215, 108.2159
112.1037, 109.3608
112.5858, 111.1657
113.0679, 112.6914
113.5500, 113.6867
114.0321, 114.5965
114.5142, 115.7551
114.9964, 117.2153
115.4785, 118.7705
115.9606, 120.1651
116.4427, 121.4071
116.9248, 122.6948
117.4069, 124.0517
117.8891, 125.4832
118.3712, 127.0859
118.8533, 129.0608
119.3354, 130.8896
119.8175, 131.9372
120.2996, 132.2856
120.7818, 132.7803
121.2639, 134.1260
121.7460, 136.3533
122.2281, 138.5656
122.7102, 139.8392
123.1923, 141.6181
123.6745, 144.6717
124.1566, 149.1472
124.6387, 154.6921
125.1208, 160.9691
125.6029, 168.4165
126.0850, 175.6965
126.5672, 184.4724
127.0493, 192.2004
127.5314, 197.0259
128.0135, 198.2112
128.4956, 195.9519
128.9778, 190.6784
129.4599, 179.6445
129.9420, 168.4087
130.4241, 156.2207
130.9062, 144.2118
131.3883, 134.0179
131.8705, 126.5672
132.3526, 121.5552
132.8347, 117.0960
133.3168, 112.5545
133.7989, 108.9888
134.2810, 107.3783
134.7632, 107.3932
135.2453, 107.2928
135.7274, 105.7759
136.2095, 103.2749
136.6916, 101.4760
137.1737, 100.7738
137.6559, 100.6124
138.1380, 100.4640
138.6201, 100.3216
139.1022, 100.2254
139.5843, 100.2441
140.0664, 100.3197
140.5486, 100.3701
141.0307, 100.3343
141.5128, 100.2533
141.9949, 100.2173
142.4770, 100.0898
142.9591, 100.2518
143.4413, 100.7707
143.9234, 101.6416
144.4055, 102.8963
144.8876, 104.7091
145.3697, 107.0842
145.8518, 108.8806
146.3340, 109.6530
146.8161, 110.1832
147.2982, 110.5347
147.7803, 110.8092
148.2624, 111.1702
148.7445, 111.8048
149.2267, 112.8063
149.7088, 113.6763
150.1909, 114.4056
150.6730, 115.0458
151.1551, 115.6456
151.6373, 116.2028
152.1194, 116.6461
152.6015, 116.8623
153.0836, 116.6799
153.5657, 116.7542
154.0478, 117.2409
154.5300, 117.9088
155.0121, 118.4972
155.4942, 118.9295
155.9763, 119.3839
156.4584, 120.1219
156.9405, 121.1057
157.4227, 122.3600
157.9048, 123.9378
158.3869, 125.7898
158.8690, 127.8203
159.3511, 130.0366
159.8332, 132.4088
160.3154, 134.8399
160.7975, 137.3125
161.2796, 140.0045
161.7617, 143.0765
162.2438, 146.5254
162.7259, 150.0300
163.2081, 153.3406
163.6902, 156.8859
164.1723, 160.9400
164.6544, 165.5649
165.1365, 170.5531
165.6186, 175.7869
166.1008, 181.2884
166.5829, 186.8486
167.0650, 191.8259
167.5471, 197.2260
168.0292, 203.6794
168.5113, 211.3450
168.9935, 219.9064
169.4756, 229.0685
169.9577, 240.0075
170.4398, 249.2148
170.9219, 258.0361
171.4040, 264.5351
171.8862, 267.1395
172.3683, 265.2654
172.8504, 259.4246
173.3325, 250.6821
173.8146, 235.5957
174.2968, 221.5630
174.7789, 208.3586
175.2610, 196.4128
175.7431, 186.3116
176.2252, 178.2360
176.7073, 172.0190
177.1895, 167.2924
177.6716, 164.5934
178.1537, 162.4801
178.6358, 160.8575
179.1179, 159.6259
179.6000, 158.5628
180.0822, 157.5543
180.5643, 156.6758
181.0464, 156.1092
181.5285, 155.6507
182.0106, 155.6906
182.4927, 156.5661
182.9749, 158.1586
183.4570, 159.9123
183.9391, 161.4664
184.4212, 163.1257
184.9033, 165.4154
185.3854, 168.5829
185.8676, 171.9859
186.3497, 174.8875
186.8318, 177.2551
187.3139, 180.2939
187.7960, 185.1634
188.2781, 190.7586
188.7603, 195.7900
189.2424, 199.8464
189.7245, 203.6943
190.2066, 208.2223
190.6887, 213.4309
191.1708, 219.4036
191.6530, 226.3136
192.1351, 233.8948
192.6172, 241.9172
193.0993, 250.2107
193.5814, 259.1150
194.0635, 269.2991
194.5457, 281.1567
195.0278, 293.6039
195.5099, 307.7028
195.9920, 321.5883
196.4741, 333.8643
196.9563, 343.9886
197.4384, 351.4654
197.9205, 354.8415
198.4026, 352.6295
198.8847, 347.5986
199.3668, 339.2615
199.8490, 328.8653
200.3311, 317.4179
200.8132, 305.3863
201.2953, 293.0894
201.7774, 281.9337
202.2595, 271.5811
202.7417, 262.8822
203.2238, 256.5559
203.7059, 251.7758
204.1880, 247.4855
204.6701, 243.1957
205.1522, 238.8186
205.6344, 233.9467
206.1165, 227.8635
206.5986, 222.0898
207.0807, 217.0388
207.5628, 212.5123
208.0449, 208.1501
208.5271, 203.7883
209.0092, 199.4294
209.4913, 195.1496
209.9734, 190.7821
210.4555, 186.6611
210.9376, 183.0776
211.4198, 179.8683
211.9019, 176.5229
212.3840, 172.7724
212.8661, 168.7797
213.3482, 164.9883
213.8303, 161.3269
214.3125, 157.9668
214.7946, 155.2347
215.2767, 153.0023
215.7588, 150.6177
216.2409, 147.6573
216.7231, 144.4651
217.2052, 141.5995
217.6873, 139.0995
218.1694, 136.8973
218.6515, 135.0665
219.1336, 133.5844
219.6158, 132.0364
220.0979, 130.1620
220.5800, 128.2018
221.0621, 126.3495
221.5442, 124.5816
222.0263, 123.1064
222.5085, 122.2691
222.9906, 122.1350
223.4727, 121.8848
223.9548, 121.1625
224.4369, 120.2832
224.9190, 119.4900
225.4012, 118.8280
225.8833, 118.1438
226.3654, 117.2836
226.8475, 116.2678
227.3296, 114.9868
227.8117, 112.9124
228.2939, 110.8882
228.7760, 109.5079
229.2581, 108.8756
229.7402, 108.6200
230.2223, 108.2252
230.7044, 107.5577
231.1866, 107.1863
231.6687, 107.2895
232.1508, 107.5969
232.6329, 107.9793
233.1150, 108.4026
233.5971, 108.8776
234.0793, 109.3567
234.5614, 109.6222
235.0435, 110.4800
235.5256, 112.3141
236.0077, 114.3781
236.4898, 116.1864
236.9720, 117.6643
237.4541, 119.1047
237.9362, 120.9524
238.4183, 123.5348
238.9004, 125.6855
239.3826, 126.8944
239.8647, 128.1165
240.3468, 130.0408
240.8289, 132.7172
241.3110, 135.6098
241.7931, 138.0816
242.2753, 139.9107
242.7574, 141.8930
243.2395, 144.2787
243.7216, 146.6039
244.2037, 148.6005
244.6858, 150.2210
245.1680, 151.5521
245.6501, 152.6696
246.1322, 153.5152
246.6143, 154.3391
247.0964, 154.9891
247.5785, 155.7349
248.0607, 156.8101
248.5428, 158.2032
249.0249, 159.6734
249.5070, 160.9401
249.9891, 161.9467
250.4712, 163.4172
250.9534, 165.2811
251.4355, 167.6260
251.9176, 170.5497
252.3997, 174.0428
252.8818, 178.0298
253.3639, 182.5385
253.8461, 187.5983
254.3282, 192.3880
254.8103, 197.4064
255.2924, 201.7862
255.7745, 204.9447
256.2567, 206.8665
256.7388, 207.7591
257.2209, 207.8464
257.7030, 206.8662
258.1851, 204.4342
258.6672, 199.8949
259.1494, 194.4526
259.6315, 188.4059
260.1136, 181.8953
260.5957, 176.0488
261.0778, 171.4778
261.5599, 168.1877
262.0421, 165.5788
262.5242, 164.1061
263.0063, 162.7715
263.4884, 160.8634
263.9705, 158.4337
264.4526, 155.9521
264.9348, 153.7589
265.4169, 151.5495
265.8990, 148.7807
266.3811, 145.1485
266.8632, 141.5481
267.3453, 138.4043
267.8275, 135.7531
268.3096, 133.8952
268.7917, 133.2290
269.2738, 133.2375
269.7559, 133.0983
270.2380, 132.7314
270.7202, 132.5953
271.2023, 133.1124
271.6844, 134.1966
272.1665, 135.2395
272.6486, 135.8980
273.1307, 136.7002
273.6129, 138.1742
274.0950, 140.3242
274.5771, 142.6161
275.0592, 144.7722
275.5413, 146.8047
276.0234, 148.6842
276.5056, 150.0827
276.9877, 151.8037
277.4698, 154.4016
277.9519, 157.7919
278.4340, 161.5664
278.9161, 165.5382
279.3983, 169.7032
279.8804, 174.1068
280.3625, 178.6480
280.8446, 183.6085
281.3267, 189.0802
281.8088, 194.9986
282.2910, 201.2811
282.7731, 207.8226
283.2552, 214.6749
283.7373, 221.9626
284.2194, 229.5545
284.7015, 237.8993
285.1837, 247.5888
285.6658, 258.0402
286.1479, 268.4808
286.6300, 278.5515
287.1121, 288.3343
287.5942, 298.2883
288.0764, 309.2849
288.5585, 318.2758
289.0406, 324.4926
289.5227, 328.2287
290.0048, 329.6818
290.4869, 329.0389
290.9691, 325.8099
291.4512, 318.8185
291.9333, 307.2912
292.4154, 294.4358
292.8975, 280.0885
293.3796, 265.3991
293.8618, 251.0383
294.3439, 237.1744
294.8260, 224.2216
295.3081, 212.7307
295.7903, 202.8024
296.2724, 193.9390
296.7545, 186.5164
297.2366, 179.8854
297.7187, 173.7300
298.2008, 168.0342
298.6830, 163.0464
299.1651, 159.2515
299.6472, 156.7567
300.1293, 154.3257
300.6114, 151.4778
301.0935, 149.1128
301.5757, 147.6470
302.0578, 147.0373
302.5399, 147.0185
303.0220, 147.5457
303.5041, 148.5853
303.9862, 149.3577
304.4684, 149.2197
304.9505, 149.6008
305.4326, 151.0275
305.9147, 153.3083
306.3968, 156.1098
306.8789, 159.3337
307.3611, 162.8654
307.8432, 166.0917
308.3253, 168.5522
308.8074, 171.4645
309.2895, 175.2413
309.7716, 179.5672
310.2538, 184.1339
310.7359, 188.8812
311.2180, 193.5523
311.7001, 197.6151
312.1822, 201.2728
312.6643, 203.8424
313.1465, 205.3189
313.6286, 205.7670
314.1107, 205.2344
314.5928, 203.7289
315.0749, 201.1842
315.5570, 197.4084
316.0392, 192.1941
316.5213, 186.4881
317.0034, 179.8470
317.4855, 173.1167
317.9676, 166.6292
318.4497, 160.4842
318.9319, 154.7745
319.4140, 149.5668
319.8961, 144.8616
320.3782, 140.7263
320.8603, 137.2151
321.3424, 134.3292
321.8246, 132.3866
322.3067, 131.0947
322.7888, 129.7398
323.2709, 127.6863
323.7530, 125.1085
324.2351, 123.4006
324.7173, 123.0777
325.1994, 122.9644
325.6815, 122.7122
326.1636, 122.4052
326.6457, 122.1186
327.1278, 121.8441
327.6100, 121.7316
328.0921, 122.2472
328.5742, 123.8199
329.0563, 125.0923
329.5384, 125.4716
330.0205, 125.6043
330.5027, 125.9660
330.9848, 126.6984
331.4669, 127.8034
331.9490, 129.4280
332.4311, 131.7677
332.9132, 133.7660
333.3954, 135.0140
333.8775, 136.0620
334.3596, 136.9277
334.8417, 137.7430
335.3238, 139.0085
335.8059, 141.5551
336.2881, 145.4200
336.7702, 148.2724
337.2523, 149.2039
337.7344, 150.0346
338.2165, 151.9109
338.6986, 154.3569
339.1808, 156.2442
339.6629, 156.8463
340.1450, 156.3671
340.6271, 155.5832
341.1093, 154.5779
341.5914, 153.0678
342.0735, 150.8096
342.5556, 148.1042
343.0377, 145.3212
343.5198, 142.6324
344.0020, 139.8060
344.4841, 136.2079
344.9662, 131.4229
345.4483, 127.5855
345.9304, 126.1273
346.4125, 125.4362
346.8947, 124.4479
347.3768, 122.9839
347.8589, 121.5831
348.3410, 120.7124
348.8231, 120.3645
349.3052, 120.3945
349.7874, 120.8403
350.2695, 121.6426
350.7516, 122.7762
351.2337, 124.2039
351.7158, 125.7600
352.1979, 127.3174
352.6801, 128.9323
353.1622, 130.7952
353.6443, 132.9680
354.1264, 135.2589
354.6085, 137.9922
355.0906, 140.7020
355.5728, 142.5079
356.0549, 142.7908
356.5370, 142.4493
357.0191, 142.7903
357.5012, 143.9071
357.9833, 144.6443
358.4655, 144.2040
358.9476, 143.3114
359.4297, 142.9001
359.9118, 143.1620
360.3939, 143.3661
360.8760, 143.0875
361.3582, 142.3255
361.8403, 141.0495
362.3224, 139.2043
362.8045, 136.8978
363.2866, 134.1301
363.7687, 130.9575
364.2509, 127.8361
364.7330, 124.9499
365.2151, 122.2145
365.6972, 119.4316
366.1793, 116.5341
366.6614, 113.8292
367.1436, 111.6302
367.6257, 109.8179
368.1078, 108.0270
368.5899, 106.1336
369.0720, 104.2988
369.5541, 102.5539
370.0363, 100.9341
370.5184, 99.70985
371.0005, 99.03886
371.4826, 98.83733
371.9647, 98.88667
372.4468, 99.23121
372.9290, 99.67177
373.4111, 99.91292
373.8932, 100.2376
374.3753, 101.3291
374.8574, 103.4554
375.3395, 105.7820
375.8217, 107.0750
376.3038, 107.1418
376.7859, 107.9447
377.2680, 110.1519
377.7501, 112.8413
378.2322, 115.4358
378.7144, 117.8256
379.1965, 119.7955
379.6786, 121.1293
380.1607, 121.8735
380.6428, 122.7081
381.1249, 124.1337
381.6071, 125.0893
382.0892, 125.2094
382.5713, 124.5943
383.0534, 123.3392
383.5355, 121.4397
384.0176, 119.2096
384.4998, 117.3039
384.9819, 115.8820
385.4640, 114.5552
385.9461, 113.1679
386.4283, 111.9693
386.9104, 111.1563
387.3925, 110.7685
387.8746, 110.7502
388.3567, 111.0312
388.8388, 111.5759
389.3210, 112.7268
389.8031, 114.5934
390.2852, 116.8501
390.7673, 119.5766
391.2494, 122.5873
391.7315, 125.5742
392.2137, 128.3520
392.6958, 130.9742
393.1779, 133.6090
393.6600, 136.4225
394.1421, 138.9943
394.6242, 141.1194
395.1064, 143.1131
395.5885, 145.2132
396.0706, 147.4972
396.5527, 149.8928
397.0348, 152.3887
397.5169, 155.0776
397.9991, 157.4386
398.4812, 159.2456
398.9633, 160.8972
399.4454, 162.6322
399.9275, 164.3465
400.4096, 165.7486
400.8918, 166.5396
401.3739, 166.9042
401.8560, 167.6276
402.3381, 168.7619
402.8202, 170.1828
403.3023, 172.3938
403.7845, 174.5907
404.2666, 175.8930
404.7487, 176.0182
405.2308, 175.5245
405.7129, 175.0916
406.1950, 174.7402
406.6772, 174.0087
407.1593, 172.5505
407.6414, 170.9518
408.1235, 169.8534
408.6056, 169.1035
409.0877, 167.8514
409.5699, 165.0808
410.0520, 161.5465
410.5341, 159.2107
411.0162, 158.4672
411.4983, 157.6010
411.9804, 155.2921
412.4626, 152.2373
412.9447, 149.5795
413.4268, 147.5198
413.9089, 145.8547
414.3910, 144.4906
414.8731, 143.4100
415.3553, 142.4692
415.8374, 141.4914
416.3195, 140.8613
416.8016, 141.1918
417.2837, 142.4273
417.7658, 144.2112
418.2480, 146.7535
418.7301, 149.6339
419.2122, 152.2248
419.6943, 154.4967
420.1764, 157.2061
420.6585, 160.9537
421.1407, 165.7218
421.6228, 170.7110
422.1049, 176.1402
422.5870, 181.5795
423.0691, 186.4244
423.5512, 191.2249
424.0334, 197.2027
424.5155, 204.8535
424.9976, 213.3360
425.4797, 221.0984
425.9618, 228.4149
426.4439, 234.1949
426.9261, 238.8102
427.4082, 241.7121
427.8903, 242.8821
428.3724, 242.0771
428.8545, 238.6045
429.3366, 231.8105
429.8188, 221.7266
430.3009, 210.1367
430.7830, 194.9163
431.2651, 180.3885
431.7473, 167.2737
432.2294, 155.2096
432.7115, 143.6816
433.1936, 132.5255
433.6757, 122.4115
434.1578, 114.7275
434.6400, 110.0739
435.1221, 105.7803
435.6042, 101.6163
436.0863, 97.86862
436.5684, 94.78766
437.0505, 92.28624
437.5327, 90.01130
438.0148, 87.59012
438.4969, 85.26295
438.9790, 83.97371
439.4611, 84.02782
439.9432, 84.35899
440.4254, 84.71440
440.9075, 85.03229
441.3896, 85.13568
441.8717, 84.90753
442.3538, 84.93110
442.8359, 85.78557
443.3181, 87.38216
443.8002, 89.13267
444.2823, 90.88618
444.7644, 92.86647
445.2465, 95.45880
445.7286, 98.53618
446.2108, 101.4533
446.6929, 103.7954
447.1750, 106.0635
447.6571, 108.6586
448.1392, 111.5971
448.6213, 115.0139
449.1035, 119.1313
449.5856, 123.6220
450.0677, 127.5313
450.5498, 130.5484
451.0319, 133.7435
451.5140, 137.1591
451.9962, 140.9961
452.4783, 145.4409
452.9604, 150.5475
453.4425, 156.3188
453.9246, 162.7592
454.4067, 169.8718
454.8889, 177.7279
455.3710, 186.0801
455.8531, 195.2316
456.3352, 205.1601
456.8173, 215.9726
457.2994, 227.8739
457.7816, 240.9192
458.2637, 255.1605
458.7458, 270.7676
459.2279, 287.6706
459.7100, 306.3161
460.1921, 327.2867
460.6743, 349.2849
461.1564, 372.2916
461.6385, 395.8362
462.1206, 418.7229
462.6027, 440.7305
463.0848, 461.2148
463.5670, 477.1259
464.0491, 489.1579
464.5312, 494.6747
465.0133, 492.7083
465.4954, 484.3437
465.9775, 469.6243
466.4597, 448.2529
466.9418, 423.3082
467.4239, 396.4513
467.9060, 368.0322
468.3881, 339.7949
468.8702, 311.1404
469.3524, 284.1921
469.8345, 261.1367
470.3166, 241.1977
470.7987, 223.0235
471.2808, 206.2284
471.7629, 191.0768
472.2451, 178.0132
472.7272, 166.9352
473.2093, 157.4250
473.6914, 149.4693
474.1735, 142.7137
474.6556, 136.5307
475.1378, 130.8722
475.6199, 125.7944
476.1020, 121.4011
476.5841, 117.5118
477.0663, 113.9793
477.5484, 110.7949
478.0305, 107.9257
478.5126, 105.3699
478.9947, 103.1144
479.4768, 101.1498
479.9590, 99.63289
480.4411, 98.19485
480.9232, 96.81154
481.4053, 95.47133
481.8874, 94.06715
482.3695, 92.61692
482.8517, 91.43423
483.3338, 90.98042
483.8159, 91.36262
484.2980, 91.56036
484.7801, 91.42030
485.2622, 91.25983
485.7444, 91.27161
486.2265, 91.31728
486.7086, 91.10336
487.1907, 90.43005
487.6728, 89.73392
488.1549, 89.71783
488.6371, 90.42622
489.1192, 91.10319
489.6013, 91.54849
490.0834, 91.95496
490.5655, 92.47849
491.0476, 93.11360
491.5298, 93.81714
492.0119, 94.62470
492.4940, 95.46328
492.9761, 96.26152
493.4582, 97.01642
493.9403, 97.64346
494.4225, 98.03667
494.9046, 98.33203
495.3867, 98.89156
495.8688, 99.81616
496.3509, 100.7018
496.8330, 101.3383
497.3152, 101.9580
497.7973, 102.8207
498.2794, 103.9429
498.7615, 105.1842
499.2436, 106.4565
499.7257, 107.7395
500.2079, 108.7472
500.6900, 109.1718
501.1721, 109.6929
501.6542, 110.6751
502.1363, 111.6790
502.6184, 112.1366
503.1006, 111.9430
503.5827, 111.5907
504.0648, 111.7517
504.5469, 112.5095
505.0290, 112.9410
505.5111, 112.9004
505.9933, 112.6940
506.4754, 112.3697
506.9575, 111.9918
507.4396, 111.6735
507.9217, 111.4831
508.4038, 111.2759
508.8860, 110.8821
509.3681, 110.3046
509.8502, 109.6693
510.3323, 109.1529
510.8144, 108.3388
511.2965, 106.5314
511.7787, 103.9479
512.2608, 101.7345
512.7429, 100.4917
513.2250, 99.48376
513.7072, 97.96379
514.1893, 96.07570
514.6714, 94.55522
515.1535, 93.82217
515.6356, 93.32732
516.1177, 91.92549
516.5999, 88.89085
517.0820, 86.55030
517.5641, 85.30461
518.0462, 84.49133
518.5283, 83.84545
519.0104, 83.23662
519.4926, 82.45231
519.9747, 81.32261
520.4568, 79.99335
520.9389, 79.04597
521.4210, 78.83754
521.9031, 78.33827
522.3853, 77.08928
522.8674, 75.79927
523.3495, 75.03477
523.8316, 74.77395
524.3137, 74.55627
524.7958, 74.01930
525.2780, 73.25211
525.7601, 72.55684
526.2422, 71.92616
526.7243, 71.39721
527.2064, 70.98907
527.6885, 70.69994
528.1707, 70.55547
528.6528, 70.59071
529.1349, 70.58943
529.6170, 70.38551
530.0991, 70.09402
530.5812, 69.93144
531.0634, 69.92160
531.5455, 69.87215
532.0276, 69.60822
532.5097, 69.18249
532.9918, 68.97026
533.4739, 69.22654
533.9561, 69.33604
534.4382, 68.95718
534.9203, 68.48401
535.4024, 68.44238
535.8845, 68.87175
536.3666, 69.28123
536.8488, 69.11806
537.3309, 68.38460
537.8130, 68.10204
538.2951, 68.75883
538.7772, 69.23537
539.2593, 68.94886
539.7415, 68.52987
540.2236, 68.80077
540.7057, 69.94638
541.1878, 71.10804
541.6699, 71.25863
542.1520, 70.57393
542.6342, 70.32732
543.1163, 70.74055
543.5984, 71.26293
544.0805, 71.53993
544.5626, 71.68059
545.0447, 71.88737
545.5269, 72.21754
546.0090, 72.55617
546.4911, 72.81932
546.9732, 73.04993
547.4553, 73.33920
547.9374, 73.70966
548.4196, 74.08495
548.9017, 74.37830
549.3838, 74.58672
549.8659, 74.91377
550.3480, 75.71741
550.8301, 76.19701
551.3123, 75.77065
551.7944, 75.05921
552.2765, 74.91368
552.7586, 75.51603
553.2407, 76.26886
553.7228, 76.43739
554.2050, 75.98708
554.6871, 75.57264
555.1692, 75.12331
555.6513, 74.82104
556.1334, 74.82127
556.6155, 74.95233
557.0977, 74.96656
557.5798, 74.77868
558.0619, 74.62479
558.5440, 74.75361
559.0261, 75.09785
559.5082, 75.41959
559.9904, 75.69014
560.4725, 75.92610
560.9546, 76.20704
561.4367, 76.46011
561.9188, 76.39241
562.4009, 75.49260
562.8831, 74.91148
563.3652, 75.40117
563.8473, 76.33101
564.3294, 76.74057
564.8115, 76.46965
565.2936, 76.16331
565.7758, 76.48412
566.2579, 77.43601
566.7400, 78.26958
567.2221, 78.97038
567.7042, 79.55848
568.1863, 79.98195
568.6685, 80.32298
569.1506, 80.68785
569.6327, 81.08584
570.1148, 81.39153
570.5969, 81.38911
571.0790, 81.15106
571.5612, 81.24954
572.0433, 81.94213
572.5254, 82.22987
573.0075, 81.24857
573.4896, 79.69714
573.9717, 78.65448
574.4539, 78.36640
574.9360, 78.00352
575.4181, 77.21420
575.9002, 76.09901
576.3823, 74.63609
576.8644, 72.88002
577.3466, 71.35426
577.8287, 70.47124
578.3108, 70.08824
578.7929, 69.50272
579.2750, 68.43279
579.7571, 67.52610
580.2393, 66.74266
580.7214, 66.19081
581.2035, 66.01155
581.6856, 66.16558
582.1677, 66.45298
582.6498, 66.72040
583.1320, 67.01021
583.6141, 67.45914
584.0962, 68.07038
584.5783, 68.84904
585.0604, 70.14861
585.5425, 71.33549
586.0247, 71.60652
586.5068, 71.06001
586.9889, 71.03267
587.4711, 72.30065
587.9532, 74.26009
588.4353, 76.61549
588.9174, 79.16471
589.3995, 80.76175
589.8817, 80.71176
590.3638, 80.03786
590.8459, 80.51922
591.3280, 82.59113
591.8101, 84.69252
592.2922, 86.78013
592.7744, 88.94001
