##NAMES=Trolleite
##RRUFFID=R050425
##IDEAL CHEMISTRY=Al_4_(PO_4_)_3_(OH)_3_
##LOCALITY=Halsjoberg, Varmland, Sweden
##OWNER=RRUFF
##SOURCE=Marcus Origlieri
##DESCRIPTION=Pale green granular aggregate
##STATUS=The identification of this mineral has been confirmed by X-ray diffraction and chemical analysis
##URL=rruff.info/R050425
##MEASURED CHEMISTRY=(Al_3.95_Fe^3+^_0.05_)_Î£=4_(P_1.00_O_4_)_3_(OH)_3_
91.00781, 14.63645
91.48993, 14.56588
91.97205, 14.53811
92.45416, 14.52658
92.93628, 14.55835
93.41840, 14.71334
93.90051, 15.04176
94.38263, 15.43135
94.86475, 15.62132
95.34686, 15.61515
95.82898, 15.74673
96.31110, 16.29157
96.79321, 17.22914
97.27533, 18.36276
97.75745, 19.70704
98.23956, 21.19425
98.72168, 22.43458
99.20380, 23.33608
99.68591, 24.23963
100.1680, 25.52309
100.6501, 27.22072
101.1323, 29.08244
101.6144, 31.07266
102.0965, 33.21035
102.5786, 35.18998
103.0607, 36.86295
103.5428, 38.52277
104.0250, 40.69318
104.5071, 43.42304
104.9892, 46.55283
105.4713, 50.03399
105.9534, 53.99149
106.4355, 58.02941
106.9177, 62.39438
107.3998, 66.85041
107.8819, 70.78734
108.3640, 73.53925
108.8461, 76.26048
109.3282, 79.52812
109.8104, 83.96445
110.2925, 88.15733
110.7746, 91.92511
111.2567, 95.30291
111.7388, 98.72591
112.2209, 101.9083
112.7031, 105.2865
113.1852, 109.2018
113.6673, 113.7965
114.1494, 118.8269
114.6315, 124.3105
115.1136, 130.3005
115.5958, 136.4935
116.0779, 142.7398
116.5600, 149.1609
117.0421, 155.8641
117.5242, 163.7187
118.0063, 171.3225
118.4885, 178.0078
118.9706, 183.6514
119.4527, 188.7095
119.9348, 192.8168
120.4169, 196.5047
120.8990, 200.8204
121.3812, 206.7765
121.8633, 213.3538
122.3454, 219.4581
122.8275, 224.7894
123.3096, 230.0810
123.7917, 235.6912
124.2739, 241.7090
124.7560, 248.4613
125.2381, 257.3448
125.7202, 266.9602
126.2023, 274.9969
126.6844, 281.5071
127.1666, 285.6427
127.6487, 285.7124
128.1308, 281.8271
128.6129, 276.0340
129.0950, 268.8430
129.5771, 260.8047
130.0593, 253.7906
130.5414, 248.0069
131.0235, 243.7877
131.5056, 242.3372
131.9877, 243.0096
132.4698, 243.7744
132.9520, 243.8346
133.4341, 243.2443
133.9162, 242.8745
134.3983, 242.8953
134.8804, 243.3296
135.3625, 244.5538
135.8447, 246.7091
136.3268, 249.2885
136.8089, 251.7881
137.2910, 254.2988
137.7731, 256.3181
138.2552, 257.6751
138.7374, 258.3502
139.2195, 258.4449
139.7016, 257.7069
140.1837, 256.6245
140.6658, 256.1292
141.1479, 256.1056
141.6301, 256.8506
142.1122, 258.5407
142.5943, 261.3686
143.0764, 264.6020
143.5585, 268.2521
144.0406, 272.2857
144.5228, 276.8624
145.0049, 282.5710
145.4870, 288.0421
145.9691, 292.5034
146.4512, 296.0535
146.9333, 298.5048
147.4155, 299.1174
147.8976, 298.2310
148.3797, 298.9938
148.8618, 302.2258
149.3439, 306.5099
149.8260, 310.9134
150.3082, 314.0696
150.7903, 318.8969
151.2724, 326.1489
151.7545, 335.8470
152.2366, 345.6214
152.7188, 355.7320
153.2009, 365.7274
153.6830, 375.1288
154.1651, 383.8143
154.6472, 392.0169
155.1293, 399.4085
155.6115, 405.8893
156.0936, 412.7310
156.5757, 420.1562
157.0578, 428.0624
157.5399, 436.2403
158.0220, 444.5510
158.5042, 453.2592
158.9863, 462.2964
159.4684, 471.5887
159.9505, 481.6607
160.4326, 492.8375
160.9147, 504.8106
161.3969, 517.1188
161.8790, 529.6469
162.3611, 542.4479
162.8432, 555.4464
163.3253, 568.2450
163.8074, 582.0311
164.2896, 596.9202
164.7717, 613.1419
165.2538, 631.1662
165.7359, 650.9113
166.2180, 672.6707
166.7001, 696.6722
167.1823, 722.5162
167.6644, 750.9312
168.1465, 783.2023
168.6286, 818.5204
169.1107, 854.6348
169.5928, 895.1597
170.0750, 933.7615
170.5571, 965.6439
171.0392, 992.6919
171.5213, 1007.337
172.0034, 1001.246
172.4855, 976.2606
172.9677, 940.8761
173.4498, 892.8861
173.9319, 839.5197
174.4140, 790.6176
174.8961, 746.9035
175.3782, 710.7316
175.8604, 683.9704
176.3425, 666.2458
176.8246, 655.4339
177.3067, 651.3348
177.7888, 652.7424
178.2709, 657.4443
178.7531, 666.3268
179.2352, 677.0017
179.7173, 685.6666
180.1994, 692.4447
180.6815, 699.4962
181.1636, 708.5923
181.6458, 719.4717
182.1279, 731.0801
182.6100, 743.5225
183.0921, 756.3532
183.5742, 768.6150
184.0563, 780.0204
184.5385, 792.3302
185.0206, 807.2583
185.5027, 824.5917
185.9848, 842.5534
186.4669, 860.3181
186.9490, 878.3087
187.4312, 898.4537
187.9133, 920.4152
188.3954, 944.3200
188.8775, 969.8927
189.3596, 997.0192
189.8417, 1026.054
190.3239, 1056.178
190.8060, 1088.093
191.2881, 1123.844
191.7702, 1162.979
192.2523, 1206.089
192.7344, 1254.822
193.2166, 1308.988
193.6987, 1366.213
194.1808, 1427.611
194.6629, 1492.463
195.1450, 1557.366
195.6271, 1624.741
196.1093, 1686.137
196.5914, 1734.726
197.0735, 1771.892
197.5556, 1779.953
198.0377, 1749.356
198.5198, 1679.723
199.0020, 1585.665
199.4841, 1460.927
199.9662, 1322.418
200.4483, 1191.480
200.9304, 1067.067
201.4125, 956.3538
201.8947, 863.2554
202.3768, 788.2764
202.8589, 724.8231
203.3410, 674.1219
203.8231, 633.0640
204.3052, 597.3099
204.7874, 567.0596
205.2695, 540.3264
205.7516, 516.5302
206.2337, 495.8362
206.7158, 476.9962
207.1979, 460.1651
207.6801, 444.9484
208.1622, 430.8415
208.6443, 417.7857
209.1264, 405.7390
209.6085, 394.7422
210.0906, 384.8785
210.5728, 375.6180
211.0549, 366.9695
211.5370, 358.9666
212.0191, 352.0755
212.5012, 346.6366
212.9833, 341.3394
213.4655, 335.3781
213.9476, 328.1266
214.4297, 322.4823
214.9118, 318.8617
215.3939, 316.7007
215.8760, 314.6437
216.3581, 312.9346
216.8403, 310.8592
217.3224, 307.9286
217.8045, 303.6043
218.2866, 299.9662
218.7687, 296.9797
219.2508, 294.7393
219.7330, 293.7552
220.2151, 294.6429
220.6972, 295.6332
221.1793, 295.7773
221.6614, 294.5519
222.1435, 293.9190
222.6257, 294.1690
223.1078, 294.9485
223.5899, 295.3213
224.0720, 295.3130
224.5541, 294.8579
225.0362, 293.8629
225.5184, 292.1050
226.0005, 290.3912
226.4826, 288.7417
226.9647, 287.1488
227.4468, 285.5374
227.9289, 283.9389
228.4111, 282.3047
228.8932, 280.5066
229.3753, 278.0968
229.8574, 276.6456
230.3395, 276.5247
230.8216, 277.3047
231.3038, 277.7548
231.7859, 277.4298
232.2680, 277.4229
232.7501, 278.2319
233.2322, 280.0534
233.7143, 282.2129
234.1965, 284.5933
234.6786, 287.3447
235.1607, 291.0324
235.6428, 296.3857
236.1249, 301.6049
236.6070, 305.7964
237.0892, 308.1987
237.5713, 311.2208
238.0534, 314.8278
238.5355, 319.0582
239.0176, 324.0461
239.4997, 330.1668
239.9819, 336.6141
240.4640, 343.0659
240.9461, 349.7808
241.4282, 355.9627
241.9103, 361.4395
242.3924, 366.4403
242.8746, 371.5808
243.3567, 377.3139
243.8388, 382.5078
244.3209, 386.7015
244.8030, 389.6391
245.2851, 392.1642
245.7673, 394.2567
246.2494, 395.9533
246.7315, 397.1783
247.2136, 397.1818
247.6957, 397.9089
248.1778, 400.2139
248.6600, 404.5612
249.1421, 409.0020
249.6242, 413.2701
250.1063, 417.7970
250.5884, 423.4370
251.0705, 430.4004
251.5527, 438.1548
252.0348, 446.5616
252.5169, 455.9502
252.9990, 465.0929
253.4811, 474.2131
253.9632, 483.0384
254.4454, 491.1415
254.9275, 499.1811
255.4096, 505.3657
255.8917, 509.1664
256.3738, 510.5427
256.8560, 509.5422
257.3381, 505.9701
257.8202, 500.1959
258.3023, 492.3084
258.7844, 481.2938
259.2665, 470.5461
259.7487, 460.9539
260.2308, 452.5762
260.7129, 445.3499
261.1950, 439.4256
261.6771, 434.5025
262.1592, 430.2350
262.6414, 426.6937
263.1235, 423.7303
263.6056, 421.4310
264.0877, 419.8174
264.5698, 418.2078
265.0519, 416.4474
265.5341, 414.9072
266.0162, 413.9426
266.4983, 413.4928
266.9804, 413.7516
267.4625, 414.2718
267.9446, 415.0880
268.4268, 419.6866
268.9089, 429.0155
269.3910, 440.2789
269.8731, 450.4493
270.3552, 458.7716
270.8373, 468.8481
271.3195, 481.8908
271.8016, 497.5962
272.2837, 513.3934
272.7658, 529.6221
273.2479, 545.6179
273.7300, 560.7695
274.2122, 574.7561
274.6943, 589.5450
275.1764, 605.4203
275.6585, 622.3287
276.1406, 640.0534
276.6227, 658.6700
277.1049, 677.8729
277.5870, 697.2258
278.0691, 716.6372
278.5512, 737.2739
279.0333, 759.2560
279.5154, 782.6277
279.9976, 807.5504
280.4797, 834.1624
280.9618, 861.9829
281.4439, 890.8548
281.9260, 920.6452
282.4081, 953.5416
282.8903, 990.2868
283.3724, 1029.767
283.8545, 1069.156
284.3366, 1108.303
284.8187, 1149.109
285.3008, 1192.827
285.7830, 1239.594
286.2651, 1286.984
286.7472, 1336.106
287.2293, 1383.911
287.7114, 1426.760
288.1935, 1464.614
288.6757, 1493.127
289.1578, 1511.860
289.6399, 1519.767
290.1220, 1509.705
290.6041, 1480.141
291.0862, 1436.479
291.5684, 1383.697
292.0505, 1322.048
292.5326, 1256.767
293.0147, 1185.624
293.4968, 1112.506
293.9789, 1046.618
294.4611, 988.9274
294.9432, 937.7814
295.4253, 892.0957
295.9074, 851.5968
296.3895, 816.1432
296.8716, 785.3190
297.3538, 759.2350
297.8359, 738.3405
298.3180, 722.5236
298.8001, 710.2974
299.2822, 700.7628
299.7643, 693.5757
300.2465, 687.9634
300.7286, 683.5621
301.2107, 680.6349
301.6928, 679.4315
302.1749, 679.9680
302.6570, 682.3445
303.1392, 686.9415
303.6213, 693.3983
304.1034, 700.9713
304.5855, 709.4581
305.0676, 719.0663
305.5497, 730.4785
306.0319, 743.4557
306.5140, 757.3529
306.9961, 770.9462
307.4782, 785.3080
307.9603, 802.1213
308.4424, 822.4093
308.9246, 843.7609
309.4067, 865.1442
309.8888, 886.1345
310.3709, 905.9489
310.8530, 925.1306
311.3351, 942.1697
311.8173, 956.2554
312.2994, 968.1699
312.7815, 974.7654
313.2636, 975.2977
313.7457, 969.1984
314.2278, 955.2295
314.7100, 929.7164
315.1921, 898.5348
315.6742, 864.3097
316.1563, 827.0592
316.6384, 789.1547
317.1205, 750.7169
317.6027, 713.0576
318.0848, 678.0600
318.5669, 645.9508
319.0490, 616.9204
319.5311, 591.1336
320.0132, 568.6052
320.4954, 548.7712
320.9775, 532.0868
321.4596, 517.8636
321.9417, 505.7996
322.4238, 496.7866
322.9059, 488.9130
323.3881, 481.8236
323.8702, 475.5696
324.3523, 470.1061
324.8344, 465.3944
325.3165, 461.5107
325.7986, 458.4526
326.2808, 456.8355
326.7629, 455.3283
327.2450, 453.5822
327.7271, 451.8179
328.2092, 450.8959
328.6913, 451.2040
329.1735, 452.0216
329.6556, 453.1028
330.1377, 454.5879
330.6198, 456.0585
331.1019, 457.4225
331.5840, 458.7882
332.0662, 460.3436
332.5483, 461.7578
333.0304, 463.8538
333.5125, 466.9529
333.9946, 471.2780
334.4767, 475.5740
334.9589, 479.8123
335.4410, 483.9901
335.9231, 488.2083
336.4052, 492.7196
336.8873, 496.5041
337.3694, 499.1867
337.8516, 500.8143
338.3336, 502.4950
338.8158, 504.6892
339.2979, 505.9841
339.7800, 505.3181
340.2621, 502.7606
340.7442, 497.7162
341.2263, 489.7318
341.7085, 479.4410
342.1906, 469.1566
342.6727, 458.7722
343.1548, 448.5088
343.6369, 438.3755
344.1190, 428.4481
344.6012, 418.3301
345.0833, 407.6826
345.5654, 397.5407
346.0475, 389.7035
346.5296, 384.1427
347.0117, 380.0661
347.4939, 377.5426
347.9760, 376.2498
348.4581, 375.0179
348.9402, 373.7081
349.4223, 373.0021
349.9044, 373.9428
350.3866, 376.1876
350.8687, 378.5529
351.3508, 380.3243
351.8329, 382.0527
352.3150, 384.6068
352.7971, 387.9911
353.2793, 391.8461
353.7614, 396.5672
354.2435, 401.5075
354.7256, 405.6468
355.2077, 408.5742
355.6898, 410.7309
356.1720, 412.4174
356.6541, 413.6502
357.1362, 414.5113
357.6183, 414.8568
358.1004, 414.9670
358.5826, 415.2645
359.0647, 416.2480
359.5468, 416.3365
360.0289, 414.4605
360.5110, 411.1055
360.9931, 407.1783
361.4753, 403.2404
361.9574, 398.7050
362.4395, 393.1656
362.9216, 386.4735
363.4037, 379.5270
363.8858, 372.3179
364.3680, 365.1013
364.8501, 358.1169
365.3322, 351.5282
365.8143, 345.1638
366.2964, 338.9302
366.7785, 332.8113
367.2607, 327.1478
367.7428, 321.6992
368.2249, 316.8491
368.7070, 312.8229
369.1891, 309.6298
369.6712, 307.2799
370.1534, 305.8587
370.6355, 305.2661
371.1176, 305.1893
371.5997, 305.5231
372.0818, 306.5007
372.5639, 308.3015
373.0461, 311.2010
373.5282, 313.9503
374.0103, 316.1160
374.4924, 318.5750
374.9745, 322.7469
375.4566, 329.0803
375.9388, 335.8004
376.4209, 342.3411
376.9030, 348.8178
377.3851, 355.6915
377.8672, 363.1635
378.3493, 370.6922
378.8315, 377.7473
379.3136, 384.3952
379.7957, 390.7056
380.2778, 397.0558
380.7599, 402.8036
381.2420, 406.3933
381.7242, 407.7691
382.2063, 408.0826
382.6884, 407.7857
383.1705, 406.9693
383.6526, 405.8257
384.1347, 404.2520
384.6169, 402.8098
385.0990, 401.9151
385.5811, 401.6833
386.0632, 402.5648
386.5453, 404.9378
387.0274, 408.4642
387.5096, 412.5667
387.9917, 417.2227
388.4738, 423.0192
388.9559, 430.6617
389.4380, 439.5090
389.9201, 448.7748
390.4023, 457.8348
390.8844, 467.5856
391.3665, 478.8763
391.8486, 491.4955
392.3307, 504.2678
392.8128, 517.6857
393.2950, 530.3651
393.7771, 541.4030
394.2592, 550.2369
394.7413, 558.4448
395.2234, 566.5406
395.7055, 574.2400
396.1877, 581.1074
396.6698, 586.9358
397.1519, 592.0143
397.6340, 596.8732
398.1161, 601.7524
398.5982, 604.3027
399.0804, 602.3010
399.5625, 599.1827
400.0446, 597.4009
400.5267, 597.4637
401.0088, 598.1894
401.4909, 599.8254
401.9731, 602.0952
402.4552, 603.8434
402.9373, 604.9977
403.4194, 605.7635
403.9015, 606.3849
404.3836, 607.1665
404.8658, 606.4925
405.3479, 604.0942
405.8300, 600.5963
406.3121, 597.0873
406.7942, 593.7479
407.2763, 588.9694
407.7585, 581.6164
408.2406, 572.2782
408.7227, 564.6910
409.2048, 559.0491
409.6869, 553.7213
410.1690, 547.1984
410.6512, 539.7515
411.1333, 532.3074
411.6154, 524.8247
412.0975, 517.8177
412.5796, 512.4267
413.0617, 508.3255
413.5439, 503.7889
414.0260, 496.6834
414.5081, 488.9295
414.9902, 483.3564
415.4723, 480.2138
415.9544, 478.3954
416.4366, 477.1766
416.9187, 476.6948
417.4008, 477.1509
417.8829, 478.6072
418.3650, 481.0271
418.8471, 484.4201
419.3293, 488.7551
419.8114, 494.0482
420.2935, 499.8948
420.7756, 506.9604
421.2577, 515.6449
421.7398, 526.8356
422.2220, 538.2875
422.7041, 549.1578
423.1862, 560.1088
423.6683, 572.3514
424.1504, 588.2377
424.6325, 603.4533
425.1147, 617.0683
425.5968, 629.3649
426.0789, 639.3484
426.5610, 648.3196
427.0431, 653.8246
427.5252, 654.1859
428.0074, 650.6379
428.4895, 638.7887
428.9716, 616.8625
429.4537, 586.9077
429.9358, 554.6848
430.4179, 519.4809
430.9001, 484.8551
431.3822, 452.3683
431.8643, 422.0029
432.3464, 394.9835
432.8285, 371.3610
433.3106, 350.9250
433.7928, 333.8218
434.2749, 319.8966
434.7570, 307.8707
435.2391, 297.4023
435.7212, 288.5493
436.2033, 281.7204
436.6855, 276.8687
437.1676, 272.9153
437.6497, 269.2423
438.1318, 265.9505
438.6139, 263.2198
439.0960, 261.1180
439.5782, 259.4334
440.0603, 257.8044
440.5424, 256.4791
441.0245, 255.9384
441.5066, 256.5152
441.9887, 257.8122
442.4709, 259.7726
442.9530, 262.3642
443.4351, 265.0761
443.9172, 267.0977
444.3993, 269.5119
444.8814, 273.0742
445.3636, 278.2660
445.8457, 284.1529
446.3278, 290.4059
446.8099, 297.2369
447.2920, 305.3466
447.7741, 315.2146
448.2563, 325.9079
448.7384, 337.1410
449.2205, 349.1334
449.7026, 360.7787
450.1847, 371.7386
450.6668, 382.6174
451.1490, 393.7943
451.6311, 405.1565
452.1132, 417.4683
452.5953, 431.1762
453.0774, 445.7397
453.5595, 460.2921
454.0417, 474.8127
454.5238, 490.0598
455.0059, 506.7078
455.4880, 524.5054
455.9701, 542.7648
456.4522, 561.2423
456.9344, 581.0989
457.4165, 603.5936
457.8986, 628.5714
458.3807, 654.9194
458.8628, 682.7787
459.3449, 711.6212
459.8271, 741.3353
460.3092, 771.8490
460.7913, 803.3567
461.2734, 837.9348
461.7555, 872.2441
462.2376, 904.4010
462.7198, 934.2386
463.2019, 959.9518
463.6840, 982.8492
464.1661, 1000.143
464.6482, 1008.460
465.1303, 1008.379
465.6125, 997.6906
466.0946, 974.4510
466.5767, 939.1333
467.0588, 897.5714
467.5409, 845.9929
468.0230, 791.9026
468.5052, 737.9675
468.9873, 682.5149
469.4694, 631.3177
469.9515, 584.2262
470.4336, 541.6839
470.9157, 503.8334
471.3979, 471.0599
471.8800, 442.5358
472.3621, 418.3904
472.8442, 398.3928
473.3263, 380.5939
473.8084, 365.0263
474.2906, 351.3679
474.7727, 339.6342
475.2548, 329.6756
475.7369, 320.8520
476.2190, 313.1153
476.7011, 306.3367
477.1833, 300.2766
477.6654, 294.9540
478.1475, 290.4256
478.6296, 286.9074
479.1117, 284.0612
479.5938, 281.7022
480.0760, 279.7733
480.5581, 277.9675
481.0402, 275.7796
481.5223, 273.8142
482.0044, 272.5417
482.4865, 272.0791
482.9687, 272.2629
483.4508, 273.4577
483.9329, 275.1644
484.4150, 276.6526
484.8971, 277.4446
485.3792, 278.3852
485.8614, 279.5911
486.3435, 281.0685
486.8256, 283.0194
487.3077, 285.6565
487.7898, 288.4872
488.2719, 291.2145
488.7541, 293.5887
489.2362, 296.5508
489.7183, 300.3155
490.2004, 304.3962
490.6825, 308.0747
491.1646, 311.3103
491.6468, 314.6800
492.1289, 318.3882
492.6110, 322.3470
493.0931, 326.6423
493.5752, 331.2851
494.0573, 335.7872
494.5395, 339.7424
495.0216, 343.3424
495.5037, 347.1405
495.9858, 351.1708
496.4679, 355.1668
496.9500, 358.6564
497.4322, 361.9435
497.9143, 365.4697
498.3964, 369.8070
498.8785, 374.0873
499.3606, 377.7749
499.8427, 380.9804
500.3249, 383.9660
500.8070, 386.6776
501.2891, 389.3544
501.7712, 392.2216
502.2533, 395.6647
502.7354, 398.2380
503.2176, 399.3885
503.6997, 399.8285
504.1818, 400.2238
504.6639, 400.4465
505.1460, 400.8952
505.6281, 401.8763
506.1103, 403.0858
506.5924, 403.2909
507.0745, 402.3667
507.5566, 400.8610
508.0387, 398.8904
508.5208, 396.4818
509.0030, 394.3153
509.4851, 392.4788
509.9672, 390.3980
510.4493, 387.3086
510.9314, 383.4464
511.4135, 379.6020
511.8957, 376.0855
512.3778, 372.5695
512.8599, 368.7053
513.3420, 364.5487
513.8242, 360.2709
514.3063, 355.6140
514.7884, 351.0508
515.2705, 347.0363
515.7526, 343.6171
516.2347, 340.2457
516.7169, 336.4429
517.1990, 332.7553
517.6811, 329.6085
518.1632, 327.5377
518.6453, 325.3630
519.1274, 322.7006
519.6096, 319.8943
520.0917, 317.6551
520.5738, 316.4425
521.0559, 315.0480
521.5380, 313.1744
522.0201, 310.8382
522.5023, 308.1884
522.9844, 305.0045
523.4665, 302.1157
523.9486, 300.2846
524.4307, 299.4470
524.9128, 298.3728
525.3950, 296.9118
525.8771, 295.4323
526.3592, 294.3933
526.8413, 293.7535
527.3234, 293.3555
527.8055, 293.4033
528.2877, 293.4172
528.7698, 292.7209
529.2519, 291.4589
529.7340, 290.2237
530.2161, 289.2918
530.6982, 288.5574
531.1804, 287.8667
531.6625, 287.1605
532.1446, 286.8541
532.6267, 287.5127
533.1088, 288.4347
533.5909, 288.9633
534.0731, 288.3939
534.5552, 288.2260
535.0373, 288.9536
535.5194, 290.0977
536.0015, 290.3345
536.4836, 288.9387
536.9658, 288.1348
537.4479, 288.9849
537.9300, 291.3719
538.4121, 292.6132
538.8942, 292.4570
539.3763, 292.1624
539.8585, 292.8366
540.3406, 294.3291
540.8227, 295.7953
541.3048, 297.1404
541.7869, 298.4375
542.2690, 299.8742
542.7512, 301.3450
543.2333, 302.5839
543.7154, 303.3274
544.1975, 303.9236
544.6796, 304.6542
545.1617, 305.4907
545.6439, 306.2752
546.1260, 306.7743
546.6081, 307.3265
547.0902, 308.2146
547.5723, 309.6066
548.0544, 310.7115
548.5366, 311.4313
549.0187, 311.8150
549.5008, 311.8757
549.9829, 311.2386
550.4650, 310.9844
550.9471, 311.3545
551.4293, 312.0790
551.9114, 312.5042
552.3935, 312.5606
552.8756, 312.6826
553.3577, 313.2339
553.8398, 313.9858
554.3220, 313.5641
554.8041, 311.9195
555.2862, 310.5302
555.7683, 310.6524
556.2504, 311.8282
556.7325, 313.3072
557.2147, 315.0986
557.6968, 316.5832
558.1789, 316.9021
558.6610, 316.6619
559.1431, 316.7559
559.6252, 317.5295
560.1074, 318.6624
560.5895, 320.3501
561.0716, 322.3587
561.5537, 323.8789
562.0358, 324.0663
562.5179, 324.4190
563.0001, 325.5301
563.4822, 327.4760
563.9643, 329.2598
564.4464, 330.7585
564.9285, 332.2737
565.4106, 334.0385
565.8928, 336.0772
566.3749, 338.3190
566.8570, 340.8681
567.3391, 343.4347
567.8212, 345.6880
568.3033, 347.6267
568.7855, 349.0459
569.2676, 349.6312
569.7497, 349.9298
570.2318, 351.1161
570.7139, 352.8682
571.1960, 353.8768
571.6782, 353.4575
572.1603, 351.8981
572.6424, 349.2037
573.1245, 345.2999
573.6066, 341.2584
574.0887, 337.9250
574.5709, 334.3204
575.0530, 329.6437
575.5351, 322.9913
576.0172, 316.3236
576.4993, 309.6917
576.9814, 303.0715
577.4636, 296.4409
577.9457, 289.5334
578.4278, 283.3143
578.9099, 278.0222
579.3920, 273.6916
579.8741, 270.5881
580.3563, 268.7674
580.8384, 267.6461
581.3205, 266.9642
581.8026, 266.7032
582.2847, 266.6988
582.7668, 266.9328
583.2490, 267.9374
583.7311, 270.6342
584.2132, 274.1767
584.6953, 277.4493
585.1774, 279.9205
585.6595, 282.6900
586.1416, 286.2305
586.6237, 290.4471
587.1058, 295.2491
587.5880, 301.3826
