##NAMES=Trolleite
##RRUFFID=R050545
##IDEAL CHEMISTRY=Al_4_(PO_4_)_3_(OH)_3_
##LOCALITY=near Laws, Mono County, California, USA
##OWNER=RRUFF
##SOURCE=University of Arizona Mineral Museum
##DESCRIPTION=Colorless to light blue massive fragment, 2-fold twin around [1 0 2]
##STATUS=The identification of this mineral is confirmed by single-crystal X-ray diffraction and chemical analysis.
##URL=rruff.info/R050545
##MEASURED CHEMISTRY=(Al_3.93_Fe^3+^_0.06_Cr_0.01_)_Î£=4_(P_1.00_O_4_)_3_(OH)_3_; OH estimated by difference
90.92609, 0.0000000E+00
91.40820, 26.26903
91.89032, 25.95621
92.37244, 26.23161
92.85455, 26.96961
93.33667, 27.42043
93.81879, 26.57138
94.30090, 24.93747
94.78302, 24.13653
95.26514, 24.83503
95.74725, 26.31388
96.22937, 26.98830
96.71149, 26.81036
97.19360, 26.30608
97.67572, 25.88477
98.15784, 25.55333
98.63995, 25.30846
99.12207, 25.20691
99.60419, 25.21738
100.0863, 25.01901
100.5684, 24.54639
101.0505, 23.99423
101.5327, 23.60899
102.0148, 23.43157
102.4969, 23.28186
102.9790, 22.95504
103.4611, 22.26418
103.9432, 22.56165
104.4253, 24.42645
104.9075, 26.96616
105.3896, 28.30728
105.8717, 27.76612
106.3538, 26.96822
106.8359, 26.45043
107.3180, 25.90528
107.8002, 26.19954
108.2823, 27.75640
108.7644, 30.22831
109.2465, 32.40535
109.7286, 34.30053
110.2107, 35.85712
110.6929, 37.08317
111.1750, 36.27061
111.6571, 37.00771
112.1392, 40.67418
112.6213, 46.76035
113.1034, 51.45652
113.5856, 52.55484
114.0677, 52.96418
114.5498, 54.74711
115.0319, 59.12507
115.5140, 64.17892
115.9961, 69.28983
116.4783, 74.45084
116.9604, 80.18526
117.4425, 86.88194
117.9246, 94.27213
118.4067, 101.9896
118.8888, 109.5075
119.3710, 117.6825
119.8531, 127.4218
120.3352, 138.9151
120.8173, 150.1699
121.2994, 159.6431
121.7815, 167.9567
122.2637, 176.2285
122.7458, 185.4039
123.2279, 194.5061
123.7100, 202.3939
124.1921, 208.7601
124.6742, 214.6952
125.1564, 220.8376
125.6385, 227.2848
126.1206, 234.3764
126.6027, 241.9035
127.0848, 250.2165
127.5669, 259.9778
128.0491, 271.4666
128.5312, 284.0586
129.0133, 296.9688
129.4954, 310.1196
129.9775, 323.8716
130.4596, 339.0713
130.9418, 355.1447
131.4239, 370.3544
131.9060, 384.1510
132.3881, 397.1510
132.8702, 410.6853
133.3523, 424.8810
133.8345, 438.7723
134.3166, 451.6745
134.7987, 463.6844
135.2808, 474.5745
135.7629, 484.3700
136.2450, 493.1845
136.7272, 501.1378
137.2093, 508.0763
137.6914, 514.7708
138.1735, 522.4192
138.6556, 531.4166
139.1377, 538.9800
139.6199, 543.9890
140.1020, 546.4185
140.5841, 550.0264
141.0662, 554.8323
141.5483, 560.7272
142.0304, 567.5139
142.5126, 574.8943
142.9947, 583.4958
143.4768, 591.6989
143.9589, 598.3102
144.4410, 605.4147
144.9231, 612.8610
145.4053, 620.9050
145.8874, 630.2758
146.3695, 642.1522
146.8516, 653.6553
147.3337, 663.9277
147.8158, 673.6859
148.2980, 681.0148
148.7801, 685.1191
149.2622, 687.0610
149.7443, 688.8398
150.2264, 690.4451
150.7085, 691.9392
151.1907, 693.1018
151.6728, 691.7756
152.1549, 693.6313
152.6370, 699.5848
153.1191, 708.7603
153.6012, 718.9321
154.0834, 730.8656
154.5655, 742.9427
155.0476, 754.7274
155.5297, 767.0897
156.0118, 777.5811
156.4939, 784.7969
156.9761, 789.6945
157.4582, 795.2068
157.9403, 801.8174
158.4224, 809.3236
158.9045, 817.6687
159.3866, 827.4678
159.8688, 837.2468
160.3509, 845.8279
160.8330, 853.7051
161.3151, 863.1890
161.7972, 876.4527
162.2793, 890.9390
162.7615, 904.6799
163.2436, 915.0095
163.7257, 926.5064
164.2078, 941.1191
164.6899, 958.6752
165.1720, 978.0818
165.6541, 997.7846
166.1363, 1019.424
166.6184, 1044.617
167.1005, 1074.059
167.5826, 1107.004
168.0647, 1142.779
168.5468, 1181.475
169.0290, 1224.714
169.5111, 1275.181
169.9932, 1330.359
170.4753, 1387.176
170.9574, 1452.341
171.4395, 1512.944
171.9217, 1563.699
172.4038, 1604.547
172.8859, 1623.395
173.3680, 1606.824
173.8501, 1562.436
174.3322, 1503.286
174.8144, 1422.778
175.2965, 1335.257
175.7786, 1257.407
176.2607, 1188.491
176.7428, 1131.633
177.2249, 1090.758
177.7071, 1064.376
178.1892, 1047.859
178.6713, 1041.469
179.1534, 1043.056
179.6355, 1049.379
180.1176, 1060.443
180.5998, 1075.573
181.0819, 1096.144
181.5640, 1120.760
182.0461, 1145.264
182.5282, 1167.762
183.0103, 1188.555
183.4925, 1207.785
183.9746, 1225.126
184.4567, 1242.017
184.9388, 1259.410
185.4209, 1277.645
185.9030, 1297.732
186.3852, 1320.527
186.8673, 1345.626
187.3494, 1372.415
187.8315, 1400.778
188.3136, 1430.877
188.7957, 1463.587
189.2779, 1498.659
189.7600, 1536.806
190.2421, 1579.269
190.7242, 1625.121
191.2063, 1669.401
191.6884, 1710.528
192.1706, 1752.877
192.6527, 1802.701
193.1348, 1859.735
193.6169, 1927.437
194.0990, 2007.745
194.5811, 2100.365
195.0633, 2206.349
195.5454, 2325.749
196.0275, 2458.296
196.5096, 2604.241
196.9917, 2765.919
197.4738, 2922.171
197.9560, 3075.319
198.4381, 3225.234
198.9202, 3322.149
199.4023, 3367.979
199.8844, 3353.069
200.3665, 3248.063
200.8487, 3044.211
201.3308, 2803.282
201.8129, 2541.217
202.2950, 2253.532
202.7771, 2003.288
203.2592, 1791.531
203.7414, 1615.984
204.2235, 1472.035
204.7056, 1363.692
205.1877, 1276.022
205.6698, 1204.396
206.1519, 1150.282
206.6341, 1102.427
207.1162, 1061.474
207.5983, 1026.179
208.0804, 994.2349
208.5625, 965.8824
209.0446, 941.0325
209.5268, 919.8715
210.0089, 902.6215
210.4910, 888.2420
210.9731, 877.4353
211.4552, 868.9569
211.9373, 859.7609
212.4195, 849.1295
212.9016, 839.7004
213.3837, 832.9135
213.8658, 829.3116
214.3479, 826.3915
214.8300, 824.2426
215.3121, 822.6404
215.7943, 821.0170
216.2764, 819.2708
216.7585, 817.7168
217.2406, 816.4125
217.7227, 815.2370
218.2048, 814.6786
218.6870, 814.7318
219.1691, 815.3864
219.6512, 816.7072
220.1333, 818.9620
220.6154, 821.3867
221.0975, 823.6970
221.5797, 825.7950
222.0618, 827.8768
222.5439, 829.3506
223.0260, 831.0984
223.5081, 835.6996
223.9902, 845.5380
224.4724, 854.0700
224.9545, 858.2370
225.4366, 856.6575
225.9187, 854.9570
226.4008, 853.1848
226.8829, 851.2709
227.3651, 849.0398
227.8472, 846.3807
228.3293, 843.5374
228.8114, 840.5609
229.2935, 837.3770
229.7757, 834.2156
230.2578, 830.7511
230.7399, 827.4755
231.2220, 825.2600
231.7041, 823.9401
232.1862, 823.9698
232.6684, 825.8998
233.1505, 830.8143
233.6326, 833.9275
234.1147, 834.0345
234.5968, 832.9873
235.0789, 834.0623
235.5611, 837.4728
236.0432, 842.6514
236.5253, 849.7640
237.0074, 859.2535
237.4895, 868.6382
237.9716, 877.4439
238.4538, 886.4413
238.9359, 896.8614
239.4180, 909.2576
239.9001, 922.3795
240.3822, 935.8718
240.8643, 949.4685
241.3465, 964.2152
241.8286, 980.9828
242.3107, 998.2831
242.7928, 1013.930
243.2749, 1027.124
243.7570, 1040.091
244.2392, 1054.099
244.7213, 1070.059
245.2034, 1081.563
245.6855, 1087.397
246.1676, 1089.916
246.6497, 1091.933
247.1319, 1093.402
247.6140, 1094.460
248.0961, 1094.860
248.5782, 1094.420
249.0603, 1095.026
249.5424, 1095.864
250.0246, 1098.535
250.5067, 1104.998
250.9888, 1116.446
251.4709, 1129.347
251.9530, 1142.813
252.4351, 1156.901
252.9173, 1173.053
253.3994, 1191.469
253.8815, 1211.929
254.3636, 1234.834
254.8457, 1261.840
255.3278, 1287.167
255.8100, 1310.521
256.2921, 1331.867
256.7742, 1348.255
257.2563, 1361.713
257.7384, 1367.500
258.2205, 1360.944
258.7026, 1339.333
259.1848, 1311.785
259.6669, 1278.000
260.1490, 1238.705
260.6311, 1202.296
261.1132, 1168.396
261.5953, 1138.097
262.0775, 1112.479
262.5596, 1091.093
263.0417, 1075.425
263.5238, 1067.202
264.0059, 1064.806
264.4880, 1059.824
264.9702, 1051.126
265.4523, 1042.059
265.9344, 1034.732
266.4165, 1029.354
266.8986, 1024.685
267.3807, 1020.583
267.8629, 1017.098
268.3450, 1014.084
268.8271, 1010.994
269.3092, 1009.679
269.7913, 1010.987
270.2734, 1014.898
270.7556, 1021.684
271.2377, 1031.647
271.7198, 1044.388
272.2019, 1059.033
272.6840, 1075.535
273.1661, 1094.193
273.6483, 1115.570
274.1304, 1139.885
274.6125, 1164.410
275.0946, 1188.769
275.5767, 1213.531
276.0588, 1239.860
276.5410, 1267.834
277.0231, 1296.434
277.5052, 1324.413
277.9873, 1351.822
278.4694, 1380.670
278.9515, 1410.770
279.4337, 1442.591
279.9158, 1476.865
280.3979, 1513.468
280.8800, 1552.116
281.3621, 1591.029
281.8442, 1630.908
282.3264, 1677.113
282.8085, 1729.861
283.2906, 1788.232
283.7727, 1851.380
284.2548, 1919.324
284.7369, 1991.786
285.2191, 2068.989
285.7012, 2150.357
286.1833, 2237.924
286.6654, 2332.443
287.1475, 2428.597
287.6296, 2523.694
288.1118, 2617.247
288.5939, 2700.480
289.0760, 2774.414
289.5581, 2834.356
290.0402, 2872.515
290.5223, 2889.017
291.0045, 2879.728
291.4866, 2838.648
291.9687, 2768.206
292.4508, 2677.786
292.9329, 2563.996
293.4150, 2438.407
293.8972, 2311.859
294.3793, 2185.088
294.8614, 2066.071
295.3435, 1961.071
295.8256, 1868.626
296.3077, 1785.739
296.7899, 1712.638
297.2720, 1649.489
297.7541, 1599.310
298.2362, 1561.149
298.7183, 1529.823
299.2004, 1504.056
299.6826, 1483.041
300.1647, 1464.880
300.6468, 1449.587
301.1289, 1436.906
301.6110, 1425.547
302.0931, 1416.402
302.5753, 1411.524
303.0574, 1413.244
303.5395, 1419.236
304.0216, 1426.606
304.5037, 1435.338
304.9858, 1445.871
305.4680, 1458.240
305.9501, 1472.732
306.4322, 1489.730
306.9143, 1508.361
307.3964, 1530.446
307.8785, 1558.650
308.3607, 1592.593
308.8428, 1629.452
309.3249, 1667.166
309.8070, 1706.831
310.2891, 1749.866
310.7712, 1799.691
311.2534, 1849.813
311.7355, 1897.194
312.2176, 1941.835
312.6997, 1982.226
313.1818, 2023.320
313.6639, 2056.131
314.1461, 2073.798
314.6282, 2074.436
315.1103, 2060.163
315.5924, 2029.441
316.0745, 1984.775
316.5566, 1930.666
317.0388, 1863.125
317.5209, 1791.435
318.0030, 1718.882
318.4851, 1644.638
318.9672, 1574.965
319.4493, 1510.500
319.9315, 1452.483
320.4136, 1401.734
320.8957, 1361.549
321.3778, 1326.583
321.8599, 1294.170
322.3420, 1263.900
322.8242, 1239.505
323.3063, 1224.107
323.7884, 1213.783
324.2705, 1205.113
324.7526, 1197.656
325.2347, 1191.673
325.7169, 1187.335
326.1990, 1184.573
326.6811, 1183.327
327.1632, 1183.921
327.6453, 1185.801
328.1274, 1188.668
328.6096, 1193.340
329.0917, 1197.980
329.5738, 1201.922
330.0559, 1205.698
330.5380, 1211.110
331.0201, 1218.288
331.5023, 1226.966
331.9844, 1237.098
332.4665, 1248.610
332.9486, 1261.570
333.4307, 1276.099
333.9128, 1291.956
334.3950, 1308.166
334.8771, 1323.688
335.3592, 1341.835
335.8413, 1364.169
336.3234, 1391.373
336.8055, 1416.923
337.2877, 1440.550
337.7698, 1462.520
338.2519, 1483.673
338.7340, 1504.299
339.2161, 1522.531
339.6982, 1538.783
340.1803, 1552.396
340.6624, 1558.576
341.1446, 1557.329
341.6267, 1548.785
342.1088, 1532.032
342.5909, 1507.081
343.0730, 1477.800
343.5551, 1444.215
344.0373, 1407.477
344.5194, 1370.288
345.0015, 1332.232
345.4836, 1295.741
345.9657, 1260.922
346.4478, 1228.398
346.9300, 1202.250
347.4121, 1183.081
347.8942, 1168.131
348.3763, 1153.680
348.8584, 1139.973
349.3405, 1128.007
349.8227, 1118.309
350.3048, 1110.660
350.7869, 1104.208
351.2690, 1098.939
351.7511, 1096.294
352.2332, 1098.890
352.7154, 1105.120
353.1975, 1111.417
353.6796, 1115.697
354.1617, 1120.535
354.6438, 1129.571
355.1259, 1142.143
355.6081, 1154.721
356.0902, 1165.224
356.5723, 1174.493
357.0544, 1183.609
357.5365, 1192.803
358.0186, 1201.515
358.5008, 1209.922
358.9829, 1217.536
359.4650, 1223.327
359.9471, 1227.808
360.4292, 1229.609
360.9113, 1227.703
361.3935, 1221.865
361.8756, 1213.491
362.3577, 1202.838
362.8398, 1190.104
363.3219, 1175.510
363.8040, 1158.027
364.2862, 1139.810
364.7683, 1121.336
365.2504, 1102.577
365.7325, 1084.000
366.2146, 1064.335
366.6967, 1045.602
367.1789, 1029.053
367.6610, 1016.309
368.1431, 1003.973
368.6252, 991.1513
369.1073, 978.3881
369.5894, 967.5582
370.0716, 958.7649
370.5537, 951.6999
371.0358, 946.2543
371.5179, 942.5742
372.0000, 940.1008
372.4821, 939.2853
372.9643, 939.3725
373.4464, 939.1871
373.9285, 937.8525
374.4106, 938.1223
374.8927, 940.9548
375.3748, 946.2665
375.8570, 951.3017
376.3391, 955.7939
376.8212, 960.6204
377.3033, 966.7355
377.7854, 974.2803
378.2675, 981.8149
378.7497, 989.2039
379.2318, 996.4833
379.7139, 1004.355
380.1960, 1012.898
380.6781, 1020.407
381.1602, 1026.024
381.6424, 1029.764
382.1245, 1031.365
382.6066, 1030.615
383.0887, 1028.712
383.5708, 1026.740
384.0529, 1024.805
384.5351, 1023.307
385.0172, 1022.536
385.4993, 1022.266
385.9814, 1021.503
386.4635, 1020.344
386.9456, 1020.809
387.4278, 1024.800
387.9099, 1031.417
388.3920, 1039.258
388.8741, 1047.731
389.3562, 1057.676
389.8383, 1070.472
390.3205, 1085.558
390.8026, 1101.012
391.2847, 1115.096
391.7668, 1129.569
392.2489, 1146.132
392.7310, 1165.162
393.2132, 1184.925
393.6953, 1204.839
394.1774, 1224.681
394.6595, 1244.346
395.1416, 1265.314
395.6237, 1284.433
396.1059, 1300.295
396.5880, 1313.007
397.0701, 1324.684
397.5522, 1336.955
398.0343, 1347.411
398.5164, 1354.593
398.9986, 1357.320
399.4807, 1358.115
399.9628, 1354.898
400.4449, 1349.971
400.9270, 1348.773
401.4091, 1353.842
401.8913, 1359.385
402.3734, 1363.742
402.8555, 1366.864
403.3376, 1369.063
403.8197, 1370.259
404.3018, 1370.608
404.7840, 1370.610
405.2661, 1370.905
405.7482, 1368.482
406.2303, 1362.471
406.7124, 1353.360
407.1945, 1342.670
407.6767, 1330.194
408.1588, 1317.090
408.6409, 1303.926
409.1230, 1290.757
409.6051, 1277.582
410.0872, 1264.133
410.5694, 1251.158
411.0515, 1240.881
411.5336, 1232.712
412.0157, 1223.170
412.4978, 1209.746
412.9799, 1194.199
413.4621, 1179.779
413.9442, 1166.368
414.4263, 1153.808
414.9084, 1141.176
415.3905, 1129.381
415.8727, 1119.758
416.3548, 1113.102
416.8369, 1107.961
417.3190, 1102.530
417.8011, 1097.551
418.2832, 1094.934
418.7654, 1096.769
419.2475, 1100.537
419.7296, 1104.335
420.2117, 1107.754
420.6938, 1112.679
421.1759, 1120.199
421.6581, 1129.416
422.1402, 1139.490
422.6223, 1148.456
423.1044, 1160.010
423.5865, 1176.474
424.0686, 1197.008
424.5508, 1215.811
425.0329, 1230.853
425.5150, 1245.126
425.9971, 1260.197
426.4792, 1278.046
426.9613, 1292.770
427.4435, 1305.636
427.9256, 1314.583
428.4077, 1316.632
428.8898, 1312.292
429.3719, 1299.768
429.8540, 1277.969
430.3362, 1247.314
430.8183, 1210.168
431.3004, 1164.760
431.7825, 1118.511
432.2646, 1076.545
432.7467, 1038.995
433.2289, 1006.463
433.7110, 979.9466
434.1931, 958.0021
434.6752, 938.5481
435.1573, 921.5855
435.6394, 907.1904
436.1216, 896.1511
436.6036, 887.5342
437.0858, 879.3858
437.5679, 871.6080
438.0500, 864.9366
438.5321, 860.3492
439.0142, 857.2495
439.4963, 854.6920
439.9785, 852.7032
440.4606, 850.7415
440.9427, 847.8454
441.4248, 844.5469
441.9069, 842.4534
442.3890, 843.2393
442.8712, 844.8643
443.3533, 845.8971
443.8354, 845.9391
444.3175, 846.6263
444.7996, 848.8184
445.2817, 851.7820
445.7639, 854.7683
446.2460, 856.9174
446.7281, 859.8705
447.2102, 863.7875
447.6923, 868.7016
448.1744, 874.6494
448.6566, 880.9603
449.1387, 889.0403
449.6208, 899.8789
450.1029, 915.0192
450.5850, 928.3726
451.0671, 939.1765
451.5493, 948.8053
452.0314, 958.9823
452.5135, 969.5355
452.9956, 981.0886
453.4777, 993.9795
453.9598, 1007.846
454.4420, 1021.404
454.9241, 1034.493
455.4062, 1047.760
455.8883, 1060.844
456.3704, 1074.214
456.8525, 1089.884
457.3347, 1107.795
457.8168, 1127.984
458.2989, 1149.936
458.7810, 1173.986
459.2631, 1200.384
459.7452, 1230.383
460.2274, 1262.578
460.7095, 1294.398
461.1916, 1326.566
461.6737, 1361.411
462.1558, 1403.128
462.6379, 1447.160
463.1201, 1489.624
463.6022, 1530.621
464.0843, 1568.992
464.5664, 1605.281
465.0485, 1638.497
465.5306, 1667.061
466.0128, 1696.848
466.4949, 1715.757
466.9770, 1720.798
467.4591, 1711.774
467.9412, 1688.134
468.4233, 1645.126
468.9055, 1591.709
469.3876, 1531.386
469.8697, 1458.763
470.3518, 1391.031
470.8339, 1327.202
471.3160, 1268.851
471.7982, 1218.794
472.2803, 1177.847
472.7624, 1141.763
473.2445, 1109.436
473.7266, 1080.934
474.2087, 1058.446
474.6909, 1042.417
475.1730, 1029.020
475.6551, 1015.492
476.1372, 1002.064
476.6193, 989.4426
477.1014, 977.5507
477.5836, 967.4218
478.0657, 961.3884
478.5478, 958.3424
479.0299, 955.2161
479.5120, 950.6879
479.9941, 945.2827
480.4763, 938.9534
480.9584, 931.8737
481.4405, 925.8089
481.9226, 922.0909
482.4047, 919.5900
482.8868, 917.4549
483.3690, 915.7065
483.8511, 913.9847
484.3332, 911.7463
484.8153, 909.5719
485.2974, 908.3580
485.7795, 908.4332
486.2617, 909.3107
486.7438, 911.0902
487.2259, 913.7639
487.7080, 916.2839
488.1901, 918.3882
488.6722, 920.7120
489.1544, 923.6559
489.6365, 927.2335
490.1186, 931.3518
490.6007, 936.2037
491.0828, 941.3221
491.5649, 946.0273
492.0471, 950.2560
492.5292, 954.5456
493.0113, 958.7948
493.4934, 963.2922
493.9755, 969.5013
494.4576, 977.2603
494.9398, 984.3721
495.4219, 988.2906
495.9040, 990.6157
496.3861, 993.9832
496.8682, 998.7482
497.3503, 1004.583
497.8325, 1012.482
498.3146, 1021.041
498.7967, 1028.243
499.2788, 1031.478
499.7609, 1034.814
500.2430, 1041.212
500.7252, 1049.750
501.2073, 1056.404
501.6894, 1058.120
502.1715, 1059.135
502.6536, 1061.646
503.1357, 1066.756
503.6179, 1070.691
504.1000, 1072.905
504.5821, 1074.210
505.0642, 1075.383
505.5463, 1076.474
506.0284, 1077.290
506.5106, 1077.824
506.9927, 1078.019
507.4748, 1077.501
507.9569, 1076.036
508.4390, 1074.910
508.9211, 1075.786
509.4033, 1078.063
509.8854, 1076.142
510.3675, 1069.654
510.8496, 1062.052
511.3317, 1056.730
511.8138, 1052.981
512.2960, 1049.043
512.7781, 1044.486
513.2602, 1039.524
513.7423, 1034.133
514.2244, 1028.494
514.7065, 1023.048
515.1887, 1018.656
515.6708, 1014.001
516.1529, 1007.992
516.6350, 1000.628
517.1171, 993.5567
517.5992, 987.1312
518.0814, 981.4179
518.5635, 976.5155
519.0456, 972.8668
519.5277, 969.3135
520.0098, 965.5777
520.4919, 962.0120
520.9741, 959.1762
521.4562, 957.3216
521.9383, 955.7777
522.4204, 954.6257
522.9025, 953.6924
523.3846, 951.7042
523.8668, 948.4017
524.3489, 945.1429
524.8310, 942.6465
525.3131, 940.8807
525.7952, 939.9192
526.2773, 939.9065
526.7595, 939.8063
527.2416, 937.8917
527.7237, 934.9551
528.2058, 933.0548
528.6879, 933.2249
529.1700, 934.1223
529.6522, 934.6184
530.1343, 934.8062
530.6164, 934.9535
531.0985, 935.0460
531.5806, 935.2675
532.0627, 935.8943
532.5449, 936.9871
533.0270, 937.6734
533.5091, 937.2275
533.9912, 936.5819
534.4733, 936.3908
534.9554, 936.5102
535.4376, 937.3743
535.9197, 939.3051
536.4018, 941.7958
536.8839, 943.8557
537.3660, 945.2024
537.8481, 946.9227
538.3303, 949.5029
538.8124, 952.6939
539.2945, 954.9384
539.7766, 956.0588
540.2587, 957.7467
540.7408, 962.2495
541.2230, 968.4395
541.7051, 971.4327
542.1872, 970.5800
542.6693, 969.2136
543.1514, 970.8168
543.6335, 974.2500
544.1157, 977.4196
544.5978, 979.4359
545.0799, 981.3542
545.5620, 984.1542
546.0441, 987.4183
546.5262, 990.1087
547.0084, 991.2615
547.4905, 992.2668
547.9726, 993.7167
548.4547, 995.6591
548.9368, 997.6989
549.4189, 999.7259
549.9011, 1001.881
550.3832, 1004.392
550.8653, 1008.096
551.3474, 1010.012
551.8295, 1009.422
552.3116, 1007.798
552.7938, 1007.174
553.2759, 1007.581
553.7580, 1008.792
554.2401, 1011.213
554.7222, 1014.009
555.2043, 1014.886
555.6865, 1013.974
556.1686, 1012.727
556.6507, 1011.901
557.1328, 1011.374
557.6149, 1010.710
558.0970, 1009.890
558.5792, 1009.942
559.0613, 1012.930
559.5434, 1016.530
560.0255, 1018.249
560.5076, 1016.354
560.9897, 1014.611
561.4719, 1014.598
561.9540, 1015.436
562.4361, 1015.661
562.9182, 1014.571
563.4003, 1013.391
563.8824, 1012.033
564.3646, 1010.644
564.8467, 1010.326
565.3288, 1011.363
565.8109, 1012.844
566.2930, 1014.595
566.7751, 1016.643
567.2573, 1017.426
567.7394, 1016.763
568.2215, 1015.648
568.7036, 1014.833
569.1857, 1014.386
569.6678, 1014.742
570.1500, 1016.399
570.6321, 1017.883
571.1142, 1017.146
571.5963, 1014.936
572.0784, 1012.938
572.5605, 1012.330
573.0427, 1011.793
573.5248, 1010.965
574.0069, 1009.697
574.4890, 1007.060
574.9711, 1002.335
575.4532, 996.5900
575.9354, 990.0895
576.4175, 982.3214
576.8996, 975.8015
577.3817, 971.1200
577.8638, 967.1804
578.3459, 963.0403
578.8281, 958.8095
579.3102, 953.9173
579.7923, 947.8080
580.2744, 941.7325
580.7565, 938.4545
581.2386, 937.8430
581.7208, 937.6562
582.2029, 936.6005
582.6850, 935.7385
583.1671, 936.9426
583.6492, 940.0961
584.1313, 944.4853
