##NAMES=Trona
##RRUFFID=R050499
##IDEAL CHEMISTRY=Na_3_(HCO_3_)(CO_3_)&#183;2H_2_O
##LOCALITY=Searles Lake, Trona, San Bernardino County, California, USA
##OWNER=RRUFF
##SOURCE=California Institute of Technology
##DESCRIPTION=Gray columnar massive
##STATUS=The identification of this mineral has been confirmed by X-ray diffraction and chemical analysis
##URL=rruff.info/R050499
##MEASURED CHEMISTRY=Na_3.00_(CO_3_)(HCO_3_)Â·2H_2_O ; CO_3_ and HCO_3_ were estimated by stoichiometry
93.56738, 3255.207
94.04950, 3009.657
94.53162, 2906.387
95.01373, 2925.924
95.49585, 3075.788
95.97797, 3294.398
96.46008, 3530.419
96.94220, 3792.248
97.42432, 4049.115
97.90643, 4338.737
98.38855, 4597.327
98.87067, 4806.766
99.35278, 4959.754
99.83490, 5037.737
100.3170, 4992.557
100.7991, 4747.271
101.2813, 4462.385
101.7634, 4111.600
102.2455, 3738.027
102.7276, 3383.170
103.2097, 3066.199
103.6918, 2788.139
104.1740, 2561.673
104.6561, 2385.639
105.1382, 2242.636
105.6203, 2130.699
106.1024, 2046.920
106.5845, 1981.446
107.0667, 1931.414
107.5488, 1894.961
108.0309, 1858.328
108.5130, 1821.086
108.9951, 1782.848
109.4772, 1743.010
109.9594, 1700.986
110.4415, 1658.284
110.9236, 1614.472
111.4057, 1570.531
111.8878, 1528.750
112.3699, 1489.889
112.8521, 1453.788
113.3342, 1421.236
113.8163, 1391.445
114.2984, 1366.623
114.7805, 1348.380
115.2626, 1335.876
115.7447, 1327.036
116.2269, 1319.744
116.7090, 1313.769
117.1911, 1310.507
117.6732, 1309.447
118.1553, 1310.927
118.6374, 1315.737
119.1196, 1323.781
119.6017, 1333.990
120.0838, 1344.707
120.5659, 1357.861
121.0480, 1368.198
121.5301, 1377.651
122.0123, 1383.649
122.4944, 1383.038
122.9765, 1374.434
123.4586, 1359.472
123.9407, 1341.316
124.4228, 1318.152
124.9050, 1296.078
125.3871, 1276.422
125.8692, 1259.392
126.3513, 1245.211
126.8334, 1234.052
127.3155, 1226.480
127.7977, 1221.990
128.2798, 1220.896
128.7619, 1222.401
129.2440, 1225.875
129.7261, 1231.298
130.2083, 1238.765
130.6904, 1248.427
131.1725, 1260.081
131.6546, 1274.151
132.1367, 1290.977
132.6188, 1309.949
133.1010, 1329.594
133.5831, 1349.590
134.0652, 1370.908
134.5473, 1393.886
135.0294, 1418.196
135.5115, 1443.535
135.9936, 1469.552
136.4758, 1496.323
136.9579, 1524.345
137.4400, 1555.944
137.9221, 1586.796
138.4042, 1617.611
138.8863, 1646.955
139.3685, 1672.831
139.8506, 1693.857
140.3327, 1710.328
140.8148, 1716.459
141.2969, 1708.823
141.7790, 1695.936
142.2612, 1680.506
142.7433, 1663.553
143.2254, 1647.380
143.7075, 1634.048
144.1896, 1623.777
144.6717, 1618.222
145.1539, 1617.547
145.6360, 1621.602
146.1181, 1630.092
146.6002, 1642.842
147.0823, 1660.615
147.5644, 1685.045
148.0466, 1715.085
148.5287, 1750.085
149.0108, 1788.338
149.4929, 1831.011
149.9750, 1882.000
150.4571, 1941.907
150.9393, 2011.436
151.4214, 2091.334
151.9035, 2181.017
152.3856, 2272.923
152.8677, 2367.907
153.3498, 2467.155
153.8320, 2545.372
154.3141, 2603.637
154.7962, 2633.216
155.2783, 2623.388
155.7604, 2573.997
156.2425, 2497.139
156.7247, 2405.092
157.2068, 2287.727
157.6889, 2177.707
158.1710, 2070.693
158.6531, 1973.875
159.1352, 1892.461
159.6174, 1828.091
160.0995, 1778.416
160.5816, 1739.578
161.0637, 1715.954
161.5458, 1699.414
162.0279, 1690.791
162.5101, 1688.282
162.9922, 1690.490
163.4743, 1696.851
163.9564, 1707.048
164.4385, 1720.649
164.9206, 1739.574
165.4028, 1759.109
165.8849, 1780.607
166.3670, 1802.049
166.8491, 1820.086
167.3312, 1833.068
167.8133, 1841.214
168.2955, 1845.584
168.7776, 1844.966
169.2597, 1843.066
169.7418, 1840.406
170.2239, 1837.435
170.7060, 1836.410
171.1882, 1838.077
171.6703, 1843.050
172.1524, 1851.720
172.6345, 1865.708
173.1166, 1881.044
173.5987, 1894.748
174.0809, 1906.946
174.5630, 1916.905
175.0451, 1924.740
175.5272, 1929.740
176.0093, 1930.663
176.4914, 1926.889
176.9736, 1919.303
177.4557, 1908.351
177.9378, 1891.869
178.4199, 1877.446
178.9020, 1866.387
179.3841, 1858.676
179.8663, 1854.069
180.3484, 1852.218
180.8305, 1854.007
181.3126, 1862.426
181.7947, 1880.997
182.2768, 1902.047
182.7590, 1926.808
183.2411, 1952.115
183.7232, 1975.483
184.2053, 1996.010
184.6874, 2012.426
185.1695, 2016.214
185.6517, 2003.505
186.1338, 1980.435
186.6159, 1944.508
187.0980, 1898.930
187.5801, 1848.047
188.0622, 1794.142
188.5444, 1737.707
189.0265, 1682.529
189.5086, 1625.413
189.9907, 1572.436
190.4728, 1525.522
190.9549, 1484.249
191.4371, 1447.705
191.9192, 1415.229
192.4013, 1387.088
192.8834, 1361.949
193.3655, 1339.567
193.8476, 1319.810
194.3298, 1303.468
194.8119, 1290.054
195.2940, 1277.452
195.7761, 1263.998
196.2582, 1250.115
196.7403, 1237.764
197.2225, 1228.301
197.7046, 1219.412
198.1867, 1208.902
198.6688, 1196.664
199.1509, 1185.105
199.6330, 1175.943
200.1152, 1168.684
200.5973, 1162.234
201.0794, 1156.526
201.5615, 1151.472
202.0436, 1147.027
202.5257, 1143.259
203.0079, 1139.851
203.4900, 1136.604
203.9721, 1133.595
204.4542, 1131.061
204.9363, 1129.434
205.4184, 1128.076
205.9006, 1125.561
206.3827, 1121.258
206.8648, 1117.296
207.3469, 1113.981
207.8290, 1111.622
208.3111, 1110.861
208.7933, 1112.363
209.2754, 1115.294
209.7575, 1117.150
210.2396, 1117.160
210.7217, 1117.276
211.2038, 1117.793
211.6860, 1118.798
212.1681, 1120.617
212.6502, 1123.619
213.1323, 1127.283
213.6144, 1129.173
214.0965, 1127.723
214.5787, 1126.301
215.0608, 1125.613
215.5429, 1125.322
216.0250, 1124.810
216.5071, 1123.654
216.9892, 1122.122
217.4713, 1121.744
217.9535, 1123.682
218.4356, 1125.640
218.9177, 1127.233
219.3998, 1128.636
219.8819, 1130.016
220.3640, 1131.418
220.8462, 1133.007
221.3283, 1135.928
221.8104, 1141.374
222.2925, 1146.728
222.7746, 1151.795
223.2567, 1156.385
223.7389, 1160.321
224.2210, 1163.589
224.7031, 1166.019
225.1852, 1166.414
225.6673, 1163.931
226.1494, 1160.857
226.6316, 1158.139
227.1137, 1155.325
227.5958, 1151.295
228.0779, 1145.391
228.5600, 1137.922
229.0421, 1130.317
229.5243, 1121.959
230.0064, 1114.198
230.4885, 1107.684
230.9706, 1102.193
231.4527, 1097.046
231.9348, 1092.020
232.4170, 1087.054
232.8991, 1082.002
233.3812, 1076.991
233.8633, 1071.703
234.3454, 1065.646
234.8275, 1059.071
235.3097, 1052.988
235.7918, 1047.665
236.2739, 1043.298
236.7560, 1040.140
237.2381, 1038.684
237.7202, 1036.970
238.2024, 1033.255
238.6845, 1027.887
239.1666, 1023.314
239.6487, 1020.497
240.1308, 1018.784
240.6129, 1017.463
241.0951, 1016.611
241.5772, 1015.452
242.0593, 1013.107
242.5414, 1009.673
243.0235, 1006.779
243.5056, 1005.659
243.9878, 1004.445
244.4699, 1000.876
244.9520, 994.8678
245.4341, 989.7900
245.9162, 989.4199
246.3983, 993.7224
246.8805, 996.2846
247.3626, 995.1236
247.8447, 992.6604
248.3268, 989.9824
248.8089, 987.2898
249.2910, 985.0360
249.7732, 983.7868
250.2553, 983.5820
250.7374, 983.3289
251.2195, 983.0492
251.7016, 982.6100
252.1837, 981.8348
252.6659, 980.8059
253.1480, 979.8058
253.6301, 979.0972
254.1122, 978.6910
254.5943, 978.3489
255.0764, 978.1888
255.5586, 977.9785
256.0407, 977.4734
256.5228, 976.8121
257.0049, 976.4010
257.4870, 976.7465
257.9691, 977.8823
258.4513, 978.1349
258.9334, 976.6876
259.4155, 975.0247
259.8976, 973.2714
260.3797, 971.6089
260.8618, 970.3210
261.3440, 969.6791
261.8261, 969.6493
262.3082, 969.3662
262.7903, 968.6901
263.2724, 967.8723
263.7545, 966.5372
264.2367, 965.1307
264.7188, 964.4816
265.2009, 965.2267
265.6830, 967.1222
266.1651, 968.1466
266.6472, 968.1130
267.1294, 967.3127
267.6115, 964.8032
268.0936, 961.7321
268.5757, 959.9323
269.0578, 960.4940
269.5399, 962.7076
270.0221, 963.4416
270.5042, 960.7268
270.9863, 958.6957
271.4684, 958.2095
271.9505, 958.5134
272.4326, 958.7100
272.9148, 958.3952
273.3969, 957.6335
273.8790, 956.6073
274.3611, 954.5308
274.8432, 953.1484
275.3253, 953.3127
275.8075, 953.8724
276.2896, 953.1331
276.7717, 950.5186
277.2538, 947.5558
277.7359, 947.1930
278.2180, 952.3850
278.7002, 955.7391
279.1823, 956.4644
279.6644, 955.7156
280.1465, 954.2211
280.6286, 952.2512
281.1107, 950.2945
281.5929, 949.0819
282.0750, 949.0231
282.5571, 948.7774
283.0392, 948.2044
283.5213, 947.5367
284.0034, 946.8676
284.4856, 946.2448
284.9677, 945.8542
285.4498, 945.9562
285.9319, 946.7077
286.4140, 947.1428
286.8961, 946.6141
287.3783, 946.2678
287.8604, 947.5237
288.3425, 950.1295
288.8246, 951.9130
289.3067, 950.7249
289.7888, 946.4681
290.2710, 943.8212
290.7531, 943.6325
291.2352, 944.1180
291.7173, 944.5061
292.1994, 944.7368
292.6815, 944.8970
293.1637, 945.1310
293.6458, 945.3034
294.1279, 944.6848
294.6100, 942.5507
295.0921, 940.4895
295.5742, 938.9711
296.0564, 938.0255
296.5385, 937.8113
297.0206, 938.5529
297.5027, 939.8931
297.9848, 940.7867
298.4669, 941.4997
298.9491, 941.4897
299.4312, 939.9538
299.9133, 937.6396
300.3954, 936.1129
300.8775, 936.0388
301.3596, 936.6137
301.8418, 936.2715
302.3239, 934.7990
302.8060, 933.4713
303.2881, 932.5258
303.7702, 931.9136
304.2523, 931.7262
304.7345, 932.0358
305.2166, 932.3152
305.6987, 931.7665
306.1808, 930.3083
306.6629, 929.1359
307.1451, 928.2990
307.6272, 927.8792
308.1093, 928.0729
308.5914, 928.9001
309.0735, 930.0300
309.5556, 931.5374
310.0378, 933.2670
310.5199, 933.4681
311.0020, 930.6285
311.4841, 927.3006
311.9662, 925.3379
312.4483, 924.7434
312.9305, 924.7659
313.4126, 925.1234
313.8947, 925.6896
314.3768, 925.8962
314.8589, 925.3040
315.3410, 924.8240
315.8232, 924.9666
316.3053, 925.6258
316.7874, 926.4650
317.2695, 927.3954
317.7516, 928.3264
318.2337, 929.1130
318.7159, 929.9711
319.1980, 930.2621
319.6801, 929.3868
320.1622, 927.8094
320.6443, 926.4296
321.1264, 925.5168
321.6086, 924.8926
322.0907, 924.3778
322.5728, 924.0031
323.0549, 923.4803
323.5370, 922.5150
324.0191, 921.4627
324.5013, 920.8320
324.9834, 920.7244
325.4655, 920.8156
325.9476, 920.8719
326.4297, 920.8898
326.9118, 920.6083
327.3940, 919.6954
327.8761, 918.7064
328.3582, 918.1278
328.8403, 917.9679
329.3224, 917.9232
329.8045, 917.7570
330.2867, 917.5374
330.7688, 917.6107
331.2509, 918.6025
331.7330, 919.2646
332.2151, 918.7392
332.6972, 917.3124
333.1794, 915.8546
333.6615, 914.7036
334.1436, 913.8787
334.6257, 913.4507
335.1078, 913.3801
335.5899, 913.6347
336.0721, 914.7031
336.5542, 915.9771
337.0363, 916.2927
337.5184, 915.2141
338.0005, 913.6297
338.4826, 912.8782
338.9648, 913.1492
339.4469, 913.3992
339.9290, 913.7977
340.4111, 913.9717
340.8932, 913.3109
341.3753, 911.7929
341.8574, 910.3499
342.3395, 909.8933
342.8217, 910.5311
343.3038, 911.0013
343.7859, 911.6239
344.2680, 911.8150
344.7501, 910.6684
345.2322, 908.6187
345.7144, 907.3788
346.1965, 908.2048
346.6786, 910.6318
347.1607, 911.8964
347.6428, 911.5504
348.1249, 910.8610
348.6071, 909.7573
349.0892, 908.6125
349.5713, 908.2169
350.0534, 908.9400
350.5355, 910.0733
351.0176, 910.1370
351.4998, 908.1804
351.9819, 906.9628
352.4640, 907.3356
352.9461, 908.1075
353.4282, 908.0592
353.9103, 907.0068
354.3925, 905.7521
354.8746, 905.1965
355.3567, 905.4870
355.8388, 905.8031
356.3209, 906.3295
356.8030, 906.7040
357.2852, 906.4332
357.7673, 905.7734
358.2494, 905.6135
358.7315, 906.6923
359.2136, 908.7991
359.6957, 909.7409
360.1779, 908.4875
360.6600, 907.3371
361.1421, 907.0072
361.6242, 906.9803
362.1063, 906.4598
362.5884, 905.1096
363.0706, 903.2933
363.5527, 901.8066
364.0348, 900.7079
364.5169, 899.9176
364.9990, 899.9293
365.4811, 899.9141
365.9633, 898.9659
366.4454, 897.1105
366.9275, 895.3491
367.4096, 894.8338
367.8917, 895.7928
368.3738, 896.8444
368.8560, 898.7490
369.3381, 900.0010
369.8202, 899.7666
370.3023, 898.3975
370.7844, 896.6486
371.2665, 894.9146
371.7487, 893.3332
372.2308, 892.7651
372.7129, 894.2867
373.1950, 895.4020
373.6771, 895.4162
374.1592, 894.9629
374.6414, 894.7374
375.1235, 894.9833
375.6056, 895.4054
376.0877, 895.4823
376.5698, 895.0651
377.0519, 894.7203
377.5341, 894.6273
378.0162, 894.5086
378.4983, 894.2494
378.9804, 893.8239
379.4625, 893.2311
379.9446, 892.5019
380.4268, 891.6357
380.9089, 890.3370
381.3910, 887.4298
381.8731, 885.6926
382.3552, 887.2017
382.8373, 890.2916
383.3195, 892.1877
383.8016, 891.2946
384.2837, 888.9082
384.7658, 887.9043
385.2479, 888.9182
385.7300, 889.2091
386.2122, 886.8203
386.6943, 883.9486
387.1764, 882.3754
387.6585, 882.4277
388.1406, 883.0470
388.6227, 883.3682
389.1049, 883.4069
389.5870, 883.3431
390.0691, 883.1228
390.5512, 882.9117
391.0333, 882.8387
391.5154, 882.8773
391.9976, 882.9285
392.4797, 882.7689
392.9618, 882.6455
393.4439, 883.2416
393.9260, 884.7770
394.4081, 885.8582
394.8903, 885.2690
395.3724, 883.8210
395.8545, 882.9635
396.3366, 883.2557
396.8187, 883.4149
397.3008, 881.9387
397.7830, 879.3302
398.2651, 877.8610
398.7472, 878.3845
399.2293, 880.1023
399.7114, 882.2343
400.1935, 884.8578
400.6757, 886.7225
401.1578, 887.3577
401.6399, 887.0792
402.1220, 885.9766
402.6041, 884.0770
403.0862, 882.2860
403.5684, 881.3577
404.0505, 881.2619
404.5326, 881.1072
405.0147, 880.9936
405.4968, 880.7300
405.9789, 880.1487
406.4611, 879.3463
406.9432, 878.4804
407.4253, 877.5677
407.9074, 876.8163
408.3895, 876.7635
408.8716, 878.1643
409.3538, 878.8215
409.8359, 878.3058
410.3180, 877.1559
410.8001, 875.3798
411.2822, 873.2242
411.7643, 871.8232
412.2465, 872.5309
412.7286, 875.6795
413.2107, 877.2094
413.6928, 875.8262
414.1749, 874.4579
414.6570, 873.9334
415.1392, 874.1369
415.6213, 875.0016
416.1034, 876.5417
416.5855, 878.1194
417.0676, 877.8737
417.5497, 873.9651
418.0319, 871.4255
418.5140, 871.3053
418.9961, 871.9388
419.4782, 872.0888
419.9603, 871.6316
420.4424, 871.2933
420.9246, 871.9720
421.4067, 873.7486
421.8888, 874.7787
422.3709, 874.3840
422.8530, 874.0228
423.3351, 874.4818
423.8173, 875.2458
424.2994, 875.4142
424.7815, 874.4864
425.2636, 873.0028
425.7457, 871.8845
426.2278, 871.1007
426.7100, 870.8122
427.1921, 871.6503
427.6742, 872.6038
428.1563, 872.9768
428.6384, 872.7103
429.1205, 872.0583
429.6027, 870.9137
430.0848, 869.4940
430.5669, 868.6160
431.0490, 868.4611
431.5311, 868.5375
432.0132, 868.6824
432.4954, 868.7924
432.9775, 868.6163
433.4596, 867.9262
433.9417, 867.1212
434.4238, 866.3480
434.9059, 865.6838
435.3881, 865.7343
435.8702, 866.9796
436.3523, 868.6849
436.8344, 869.5963
437.3165, 869.7020
437.7986, 869.4757
438.2808, 868.8536
438.7629, 868.0653
439.2450, 867.4033
439.7271, 866.8939
440.2092, 866.3116
440.6913, 865.4140
441.1735, 864.2392
441.6556, 863.4636
442.1377, 863.2282
442.6198, 863.1725
443.1019, 863.1588
443.5840, 863.2477
444.0662, 863.7971
444.5483, 864.9415
445.0304, 865.8679
445.5125, 864.9860
445.9946, 860.6545
446.4767, 858.3251
446.9589, 859.0139
447.4410, 860.4998
447.9231, 861.8735
448.4052, 862.9130
448.8873, 863.5235
449.3694, 863.6155
449.8516, 863.2419
450.3337, 862.6769
450.8158, 861.5658
451.2979, 860.8391
451.7800, 861.2277
452.2621, 861.7259
452.7443, 861.1899
453.2264, 859.3820
453.7085, 857.3826
454.1906, 856.3756
454.6727, 856.3796
455.1548, 856.7779
455.6370, 857.9460
456.1191, 858.9655
456.6012, 859.3192
457.0833, 859.1649
457.5654, 858.8242
458.0475, 858.2930
458.5297, 857.7947
459.0118, 857.5965
459.4939, 857.6943
459.9760, 858.2951
460.4581, 860.0897
460.9402, 861.8552
461.4224, 861.8299
461.9045, 859.8353
462.3866, 857.7719
462.8687, 856.0933
463.3508, 854.9438
463.8329, 854.8624
464.3151, 855.9178
464.7972, 856.6984
465.2793, 855.8456
465.7614, 853.6900
466.2435, 852.9516
466.7256, 854.9898
467.2078, 856.8021
467.6899, 857.4143
468.1720, 857.0646
468.6541, 855.8367
469.1362, 853.7764
469.6183, 851.7790
470.1005, 851.2158
470.5826, 852.6898
471.0647, 853.6661
471.5468, 854.1589
472.0289, 854.2233
472.5110, 853.5381
472.9932, 852.4604
473.4753, 851.7576
473.9574, 851.9122
474.4395, 852.6247
474.9216, 852.9826
475.4037, 852.9792
475.8859, 852.6026
476.3680, 851.7064
476.8501, 850.5844
477.3322, 849.1760
477.8143, 847.6260
478.2964, 846.5569
478.7786, 846.7946
479.2607, 848.0750
479.7428, 848.4884
480.2249, 847.2184
480.7070, 846.8651
481.1891, 850.3561
481.6713, 854.8851
482.1534, 856.6982
482.6355, 854.5281
483.1176, 851.1854
483.5997, 848.6578
484.0818, 846.8660
484.5640, 845.4905
485.0461, 844.4890
485.5282, 843.8568
486.0103, 843.7825
486.4924, 844.1875
486.9745, 844.3391
487.4567, 844.3292
487.9388, 843.8766
488.4209, 842.0772
488.9030, 839.5914
489.3851, 838.6055
489.8672, 840.3235
490.3494, 843.2663
490.8315, 844.4156
491.3136, 842.5750
491.7957, 841.0784
492.2778, 840.0436
492.7599, 839.2595
493.2421, 838.5453
493.7242, 837.9319
494.2063, 837.6596
494.6884, 837.9715
495.1705, 838.6717
495.6526, 838.6884
496.1348, 837.5395
496.6169, 836.4582
497.0990, 835.6178
497.5811, 834.9123
498.0632, 834.2607
498.5453, 833.6445
499.0275, 833.0812
499.5096, 832.4977
499.9917, 831.9263
500.4738, 831.8493
500.9559, 832.6611
501.4380, 833.1714
501.9202, 832.2516
502.4023, 830.8349
502.8844, 830.2744
503.3665, 831.0923
503.8486, 832.1412
504.3307, 832.5665
504.8129, 832.4592
505.2950, 832.0544
505.7771, 831.3181
506.2592, 830.5829
506.7413, 830.1639
507.2234, 830.0612
507.7055, 830.1268
508.1877, 830.8448
508.6698, 831.2552
509.1519, 830.3707
509.6340, 828.7745
510.1161, 827.9327
510.5982, 828.4766
511.0804, 829.5596
511.5625, 829.6390
512.0446, 827.9462
512.5267, 827.2443
513.0089, 828.6926
513.4910, 829.9349
513.9731, 829.5602
514.4552, 827.9589
514.9373, 826.1382
515.4194, 824.6189
515.9016, 823.5738
516.3837, 823.7517
516.8658, 826.0292
517.3479, 827.1122
517.8300, 824.9769
518.3121, 822.6371
518.7943, 822.2051
519.2764, 823.4490
519.7585, 824.4080
520.2406, 823.4091
520.7227, 821.4435
521.2048, 820.9075
521.6870, 822.0295
522.1691, 822.7076
522.6512, 821.7036
523.1333, 819.9322
523.6154, 818.8824
524.0975, 818.6273
524.5797, 818.7635
525.0618, 819.6290
525.5439, 820.5566
526.0260, 820.6476
526.5081, 819.8472
526.9902, 818.6428
527.4724, 817.2550
527.9545, 815.8069
528.4366, 815.1027
528.9187, 815.9669
529.4008, 816.4433
529.8829, 815.9229
530.3651, 815.1162
530.8472, 814.7076
531.3293, 814.7879
531.8114, 815.0283
532.2935, 815.1443
532.7756, 815.1324
533.2578, 814.9262
533.7399, 814.3487
534.2220, 813.8402
534.7041, 813.5486
535.1862, 813.3596
535.6683, 813.0401
536.1505, 812.5505
536.6326, 812.3890
537.1147, 813.4617
537.5968, 815.3666
538.0789, 816.0845
538.5610, 815.2004
539.0432, 813.9657
539.5253, 813.2045
540.0074, 812.6731
540.4895, 811.7488
540.9716, 809.9899
541.4537, 808.5344
541.9359, 808.1783
542.4180, 808.4806
542.9001, 808.7016
543.3822, 808.6827
543.8643, 808.6102
544.3464, 808.6556
544.8286, 808.8224
545.3107, 809.0629
545.7928, 809.7618
546.2749, 810.0667
546.7570, 809.0683
547.2391, 807.8682
547.7213, 808.1287
548.2034, 810.1494
548.6855, 812.3055
549.1676, 812.5525
549.6497, 810.7545
550.1318, 809.1155
550.6140, 807.1973
551.0961, 806.1033
551.5782, 806.8556
552.0603, 808.3283
552.5424, 808.9934
553.0245, 808.3658
553.5067, 807.3453
553.9888, 806.6893
554.4709, 806.3174
554.9530, 805.9103
555.4351, 805.4134
555.9172, 804.9150
556.3994, 804.3828
556.8815, 803.9043
557.3636, 803.8476
557.8457, 804.5255
558.3278, 805.2679
558.8099, 806.1046
559.2921, 806.7289
559.7742, 806.5381
560.2563, 805.4473
560.7384, 804.1308
561.2205, 803.2912
561.7026, 802.9382
562.1848, 802.7280
562.6669, 803.0197
563.1490, 803.0338
563.6311, 802.4567
564.1132, 801.6151
564.5953, 800.8492
565.0775, 800.2501
565.5596, 799.7374
566.0417, 799.1988
566.5238, 798.6549
567.0059, 798.3981
567.4880, 798.7430
567.9702, 798.6663
568.4523, 796.8846
568.9344, 794.5916
569.4165, 793.5340
569.8986, 794.1927
570.3807, 795.1583
570.8629, 795.6726
571.3450, 795.9521
571.8271, 796.3260
572.3092, 796.8436
572.7913, 797.5441
573.2734, 798.6174
573.7556, 799.8813
574.2377, 800.0701
574.7198, 798.1198
575.2019, 796.5627
575.6840, 795.4429
576.1661, 795.0195
576.6483, 796.2024
577.1304, 798.5948
577.6125, 800.1447
578.0946, 798.8717
578.5767, 795.3954
579.0588, 793.2050
579.5410, 792.5831
580.0231, 792.6195
580.5052, 794.1186
580.9873, 795.4752
581.4694, 795.0554
581.9515, 792.8627
582.4337, 790.9289
582.9158, 790.7577
583.3979, 791.4089
583.8800, 791.2631
584.3621, 790.3257
584.8442, 789.7931
585.3264, 790.4109
585.8085, 791.4963
586.2906, 791.5510
586.7727, 790.0530
587.2548, 789.1972
587.7369, 789.6722
588.2190, 790.4238
