##NAMES=Trona
##RRUFFID=R050499
##IDEAL CHEMISTRY=Na_3_(HCO_3_)(CO_3_)&#183;2H_2_O
##LOCALITY=Searles Lake, Trona, San Bernardino County, California, USA
##OWNER=RRUFF
##SOURCE=California Institute of Technology
##DESCRIPTION=Gray columnar massive
##STATUS=The identification of this mineral has been confirmed by X-ray diffraction and chemical analysis
##URL=rruff.info/R050499
##MEASURED CHEMISTRY=Na_3.00_(CO_3_)(HCO_3_)Â·2H_2_O ; CO_3_ and HCO_3_ were estimated by stoichiometry
84.83700, 6452.000
86.07200, 7225.000
87.30800, 7840.000
88.54200, 8115.000
89.77700, 8561.000
91.01200, 9429.000
92.24600, 10950.00
93.48000, 12704.00
94.71400, 14697.00
95.94800, 16798.00
97.18200, 18265.00
98.41600, 18949.00
99.64900, 19070.00
100.8830, 19050.00
102.1160, 18706.00
103.3490, 19738.00
104.5820, 21239.00
105.8150, 24101.00
107.0470, 26937.00
108.2800, 28951.00
109.5120, 27542.00
110.7440, 24223.00
111.9760, 20501.00
113.2080, 16573.00
114.4400, 13704.00
115.6710, 11999.00
116.9030, 10603.00
118.1340, 9877.000
119.3650, 9317.000
120.5960, 8925.000
121.8270, 8740.000
123.0580, 8584.000
124.2880, 8445.000
125.5190, 8369.000
126.7490, 8660.000
127.9790, 8881.000
129.2090, 9618.000
130.4390, 10390.00
131.6680, 11648.00
132.8980, 13221.00
134.1270, 15605.00
135.3560, 18720.00
136.5850, 22465.00
137.8140, 26417.00
139.0430, 29161.00
140.2710, 30379.00
141.5000, 28365.00
142.7280, 24403.00
143.9560, 20577.00
145.1840, 17460.00
146.4120, 15363.00
147.6390, 14155.00
148.8670, 13381.00
150.0940, 13059.00
151.3210, 12977.00
152.5490, 13046.00
153.7750, 13097.00
155.0020, 12899.00
156.2290, 12531.00
157.4550, 11946.00
158.6810, 11619.00
159.9080, 11568.00
161.1340, 11747.00
162.3590, 12083.00
163.5850, 12716.00
164.8110, 13665.00
166.0360, 14542.00
167.2610, 15745.00
168.4860, 17142.00
169.7110, 18838.00
170.9360, 20222.00
172.1610, 21707.00
173.3850, 23004.00
174.6100, 23786.00
175.8340, 24885.00
177.0580, 26381.00
178.2820, 28193.00
179.5050, 30500.00
180.7290, 33492.00
181.9520, 36723.00
183.1760, 39719.00
184.3990, 41400.00
185.6220, 41427.00
186.8450, 39508.00
188.0670, 35683.00
189.2900, 30945.00
190.5120, 26780.00
191.7340, 23245.00
192.9560, 20218.00
194.1780, 17965.00
195.4000, 16302.00
196.6220, 15250.00
197.8430, 14471.00
199.0640, 13822.00
200.2860, 13528.00
201.5070, 13398.00
202.7270, 13264.00
203.9480, 12933.00
205.1690, 12549.00
206.3890, 12423.00
207.6090, 12427.00
208.8290, 12470.00
210.0490, 12561.00
211.2690, 12781.00
212.4890, 12961.00
213.7080, 13202.00
214.9280, 13392.00
216.1470, 13535.00
217.3660, 13701.00
218.5850, 14338.00
219.8030, 15143.00
221.0220, 16161.00
222.2400, 16851.00
223.4590, 17424.00
224.6770, 17835.00
225.8950, 17862.00
227.1120, 17735.00
228.3300, 17138.00
229.5480, 16225.00
230.7650, 15372.00
231.9820, 14751.00
233.1990, 13799.00
234.4160, 13020.00
235.6330, 12581.00
236.8490, 11744.00
238.0660, 11308.00
239.2820, 10799.00
240.4980, 10366.00
241.7140, 10024.00
242.9300, 9570.000
244.1460, 9391.000
245.3610, 9094.000
246.5770, 8955.000
247.7920, 8721.000
249.0070, 8622.000
250.2220, 8599.000
251.4370, 8444.000
252.6510, 8368.000
253.8660, 8345.000
255.0800, 8170.000
256.2940, 8201.000
257.5080, 8102.000
258.7220, 8241.000
259.9360, 8234.000
261.1490, 8141.000
262.3630, 7912.000
263.5760, 7935.000
264.7890, 7874.000
266.0020, 7902.000
267.2150, 7903.000
268.4270, 7985.000
269.6400, 7987.000
270.8520, 7972.000
272.0640, 7868.000
273.2760, 7877.000
274.4880, 7834.000
275.7000, 7973.000
276.9120, 7802.000
278.1230, 7904.000
279.3340, 7857.000
280.5450, 7915.000
281.7560, 7981.000
282.9670, 7905.000
284.1780, 7904.000
285.3880, 7914.000
286.5980, 7949.000
287.8090, 7920.000
289.0190, 7788.000
290.2290, 7837.000
291.4380, 7897.000
292.6480, 7861.000
293.8570, 7901.000
295.0670, 7927.000
296.2760, 7961.000
297.4850, 7902.000
298.6930, 7849.000
299.9020, 7882.000
301.1110, 7874.000
302.3190, 7900.000
303.5270, 7884.000
304.7350, 7973.000
305.9430, 7973.000
307.1510, 7962.000
308.3580, 8014.000
309.5660, 8006.000
310.7730, 7958.000
311.9800, 7899.000
313.1870, 7919.000
314.3940, 7956.000
315.6010, 7964.000
316.8070, 7998.000
318.0130, 7952.000
319.2200, 8059.000
320.4260, 8067.000
321.6310, 7999.000
322.8370, 8124.000
324.0430, 7964.000
325.2480, 8090.000
326.4540, 8043.000
327.6590, 8037.000
328.8640, 8080.000
330.0680, 8053.000
331.2730, 8033.000
332.4780, 7994.000
333.6820, 8000.000
334.8860, 8100.000
336.0900, 8046.000
337.2940, 8087.000
338.4980, 8087.000
339.7010, 8153.000
340.9050, 8141.000
342.1080, 8208.000
343.3110, 8153.000
344.5140, 8100.000
345.7170, 8204.000
346.9200, 8230.000
348.1220, 8299.000
349.3240, 8289.000
350.5270, 8129.000
351.7290, 8170.000
352.9310, 8221.000
354.1320, 8367.000
355.3340, 8253.000
356.5350, 8315.000
357.7370, 8220.000
358.9380, 8191.000
360.1390, 8207.000
361.3400, 8353.000
362.5400, 8292.000
363.7410, 8363.000
364.9410, 8341.000
366.1410, 8304.000
367.3410, 8373.000
368.5410, 8398.000
369.7410, 8283.000
370.9400, 8411.000
372.1400, 8422.000
373.3390, 8362.000
374.5380, 8396.000
375.7370, 8378.000
376.9360, 8325.000
378.1350, 8432.000
379.3330, 8334.000
380.5310, 8487.000
381.7300, 8556.000
382.9280, 8416.000
384.1260, 8384.000
385.3230, 8513.000
386.5210, 8402.000
387.7180, 8528.000
388.9160, 8439.000
390.1130, 8488.000
391.3100, 8546.000
392.5060, 8503.000
393.7030, 8409.000
394.9000, 8582.000
396.0960, 8572.000
397.2920, 8526.000
398.4880, 8607.000
399.6840, 8556.000
400.8800, 8700.000
402.0750, 8581.000
403.2710, 8528.000
404.4660, 8524.000
405.6610, 8609.000
406.8560, 8544.000
408.0510, 8556.000
409.2450, 8612.000
410.4400, 8574.000
411.6340, 8547.000
412.8280, 8602.000
414.0220, 8596.000
415.2160, 8676.000
416.4100, 8658.000
417.6030, 8658.000
418.7970, 8593.000
419.9900, 8621.000
421.1830, 8730.000
422.3760, 8611.000
423.5690, 8765.000
424.7610, 8791.000
425.9540, 8775.000
427.1460, 8727.000
428.3380, 8689.000
429.5300, 8651.000
430.7220, 8771.000
431.9140, 8782.000
433.1050, 8642.000
434.2970, 8753.000
435.4880, 8714.000
436.6790, 8782.000
437.8700, 8734.000
439.0610, 8862.000
440.2510, 8825.000
441.4420, 8802.000
442.6320, 8819.000
443.8220, 8878.000
445.0120, 8866.000
446.2020, 8862.000
447.3910, 8849.000
448.5810, 8816.000
449.7700, 8945.000
450.9600, 8927.000
452.1490, 8940.000
453.3370, 9029.000
454.5260, 9045.000
455.7150, 9029.000
456.9030, 9030.000
458.0910, 8947.000
459.2800, 9027.000
460.4670, 8971.000
461.6550, 9040.000
462.8430, 9073.000
464.0300, 9031.000
465.2180, 9056.000
466.4050, 9012.000
467.5920, 9013.000
468.7790, 9059.000
469.9650, 8983.000
471.1520, 9012.000
472.3380, 9134.000
473.5250, 9166.000
474.7110, 9064.000
475.8970, 9121.000
477.0820, 9096.000
478.2680, 9128.000
479.4540, 9262.000
480.6390, 9243.000
481.8240, 9260.000
483.0090, 9370.000
484.1940, 9277.000
485.3780, 9234.000
486.5630, 9353.000
487.7470, 9318.000
488.9320, 9325.000
490.1160, 9216.000
491.3000, 9269.000
492.4830, 9305.000
493.6670, 9228.000
494.8500, 9296.000
496.0340, 9366.000
497.2170, 9327.000
498.4000, 9438.000
499.5820, 9364.000
500.7650, 9414.000
501.9480, 9319.000
503.1300, 9326.000
504.3120, 9368.000
505.4940, 9458.000
506.6760, 9383.000
507.8580, 9580.000
509.0390, 9684.000
510.2210, 9468.000
511.4020, 9483.000
512.5830, 9405.000
513.7640, 9538.000
514.9450, 9581.000
516.1250, 9487.000
517.3060, 9585.000
518.4860, 9562.000
519.6660, 9491.000
520.8460, 9618.000
522.0260, 9666.000
523.2060, 9656.000
524.3850, 9637.000
525.5650, 9628.000
526.7440, 9652.000
527.9230, 9628.000
529.1020, 9677.000
530.2810, 9619.000
531.4590, 9682.000
532.6380, 9723.000
533.8160, 9606.000
534.9940, 9823.000
536.1720, 9912.000
537.3500, 9662.000
538.5270, 9771.000
539.7050, 9873.000
540.8820, 9864.000
542.0590, 9766.000
543.2360, 9813.000
544.4130, 9839.000
545.5900, 9883.000
546.7660, 9838.000
547.9430, 9873.000
549.1190, 9926.000
550.2950, 9968.000
551.4710, 9848.000
552.6470, 9836.000
553.8220, 9965.000
554.9980, 9997.000
556.1730, 9975.000
557.3480, 9903.000
558.5230, 10094.00
559.6980, 10041.00
560.8730, 10008.00
562.0470, 10063.00
563.2220, 10091.00
564.3960, 10046.00
565.5700, 10220.00
566.7440, 10095.00
567.9170, 10109.00
569.0910, 10229.00
570.2640, 10326.00
571.4380, 10280.00
572.6110, 10226.00
573.7840, 10248.00
574.9570, 10214.00
576.1290, 10274.00
577.3020, 10244.00
578.4740, 10303.00
579.6460, 10252.00
580.8180, 10191.00
581.9900, 10142.00
583.1620, 10347.00
584.3330, 10285.00
585.5040, 10367.00
586.6760, 10218.00
587.8470, 10296.00
589.0180, 10397.00
590.1880, 10285.00
591.3590, 10438.00
592.5290, 10306.00
593.7000, 10344.00
594.8700, 10422.00
596.0400, 10435.00
597.2090, 10308.00
598.3790, 10329.00
599.5490, 10423.00
600.7180, 10579.00
601.8870, 10388.00
603.0560, 10627.00
604.2250, 10563.00
605.3940, 10462.00
606.5620, 10514.00
607.7300, 10479.00
608.8990, 10512.00
610.0670, 10678.00
611.2350, 10523.00
612.4020, 10517.00
613.5700, 10593.00
614.7370, 10569.00
615.9050, 10705.00
617.0720, 10538.00
618.2390, 10581.00
619.4060, 10601.00
620.5720, 10626.00
621.7390, 10581.00
622.9050, 10489.00
624.0710, 10662.00
625.2370, 10720.00
626.4030, 10710.00
627.5690, 10739.00
628.7340, 10833.00
629.9000, 10748.00
631.0650, 10723.00
632.2300, 10800.00
633.3950, 10749.00
634.5600, 10783.00
635.7240, 10842.00
636.8890, 10757.00
638.0530, 10726.00
639.2170, 10899.00
640.3810, 10781.00
641.5450, 10922.00
642.7080, 10877.00
643.8720, 10935.00
645.0350, 10972.00
646.1980, 10945.00
647.3610, 10930.00
648.5240, 11026.00
649.6870, 10975.00
650.8490, 10941.00
652.0120, 10921.00
653.1740, 10957.00
654.3360, 10911.00
655.4980, 11021.00
656.6600, 11099.00
657.8210, 11121.00
658.9830, 11017.00
660.1440, 10984.00
661.3050, 10855.00
662.4660, 11021.00
663.6270, 11134.00
664.7870, 11077.00
665.9480, 11003.00
667.1080, 11052.00
668.2680, 11080.00
669.4280, 11171.00
670.5880, 11066.00
671.7480, 11203.00
672.9070, 11039.00
674.0670, 11264.00
675.2260, 11275.00
676.3850, 11221.00
677.5440, 11256.00
678.7030, 11236.00
679.8610, 11115.00
681.0200, 11378.00
682.1780, 11247.00
683.3360, 11252.00
684.4940, 11175.00
685.6520, 11140.00
686.8090, 11283.00
687.9670, 11318.00
689.1240, 11340.00
690.2810, 11324.00
691.4380, 11413.00
692.5950, 11492.00
693.7520, 11533.00
694.9080, 11382.00
696.0650, 11446.00
697.2210, 11446.00
698.3770, 11491.00
699.5330, 11405.00
700.6880, 11513.00
701.8440, 11532.00
702.9990, 11458.00
704.1550, 11536.00
705.3100, 11595.00
706.4650, 11368.00
707.6190, 11469.00
708.7740, 11605.00
709.9290, 11624.00
711.0830, 11564.00
712.2370, 11444.00
713.3910, 11648.00
714.5450, 11653.00
715.6980, 11601.00
716.8520, 11660.00
718.0050, 11649.00
719.1580, 11647.00
720.3110, 11676.00
721.4640, 11726.00
722.6170, 11617.00
723.7700, 11826.00
724.9220, 11575.00
726.0740, 11729.00
727.2260, 11626.00
728.3780, 11756.00
729.5300, 11749.00
730.6810, 11756.00
731.8330, 11639.00
732.9840, 11719.00
734.1350, 11757.00
735.2860, 11765.00
736.4370, 11801.00
737.5880, 11750.00
738.7380, 11832.00
739.8880, 11810.00
741.0390, 11900.00
742.1890, 11947.00
743.3380, 11864.00
744.4880, 11850.00
745.6380, 11935.00
746.7870, 11971.00
747.9360, 11943.00
749.0850, 12004.00
750.2340, 12007.00
751.3830, 12090.00
752.5310, 12064.00
753.6800, 12024.00
754.8280, 11954.00
755.9760, 12139.00
757.1240, 12153.00
758.2720, 12108.00
759.4190, 12273.00
760.5670, 12143.00
761.7140, 12210.00
762.8610, 12268.00
764.0080, 12211.00
765.1550, 12260.00
766.3020, 12397.00
767.4480, 12333.00
768.5950, 12334.00
769.7410, 12192.00
770.8870, 12271.00
772.0330, 12333.00
773.1780, 12426.00
774.3240, 12429.00
775.4690, 12515.00
776.6140, 12363.00
777.7590, 12350.00
778.9040, 12581.00
780.0490, 12581.00
781.1940, 12586.00
782.3380, 12502.00
783.4820, 12359.00
784.6260, 12466.00
785.7700, 12694.00
786.9140, 12606.00
788.0580, 12583.00
789.2010, 12584.00
790.3450, 12685.00
791.4880, 12580.00
792.6310, 12736.00
793.7730, 12653.00
794.9160, 12715.00
796.0590, 12833.00
797.2010, 12656.00
798.3430, 12734.00
799.4850, 12806.00
800.6270, 12670.00
801.7690, 12846.00
802.9100, 12696.00
804.0520, 12792.00
805.1930, 12865.00
806.3340, 12769.00
807.4750, 12748.00
808.6160, 12904.00
809.7560, 12834.00
810.8970, 12916.00
812.0370, 12832.00
813.1770, 13076.00
814.3170, 12822.00
815.4570, 12759.00
816.5960, 12937.00
817.7360, 12803.00
818.8750, 13058.00
820.0140, 12962.00
821.1530, 12936.00
822.2920, 13026.00
823.4310, 13011.00
824.5690, 13034.00
825.7070, 13057.00
826.8460, 13031.00
827.9840, 13026.00
829.1220, 12972.00
830.2590, 13160.00
831.3970, 13072.00
832.5340, 13099.00
833.6710, 13143.00
834.8080, 13233.00
835.9450, 13205.00
837.0820, 13119.00
838.2190, 13132.00
839.3550, 13094.00
840.4910, 13277.00
841.6270, 13189.00
842.7630, 13340.00
843.8990, 13333.00
845.0350, 13407.00
846.1700, 13664.00
847.3060, 13682.00
848.4410, 13906.00
849.5760, 14110.00
850.7100, 14029.00
851.8450, 13753.00
852.9800, 13704.00
854.1140, 13609.00
855.2480, 13429.00
856.3820, 13431.00
857.5160, 13464.00
858.6500, 13450.00
859.7830, 13380.00
860.9170, 13607.00
862.0500, 13385.00
863.1830, 13565.00
864.3160, 13437.00
865.4480, 13456.00
866.5810, 13427.00
867.7130, 13616.00
868.8460, 13539.00
869.9780, 13623.00
871.1100, 13466.00
872.2410, 13536.00
873.3730, 13523.00
874.5050, 13586.00
875.6360, 13580.00
876.7670, 13550.00
877.8980, 13533.00
879.0290, 13711.00
880.1590, 13650.00
881.2900, 13507.00
882.4200, 13569.00
883.5500, 13656.00
884.6800, 13669.00
885.8100, 13603.00
886.9400, 13760.00
888.0690, 13745.00
889.1990, 13682.00
890.3280, 13700.00
891.4570, 13906.00
892.5860, 13668.00
893.7140, 13926.00
894.8430, 13713.00
895.9710, 13833.00
897.1000, 13777.00
898.2280, 13869.00
899.3560, 13868.00
900.4830, 13929.00
901.6110, 13878.00
902.7380, 13849.00
903.8660, 13779.00
904.9930, 13833.00
906.1200, 13972.00
907.2460, 13912.00
908.3730, 13869.00
909.5000, 13900.00
910.6260, 14074.00
911.7520, 13954.00
912.8780, 14080.00
914.0040, 13890.00
915.1290, 13959.00
916.2550, 14112.00
917.3800, 14175.00
918.5050, 14150.00
919.6300, 14069.00
920.7550, 14109.00
921.8800, 14043.00
923.0040, 14192.00
924.1290, 14284.00
925.2530, 14166.00
926.3770, 14161.00
927.5010, 14144.00
928.6250, 14334.00
929.7480, 14265.00
930.8720, 14157.00
931.9950, 14339.00
933.1180, 14320.00
934.2410, 14337.00
935.3640, 14313.00
936.4860, 14308.00
937.6090, 14335.00
938.7310, 14212.00
939.8530, 14466.00
940.9750, 14462.00
942.0970, 14482.00
943.2180, 14527.00
944.3400, 14389.00
945.4610, 14607.00
946.5820, 14524.00
947.7030, 14403.00
948.8240, 14611.00
949.9450, 14628.00
951.0650, 14622.00
952.1860, 14648.00
953.3060, 14548.00
954.4260, 14595.00
955.5460, 14692.00
956.6650, 14622.00
957.7850, 14732.00
958.9040, 14747.00
960.0230, 14597.00
961.1420, 14692.00
962.2610, 14685.00
963.3800, 14719.00
964.4990, 14780.00
965.6170, 14849.00
966.7350, 14609.00
967.8530, 14876.00
968.9710, 14746.00
970.0890, 14902.00
971.2070, 14779.00
972.3240, 14963.00
973.4410, 14863.00
974.5580, 14979.00
975.6750, 14923.00
976.7920, 15002.00
977.9090, 14902.00
979.0250, 14902.00
980.1410, 14984.00
981.2580, 14970.00
982.3740, 15076.00
983.4890, 15142.00
984.6050, 15035.00
985.7200, 15105.00
986.8360, 15171.00
987.9510, 15171.00
989.0660, 15300.00
990.1810, 15251.00
991.2950, 15217.00
992.4100, 15337.00
993.5240, 15357.00
994.6390, 15458.00
995.7530, 15391.00
996.8660, 15467.00
997.9800, 15652.00
999.0940, 15442.00
1000.207, 15802.00
1001.320, 15653.00
1002.433, 15636.00
1003.546, 15741.00
1004.659, 15609.00
1005.772, 15713.00
1006.884, 15577.00
1007.996, 15614.00
1009.108, 15682.00
1010.220, 15780.00
1011.332, 15724.00
1012.444, 15860.00
1013.555, 15872.00
1014.666, 15853.00
1015.777, 15989.00
1016.888, 15999.00
1017.999, 16127.00
1019.110, 16126.00
1020.220, 16145.00
1021.331, 16339.00
1022.441, 16436.00
1023.551, 16558.00
1024.661, 16464.00
1025.770, 16533.00
1026.880, 16741.00
1027.989, 16545.00
1029.098, 16836.00
1030.207, 16989.00
1031.316, 16914.00
1032.425, 17184.00
1033.533, 17345.00
1034.642, 17460.00
1035.750, 17629.00
1036.858, 17841.00
1037.966, 17984.00
1039.073, 18357.00
1040.181, 18647.00
1041.288, 18917.00
1042.396, 19304.00
1043.503, 19564.00
1044.610, 20024.00
1045.716, 20558.00
1046.823, 21233.00
1047.929, 22029.00
1049.036, 22946.00
1050.142, 24329.00
1051.248, 25915.00
1052.353, 27801.00
1053.459, 30296.00
1054.564, 33337.00
1055.670, 37024.00
1056.775, 41324.00
1057.880, 46125.00
1058.985, 50388.00
1060.089, 54573.00
1061.194, 56049.00
1062.298, 55153.00
1063.402, 52153.00
1064.506, 47643.00
1065.610, 42391.00
1066.713, 37897.00
1067.817, 33566.00
1068.920, 29998.00
1070.023, 27522.00
1071.126, 25393.00
1072.229, 23892.00
1073.332, 22518.00
1074.435, 21643.00
1075.537, 20803.00
1076.639, 20178.00
1077.741, 19475.00
1078.843, 19045.00
1079.945, 18670.00
1081.046, 18466.00
1082.148, 18233.00
1083.249, 18119.00
1084.350, 17889.00
1085.451, 17706.00
1086.551, 17600.00
1087.652, 17317.00
1088.752, 17213.00
1089.853, 17194.00
1090.953, 17226.00
1092.053, 17019.00
1093.152, 16917.00
1094.252, 17042.00
1095.351, 17013.00
1096.451, 16884.00
1097.550, 16810.00
1098.649, 16756.00
1099.748, 16685.00
1100.846, 16868.00
1101.945, 16792.00
1103.043, 16708.00
1104.141, 16612.00
1105.239, 16670.00
1106.337, 16720.00
1107.434, 16611.00
1108.532, 16761.00
1109.629, 16829.00
1110.726, 16621.00
1111.823, 16448.00
1112.920, 16818.00
1114.017, 16627.00
1115.113, 16741.00
1116.210, 16756.00
1117.306, 16694.00
1118.402, 16648.00
1119.498, 16562.00
1120.593, 16774.00
1121.689, 16770.00
1122.784, 16697.00
1123.879, 16689.00
1124.974, 16795.00
1126.069, 16670.00
1127.164, 16658.00
1128.259, 16944.00
1129.353, 16696.00
1130.447, 16803.00
1131.541, 16896.00
1132.635, 16659.00
1133.729, 16930.00
1134.822, 16781.00
1135.916, 16859.00
1137.009, 16762.00
1138.102, 16878.00
1139.195, 16868.00
1140.288, 16890.00
1141.380, 16877.00
1142.473, 16956.00
1143.565, 16892.00
1144.657, 17063.00
1145.749, 16765.00
1146.841, 16961.00
1147.932, 17142.00
1149.024, 16926.00
1150.115, 16887.00
1151.206, 17128.00
1152.297, 16916.00
1153.388, 16944.00
1154.479, 17044.00
1155.569, 17082.00
1156.659, 17212.00
1157.750, 17036.00
1158.839, 17278.00
1159.929, 17051.00
1161.019, 17091.00
1162.108, 17158.00
1163.198, 16940.00
1164.287, 17105.00
1165.376, 17171.00
1166.465, 17096.00
1167.553, 17188.00
1168.642, 17137.00
1169.730, 17159.00
1170.818, 17483.00
1171.906, 17281.00
1172.994, 17150.00
1174.082, 17298.00
1175.170, 17298.00
1176.257, 17326.00
1177.344, 17330.00
1178.431, 17239.00
1179.518, 17353.00
1180.605, 17329.00
1181.691, 17354.00
1182.778, 17443.00
1183.864, 17450.00
1184.950, 17441.00
1186.036, 17334.00
1187.122, 17296.00
1188.207, 17494.00
1189.292, 17387.00
1190.378, 17551.00
1191.463, 17474.00
1192.548, 17441.00
1193.632, 17527.00
1194.717, 17575.00
1195.801, 17585.00
1196.886, 17573.00
1197.970, 17580.00
1199.054, 17602.00
1200.137, 17582.00
1201.221, 17683.00
1202.305, 17620.00
1203.388, 17501.00
1204.471, 17574.00
1205.554, 17604.00
1206.637, 17614.00
1207.719, 17759.00
1208.802, 17607.00
1209.884, 17653.00
1210.966, 17655.00
1212.048, 17766.00
1213.130, 17864.00
1214.212, 17692.00
1215.293, 17622.00
1216.374, 17828.00
1217.456, 17716.00
1218.536, 17678.00
1219.617, 17833.00
1220.698, 17831.00
1221.778, 17772.00
1222.859, 17992.00
1223.939, 17861.00
1225.019, 17839.00
1226.099, 17997.00
1227.178, 17832.00
1228.258, 17959.00
1229.337, 18090.00
1230.417, 17946.00
1231.496, 18075.00
1232.574, 18014.00
1233.653, 17846.00
1234.732, 17909.00
1235.810, 17933.00
1236.888, 18013.00
1237.966, 17994.00
1239.044, 18082.00
1240.122, 18006.00
1241.199, 18067.00
1242.277, 18140.00
1243.354, 18161.00
1244.431, 18037.00
1245.508, 18177.00
1246.585, 18060.00
1247.661, 18154.00
1248.738, 18244.00
1249.814, 18182.00
1250.890, 18131.00
1251.966, 18160.00
1253.042, 18271.00
1254.117, 18462.00
1255.193, 18128.00
1256.268, 18020.00
1257.343, 18143.00
1258.418, 18235.00
1259.493, 18228.00
1260.567, 18464.00
1261.642, 18336.00
1262.716, 18433.00
1263.790, 18370.00
1264.864, 18406.00
1265.938, 18226.00
1267.011, 18433.00
1268.085, 18270.00
1269.158, 18517.00
1270.231, 18412.00
