##NAMES=Trona
##RRUFFID=R050228
##IDEAL CHEMISTRY=Na_3_(HCO_3_)(CO_3_)&#183;2H_2_O
##LOCALITY=Stauffer mine, Green River, Wyoming, USA
##OWNER=RRUFF
##SOURCE=Marcus Origlieri
##DESCRIPTION=Aggregate of pale yellowish brown flattened crystals
##STATUS=The identification of this mineral has been confirmed by X-ray diffraction and chemical analysis
##URL=rruff.info/R050228
##MEASURED CHEMISTRY=Na_3.00_(CO_3_)(HCO_3_)Â·2H_2_O ; CO2 and H not measured but estimated by stoichiometry. The lighter inclusion is dolomite.
94.71400, 15636.00
95.94800, 16096.00
97.18200, 16613.00
98.41600, 16870.00
99.64900, 17482.00
100.8830, 18317.00
102.1160, 18611.00
103.3490, 19083.00
104.5820, 19688.00
105.8150, 19862.00
107.0470, 20267.00
108.2800, 20353.00
109.5120, 20077.00
110.7440, 19819.00
111.9760, 19415.00
113.2080, 19186.00
114.4400, 19186.00
115.6710, 18852.00
116.9030, 18401.00
118.1340, 18480.00
119.3650, 18562.00
120.5960, 18368.00
121.8270, 18411.00
123.0580, 18583.00
124.2880, 18520.00
125.5190, 18814.00
126.7490, 18992.00
127.9790, 19417.00
129.2090, 19666.00
130.4390, 20140.00
131.6680, 20551.00
132.8980, 20820.00
134.1270, 21474.00
135.3560, 21719.00
136.5850, 22712.00
137.8140, 22775.00
139.0430, 23067.00
140.2710, 22698.00
141.5000, 22576.00
142.7280, 22302.00
143.9560, 21939.00
145.1840, 21662.00
146.4120, 21407.00
147.6390, 21185.00
148.8670, 20732.00
150.0940, 20772.00
151.3210, 20369.00
152.5490, 20557.00
153.7750, 20569.00
155.0020, 20651.00
156.2290, 20651.00
157.4550, 20666.00
158.6810, 20723.00
159.9080, 20920.00
161.1340, 21131.00
162.3590, 21353.00
163.5850, 21375.00
164.8110, 21797.00
166.0360, 21930.00
167.2610, 22217.00
168.4860, 22775.00
169.7110, 23111.00
170.9360, 23293.00
172.1610, 23529.00
173.3850, 24232.00
174.6100, 24400.00
175.8340, 24963.00
177.0580, 25319.00
178.2820, 25858.00
179.5050, 26276.00
180.7290, 26747.00
181.9520, 26871.00
183.1760, 27179.00
184.3990, 27218.00
185.6220, 26685.00
186.8450, 26496.00
188.0670, 25940.00
189.2900, 25629.00
190.5120, 24955.00
191.7340, 24475.00
192.9560, 24149.00
194.1780, 23696.00
195.4000, 23302.00
196.6220, 23031.00
197.8430, 22766.00
199.0640, 22600.00
200.2860, 22684.00
201.5070, 22598.00
202.7270, 22685.00
203.9480, 22579.00
205.1690, 22542.00
206.3890, 22690.00
207.6090, 22723.00
208.8290, 22699.00
210.0490, 22858.00
211.2690, 22691.00
212.4890, 22942.00
213.7080, 23044.00
214.9280, 23013.00
216.1470, 23394.00
217.3660, 23539.00
218.5850, 23525.00
219.8030, 23619.00
221.0220, 24168.00
222.2400, 24056.00
223.4590, 24159.00
224.6770, 24129.00
225.8950, 24038.00
227.1120, 24142.00
228.3300, 23941.00
229.5480, 23704.00
230.7650, 23808.00
231.9820, 23628.00
233.1990, 23467.00
234.4160, 23268.00
235.6330, 23534.00
236.8490, 23330.00
238.0660, 23098.00
239.2820, 23154.00
240.4980, 22813.00
241.7140, 22983.00
242.9300, 22719.00
244.1460, 22860.00
245.3610, 22841.00
246.5770, 22932.00
247.7920, 22833.00
249.0070, 22611.00
250.2220, 22965.00
251.4370, 22834.00
252.6510, 22932.00
253.8660, 22773.00
255.0800, 22785.00
256.2940, 22857.00
257.5080, 23104.00
258.7220, 23019.00
259.9360, 23129.00
261.1490, 22986.00
262.3630, 23050.00
263.5760, 23013.00
264.7890, 23159.00
266.0020, 23147.00
267.2150, 23091.00
268.4270, 23022.00
269.6400, 23282.00
270.8520, 23252.00
272.0640, 23135.00
273.2760, 23268.00
274.4880, 23316.00
275.7000, 23362.00
276.9120, 23418.00
278.1230, 23392.00
279.3340, 23300.00
280.5450, 23559.00
281.7560, 23690.00
282.9670, 23531.00
284.1780, 23620.00
285.3880, 23533.00
286.5980, 23501.00
287.8090, 23761.00
289.0190, 23700.00
290.2290, 23707.00
291.4380, 23975.00
292.6480, 23748.00
293.8570, 23849.00
295.0670, 23771.00
296.2760, 23689.00
297.4850, 23688.00
298.6930, 23974.00
299.9020, 24013.00
301.1110, 24093.00
302.3190, 23926.00
303.5270, 24140.00
304.7350, 24161.00
305.9430, 24092.00
307.1510, 24270.00
308.3580, 24253.00
309.5660, 24065.00
310.7730, 24160.00
311.9800, 24337.00
313.1870, 24131.00
314.3940, 24447.00
315.6010, 24271.00
316.8070, 24408.00
318.0130, 24328.00
319.2200, 24422.00
320.4260, 24342.00
321.6310, 24507.00
322.8370, 24307.00
324.0430, 24412.00
325.2480, 24736.00
326.4540, 24617.00
327.6590, 24678.00
328.8640, 24947.00
330.0680, 24542.00
331.2730, 24802.00
332.4780, 24876.00
333.6820, 24569.00
334.8860, 24752.00
336.0900, 24771.00
337.2940, 24840.00
338.4980, 24962.00
339.7010, 24798.00
340.9050, 24866.00
342.1080, 25000.00
343.3110, 25059.00
344.5140, 25066.00
345.7170, 24978.00
346.9200, 25023.00
348.1220, 25048.00
349.3240, 25274.00
350.5270, 25289.00
351.7290, 25123.00
352.9310, 25295.00
354.1320, 25293.00
355.3340, 25472.00
356.5350, 25489.00
357.7370, 25297.00
358.9380, 25672.00
360.1390, 25479.00
361.3400, 25571.00
362.5400, 25587.00
363.7410, 25577.00
364.9410, 25543.00
366.1410, 25619.00
367.3410, 25707.00
368.5410, 25792.00
369.7410, 25801.00
370.9400, 25920.00
372.1400, 25815.00
373.3390, 25790.00
374.5380, 25835.00
375.7370, 25756.00
376.9360, 25900.00
378.1350, 25874.00
379.3330, 25841.00
380.5310, 25902.00
381.7300, 25882.00
382.9280, 26002.00
384.1260, 25973.00
385.3230, 26052.00
386.5210, 26007.00
387.7180, 25930.00
388.9160, 26095.00
390.1130, 26153.00
391.3100, 26248.00
392.5060, 26289.00
393.7030, 26319.00
394.9000, 26258.00
396.0960, 26394.00
397.2920, 26383.00
398.4880, 26510.00
399.6840, 26299.00
400.8800, 26308.00
402.0750, 26488.00
403.2710, 26503.00
404.4660, 26493.00
405.6610, 26691.00
406.8560, 26756.00
408.0510, 26548.00
409.2450, 26788.00
410.4400, 26761.00
411.6340, 26512.00
412.8280, 26637.00
414.0220, 26806.00
415.2160, 26915.00
416.4100, 26884.00
417.6030, 26755.00
418.7970, 26833.00
419.9900, 26703.00
421.1830, 26968.00
422.3760, 26867.00
423.5690, 26882.00
424.7610, 26876.00
425.9540, 26872.00
427.1460, 27068.00
428.3380, 27087.00
429.5300, 26984.00
430.7220, 27170.00
431.9140, 27219.00
433.1050, 27344.00
434.2970, 27195.00
435.4880, 27390.00
436.6790, 27127.00
437.8700, 27319.00
439.0610, 27006.00
440.2510, 27347.00
441.4420, 27379.00
442.6320, 27427.00
443.8220, 27646.00
445.0120, 27385.00
446.2020, 27433.00
447.3910, 27469.00
448.5810, 27525.00
449.7700, 27636.00
450.9600, 27562.00
452.1490, 27446.00
453.3370, 27699.00
454.5260, 27626.00
455.7150, 27746.00
456.9030, 27654.00
458.0910, 27750.00
459.2800, 27768.00
460.4670, 27646.00
461.6550, 27599.00
462.8430, 27840.00
464.0300, 27914.00
465.2180, 28063.00
466.4050, 28103.00
467.5920, 27780.00
468.7790, 27963.00
469.9650, 28056.00
471.1520, 28082.00
472.3380, 28197.00
473.5250, 28176.00
474.7110, 28245.00
475.8970, 28039.00
477.0820, 28063.00
478.2680, 28048.00
479.4540, 28532.00
480.6390, 28415.00
481.8240, 28231.00
483.0090, 28319.00
484.1940, 28527.00
485.3780, 28394.00
486.5630, 28455.00
487.7470, 28565.00
488.9320, 28565.00
490.1160, 28319.00
491.3000, 28333.00
492.4830, 28806.00
493.6670, 28531.00
494.8500, 28417.00
496.0340, 28627.00
497.2170, 28784.00
498.4000, 28669.00
499.5820, 28897.00
500.7650, 28751.00
501.9480, 28609.00
503.1300, 29098.00
504.3120, 28754.00
505.4940, 28556.00
506.6760, 28988.00
507.8580, 28702.00
509.0390, 28971.00
510.2210, 28923.00
511.4020, 29042.00
512.5830, 29050.00
513.7640, 29162.00
514.9450, 29217.00
516.1250, 29086.00
517.3060, 29222.00
518.4860, 29020.00
519.6660, 29040.00
520.8460, 29126.00
522.0260, 29131.00
523.2060, 29303.00
524.3850, 29247.00
525.5650, 29426.00
526.7440, 29508.00
527.9230, 29390.00
529.1020, 29407.00
530.2810, 29497.00
531.4590, 29553.00
532.6380, 29609.00
533.8160, 29594.00
534.9940, 29580.00
536.1720, 29484.00
537.3500, 29686.00
538.5270, 29890.00
539.7050, 29502.00
540.8820, 29903.00
542.0590, 29679.00
543.2360, 29748.00
544.4130, 29679.00
545.5900, 29723.00
546.7660, 29687.00
547.9430, 29896.00
549.1190, 29828.00
550.2950, 29890.00
551.4710, 29847.00
552.6470, 30064.00
553.8220, 29766.00
554.9980, 30077.00
556.1730, 30139.00
557.3480, 30191.00
558.5230, 29933.00
559.6980, 30263.00
560.8730, 30179.00
562.0470, 30276.00
563.2220, 30087.00
564.3960, 30299.00
565.5700, 30149.00
566.7440, 30609.00
567.9170, 30351.00
569.0910, 30445.00
570.2640, 30305.00
571.4380, 30575.00
572.6110, 30460.00
573.7840, 30479.00
574.9570, 30618.00
576.1290, 30385.00
577.3020, 30573.00
578.4740, 30535.00
579.6460, 30911.00
580.8180, 30735.00
581.9900, 30604.00
583.1620, 30508.00
584.3330, 30654.00
585.5040, 30654.00
586.6760, 30716.00
587.8470, 30758.00
589.0180, 30804.00
590.1880, 30995.00
591.3590, 31034.00
592.5290, 31049.00
593.7000, 30919.00
594.8700, 30896.00
596.0400, 30962.00
597.2090, 31173.00
598.3790, 31150.00
599.5490, 30951.00
600.7180, 31198.00
601.8870, 31039.00
603.0560, 30921.00
604.2250, 31162.00
605.3940, 31209.00
606.5620, 31186.00
607.7300, 31306.00
608.8990, 31226.00
610.0670, 31409.00
611.2350, 31556.00
612.4020, 31215.00
613.5700, 31086.00
614.7370, 31367.00
615.9050, 31569.00
617.0720, 31468.00
618.2390, 31638.00
619.4060, 31473.00
620.5720, 31363.00
621.7390, 31496.00
622.9050, 31673.00
624.0710, 31652.00
625.2370, 31802.00
626.4030, 31699.00
627.5690, 31529.00
628.7340, 31785.00
629.9000, 31853.00
631.0650, 31808.00
632.2300, 31863.00
633.3950, 31902.00
634.5600, 31983.00
635.7240, 32054.00
636.8890, 31692.00
638.0530, 32019.00
639.2170, 31770.00
640.3810, 31887.00
641.5450, 31931.00
642.7080, 32213.00
643.8720, 32190.00
645.0350, 32225.00
646.1980, 32407.00
647.3610, 32082.00
648.5240, 32415.00
649.6870, 32410.00
650.8490, 32088.00
652.0120, 32317.00
653.1740, 32312.00
654.3360, 32262.00
655.4980, 32347.00
656.6600, 32269.00
657.8210, 32376.00
658.9830, 32485.00
660.1440, 32501.00
661.3050, 32350.00
662.4660, 32409.00
663.6270, 32536.00
664.7870, 32501.00
665.9480, 32327.00
667.1080, 32602.00
668.2680, 32668.00
669.4280, 32685.00
670.5880, 32568.00
671.7480, 32763.00
672.9070, 32945.00
674.0670, 32780.00
675.2260, 32831.00
676.3850, 32917.00
677.5440, 32906.00
678.7030, 32894.00
679.8610, 32759.00
681.0200, 33081.00
682.1780, 32891.00
683.3360, 33027.00
684.4940, 33179.00
685.6520, 32975.00
686.8090, 33192.00
687.9670, 33210.00
689.1240, 32980.00
690.2810, 33234.00
691.4380, 32955.00
692.5950, 33324.00
693.7520, 33105.00
694.9080, 33107.00
696.0650, 33198.00
697.2210, 33480.00
698.3770, 33359.00
699.5330, 33319.00
700.6880, 33279.00
701.8440, 33476.00
702.9990, 33463.00
704.1550, 33638.00
705.3100, 33666.00
706.4650, 33304.00
707.6190, 33575.00
708.7740, 33414.00
709.9290, 33582.00
711.0830, 33706.00
712.2370, 33454.00
713.3910, 33500.00
714.5450, 33872.00
715.6980, 33808.00
716.8520, 33710.00
718.0050, 33609.00
719.1580, 33732.00
720.3110, 33677.00
721.4640, 33922.00
722.6170, 33939.00
723.7700, 33909.00
724.9220, 33799.00
726.0740, 34038.00
727.2260, 33788.00
728.3780, 33950.00
729.5300, 33911.00
730.6810, 34163.00
731.8330, 33880.00
732.9840, 34010.00
734.1350, 34225.00
735.2860, 34278.00
736.4370, 34067.00
737.5880, 34071.00
738.7380, 34216.00
739.8880, 34233.00
741.0390, 34199.00
742.1890, 34351.00
743.3380, 34375.00
744.4880, 34422.00
745.6380, 34304.00
746.7870, 34442.00
747.9360, 34577.00
749.0850, 34648.00
750.2340, 34681.00
751.3830, 34490.00
752.5310, 34653.00
753.6800, 34805.00
754.8280, 34642.00
755.9760, 34814.00
757.1240, 34725.00
758.2720, 34693.00
759.4190, 34851.00
760.5670, 34889.00
761.7140, 34758.00
762.8610, 34653.00
764.0080, 34797.00
765.1550, 34993.00
766.3020, 35259.00
767.4480, 35049.00
768.5950, 35001.00
769.7410, 35108.00
770.8870, 35045.00
772.0330, 34830.00
773.1780, 35245.00
774.3240, 35273.00
775.4690, 35152.00
776.6140, 35173.00
777.7590, 35217.00
778.9040, 35304.00
780.0490, 35357.00
781.1940, 35178.00
782.3380, 35338.00
783.4820, 35500.00
784.6260, 35582.00
785.7700, 35391.00
786.9140, 35627.00
788.0580, 35345.00
789.2010, 35773.00
790.3450, 35647.00
791.4880, 35449.00
792.6310, 35686.00
793.7730, 35836.00
794.9160, 35836.00
796.0590, 35554.00
797.2010, 35723.00
798.3430, 35812.00
799.4850, 35782.00
800.6270, 35521.00
801.7690, 36105.00
802.9100, 35718.00
804.0520, 35904.00
805.1930, 35810.00
806.3340, 36029.00
807.4750, 35965.00
808.6160, 35860.00
809.7560, 36003.00
810.8970, 35952.00
812.0370, 36199.00
813.1770, 36031.00
814.3170, 36146.00
815.4570, 36077.00
816.5960, 36118.00
817.7360, 36320.00
818.8750, 36056.00
820.0140, 36236.00
821.1530, 36311.00
822.2920, 36331.00
823.4310, 36385.00
824.5690, 36462.00
825.7070, 36465.00
826.8460, 36603.00
827.9840, 36306.00
829.1220, 36614.00
830.2590, 36809.00
831.3970, 36520.00
832.5340, 36776.00
833.6710, 36581.00
834.8080, 36685.00
835.9450, 36572.00
837.0820, 36946.00
838.2190, 36798.00
839.3550, 36907.00
840.4910, 36641.00
841.6270, 37049.00
842.7630, 36922.00
843.8990, 37132.00
845.0350, 37098.00
846.1700, 37216.00
847.3060, 37063.00
848.4410, 37269.00
849.5760, 37212.00
850.7100, 37179.00
851.8450, 37227.00
852.9800, 37271.00
854.1140, 37343.00
855.2480, 37144.00
856.3820, 37520.00
857.5160, 37393.00
858.6500, 37099.00
859.7830, 37578.00
860.9170, 37267.00
862.0500, 37470.00
863.1830, 37523.00
864.3160, 37567.00
865.4480, 37370.00
866.5810, 37541.00
867.7130, 37566.00
868.8460, 37599.00
869.9780, 37805.00
871.1100, 37778.00
872.2410, 37597.00
873.3730, 37629.00
874.5050, 37776.00
875.6360, 37837.00
876.7670, 37740.00
877.8980, 37723.00
879.0290, 37796.00
880.1590, 37825.00
881.2900, 37851.00
882.4200, 38000.00
883.5500, 37733.00
884.6800, 38120.00
885.8100, 38057.00
886.9400, 38269.00
888.0690, 37925.00
889.1990, 38254.00
890.3280, 38266.00
891.4570, 38403.00
892.5860, 38128.00
893.7140, 38480.00
894.8430, 38272.00
895.9710, 38254.00
897.1000, 38433.00
898.2280, 38571.00
899.3560, 38256.00
900.4830, 38330.00
901.6110, 38513.00
902.7380, 38516.00
903.8660, 38575.00
904.9930, 38394.00
906.1200, 38760.00
907.2460, 38506.00
908.3730, 38617.00
909.5000, 38427.00
910.6260, 38869.00
911.7520, 38720.00
912.8780, 38626.00
914.0040, 38811.00
915.1290, 38733.00
916.2550, 38934.00
917.3800, 38913.00
918.5050, 38772.00
919.6300, 38954.00
920.7550, 38930.00
921.8800, 38850.00
923.0040, 39207.00
924.1290, 39002.00
925.2530, 39008.00
926.3770, 39347.00
927.5010, 39302.00
928.6250, 39526.00
929.7480, 39372.00
930.8720, 39102.00
931.9950, 39273.00
933.1180, 39325.00
934.2410, 39344.00
935.3640, 39433.00
936.4860, 39383.00
937.6090, 39571.00
938.7310, 39624.00
939.8530, 39473.00
940.9750, 39486.00
942.0970, 39419.00
943.2180, 39953.00
944.3400, 39573.00
945.4610, 39796.00
946.5820, 39636.00
947.7030, 40097.00
948.8240, 39663.00
949.9450, 40266.00
951.0650, 39862.00
952.1860, 40209.00
953.3060, 40046.00
954.4260, 39862.00
955.5460, 40154.00
956.6650, 40001.00
957.7850, 39991.00
958.9040, 40239.00
960.0230, 40186.00
961.1420, 40217.00
962.2610, 40459.00
963.3800, 40342.00
964.4990, 40386.00
965.6170, 40498.00
966.7350, 40130.00
967.8530, 40565.00
968.9710, 40332.00
970.0890, 40468.00
971.2070, 40696.00
972.3240, 40473.00
973.4410, 40581.00
974.5580, 40554.00
975.6750, 40392.00
976.7920, 40525.00
977.9090, 40835.00
979.0250, 40739.00
980.1410, 40974.00
981.2580, 40923.00
982.3740, 40782.00
983.4890, 41101.00
984.6050, 41147.00
985.7200, 40888.00
986.8360, 41187.00
987.9510, 41138.00
989.0660, 41200.00
990.1810, 41089.00
991.2950, 41219.00
992.4100, 41287.00
993.5240, 41130.00
994.6390, 41287.00
995.7530, 41311.00
996.8660, 41209.00
997.9800, 41336.00
999.0940, 41664.00
1000.207, 41359.00
1001.320, 41416.00
1002.433, 41505.00
1003.546, 41471.00
1004.659, 41868.00
1005.772, 41886.00
1006.884, 41782.00
1007.996, 42032.00
1009.108, 41721.00
1010.220, 41889.00
1011.332, 42073.00
1012.444, 41816.00
1013.555, 41946.00
1014.666, 42188.00
1015.777, 41996.00
1016.888, 42014.00
1017.999, 42174.00
1019.110, 42290.00
1020.220, 42351.00
1021.331, 42583.00
1022.441, 42374.00
1023.551, 42667.00
1024.661, 42501.00
1025.770, 42557.00
1026.880, 42811.00
1027.989, 42823.00
1029.098, 42466.00
1030.207, 42767.00
1031.316, 42818.00
1032.425, 42953.00
1033.533, 42820.00
1034.642, 43020.00
1035.750, 43223.00
1036.858, 43360.00
1037.966, 43269.00
1039.073, 43231.00
1040.181, 43356.00
1041.288, 43672.00
1042.396, 43578.00
1043.503, 44004.00
1044.610, 43997.00
1045.716, 44236.00
1046.823, 44456.00
1047.929, 44746.00
1049.036, 45145.00
1050.142, 45370.00
1051.248, 45870.00
1052.353, 46500.00
1053.459, 47312.00
1054.564, 48113.00
1055.670, 48737.00
1056.775, 49981.00
1057.880, 50669.00
1058.985, 51489.00
1060.089, 52049.00
1061.194, 52176.00
1062.298, 51926.00
1063.402, 51110.00
1064.506, 50544.00
1065.610, 49260.00
1066.713, 48469.00
1067.817, 47909.00
1068.920, 47080.00
1070.023, 46590.00
1071.126, 46110.00
1072.229, 45846.00
1073.332, 45726.00
1074.435, 45412.00
1075.537, 45007.00
1076.639, 45037.00
1077.741, 44914.00
1078.843, 44888.00
1079.945, 44800.00
1081.046, 44707.00
1082.148, 44758.00
1083.249, 44719.00
1084.350, 44917.00
1085.451, 44524.00
1086.551, 44777.00
1087.652, 44899.00
1088.752, 44891.00
1089.853, 44754.00
1090.953, 44732.00
1092.053, 44928.00
1093.152, 44713.00
1094.252, 44985.00
1095.351, 44861.00
1096.451, 45050.00
1097.550, 44984.00
1098.649, 45055.00
1099.748, 44878.00
1100.846, 45068.00
1101.945, 45257.00
1103.043, 45202.00
1104.141, 45508.00
1105.239, 45051.00
1106.337, 45104.00
1107.434, 45007.00
1108.532, 45361.00
1109.629, 45367.00
1110.726, 45248.00
1111.823, 45338.00
1112.920, 45175.00
1114.017, 45467.00
1115.113, 45529.00
1116.210, 45485.00
1117.306, 45454.00
1118.402, 45597.00
1119.498, 45407.00
1120.593, 46085.00
1121.689, 45641.00
1122.784, 45902.00
1123.879, 45927.00
1124.974, 45990.00
1126.069, 46037.00
1127.164, 46001.00
1128.259, 46044.00
1129.353, 45877.00
1130.447, 45962.00
1131.541, 46263.00
1132.635, 46317.00
1133.729, 46337.00
1134.822, 46164.00
1135.916, 46298.00
1137.009, 46054.00
1138.102, 46301.00
1139.195, 46435.00
1140.288, 46574.00
1141.380, 46517.00
1142.473, 46459.00
1143.565, 46456.00
1144.657, 46943.00
1145.749, 46616.00
1146.841, 46731.00
1147.932, 46802.00
1149.024, 46630.00
1150.115, 46748.00
1151.206, 46787.00
1152.297, 47110.00
1153.388, 46535.00
1154.479, 47286.00
1155.569, 47337.00
1156.659, 47064.00
1157.750, 47107.00
1158.839, 47117.00
1159.929, 47320.00
1161.019, 47107.00
1162.108, 47154.00
1163.198, 47324.00
1164.287, 47579.00
1165.376, 47556.00
1166.465, 47460.00
1167.553, 47331.00
1168.642, 47569.00
1169.730, 47657.00
1170.818, 47728.00
1171.906, 47996.00
1172.994, 47888.00
1174.082, 47928.00
1175.170, 47781.00
1176.257, 47658.00
1177.344, 47948.00
1178.431, 47863.00
1179.518, 48172.00
1180.605, 48347.00
1181.691, 48145.00
1182.778, 48234.00
1183.864, 48394.00
1184.950, 48273.00
1186.036, 48408.00
1187.122, 48289.00
1188.207, 48384.00
1189.292, 48438.00
1190.378, 48414.00
1191.463, 48641.00
1192.548, 48695.00
1193.632, 48641.00
1194.717, 48730.00
1195.801, 48631.00
1196.886, 48814.00
1197.970, 49092.00
1199.054, 48691.00
1200.137, 48809.00
1201.221, 48959.00
1202.305, 49145.00
1203.388, 48916.00
1204.471, 49264.00
1205.554, 49130.00
1206.637, 49175.00
1207.719, 49299.00
1208.802, 49265.00
1209.884, 49202.00
1210.966, 49518.00
1212.048, 49146.00
1213.130, 49556.00
1214.212, 49525.00
1215.293, 49591.00
1216.374, 49700.00
1217.456, 49583.00
1218.536, 49921.00
1219.617, 49890.00
1220.698, 50066.00
1221.778, 49851.00
1222.859, 50069.00
1223.939, 50245.00
1225.019, 49947.00
1226.099, 50258.00
1227.178, 49614.00
1228.258, 49730.00
1229.337, 50050.00
1230.417, 50104.00
1231.496, 50253.00
1232.574, 50307.00
1233.653, 50373.00
1234.732, 50504.00
1235.810, 50508.00
1236.888, 50650.00
1237.966, 50468.00
1239.044, 50612.00
1240.122, 50257.00
1241.199, 50691.00
1242.277, 50697.00
1243.354, 50766.00
1244.431, 50624.00
1245.508, 50890.00
1246.585, 50898.00
1247.661, 50858.00
1248.738, 50926.00
1249.814, 51226.00
1250.890, 50857.00
1251.966, 51231.00
1253.042, 50752.00
1254.117, 50873.00
1255.193, 51031.00
1256.268, 51029.00
1257.343, 50836.00
1258.418, 50686.00
1259.493, 51027.00
1260.567, 51076.00
1261.642, 51405.00
1262.716, 51401.00
1263.790, 51484.00
1264.864, 51776.00
1265.938, 51862.00
1267.011, 51567.00
1268.085, 51611.00
1269.158, 51407.00
1270.231, 51751.00
1271.304, 51752.00
1272.377, 51969.00
1273.450, 51787.00
1274.522, 52218.00
1275.594, 51963.00
1276.666, 51894.00
