##NAMES=Tsaregorodtsevite
##RRUFFID=R060033
##IDEAL CHEMISTRY=N(CH_3_)_4_Si_4_(SiAl)O_12_
##LOCALITY=Yaruta, Man-Hambo Mountain Range, North Urals, Russia
##OWNER=RRUFF
##SOURCE=University of Arizona Mineral Museum
##DESCRIPTION=Tan colored pseudo cubo-dodecahedra
##STATUS=The identification of this mineral has been confirmed by X-ray diffraction and chemical analysis
##URL=rruff.info/R060033
##MEASURED CHEMISTRY=N(CH_3_)_4_Si_4.00_(Si_1.00_Al_1.00_)_Î£=2_O_12_
139.2890, 236.0039
139.7711, 236.3011
140.2532, 235.9574
140.7353, 235.1190
141.2175, 234.5307
141.6996, 234.3101
142.1817, 234.3152
142.6638, 234.5029
143.1459, 234.9441
143.6280, 235.2245
144.1102, 234.8191
144.5923, 234.0579
145.0744, 233.4816
145.5565, 233.3589
146.0386, 233.5804
146.5207, 233.8376
147.0029, 234.1693
147.4850, 234.4754
147.9671, 234.6847
148.4492, 234.8326
148.9313, 235.0011
149.4134, 235.2968
149.8955, 235.7285
150.3777, 235.9518
150.8598, 235.9278
151.3419, 235.6982
151.8240, 235.0283
152.3061, 234.0784
152.7882, 233.3234
153.2704, 233.3479
153.7525, 234.5670
154.2346, 235.1024
154.7167, 234.4836
155.1988, 233.7079
155.6809, 233.4165
156.1631, 233.6760
156.6452, 234.0603
157.1273, 233.9830
157.6094, 233.1799
158.0915, 232.4008
158.5736, 231.4866
159.0558, 230.6721
159.5379, 230.2625
160.0200, 230.3581
160.5021, 230.6573
160.9842, 230.6387
161.4663, 230.2788
161.9485, 229.7750
162.4306, 229.0814
162.9127, 228.2780
163.3948, 227.5053
163.8769, 226.8091
164.3590, 226.1658
164.8412, 225.5095
165.3233, 224.8026
165.8054, 224.2184
166.2875, 224.0882
166.7696, 224.3025
167.2517, 224.0086
167.7339, 222.5557
168.2160, 220.7495
168.6981, 219.4643
169.1802, 218.8306
169.6623, 218.3672
170.1444, 217.6112
170.6266, 216.5288
171.1087, 215.3710
171.5908, 214.0920
172.0729, 212.8314
172.5550, 211.6738
173.0371, 210.6447
173.5193, 209.7337
174.0014, 208.9772
174.4835, 208.6210
174.9656, 207.8611
175.4477, 206.2908
175.9298, 204.4746
176.4120, 202.8850
176.8941, 201.7196
177.3762, 200.8601
177.8583, 199.9888
178.3404, 199.0353
178.8225, 198.1703
179.3047, 197.5697
179.7868, 197.0088
180.2689, 196.1779
180.7510, 194.9123
181.2331, 193.3377
181.7152, 192.0501
182.1974, 191.2360
182.6795, 190.4862
183.1616, 189.7373
183.6437, 189.0057
184.1258, 188.3376
184.6079, 187.7710
185.0900, 187.2769
185.5722, 186.6814
186.0543, 185.9330
186.5364, 185.1626
187.0185, 184.4821
187.5006, 183.8374
187.9827, 183.0069
188.4649, 181.7711
188.9470, 180.2725
189.4291, 179.1622
189.9112, 178.6370
190.3933, 178.2932
190.8754, 178.0512
191.3576, 177.8815
191.8397, 177.3616
192.3218, 175.9441
192.8039, 174.0631
193.2860, 172.7117
193.7681, 172.2354
194.2503, 172.1109
194.7324, 171.8579
195.2145, 171.4785
195.6966, 170.9534
196.1787, 169.9538
196.6608, 168.8770
197.1430, 168.2742
197.6251, 168.5606
198.1072, 169.1495
198.5893, 169.0174
199.0714, 167.9309
199.5535, 166.7036
200.0357, 165.3936
200.5178, 164.2302
200.9999, 163.5586
201.4820, 163.6515
201.9641, 164.1871
202.4462, 164.2544
202.9284, 163.6027
203.4105, 162.8619
203.8926, 162.1154
204.3747, 161.4278
204.8568, 160.9065
205.3389, 160.6431
205.8211, 160.5490
206.3032, 160.2147
206.7853, 159.2834
207.2674, 158.5457
207.7495, 158.2380
208.2316, 158.1913
208.7138, 158.2112
209.1959, 158.2059
209.6780, 158.1336
210.1601, 157.6818
210.6422, 156.2096
211.1243, 155.0193
211.6065, 154.4987
212.0886, 154.3951
212.5707, 154.2532
213.0528, 153.7644
213.5349, 152.9972
214.0170, 152.6514
214.4992, 153.1515
214.9813, 153.5708
215.4634, 153.7258
215.9455, 153.6177
216.4276, 153.2445
216.9097, 152.5627
217.3919, 151.6286
217.8740, 150.9988
218.3561, 150.8499
218.8382, 150.7469
219.3203, 150.4957
219.8024, 150.1525
220.2845, 149.9288
220.7667, 150.0173
221.2488, 150.3002
221.7309, 150.1596
222.2130, 149.0973
222.6951, 148.1420
223.1772, 148.0524
223.6594, 148.6204
224.1415, 148.7896
224.6236, 147.7380
225.1057, 145.9348
225.5878, 145.0082
226.0699, 145.5117
226.5521, 146.2373
227.0342, 146.3505
227.5163, 145.9070
227.9984, 145.5040
228.4805, 145.5183
228.9626, 145.7250
229.4448, 145.6800
229.9269, 145.2764
230.4090, 144.7408
230.8911, 144.1659
231.3732, 143.5521
231.8553, 143.1613
232.3375, 143.2751
232.8196, 143.6035
233.3017, 143.8014
233.7838, 143.8140
234.2659, 143.7136
234.7480, 143.5176
235.2302, 143.2054
235.7123, 143.0027
236.1944, 143.0741
236.6765, 143.2548
237.1586, 143.4523
237.6407, 143.6667
238.1229, 143.7926
238.6050, 143.6132
239.0871, 143.0314
239.5692, 142.6700
240.0513, 142.9274
240.5334, 143.3372
241.0156, 143.6022
241.4977, 143.6528
241.9798, 143.6086
242.4619, 143.6559
242.9440, 143.8668
243.4261, 143.8852
243.9083, 143.4368
244.3904, 142.9230
244.8725, 142.5613
245.3546, 142.4026
245.8367, 142.4102
246.3188, 142.6154
246.8010, 143.1876
247.2831, 143.4140
247.7652, 142.9541
248.2473, 142.3674
248.7294, 142.0161
249.2115, 141.9393
249.6937, 141.8979
250.1758, 141.5666
250.6579, 140.8218
251.1400, 140.1044
251.6221, 139.3472
252.1042, 138.6624
252.5864, 138.1696
253.0685, 137.8484
253.5506, 137.5571
254.0327, 137.1200
254.5148, 136.4962
254.9969, 135.8530
255.4790, 135.3117
255.9612, 134.6554
256.4433, 133.6268
256.9254, 132.3043
257.4075, 131.0579
257.8896, 130.3159
258.3718, 130.2178
258.8539, 130.0243
259.3360, 129.6151
259.8181, 129.2361
260.3002, 129.1557
260.7823, 129.2775
261.2645, 129.1885
261.7466, 128.4420
262.2287, 126.8848
262.7108, 125.8355
263.1929, 125.4889
263.6750, 125.3446
264.1572, 125.2630
264.6393, 125.1920
265.1214, 125.0690
265.6035, 124.8408
266.0856, 124.5051
266.5677, 124.1361
267.0499, 123.6753
267.5320, 123.2427
268.0141, 122.8129
268.4962, 122.4399
268.9783, 122.3039
269.4604, 122.5933
269.9426, 123.2382
270.4247, 123.3294
270.9068, 122.4535
271.3889, 121.5899
271.8710, 121.1897
272.3531, 121.0923
272.8352, 120.8103
273.3174, 119.9872
273.7995, 118.8433
274.2816, 118.4960
274.7637, 119.6638
275.2458, 120.6240
275.7279, 120.8242
276.2101, 120.4458
276.6922, 119.8064
277.1743, 118.9890
277.6564, 118.1154
278.1385, 117.5405
278.6206, 117.2955
279.1028, 117.1966
279.5849, 117.2891
280.0670, 117.4818
280.5491, 117.6198
281.0312, 117.6494
281.5133, 117.5951
281.9955, 117.4991
282.4776, 117.3811
282.9597, 117.1827
283.4418, 116.8254
283.9239, 116.3922
284.4060, 115.9959
284.8882, 115.6561
285.3703, 115.3975
285.8524, 115.2843
286.3345, 115.3206
286.8166, 115.3690
287.2987, 115.4252
287.7809, 115.4688
288.2630, 115.4666
288.7451, 115.4102
289.2272, 115.3331
289.7093, 115.2393
290.1914, 115.1344
290.6736, 115.1476
291.1557, 115.3856
291.6378, 115.7052
292.1199, 115.9932
292.6020, 116.2414
293.0841, 116.3730
293.5663, 116.2947
294.0484, 116.0304
294.5305, 115.7366
295.0126, 115.2553
295.4947, 114.8692
295.9768, 114.9330
296.4590, 115.4322
296.9411, 115.8515
297.4232, 115.7381
297.9053, 115.3379
298.3874, 115.4166
298.8695, 116.4560
299.3517, 117.4663
299.8338, 117.6300
300.3159, 117.0588
300.7980, 116.5049
301.2801, 116.3023
301.7622, 116.3386
302.2444, 116.3601
302.7265, 116.3836
303.2086, 116.3564
303.6907, 116.1243
304.1728, 115.7874
304.6549, 115.7383
305.1371, 116.1774
305.6192, 116.8605
306.1013, 117.4755
306.5834, 118.0476
307.0655, 118.4305
307.5476, 118.4841
308.0298, 118.3074
308.5119, 118.0924
308.9940, 117.8320
309.4761, 117.6564
309.9582, 117.7944
310.4403, 118.1973
310.9225, 118.5257
311.4046, 118.5141
311.8867, 118.4151
312.3688, 118.7181
312.8509, 119.5550
313.3330, 120.3411
313.8152, 120.5100
314.2973, 120.2050
314.7794, 119.8454
315.2615, 119.2320
315.7436, 118.7646
316.2257, 119.0813
316.7079, 120.2267
317.1900, 121.1655
317.6721, 120.9938
318.1542, 120.2317
318.6363, 120.1870
319.1184, 121.4452
319.6006, 122.8377
320.0827, 123.3824
320.5648, 123.1918
321.0469, 123.1134
321.5290, 123.5422
322.0111, 124.2644
322.4933, 124.8656
322.9754, 125.3332
323.4575, 125.7252
323.9396, 126.0338
324.4217, 126.2862
324.9038, 126.5851
325.3860, 127.0033
325.8681, 127.3939
326.3502, 127.4652
326.8323, 127.2079
327.3144, 127.1563
327.7965, 127.5315
328.2787, 128.2238
328.7608, 129.1888
329.2429, 130.5136
329.7250, 131.6288
330.2071, 131.6878
330.6892, 130.9072
331.1714, 130.5657
331.6535, 131.1523
332.1356, 132.1357
332.6177, 133.0830
333.0998, 133.9683
333.5819, 134.6179
334.0641, 134.9189
334.5462, 134.8535
335.0283, 134.5208
335.5104, 133.6118
335.9925, 132.7393
336.4746, 132.3444
336.9568, 132.3502
337.4389, 132.4437
337.9210, 132.5511
338.4031, 132.5874
338.8852, 132.3783
339.3673, 131.9235
339.8495, 131.2843
340.3316, 130.3372
340.8137, 129.2422
341.2958, 128.3107
341.7779, 127.6415
342.2600, 127.1456
342.7421, 126.7150
343.2242, 126.3456
343.7064, 126.0358
344.1885, 125.8601
344.6706, 125.7068
345.1527, 125.3112
345.6348, 124.6417
346.1169, 124.2438
346.5991, 124.7223
347.0812, 126.1374
347.5633, 127.2092
348.0454, 127.4717
348.5275, 127.7842
349.0096, 128.6653
349.4918, 130.1052
349.9739, 131.9787
350.4560, 134.3636
350.9381, 137.0550
351.4202, 139.0452
351.9023, 139.7016
352.3845, 140.4993
352.8666, 142.0100
353.3487, 143.9558
353.8308, 145.7979
354.3129, 147.3092
354.7950, 148.7244
355.2772, 150.5166
355.7593, 152.7528
356.2414, 155.2132
356.7235, 157.8293
357.2056, 160.6897
357.6877, 163.9836
358.1699, 167.7132
358.6520, 171.4964
359.1341, 174.9066
359.6162, 177.8209
360.0983, 181.0322
360.5804, 184.1705
361.0626, 187.8928
361.5447, 192.6983
362.0268, 198.4667
362.5089, 204.7262
362.9910, 211.1584
363.4731, 217.8012
363.9553, 224.7540
364.4374, 232.0384
364.9195, 239.6747
365.4016, 248.1048
365.8837, 256.7698
366.3658, 265.1702
366.8480, 273.1169
367.3301, 280.1631
367.8122, 285.3241
368.2943, 288.3589
368.7764, 289.5448
369.2585, 289.1758
369.7407, 286.9376
370.2228, 282.1931
370.7049, 275.0858
371.1870, 266.6595
371.6691, 257.9317
372.1512, 248.8747
372.6334, 239.9781
373.1155, 231.3721
373.5976, 222.8584
374.0797, 214.2568
374.5618, 205.7145
375.0439, 197.4293
375.5261, 189.5109
376.0082, 181.9873
376.4903, 174.9500
376.9724, 168.6416
377.4545, 162.4819
377.9366, 155.8365
378.4188, 149.5032
378.9009, 144.3906
379.3830, 140.7944
379.8651, 138.0660
380.3472, 135.1948
380.8293, 131.9332
381.3115, 129.2956
381.7936, 127.9687
382.2757, 126.7994
382.7578, 125.0444
383.2399, 122.7894
383.7220, 120.7476
384.2042, 119.6400
384.6863, 119.3867
385.1684, 118.7603
385.6505, 117.2898
386.1326, 116.1197
386.6147, 115.9096
387.0969, 116.2202
387.5790, 116.3575
388.0611, 116.0192
388.5432, 115.3595
389.0253, 114.5220
389.5074, 113.3625
389.9896, 112.6544
390.4717, 113.1947
390.9538, 113.9869
391.4359, 114.1320
391.9180, 113.4820
392.4001, 112.7796
392.8823, 112.6898
393.3644, 113.1099
393.8465, 113.4044
394.3286, 113.4451
394.8107, 113.3887
395.2928, 113.2696
395.7750, 113.1386
396.2571, 113.2115
396.7392, 113.7648
397.2213, 114.4806
397.7034, 114.8540
398.1855, 114.8474
398.6677, 114.8918
399.1498, 115.3357
399.6319, 115.9615
400.1140, 116.2291
400.5961, 115.8147
401.0782, 115.5623
401.5604, 116.1897
402.0425, 117.3902
402.5246, 118.1953
403.0067, 118.1984
403.4888, 117.9815
403.9709, 118.5023
404.4531, 119.8524
404.9352, 120.9886
405.4173, 121.4750
405.8994, 121.8178
406.3815, 122.5562
406.8636, 123.7136
407.3458, 124.9303
407.8279, 125.9064
408.3100, 126.6613
408.7921, 127.5296
409.2742, 128.7502
409.7563, 129.8048
410.2385, 130.2852
410.7206, 130.4985
411.2027, 130.9622
411.6848, 131.8909
412.1669, 133.2026
412.6490, 134.7298
413.1311, 136.4212
413.6133, 138.4656
414.0954, 140.8854
414.5775, 143.6181
415.0596, 146.7799
415.5417, 150.2720
416.0238, 153.7033
416.5060, 156.6508
416.9881, 159.0757
417.4702, 162.0756
417.9523, 165.8129
418.4344, 170.0083
418.9165, 174.8407
419.3987, 180.0293
419.8808, 185.2554
420.3629, 190.3365
420.8450, 195.3634
421.3271, 200.4189
421.8092, 205.3560
422.2914, 210.6639
422.7735, 216.5646
423.2556, 222.7209
423.7377, 228.9061
424.2198, 235.1218
424.7019, 241.5906
425.1841, 248.4488
425.6662, 255.7114
426.1483, 263.4525
426.6304, 271.7595
427.1125, 280.3965
427.5946, 288.7592
428.0768, 297.4878
428.5589, 307.4691
429.0410, 319.1280
429.5231, 331.9840
430.0052, 345.5397
430.4873, 359.8003
430.9695, 374.5897
431.4516, 389.8824
431.9337, 405.7550
432.4158, 422.2711
432.8979, 439.4715
433.3800, 456.4621
433.8622, 472.9455
434.3443, 488.8857
434.8264, 504.8596
435.3085, 521.0910
435.7906, 535.4789
436.2727, 546.6901
436.7549, 554.5621
437.2370, 559.6860
437.7191, 562.6937
438.2012, 562.3184
438.6833, 557.7305
439.1654, 549.2324
439.6476, 537.0597
440.1297, 520.9792
440.6118, 502.6766
441.0939, 484.8511
441.5760, 467.4162
442.0581, 450.7585
442.5403, 434.6646
443.0224, 419.5011
443.5045, 405.4920
443.9866, 392.6973
444.4687, 381.3064
444.9508, 371.4649
445.4330, 363.1796
445.9151, 356.1387
446.3972, 351.2211
446.8793, 346.5748
447.3614, 341.6617
447.8435, 337.0015
448.3257, 333.2910
448.8078, 330.7169
449.2899, 328.7476
449.7720, 326.6830
450.2541, 324.5604
450.7362, 322.2271
451.2184, 319.1532
451.7005, 316.3672
452.1826, 314.8403
452.6647, 313.9473
453.1468, 312.1401
453.6289, 308.3033
454.1111, 303.1537
454.5932, 298.6842
455.0753, 295.0749
455.5574, 291.5004
456.0395, 288.0686
456.5216, 284.3321
457.0038, 279.6677
457.4859, 273.9445
457.9680, 268.4343
458.4501, 264.1119
458.9322, 260.7768
459.4143, 257.8705
459.8965, 255.5010
460.3786, 253.0951
460.8607, 250.2154
461.3428, 246.9507
461.8249, 243.4595
462.3070, 239.6134
462.7892, 235.7037
463.2713, 232.1117
463.7534, 228.6876
464.2355, 224.9496
464.7176, 220.7481
465.1997, 216.0393
465.6819, 210.5447
466.1640, 204.0201
466.6461, 197.8263
467.1282, 192.7455
467.6103, 187.5991
468.0924, 181.0453
468.5746, 173.3232
469.0567, 165.9093
469.5388, 159.9631
470.0209, 155.2717
470.5030, 150.1817
470.9851, 143.6920
471.4673, 138.0780
471.9494, 133.8736
472.4315, 130.5223
472.9136, 127.5733
473.3957, 124.8761
473.8778, 122.3746
474.3600, 120.0182
474.8421, 117.8198
475.3242, 115.6654
475.8063, 113.1665
476.2884, 111.1467
476.7705, 110.1794
477.2527, 109.7999
477.7348, 109.2281
478.2169, 108.0878
478.6990, 106.6900
479.1811, 105.5266
479.6632, 104.6039
480.1454, 103.8324
480.6275, 103.2898
481.1096, 102.8006
481.5917, 102.2501
482.0738, 101.6319
482.5559, 100.9156
483.0380, 99.94125
483.5201, 98.91566
484.0023, 98.18726
484.4844, 97.77383
484.9665, 97.50280
485.4486, 97.33663
485.9307, 97.22066
486.4128, 97.00027
486.8950, 96.61565
487.3771, 96.26231
487.8592, 96.14916
488.3413, 96.04853
488.8234, 95.57680
489.3055, 94.67824
489.7877, 93.71817
490.2698, 93.04710
490.7519, 92.67194
491.2340, 92.42002
491.7161, 92.41499
492.1982, 92.36699
492.6804, 92.24372
493.1625, 92.00218
493.6446, 91.51791
494.1267, 90.75791
494.6088, 89.95882
495.0909, 89.54182
495.5731, 89.65376
496.0552, 89.68117
496.5373, 89.57170
497.0194, 89.42347
497.5015, 89.27842
497.9836, 89.12436
498.4658, 88.93855
498.9479, 88.72684
499.4300, 88.44395
499.9121, 87.86679
500.3942, 86.22034
500.8763, 86.35212
501.3585, 86.38367
501.8406, 86.32040
502.3227, 85.87827
502.8048, 85.92536
503.2869, 85.77640
503.7690, 85.61938
504.2512, 85.73531
504.7333, 85.34828
505.2154, 85.60643
505.6975, 85.29204
506.1796, 85.24752
506.6617, 85.41248
507.1439, 85.60530
507.6260, 85.93873
508.1081, 86.09447
508.5902, 85.84161
509.0723, 85.44216
509.5544, 85.20251
510.0366, 85.16884
510.5187, 85.19568
511.0008, 85.16729
511.4829, 85.08355
511.9650, 84.83025
512.4471, 84.09143
512.9293, 83.55893
513.4114, 83.44630
513.8935, 83.57191
514.3756, 83.74792
514.8577, 83.91120
515.3398, 84.07099
515.8220, 84.30086
516.3041, 84.63634
516.7862, 84.63407
517.2683, 84.00414
517.7504, 83.40247
518.2325, 83.08756
518.7147, 83.00494
519.1968, 83.10526
519.6789, 83.45286
520.1610, 83.76878
520.6431, 83.68166
521.1252, 83.24141
521.6074, 82.84719
522.0895, 82.58955
522.5716, 82.41321
523.0537, 82.22422
523.5358, 82.03703
524.0179, 82.04573
524.5001, 82.53622
524.9822, 83.00933
525.4643, 83.01223
525.9464, 82.69151
526.4285, 82.52846
526.9106, 82.74545
527.3928, 83.12025
527.8749, 83.22565
528.3570, 82.85152
528.8391, 82.69770
529.3212, 83.10023
529.8033, 83.39896
530.2855, 83.16549
530.7676, 82.51740
531.2497, 81.76894
531.7318, 81.07778
532.2139, 80.52140
532.6960, 80.35356
533.1782, 80.74092
533.6603, 81.04271
534.1424, 81.16847
534.6245, 81.16521
535.1066, 80.98415
535.5887, 80.67194
536.0709, 80.40849
536.5530, 80.35066
537.0351, 80.38371
537.5172, 80.26423
537.9993, 79.98275
538.4814, 79.75672
538.9636, 79.65552
539.4457, 79.68099
539.9278, 79.87561
540.4099, 80.28587
540.8920, 80.57000
541.3741, 80.59202
541.8563, 80.47366
542.3384, 80.27842
542.8205, 80.04138
543.3026, 79.87612
543.7847, 79.86111
544.2668, 79.95839
544.7490, 80.03006
545.2311, 79.97777
545.7132, 80.04111
546.1953, 80.40284
546.6774, 80.74375
547.1595, 80.71236
547.6417, 80.39271
548.1238, 80.24717
548.6059, 80.70835
549.0880, 81.55235
549.5701, 81.82250
550.0522, 81.24312
550.5344, 80.79764
551.0165, 80.91245
551.4986, 81.19621
551.9807, 81.40502
552.4628, 81.51051
552.9449, 81.49885
553.4271, 81.26915
553.9092, 80.95267
554.3913, 80.78288
554.8734, 80.77186
555.3555, 80.80277
555.8376, 80.80026
556.3198, 80.80996
556.8019, 80.98213
557.2840, 81.43595
557.7661, 81.72885
558.2482, 81.70170
558.7303, 81.53107
559.2125, 81.30362
559.6946, 81.07059
560.1767, 80.94411
560.6588, 81.00909
561.1409, 81.22820
561.6230, 81.43841
562.1052, 81.60318
562.5873, 81.82731
563.0694, 82.19599
563.5515, 82.56004
564.0336, 82.80864
564.5157, 82.94507
564.9979, 83.03996
565.4800, 83.13146
565.9621, 83.22262
566.4442, 83.34029
566.9263, 83.49926
567.4084, 83.58456
567.8906, 83.55729
568.3727, 83.42567
568.8548, 83.14904
569.3369, 82.70689
569.8190, 82.44798
570.3011, 82.56713
570.7833, 82.87441
571.2654, 83.28087
571.7475, 83.72578
572.2296, 83.95854
572.7117, 83.81420
573.1938, 83.48624
573.6760, 83.44749
574.1581, 83.91556
574.6402, 84.28370
575.1223, 84.56293
575.6044, 84.74075
576.0865, 84.75387
576.5687, 84.66080
577.0508, 84.59480
577.5329, 84.63285
578.0150, 84.73549
578.4971, 84.80086
578.9792, 84.80345
579.4614, 84.91882
579.9435, 85.29293
580.4256, 85.66395
580.9077, 85.86449
581.3898, 85.90514
581.8719, 85.83233
582.3541, 85.46746
582.8362, 85.17440
583.3183, 85.44827
583.8004, 86.12527
584.2825, 86.57552
584.7646, 86.58406
585.2468, 86.35951
585.7289, 86.11601
586.2110, 85.80825
586.6931, 85.81548
587.1752, 86.43391
587.6573, 87.02456
588.1394, 87.35804
588.6215, 87.48634
589.1036, 87.46794
589.5858, 87.33613
590.0679, 87.20521
590.5500, 87.27526
591.0321, 87.58269
591.5142, 87.68690
591.9963, 87.44946
592.4785, 87.20855
592.9606, 87.11689
593.4427, 87.10648
593.9248, 87.09138
594.4069, 87.05629
594.8890, 86.99219
595.3712, 86.87818
595.8533, 86.73156
596.3354, 86.60435
596.8175, 86.50513
597.2996, 86.36546
597.7817, 86.12553
598.2639, 85.80521
598.7460, 85.51615
599.2281, 85.18752
599.7102, 84.97993
600.1923, 85.00480
600.6744, 85.10326
601.1566, 85.11559
601.6387, 85.04819
602.1208, 85.04724
602.6029, 85.25648
603.0850, 85.57380
603.5671, 85.55074
604.0493, 85.01020
604.5314, 84.60262
605.0135, 84.54186
605.4956, 84.60825
605.9777, 84.75213
606.4598, 84.92368
606.9420, 84.91183
607.4241, 84.44662
607.9062, 83.86045
608.3883, 83.57008
608.8704, 83.53030
609.3525, 83.51510
609.8347, 83.45830
610.3168, 83.34731
610.7989, 83.16484
611.2810, 82.90346
611.7631, 82.58498
612.2452, 82.10303
612.7274, 81.68221
613.2095, 81.44045
613.6916, 81.31346
614.1737, 81.21928
614.6558, 81.12513
615.1379, 81.00745
615.6201, 80.79207
616.1022, 80.47191
616.5843, 80.34122
617.0664, 80.43445
617.5485, 80.66116
618.0306, 81.21971
618.5128, 81.77950
618.9949, 81.88398
619.4770, 81.40297
619.9591, 80.82947
620.4412, 80.37415
620.9233, 80.02909
621.4055, 79.73620
621.8876, 79.50954
622.3697, 79.61130
622.8518, 80.31234
623.3339, 81.26344
623.8160, 81.41322
624.2982, 79.88018
624.7803, 78.97857
625.2624, 79.27055
625.7445, 79.66585
626.2266, 79.44572
626.7087, 78.77715
627.1909, 78.16483
627.6730, 77.85695
628.1551, 77.82247
628.6372, 78.19695
629.1193, 79.00847
629.6014, 79.21862
630.0836, 78.46892
630.5657, 77.43874
631.0478, 76.40996
631.5299, 75.50969
632.0120, 75.14624
632.4941, 75.72684
632.9763, 76.35046
633.4584, 76.61955
633.9405, 76.63082
634.4226, 76.42309
