##NAMES=Tsaregorodtsevite
##RRUFFID=R060373
##IDEAL CHEMISTRY=N(CH_3_)_4_Si_4_(SiAl)O_12_
##LOCALITY=Mun-Hambo, north Urals, Hanty- Manskiisky, Autonomous District, Russia
##OWNER=RRUFF
##SOURCE=Michael Scott
##DESCRIPTION=Colorless single crystals with octahedral and cubic forms
##STATUS=The identification of this mineral is confirmed by single-crystal X-ray diffraction and chemical analysis.
##URL=rruff.info/R060373
##MEASURED CHEMISTRY=N(CH_3_)_4_Si_4.00_(Si_0.97_Al_1.03_)_Î£=2_O_12_; trace amounts of Na; N and CH_3_ not measured but assumed by stoichiometry
137.8164, 682.4636
138.2985, 681.6076
138.7806, 681.1889
139.2628, 681.6594
139.7449, 681.7396
140.2270, 681.2308
140.7091, 680.3867
141.1912, 679.3822
141.6733, 678.3007
142.1555, 677.1682
142.6376, 676.0987
143.1197, 674.7036
143.6018, 673.8118
144.0839, 674.0852
144.5660, 674.8556
145.0482, 674.9889
145.5303, 673.7332
146.0124, 671.3461
146.4945, 669.7830
146.9766, 669.6172
147.4587, 669.5093
147.9409, 669.1277
148.4230, 668.4036
148.9051, 667.0036
149.3872, 664.1706
149.8693, 660.4456
150.3514, 658.5309
150.8336, 659.9431
151.3157, 662.2820
151.7978, 663.5233
152.2799, 663.5714
152.7620, 662.9484
153.2441, 661.5865
153.7263, 659.8353
154.2084, 658.2433
154.6905, 656.9797
155.1726, 656.0109
155.6547, 655.3407
156.1368, 655.2354
156.6190, 654.9365
157.1011, 653.6671
157.5832, 651.9226
158.0653, 650.6932
158.5474, 650.9699
159.0295, 652.5785
159.5117, 653.1908
159.9938, 652.0140
160.4759, 650.5043
160.9580, 648.9222
161.4401, 647.4105
161.9222, 646.1994
162.4044, 645.5954
162.8865, 645.7702
163.3686, 645.4992
163.8507, 644.6219
164.3328, 643.4762
164.8149, 641.9641
165.2971, 640.2147
165.7792, 638.6957
166.2613, 638.0759
166.7434, 639.1723
167.2255, 638.6446
167.7076, 635.3671
168.1898, 631.4893
168.6719, 628.5802
169.1540, 626.9249
169.6361, 625.6858
170.1182, 623.6219
170.6003, 620.1177
171.0825, 617.4019
171.5646, 615.8902
172.0467, 615.1025
172.5288, 614.7921
173.0109, 615.0076
173.4930, 615.0016
173.9752, 613.1187
174.4573, 609.1193
174.9394, 605.5731
175.4215, 603.6921
175.9036, 602.7841
176.3857, 601.2463
176.8679, 598.3745
177.3500, 595.0606
177.8321, 592.5714
178.3142, 590.9543
178.7963, 589.3497
179.2784, 587.0975
179.7606, 584.2892
180.2427, 581.8459
180.7248, 580.2397
181.2069, 578.9112
181.6890, 577.3326
182.1711, 575.4483
182.6533, 573.6071
183.1354, 572.3865
183.6175, 571.9618
184.0996, 570.7776
184.5817, 567.6271
185.0638, 564.0972
185.5460, 560.9889
186.0281, 558.4877
186.5102, 556.4691
186.9923, 554.8043
187.4744, 553.5769
187.9565, 552.5041
188.4387, 551.8669
188.9208, 551.1553
189.4029, 549.8463
189.8850, 547.8105
190.3671, 545.5621
190.8492, 544.0877
191.3314, 544.0260
191.8135, 543.7662
192.2956, 543.4504
192.7777, 542.8099
193.2598, 541.3602
193.7419, 538.9510
194.2241, 536.1779
194.7062, 534.4818
195.1883, 535.7346
195.6704, 535.9217
196.1525, 533.9182
196.6346, 531.1426
197.1168, 529.4288
197.5989, 529.6144
198.0810, 530.8661
198.5631, 530.7341
199.0452, 528.0073
199.5273, 525.6012
200.0095, 524.0817
200.4916, 523.1630
200.9737, 522.4790
201.4558, 521.9567
201.9379, 521.3794
202.4200, 519.9808
202.9022, 517.1078
203.3843, 514.7123
203.8664, 513.7945
204.3485, 513.9288
204.8306, 513.9511
205.3127, 513.3461
205.7949, 512.3505
206.2770, 511.5137
206.7591, 510.8564
207.2412, 510.2811
207.7233, 509.6473
208.2054, 508.9993
208.6876, 508.7066
209.1697, 509.3283
209.6518, 510.0469
210.1339, 509.5908
210.6160, 507.5525
211.0981, 505.3830
211.5803, 504.4596
212.0624, 504.7883
212.5445, 504.7603
213.0266, 503.4840
213.5087, 501.7830
213.9908, 500.4199
214.4730, 499.5412
214.9551, 498.8411
215.4372, 497.8892
215.9193, 496.5671
216.4014, 495.7213
216.8836, 496.2979
217.3657, 497.0539
217.8478, 497.1272
218.3299, 496.3047
218.8120, 495.0493
219.2941, 493.9678
219.7763, 493.1122
220.2584, 492.2557
220.7405, 491.2672
221.2226, 490.3071
221.7047, 489.5213
222.1868, 488.9411
222.6690, 488.4286
223.1511, 487.7713
223.6332, 486.9293
224.1153, 486.0092
224.5974, 484.8612
225.0795, 483.7560
225.5617, 482.9616
226.0438, 482.5318
226.5259, 482.2274
227.0080, 481.5897
227.4901, 480.2293
227.9722, 479.2780
228.4544, 478.9528
228.9365, 478.8802
229.4186, 478.8700
229.9007, 478.8376
230.3828, 478.6932
230.8649, 478.2597
231.3471, 477.1938
231.8292, 476.3851
232.3113, 475.8628
232.7934, 475.5507
233.2755, 475.4102
233.7576, 475.4233
234.2398, 475.5555
234.7219, 475.7604
235.2040, 476.1504
235.6861, 476.3957
236.1682, 476.0229
236.6503, 475.7555
237.1325, 476.4708
237.6146, 478.3527
238.0967, 480.5771
238.5788, 481.9475
239.0609, 482.2474
239.5430, 481.9818
240.0252, 480.4857
240.5073, 478.7554
240.9894, 477.8509
241.4715, 478.0184
241.9536, 478.6717
242.4357, 479.0524
242.9179, 479.0745
243.4000, 479.2076
243.8821, 479.1482
244.3642, 479.3824
244.8463, 480.8307
245.3284, 483.7560
245.8106, 486.6319
246.2927, 487.6110
246.7748, 486.6669
247.2569, 485.0986
247.7390, 482.6195
248.2211, 479.8059
248.7033, 477.2711
249.1854, 475.0901
249.6675, 473.2816
250.1496, 472.0444
250.6317, 471.2784
251.1138, 470.3979
251.5960, 469.3271
252.0781, 468.0567
252.5602, 466.5315
253.0423, 464.7363
253.5244, 462.7981
254.0065, 460.6490
254.4887, 458.4288
254.9708, 456.5805
255.4529, 455.5778
255.9350, 454.8702
256.4171, 453.6884
256.8992, 451.9512
257.3813, 450.0160
257.8635, 447.9796
258.3456, 445.9233
258.8277, 443.9664
259.3098, 441.9828
259.7919, 440.2260
260.2740, 439.1975
260.7562, 439.0576
261.2383, 438.9456
261.7204, 438.4986
262.2025, 437.7470
262.6846, 436.6375
263.1667, 435.0474
263.6489, 433.2210
264.1310, 431.4106
264.6131, 429.5598
265.0952, 427.9706
265.5773, 426.9741
266.0594, 426.2463
266.5416, 425.4833
267.0237, 424.5690
267.5058, 423.6980
267.9879, 423.1920
268.4700, 423.1544
268.9521, 423.0258
269.4343, 422.6891
269.9164, 422.1460
270.3985, 421.3706
270.8806, 420.3557
271.3627, 419.1249
271.8448, 417.5693
272.3270, 415.5456
272.8091, 413.9075
273.2912, 412.9798
273.7733, 412.4405
274.2554, 412.3296
274.7375, 412.6118
275.2197, 412.7396
275.7018, 411.8394
276.1839, 409.6420
276.6660, 408.1837
277.1481, 408.4425
277.6302, 409.0466
278.1124, 409.6587
278.5945, 410.1101
279.0766, 409.9760
279.5587, 408.5257
280.0408, 405.5366
280.5229, 403.2319
281.0051, 401.8194
281.4872, 401.1017
281.9693, 401.4697
282.4514, 402.6012
282.9335, 403.5570
283.4156, 403.4109
283.8978, 402.1320
284.3799, 401.2247
284.8620, 401.1524
285.3441, 401.0003
285.8262, 400.4348
286.3083, 399.5409
286.7905, 398.5204
287.2726, 397.4535
287.7547, 396.3747
288.2368, 395.6561
288.7189, 395.4574
289.2010, 395.4736
289.6832, 396.0152
290.1653, 396.6349
290.6474, 396.4996
291.1295, 394.9433
291.6116, 392.5953
292.0938, 392.1784
292.5759, 395.7199
293.0580, 398.3338
293.5401, 398.8229
294.0222, 398.0698
294.5043, 396.9359
294.9865, 395.7873
295.4686, 394.7096
295.9507, 393.9210
296.4328, 393.5460
296.9149, 393.2668
297.3970, 392.9977
297.8792, 392.8134
298.3613, 392.7705
298.8434, 392.8871
299.3255, 393.1587
299.8076, 393.6674
300.2897, 394.7831
300.7719, 395.2539
301.2540, 394.7643
301.7361, 393.9120
302.2182, 392.8792
302.7003, 391.7946
303.1824, 390.9115
303.6646, 390.5581
304.1467, 390.8524
304.6288, 391.2720
305.1109, 392.3412
305.5930, 393.0793
306.0751, 392.5994
306.5573, 391.2235
307.0394, 390.1875
307.5215, 390.8279
308.0036, 393.3539
308.4857, 394.4997
308.9678, 392.7141
309.4500, 391.0156
309.9321, 390.3089
310.4142, 390.3527
310.8963, 390.4910
311.3784, 390.2657
311.8605, 389.7524
312.3427, 389.5502
312.8248, 389.8351
313.3069, 390.2636
313.7890, 390.9463
314.2711, 391.6825
314.7532, 392.2284
315.2354, 392.4588
315.7175, 392.4478
316.1996, 392.4055
316.6817, 392.3886
317.1638, 392.2385
317.6459, 391.6051
318.1281, 391.0237
318.6102, 391.1277
319.0923, 392.0727
319.5744, 393.2801
320.0565, 393.7132
320.5386, 392.8249
321.0208, 392.4265
321.5029, 392.8779
321.9850, 393.5370
322.4671, 393.9839
322.9492, 394.1877
323.4313, 394.4127
323.9135, 394.9691
324.3956, 395.9223
324.8777, 396.8713
325.3598, 397.6345
325.8419, 398.5614
326.3240, 400.1786
326.8062, 402.1352
327.2883, 403.4912
327.7704, 403.3406
328.2525, 401.8152
328.7346, 401.2619
329.2167, 402.2118
329.6989, 403.6496
330.1810, 406.0155
330.6631, 408.5547
331.1452, 410.0667
331.6273, 409.8114
332.1094, 408.4469
332.5916, 408.0755
333.0737, 409.4697
333.5558, 410.5647
334.0379, 410.8876
334.5200, 410.8593
335.0021, 410.8730
335.4843, 411.0559
335.9664, 411.2423
336.4485, 411.1517
336.9306, 410.7010
337.4127, 410.2097
337.8948, 409.6128
338.3770, 409.0532
338.8591, 408.8156
339.3412, 408.8115
339.8233, 408.5057
340.3055, 407.3947
340.7876, 405.4669
341.2697, 402.8709
341.7518, 398.7283
342.2339, 394.7719
342.7160, 391.6957
343.1982, 389.3425
343.6803, 387.2120
344.1624, 384.9489
344.6445, 382.6402
345.1266, 380.7234
345.6087, 379.2669
346.0909, 378.1400
346.5730, 377.5820
347.0551, 377.1739
347.5372, 376.4189
348.0193, 375.1137
348.5014, 373.3512
348.9836, 370.9914
349.4657, 367.5423
349.9478, 365.2033
350.4299, 365.3097
350.9120, 366.2801
351.3941, 367.1145
351.8763, 367.6133
352.3584, 368.0088
352.8405, 368.5007
353.3226, 369.0907
353.8047, 369.7701
354.2868, 370.4915
354.7690, 371.3681
355.2511, 372.4791
355.7332, 373.8033
356.2153, 375.2266
356.6974, 376.4626
357.1795, 377.7039
357.6617, 379.7921
358.1438, 383.0142
358.6259, 386.4953
359.1080, 389.6926
359.5901, 392.7922
360.0722, 396.1033
360.5544, 399.6411
361.0365, 403.5371
361.5186, 407.8495
362.0007, 412.4706
362.4828, 418.2699
362.9649, 426.1992
363.4471, 435.2547
363.9292, 444.2566
364.4113, 452.9937
364.8934, 462.1912
365.3755, 472.4408
365.8576, 483.6587
366.3398, 495.5497
366.8219, 508.6661
367.3040, 521.5873
367.7861, 533.1631
368.2682, 543.4587
368.7503, 552.2687
369.2325, 559.6066
369.7146, 565.4230
370.1967, 569.6614
370.6788, 572.3506
371.1609, 573.3495
371.6430, 572.2179
372.1252, 569.1934
372.6073, 565.1338
373.0894, 560.4730
373.5715, 554.5494
374.0536, 546.7792
374.5357, 537.2908
375.0179, 526.4673
375.5000, 514.3579
375.9821, 501.2498
376.4642, 487.7092
376.9463, 473.6442
377.4284, 459.5602
377.9106, 444.9503
378.3927, 430.6400
378.8748, 418.0503
379.3569, 407.5746
379.8390, 398.7754
380.3211, 391.2500
380.8033, 385.1761
381.2854, 379.5950
381.7675, 374.2683
382.2496, 369.5745
382.7317, 365.9804
383.2138, 363.4132
383.6960, 361.2365
384.1781, 358.9855
384.6602, 356.6839
385.1423, 354.5543
385.6244, 352.4213
386.1065, 350.6046
386.5887, 349.4476
387.0708, 348.6410
387.5529, 347.6464
388.0350, 346.2213
388.5171, 344.5516
388.9992, 343.0318
389.4814, 341.6081
389.9635, 340.4648
390.4456, 339.4173
390.9277, 338.7647
391.4098, 339.0345
391.8919, 340.1318
392.3741, 341.1983
392.8562, 341.2658
393.3383, 340.1312
393.8204, 339.5735
394.3025, 340.0399
394.7846, 340.5772
395.2668, 341.1503
395.7489, 341.5278
396.2310, 341.2187
396.7131, 339.8499
397.1952, 337.9060
397.6773, 337.1288
398.1595, 338.4085
398.6416, 339.4178
399.1237, 339.7129
399.6058, 339.7314
400.0879, 339.7422
400.5700, 339.8477
401.0522, 340.1702
401.5343, 340.9637
402.0164, 342.3414
402.4985, 343.4858
402.9806, 344.0319
403.4627, 344.6561
403.9449, 345.9384
404.4270, 347.5570
404.9091, 348.6449
405.3912, 348.4402
405.8733, 347.4277
406.3554, 347.1584
406.8376, 347.8687
407.3197, 348.7338
407.8018, 349.1497
408.2839, 349.6713
408.7660, 351.0979
409.2481, 353.8080
409.7303, 356.4655
410.2124, 357.4174
410.6945, 356.8036
411.1766, 356.8548
411.6587, 358.2325
412.1408, 360.2073
412.6230, 362.1386
413.1051, 364.0304
413.5872, 365.9052
414.0693, 367.8281
414.5514, 369.7227
415.0335, 371.2991
415.5157, 372.4822
415.9978, 374.0036
416.4799, 376.4131
416.9620, 379.5435
417.4441, 382.7129
417.9262, 385.6140
418.4084, 388.9341
418.8905, 393.4969
419.3726, 398.7881
419.8547, 403.2165
420.3368, 406.0089
420.8189, 408.5214
421.3011, 413.0848
421.7832, 420.2023
422.2653, 427.0708
422.7474, 432.8031
423.2295, 438.5677
423.7116, 445.1165
424.1938, 452.6312
424.6759, 461.3925
425.1580, 471.6920
425.6401, 483.4873
426.1222, 496.4160
426.6043, 510.8495
427.0865, 525.7762
427.5686, 540.0206
428.0507, 554.9494
428.5328, 572.5073
429.0149, 593.4702
429.4970, 617.0096
429.9792, 641.7557
430.4613, 667.2491
430.9434, 695.5207
431.4255, 726.5665
431.9076, 759.8701
432.3897, 796.2974
432.8719, 835.0165
433.3540, 873.8929
433.8361, 911.0706
434.3182, 949.4149
434.8003, 983.5245
435.2824, 1023.706
435.7646, 1060.860
436.2467, 1095.580
436.7288, 1125.816
437.2109, 1149.466
437.6930, 1165.911
438.1751, 1175.214
438.6573, 1177.682
439.1394, 1173.338
439.6215, 1160.914
440.1036, 1137.718
440.5857, 1108.468
441.0678, 1075.100
441.5500, 1038.422
442.0321, 1001.225
442.5142, 963.3386
442.9963, 926.3171
443.4784, 892.6157
443.9605, 862.3152
444.4427, 834.6787
444.9248, 809.8284
445.4069, 787.5135
445.8890, 767.1394
446.3711, 748.5536
446.8532, 732.0734
447.3354, 718.1906
447.8175, 706.5594
448.2996, 696.7341
448.7817, 688.7869
449.2638, 681.6064
449.7459, 673.9332
450.2281, 665.7184
450.7102, 658.7653
451.1923, 654.0596
451.6744, 649.8131
452.1565, 645.0199
452.6386, 639.7578
453.1208, 634.5409
453.6029, 629.6498
454.0850, 624.8518
454.5671, 619.4982
455.0492, 612.9111
455.5313, 606.6632
456.0135, 601.5627
456.4956, 596.2776
456.9777, 589.3136
457.4598, 580.7520
457.9419, 572.0137
458.4240, 564.3373
458.9062, 557.7454
459.3883, 551.9341
459.8704, 547.8275
460.3525, 543.4603
460.8346, 537.6431
461.3167, 531.6075
461.7989, 526.9872
462.2810, 524.3945
462.7631, 522.9989
463.2452, 521.6892
463.7273, 520.5309
464.2094, 519.1004
464.6916, 518.1846
465.1737, 516.0709
465.6558, 511.6213
466.1379, 505.1173
466.6200, 497.6507
467.1021, 489.8308
467.5843, 481.4102
468.0664, 471.8964
468.5485, 461.1891
469.0306, 449.7948
469.5127, 437.5695
469.9948, 424.9589
470.4770, 412.8268
470.9591, 401.2288
471.4412, 390.0173
471.9233, 378.5061
472.4054, 367.4659
472.8875, 358.6375
473.3697, 352.3930
473.8518, 347.3185
474.3339, 342.3019
474.8160, 337.3632
475.2981, 332.5249
475.7802, 327.4177
476.2624, 322.8094
476.7445, 319.1012
477.2266, 316.1007
477.7087, 313.5432
478.1908, 311.3063
478.6729, 309.2262
479.1551, 306.9501
479.6372, 303.9284
480.1193, 302.0611
480.6014, 302.6819
481.0835, 303.0956
481.5656, 301.3487
482.0478, 298.0537
482.5299, 295.1977
483.0120, 294.1575
483.4941, 294.4108
483.9762, 294.0006
484.4583, 292.5542
484.9405, 291.2018
485.4226, 290.1383
485.9047, 289.2615
486.3868, 288.7063
486.8689, 288.4081
487.3510, 287.7835
487.8332, 285.9267
488.3153, 283.2207
488.7974, 281.5767
489.2795, 281.3446
489.7616, 281.4907
490.2437, 281.8215
490.7259, 282.0223
491.2080, 281.3951
491.6901, 279.2080
492.1722, 277.3882
492.6543, 278.1386
493.1364, 280.4102
493.6186, 280.8670
494.1007, 278.3642
494.5828, 275.1654
495.0649, 273.9853
495.5470, 275.0794
496.0291, 275.3370
496.5113, 273.8914
496.9934, 272.2997
497.4755, 271.4710
497.9576, 271.2302
498.4397, 271.0931
498.9218, 270.8435
499.4040, 270.4380
499.8861, 269.7620
500.3682, 268.5817
500.8503, 267.5656
501.3324, 266.9344
501.8145, 266.2557
502.2967, 265.1553
502.7788, 263.7444
503.2609, 262.3915
503.7430, 261.2912
504.2251, 260.5086
504.7072, 260.4250
505.1894, 261.5109
505.6715, 262.2121
506.1536, 261.8774
506.6357, 261.1814
507.1178, 260.6091
507.5999, 260.2257
508.0821, 259.8461
508.5642, 259.1832
509.0463, 258.4232
509.5284, 258.2735
510.0105, 258.9684
510.4926, 259.3966
510.9748, 258.5930
511.4569, 257.1047
511.9390, 256.2906
512.4211, 256.7130
512.9032, 256.9152
513.3853, 255.7638
513.8674, 254.0279
514.3495, 253.0791
514.8317, 253.2151
515.3138, 253.8646
515.7959, 254.5782
516.2780, 255.4054
516.7601, 255.4040
517.2422, 253.7673
517.7244, 252.3447
518.2065, 251.8604
518.6886, 251.9440
519.1707, 252.1068
519.6528, 252.1564
520.1349, 252.0495
520.6171, 251.6012
521.0992, 250.5660
521.5813, 250.2070
522.0634, 251.6831
522.5455, 252.6891
523.0276, 251.9484
523.5098, 250.1991
523.9919, 248.9292
524.4740, 248.9088
524.9561, 249.2962
525.4382, 248.6370
525.9203, 246.9040
526.4025, 245.9542
526.8846, 246.6398
527.3667, 247.6857
527.8488, 247.8377
528.3309, 247.2194
528.8130, 246.5822
529.2952, 245.9341
529.7773, 245.5197
530.2594, 245.9629
530.7415, 246.9663
531.2236, 247.0198
531.7057, 245.2472
532.1879, 242.7896
532.6700, 241.9071
533.1521, 243.6151
533.6342, 244.6253
534.1163, 244.5101
534.5984, 243.9966
535.0806, 243.4194
535.5627, 242.8546
536.0448, 242.2932
536.5269, 241.7098
537.0090, 241.2183
537.4911, 241.2651
537.9733, 242.3596
538.4554, 242.8574
538.9375, 241.7783
539.4196, 240.7216
539.9017, 241.0797
540.3839, 242.5212
540.8660, 243.2929
541.3481, 241.7684
541.8302, 239.0975
542.3123, 237.9755
542.7944, 238.5755
543.2766, 239.2352
543.7587, 239.4084
544.2408, 239.2234
544.7229, 238.7239
545.2050, 237.8060
545.6871, 237.4674
546.1693, 238.6879
546.6514, 240.2651
547.1335, 240.8679
547.6156, 240.4879
548.0977, 239.7773
548.5798, 239.0681
549.0620, 238.4128
549.5441, 237.9946
550.0262, 237.7888
550.5083, 237.8808
550.9904, 238.7775
551.4725, 239.5857
551.9547, 239.5706
552.4368, 238.7914
552.9189, 237.7076
553.4010, 236.5296
553.8831, 235.4687
554.3652, 235.5642
554.8474, 237.4474
555.3295, 238.8938
555.8116, 239.0653
556.2937, 238.7791
556.7758, 238.5606
557.2579, 238.4481
557.7401, 238.2273
558.2222, 237.5223
558.7043, 236.7278
559.1864, 236.6092
559.6685, 237.1895
560.1506, 237.8449
560.6328, 238.3077
561.1149, 238.6230
561.5970, 238.8917
562.0791, 239.1340
562.5612, 239.2749
563.0433, 239.2029
563.5255, 239.0945
564.0076, 239.1209
564.4897, 239.2600
564.9718, 239.3952
565.4539, 239.4680
565.9360, 239.4303
566.4182, 239.0737
566.9003, 237.9789
567.3824, 237.3694
567.8645, 237.5527
568.3466, 237.9971
568.8287, 238.5940
569.3109, 239.1844
569.7930, 239.3692
570.2751, 238.7540
570.7572, 237.7352
571.2393, 237.1647
571.7214, 237.0764
572.2036, 237.0271
572.6857, 236.8344
573.1678, 236.6759
573.6499, 236.8623
574.1320, 237.3817
574.6141, 237.6235
575.0963, 237.0119
575.5784, 236.3794
576.0605, 236.4512
576.5426, 237.1345
577.0247, 238.1854
577.5068, 239.5670
577.9890, 240.7537
578.4711, 240.6273
578.9532, 238.1179
579.4353, 237.0569
579.9174, 238.6215
580.3995, 240.2685
580.8817, 240.8913
581.3638, 240.6638
581.8459, 239.9903
582.3280, 239.0086
582.8101, 238.0840
583.2922, 237.8869
583.7744, 238.4713
584.2565, 239.0221
584.7386, 239.5535
585.2207, 239.8615
585.7029, 239.6421
586.1850, 239.1011
586.6671, 238.7700
587.1492, 238.8551
587.6313, 239.0751
588.1135, 239.2656
588.5956, 239.4300
589.0777, 239.5488
589.5598, 239.6131
590.0419, 239.7589
590.5240, 240.2151
591.0062, 241.0219
591.4883, 241.1586
591.9704, 239.8376
592.4525, 238.8851
592.9346, 239.1870
593.4167, 239.8745
593.8989, 239.7569
594.3810, 238.6733
594.8631, 237.6899
595.3452, 238.0998
595.8273, 239.7408
596.3094, 240.6951
596.7916, 240.7673
597.2737, 240.6105
597.7558, 240.3052
598.2379, 240.0096
598.7200, 239.8718
599.2021, 239.9016
599.6843, 240.1384
600.1664, 240.8919
600.6485, 241.7210
601.1306, 241.9539
601.6127, 241.5810
602.0948, 240.9892
602.5770, 240.3321
603.0591, 239.7247
603.5412, 239.4984
604.0233, 240.0648
604.5054, 240.3394
604.9875, 240.2952
605.4697, 239.9887
605.9518, 239.3581
606.4339, 238.4976
606.9160, 237.5834
607.3981, 236.6947
607.8802, 235.8993
608.3624, 235.3895
608.8445, 235.2177
609.3266, 234.9287
609.8087, 234.3852
610.2908, 233.7978
610.7729, 233.3197
611.2551, 232.9232
611.7372, 232.5191
612.2193, 232.0385
612.7014, 231.6019
613.1835, 231.5920
613.6656, 231.6471
614.1478, 230.6833
614.6299, 228.4501
615.1120, 226.3493
615.5941, 225.9031
616.0762, 227.1202
616.5583, 227.7165
617.0405, 227.3994
617.5226, 226.8247
618.0047, 225.9523
618.4868, 224.9549
618.9689, 223.8150
619.4510, 222.6394
619.9332, 221.9165
620.4153, 222.4235
620.8974, 223.6332
621.3795, 223.4334
621.8616, 221.5197
622.3438, 219.8255
622.8259, 219.0784
623.3080, 218.9013
623.7901, 218.8483
624.2722, 218.9330
624.7543, 218.9053
625.2365, 218.7562
625.7186, 218.4217
626.2007, 217.7146
626.6828, 216.7747
627.1649, 215.9488
627.6470, 215.3751
628.1292, 215.0731
628.6113, 215.1735
629.0934, 215.9559
629.5755, 215.9556
630.0576, 214.2468
