##NAMES=Tschermigite
##RRUFFID=R050276
##IDEAL CHEMISTRY=N^3-^H_4_Al(S^6+^O_4_)_2_&#183;12H_2_O
##LOCALITY=near Wamsutter, Wyoming, USA
##OWNER=RRUFF
##SOURCE=Marcus Origlieri
##DESCRIPTION=Colorless fibrous columnar aggregate
##STATUS=The identification of this mineral has been confirmed by X-ray diffraction.
##URL=rruff.info/R050276
97.01190, 160.3775
97.49402, 160.5474
97.97614, 160.1010
98.45825, 160.1174
98.94037, 161.1529
99.42249, 162.4998
99.90460, 163.1983
100.3867, 163.4178
100.8688, 163.3654
101.3510, 163.0818
101.8331, 162.3489
102.3152, 161.7837
102.7973, 161.9775
103.2794, 162.9657
103.7615, 163.8172
104.2437, 163.8399
104.7258, 163.6192
105.2079, 163.6189
105.6900, 163.9919
106.1721, 164.6246
106.6542, 165.2822
107.1364, 165.9595
107.6185, 166.5580
108.1006, 166.9329
108.5827, 167.2463
109.0648, 167.7041
109.5469, 168.4427
110.0291, 169.4525
110.5112, 170.5519
110.9933, 171.6739
111.4754, 172.9353
111.9575, 174.4043
112.4396, 176.0488
112.9218, 177.8084
113.4039, 179.6539
113.8860, 181.6447
114.3681, 183.3451
114.8502, 184.7870
115.3323, 185.9587
115.8144, 186.8158
116.2966, 187.3533
116.7787, 187.6605
117.2608, 187.9032
117.7429, 188.1340
118.2250, 187.8559
118.7071, 186.6184
119.1893, 184.7952
119.6714, 183.2248
120.1535, 182.2969
120.6356, 181.4039
121.1177, 179.8118
121.5998, 177.5174
122.0820, 175.2197
122.5641, 173.5940
123.0462, 172.6906
123.5283, 171.4714
124.0104, 169.0636
124.4925, 166.6253
124.9747, 164.8800
125.4568, 163.9888
125.9389, 163.5451
126.4210, 162.8624
126.9031, 161.6026
127.3852, 160.8376
127.8674, 160.8659
128.3495, 161.2573
128.8316, 161.6392
129.3137, 161.8403
129.7958, 161.9402
130.2780, 162.2215
130.7601, 162.7458
131.2422, 163.4118
131.7243, 164.4343
132.2064, 165.5704
132.6885, 166.3543
133.1707, 166.4064
133.6528, 165.8845
134.1349, 166.3720
134.6170, 168.8463
135.0991, 171.1782
135.5812, 172.1506
136.0633, 171.9508
136.5455, 171.8263
137.0276, 172.7615
137.5097, 174.6176
137.9918, 176.2853
138.4739, 177.6674
138.9560, 178.8470
139.4382, 179.8838
139.9203, 180.7672
140.4024, 181.5385
140.8845, 182.0531
141.3666, 182.4689
141.8487, 183.1210
142.3309, 184.3971
142.8130, 186.0488
143.2951, 187.1899
143.7772, 187.3833
144.2593, 187.6493
144.7414, 188.5309
145.2236, 189.8828
145.7057, 191.3411
146.1878, 192.6558
146.6699, 193.8203
147.1520, 194.9211
147.6341, 195.8043
148.1163, 196.7554
148.5984, 197.9914
149.0805, 199.4378
149.5626, 200.8168
150.0447, 201.7752
150.5268, 202.0706
151.0090, 202.6978
151.4911, 203.9378
151.9732, 205.2244
152.4553, 206.2069
152.9374, 206.8181
153.4195, 207.2410
153.9017, 207.7393
154.3838, 208.4387
154.8659, 208.9353
155.3480, 208.9942
155.8301, 208.9507
156.3122, 209.2386
156.7944, 210.0216
157.2765, 210.9366
157.7586, 211.2689
158.2407, 210.9449
158.7228, 210.5552
159.2049, 210.4063
159.6871, 210.3115
160.1692, 209.8229
160.6513, 208.7234
161.1334, 207.2398
161.6155, 205.7121
162.0976, 204.1108
162.5798, 202.6040
163.0619, 201.3736
163.5440, 200.3972
164.0261, 199.3624
164.5082, 198.1873
164.9903, 196.8948
165.4725, 195.4590
165.9546, 193.8679
166.4367, 192.2671
166.9188, 190.8454
167.4009, 189.6223
167.8830, 188.4832
168.3652, 187.4810
168.8473, 186.5000
169.3294, 185.3988
169.8115, 184.1282
170.2936, 182.8664
170.7757, 181.9888
171.2579, 181.7897
171.7400, 181.4543
172.2221, 180.8009
172.7042, 180.0192
173.1863, 179.2038
173.6684, 178.3971
174.1506, 177.7138
174.6327, 177.5072
175.1148, 178.2213
175.5969, 178.9682
176.0790, 179.6632
176.5611, 180.3582
177.0433, 181.0952
177.5254, 181.8842
178.0075, 182.7751
178.4896, 184.0479
178.9717, 186.2113
179.4538, 188.1379
179.9360, 189.2491
180.4181, 189.9185
180.9002, 190.9879
181.3823, 193.0254
181.8644, 195.7777
182.3465, 197.9384
182.8287, 199.1373
183.3108, 200.2066
183.7929, 201.5337
184.2750, 203.0732
184.7571, 204.6168
185.2392, 206.1139
185.7214, 207.4787
186.2035, 208.5697
186.6856, 209.2630
187.1677, 209.7923
187.6498, 210.2934
188.1319, 210.7617
188.6141, 211.3212
189.0962, 212.3696
189.5783, 213.4421
190.0604, 213.8914
190.5425, 213.5150
191.0246, 212.5255
191.5068, 211.1626
191.9889, 209.3862
192.4710, 207.3522
192.9531, 204.9218
193.4352, 202.3660
193.9173, 200.0185
194.3995, 198.1171
194.8816, 196.3479
195.3637, 193.9209
195.8458, 190.5378
196.3279, 187.0145
196.8100, 183.4929
197.2922, 180.0187
197.7743, 176.7162
198.2564, 173.6856
198.7385, 170.7896
199.2206, 167.4913
199.7027, 163.4714
200.1849, 159.4164
200.6670, 155.3735
201.1491, 151.4218
201.6312, 147.6832
202.1133, 144.2623
202.5954, 141.0940
203.0776, 137.7740
203.5597, 133.9879
204.0418, 130.4053
204.5239, 127.1694
205.0060, 124.2019
205.4881, 121.4254
205.9703, 118.7920
206.4524, 116.2928
206.9345, 113.9598
207.4166, 111.7682
207.8987, 109.7415
208.3808, 107.9175
208.8630, 106.2785
209.3451, 104.8131
209.8272, 103.5408
210.3093, 102.4274
210.7914, 101.1814
211.2735, 99.68842
211.7557, 98.21296
212.2378, 96.75780
212.7199, 95.38525
213.2020, 94.31600
213.6841, 93.80720
214.1662, 93.65252
214.6484, 92.93456
215.1305, 91.16669
215.6126, 89.35864
216.0947, 87.99843
216.5768, 87.06477
217.0589, 86.46609
217.5410, 86.29693
218.0232, 86.38500
218.5053, 86.24153
218.9874, 85.70936
219.4695, 85.12681
219.9516, 84.76927
220.4337, 84.63319
220.9159, 84.53144
221.3980, 84.43100
221.8801, 84.28172
222.3622, 84.00753
222.8443, 83.55882
223.3264, 83.05491
223.8086, 82.61719
224.2907, 82.25035
224.7728, 81.89771
225.2549, 81.53091
225.7370, 81.17198
226.2191, 80.84757
226.7013, 80.57120
227.1834, 80.30769
227.6655, 80.00414
228.1476, 79.64423
228.6297, 79.31299
229.1118, 79.14327
229.5940, 78.95547
230.0761, 78.55258
230.5582, 77.87051
231.0403, 77.14555
231.5224, 76.78858
232.0045, 76.97707
232.4867, 77.00642
232.9688, 76.77522
233.4509, 76.33723
233.9330, 75.62167
234.4151, 74.62680
234.8972, 73.59837
235.3794, 72.95409
235.8615, 72.86363
236.3436, 72.77966
236.8257, 72.73723
237.3078, 72.62852
237.7899, 72.36304
238.2721, 71.92139
238.7542, 71.36619
239.2363, 70.79155
239.7184, 70.16270
240.2005, 69.58252
240.6826, 69.11579
241.1648, 68.65019
241.6469, 68.10241
242.1290, 67.45802
242.6111, 66.76476
243.0932, 66.08603
243.5753, 65.33451
244.0575, 64.79756
244.5396, 64.73737
245.0217, 64.68916
245.5038, 64.28677
245.9859, 63.47585
246.4680, 62.49390
246.9502, 61.64607
247.4323, 60.97626
247.9144, 60.36485
248.3965, 59.94117
248.8786, 59.48343
249.3607, 58.77789
249.8429, 57.81450
250.3250, 56.80222
250.8071, 55.98647
251.2892, 55.43840
251.7713, 54.88154
252.2534, 54.38655
252.7356, 53.83966
253.2177, 53.11453
253.6998, 52.21655
254.1819, 51.29854
254.6640, 50.51572
255.1461, 49.90025
255.6283, 49.26655
256.1104, 48.53299
256.5925, 47.84398
257.0746, 47.32924
257.5567, 46.98832
258.0388, 46.69610
258.5210, 46.36275
259.0031, 45.98090
259.4852, 45.54597
259.9673, 44.96930
260.4494, 44.40377
260.9315, 44.01678
261.4137, 43.79512
261.8958, 43.50463
262.3779, 42.94270
262.8600, 42.15197
263.3421, 41.47678
263.8242, 40.94495
264.3064, 40.51421
264.7885, 40.15685
265.2706, 39.87344
265.7527, 39.70457
266.2348, 39.80103
266.7169, 39.98219
267.1991, 39.76597
267.6812, 38.84501
268.1633, 37.88422
268.6454, 37.40073
269.1275, 37.35467
269.6096, 37.33461
270.0918, 37.17994
270.5739, 36.91884
271.0560, 36.60838
271.5381, 36.20758
272.0202, 35.85251
272.5023, 35.65814
272.9845, 35.60872
273.4666, 35.60322
273.9487, 35.69172
274.4308, 35.72260
274.9129, 35.47207
275.3951, 34.88455
275.8772, 34.34612
276.3593, 34.16038
276.8414, 34.27607
277.3235, 34.36507
277.8056, 34.33717
278.2878, 34.27077
278.7699, 34.25549
279.2520, 34.28880
279.7341, 34.30379
280.2162, 34.25360
280.6983, 34.14724
281.1805, 34.03302
281.6626, 33.92950
282.1447, 33.79848
282.6268, 33.56086
283.1089, 33.25510
283.5910, 33.04645
284.0732, 33.07096
284.5553, 33.27437
285.0374, 33.47851
285.5195, 33.73583
286.0016, 33.87880
286.4837, 33.67312
286.9659, 33.29182
287.4480, 33.11502
287.9301, 33.47753
288.4122, 34.14322
288.8943, 34.43338
289.3764, 34.18771
289.8586, 33.90930
290.3407, 33.83101
290.8228, 33.86820
291.3049, 33.90775
291.7870, 33.89339
292.2691, 33.87139
292.7513, 33.94564
293.2334, 34.15928
293.7155, 34.34617
294.1976, 34.41594
294.6797, 34.44468
295.1618, 34.50288
295.6440, 34.61432
296.1261, 34.74921
296.6082, 34.86750
297.0903, 34.96816
297.5724, 35.05694
298.0545, 35.08788
298.5367, 35.13786
299.0188, 35.27936
299.5009, 35.52444
299.9830, 35.78969
300.4651, 35.94698
300.9472, 35.96516
301.4294, 36.12897
301.9115, 36.68134
302.3936, 37.23552
302.8757, 37.55396
303.3578, 37.65027
303.8399, 37.72493
304.3221, 37.96129
304.8042, 38.36173
305.2863, 38.76049
305.7684, 39.21545
306.2505, 39.59669
306.7326, 39.78796
307.2148, 39.85255
307.6969, 39.95429
308.1790, 40.21422
308.6611, 40.60890
309.1432, 41.00773
309.6253, 41.48405
310.1075, 41.84561
310.5896, 41.96117
311.0717, 41.94453
311.5538, 41.94737
312.0359, 42.02375
312.5180, 42.20088
313.0002, 42.57798
313.4823, 43.26165
313.9644, 43.93089
314.4465, 44.58429
314.9286, 45.14730
315.4107, 45.49009
315.8929, 45.55251
316.3750, 45.55109
316.8571, 45.88363
317.3392, 46.70111
317.8213, 47.36095
318.3034, 47.66092
318.7856, 47.81903
319.2677, 47.93306
319.7498, 48.03106
320.2319, 48.14734
320.7140, 48.34784
321.1961, 48.65422
321.6783, 48.86919
322.1604, 48.96502
322.6425, 48.96430
323.1246, 48.81376
323.6067, 48.55513
324.0888, 48.32633
324.5710, 48.23029
325.0531, 48.26326
325.5352, 48.38202
326.0173, 48.73318
326.4994, 48.97694
326.9815, 48.95075
327.4637, 48.73517
327.9458, 48.47612
328.4279, 48.25467
328.9100, 48.04519
329.3921, 47.77732
329.8742, 47.47764
330.3564, 47.05739
330.8385, 46.45434
331.3206, 45.74725
331.8027, 44.97024
332.2848, 44.11123
332.7669, 43.31696
333.2491, 42.89882
333.7312, 43.00246
334.2133, 42.90105
334.6954, 42.17832
335.1775, 41.34351
335.6596, 40.76588
336.1418, 40.48721
336.6239, 40.21592
337.1060, 39.55333
337.5881, 38.48032
338.0702, 37.74995
338.5523, 37.74766
339.0345, 37.80590
339.5165, 37.57056
339.9987, 37.06762
340.4808, 36.45774
340.9629, 35.79766
341.4450, 35.10532
341.9271, 34.49131
342.4092, 33.93362
342.8914, 33.50487
343.3735, 33.34575
343.8556, 33.30123
344.3377, 33.10699
344.8198, 32.57613
345.3019, 31.93410
345.7841, 31.65712
346.2662, 31.88054
346.7483, 31.93550
347.2304, 31.30497
347.7125, 30.49317
348.1946, 29.94184
348.6768, 29.76182
349.1589, 29.71304
349.6410, 29.58823
350.1231, 29.38812
350.6052, 29.11349
351.0873, 28.68680
351.5695, 28.26575
352.0516, 27.99782
352.5337, 27.87604
353.0158, 27.76034
353.4979, 27.53171
353.9800, 27.23670
354.4622, 27.06086
354.9443, 27.08948
355.4264, 27.08787
355.9085, 26.82163
356.3906, 26.39680
356.8727, 26.05073
357.3549, 25.87574
357.8370, 25.81891
358.3191, 25.87351
358.8012, 26.06996
359.2833, 26.10702
359.7654, 25.69590
360.2476, 25.07969
360.7297, 24.64520
361.2118, 24.47443
361.6939, 24.40152
362.1760, 24.34255
362.6581, 24.28817
363.1403, 24.15519
363.6224, 23.82159
364.1045, 23.53419
364.5866, 23.68837
365.0687, 24.30825
365.5508, 24.80982
366.0330, 24.92181
366.5151, 24.76818
366.9972, 24.50311
367.4793, 24.11390
367.9614, 23.81407
368.4435, 23.87862
368.9257, 24.24092
369.4078, 24.49500
369.8899, 24.56638
370.3720, 24.52169
370.8541, 24.34028
371.3362, 24.04869
371.8184, 23.87018
372.3005, 23.96441
372.7826, 24.24857
373.2647, 24.43200
373.7468, 24.50008
374.2289, 24.50770
374.7111, 24.44487
375.1932, 24.34102
375.6753, 24.23902
376.1574, 24.14643
376.6395, 24.09828
377.1216, 24.18173
377.6038, 24.46532
378.0859, 24.61095
378.5680, 24.48882
379.0501, 24.27404
379.5322, 24.08449
380.0143, 23.94822
380.4965, 23.91754
380.9786, 24.06846
381.4607, 24.40812
381.9428, 24.57500
382.4249, 24.40253
382.9070, 24.25518
383.3892, 24.26288
383.8713, 24.41094
384.3534, 24.69217
384.8355, 25.11926
385.3176, 25.59592
385.7997, 25.83307
386.2819, 25.54025
386.7640, 25.36195
387.2461, 25.36600
387.7282, 25.46610
388.2103, 25.58710
388.6924, 25.71011
389.1746, 25.86013
389.6567, 26.08152
390.1388, 26.42108
390.6209, 26.64015
391.1030, 26.61578
391.5851, 26.60867
392.0673, 26.75606
392.5494, 27.01934
393.0315, 27.28726
393.5136, 27.48810
393.9957, 27.62473
394.4778, 27.70835
394.9600, 27.65522
395.4421, 27.66388
395.9242, 27.82166
396.4063, 28.02395
396.8884, 28.12755
397.3705, 28.09460
397.8527, 28.07186
398.3348, 28.34136
398.8169, 29.05793
399.2990, 29.51930
399.7811, 29.50698
400.2632, 29.37595
400.7454, 29.19255
401.2275, 29.02036
401.7096, 28.99296
402.1917, 29.26679
402.6738, 29.77942
403.1559, 30.14896
403.6381, 30.26809
404.1202, 30.42947
404.6023, 30.77215
405.0844, 31.20594
405.5665, 31.63559
406.0486, 32.03703
406.5308, 32.39137
407.0129, 32.63958
407.4950, 32.76857
407.9771, 32.98429
408.4592, 33.38548
408.9413, 33.85784
409.4235, 34.31763
409.9056, 34.76154
410.3877, 35.16539
410.8698, 35.50295
411.3519, 35.79401
411.8340, 36.06056
412.3162, 36.26857
412.7983, 36.58617
413.2804, 37.25388
413.7625, 38.11902
414.2446, 38.82057
414.7267, 39.15259
415.2089, 39.45751
415.6910, 40.00252
416.1731, 40.76371
416.6552, 41.64711
417.1373, 42.68598
417.6194, 43.72871
418.1016, 44.44554
418.5837, 44.76847
419.0658, 45.17102
419.5479, 45.66737
420.0300, 46.36567
420.5121, 47.50659
420.9943, 49.10768
421.4764, 50.73451
421.9585, 51.96632
422.4406, 52.78844
422.9227, 53.84272
423.4048, 55.38955
423.8870, 56.87354
424.3691, 57.91600
424.8512, 58.71430
425.3333, 59.68586
425.8154, 61.02733
426.2975, 62.62431
426.7797, 64.24630
427.2618, 65.97341
427.7439, 67.57954
428.2260, 68.90494
428.7081, 70.22215
429.1902, 71.73302
429.6724, 73.46184
430.1545, 75.35761
430.6366, 77.41567
431.1187, 79.63754
431.6008, 81.61008
432.0829, 83.07984
432.5651, 84.56956
433.0472, 86.16602
433.5293, 87.85974
434.0114, 89.65552
434.4935, 91.54800
434.9756, 93.49354
435.4578, 95.45994
435.9399, 97.54336
436.4220, 99.30922
436.9041, 100.5654
437.3862, 101.5981
437.8683, 102.4108
438.3505, 103.0878
438.8326, 103.9059
439.3147, 105.2472
439.7968, 106.9140
440.2789, 108.0271
440.7610, 108.4126
441.2432, 108.6309
441.7253, 109.0115
442.2074, 109.3718
442.6895, 109.4179
443.1716, 108.9666
443.6537, 108.5155
444.1359, 108.5431
444.6180, 108.9936
445.1001, 109.5163
445.5822, 110.0386
446.0643, 110.5868
446.5464, 111.2130
447.0286, 111.9058
447.5107, 112.5621
447.9928, 113.0587
448.4749, 113.5653
448.9570, 114.2603
449.4391, 115.1493
449.9213, 116.1331
450.4034, 117.1158
450.8855, 118.1747
451.3676, 119.6105
451.8497, 121.7820
452.3318, 123.7193
452.8140, 125.1211
453.2961, 126.1834
453.7782, 127.1338
454.2603, 128.0317
454.7424, 128.7982
455.2245, 129.3107
455.7067, 129.4802
456.1888, 129.9261
456.6709, 131.0972
457.1530, 132.0327
457.6351, 132.3099
458.1172, 132.0703
458.5994, 131.6120
459.0815, 131.0846
459.5636, 130.4645
460.0457, 129.6872
460.5278, 128.7239
461.0099, 127.6541
461.4921, 126.4208
461.9742, 125.1374
462.4563, 123.9455
462.9384, 122.8013
463.4205, 121.4717
463.9026, 119.6935
464.3848, 117.5451
464.8669, 115.6350
465.3490, 114.0517
465.8311, 112.5468
466.3132, 111.2710
466.7953, 109.9103
467.2775, 107.9634
467.7596, 105.2025
468.2417, 102.4208
468.7238, 100.4681
469.2059, 99.23225
469.6880, 98.02458
470.1702, 96.76173
470.6523, 95.41541
471.1344, 94.01954
471.6165, 92.54580
472.0986, 90.82858
472.5807, 88.42433
473.0629, 86.04589
473.5450, 84.47107
474.0271, 83.58786
474.5092, 82.67521
474.9913, 81.38430
475.4734, 79.88308
475.9556, 78.58351
476.4377, 77.58038
476.9198, 76.50237
477.4019, 75.29567
477.8840, 73.99033
478.3661, 72.49661
478.8483, 70.87288
479.3304, 69.47605
479.8125, 68.62242
480.2946, 68.27843
480.7767, 67.76579
481.2589, 66.99391
481.7410, 66.15920
482.2231, 65.25031
482.7052, 64.31162
483.1873, 63.33862
483.6694, 62.34439
484.1516, 61.45682
484.6337, 60.87495
485.1158, 60.65235
485.5979, 60.40685
486.0800, 60.19786
486.5621, 59.89404
487.0443, 59.32487
487.5264, 58.64617
488.0085, 58.16739
488.4906, 58.08342
488.9727, 58.13191
489.4548, 57.86066
489.9370, 57.24422
490.4191, 56.74641
490.9012, 56.57283
491.3833, 56.47939
491.8654, 56.20556
492.3475, 55.76731
492.8297, 55.35139
493.3118, 55.09253
493.7939, 54.87125
494.2760, 54.43405
494.7581, 53.79128
495.2402, 53.40536
495.7224, 53.62265
496.2045, 54.21402
496.6866, 54.48469
497.1687, 54.37119
497.6508, 54.13650
498.1329, 53.64984
498.6151, 53.17403
499.0972, 53.11631
499.5793, 53.47523
500.0614, 53.74422
500.5435, 53.40977
501.0256, 52.48247
501.5078, 51.99620
501.9899, 52.39787
502.4720, 52.71284
502.9541, 52.66265
503.4362, 52.47358
503.9183, 52.48533
504.4004, 52.77335
504.8825, 53.01514
505.3647, 52.63838
505.8468, 51.48195
506.3289, 50.96772
506.8110, 51.55993
507.2931, 52.27782
507.7752, 52.79865
508.2574, 53.13276
508.7395, 53.29173
509.2216, 53.25233
509.7037, 53.11269
510.1858, 52.98187
510.6679, 52.85958
511.1501, 52.71211
511.6322, 52.45587
512.1143, 52.28724
512.5964, 52.50882
513.0786, 53.05866
513.5607, 53.48433
514.0428, 53.61525
514.5249, 53.61304
515.0070, 53.64890
515.4891, 53.69053
515.9713, 53.54230
516.4534, 53.07452
516.9355, 52.46259
517.4176, 52.08970
517.8997, 52.04039
518.3818, 52.07810
518.8640, 52.17137
519.3461, 52.37029
519.8282, 52.84939
520.3103, 53.49202
520.7924, 53.92188
521.2745, 53.85948
521.7567, 53.42682
522.2388, 53.14761
522.7209, 53.14695
523.2030, 53.06877
523.6851, 52.77594
524.1672, 52.46372
524.6494, 52.23956
525.1315, 52.13080
525.6136, 52.16136
526.0957, 52.46177
526.5778, 52.91338
527.0599, 53.04836
527.5421, 52.78363
528.0242, 52.48645
528.5063, 52.27446
528.9884, 52.15271
529.4705, 52.16413
529.9526, 52.35961
530.4348, 52.46598
530.9169, 52.25010
531.3990, 51.88212
531.8811, 51.69429
532.3632, 51.72761
532.8453, 51.66713
533.3275, 51.20834
533.8096, 50.43693
534.2917, 50.05001
534.7738, 50.38346
535.2559, 50.60678
535.7380, 50.55639
536.2202, 50.29102
536.7023, 49.74454
537.1844, 48.97808
537.6665, 48.35592
538.1486, 48.34090
538.6307, 48.94210
539.1129, 49.06150
539.5950, 48.27675
540.0771, 47.54233
540.5592, 47.10905
541.0413, 46.83305
541.5234, 46.56581
542.0056, 46.26670
542.4877, 45.94503
542.9698, 45.62791
543.4519, 45.30561
543.9340, 44.89313
544.4161, 44.34991
544.8983, 43.80143
545.3804, 43.37960
545.8625, 42.99856
546.3446, 42.45948
546.8267, 41.57789
547.3088, 40.83408
547.7910, 40.64091
548.2731, 40.75433
548.7552, 40.71925
549.2373, 40.43653
549.7194, 39.95622
550.2015, 39.27253
550.6837, 38.37701
551.1658, 37.74611
551.6479, 37.63960
552.1300, 37.44765
552.6121, 36.86717
553.0942, 36.16408
553.5764, 35.71123
554.0585, 35.59301
554.5406, 35.55447
555.0227, 35.27427
555.5048, 34.73035
555.9869, 34.27691
556.4691, 33.89252
556.9512, 33.63997
557.4333, 33.61080
557.9154, 33.67919
558.3975, 33.69983
558.8796, 33.63734
559.3618, 33.49342
559.8439, 33.20517
560.3260, 32.82833
560.8081, 32.59045
561.2902, 32.54507
561.7723, 32.53786
562.2545, 32.44120
562.7366, 32.28571
563.2187, 32.21300
563.7008, 32.27536
564.1829, 32.35604
564.6650, 32.37678
565.1472, 32.40307
565.6293, 32.58526
566.1114, 32.92973
566.5935, 33.19367
567.0756, 33.09660
567.5577, 32.64114
568.0399, 32.49279
568.5220, 32.95722
569.0041, 33.37432
569.4862, 33.68554
569.9683, 33.87527
570.4504, 33.86663
570.9326, 33.67458
571.4147, 33.51284
571.8968, 33.64487
572.3789, 34.01140
572.8610, 34.20985
573.3431, 34.18038
573.8253, 34.14924
574.3074, 34.15067
574.7895, 34.25673
575.2716, 34.59587
575.7537, 35.22280
576.2358, 35.88294
576.7180, 36.52238
577.2001, 37.08678
577.6822, 37.47562
578.1643, 37.68914
578.6464, 37.83571
579.1285, 37.98040
579.6107, 38.12524
580.0928, 38.27870
580.5749, 38.33285
581.0570, 38.54578
581.5391, 39.07317
582.0212, 39.65571
582.5034, 40.01756
582.9855, 40.21619
583.4676, 40.56623
583.9497, 41.33207
584.4318, 42.37181
584.9139, 43.20573
585.3961, 43.79159
585.8782, 44.32244
586.3602, 44.72856
586.8423, 45.19715
587.3245, 45.98042
587.8066, 47.02466
588.2887, 47.85316
588.7708, 47.92250
589.2529, 47.89231
589.7350, 48.65114
590.2172, 50.07655
590.6993, 51.34302
591.1814, 52.07304
591.6635, 52.66766
592.1456, 53.81057
592.6277, 55.76431
593.1099, 57.37475
593.5920, 58.42541
594.0741, 59.35865
594.5562, 60.24971
595.0383, 61.21670
