##NAMES=Tschernichite
##RRUFFID=R060482
##IDEAL CHEMISTRY=CaAl_2_Si_6_O_16_&#183;8H_2_O
##LOCALITY=Neer Road Pit, Goble, Columbia County, Oregon, USA
##OWNER=RRUFF
##SOURCE=Michael Scott
##DESCRIPTION=Colorless steep dipyramidal tetragonal crystals
##STATUS=The identification of this mineral has been confirmed by single-crystal X-ray diffraction.
##URL=rruff.info/R060482
89.78320, 792.5900
90.26532, 790.4459
90.74744, 790.7090
91.22955, 793.8405
91.71167, 799.7843
92.19379, 810.2811
92.67590, 824.7157
93.15802, 835.3181
93.64014, 835.2462
94.12225, 826.9594
94.60437, 816.3098
95.08649, 803.1992
95.56860, 789.4267
96.05072, 780.9951
96.53284, 779.1252
97.01495, 777.3611
97.49707, 767.8739
97.97919, 750.8755
98.46130, 735.2933
98.94342, 723.2025
99.42554, 714.4390
99.90765, 709.5093
100.3898, 709.2365
100.8719, 710.7422
101.3540, 710.0622
101.8361, 707.0655
102.3182, 702.7443
102.8004, 696.9355
103.2825, 688.8542
103.7646, 682.9344
104.2467, 679.2097
104.7288, 677.5292
105.2109, 677.5085
105.6931, 678.4891
106.1752, 681.8640
106.6573, 688.2453
107.1394, 697.6655
107.6215, 709.8364
108.1036, 727.9825
108.5858, 750.0711
109.0679, 764.5772
109.5500, 767.5786
110.0321, 766.3592
110.5142, 764.8145
110.9963, 760.9218
111.4785, 759.0002
111.9606, 759.7570
112.4427, 763.1067
112.9248, 767.5456
113.4069, 773.5535
113.8890, 780.1769
114.3712, 786.7241
114.8533, 792.2521
115.3354, 798.3625
115.8175, 806.2135
116.2996, 816.2042
116.7817, 824.7379
117.2639, 830.1100
117.7460, 833.5295
118.2281, 836.5204
118.7102, 840.9011
119.1923, 844.1693
119.6744, 844.3704
120.1566, 840.7980
120.6387, 836.4908
121.1208, 832.4189
121.6029, 828.9299
122.0850, 826.8038
122.5671, 826.3383
123.0493, 827.4302
123.5314, 830.3279
124.0135, 835.6467
124.4956, 841.2758
124.9777, 846.7200
125.4598, 851.2712
125.9420, 852.1363
126.4241, 844.3477
126.9062, 831.9637
127.3883, 822.4476
127.8704, 817.7170
128.3525, 816.0071
128.8347, 814.9587
129.3168, 814.5840
129.7989, 815.1378
130.2810, 817.6999
130.7631, 821.6249
131.2452, 824.3002
131.7274, 824.7160
132.2095, 823.6337
132.6916, 823.4441
133.1737, 824.3796
133.6558, 824.5856
134.1379, 821.3474
134.6201, 814.7411
135.1022, 809.4017
135.5843, 806.9315
136.0664, 807.0079
136.5485, 807.4048
137.0306, 808.1588
137.5128, 809.1591
137.9949, 810.1278
138.4770, 810.9041
138.9591, 812.4540
139.4412, 815.0312
139.9233, 818.5909
140.4055, 823.8411
140.8876, 832.2345
141.3697, 840.8048
141.8518, 844.3414
142.3339, 841.0587
142.8160, 836.7325
143.2982, 833.2470
143.7803, 830.7010
144.2624, 828.8079
144.7445, 827.7703
145.2266, 827.3317
145.7087, 826.8455
146.1909, 825.5225
146.6730, 825.1545
147.1551, 826.6188
147.6372, 831.7800
148.1193, 835.6392
148.6014, 838.1275
149.0836, 839.3231
149.5657, 839.5149
150.0478, 837.5435
150.5299, 835.5042
151.0120, 834.2966
151.4941, 834.7006
151.9763, 835.0095
152.4584, 835.3301
152.9405, 835.5732
153.4226, 835.3348
153.9047, 834.6319
154.3868, 833.3988
154.8690, 831.5994
155.3511, 827.4138
155.8332, 824.5892
156.3153, 825.2231
156.7974, 828.6537
157.2795, 829.5098
157.7617, 824.9432
158.2438, 818.2972
158.7259, 811.9891
159.2080, 806.3090
159.6901, 801.2985
160.1722, 797.2775
160.6544, 794.1939
161.1365, 790.9665
161.6186, 786.9051
162.1007, 782.6757
162.5828, 778.7911
163.0649, 775.2571
163.5471, 772.2708
164.0292, 770.6116
164.5113, 770.2946
164.9934, 768.6332
165.4755, 763.2552
165.9576, 755.9940
166.4398, 749.2000
166.9219, 743.6386
167.4040, 738.8329
167.8861, 734.6725
168.3682, 731.1502
168.8503, 727.8364
169.3325, 724.4244
169.8146, 721.0348
170.2967, 717.9115
170.7788, 715.2223
171.2609, 712.7784
171.7430, 710.6581
172.2252, 708.9410
172.7073, 706.7987
173.1894, 703.3248
173.6715, 698.8767
174.1536, 694.3955
174.6357, 689.9907
175.1179, 685.8594
175.6000, 682.3640
176.0821, 679.6614
176.5642, 677.0634
177.0463, 673.8828
177.5284, 670.2425
178.0106, 666.5781
178.4927, 662.7807
178.9748, 659.1691
179.4569, 656.6129
179.9390, 655.4161
180.4211, 654.3438
180.9033, 651.6558
181.3854, 647.6498
181.8675, 643.8102
182.3496, 640.9689
182.8317, 638.9189
183.3138, 637.0311
183.7960, 635.2628
184.2781, 633.6349
184.7602, 632.3686
185.2423, 631.3918
185.7244, 630.2261
186.2065, 628.1684
186.6887, 625.5828
187.1708, 623.9626
187.6529, 623.7083
188.1350, 623.9542
188.6171, 623.3904
189.0992, 622.0132
189.5814, 619.9920
190.0635, 617.0012
190.5456, 613.2217
191.0277, 610.1746
191.5098, 608.0507
191.9919, 606.6652
192.4741, 606.0023
192.9562, 606.1121
193.4383, 605.9542
193.9204, 604.3482
194.4025, 601.4350
194.8846, 599.8231
195.3668, 600.1653
195.8489, 601.5784
196.3310, 601.9791
196.8131, 601.2886
197.2952, 600.1722
197.7773, 598.9033
198.2595, 597.4755
198.7416, 596.3558
199.2237, 595.6716
199.7058, 595.2877
200.1879, 594.8852
200.6700, 594.4819
201.1522, 593.9860
201.6343, 593.2884
202.1164, 592.3648
202.5985, 591.5386
203.0806, 590.9084
203.5627, 590.3766
204.0449, 589.6458
204.5270, 588.6995
205.0091, 587.5939
205.4912, 586.2943
205.9733, 584.7365
206.4554, 583.3665
206.9376, 582.2809
207.4197, 581.4092
207.9018, 580.4525
208.3839, 579.4044
208.8660, 578.2914
209.3481, 577.1675
209.8303, 576.0638
210.3124, 574.7932
210.7945, 573.2466
211.2766, 571.5470
211.7587, 570.1642
212.2408, 569.2203
212.7230, 568.3381
213.2051, 567.2344
213.6872, 565.8178
214.1693, 564.4960
214.6514, 563.4382
215.1335, 562.4910
215.6157, 560.9461
216.0978, 558.4892
216.5799, 555.9576
217.0620, 553.8327
217.5441, 552.1084
218.0262, 550.8359
218.5084, 550.2676
218.9905, 550.1552
219.4726, 549.2775
219.9547, 547.3864
220.4368, 545.1470
220.9189, 542.9636
221.4011, 540.7736
221.8832, 538.8131
222.3653, 537.2297
222.8474, 535.9044
223.3295, 534.1369
223.8116, 531.6871
224.2938, 529.2458
224.7759, 527.2197
225.2580, 525.6893
225.7401, 524.4236
226.2222, 523.4627
226.7043, 522.7466
227.1865, 522.0457
227.6686, 521.5790
228.1507, 520.8133
228.6328, 519.3502
229.1149, 516.7159
229.5970, 514.5253
230.0792, 513.0599
230.5613, 512.1141
231.0434, 510.8877
231.5255, 509.1312
232.0076, 507.5007
232.4897, 506.4234
232.9719, 506.2550
233.4540, 505.8740
233.9361, 505.2615
234.4182, 504.4098
234.9003, 503.2177
235.3824, 501.3758
235.8646, 499.6364
236.3467, 498.3693
236.8288, 497.6941
237.3109, 497.2461
237.7930, 497.2236
238.2751, 497.3769
238.7573, 496.8975
239.2394, 495.3150
239.7215, 493.7541
240.2036, 492.7451
240.6857, 492.6283
241.1678, 492.2650
241.6500, 491.5451
242.1321, 490.6051
242.6142, 489.7589
243.0963, 488.9344
243.5784, 488.3222
244.0605, 488.1224
244.5427, 488.7978
245.0248, 488.6458
245.5069, 487.2333
245.9890, 485.1694
246.4711, 483.8505
246.9532, 483.6833
247.4354, 483.5845
247.9175, 483.1532
248.3996, 482.3012
248.8817, 481.4107
249.3638, 480.4325
249.8459, 479.4555
250.3281, 478.6786
250.8102, 478.3028
251.2923, 477.7827
251.7744, 476.8197
252.2565, 475.1889
252.7386, 474.1690
253.2208, 474.0902
253.7029, 474.3802
254.1850, 474.0230
254.6671, 472.4234
255.1492, 471.3482
255.6313, 471.6181
256.1135, 473.5923
256.5956, 474.3292
257.0777, 473.2281
257.5598, 471.4440
258.0419, 470.5443
258.5240, 470.8400
259.0062, 471.3298
259.4883, 471.8524
259.9704, 472.4274
260.4525, 472.5431
260.9346, 472.0337
261.4167, 471.2728
261.8989, 470.7251
262.3810, 470.5591
262.8631, 470.1534
263.3452, 469.1494
263.8273, 467.5524
264.3094, 467.1090
264.7916, 468.2829
265.2737, 469.8736
265.7558, 470.6628
266.2379, 470.3480
266.7200, 470.2600
267.2021, 470.8443
267.6843, 471.9653
268.1664, 472.1444
268.6485, 470.9517
269.1306, 469.7007
269.6127, 469.6408
270.0948, 471.0787
270.5770, 472.2557
271.0591, 472.7113
271.5412, 472.6756
272.0233, 473.3947
272.5054, 475.0706
272.9875, 476.9008
273.4697, 478.2984
273.9518, 479.2167
274.4339, 480.0470
274.9160, 480.7617
275.3981, 481.4595
275.8802, 482.4424
276.3624, 483.6990
276.8445, 485.2495
277.3266, 487.2317
277.8087, 489.6920
278.2908, 491.9367
278.7729, 493.8975
279.2551, 495.6353
279.7372, 497.1834
280.2193, 498.5206
280.7014, 499.8596
281.1835, 501.2481
281.6656, 502.6910
282.1478, 504.5247
282.6299, 506.8524
283.1120, 509.3952
283.5941, 511.6238
284.0762, 513.5255
284.5583, 515.5616
285.0405, 517.8933
285.5226, 520.5309
286.0047, 523.6384
286.4868, 527.2867
286.9689, 531.1693
287.4510, 535.0157
287.9332, 538.8098
288.4153, 542.2739
288.8974, 545.0835
289.3795, 547.4279
289.8616, 549.8265
290.3438, 552.2452
290.8259, 554.9447
291.3080, 558.5280
291.7901, 562.7786
292.2722, 566.5875
292.7543, 569.3265
293.2365, 571.4706
293.7186, 574.0223
294.2007, 576.9600
294.6828, 580.2753
295.1649, 584.2571
295.6470, 588.6408
296.1292, 592.6881
296.6113, 596.1192
297.0934, 599.1536
297.5755, 602.1955
298.0576, 605.2385
298.5397, 608.0530
299.0219, 610.2054
299.5040, 612.0673
299.9861, 614.4474
300.4682, 617.6251
300.9503, 621.1224
301.4324, 624.7567
301.9146, 628.3558
302.3967, 631.3362
302.8788, 632.7372
303.3609, 633.4568
303.8430, 634.8302
304.3251, 637.1670
304.8073, 639.6712
305.2894, 641.8707
305.7715, 643.6864
306.2536, 644.9937
306.7357, 645.1062
307.2178, 644.9659
307.7000, 645.6907
308.1821, 647.4511
308.6642, 649.1337
309.1463, 650.1400
309.6284, 650.4846
310.1105, 650.2005
310.5927, 648.4078
311.0748, 646.6302
311.5569, 646.3632
312.0390, 647.6105
312.5211, 648.2128
313.0032, 646.2829
313.4854, 643.3357
313.9675, 641.0052
314.4496, 640.3759
314.9317, 640.0214
315.4138, 639.2557
315.8959, 638.1594
316.3781, 637.1759
316.8602, 636.9003
317.3423, 636.6003
317.8244, 635.6819
318.3065, 633.3133
318.7886, 631.3212
319.2708, 630.7051
319.7529, 630.9866
320.2350, 630.8199
320.7171, 629.0303
321.1992, 627.2708
321.6813, 626.4280
322.1635, 627.0491
322.6456, 627.5696
323.1277, 627.5464
323.6098, 627.2502
324.0919, 627.1370
324.5740, 627.4183
325.0562, 627.7578
325.5383, 628.0038
326.0204, 628.0597
326.5025, 628.4000
326.9846, 629.2662
327.4667, 630.3533
327.9489, 631.3524
328.4310, 632.5159
328.9131, 633.3302
329.3952, 633.8334
329.8773, 634.0416
330.3594, 633.4341
330.8416, 630.9749
331.3237, 628.5897
331.8058, 627.7471
332.2879, 629.8022
332.7700, 631.0720
333.2521, 631.0071
333.7343, 629.8815
334.2164, 629.0369
334.6985, 628.6400
335.1806, 628.2644
335.6627, 627.6337
336.1448, 626.5737
336.6270, 625.8602
337.1091, 625.7764
337.5912, 625.8562
338.0733, 625.1520
338.5554, 623.6122
339.0375, 621.4801
339.5197, 618.5848
340.0018, 614.8734
340.4839, 611.9466
340.9660, 610.0175
341.4481, 608.5253
341.9302, 606.8793
342.4124, 605.0635
342.8945, 603.1035
343.3766, 601.0950
343.8587, 598.9396
344.3408, 595.8256
344.8229, 591.6127
345.3051, 587.4966
345.7872, 584.8104
346.2693, 583.3368
346.7514, 581.5207
347.2335, 578.9998
347.7156, 576.0693
348.1978, 573.2283
348.6799, 570.4919
349.1620, 567.9958
349.6441, 566.0300
350.1262, 564.3672
350.6083, 562.3879
351.0905, 559.9034
351.5726, 557.4572
352.0547, 555.7306
352.5368, 554.5660
353.0189, 553.4874
353.5010, 552.2756
353.9832, 551.0042
354.4653, 549.7396
354.9474, 548.4689
355.4295, 547.2721
355.9116, 546.1361
356.3937, 545.1193
356.8759, 544.3247
357.3580, 543.8953
357.8401, 543.6002
358.3222, 543.3992
358.8043, 543.2484
359.2864, 542.8915
359.7686, 541.7837
360.2507, 540.6229
360.7328, 540.0514
361.2149, 540.5048
361.6970, 541.0485
362.1791, 541.3632
362.6613, 541.4892
363.1434, 541.5244
363.6255, 540.9467
364.1076, 540.7170
364.5897, 541.4763
365.0718, 543.6943
365.5540, 545.4395
366.0361, 546.0342
366.5182, 546.0909
367.0003, 546.3449
367.4824, 547.2151
367.9645, 547.9551
368.4467, 548.3686
368.9288, 548.4377
369.4109, 548.5625
369.8930, 548.7000
370.3751, 548.9431
370.8572, 549.3809
371.3394, 550.2645
371.8215, 550.9101
372.3036, 551.1074
372.7857, 551.0353
373.2678, 551.3687
373.7499, 552.3140
374.2321, 553.2888
374.7142, 553.9703
375.1963, 554.2336
375.6784, 554.8031
376.1605, 555.8904
376.6426, 556.9951
377.1248, 557.1589
377.6069, 556.1912
378.0890, 555.4361
378.5711, 555.3713
379.0532, 555.9150
379.5353, 556.5972
380.0175, 557.5036
380.4996, 558.1562
380.9817, 557.9120
381.4638, 556.8909
381.9459, 556.0960
382.4280, 555.8206
382.9102, 555.7625
383.3923, 555.2858
383.8744, 554.4266
384.3565, 553.6305
384.8386, 553.3552
385.3207, 553.3174
385.8029, 552.9973
386.2850, 552.3555
386.7671, 551.3392
387.2492, 549.6268
387.7313, 547.4818
388.2134, 545.5380
388.6956, 544.2067
389.1777, 543.1551
389.6598, 542.1686
390.1419, 541.2401
390.6240, 540.2024
391.1061, 538.8983
391.5883, 537.4558
392.0704, 536.0012
392.5525, 534.5621
393.0346, 533.1444
393.5167, 531.8220
393.9988, 530.5201
394.4810, 529.0110
394.9631, 526.9255
395.4452, 524.8377
395.9273, 522.9858
396.4094, 521.3395
396.8915, 520.1091
397.3737, 519.6584
397.8558, 519.5296
398.3379, 519.1576
398.8200, 518.5706
399.3021, 517.6262
399.7842, 516.0822
400.2664, 513.9384
400.7485, 512.2185
401.2306, 510.9084
401.7127, 510.0423
402.1948, 509.7323
402.6769, 510.4365
403.1591, 510.6756
403.6412, 510.2369
404.1233, 509.3408
404.6054, 508.4144
405.0875, 507.3057
405.5696, 506.6548
406.0518, 506.9146
406.5339, 508.1269
407.0160, 508.9141
407.4981, 509.2502
407.9802, 509.2438
408.4623, 508.7832
408.9445, 507.8913
409.4266, 507.5094
409.9087, 507.9319
410.3908, 508.9853
410.8729, 510.3606
411.3550, 512.0627
411.8372, 513.8703
412.3193, 515.8701
412.8014, 517.8563
413.2835, 519.1244
413.7656, 519.3424
414.2477, 519.8242
414.7299, 522.3017
415.2120, 526.1622
415.6941, 529.8694
416.1762, 532.5621
416.6583, 534.8973
417.1404, 537.5003
417.6226, 540.3823
418.1047, 543.0862
418.5868, 544.8785
419.0689, 546.5946
419.5510, 549.1058
420.0331, 553.2381
420.5153, 557.3705
420.9974, 560.6975
421.4795, 563.5293
421.9616, 566.5132
422.4437, 570.2408
422.9258, 573.8499
423.4080, 576.9182
423.8901, 579.2782
424.3722, 581.7670
424.8543, 584.5877
425.3364, 587.5212
425.8185, 590.3359
426.3007, 592.9734
426.7828, 595.6428
427.2649, 598.4549
427.7470, 601.3408
428.2291, 603.9530
428.7112, 606.3077
429.1934, 608.3126
429.6755, 609.9781
430.1576, 611.3171
430.6397, 612.0973
431.1218, 612.1729
431.6039, 611.9017
432.0861, 611.8059
432.5682, 611.8912
433.0503, 612.1041
433.5324, 612.5536
434.0145, 613.0989
434.4966, 613.3019
434.9788, 613.1713
435.4609, 612.6188
435.9430, 611.2440
436.4251, 609.3715
436.9072, 607.9552
437.3893, 607.2681
437.8715, 606.8009
438.3536, 605.8790
438.8357, 604.6877
439.3178, 603.7433
439.7999, 603.5002
440.2820, 603.4935
440.7642, 603.5062
441.2463, 603.5174
441.7284, 602.9066
442.2105, 600.6617
442.6926, 597.9247
443.1747, 595.7875
443.6569, 594.5908
444.1390, 593.9592
444.6211, 594.2558
445.1032, 595.0936
445.5853, 595.3466
446.0674, 594.5945
446.5496, 593.4265
447.0317, 591.9910
447.5138, 590.1718
447.9959, 588.5245
448.4780, 587.1191
448.9601, 585.8532
449.4423, 584.6642
449.9244, 583.8437
450.4065, 582.5076
450.8886, 580.2965
451.3707, 577.4964
451.8528, 575.2458
452.3350, 573.6135
452.8171, 572.2736
453.2992, 571.1674
453.7813, 570.2891
454.2634, 568.9180
454.7455, 566.9335
455.2277, 564.7136
455.7098, 562.6702
456.1919, 560.7977
456.6740, 558.9559
457.1561, 557.1619
457.6382, 555.3632
458.1204, 553.7771
458.6025, 552.2908
459.0846, 550.1811
459.5667, 546.4209
460.0488, 541.9421
460.5309, 538.0385
461.0131, 535.0591
461.4952, 531.9533
461.9773, 527.7947
462.4594, 523.1350
462.9415, 518.7196
463.4236, 515.5875
463.9058, 512.1136
464.3879, 507.4248
464.8700, 501.6522
465.3521, 495.6911
465.8342, 489.7263
466.3163, 483.5921
466.7985, 477.1368
467.2806, 469.9725
467.7627, 463.2133
468.2448, 457.1757
468.7269, 451.4832
469.2090, 445.5381
469.6912, 439.1953
470.1733, 432.7417
470.6554, 426.2149
471.1375, 419.6202
471.6196, 412.9795
472.1017, 406.2096
472.5839, 399.6031
473.0660, 393.2115
473.5481, 387.0640
474.0302, 381.1271
474.5123, 375.4221
474.9944, 369.8769
475.4766, 364.3709
475.9587, 358.9234
476.4408, 353.6068
476.9229, 348.3831
477.4050, 343.4132
477.8871, 339.0931
478.3693, 335.3800
478.8514, 331.8662
479.3335, 328.2559
479.8156, 324.6725
480.2977, 321.3251
480.7798, 318.3180
481.2620, 315.3398
481.7441, 311.9437
482.2262, 308.5209
482.7083, 305.6504
483.1904, 303.6092
483.6725, 302.0531
484.1547, 301.2415
484.6368, 301.0679
485.1189, 300.1935
485.6010, 298.4836
486.0831, 295.9542
486.5652, 292.5399
487.0474, 287.4257
487.5295, 283.1070
488.0116, 279.6695
488.4937, 277.0122
488.9758, 275.1017
489.4579, 274.2245
489.9401, 273.1889
490.4222, 271.5900
490.9043, 269.6232
491.3864, 268.2489
491.8685, 267.5596
492.3506, 266.7863
492.8328, 265.2280
493.3149, 263.0981
493.7970, 261.2748
494.2791, 259.7936
494.7612, 258.7722
495.2433, 258.6827
495.7255, 259.1636
496.2076, 259.2911
496.6897, 258.6985
497.1718, 257.6457
497.6539, 256.1105
498.1360, 254.2577
498.6182, 252.6879
499.1003, 251.6688
499.5824, 251.0924
500.0645, 251.0620
500.5466, 251.7685
501.0287, 252.1408
501.5109, 251.5438
501.9930, 250.6047
502.4751, 249.9565
502.9572, 250.1017
503.4393, 250.0283
503.9214, 249.5112
504.4036, 248.6911
504.8857, 248.0456
505.3678, 247.6260
505.8499, 247.2834
506.3320, 246.9669
506.8141, 246.6780
507.2963, 246.4075
507.7784, 246.1511
508.2605, 245.9195
508.7426, 245.7784
509.2247, 245.7110
509.7068, 245.4228
510.1890, 244.7703
510.6711, 244.0393
511.1532, 243.7683
511.6353, 243.8772
512.1174, 243.9908
512.5995, 243.6250
513.0817, 243.3084
513.5638, 244.0570
514.0459, 245.8066
514.5280, 246.9376
515.0101, 245.8301
515.4922, 243.9278
515.9744, 242.5735
516.4565, 242.1423
516.9386, 242.0802
517.4207, 242.4857
517.9028, 243.0947
518.3849, 243.4728
518.8671, 243.4383
519.3492, 243.2822
519.8313, 243.0078
520.3134, 242.6314
520.7955, 242.3946
521.2776, 242.4122
521.7598, 242.3937
522.2419, 242.1285
522.7240, 241.5272
523.2061, 241.1476
523.6882, 241.0264
524.1703, 241.0628
524.6525, 241.2061
525.1346, 241.4417
525.6167, 241.4959
526.0988, 241.2568
526.5809, 240.8446
527.0630, 240.4833
527.5452, 240.1554
528.0273, 239.7462
528.5094, 238.9617
528.9915, 238.1766
529.4736, 237.8870
529.9557, 238.1437
530.4379, 238.4103
530.9200, 238.4026
531.4021, 238.2253
531.8842, 237.9837
532.3663, 237.7368
532.8484, 237.3730
533.3306, 236.7049
533.8127, 235.9090
534.2948, 235.3813
534.7769, 235.4809
535.2590, 235.4604
535.7411, 235.0778
536.2233, 234.3534
536.7054, 233.9330
537.1875, 234.0168
537.6696, 234.0338
538.1517, 233.5238
538.6339, 232.4362
539.1160, 231.5932
539.5981, 231.0514
540.0802, 230.7395
540.5623, 230.6236
541.0444, 230.6714
541.5266, 230.7177
542.0087, 230.8107
542.4908, 230.7575
542.9729, 230.0695
543.4550, 228.9259
543.9371, 228.0255
544.4193, 228.0248
544.9014, 228.2506
545.3835, 228.1137
545.8656, 227.5456
546.3477, 226.9929
546.8298, 226.7282
547.3120, 226.4980
547.7941, 226.0859
548.2762, 224.9757
548.7583, 224.3452
549.2404, 224.7508
549.7225, 225.5441
550.2047, 225.5548
550.6868, 224.2186
551.1689, 223.2169
551.6510, 223.1647
552.1331, 223.8387
552.6152, 223.6578
553.0974, 222.4664
553.5795, 221.2079
554.0616, 220.5835
554.5437, 220.4692
555.0258, 220.0866
555.5079, 219.3595
555.9901, 218.6291
556.4722, 218.2110
556.9543, 218.0522
557.4364, 218.0668
557.9185, 218.3479
558.4006, 218.6004
558.8828, 218.5911
559.3649, 218.3708
559.8470, 218.0606
560.3291, 217.6302
560.8112, 217.1820
561.2933, 216.7627
561.7755, 216.3712
562.2576, 215.9386
562.7397, 215.2585
563.2218, 214.6988
563.7039, 214.4904
564.1860, 214.9219
564.6682, 214.9101
565.1503, 214.2424
565.6324, 213.4034
566.1145, 213.1067
566.5966, 213.4349
567.0787, 213.5159
567.5609, 213.0933
568.0430, 212.4155
568.5251, 212.0328
569.0072, 211.9118
569.4893, 211.7989
569.9714, 211.4901
570.4536, 211.1341
570.9357, 210.9647
571.4178, 210.9756
571.8999, 211.0029
572.3820, 211.0374
572.8641, 210.9832
573.3463, 210.7144
573.8284, 210.0846
574.3105, 209.5677
574.7926, 209.3684
575.2747, 209.3340
575.7568, 209.2751
576.2390, 209.1923
576.7211, 209.0581
577.2032, 208.8705
577.6853, 208.6280
578.1674, 208.2935
578.6495, 207.7854
579.1317, 207.4316
579.6138, 207.4243
580.0959, 207.7150
580.5780, 207.9137
581.0601, 208.0235
581.5422, 208.0368
582.0244, 207.9071
582.5065, 207.6801
582.9886, 207.4771
583.4707, 207.3188
583.9528, 207.1487
584.4349, 206.8821
584.9171, 206.5789
585.3992, 206.3276
585.8813, 206.1793
586.3634, 206.0642
586.8455, 205.8470
