##NAMES=Tsepinite-K
##RRUFFID=R070215
##IDEAL CHEMISTRY=(K,Ba,Na)_2_(Ti^4+^,Nb^5+^)_2_Si_4_O_12_(OH,O)_2_&#183;3H_2_O
##LOCALITY=Karnasurt Mt, Lovozero Massif, Kola Peninsula, Murmanskaya Oblast'; Northern Region, Russia
##OWNER=RRUFF
##SOURCE=Michael Scott
##DESCRIPTION=Light orange acicular crystals
##STATUS=The identification of this mineral is not yet confirmed.
##URL=rruff.info/R070215
188.5157, 14944.62
188.9978, 14979.73
189.4800, 15008.66
189.9621, 15038.77
190.4442, 15076.73
190.9263, 15124.89
191.4084, 15184.61
191.8905, 15261.98
192.3727, 15375.09
192.8548, 15473.84
193.3369, 15540.73
193.8190, 15596.34
194.3011, 15658.80
194.7832, 15735.21
195.2654, 15823.82
195.7475, 15920.65
196.2296, 16029.22
196.7117, 16141.65
197.1938, 16262.24
197.6759, 16382.84
198.1581, 16494.94
198.6402, 16596.19
199.1223, 16691.37
199.6044, 16790.15
200.0865, 16898.63
200.5686, 16998.19
201.0508, 17075.75
201.5329, 17152.62
202.0150, 17247.15
202.4971, 17363.97
202.9792, 17488.75
203.4613, 17597.86
203.9435, 17681.72
204.4256, 17770.64
204.9077, 17867.61
205.3898, 17968.34
205.8719, 18080.21
206.3540, 18200.22
206.8362, 18305.91
207.3183, 18356.47
207.8004, 18308.07
208.2825, 18317.29
208.7646, 18425.60
209.2467, 18552.71
209.7289, 18661.49
210.2110, 18742.67
210.6931, 18800.64
211.1752, 18834.55
211.6573, 18831.59
212.1395, 18851.74
212.6216, 18910.45
213.1037, 18977.07
213.5858, 19039.18
214.0679, 19095.19
214.5500, 19148.61
215.0322, 19201.37
215.5143, 19251.69
215.9964, 19312.71
216.4785, 19410.89
216.9606, 19495.46
217.4427, 19543.27
217.9249, 19559.58
218.4070, 19563.38
218.8891, 19567.84
219.3712, 19572.64
219.8533, 19590.29
220.3354, 19635.37
220.8176, 19679.82
221.2997, 19724.09
221.7818, 19761.82
222.2639, 19780.63
222.7460, 19768.51
223.2281, 19729.59
223.7103, 19710.42
224.1924, 19760.69
224.6745, 19775.11
225.1566, 19705.52
225.6387, 19591.65
226.1208, 19494.48
226.6030, 19451.25
227.0851, 19446.71
227.5672, 19416.06
228.0493, 19334.29
228.5314, 19258.47
229.0135, 19204.36
229.4957, 19159.03
229.9778, 19108.27
230.4599, 19045.79
230.9420, 18973.71
231.4241, 18895.70
231.9062, 18806.43
232.3884, 18720.84
232.8705, 18637.60
233.3526, 18560.16
233.8347, 18492.06
234.3168, 18434.52
234.7989, 18382.67
235.2811, 18326.90
235.7632, 18259.21
236.2453, 18207.14
236.7274, 18192.75
237.2095, 18178.74
237.6916, 18130.13
238.1738, 18044.73
238.6559, 17959.40
239.1380, 17926.23
239.6201, 17964.98
240.1022, 17982.53
240.5843, 17953.51
241.0665, 17920.78
241.5486, 17910.46
242.0307, 17919.49
242.5128, 17922.45
242.9949, 17890.59
243.4770, 17819.95
243.9592, 17760.99
244.4413, 17714.77
244.9234, 17680.32
245.4055, 17671.20
245.8876, 17675.18
246.3697, 17662.73
246.8519, 17606.65
247.3340, 17512.81
247.8161, 17437.04
248.2982, 17383.63
248.7803, 17344.64
249.2624, 17328.08
249.7446, 17320.52
250.2267, 17298.95
250.7088, 17246.05
251.1909, 17176.43
251.6730, 17134.85
252.1551, 17137.51
252.6373, 17135.43
253.1194, 17104.86
253.6015, 17065.21
254.0836, 17039.22
254.5657, 17037.23
255.0478, 17043.54
255.5300, 17032.18
256.0121, 16998.86
256.4942, 16964.08
256.9763, 16926.30
257.4584, 16893.63
257.9406, 16872.99
258.4227, 16866.07
258.9048, 16867.03
259.3869, 16872.53
259.8690, 16882.94
260.3511, 16888.93
260.8333, 16887.58
261.3154, 16881.87
261.7975, 16875.03
262.2796, 16866.87
262.7617, 16853.79
263.2438, 16827.72
263.7260, 16792.20
264.2081, 16769.31
264.6902, 16766.91
265.1723, 16769.16
265.6544, 16760.77
266.1365, 16746.08
266.6187, 16740.27
267.1008, 16755.17
267.5829, 16782.92
268.0650, 16812.33
268.5471, 16849.26
269.0292, 16867.66
269.5114, 16827.30
269.9935, 16757.54
270.4756, 16707.46
270.9577, 16689.13
271.4398, 16696.10
271.9219, 16733.15
272.4041, 16801.61
272.8862, 16854.69
273.3683, 16857.66
273.8504, 16835.46
274.3325, 16840.34
274.8146, 16894.55
275.2968, 16939.72
275.7789, 16915.87
276.2610, 16843.71
276.7431, 16813.78
277.2252, 16872.17
277.7073, 16968.28
278.1895, 17015.46
278.6716, 17005.92
279.1537, 16997.06
279.6358, 17017.08
280.1179, 17049.40
280.6000, 17063.46
281.0822, 17051.03
281.5643, 17029.33
282.0464, 17014.88
282.5285, 17007.03
283.0106, 17015.52
283.4927, 17062.46
283.9749, 17112.97
284.4570, 17129.36
284.9391, 17111.10
285.4212, 17093.83
285.9033, 17109.93
286.3854, 17158.25
286.8676, 17180.81
287.3497, 17152.08
287.8318, 17124.82
288.3139, 17120.77
288.7960, 17138.59
289.2781, 17177.68
289.7603, 17243.11
290.2424, 17320.67
290.7245, 17347.60
291.2066, 17264.74
291.6887, 17207.94
292.1708, 17212.32
292.6530, 17248.46
293.1351, 17280.42
293.6172, 17295.51
294.0993, 17303.54
294.5814, 17321.53
295.0635, 17353.38
295.5457, 17389.25
296.0278, 17433.23
296.5099, 17477.76
296.9920, 17518.37
297.4741, 17554.12
297.9562, 17584.33
298.4384, 17606.22
298.9205, 17616.25
299.4026, 17643.75
299.8847, 17701.04
300.3668, 17762.84
300.8489, 17821.65
301.3311, 17878.49
301.8131, 17938.22
302.2953, 18005.56
302.7774, 18076.92
303.2595, 18133.16
303.7416, 18163.14
304.2237, 18193.57
304.7058, 18230.44
305.1880, 18270.32
305.6701, 18313.07
306.1522, 18359.12
306.6343, 18398.03
307.1164, 18405.27
307.5985, 18366.17
308.0807, 18350.26
308.5628, 18398.92
309.0449, 18454.52
309.5270, 18483.98
310.0091, 18484.20
310.4912, 18471.13
310.9734, 18454.35
311.4555, 18434.46
311.9376, 18420.64
312.4197, 18424.60
312.9018, 18417.84
313.3839, 18385.80
313.8661, 18331.11
314.3482, 18259.22
314.8303, 18154.50
315.3124, 18041.98
315.7945, 17975.07
316.2766, 17963.44
316.7588, 17940.92
317.2409, 17861.98
317.7230, 17752.72
318.2051, 17655.21
318.6872, 17573.07
319.1693, 17506.46
319.6515, 17468.96
320.1336, 17452.02
320.6157, 17412.48
321.0978, 17327.16
321.5799, 17227.10
322.0620, 17160.97
322.5442, 17130.00
323.0263, 17111.10
323.5084, 17112.18
323.9905, 17115.54
324.4726, 17093.12
324.9547, 17040.28
325.4369, 16984.46
325.9190, 16953.42
326.4011, 16950.35
326.8832, 16935.42
327.3653, 16894.37
327.8474, 16854.88
328.3296, 16835.78
328.8117, 16831.84
329.2938, 16826.46
329.7759, 16810.25
330.2580, 16784.35
330.7401, 16754.51
331.2223, 16717.46
331.7044, 16680.24
332.1865, 16641.21
332.6686, 16603.30
333.1507, 16572.67
333.6328, 16550.30
334.1150, 16526.83
334.5971, 16489.08
335.0792, 16438.41
335.5613, 16368.51
336.0434, 16261.29
336.5255, 16153.34
337.0077, 16067.64
337.4898, 15999.68
337.9719, 15928.90
338.4540, 15839.65
338.9361, 15733.43
339.4182, 15621.94
339.9004, 15494.90
340.3825, 15379.66
340.8646, 15288.26
341.3467, 15209.72
341.8288, 15130.44
342.3109, 15044.72
342.7931, 14957.85
343.2752, 14880.07
343.7573, 14813.55
344.2394, 14739.07
344.7215, 14639.23
345.2036, 14539.94
345.6858, 14462.27
346.1679, 14406.83
346.6500, 14358.24
347.1321, 14306.18
347.6142, 14253.60
348.0963, 14211.76
348.5785, 14186.84
349.0606, 14156.24
349.5427, 14084.35
350.0248, 13990.14
350.5069, 13933.34
350.9890, 13958.67
351.4712, 13997.83
351.9533, 13998.83
352.4354, 13965.05
352.9175, 13913.84
353.3996, 13849.51
353.8817, 13777.16
354.3639, 13709.70
354.8460, 13647.81
355.3281, 13588.43
355.8102, 13532.65
356.2923, 13478.31
356.7744, 13424.44
357.2566, 13370.38
357.7387, 13314.93
358.2208, 13256.81
358.7029, 13195.73
359.1850, 13132.44
359.6671, 13069.08
360.1493, 13002.12
360.6314, 12927.42
361.1135, 12847.95
361.5956, 12768.63
362.0777, 12691.24
362.5598, 12618.42
363.0420, 12559.70
363.5241, 12522.59
364.0062, 12488.53
364.4883, 12470.02
364.9704, 12444.35
365.4525, 12384.88
365.9347, 12289.37
366.4168, 12188.52
366.8989, 12120.03
367.3810, 12085.65
367.8631, 12044.90
368.3452, 11988.56
368.8274, 11934.84
369.3095, 11892.22
369.7916, 11858.83
370.2737, 11830.95
370.7558, 11812.89
371.2379, 11794.36
371.7201, 11751.41
372.2022, 11680.20
372.6843, 11623.17
373.1664, 11608.26
373.6485, 11612.35
374.1306, 11597.10
374.6128, 11554.27
375.0949, 11517.86
375.5770, 11515.60
376.0591, 11530.71
376.5412, 11527.56
377.0233, 11497.42
377.5055, 11460.64
377.9876, 11438.96
378.4697, 11434.55
378.9518, 11420.59
379.4339, 11387.38
379.9160, 11353.09
380.3982, 11328.05
380.8803, 11311.04
381.3624, 11297.69
381.8445, 11285.89
382.3266, 11275.09
382.8087, 11263.24
383.2909, 11247.09
383.7730, 11234.50
384.2551, 11230.79
384.7372, 11227.32
385.2193, 11212.47
385.7014, 11187.16
386.1836, 11167.28
386.6657, 11173.99
387.1478, 11209.79
387.6299, 11222.72
388.1120, 11188.63
388.5941, 11158.87
389.0763, 11149.93
389.5584, 11156.14
390.0405, 11168.90
390.5226, 11185.82
391.0047, 11204.08
391.4868, 11218.46
391.9690, 11228.19
392.4511, 11241.42
392.9332, 11265.21
393.4153, 11288.65
393.8974, 11300.22
394.3795, 11299.98
394.8617, 11299.64
395.3438, 11303.73
395.8259, 11311.77
396.3080, 11323.08
396.7901, 11337.59
397.2722, 11355.92
397.7544, 11381.24
398.2365, 11410.74
398.7186, 11430.84
399.2007, 11434.36
399.6828, 11436.57
400.1649, 11442.33
400.6471, 11450.87
401.1292, 11460.05
401.6113, 11469.23
402.0934, 11481.79
402.5755, 11504.53
403.0576, 11546.28
403.5398, 11570.05
404.0219, 11560.47
404.5040, 11550.04
404.9861, 11562.24
405.4682, 11587.92
405.9503, 11599.16
406.4325, 11575.29
406.9146, 11530.73
407.3967, 11520.33
407.8788, 11567.54
408.3609, 11600.75
408.8430, 11588.75
409.3252, 11570.06
409.8073, 11575.08
410.2894, 11608.24
410.7715, 11652.88
411.2536, 11703.11
411.7357, 11755.11
412.2179, 11784.66
412.7000, 11782.86
413.1821, 11776.00
413.6642, 11778.86
414.1463, 11789.83
414.6284, 11807.34
415.1106, 11833.68
415.5927, 11863.43
416.0748, 11894.27
416.5569, 11925.51
417.0390, 11952.53
417.5211, 11971.59
418.0033, 11993.86
418.4854, 12039.35
418.9675, 12120.46
419.4496, 12181.24
419.9317, 12203.79
420.4138, 12218.14
420.8960, 12239.62
421.3781, 12270.67
421.8602, 12312.08
422.3423, 12365.35
422.8244, 12427.92
423.3065, 12488.73
423.7887, 12549.29
424.2708, 12605.67
424.7529, 12662.90
425.2350, 12712.78
425.7171, 12744.25
426.1992, 12758.12
426.6814, 12769.78
427.1635, 12795.69
427.6456, 12834.41
428.1277, 12864.48
428.6098, 12878.63
429.0919, 12898.18
429.5741, 12934.20
430.0562, 12982.50
430.5383, 13040.14
431.0204, 13113.09
431.5025, 13180.87
431.9846, 13222.79
432.4668, 13244.82
432.9489, 13267.08
433.4310, 13293.67
433.9131, 13325.41
434.3952, 13365.44
434.8773, 13414.84
435.3595, 13458.41
435.8416, 13497.11
436.3237, 13527.98
436.8058, 13543.27
437.2879, 13549.21
437.7701, 13563.25
438.2522, 13595.25
438.7343, 13634.66
439.2164, 13653.00
439.6985, 13627.00
440.1806, 13621.61
440.6628, 13651.26
441.1449, 13688.40
441.6270, 13718.85
442.1091, 13740.42
442.5912, 13755.23
443.0733, 13764.20
443.5555, 13767.77
444.0376, 13769.13
444.5197, 13771.79
445.0018, 13762.27
445.4839, 13720.23
445.9660, 13670.99
446.4482, 13643.26
446.9303, 13644.05
447.4124, 13639.30
447.8945, 13603.46
448.3766, 13548.17
448.8587, 13498.12
449.3409, 13456.70
449.8230, 13415.72
450.3051, 13370.05
450.7872, 13318.95
451.2693, 13259.64
451.7514, 13178.00
452.2336, 13105.24
452.7157, 13052.48
453.1978, 13014.63
453.6799, 12990.14
454.1620, 12976.91
454.6441, 12961.58
455.1263, 12926.25
455.6084, 12867.88
456.0905, 12807.07
456.5726, 12724.49
457.0547, 12660.47
457.5368, 12639.74
458.0190, 12642.99
458.5011, 12638.64
458.9832, 12612.47
459.4653, 12578.52
459.9474, 12557.94
460.4295, 12551.08
460.9117, 12537.56
461.3938, 12502.43
461.8759, 12475.16
462.3580, 12490.15
462.8401, 12538.90
463.3222, 12577.27
463.8044, 12582.29
464.2865, 12580.75
464.7686, 12594.96
465.2507, 12623.21
465.7328, 12657.52
466.2149, 12695.16
466.6971, 12734.31
467.1792, 12769.32
467.6613, 12785.92
468.1434, 12831.29
468.6255, 12924.33
469.1076, 13029.15
469.5898, 13128.90
470.0719, 13220.64
470.5540, 13299.70
471.0361, 13360.07
471.5182, 13415.43
472.0003, 13513.06
472.4825, 13672.63
472.9646, 13819.11
473.4467, 13914.45
473.9288, 14007.11
474.4109, 14127.53
474.8930, 14276.58
475.3752, 14439.15
475.8573, 14604.33
476.3394, 14778.12
476.8215, 14977.71
477.3036, 15203.31
477.7857, 15425.52
478.2679, 15626.38
478.7500, 15816.87
479.2321, 16024.75
479.7142, 16244.49
480.1963, 16486.55
480.6784, 16770.71
481.1606, 17066.05
481.6427, 17341.44
482.1248, 17598.20
482.6069, 17859.75
483.0890, 18147.74
483.5711, 18453.16
484.0533, 18730.94
484.5354, 18961.77
485.0175, 19196.57
485.4996, 19464.41
485.9817, 19723.72
486.4638, 19936.85
486.9460, 20102.64
487.4281, 20248.52
487.9102, 20411.69
488.3923, 20570.99
488.8744, 20661.03
489.3565, 20678.01
489.8387, 20644.40
490.3208, 20567.36
490.8029, 20444.74
491.2850, 20283.98
491.7671, 20088.34
492.2492, 19846.74
492.7314, 19544.27
493.2135, 19201.94
493.6956, 18836.59
494.1777, 18454.60
494.6598, 18061.63
495.1419, 17659.11
495.6241, 17252.29
496.1062, 16863.25
496.5883, 16476.17
497.0704, 16135.51
497.5525, 15870.87
498.0346, 15632.88
498.5168, 15375.89
498.9989, 15098.96
499.4810, 14841.48
499.9631, 14640.84
500.4452, 14485.08
500.9273, 14331.75
501.4095, 14177.99
501.8916, 14037.42
502.3737, 13910.30
502.8558, 13803.97
503.3379, 13730.25
503.8200, 13695.77
504.3022, 13668.05
504.7843, 13630.66
505.2664, 13596.32
505.7485, 13582.32
506.2306, 13588.25
506.7127, 13600.57
507.1949, 13610.14
507.6770, 13619.06
508.1591, 13635.69
508.6412, 13645.09
509.1233, 13686.61
509.6054, 13779.60
510.0876, 13890.26
510.5697, 13999.42
511.0518, 14102.75
511.5339, 14198.81
512.0161, 14282.03
512.4982, 14359.97
512.9803, 14453.90
513.4624, 14564.00
513.9445, 14687.02
514.4266, 14832.24
514.9088, 14980.87
515.3909, 15100.70
515.8730, 15187.51
516.3551, 15301.35
516.8372, 15484.16
517.3193, 15684.53
517.8015, 15852.25
518.2836, 15992.89
518.7657, 16149.11
519.2478, 16345.50
519.7299, 16558.74
520.2120, 16731.82
520.6942, 16841.80
521.1763, 16955.43
521.6584, 17064.22
522.1405, 17183.70
522.6226, 17337.39
523.1047, 17509.09
523.5869, 17657.67
524.0690, 17762.41
524.5511, 17833.61
525.0332, 17881.64
525.5153, 17906.63
525.9974, 17932.15
526.4796, 17969.46
526.9617, 17999.76
527.4438, 18003.18
527.9259, 17981.89
528.4080, 17942.15
528.8901, 17872.77
529.3723, 17796.89
529.8544, 17735.93
530.3365, 17676.76
530.8186, 17594.42
531.3007, 17480.00
531.7828, 17342.04
532.2650, 17187.29
532.7471, 17008.00
533.2292, 16857.58
533.7113, 16779.21
534.1934, 16679.08
534.6755, 16512.67
535.1577, 16314.42
535.6398, 16128.28
536.1219, 15965.67
536.6040, 15819.67
537.0861, 15690.33
537.5682, 15572.82
538.0504, 15450.86
538.5325, 15322.28
539.0146, 15197.82
539.4967, 15092.22
539.9788, 14997.38
540.4609, 14875.80
540.9431, 14698.85
541.4252, 14535.96
541.9073, 14405.24
542.3894, 14292.25
542.8715, 14186.08
543.3536, 14083.39
543.8358, 13982.12
544.3179, 13879.83
544.8000, 13778.09
545.2821, 13683.36
545.7642, 13595.04
546.2463, 13515.77
546.7285, 13457.31
547.2106, 13400.38
547.6927, 13330.66
548.1748, 13248.09
548.6569, 13158.42
549.1390, 13057.87
549.6211, 12956.59
550.1032, 12863.59
550.5853, 12779.50
551.0674, 12709.79
551.5496, 12657.50
552.0317, 12612.38
552.5138, 12557.67
552.9959, 12490.39
553.4780, 12422.67
553.9601, 12346.85
554.4423, 12278.46
554.9244, 12225.30
555.4065, 12183.14
555.8886, 12147.43
556.3707, 12116.63
556.8528, 12083.43
557.3350, 12033.59
557.8171, 11970.57
558.2992, 11924.92
558.7813, 11904.18
559.2634, 11885.80
559.7455, 11855.80
560.2277, 11816.46
560.7098, 11776.99
561.1919, 11738.09
561.6740, 11697.75
562.1561, 11651.50
562.6382, 11605.86
563.1204, 11566.80
563.6025, 11535.24
564.0846, 11510.87
564.5667, 11494.61
565.0488, 11482.72
565.5309, 11458.72
566.0131, 11415.67
566.4952, 11378.19
566.9773, 11365.60
567.4594, 11347.16
567.9415, 11291.09
568.4236, 11207.74
568.9058, 11146.69
569.3879, 11139.29
569.8700, 11153.62
570.3521, 11165.09
570.8342, 11171.75
571.3163, 11165.91
571.7985, 11144.82
572.2806, 11114.22
572.7627, 11079.10
573.2448, 11037.60
573.7269, 11008.60
574.2090, 11010.55
574.6912, 11001.95
575.1733, 10958.90
575.6554, 10907.04
576.1375, 10876.02
576.6196, 10871.78
577.1017, 10876.70
577.5839, 10877.49
578.0660, 10874.61
578.5481, 10868.43
579.0302, 10858.32
579.5123, 10852.13
579.9944, 10859.74
580.4766, 10867.83
580.9587, 10844.55
581.4408, 10778.59
581.9229, 10733.84
582.4050, 10738.30
582.8871, 10749.47
583.3693, 10740.48
583.8514, 10715.57
584.3335, 10687.31
584.8156, 10661.54
585.2977, 10638.84
585.7798, 10619.57
586.2620, 10603.60
586.7441, 10593.73
587.2262, 10592.11
587.7083, 10593.16
588.1904, 10601.05
588.6725, 10607.59
589.1547, 10597.95
589.6368, 10567.04
590.1189, 10528.11
590.6010, 10480.42
591.0831, 10432.07
591.5652, 10392.63
592.0474, 10363.17
592.5295, 10341.79
593.0116, 10327.40
593.4937, 10320.23
593.9758, 10323.80
594.4579, 10352.16
594.9401, 10357.72
595.4222, 10311.03
595.9043, 10263.70
596.3864, 10249.33
596.8685, 10254.74
597.3506, 10242.79
597.8328, 10191.97
598.3149, 10135.09
598.7970, 10100.85
599.2791, 10083.65
599.7612, 10071.82
600.2433, 10063.08
600.7255, 10048.75
601.2076, 10018.78
601.6897, 9976.773
602.1718, 9952.232
602.6539, 9960.444
603.1360, 9965.899
603.6182, 9972.316
604.1003, 9970.110
604.5824, 9940.271
605.0645, 9892.520
605.5466, 9866.296
606.0287, 9896.478
606.5109, 9943.530
606.9930, 9941.777
607.4751, 9897.941
607.9572, 9867.762
608.4393, 9867.735
608.9214, 9873.205
609.4036, 9858.060
609.8857, 9822.162
610.3678, 9797.588
610.8499, 9794.676
611.3320, 9788.953
611.8141, 9769.882
612.2963, 9748.352
612.7784, 9736.636
613.2605, 9735.097
613.7426, 9734.639
614.2247, 9728.591
614.7068, 9718.602
615.1890, 9707.980
615.6711, 9696.624
616.1532, 9686.990
616.6353, 9679.925
617.1174, 9674.800
617.5995, 9673.539
618.0817, 9676.227
618.5638, 9667.897
619.0459, 9635.109
619.5280, 9606.112
620.0101, 9596.620
620.4922, 9594.657
620.9744, 9580.860
621.4565, 9554.177
621.9386, 9534.967
622.4207, 9544.342
622.9028, 9574.637
623.3849, 9596.986
623.8671, 9611.296
624.3492, 9617.834
624.8313, 9614.680
625.3134, 9606.004
625.7955, 9595.936
626.2776, 9584.547
626.7598, 9572.570
627.2419, 9556.045
627.7240, 9543.381
628.2061, 9538.027
628.6882, 9539.661
629.1703, 9552.654
629.6525, 9575.277
630.1346, 9591.036
630.6167, 9579.482
631.0988, 9547.818
631.5809, 9540.079
632.0630, 9564.939
632.5452, 9579.031
633.0273, 9561.522
633.5094, 9535.139
633.9915, 9525.099
634.4736, 9530.569
634.9557, 9537.671
635.4379, 9542.144
635.9200, 9549.198
636.4021, 9566.531
636.8842, 9586.601
637.3663, 9597.922
637.8484, 9597.766
638.3306, 9589.684
638.8127, 9573.651
639.2948, 9553.380
639.7769, 9555.296
640.2590, 9587.567
640.7411, 9612.810
641.2233, 9616.638
641.7054, 9612.512
642.1875, 9610.344
642.6696, 9610.781
643.1517, 9624.180
643.6339, 9667.803
644.1160, 9708.745
644.5981, 9730.419
645.0802, 9737.173
645.5623, 9728.649
646.0444, 9708.842
646.5266, 9698.416
647.0087, 9717.345
647.4908, 9761.106
647.9729, 9814.107
648.4550, 9883.778
648.9371, 9930.457
649.4193, 9934.242
649.9014, 9921.826
650.3835, 9913.634
650.8656, 9910.372
651.3477, 9918.583
651.8298, 9944.937
652.3120, 9976.653
652.7941, 10013.34
653.2762, 10049.25
653.7583, 10076.14
654.2404, 10093.27
654.7225, 10105.52
655.2047, 10115.46
655.6868, 10125.32
656.1689, 10144.00
656.6510, 10173.64
657.1331, 10198.18
657.6152, 10210.05
658.0974, 10221.83
658.5795, 10247.40
659.0616, 10283.31
659.5437, 10313.71
660.0258, 10336.09
660.5079, 10354.30
660.9901, 10366.96
661.4722, 10377.82
661.9543, 10392.67
662.4364, 10410.33
662.9185, 10421.02
663.4006, 10414.54
663.8828, 10407.94
664.3649, 10448.83
664.8470, 10539.56
665.3291, 10598.24
665.8112, 10607.08
666.2933, 10594.29
666.7755, 10571.45
667.2576, 10543.84
667.7397, 10533.42
668.2218, 10550.08
668.7039, 10567.61
669.1860, 10583.58
669.6682, 10596.43
670.1503, 10606.19
670.6324, 10611.80
671.1145, 10609.18
671.5966, 10595.21
672.0787, 10580.44
672.5609, 10583.61
673.0430, 10601.20
673.5251, 10608.72
674.0072, 10604.02
674.4893, 10586.84
674.9714, 10551.40
675.4536, 10507.63
675.9357, 10481.80
676.4178, 10479.24
676.8999, 10483.27
677.3820, 10497.08
677.8641, 10513.79
678.3463, 10543.69
678.8284, 10569.38
679.3105, 10556.63
679.7926, 10494.67
680.2747, 10429.08
680.7568, 10415.14
681.2390, 10426.67
681.7211, 10391.47
682.2032, 10310.14
682.6853, 10246.58
683.1674, 10230.18
683.6495, 10238.79
684.1317, 10238.79
684.6138, 10228.46
685.0959, 10218.68
