##NAMES=Tsepinite-Ca
##RRUFFID=R060833
##IDEAL CHEMISTRY=(Ca,K,Na)_2-x_(Ti^4+^,Nb^5+^)_2_Si_4_O_12_(OH,O)_2_&#183;4H_2_O
##LOCALITY=Hackmann Valley, Yukspor Mountain, Khibiny, Kola, Russia
##OWNER=RRUFF
##SOURCE=Michael Scott
##DESCRIPTION=Groups of tan colored parallel prismatic crystals associated with eudialyte and arfvedsonite
##STATUS=The identification of this mineral has been confirmed by single-crystal X-ray diffraction.
##URL=rruff.info/R060833
178.4128, 39575.13
178.8949, 39768.52
179.3770, 39899.11
179.8591, 39998.93
180.3412, 40113.73
180.8233, 40244.43
181.3055, 40391.52
181.7876, 40564.78
182.2697, 40757.20
182.7518, 40952.39
183.2339, 41156.81
183.7160, 41356.51
184.1982, 41500.21
184.6803, 41580.51
185.1624, 41654.95
185.6445, 41809.32
186.1266, 42026.97
186.6087, 42216.19
187.0908, 42305.50
187.5730, 42326.30
188.0551, 42404.22
188.5372, 42552.36
189.0193, 42722.95
189.5014, 42855.88
189.9835, 42953.39
190.4657, 43035.79
190.9478, 43098.04
191.4299, 43147.58
191.9120, 43241.73
192.3941, 43396.96
192.8762, 43569.76
193.3584, 43681.99
193.8405, 43731.87
194.3226, 43765.48
194.8047, 43786.22
195.2868, 43797.38
195.7689, 43885.40
196.2511, 44080.04
196.7332, 44331.33
197.2153, 44520.34
197.6974, 44642.62
198.1795, 44745.52
198.6616, 44853.76
199.1438, 44968.50
199.6259, 45096.29
200.1080, 45246.37
200.5901, 45406.22
201.0722, 45526.76
201.5543, 45599.82
202.0364, 45666.13
202.5186, 45747.49
203.0007, 45840.50
203.4828, 45967.86
203.9649, 46134.80
204.4470, 46337.08
204.9291, 46562.25
205.4113, 46822.70
205.8934, 47070.72
206.3755, 47259.79
206.8576, 47376.36
207.3397, 47495.75
207.8218, 47636.06
208.3040, 47792.78
208.7861, 47924.63
209.2682, 48028.10
209.7503, 48114.59
210.2324, 48187.67
210.7145, 48237.74
211.1967, 48316.34
211.6788, 48446.39
212.1609, 48626.73
212.6430, 48776.12
213.1251, 48882.70
213.6072, 48977.23
214.0894, 49091.66
214.5715, 49229.96
215.0536, 49378.59
215.5357, 49538.70
216.0178, 49711.59
216.4999, 49853.57
216.9820, 49946.30
217.4642, 50023.04
217.9463, 50121.14
218.4284, 50235.23
218.9105, 50377.65
219.3926, 50574.57
219.8747, 50840.36
220.3569, 50993.55
220.8390, 50983.76
221.3211, 50908.35
221.8032, 50895.94
222.2853, 50970.61
222.7674, 51063.46
223.2496, 51161.39
223.7317, 51271.72
224.2138, 51359.32
224.6959, 51419.53
225.1780, 51463.79
225.6601, 51511.61
226.1423, 51570.52
226.6244, 51618.55
227.1065, 51642.31
227.5886, 51629.00
228.0707, 51644.79
228.5528, 51709.63
229.0350, 51789.81
229.5171, 51824.43
229.9992, 51785.71
230.4813, 51746.40
230.9634, 51729.14
231.4455, 51735.83
231.9276, 51761.34
232.4098, 51831.14
232.8919, 51907.42
233.3740, 51910.42
233.8561, 51794.13
234.3382, 51680.78
234.8203, 51617.75
235.3025, 51632.54
235.7846, 51621.75
236.2667, 51576.73
236.7488, 51510.73
237.2309, 51452.09
237.7130, 51409.78
238.1952, 51363.42
238.6773, 51303.77
239.1594, 51222.39
239.6415, 51152.32
240.1236, 51095.56
240.6057, 51049.70
241.0879, 51008.84
241.5700, 50977.16
242.0521, 50945.27
242.5342, 50908.74
243.0163, 50863.59
243.4984, 50820.63
243.9806, 50772.44
244.4627, 50726.72
244.9448, 50707.20
245.4269, 50738.53
245.9090, 50754.79
246.3911, 50725.20
246.8732, 50627.24
247.3554, 50531.20
247.8375, 50431.64
248.3196, 50333.75
248.8017, 50254.84
249.2838, 50213.68
249.7659, 50163.97
250.2481, 50083.70
250.7302, 49956.23
251.2123, 49844.30
251.6944, 49753.32
252.1765, 49680.14
252.6586, 49614.04
253.1408, 49561.83
253.6229, 49511.33
254.1050, 49459.37
254.5871, 49413.02
255.0692, 49351.20
255.5513, 49262.08
256.0334, 49163.42
256.5156, 49097.64
256.9977, 49077.20
257.4798, 49066.74
257.9619, 49046.25
258.4440, 48999.14
258.9261, 48986.87
259.4083, 49023.21
259.8904, 49085.32
260.3725, 49114.27
260.8546, 49086.18
261.3367, 49068.14
261.8188, 49095.61
262.3010, 49190.10
262.7831, 49256.92
263.2652, 49290.23
263.7473, 49297.68
264.2294, 49298.13
264.7115, 49293.40
265.1937, 49276.55
265.6758, 49240.86
266.1579, 49180.51
266.6400, 49130.32
267.1221, 49096.86
267.6042, 49070.55
268.0864, 49027.04
268.5685, 48955.20
269.0506, 48898.28
269.5327, 48884.33
270.0148, 48927.53
270.4969, 48940.26
270.9791, 48909.39
271.4612, 48863.35
271.9433, 48868.24
272.4254, 48943.97
272.9075, 49001.98
273.3896, 48984.63
273.8718, 48875.78
274.3539, 48838.41
274.8360, 48893.52
275.3181, 48991.45
275.8002, 49042.89
276.2823, 49039.59
276.7645, 49027.23
277.2466, 49019.86
277.7287, 49016.45
278.2108, 49029.14
278.6929, 49060.65
279.1750, 49101.04
279.6572, 49137.59
280.1393, 49170.27
280.6214, 49193.05
281.1035, 49194.71
281.5856, 49176.07
282.0677, 49188.90
282.5499, 49245.63
283.0320, 49302.44
283.5141, 49283.71
283.9962, 49186.30
284.4783, 49098.58
284.9604, 49064.89
285.4425, 49077.98
285.9247, 49069.60
286.4068, 49036.38
286.8889, 48997.52
287.3710, 48975.23
287.8531, 48969.52
288.3352, 48975.51
288.8174, 49006.57
289.2995, 49049.88
289.7816, 49044.28
290.2637, 48984.82
290.7458, 48905.81
291.2279, 48832.85
291.7101, 48768.14
292.1922, 48730.36
292.6743, 48745.04
293.1564, 48786.97
293.6385, 48786.79
294.1206, 48742.53
294.6028, 48684.39
295.0849, 48637.00
295.5670, 48600.20
296.0491, 48572.22
296.5312, 48562.83
297.0133, 48559.02
297.4955, 48516.63
297.9776, 48438.19
298.4597, 48394.20
298.9418, 48494.61
299.4239, 48679.76
299.9060, 48799.45
300.3882, 48763.45
300.8703, 48675.84
301.3524, 48695.41
301.8345, 48811.32
302.3166, 48922.97
302.7987, 48929.43
303.2809, 48882.34
303.7630, 48876.68
304.2451, 48969.07
304.7272, 49068.95
305.2093, 49059.17
305.6914, 48957.29
306.1736, 48865.88
306.6557, 48876.85
307.1378, 48926.88
307.6199, 48936.54
308.1020, 48881.85
308.5841, 48796.50
309.0663, 48709.46
309.5484, 48615.94
310.0305, 48501.60
310.5126, 48339.13
310.9947, 48162.22
311.4768, 48003.55
311.9590, 47873.60
312.4411, 47753.59
312.9232, 47640.30
313.4053, 47529.48
313.8874, 47413.64
314.3695, 47289.64
314.8517, 47156.95
315.3337, 47012.29
315.8159, 46850.46
316.2980, 46692.78
316.7801, 46554.38
317.2622, 46424.98
317.7443, 46284.99
318.2264, 46111.80
318.7086, 45941.83
319.1907, 45789.93
319.6728, 45656.78
320.1549, 45548.36
320.6370, 45481.81
321.1191, 45436.76
321.6013, 45386.88
322.0834, 45335.36
322.5655, 45268.60
323.0476, 45172.61
323.5297, 45040.31
324.0118, 44925.79
324.4940, 44835.79
324.9761, 44766.74
325.4582, 44715.30
325.9403, 44712.77
326.4224, 44693.98
326.9045, 44643.68
327.3867, 44560.38
327.8688, 44470.06
328.3509, 44353.83
328.8330, 44242.51
329.3151, 44155.88
329.7972, 44083.11
330.2794, 44051.36
330.7615, 44084.43
331.2436, 44172.29
331.7257, 44227.66
332.2078, 44264.05
332.6899, 44255.45
333.1721, 44177.81
333.6542, 43980.80
334.1363, 43820.77
334.6184, 43710.46
335.1005, 43643.01
335.5826, 43596.84
336.0648, 43587.62
336.5469, 43571.09
337.0290, 43518.33
337.5111, 43412.12
337.9932, 43330.74
338.4753, 43277.04
338.9575, 43246.04
339.4396, 43231.48
339.9217, 43235.99
340.4038, 43243.14
340.8859, 43254.13
341.3680, 43270.32
341.8502, 43240.37
342.3323, 43150.17
342.8144, 43049.13
343.2965, 43016.63
343.7786, 43055.29
344.2607, 43094.00
344.7429, 43111.99
345.2250, 43111.13
345.7071, 43090.82
346.1892, 43048.25
346.6713, 43008.74
347.1534, 42993.03
347.6355, 43000.95
348.1176, 43032.15
348.5998, 43095.44
349.0819, 43174.51
349.5640, 43236.02
350.0461, 43279.73
350.5282, 43317.28
351.0103, 43363.82
351.4925, 43409.81
351.9746, 43434.07
352.4567, 43421.14
352.9388, 43397.66
353.4209, 43398.21
353.9030, 43418.01
354.3852, 43435.02
354.8673, 43437.78
355.3494, 43430.59
355.8315, 43419.22
356.3136, 43407.13
356.7957, 43389.32
357.2779, 43361.71
357.7600, 43326.80
358.2421, 43289.40
358.7242, 43232.51
359.2063, 43187.05
359.6884, 43183.32
360.1706, 43232.37
360.6527, 43273.64
361.1348, 43259.18
361.6169, 43223.92
362.0990, 43215.19
362.5811, 43286.79
363.0633, 43351.04
363.5454, 43358.96
364.0275, 43305.72
364.5096, 43280.03
364.9917, 43339.06
365.4738, 43416.73
365.9560, 43459.36
366.4381, 43426.16
366.9202, 43392.92
367.4023, 43365.42
367.8844, 43345.95
368.3665, 43348.74
368.8487, 43408.71
369.3308, 43466.93
369.8129, 43492.27
370.2950, 43439.01
370.7771, 43423.64
371.2592, 43461.30
371.7414, 43535.84
372.2235, 43607.51
372.7056, 43680.73
373.1877, 43742.53
373.6698, 43779.38
374.1519, 43775.00
374.6341, 43812.74
375.1162, 43911.82
375.5983, 44029.35
376.0804, 44095.23
376.5625, 44094.22
377.0446, 44098.00
377.5267, 44139.02
378.0089, 44212.63
378.4910, 44232.18
378.9731, 44186.41
379.4552, 44130.33
379.9373, 44125.95
380.4194, 44172.49
380.9016, 44213.92
381.3837, 44236.73
381.8658, 44249.51
382.3479, 44272.14
382.8300, 44305.13
383.3121, 44344.09
383.7943, 44387.35
384.2764, 44433.50
384.7585, 44475.65
385.2406, 44505.57
385.7227, 44544.91
386.2048, 44644.59
386.6870, 44781.84
387.1691, 44881.47
387.6512, 44849.27
388.1333, 44775.48
388.6154, 44774.87
389.0975, 44863.52
389.5797, 44970.08
390.0618, 45050.06
390.5439, 45110.11
391.0260, 45158.77
391.5081, 45207.78
391.9902, 45241.64
392.4724, 45241.36
392.9545, 45210.30
393.4366, 45194.47
393.9187, 45243.28
394.4008, 45302.59
394.8829, 45329.50
395.3651, 45268.18
395.8472, 45225.29
396.3293, 45233.69
396.8114, 45282.86
397.2935, 45334.14
397.7756, 45386.76
398.2578, 45433.90
398.7399, 45471.88
399.2220, 45494.54
399.7041, 45516.30
400.1862, 45533.98
400.6683, 45550.73
401.1505, 45572.36
401.6326, 45605.18
402.1147, 45633.93
402.5968, 45652.61
403.0789, 45660.01
403.5610, 45681.74
404.0432, 45730.62
404.5253, 45777.38
405.0074, 45785.53
405.4895, 45739.48
405.9716, 45721.15
406.4537, 45750.23
406.9359, 45815.43
407.4180, 45873.73
407.9001, 45922.82
408.3822, 45978.36
408.8643, 46063.77
409.3464, 46173.11
409.8285, 46243.54
410.3106, 46259.35
410.7928, 46257.80
411.2749, 46295.20
411.7570, 46367.48
412.2391, 46445.68
412.7212, 46513.22
413.2033, 46578.57
413.6855, 46657.73
414.1676, 46750.80
414.6497, 46849.55
415.1318, 46948.70
415.6139, 47046.97
416.0960, 47141.18
416.5782, 47247.07
417.0603, 47332.41
417.5424, 47339.52
418.0245, 47288.57
418.5066, 47282.44
418.9887, 47417.79
419.4709, 47591.72
419.9530, 47730.22
420.4351, 47816.27
420.9172, 47870.20
421.3993, 47870.41
421.8814, 47846.93
422.3636, 47854.50
422.8457, 47928.91
423.3278, 48016.47
423.8099, 48104.17
424.2920, 48195.75
424.7741, 48271.64
425.2563, 48316.43
425.7384, 48355.27
426.2205, 48407.28
426.7026, 48465.71
427.1847, 48549.18
427.6668, 48667.96
428.1490, 48814.62
428.6311, 48948.02
429.1132, 49066.01
429.5953, 49175.60
430.0774, 49276.05
430.5595, 49363.76
431.0417, 49465.18
431.5238, 49586.60
432.0059, 49712.17
432.4880, 49807.78
432.9701, 49872.10
433.4522, 49949.72
433.9344, 50079.47
434.4165, 50237.95
434.8986, 50325.25
435.3807, 50337.03
435.8628, 50353.29
436.3449, 50463.23
436.8271, 50637.40
437.3092, 50801.28
437.7913, 50939.01
438.2734, 51050.89
438.7555, 51123.82
439.2376, 51166.20
439.7197, 51210.31
440.2018, 51263.24
440.6840, 51332.17
441.1661, 51432.96
441.6482, 51576.28
442.1303, 51702.99
442.6124, 51767.59
443.0945, 51800.25
443.5767, 51841.89
444.0588, 51919.11
444.5409, 51994.15
445.0230, 52051.38
445.5051, 52091.47
445.9872, 52137.40
446.4694, 52208.87
446.9515, 52277.65
447.4336, 52326.64
447.9157, 52335.18
448.3978, 52354.42
448.8799, 52378.93
449.3621, 52416.55
449.8442, 52487.39
450.3263, 52604.96
450.8084, 52728.40
451.2905, 52845.97
451.7726, 52956.46
452.2548, 53052.92
452.7369, 53129.46
453.2190, 53203.31
453.7011, 53294.45
454.1832, 53402.43
454.6653, 53516.11
455.1475, 53635.40
455.6296, 53757.40
456.1117, 53885.21
456.5938, 54016.92
457.0759, 54133.99
457.5580, 54211.09
458.0402, 54266.27
458.5223, 54342.23
459.0044, 54449.95
459.4865, 54549.94
459.9686, 54598.15
460.4507, 54613.21
460.9329, 54631.84
461.4150, 54676.02
461.8971, 54724.08
462.3792, 54778.42
462.8613, 54833.02
463.3434, 54841.37
463.8256, 54712.16
464.3077, 54571.74
464.7898, 54516.11
465.2719, 54643.14
465.7540, 54726.73
466.2361, 54699.07
466.7183, 54601.14
467.2004, 54516.21
467.6825, 54462.79
468.1646, 54408.89
468.6467, 54341.63
469.1288, 54256.96
469.6110, 54192.41
470.0930, 54153.36
470.5752, 54124.80
471.0573, 54096.65
471.5394, 54072.28
472.0215, 54029.32
472.5036, 53956.91
472.9857, 53869.39
473.4679, 53808.64
473.9500, 53777.48
474.4321, 53744.64
474.9142, 53689.43
475.3963, 53618.96
475.8784, 53562.23
476.3606, 53522.09
476.8427, 53490.32
477.3248, 53473.93
477.8069, 53461.46
478.2890, 53420.36
478.7711, 53310.56
479.2533, 53204.54
479.7354, 53180.72
480.2175, 53225.53
480.6996, 53282.99
481.1817, 53325.46
481.6638, 53364.62
482.1460, 53405.96
482.6281, 53445.54
483.1102, 53496.02
483.5923, 53574.76
484.0744, 53658.50
484.5565, 53719.73
485.0387, 53719.36
485.5208, 53726.81
486.0029, 53760.84
486.4850, 53817.47
486.9671, 53863.87
487.4492, 53905.60
487.9314, 53931.16
488.4135, 53932.63
488.8956, 53902.48
489.3777, 53877.74
489.8598, 53859.68
490.3419, 53850.70
490.8241, 53849.98
491.3062, 53857.18
491.7883, 53891.93
492.2704, 53972.30
492.7525, 54082.86
493.2346, 54173.35
493.7168, 54242.07
494.1989, 54300.34
494.6810, 54344.01
495.1631, 54383.03
495.6452, 54444.16
496.1273, 54534.71
496.6095, 54631.90
497.0916, 54706.53
497.5737, 54769.71
498.0558, 54844.49
498.5379, 54930.09
499.0201, 55039.73
499.5022, 55194.22
499.9843, 55392.07
500.4664, 55578.40
500.9485, 55711.01
501.4306, 55839.71
501.9127, 55996.84
502.3948, 56212.74
502.8770, 56417.57
503.3591, 56588.77
503.8412, 56748.20
504.3233, 56936.07
504.8054, 57162.07
505.2875, 57397.16
505.7697, 57638.52
506.2518, 57886.46
506.7339, 58117.41
507.2160, 58332.54
507.6981, 58524.56
508.1802, 58669.50
508.6624, 58769.10
509.1445, 58923.32
509.6266, 59156.73
510.1087, 59418.58
510.5908, 59633.60
511.0729, 59808.00
511.5551, 59970.02
512.0372, 60125.58
512.5193, 60281.96
513.0014, 60454.70
513.4835, 60642.34
513.9656, 60815.54
514.4478, 60948.16
514.9299, 61059.58
515.4120, 61167.87
515.8941, 61276.35
516.3762, 61380.19
516.8583, 61483.74
517.3405, 61577.88
517.8226, 61647.61
518.3047, 61662.18
518.7868, 61678.51
519.2689, 61724.71
519.7510, 61800.40
520.2332, 61827.15
520.7153, 61781.68
521.1974, 61714.96
521.6795, 61658.90
522.1616, 61622.35
522.6437, 61566.06
523.1259, 61487.54
523.6080, 61393.20
524.0901, 61289.63
524.5722, 61175.79
525.0543, 61067.03
525.5364, 60967.87
526.0186, 60875.35
526.5007, 60791.51
526.9828, 60714.90
527.4649, 60614.54
527.9470, 60453.81
528.4291, 60259.79
528.9113, 60061.00
529.3934, 59858.52
529.8755, 59674.40
530.3576, 59526.73
530.8397, 59407.59
531.3218, 59302.57
531.8040, 59244.34
532.2861, 59163.68
532.7682, 59024.83
533.2503, 58835.84
533.7324, 58659.68
534.2145, 58497.35
534.6967, 58357.94
535.1788, 58248.62
535.6609, 58187.23
536.1430, 58105.74
536.6251, 57995.10
537.1072, 57877.54
537.5894, 57776.50
538.0715, 57689.73
538.5536, 57638.66
539.0357, 57643.26
539.5178, 57674.17
539.9999, 57643.02
540.4821, 57550.43
540.9642, 57458.73
541.4463, 57405.09
541.9284, 57376.48
542.4105, 57339.04
542.8926, 57289.34
543.3748, 57257.65
543.8569, 57298.02
544.3390, 57362.34
544.8211, 57385.88
545.3032, 57337.25
545.7853, 57263.37
546.2675, 57175.82
546.7495, 57080.66
547.2316, 56991.75
547.7137, 56893.70
548.1959, 56822.36
548.6780, 56803.14
549.1601, 56845.72
549.6422, 56855.31
550.1243, 56821.49
550.6064, 56766.85
551.0886, 56700.60
551.5707, 56611.37
552.0528, 56553.13
552.5349, 56535.05
553.0170, 56541.56
553.4991, 56556.85
553.9813, 56580.70
554.4634, 56577.15
554.9455, 56514.26
555.4276, 56425.64
555.9097, 56402.18
556.3918, 56436.48
556.8740, 56457.07
557.3561, 56386.21
557.8382, 56287.25
558.3203, 56242.51
558.8024, 56273.06
559.2845, 56308.16
559.7667, 56299.82
560.2488, 56276.45
560.7309, 56271.55
561.2130, 56326.73
561.6951, 56364.52
562.1772, 56347.05
562.6594, 56292.58
563.1415, 56280.97
563.6236, 56366.89
564.1057, 56421.16
564.5878, 56375.73
565.0699, 56215.18
565.5521, 56161.93
566.0342, 56247.66
566.5163, 56364.58
566.9984, 56414.51
567.4805, 56399.70
567.9626, 56377.91
568.4448, 56358.00
568.9269, 56333.20
569.4090, 56286.02
569.8911, 56223.95
570.3732, 56170.46
570.8553, 56131.06
571.3375, 56109.75
571.8196, 56118.46
572.3017, 56153.38
572.7838, 56188.93
573.2659, 56231.26
573.7480, 56256.52
574.2302, 56245.77
574.7123, 56184.89
575.1944, 56120.40
575.6765, 56037.23
576.1586, 55966.38
576.6407, 55943.81
577.1229, 56011.59
577.6050, 56052.72
578.0871, 56051.53
578.5692, 56016.13
579.0513, 55963.88
579.5334, 55891.36
580.0156, 55823.92
580.4977, 55753.77
580.9798, 55695.84
581.4619, 55751.86
581.9440, 55924.88
582.4261, 56075.33
582.9083, 56031.65
583.3904, 55892.92
583.8725, 55840.41
584.3546, 55933.38
584.8367, 56027.55
585.3188, 55998.97
585.8010, 55910.05
586.2831, 55857.79
586.7652, 55907.73
587.2473, 55963.99
587.7294, 56008.75
588.2115, 56038.45
588.6937, 56032.37
589.1758, 55943.86
589.6579, 55875.59
590.1400, 55872.62
590.6221, 55945.86
591.1042, 56005.61
591.5864, 56052.11
592.0685, 56084.30
592.5506, 56093.30
593.0327, 56081.21
593.5148, 56084.28
593.9969, 56109.49
594.4791, 56149.51
594.9612, 56207.57
595.4433, 56273.91
595.9254, 56318.16
596.4075, 56306.81
596.8896, 56282.68
597.3718, 56295.53
597.8539, 56334.70
598.3360, 56343.41
598.8181, 56221.44
599.3002, 56119.38
599.7823, 56146.39
600.2645, 56368.25
600.7466, 56506.14
601.2287, 56468.13
601.7108, 56390.92
602.1929, 56384.64
602.6750, 56464.05
603.1572, 56583.27
603.6393, 56764.96
604.1214, 56955.79
604.6035, 57037.03
605.0856, 57005.92
605.5677, 56985.88
606.0499, 57036.56
606.5320, 57121.77
607.0141, 57155.33
607.4962, 57144.18
607.9783, 57142.57
608.4604, 57210.48
608.9425, 57292.71
609.4246, 57324.95
609.9067, 57293.16
610.3889, 57265.92
610.8710, 57263.07
611.3531, 57284.82
611.8352, 57331.31
612.3173, 57466.36
612.7994, 57544.10
613.2816, 57528.98
613.7637, 57465.04
614.2458, 57433.89
614.7279, 57442.20
615.2100, 57470.61
615.6921, 57524.34
616.1743, 57593.49
616.6564, 57624.05
617.1385, 57614.93
617.6206, 57606.14
618.1027, 57615.05
618.5848, 57644.56
619.0670, 57715.89
619.5491, 57831.89
620.0312, 57927.87
620.5133, 57923.02
620.9954, 57883.14
621.4775, 57888.54
621.9597, 57990.41
622.4418, 58077.40
622.9239, 58083.42
623.4060, 58056.76
623.8881, 58075.59
624.3702, 58171.32
624.8524, 58284.80
625.3345, 58429.30
625.8166, 58586.87
626.2987, 58658.17
626.7808, 58622.83
627.2629, 58575.96
627.7451, 58564.40
628.2272, 58583.32
628.7093, 58596.01
629.1914, 58602.45
629.6735, 58612.61
630.1556, 58651.39
630.6378, 58696.09
631.1199, 58697.54
631.6020, 58632.81
632.0841, 58585.67
632.5662, 58619.36
633.0483, 58702.85
633.5305, 58796.36
634.0126, 58903.25
634.4947, 59000.26
634.9768, 59085.34
635.4589, 59156.53
635.9410, 59205.57
636.4232, 59217.39
636.9053, 59232.19
637.3874, 59259.65
637.8695, 59299.21
638.3516, 59347.78
638.8337, 59402.62
639.3159, 59481.96
639.7980, 59623.99
640.2801, 59802.64
640.7622, 59926.62
641.2443, 59988.00
641.7264, 60032.25
642.2086, 60094.40
642.6907, 60167.78
643.1728, 60240.65
643.6549, 60301.32
644.1370, 60381.91
644.6191, 60507.93
645.1013, 60661.93
645.5834, 60814.44
646.0655, 60961.21
646.5476, 61105.98
647.0297, 61245.30
647.5118, 61381.19
647.9940, 61515.61
648.4761, 61642.16
648.9582, 61784.30
649.4403, 61971.93
649.9224, 62186.15
650.4045, 62327.16
650.8867, 62393.47
651.3688, 62444.08
651.8509, 62521.53
652.3330, 62617.21
652.8151, 62721.59
653.2972, 62835.88
653.7794, 62941.88
654.2615, 63037.43
654.7436, 63115.63
655.2257, 63168.71
655.7078, 63142.54
656.1899, 63158.62
656.6721, 63266.29
657.1542, 63418.67
657.6363, 63530.96
658.1184, 63588.24
658.6005, 63642.85
659.0826, 63710.53
659.5648, 63782.66
660.0469, 63828.26
660.5290, 63846.84
661.0111, 63847.10
661.4932, 63794.59
661.9753, 63741.27
662.4575, 63813.15
662.9396, 64007.33
663.4217, 64187.05
663.9038, 64248.15
664.3859, 64263.13
664.8680, 64296.82
665.3502, 64369.93
665.8323, 64430.86
666.3144, 64445.38
666.7965, 64452.80
667.2786, 64491.81
667.7607, 64576.83
668.2429, 64656.89
668.7250, 64722.29
669.2071, 64779.77
669.6892, 64847.43
670.1713, 64923.68
670.6534, 64984.31
671.1355, 65023.91
671.6176, 65038.39
672.0997, 65005.00
672.5818, 64936.28
673.0640, 64882.61
673.5461, 64893.48
