##NAMES=Tsepinite-Ca
##RRUFFID=R060833
##IDEAL CHEMISTRY=(Ca,K,Na)_2-x_(Ti^4+^,Nb^5+^)_2_Si_4_O_12_(OH,O)_2_&#183;4H_2_O
##LOCALITY=Hackmann Valley, Yukspor Mountain, Khibiny, Kola, Russia
##OWNER=RRUFF
##SOURCE=Michael Scott
##DESCRIPTION=Groups of tan colored parallel prismatic crystals associated with eudialyte and arfvedsonite
##STATUS=The identification of this mineral has been confirmed by single-crystal X-ray diffraction.
##URL=rruff.info/R060833
172.1497, 14217.43
172.6318, 14254.69
173.1139, 14265.37
173.5960, 14240.96
174.0781, 14213.28
174.5603, 14220.83
175.0424, 14261.83
175.5245, 14301.78
176.0066, 14333.63
176.4887, 14360.70
176.9708, 14386.02
177.4530, 14409.46
177.9351, 14434.43
178.4172, 14464.69
178.8993, 14499.80
179.3814, 14538.45
179.8635, 14580.70
180.3457, 14625.91
180.8278, 14671.72
181.3099, 14715.91
181.7920, 14766.49
182.2741, 14834.36
182.7562, 14916.81
183.2384, 15004.87
183.7205, 15100.58
184.2026, 15198.75
184.6847, 15295.61
185.1668, 15393.21
185.6489, 15477.69
186.1311, 15517.54
186.6132, 15522.50
187.0953, 15549.11
187.5774, 15629.02
188.0595, 15738.06
188.5416, 15839.50
189.0238, 15932.34
189.5059, 16007.37
189.9880, 16042.32
190.4701, 16046.78
190.9522, 16061.30
191.4343, 16099.45
191.9165, 16155.72
192.3986, 16223.95
192.8807, 16307.19
193.3628, 16392.03
193.8449, 16467.64
194.3270, 16535.78
194.8092, 16597.14
195.2913, 16644.95
195.7734, 16688.50
196.2555, 16746.45
196.7376, 16825.06
197.2197, 16903.06
197.7019, 16958.08
198.1840, 16996.71
198.6661, 17036.05
199.1482, 17074.41
199.6303, 17119.04
200.1124, 17184.72
200.5946, 17276.95
201.0767, 17373.61
201.5588, 17456.63
202.0409, 17529.42
202.5230, 17600.41
203.0051, 17679.39
203.4873, 17754.77
203.9694, 17806.01
204.4515, 17827.87
204.9336, 17842.86
205.4157, 17857.42
205.8978, 17876.91
206.3800, 17920.04
206.8621, 18019.71
207.3442, 18133.54
207.8263, 18194.10
208.3084, 18190.19
208.7905, 18191.78
209.2727, 18259.98
209.7548, 18372.21
210.2369, 18476.11
210.7190, 18555.14
211.2011, 18623.15
211.6832, 18696.19
212.1654, 18775.00
212.6475, 18849.82
213.1296, 18907.78
213.6117, 18957.39
214.0938, 19018.36
214.5759, 19098.65
215.0581, 19188.39
215.5402, 19281.67
216.0223, 19378.69
216.5044, 19471.97
216.9865, 19559.67
217.4686, 19639.89
217.9508, 19709.97
218.4329, 19764.59
218.9150, 19813.81
219.3971, 19861.55
219.8792, 19908.60
220.3613, 19968.30
220.8435, 20061.96
221.3256, 20167.33
221.8077, 20233.39
222.2898, 20236.16
222.7719, 20228.04
223.2540, 20251.10
223.7362, 20299.88
224.2183, 20335.46
224.7004, 20334.08
225.1825, 20310.96
225.6646, 20302.94
226.1467, 20314.04
226.6289, 20331.99
227.1110, 20352.76
227.5931, 20375.19
228.0752, 20392.64
228.5573, 20396.30
229.0394, 20400.46
229.5216, 20440.46
230.0037, 20543.79
230.4858, 20614.28
230.9679, 20578.53
231.4500, 20475.89
231.9321, 20410.98
232.4143, 20428.71
232.8964, 20480.50
233.3785, 20475.50
233.8606, 20402.00
234.3427, 20331.67
234.8248, 20286.62
235.3070, 20259.57
235.7891, 20241.91
236.2712, 20233.76
236.7533, 20224.25
237.2354, 20195.05
237.7175, 20144.15
238.1997, 20089.91
238.6818, 20029.78
239.1639, 19970.18
239.6460, 19923.44
240.1281, 19892.89
240.6102, 19861.04
241.0924, 19806.63
241.5745, 19726.22
242.0566, 19638.13
242.5387, 19527.79
243.0208, 19420.00
243.5029, 19341.57
243.9851, 19295.04
244.4672, 19258.72
244.9493, 19214.35
245.4314, 19161.31
245.9135, 19096.64
246.3956, 19011.79
246.8778, 18922.42
247.3599, 18834.52
247.8420, 18750.44
248.3241, 18678.98
248.8062, 18628.90
249.2883, 18601.00
249.7705, 18565.13
250.2526, 18511.25
250.7347, 18459.66
251.2168, 18421.40
251.6989, 18393.25
252.1810, 18365.86
252.6632, 18333.60
253.1453, 18296.42
253.6274, 18254.32
254.1095, 18207.57
254.5916, 18156.05
255.0737, 18085.10
255.5559, 18011.21
256.0380, 17964.83
256.5201, 17963.31
257.0022, 17993.75
257.4843, 18010.00
257.9665, 18024.91
258.4486, 18008.16
258.9307, 17929.30
259.4128, 17828.26
259.8949, 17754.29
260.3770, 17726.09
260.8592, 17719.02
261.3413, 17679.09
261.8234, 17558.87
262.3055, 17480.95
262.7876, 17474.27
263.2697, 17490.12
263.7519, 17494.68
264.2340, 17478.12
264.7161, 17444.91
265.1982, 17399.51
265.6803, 17335.46
266.1624, 17275.08
266.6446, 17209.78
267.1267, 17154.35
267.6088, 17121.04
268.0909, 17107.77
268.5730, 17101.77
269.0551, 17094.05
269.5373, 17086.84
270.0194, 17059.04
270.5015, 16969.33
270.9836, 16895.80
271.4657, 16879.82
271.9478, 16903.67
272.4300, 16918.35
272.9121, 16881.33
273.3942, 16803.16
273.8763, 16764.25
274.3584, 16797.99
274.8405, 16826.22
275.3227, 16820.60
275.8048, 16793.00
276.2869, 16759.79
276.7690, 16725.91
277.2511, 16695.53
277.7332, 16678.63
278.2154, 16676.67
278.6975, 16684.49
279.1796, 16713.42
279.6617, 16745.02
280.1438, 16758.97
280.6259, 16746.93
281.1081, 16725.07
281.5902, 16714.00
282.0723, 16714.97
282.5544, 16710.91
283.0365, 16691.35
283.5186, 16668.44
284.0008, 16654.46
284.4829, 16651.28
284.9650, 16648.79
285.4471, 16642.70
285.9292, 16632.11
286.4113, 16611.48
286.8935, 16577.28
287.3756, 16536.25
287.8577, 16497.99
288.3398, 16462.30
288.8219, 16416.68
289.3040, 16344.15
289.7862, 16262.23
290.2683, 16197.97
290.7504, 16154.97
291.2325, 16131.65
291.7146, 16139.67
292.1967, 16172.55
292.6789, 16183.42
293.1610, 16158.70
293.6431, 16114.47
294.1252, 16055.12
294.6073, 15983.68
295.0894, 15921.73
295.5716, 15883.63
296.0537, 15867.51
296.5358, 15856.13
297.0179, 15853.26
297.5000, 15850.12
297.9821, 15840.08
298.4643, 15826.75
298.9464, 15819.19
299.4285, 15822.25
299.9106, 15831.37
300.3927, 15834.63
300.8748, 15834.50
301.3570, 15824.75
301.8391, 15789.55
302.3212, 15751.21
302.8033, 15742.19
303.2854, 15769.64
303.7675, 15800.48
304.2497, 15783.17
304.7318, 15683.16
305.2139, 15621.81
305.6960, 15626.54
306.1781, 15642.34
306.6602, 15642.98
307.1424, 15623.13
307.6245, 15584.86
308.1066, 15529.24
308.5887, 15455.95
309.0708, 15371.44
309.5529, 15262.96
310.0351, 15155.77
310.5172, 15056.88
310.9993, 14964.40
311.4814, 14875.68
311.9635, 14791.06
312.4456, 14706.85
312.9278, 14606.86
313.4099, 14476.28
313.8920, 14358.77
314.3741, 14272.64
314.8562, 14199.43
315.3383, 14123.69
315.8205, 14041.18
316.3026, 13949.87
316.7847, 13839.76
317.2668, 13706.37
317.7489, 13591.48
318.2310, 13517.59
318.7132, 13454.14
319.1953, 13378.45
319.6774, 13289.77
320.1595, 13198.67
320.6416, 13112.05
321.1237, 13028.70
321.6059, 12943.94
322.0880, 12851.55
322.5701, 12768.05
323.0522, 12713.08
323.5343, 12678.80
324.0164, 12640.84
324.4986, 12599.52
324.9807, 12546.51
325.4628, 12461.89
325.9449, 12345.94
326.4270, 12242.80
326.9091, 12184.13
327.3913, 12158.76
327.8734, 12118.24
328.3555, 12053.07
328.8376, 11984.48
329.3197, 11921.80
329.8018, 11863.03
330.2840, 11802.90
330.7661, 11739.66
331.2482, 11674.10
331.7303, 11607.08
332.2124, 11538.98
332.6945, 11468.88
333.1767, 11391.07
333.6588, 11314.85
334.1409, 11247.84
334.6230, 11191.56
335.1051, 11143.78
335.5872, 11103.28
336.0694, 11073.49
336.5515, 11032.21
337.0336, 10976.04
337.5157, 10913.86
337.9978, 10840.24
338.4799, 10763.12
338.9621, 10698.65
339.4442, 10659.02
339.9263, 10637.20
340.4084, 10600.28
340.8905, 10529.87
341.3727, 10473.00
341.8548, 10441.31
342.3369, 10424.24
342.8190, 10414.02
343.3011, 10408.26
343.7832, 10401.42
344.2654, 10387.42
344.7475, 10366.48
345.2296, 10334.22
345.7117, 10270.46
346.1938, 10212.46
346.6759, 10190.04
347.1581, 10200.11
347.6402, 10212.18
348.1223, 10210.31
348.6044, 10196.19
349.0865, 10170.99
349.5686, 10129.73
350.0508, 10093.43
350.5329, 10085.17
351.0150, 10093.23
351.4971, 10089.49
351.9792, 10061.32
352.4613, 10026.33
352.9435, 10001.00
353.4256, 9982.412
353.9077, 9953.548
354.3898, 9903.278
354.8719, 9842.771
355.3540, 9801.254
355.8362, 9785.666
356.3183, 9769.765
356.8004, 9751.444
357.2825, 9728.284
357.7646, 9693.170
358.2467, 9645.496
358.7289, 9600.082
359.2110, 9575.637
359.6931, 9579.883
360.1752, 9570.283
360.6573, 9539.482
361.1394, 9504.425
361.6216, 9467.837
362.1037, 9433.384
362.5858, 9407.712
363.0679, 9396.058
363.5500, 9394.972
364.0321, 9388.723
364.5143, 9376.382
364.9964, 9359.570
365.4785, 9334.987
365.9606, 9308.474
366.4427, 9285.537
366.9248, 9267.697
367.4070, 9252.419
367.8891, 9232.094
368.3712, 9204.751
368.8533, 9199.885
369.3354, 9240.584
369.8175, 9283.750
370.2997, 9299.815
370.7818, 9292.991
371.2639, 9283.636
371.7460, 9279.352
372.2281, 9280.073
372.7102, 9289.221
373.1924, 9308.821
373.6745, 9321.924
374.1566, 9317.968
374.6387, 9299.869
375.1208, 9276.130
375.6029, 9232.168
376.0851, 9203.904
376.5672, 9226.123
377.0493, 9277.065
377.5314, 9305.697
378.0135, 9293.683
378.4956, 9264.051
378.9778, 9251.985
379.4599, 9268.254
379.9420, 9274.065
380.4241, 9262.219
380.9062, 9245.026
381.3883, 9229.955
381.8705, 9217.839
382.3526, 9206.642
382.8347, 9194.528
383.3168, 9181.954
383.7989, 9174.835
384.2810, 9183.486
384.7632, 9185.595
385.2453, 9165.163
385.7274, 9141.634
386.2095, 9141.060
386.6916, 9172.649
387.1737, 9215.327
387.6559, 9236.357
388.1380, 9231.809
388.6201, 9229.789
389.1022, 9233.726
389.5843, 9241.126
390.0664, 9252.660
390.5486, 9267.026
391.0307, 9278.528
391.5128, 9281.921
391.9949, 9280.701
392.4770, 9280.866
392.9591, 9281.815
393.4413, 9288.644
393.9234, 9307.890
394.4055, 9334.313
394.8876, 9354.771
395.3697, 9366.456
395.8518, 9375.657
396.3340, 9388.673
396.8161, 9400.998
397.2982, 9401.653
397.7803, 9386.730
398.2624, 9365.492
398.7445, 9350.481
399.2267, 9345.021
399.7088, 9334.965
400.1909, 9312.008
400.6730, 9291.768
401.1551, 9286.405
401.6372, 9292.343
402.1194, 9298.195
402.6015, 9297.169
403.0836, 9288.631
403.5657, 9268.455
404.0478, 9222.818
404.5299, 9186.950
405.0121, 9165.861
405.4942, 9155.739
405.9763, 9157.035
406.4584, 9168.776
406.9405, 9180.038
407.4226, 9177.433
407.9048, 9161.563
408.3869, 9148.340
408.8690, 9137.608
409.3511, 9132.060
409.8332, 9134.354
410.3153, 9142.753
410.7975, 9153.256
411.2796, 9165.773
411.7617, 9178.681
412.2438, 9188.141
412.7259, 9195.041
413.2080, 9208.964
413.6902, 9237.364
414.1723, 9270.370
414.6544, 9283.947
415.1365, 9268.759
415.6186, 9264.192
416.1007, 9290.769
416.5829, 9323.310
417.0650, 9332.536
417.5471, 9317.918
418.0292, 9304.229
418.5113, 9313.202
418.9934, 9344.670
419.4756, 9380.443
419.9577, 9426.177
420.4398, 9470.316
420.9219, 9515.015
421.4040, 9555.288
421.8861, 9583.599
422.3683, 9597.452
422.8504, 9604.802
423.3325, 9613.483
423.8146, 9621.314
424.2967, 9647.757
424.7788, 9710.479
425.2610, 9776.398
425.7431, 9826.018
426.2252, 9861.507
426.7073, 9892.288
427.1894, 9923.955
427.6715, 9952.910
428.1537, 9966.062
428.6358, 9963.718
429.1179, 9980.890
429.6000, 10043.24
430.0821, 10127.91
430.5642, 10180.64
431.0464, 10186.40
431.5285, 10201.42
432.0106, 10244.16
432.4927, 10302.18
432.9748, 10368.30
433.4569, 10438.18
433.9391, 10495.68
434.4212, 10521.46
434.9033, 10514.10
435.3854, 10537.07
435.8675, 10617.56
436.3496, 10697.44
436.8318, 10770.16
437.3139, 10832.50
437.7960, 10880.41
438.2781, 10911.98
438.7602, 10936.02
439.2423, 10963.13
439.7245, 10992.87
440.2066, 11029.89
440.6887, 11082.29
441.1708, 11133.59
441.6529, 11171.93
442.1350, 11200.37
442.6172, 11229.16
443.0993, 11266.54
443.5814, 11303.89
444.0635, 11325.54
444.5456, 11333.37
445.0277, 11353.81
445.5099, 11405.84
445.9920, 11467.51
446.4741, 11484.98
446.9562, 11436.17
447.4383, 11411.65
447.9204, 11444.30
448.4026, 11495.37
448.8847, 11527.27
449.3668, 11539.74
449.8489, 11557.94
450.3310, 11603.59
450.8131, 11673.08
451.2953, 11732.06
451.7774, 11772.48
452.2595, 11813.19
452.7416, 11854.55
453.2237, 11899.12
453.7059, 11949.36
454.1880, 12005.78
454.6701, 12068.50
455.1522, 12136.81
455.6343, 12211.03
456.1165, 12296.26
456.5986, 12398.76
457.0807, 12501.43
457.5628, 12588.58
458.0449, 12667.84
458.5270, 12756.38
459.0092, 12867.21
459.4913, 12976.25
459.9734, 13075.14
460.4555, 13158.95
460.9376, 13213.37
461.4197, 13232.19
461.9019, 13230.19
462.3840, 13227.14
462.8661, 13224.59
463.3482, 13214.31
463.8303, 13200.14
464.3124, 13175.56
464.7946, 13142.33
465.2767, 13095.92
465.7588, 13025.70
466.2409, 12924.45
466.7230, 12803.85
467.2051, 12688.53
467.6873, 12578.25
468.1694, 12474.22
468.6515, 12376.70
469.1336, 12286.14
469.6157, 12209.24
470.0978, 12142.53
470.5800, 12064.99
471.0621, 11947.75
471.5442, 11820.85
472.0263, 11738.81
472.5084, 11701.41
472.9905, 11655.75
473.4727, 11572.38
473.9548, 11468.13
474.4369, 11386.33
474.9190, 11335.51
475.4011, 11281.08
475.8832, 11212.60
476.3654, 11140.58
476.8475, 11068.56
477.3296, 11000.58
477.8117, 10947.87
478.2938, 10920.94
478.7759, 10916.30
479.2581, 10908.40
479.7402, 10895.91
480.2223, 10882.17
480.7044, 10871.08
481.1865, 10857.43
481.6686, 10835.24
482.1508, 10803.95
482.6329, 10770.74
483.1150, 10737.00
483.5971, 10705.92
484.0792, 10688.27
484.5613, 10685.24
485.0435, 10694.21
485.5256, 10722.08
486.0077, 10759.55
486.4898, 10778.14
486.9719, 10767.68
487.4540, 10753.58
487.9362, 10741.51
488.4183, 10733.03
488.9004, 10729.20
489.3825, 10730.57
489.8646, 10740.53
490.3467, 10765.31
490.8289, 10805.90
491.3110, 10827.26
491.7931, 10797.60
492.2752, 10785.25
492.7573, 10820.79
493.2394, 10873.06
493.7216, 10901.72
494.2037, 10895.50
494.6858, 10884.92
495.1679, 10899.03
495.6500, 10936.68
496.1321, 10993.90
496.6143, 11079.31
497.0964, 11160.41
497.5785, 11204.72
498.0606, 11226.35
498.5427, 11267.13
499.0248, 11346.81
499.5070, 11426.58
499.9891, 11482.11
500.4712, 11526.56
500.9533, 11578.26
501.4354, 11642.47
501.9175, 11722.63
502.3997, 11826.31
502.8818, 11958.36
503.3639, 12064.54
503.8460, 12110.77
504.3281, 12168.37
504.8102, 12249.71
505.2924, 12354.18
505.7745, 12488.28
506.2566, 12655.19
506.7387, 12819.53
507.2208, 12936.64
507.7029, 13012.07
508.1851, 13096.14
508.6672, 13195.63
509.1493, 13300.92
509.6314, 13404.95
510.1135, 13509.56
510.5956, 13619.02
511.0778, 13740.82
511.5599, 13859.84
512.0420, 13971.97
512.5241, 14075.84
513.0062, 14167.69
513.4883, 14246.88
513.9705, 14319.67
514.4526, 14392.08
514.9347, 14464.45
515.4168, 14533.23
515.8989, 14604.75
516.3810, 14663.88
516.8632, 14703.09
517.3453, 14729.41
517.8274, 14754.85
518.3095, 14782.93
518.7916, 14796.52
519.2737, 14772.18
519.7559, 14717.23
520.2380, 14663.95
520.7201, 14616.54
521.2022, 14567.21
521.6843, 14509.86
522.1664, 14446.08
522.6486, 14384.66
523.1307, 14340.71
523.6128, 14279.03
524.0949, 14173.57
524.5770, 14051.27
525.0591, 13949.82
525.5413, 13873.10
526.0234, 13790.62
526.5055, 13668.05
526.9876, 13509.68
527.4697, 13383.92
527.9518, 13315.30
528.4340, 13241.65
528.9161, 13150.45
529.3982, 13045.25
529.8803, 12922.31
530.3624, 12780.97
530.8445, 12650.12
531.3267, 12560.06
531.8088, 12490.95
532.2909, 12394.85
532.7730, 12268.05
533.2551, 12150.11
533.7372, 12068.32
534.2194, 12009.54
534.7015, 11930.44
535.1836, 11810.91
535.6657, 11704.58
536.1478, 11618.11
536.6299, 11545.44
537.1121, 11489.27
537.5942, 11443.92
538.0763, 11393.29
538.5584, 11324.48
539.0405, 11243.65
539.5226, 11172.34
540.0048, 11115.00
540.4869, 11049.41
540.9690, 10955.38
541.4511, 10863.60
541.9332, 10806.58
542.4153, 10782.18
542.8975, 10748.91
543.3796, 10683.42
543.8617, 10608.96
544.3438, 10543.31
544.8259, 10487.41
545.3080, 10441.38
545.7902, 10405.87
546.2723, 10376.96
546.7544, 10349.65
547.2365, 10332.71
547.7186, 10291.72
548.2007, 10192.60
548.6829, 10106.39
549.1650, 10070.30
549.6471, 10066.89
550.1292, 10063.53
550.6113, 10047.39
551.0934, 10023.28
551.5756, 9996.504
552.0577, 9967.001
552.5398, 9932.623
553.0219, 9892.233
553.5040, 9849.894
553.9861, 9809.184
554.4683, 9769.610
554.9504, 9726.248
555.4325, 9665.019
555.9146, 9616.858
556.3967, 9602.921
556.8788, 9602.647
557.3610, 9590.380
557.8431, 9561.640
558.3252, 9529.977
558.8073, 9510.442
559.2894, 9500.732
559.7715, 9472.162
560.2537, 9406.036
560.7358, 9360.356
561.2179, 9378.875
561.7000, 9413.017
562.1821, 9418.718
562.6642, 9390.988
563.1464, 9352.008
563.6285, 9303.292
564.1106, 9254.582
564.5927, 9218.396
565.0748, 9194.210
565.5569, 9178.078
566.0391, 9169.757
566.5212, 9161.519
567.0033, 9135.125
567.4854, 9080.257
567.9675, 9027.877
568.4496, 8965.738
568.9318, 8917.624
569.4139, 8905.211
569.8960, 8914.786
570.3781, 8916.720
570.8602, 8896.431
571.3423, 8868.090
571.8245, 8848.351
572.3066, 8836.366
572.7887, 8826.699
573.2708, 8819.106
573.7529, 8811.236
574.2350, 8801.324
574.7172, 8789.339
575.1993, 8775.101
575.6814, 8754.565
576.1635, 8736.876
576.6456, 8730.155
577.1277, 8724.346
577.6099, 8703.478
578.0920, 8668.286
578.5741, 8639.745
579.0562, 8641.289
579.5383, 8663.915
580.0204, 8663.229
580.5026, 8633.624
580.9847, 8600.366
581.4668, 8565.803
581.9489, 8536.705
582.4310, 8522.094
582.9131, 8522.639
583.3953, 8523.498
583.8774, 8527.375
584.3595, 8524.048
584.8416, 8499.113
585.3237, 8460.319
585.8058, 8426.441
586.2880, 8405.518
586.7701, 8395.749
587.2522, 8398.378
587.7343, 8419.888
588.2164, 8420.054
588.6985, 8375.528
589.1807, 8339.106
589.6628, 8338.710
590.1449, 8356.729
590.6270, 8367.204
591.1091, 8363.532
591.5912, 8354.792
592.0734, 8346.422
592.5555, 8337.265
593.0376, 8322.200
593.5197, 8301.812
594.0018, 8290.549
594.4839, 8301.462
594.9661, 8323.455
595.4482, 8314.825
595.9303, 8242.008
596.4124, 8195.377
596.8945, 8192.908
597.3766, 8201.449
597.8588, 8203.225
598.3409, 8198.939
598.8230, 8195.673
599.3051, 8196.185
599.7872, 8200.429
600.2693, 8211.813
600.7515, 8227.826
601.2336, 8236.715
601.7157, 8235.700
602.1978, 8227.705
602.6799, 8212.076
603.1620, 8189.585
603.6442, 8184.675
604.1263, 8211.673
604.6084, 8236.360
605.0905, 8257.984
605.5726, 8270.840
606.0547, 8266.212
606.5369, 8245.690
607.0190, 8222.064
607.5011, 8199.570
607.9832, 8184.142
608.4653, 8197.521
608.9474, 8240.577
609.4296, 8268.839
609.9117, 8263.981
610.3938, 8245.424
610.8759, 8237.369
611.3580, 8241.630
611.8401, 8241.169
612.3223, 8222.688
612.8044, 8213.613
613.2865, 8234.652
613.7686, 8268.322
614.2507, 8287.623
614.7328, 8286.619
615.2150, 8284.820
615.6971, 8306.707
616.1792, 8346.935
616.6613, 8374.021
617.1434, 8387.993
617.6255, 8387.098
618.1077, 8361.574
618.5898, 8328.039
619.0719, 8315.420
619.5540, 8326.341
620.0361, 8338.179
620.5182, 8345.297
621.0004, 8354.021
621.4825, 8370.364
621.9646, 8390.855
622.4467, 8408.914
622.9288, 8421.910
623.4109, 8430.880
623.8931, 8435.784
624.3752, 8436.692
624.8573, 8440.952
625.3394, 8449.269
625.8215, 8459.128
626.3036, 8463.959
626.7858, 8472.442
627.2679, 8504.499
627.7500, 8573.627
628.2321, 8620.130
628.7142, 8604.672
629.1964, 8580.227
629.6785, 8589.511
630.1606, 8627.728
630.6427, 8673.516
631.1248, 8717.044
631.6069, 8758.660
632.0891, 8801.269
632.5712, 8845.852
633.0533, 8874.255
633.5354, 8879.496
634.0175, 8880.353
634.4996, 8882.219
634.9818, 8888.427
635.4639, 8906.597
635.9460, 8941.808
636.4281, 8976.272
636.9102, 8995.996
637.3923, 9018.257
637.8745, 9066.714
638.3566, 9133.236
638.8387, 9186.582
639.3208, 9208.709
639.8029, 9220.011
640.2850, 9263.011
640.7672, 9342.218
641.2493, 9406.789
641.7314, 9448.783
642.2135, 9483.820
642.6956, 9519.285
643.1777, 9555.075
643.6599, 9590.890
644.1420, 9625.743
644.6241, 9663.102
645.1062, 9708.309
645.5883, 9753.754
646.0704, 9787.130
646.5526, 9813.398
647.0347, 9852.277
647.5168, 9916.029
647.9989, 9989.451
648.4810, 10039.31
648.9631, 10062.84
649.4453, 10102.36
649.9274, 10172.52
650.4095, 10238.67
650.8916, 10268.33
651.3737, 10278.81
651.8558, 10314.18
652.3380, 10391.21
652.8201, 10463.01
653.3022, 10505.04
653.7843, 10543.51
654.2664, 10611.09
654.7485, 10697.67
655.2307, 10763.16
655.7128, 10784.12
656.1949, 10783.40
656.6770, 10798.44
657.1591, 10829.28
657.6412, 10874.36
658.1234, 10941.42
658.6055, 11002.78
659.0876, 11036.06
659.5697, 11051.38
660.0518, 11082.86
660.5339, 11148.99
661.0161, 11194.19
661.4982, 11174.37
661.9803, 11156.71
662.4624, 11212.73
662.9445, 11316.20
663.4266, 11387.29
663.9088, 11385.78
664.3909, 11351.22
664.8730, 11339.07
665.3551, 11347.39
665.8372, 11354.58
666.3193, 11356.72
666.8015, 11367.56
667.2836, 11400.85
