##NAMES=Tsepinite-Na
##RRUFFID=R070241
##IDEAL CHEMISTRY=(Na,H_3_O,K,Sr,Ba,[box])_12_Ti^4+^_8_(Si_4_O_12_)_4_(OH,O)_8_&#183;12-16H_2_O
##LOCALITY=Lepkhe-Nel'm Mt. (Lepkhe-Nelm Mt.), Seidozero Lake, Lovozero Massif, Kola Peninsula, Murmanskaja Oblast', Northern Region, Russia
##OWNER=RRUFF
##SOURCE=Michael Scott
##DESCRIPTION=Subparallel pale tan prismatic crystals with vitreous luster
##STATUS=The identification of this mineral has been confirmed only by single crystal X-ray diffraction.
##URL=rruff.info/R070241
157.3757, 7476.099
157.8578, 7521.545
158.3399, 7534.230
158.8221, 7539.670
159.3042, 7554.625
159.7863, 7587.291
160.2684, 7625.910
160.7505, 7670.594
161.2326, 7720.429
161.7148, 7765.125
162.1969, 7791.862
162.6790, 7814.839
163.1611, 7847.386
163.6432, 7902.834
164.1253, 7962.144
164.6075, 8017.811
165.0896, 8069.659
165.5717, 8114.297
166.0538, 8144.931
166.5359, 8168.003
167.0180, 8192.831
167.5002, 8224.618
167.9823, 8258.988
168.4644, 8290.915
168.9465, 8318.918
169.4286, 8352.217
169.9107, 8406.004
170.3929, 8470.232
170.8750, 8525.146
171.3571, 8553.494
171.8392, 8569.858
172.3213, 8589.816
172.8034, 8616.076
173.2856, 8642.713
173.7677, 8660.499
174.2498, 8672.922
174.7319, 8691.550
175.2140, 8729.997
175.6961, 8777.544
176.1783, 8816.761
176.6604, 8841.112
177.1425, 8861.513
177.6246, 8889.120
178.1067, 8923.601
178.5888, 8964.779
179.0710, 9025.056
179.5531, 9091.391
180.0352, 9130.373
180.5173, 9120.362
180.9994, 9092.942
181.4815, 9102.433
181.9637, 9147.980
182.4458, 9200.075
182.9279, 9233.988
183.4100, 9253.707
183.8921, 9274.979
184.3742, 9303.328
184.8564, 9335.714
185.3385, 9362.368
185.8206, 9382.853
186.3027, 9405.691
186.7848, 9442.190
187.2669, 9490.598
187.7491, 9538.772
188.2312, 9583.949
188.7133, 9625.501
189.1954, 9659.833
189.6775, 9685.194
190.1596, 9710.241
190.6418, 9747.023
191.1239, 9795.159
191.6060, 9844.553
192.0881, 9890.273
192.5702, 9933.104
193.0524, 9981.965
193.5345, 10039.15
194.0166, 10096.11
194.4987, 10135.97
194.9808, 10157.54
195.4629, 10180.10
195.9451, 10211.48
196.4272, 10251.99
196.9093, 10298.23
197.3914, 10351.34
197.8735, 10408.20
198.3556, 10465.56
198.8378, 10524.58
199.3199, 10575.75
199.8020, 10608.75
200.2841, 10621.40
200.7662, 10645.31
201.2483, 10685.11
201.7305, 10734.56
202.2126, 10777.08
202.6947, 10810.05
203.1768, 10845.83
203.6589, 10892.57
204.1410, 10951.00
204.6232, 11013.97
205.1053, 11085.67
205.5874, 11159.41
206.0695, 11208.41
206.5516, 11223.35
207.0337, 11238.01
207.5159, 11278.47
207.9980, 11350.32
208.4801, 11417.52
208.9622, 11474.22
209.4443, 11522.91
209.9264, 11577.40
210.4086, 11642.02
210.8907, 11703.96
211.3728, 11751.47
211.8549, 11780.93
212.3370, 11808.71
212.8191, 11833.39
213.3013, 11857.00
213.7834, 11901.49
214.2655, 11976.55
214.7476, 12057.22
215.2297, 12121.61
215.7118, 12167.25
216.1940, 12204.30
216.6761, 12230.30
217.1582, 12246.34
217.6403, 12277.14
218.1224, 12331.13
218.6045, 12388.10
219.0867, 12428.58
219.5688, 12448.41
220.0509, 12460.30
220.5330, 12463.46
221.0151, 12457.55
221.4972, 12461.17
221.9794, 12479.25
222.4615, 12501.37
222.9436, 12516.69
223.4257, 12523.41
223.9078, 12526.92
224.3899, 12527.35
224.8721, 12524.28
225.3542, 12524.61
225.8363, 12532.43
226.3184, 12539.77
226.8005, 12537.47
227.2827, 12524.74
227.7648, 12503.49
228.2469, 12471.71
228.7290, 12427.38
229.2111, 12388.72
229.6932, 12355.98
230.1754, 12329.13
230.6575, 12309.68
231.1396, 12306.53
231.6217, 12294.99
232.1038, 12265.67
232.5859, 12213.84
233.0681, 12170.21
233.5502, 12139.31
234.0323, 12113.50
234.5144, 12080.46
234.9965, 12034.13
235.4786, 11991.37
235.9608, 11959.45
236.4429, 11943.58
236.9250, 11915.74
237.4071, 11870.61
237.8892, 11816.97
238.3713, 11768.93
238.8535, 11729.98
239.3356, 11690.73
239.8177, 11647.49
240.2998, 11597.89
240.7819, 11553.56
241.2640, 11517.62
241.7462, 11484.40
242.2283, 11443.69
242.7104, 11392.54
243.1925, 11338.60
243.6746, 11282.28
244.1567, 11218.88
244.6389, 11169.11
245.1210, 11136.88
245.6031, 11115.97
246.0852, 11096.44
246.5673, 11079.81
247.0494, 11062.07
247.5316, 11043.19
248.0137, 11026.25
248.4958, 10996.62
248.9779, 10948.62
249.4600, 10891.24
249.9421, 10841.84
250.4243, 10801.08
250.9064, 10766.46
251.3885, 10737.91
251.8706, 10717.17
252.3527, 10696.25
252.8348, 10674.50
253.3170, 10653.05
253.7991, 10636.02
254.2812, 10630.59
254.7633, 10616.12
255.2454, 10580.73
255.7275, 10514.53
256.2097, 10465.78
256.6918, 10439.42
257.1739, 10427.65
257.6560, 10417.60
258.1381, 10412.67
258.6202, 10402.24
259.1024, 10379.67
259.5845, 10339.90
260.0666, 10309.85
260.5487, 10290.78
261.0308, 10280.57
261.5129, 10277.87
261.9951, 10290.13
262.4772, 10292.00
262.9593, 10269.78
263.4414, 10215.69
263.9235, 10174.12
264.4056, 10148.02
264.8878, 10131.22
265.3699, 10110.38
265.8520, 10080.53
266.3341, 10060.48
266.8162, 10062.61
267.2983, 10093.14
267.7805, 10103.68
268.2626, 10086.99
268.7447, 10058.18
269.2268, 10045.01
269.7089, 10052.55
270.1910, 10057.54
270.6732, 10050.73
271.1553, 10031.19
271.6374, 10007.04
272.1195, 9974.407
272.6016, 9942.774
273.0837, 9933.966
273.5659, 9954.487
274.0480, 9964.147
274.5301, 9938.466
275.0122, 9875.374
275.4943, 9846.048
275.9764, 9860.890
276.4586, 9889.926
276.9407, 9884.278
277.4228, 9839.599
277.9049, 9798.757
278.3870, 9777.665
278.8691, 9775.865
279.3513, 9786.770
279.8334, 9815.184
280.3155, 9843.944
280.7976, 9846.475
281.2798, 9821.640
281.7619, 9796.995
282.2440, 9785.932
282.7261, 9785.477
283.2082, 9770.395
283.6903, 9737.699
284.1725, 9701.363
284.6546, 9674.888
285.1367, 9658.635
285.6188, 9657.710
286.1009, 9690.625
286.5830, 9741.979
287.0652, 9737.005
287.5473, 9669.239
288.0294, 9584.104
288.5115, 9527.311
288.9936, 9496.935
289.4757, 9478.843
289.9579, 9470.202
290.4400, 9469.777
290.9221, 9479.814
291.4042, 9501.805
291.8863, 9515.620
292.3684, 9490.924
292.8506, 9437.213
293.3327, 9396.280
293.8148, 9390.296
294.2969, 9399.735
294.7790, 9383.435
295.2611, 9341.232
295.7433, 9295.481
296.2254, 9267.390
296.7075, 9250.860
297.1896, 9228.849
297.6717, 9188.611
298.1538, 9146.508
298.6360, 9133.146
299.1181, 9146.094
299.6002, 9158.068
300.0823, 9146.125
300.5644, 9118.609
301.0465, 9090.276
301.5287, 9061.175
302.0108, 9037.613
302.4929, 9032.424
302.9750, 9042.358
303.4571, 9049.095
303.9392, 9044.035
304.4214, 9027.273
304.9035, 8996.350
305.3856, 8942.885
305.8677, 8888.806
306.3498, 8855.047
306.8319, 8837.934
307.3141, 8823.870
307.7962, 8815.408
308.2783, 8801.496
308.7604, 8768.228
309.2425, 8705.352
309.7246, 8640.669
310.2068, 8591.131
310.6889, 8553.403
311.1710, 8518.172
311.6531, 8485.640
312.1352, 8450.958
312.6173, 8408.893
313.0995, 8355.081
313.5816, 8305.683
314.0637, 8273.234
314.5458, 8249.968
315.0279, 8220.983
315.5100, 8173.771
315.9922, 8124.466
316.4743, 8082.389
316.9564, 8050.544
317.4385, 8017.905
317.9206, 7978.919
318.4027, 7937.394
318.8849, 7898.651
319.3670, 7870.891
319.8491, 7840.199
320.3312, 7798.100
320.8133, 7740.477
321.2954, 7692.253
321.7776, 7674.655
322.2597, 7662.203
322.7418, 7627.743
323.2239, 7530.394
323.7060, 7447.592
324.1881, 7403.785
324.6703, 7403.328
325.1524, 7394.585
325.6345, 7369.016
326.1166, 7336.628
326.5987, 7305.272
327.0808, 7280.007
327.5630, 7249.817
328.0451, 7209.111
328.5272, 7158.827
329.0093, 7120.078
329.4914, 7108.063
329.9735, 7094.718
330.4557, 7059.985
330.9378, 6981.220
331.4199, 6920.719
331.9020, 6887.542
332.3841, 6876.803
332.8662, 6865.945
333.3484, 6858.746
333.8305, 6845.857
334.3126, 6818.936
334.7947, 6769.319
335.2768, 6734.192
335.7589, 6720.167
336.2411, 6719.069
336.7232, 6710.845
337.2053, 6695.322
337.6874, 6673.275
338.1695, 6642.190
338.6516, 6600.609
339.1338, 6564.974
339.6159, 6536.222
340.0980, 6512.924
340.5801, 6495.077
341.0622, 6483.213
341.5443, 6469.865
342.0265, 6452.528
342.5086, 6431.241
342.9907, 6400.728
343.4728, 6357.829
343.9549, 6319.133
344.4370, 6317.408
344.9192, 6347.253
345.4013, 6355.350
345.8834, 6311.200
346.3655, 6235.103
346.8476, 6181.179
347.3297, 6149.993
347.8119, 6128.937
348.2940, 6108.770
348.7761, 6089.858
349.2582, 6074.953
349.7403, 6071.037
350.2225, 6064.707
350.7046, 6028.516
351.1867, 5966.466
351.6688, 5911.960
352.1509, 5900.724
352.6331, 5909.293
353.1152, 5900.553
353.5973, 5858.633
354.0794, 5811.905
354.5615, 5783.220
355.0436, 5770.034
355.5258, 5764.601
356.0079, 5776.718
356.4900, 5786.935
356.9721, 5774.906
357.4542, 5730.866
357.9363, 5687.135
358.4185, 5664.233
358.9006, 5653.653
359.3827, 5640.671
359.8648, 5616.318
360.3469, 5590.647
360.8290, 5568.019
361.3112, 5548.589
361.7933, 5533.532
362.2754, 5528.495
362.7575, 5525.893
363.2396, 5517.445
363.7217, 5496.183
364.2039, 5474.109
364.6860, 5449.897
365.1681, 5423.509
365.6502, 5411.777
366.1323, 5428.790
366.6144, 5453.506
367.0966, 5471.514
367.5787, 5475.937
368.0608, 5481.400
368.5429, 5493.416
369.0250, 5508.650
369.5071, 5508.924
369.9893, 5480.875
370.4714, 5453.445
370.9535, 5441.918
371.4356, 5457.314
371.9177, 5463.030
372.3998, 5453.489
372.8820, 5436.623
373.3641, 5430.768
373.8462, 5439.416
374.3283, 5449.931
374.8104, 5455.714
375.2925, 5455.635
375.7747, 5467.310
376.2568, 5495.626
376.7389, 5526.211
377.2210, 5538.113
377.7031, 5530.211
378.1852, 5519.356
378.6674, 5507.696
379.1495, 5497.345
379.6316, 5499.677
380.1137, 5515.914
380.5958, 5533.570
381.0779, 5540.257
381.5601, 5537.914
382.0422, 5534.873
382.5243, 5530.602
383.0064, 5529.606
383.4885, 5541.853
383.9706, 5565.957
384.4528, 5590.846
384.9349, 5607.940
385.4170, 5621.330
385.8991, 5640.737
386.3812, 5671.516
386.8633, 5696.188
387.3455, 5688.762
387.8276, 5662.333
388.3097, 5646.796
388.7918, 5664.126
389.2739, 5694.194
389.7560, 5725.180
390.2382, 5757.117
390.7203, 5778.349
391.2024, 5777.228
391.6845, 5763.772
392.1666, 5749.443
392.6487, 5728.077
393.1309, 5715.912
393.6130, 5729.827
394.0951, 5766.187
394.5772, 5783.054
395.0593, 5742.398
395.5414, 5696.209
396.0236, 5677.449
396.5057, 5729.933
396.9878, 5763.376
397.4699, 5758.780
397.9520, 5727.615
398.4341, 5705.838
398.9163, 5693.166
399.3984, 5690.369
399.8805, 5701.328
400.3626, 5737.411
400.8447, 5752.137
401.3268, 5734.218
401.8090, 5703.257
402.2911, 5686.996
402.7732, 5690.430
403.2553, 5696.211
403.7374, 5701.561
404.2195, 5706.146
404.7017, 5701.774
405.1838, 5684.872
405.6659, 5668.622
406.1480, 5667.720
406.6301, 5682.453
407.1122, 5690.605
407.5944, 5683.956
408.0765, 5672.854
408.5586, 5688.965
409.0407, 5731.700
409.5228, 5766.276
410.0049, 5759.102
410.4871, 5725.555
410.9692, 5708.875
411.4513, 5714.618
411.9334, 5732.498
412.4155, 5756.025
412.8976, 5783.163
413.3798, 5807.133
413.8619, 5819.521
414.3440, 5830.730
414.8261, 5854.675
415.3082, 5891.636
415.7903, 5925.925
416.2725, 5940.990
416.7546, 5950.310
417.2367, 5969.704
417.7188, 6011.727
418.2009, 6055.924
418.6830, 6094.022
419.1652, 6126.881
419.6473, 6156.155
420.1294, 6171.525
420.6115, 6191.746
421.0937, 6229.396
421.5758, 6296.482
422.0579, 6357.073
422.5400, 6404.260
423.0221, 6442.788
423.5042, 6481.288
423.9864, 6515.442
424.4685, 6554.223
424.9506, 6599.057
425.4327, 6649.024
425.9148, 6711.792
426.3969, 6800.544
426.8791, 6887.056
427.3612, 6943.409
427.8433, 6958.996
428.3254, 6976.365
428.8075, 6997.991
429.2896, 7026.630
429.7718, 7074.137
430.2539, 7143.700
430.7360, 7215.337
431.2181, 7274.907
431.7002, 7323.573
432.1823, 7379.767
432.6645, 7446.100
433.1466, 7514.539
433.6287, 7575.333
434.1108, 7628.507
434.5929, 7673.934
435.0750, 7704.221
435.5572, 7729.403
436.0393, 7772.427
436.5214, 7832.154
437.0035, 7884.640
437.4856, 7894.131
437.9677, 7889.287
438.4499, 7913.048
438.9320, 7992.816
439.4141, 8075.546
439.8962, 8121.802
440.3783, 8141.178
440.8604, 8159.778
441.3426, 8183.779
441.8247, 8213.974
442.3068, 8254.756
442.7889, 8311.136
443.2710, 8355.993
443.7531, 8373.367
444.2353, 8378.847
444.7174, 8389.969
445.1995, 8400.890
445.6816, 8426.542
446.1637, 8474.848
446.6458, 8543.135
447.1280, 8608.972
447.6101, 8672.913
448.0922, 8734.027
448.5743, 8792.042
449.0564, 8850.465
449.5385, 8894.989
450.0207, 8914.699
450.5028, 8929.804
450.9849, 8984.851
451.4670, 9088.431
451.9491, 9185.283
452.4312, 9247.504
452.9134, 9281.649
453.3955, 9347.102
453.8776, 9447.827
454.3597, 9549.709
454.8418, 9609.498
455.3239, 9638.863
455.8061, 9685.601
456.2882, 9768.057
456.7703, 9861.869
457.2524, 9931.944
457.7345, 9982.577
458.2166, 10032.96
458.6988, 10104.10
459.1809, 10175.58
459.6630, 10223.32
460.1451, 10243.83
460.6272, 10251.96
461.1093, 10259.68
461.5915, 10259.78
462.0736, 10242.99
462.5557, 10196.95
463.0378, 10142.64
463.5199, 10083.88
464.0020, 10022.17
464.4842, 9964.993
464.9663, 9929.879
465.4484, 9888.406
465.9305, 9823.867
466.4126, 9712.891
466.8947, 9617.696
467.3769, 9543.583
467.8590, 9483.203
468.3411, 9423.467
468.8232, 9361.672
469.3053, 9306.829
469.7874, 9263.229
470.2696, 9230.008
470.7517, 9187.396
471.2338, 9129.655
471.7159, 9080.410
472.1980, 9066.518
472.6801, 9087.020
473.1623, 9101.460
473.6444, 9105.131
474.1265, 9098.569
474.6086, 9073.585
475.0907, 9034.426
475.5728, 9008.557
476.0550, 9017.324
476.5371, 9046.340
477.0192, 9074.665
477.5013, 9101.753
477.9834, 9125.811
478.4655, 9135.453
478.9477, 9144.440
479.4298, 9171.681
479.9119, 9239.817
480.3940, 9306.368
480.8761, 9346.274
481.3582, 9366.510
481.8404, 9386.495
482.3225, 9409.210
482.8046, 9435.846
483.2867, 9468.595
483.7688, 9510.706
484.2509, 9548.224
484.7331, 9577.530
485.2152, 9602.830
485.6973, 9628.453
486.1794, 9654.069
486.6615, 9680.825
487.1436, 9710.148
487.6258, 9740.928
488.1079, 9767.154
488.5900, 9786.720
489.0721, 9807.159
489.5542, 9833.366
490.0363, 9865.505
490.5185, 9894.308
491.0006, 9917.562
491.4827, 9943.294
491.9648, 9984.748
492.4470, 10039.09
492.9291, 10090.26
493.4112, 10130.88
493.8933, 10165.94
494.3754, 10195.87
494.8575, 10223.33
495.3397, 10263.33
495.8218, 10333.96
496.3039, 10419.15
496.7860, 10502.81
497.2681, 10585.83
497.7502, 10659.24
498.2324, 10702.62
498.7145, 10738.41
499.1966, 10798.00
499.6787, 10908.74
500.1608, 11025.88
500.6429, 11141.76
501.1251, 11255.21
501.6072, 11353.93
502.0893, 11419.40
502.5714, 11486.98
503.0535, 11574.76
503.5356, 11694.62
504.0178, 11804.81
504.4999, 11899.13
504.9820, 11988.56
505.4641, 12096.61
505.9462, 12229.83
506.4283, 12345.34
506.9105, 12427.03
507.3926, 12481.60
507.8747, 12531.74
508.3568, 12577.23
508.8389, 12626.03
509.3210, 12689.74
509.8032, 12762.10
510.2853, 12827.94
510.7674, 12886.31
511.2495, 12934.11
511.7316, 12962.40
512.2137, 12978.13
512.6959, 12995.04
513.1780, 13024.66
513.6601, 13052.80
514.1422, 13073.06
514.6243, 13084.80
515.1064, 13084.60
515.5886, 13055.37
516.0707, 13024.77
516.5528, 13012.31
517.0349, 13037.09
517.5170, 13044.96
517.9991, 13032.43
518.4813, 12999.56
518.9634, 12942.97
519.4455, 12841.88
519.9276, 12753.47
520.4097, 12694.55
520.8918, 12659.81
521.3740, 12606.24
521.8561, 12530.08
522.3382, 12447.45
522.8203, 12370.40
523.3024, 12298.59
523.7845, 12212.66
524.2667, 12108.24
524.7488, 12000.09
525.2309, 11907.41
525.7130, 11824.15
526.1951, 11731.17
526.6772, 11616.88
527.1594, 11492.83
527.6415, 11368.68
528.1236, 11246.40
528.6057, 11131.61
529.0878, 11040.81
529.5699, 10951.21
530.0521, 10842.01
530.5342, 10701.67
531.0163, 10577.84
531.4984, 10500.55
531.9805, 10439.93
532.4626, 10363.85
532.9448, 10248.48
533.4269, 10141.29
533.9090, 10054.66
534.3911, 9980.834
534.8732, 9892.032
535.3553, 9779.282
535.8375, 9665.972
536.3196, 9561.300
536.8017, 9463.670
537.2838, 9383.801
537.7659, 9325.979
538.2480, 9269.265
538.7302, 9189.030
539.2123, 9087.677
539.6944, 8984.591
540.1765, 8878.872
540.6586, 8782.477
541.1407, 8713.752
541.6229, 8667.732
542.1050, 8625.341
542.5871, 8581.069
543.0692, 8532.678
543.5513, 8479.654
544.0334, 8422.335
544.5156, 8356.459
544.9977, 8265.957
545.4798, 8174.170
545.9619, 8100.882
546.4440, 8061.114
546.9261, 8023.021
547.4083, 7984.990
547.8904, 7945.244
548.3725, 7901.403
548.8546, 7852.772
549.3367, 7800.342
549.8188, 7741.481
550.3010, 7677.550
550.7831, 7623.942
551.2652, 7580.616
551.7473, 7547.656
552.2294, 7534.463
552.7115, 7537.216
553.1937, 7512.284
553.6758, 7450.620
554.1579, 7384.514
554.6400, 7361.730
555.1221, 7367.700
555.6042, 7360.809
556.0864, 7318.073
556.5685, 7264.109
557.0506, 7218.022
557.5327, 7179.767
558.0148, 7150.087
558.4969, 7139.432
558.9791, 7129.777
559.4612, 7107.976
559.9433, 7069.150
560.4254, 7037.152
560.9075, 7027.783
561.3896, 7020.621
561.8718, 6996.934
562.3539, 6941.271
562.8360, 6894.687
563.3181, 6858.582
563.8002, 6834.517
564.2823, 6831.652
564.7645, 6857.099
565.2466, 6871.703
565.7287, 6857.290
566.2108, 6819.160
566.6929, 6780.324
567.1750, 6740.875
567.6572, 6705.700
568.1393, 6677.213
568.6214, 6656.797
569.1035, 6652.726
569.5856, 6671.479
570.0677, 6684.884
570.5499, 6660.683
571.0320, 6617.586
571.5141, 6585.094
571.9962, 6578.312
572.4783, 6579.861
572.9604, 6591.170
573.4426, 6607.968
573.9247, 6609.373
574.4068, 6572.369
574.8889, 6537.344
575.3710, 6522.728
575.8531, 6535.520
576.3353, 6531.276
576.8174, 6501.577
577.2995, 6467.387
577.7816, 6450.119
578.2637, 6451.811
578.7458, 6449.149
579.2280, 6437.586
579.7101, 6422.410
580.1922, 6415.254
580.6743, 6414.099
581.1564, 6407.532
581.6385, 6385.134
582.1207, 6357.068
582.6028, 6336.175
583.0849, 6322.164
583.5670, 6311.237
584.0491, 6302.328
584.5313, 6294.917
585.0134, 6290.130
585.4955, 6291.269
585.9776, 6284.758
586.4597, 6257.826
586.9418, 6225.377
587.4240, 6204.503
587.9061, 6197.729
588.3882, 6199.554
588.8703, 6214.993
589.3524, 6237.143
589.8345, 6245.636
590.3167, 6238.977
590.7988, 6223.669
591.2809, 6195.655
591.7630, 6160.440
592.2451, 6152.818
592.7272, 6173.799
593.2094, 6197.674
593.6915, 6203.591
594.1736, 6197.079
594.6557, 6185.935
595.1378, 6169.013
595.6199, 6158.803
596.1021, 6171.689
596.5842, 6195.435
597.0663, 6212.656
597.5485, 6213.538
598.0306, 6210.969
598.5127, 6207.914
598.9948, 6204.461
599.4769, 6200.616
599.9590, 6194.071
600.4412, 6189.663
600.9233, 6187.154
601.4054, 6185.813
601.8875, 6202.084
602.3696, 6245.728
602.8517, 6282.669
603.3339, 6271.905
603.8160, 6218.657
604.2981, 6195.831
604.7802, 6215.929
605.2623, 6252.935
605.7444, 6273.543
606.2266, 6284.191
606.7087, 6301.299
607.1908, 6337.125
607.6729, 6375.715
608.1550, 6408.131
608.6371, 6433.566
609.1193, 6450.520
609.6014, 6449.099
610.0835, 6446.800
610.5656, 6451.997
611.0477, 6466.080
611.5298, 6481.284
612.0120, 6500.486
612.4941, 6517.433
612.9762, 6525.951
613.4583, 6520.777
613.9404, 6527.425
614.4225, 6550.559
614.9047, 6579.264
615.3868, 6597.116
615.8689, 6605.168
616.3510, 6615.938
616.8331, 6635.693
617.3152, 6656.596
617.7974, 6663.313
618.2795, 6659.693
618.7616, 6661.017
619.2437, 6677.649
619.7258, 6700.898
620.2079, 6727.715
620.6901, 6757.564
621.1722, 6780.643
621.6543, 6784.705
622.1364, 6787.137
622.6185, 6800.126
623.1006, 6832.889
623.5828, 6857.091
624.0649, 6869.365
624.5470, 6876.166
625.0291, 6885.580
625.5112, 6898.724
625.9933, 6907.333
626.4755, 6906.872
626.9576, 6905.079
627.4397, 6922.761
627.9218, 6956.923
628.4039, 6984.725
628.8860, 6985.570
629.3682, 6978.519
629.8503, 6989.135
630.3324, 7016.134
630.8145, 7049.065
631.2966, 7092.307
631.7787, 7131.636
632.2609, 7155.757
632.7430, 7160.221
633.2251, 7161.428
633.7072, 7147.728
634.1893, 7141.248
634.6714, 7162.780
635.1536, 7232.746
635.6357, 7285.449
636.1178, 7312.734
636.5999, 7323.719
637.0820, 7331.153
637.5641, 7334.625
638.0463, 7344.246
638.5284, 7363.431
639.0105, 7390.722
639.4926, 7429.684
639.9747, 7477.438
640.4568, 7516.271
640.9390, 7525.207
641.4211, 7527.479
641.9032, 7545.820
642.3853, 7581.723
642.8674, 7618.745
643.3495, 7655.037
643.8317, 7686.912
644.3138, 7710.826
644.7959, 7713.236
645.2780, 7734.104
645.7601, 7784.923
646.2422, 7843.969
646.7244, 7882.771
647.2065, 7894.329
647.6886, 7922.532
648.1707, 7981.077
648.6528, 8050.969
649.1349, 8092.100
649.6171, 8107.996
650.0992, 8124.990
650.5813, 8154.664
651.0634, 8192.571
