##NAMES=Tsumcorite
##RRUFFID=R060081
##IDEAL CHEMISTRY=Pb^2+^Zn^2+^_2_(As^5+^O_4_)_2_&#183;2H_2_O
##LOCALITY=Tsumeb mine, Tsumeb, Otavi District, Oshikoto, Namibia
##OWNER=RRUFF
##SOURCE=Marcus Origlieri
##DESCRIPTION=Aggregate of yellowish-orange bladed crystals with significant chemical oscillations, associated with green duftite
##STATUS=The identification of this mineral is confirmed by single-crystal X-ray diffraction and chemical analysis.
##URL=rruff.info/R060081
##MEASURED CHEMISTRY=Pb_1.00_Zn_1.00_(Fe_0.80_Zn_0.20_)_Σ=1_(As_1.00_O_4_)_2_(OH)·H_2_O ; trace amounts of Ca, Na, Cu, Al ; H_2_O estimated by difference
93.46680, 171.4108
93.94891, 169.6545
94.43103, 170.1041
94.91315, 171.6067
95.39526, 172.3950
95.87738, 171.9450
96.35950, 170.7030
96.84161, 169.5380
97.32373, 169.1227
97.80585, 168.8294
98.28796, 168.1342
98.77008, 166.9608
99.25220, 165.5623
99.73431, 164.2278
100.2164, 162.9334
100.6985, 161.3968
101.1807, 160.0471
101.6628, 158.8689
102.1449, 157.7697
102.6270, 156.6559
103.1091, 155.5397
103.5912, 154.6598
104.0734, 154.2280
104.5555, 153.7985
105.0376, 153.2301
105.5197, 152.5773
106.0018, 151.9834
106.4839, 151.5774
106.9661, 151.3858
107.4482, 151.1274
107.9303, 150.7312
108.4124, 150.2914
108.8945, 149.7790
109.3766, 149.2148
109.8588, 148.7778
110.3409, 148.7523
110.8230, 149.2044
111.3051, 149.5480
111.7872, 149.5972
112.2693, 149.5167
112.7515, 149.5421
113.2336, 149.7116
113.7157, 150.0479
114.1978, 150.5703
114.6799, 151.2649
115.1620, 152.0693
115.6442, 153.0389
116.1263, 154.1623
116.6084, 155.0778
117.0905, 155.4663
117.5726, 155.7657
118.0547, 156.2909
118.5369, 157.0958
119.0190, 157.9954
119.5011, 158.6857
119.9832, 158.9435
120.4653, 159.5359
120.9474, 160.8672
121.4296, 162.3772
121.9117, 163.5544
122.3938, 164.1739
122.8759, 164.4525
123.3580, 165.1087
123.8401, 166.5241
124.3223, 167.9565
124.8044, 169.3757
125.2865, 170.7668
125.7686, 172.0851
126.2507, 173.2985
126.7328, 174.4285
127.2150, 175.7905
127.6971, 177.6866
128.1792, 179.4739
128.6613, 180.7045
129.1434, 181.4841
129.6255, 182.4163
130.1077, 184.0484
130.5898, 186.3294
131.0719, 188.3999
131.5540, 189.9518
132.0361, 191.4363
132.5182, 193.4138
133.0004, 196.0138
133.4825, 198.6770
133.9646, 201.0445
134.4467, 203.1610
134.9288, 204.9615
135.4109, 206.2147
135.8931, 207.0939
136.3752, 208.2441
136.8573, 209.8419
137.3394, 211.5357
137.8215, 213.1627
138.3036, 214.7194
138.7858, 216.1979
139.2679, 217.7391
139.7500, 219.4339
140.2321, 220.4461
140.7142, 219.9062
141.1963, 219.3580
141.6785, 219.4992
142.1606, 220.3338
142.6427, 221.3844
143.1248, 222.0477
143.6069, 222.1232
144.0890, 222.2389
144.5712, 222.2525
145.0533, 222.3833
145.5354, 222.8827
146.0175, 223.7889
146.4996, 224.8257
146.9817, 225.4933
147.4639, 225.4721
147.9460, 225.5699
148.4281, 225.7266
148.9102, 226.0438
149.3923, 226.7260
149.8744, 227.9029
150.3566, 229.3109
150.8387, 230.3394
151.3208, 230.9641
151.8029, 231.4433
152.2850, 231.9338
152.7671, 232.3693
153.2493, 232.5178
153.7314, 232.2390
154.2135, 231.6212
154.6956, 230.9634
155.1777, 230.3636
155.6598, 229.5018
156.1420, 228.1030
156.6241, 226.1629
157.1062, 223.9102
157.5883, 221.2126
158.0704, 218.3474
158.5525, 215.5657
159.0347, 212.9533
159.5168, 210.3740
159.9989, 207.5768
160.4810, 204.4711
160.9631, 201.3852
161.4452, 198.3650
161.9274, 195.4292
162.4095, 192.5847
162.8916, 189.8486
163.3737, 187.2043
163.8558, 184.6303
164.3379, 182.1978
164.8201, 179.7366
165.3022, 176.9604
165.7843, 174.1939
166.2664, 171.9244
166.7485, 170.4634
167.2306, 169.6966
167.7128, 168.5894
168.1949, 166.6884
168.6770, 164.9302
169.1591, 163.5494
169.6412, 162.4688
170.1233, 161.4944
170.6055, 160.4980
171.0876, 159.4759
171.5697, 158.5532
172.0518, 157.7193
172.5339, 156.9684
173.0160, 156.3372
173.4982, 155.8050
173.9803, 155.2612
174.4624, 154.5741
174.9445, 153.7846
175.4266, 153.2877
175.9087, 153.3631
176.3909, 153.5393
176.8730, 153.4113
177.3551, 152.9487
177.8372, 152.4046
178.3193, 151.8691
178.8014, 151.4018
179.2836, 151.2200
179.7657, 151.5717
180.2478, 152.1671
180.7299, 152.6210
181.2120, 152.9474
181.6941, 153.0429
182.1763, 152.5847
182.6584, 151.8597
183.1405, 151.4168
183.6226, 151.6824
184.1047, 152.4264
184.5868, 152.8784
185.0690, 152.8818
185.5511, 152.8003
186.0332, 152.8196
186.5153, 152.8935
186.9974, 152.9276
187.4795, 152.8301
187.9617, 152.6163
188.4438, 152.5135
188.9259, 152.6227
189.4080, 152.7496
189.8901, 152.8604
190.3722, 152.9421
190.8544, 152.9755
191.3365, 152.9316
191.8186, 152.8010
192.3007, 152.7444
192.7828, 152.8743
193.2649, 152.9749
193.7471, 152.9348
194.2292, 152.7912
194.7113, 152.6653
195.1934, 152.6777
195.6755, 152.8622
196.1576, 152.9709
196.6398, 153.0340
197.1219, 153.0168
197.6040, 152.8225
198.0861, 152.4966
198.5682, 152.2274
199.0503, 152.2208
199.5325, 152.5460
200.0146, 152.7193
200.4967, 152.6396
200.9788, 152.4965
201.4609, 152.4316
201.9430, 152.4525
202.4252, 152.4466
202.9073, 152.2791
203.3894, 151.9257
203.8715, 151.6877
204.3536, 151.7481
204.8357, 151.8327
205.3179, 151.6546
205.8000, 151.1694
206.2821, 150.5906
206.7642, 150.0896
207.2463, 149.6609
207.7284, 149.2918
208.2106, 148.9898
208.6927, 148.7444
209.1748, 148.5452
209.6569, 148.3939
210.1390, 148.2794
210.6211, 148.2462
211.1033, 148.2516
211.5854, 148.1743
212.0675, 147.9344
212.5496, 147.5844
213.0317, 147.2505
213.5138, 146.9726
213.9960, 146.6343
214.4781, 146.1207
214.9602, 145.4983
215.4423, 144.9010
215.9244, 144.4227
216.4065, 144.0267
216.8886, 143.5549
217.3708, 142.8543
217.8529, 142.3231
218.3350, 142.2127
218.8171, 142.3704
219.2992, 142.5091
219.7813, 142.4426
220.2635, 142.2030
220.7456, 142.0075
221.2277, 141.8827
221.7098, 141.7765
222.1919, 141.7110
222.6740, 141.6488
223.1562, 141.5280
223.6383, 141.3044
224.1204, 140.9839
224.6025, 140.6283
225.0846, 139.9982
225.5667, 139.6009
226.0489, 139.6529
226.5310, 140.0158
227.0131, 140.4582
227.4952, 140.8422
227.9773, 141.1599
228.4594, 141.3000
228.9416, 141.0712
229.4237, 140.8540
229.9058, 140.6966
230.3879, 140.6147
230.8700, 140.6441
231.3521, 140.8270
231.8343, 141.1420
232.3164, 141.2371
232.7985, 140.8984
233.2806, 140.5881
233.7627, 140.3635
234.2448, 140.2578
234.7270, 140.3405
235.2091, 140.6812
235.6912, 141.2371
236.1733, 141.5902
236.6554, 141.7122
237.1375, 141.7135
237.6197, 141.5195
238.1018, 141.2252
238.5839, 141.0493
239.0660, 141.1438
239.5481, 141.4398
240.0302, 141.5451
240.5124, 141.4398
240.9945, 141.2143
241.4766, 140.7764
241.9587, 140.2282
242.4408, 139.8489
242.9229, 139.8230
243.4051, 140.0313
243.8872, 140.0652
244.3693, 139.8741
244.8514, 139.6160
245.3335, 139.3019
245.8156, 138.9637
246.2978, 138.6880
246.7799, 138.4887
247.2620, 138.4109
247.7441, 138.5603
248.2262, 139.0571
248.7083, 139.4858
249.1905, 139.6194
249.6726, 139.5080
250.1547, 139.3154
250.6368, 139.0415
251.1189, 138.7819
251.6010, 138.7381
252.0832, 138.9906
252.5653, 139.0804
253.0474, 138.5617
253.5295, 137.6009
254.0116, 136.9524
254.4937, 136.9457
254.9759, 137.2001
255.4580, 137.2133
255.9401, 136.9726
256.4222, 136.8330
256.9043, 137.1291
257.3864, 137.7593
257.8686, 138.1833
258.3507, 138.2072
258.8328, 138.1047
259.3149, 138.0392
259.7970, 138.0282
260.2791, 138.2262
260.7613, 138.8812
261.2434, 139.8888
261.7255, 140.6589
262.2076, 141.0420
262.6897, 141.2656
263.1718, 141.4428
263.6540, 141.5970
264.1361, 141.8065
264.6182, 142.0978
265.1003, 142.4772
265.5824, 143.0207
266.0645, 143.8870
266.5467, 144.6897
267.0288, 145.0911
267.5109, 145.2854
267.9930, 145.7021
268.4751, 146.6915
268.9572, 148.1136
269.4394, 149.3360
269.9215, 150.2678
270.4036, 151.1221
270.8857, 151.9877
271.3678, 152.8443
271.8499, 153.6286
272.3321, 154.2431
272.8142, 154.8136
273.2963, 155.8002
273.7784, 157.4536
274.2605, 159.1157
274.7426, 160.7215
275.2248, 162.1899
275.7069, 163.3571
276.1890, 164.1196
276.6711, 164.6619
277.1532, 165.4791
277.6353, 166.7993
278.1175, 167.9740
278.5996, 168.6544
279.0817, 169.2617
279.5638, 170.2390
280.0459, 171.7559
280.5280, 173.5465
281.0102, 175.1131
281.4923, 176.3396
281.9744, 177.5649
282.4565, 178.8942
282.9386, 180.1991
283.4207, 181.3512
283.9029, 182.3271
284.3850, 183.2334
284.8671, 184.2359
285.3492, 185.3880
285.8313, 186.5059
286.3134, 187.6526
286.7956, 188.7185
287.2777, 189.6948
287.7598, 190.5442
288.2419, 191.1690
288.7240, 191.4104
289.2061, 191.1362
289.6883, 190.9469
290.1704, 190.7680
290.6525, 190.7268
291.1346, 191.0163
291.6167, 191.5432
292.0988, 191.9911
292.5810, 192.0515
293.0631, 191.6877
293.5452, 191.3242
294.0273, 191.2638
294.5094, 190.9062
294.9915, 189.7597
295.4737, 188.1369
295.9558, 186.7515
296.4379, 186.1687
296.9200, 186.3152
297.4021, 186.0458
297.8842, 184.8481
298.3664, 183.7592
298.8485, 183.0860
299.3306, 182.6383
299.8127, 182.1265
300.2948, 181.3914
300.7769, 180.4694
301.2591, 179.5045
301.7412, 178.3196
302.2233, 177.3228
302.7054, 176.5313
303.1875, 175.9592
303.6696, 175.6934
304.1518, 175.7621
304.6339, 175.9732
305.1160, 175.8887
305.5981, 175.0744
306.0802, 174.6233
306.5623, 174.7522
307.0445, 175.1020
307.5266, 175.3817
308.0087, 175.5207
308.4908, 175.6471
308.9729, 175.9665
309.4550, 176.6482
309.9372, 177.0840
310.4193, 176.9295
310.9014, 176.8448
311.3835, 177.2516
311.8656, 178.1586
312.3477, 179.3092
312.8299, 180.4446
313.3120, 181.5591
313.7941, 182.7650
314.2762, 184.2588
314.7583, 185.6472
315.2404, 186.6037
315.7226, 187.3076
316.2047, 188.2192
316.6868, 189.6933
317.1689, 191.6916
317.6510, 193.6178
318.1331, 195.4886
318.6153, 197.2793
319.0974, 198.7773
319.5795, 200.2261
320.0616, 202.0925
320.5437, 204.6470
321.0258, 207.5539
321.5080, 209.7038
321.9901, 209.8130
322.4722, 210.7473
322.9543, 213.3673
323.4364, 216.5280
323.9185, 219.0400
324.4007, 220.5073
324.8828, 221.5264
325.3649, 223.1337
325.8470, 225.7847
326.3291, 228.1908
326.8112, 230.2175
327.2934, 232.1528
327.7755, 234.1306
328.2576, 236.2084
328.7397, 238.4765
329.2218, 241.0872
329.7039, 244.1712
330.1861, 246.9807
330.6682, 249.2980
331.1503, 251.5905
331.6324, 253.9788
332.1145, 256.5105
332.5966, 259.2341
333.0788, 262.2233
333.5609, 265.4496
334.0430, 268.4200
334.5251, 270.9258
335.0072, 273.4110
335.4893, 276.0187
335.9715, 278.6357
336.4536, 281.0567
336.9357, 283.1549
337.4178, 285.0757
337.8999, 287.2201
338.3820, 290.0085
338.8642, 292.3867
339.3463, 294.1248
339.8284, 295.5490
340.3105, 296.9681
340.7926, 298.4647
341.2747, 299.8477
341.7568, 300.8138
342.2390, 301.2239
342.7211, 301.5373
343.2032, 301.6004
343.6853, 301.7042
344.1674, 302.0577
344.6495, 302.6311
345.1317, 303.2347
345.6138, 303.7218
346.0959, 304.1010
346.5780, 304.2292
347.0601, 303.7795
347.5422, 303.3851
348.0244, 303.1545
348.5065, 303.1080
348.9886, 303.2995
349.4707, 303.8081
349.9528, 304.4964
350.4349, 304.7691
350.9171, 304.2546
351.3992, 303.8952
351.8813, 304.1133
352.3634, 304.4410
352.8455, 304.3859
353.3276, 303.7790
353.8098, 302.8664
354.2919, 301.9936
354.7740, 301.0678
355.2561, 300.4775
355.7382, 301.0294
356.2203, 301.3368
356.7025, 300.3523
357.1846, 298.1343
357.6667, 295.7121
358.1488, 294.2056
358.6309, 293.6784
359.1130, 292.5504
359.5952, 290.3797
360.0773, 288.0566
360.5594, 285.8665
361.0415, 283.8188
361.5236, 281.9426
362.0057, 280.3790
362.4879, 278.9133
362.9700, 276.8061
363.4521, 273.8126
363.9342, 270.7252
364.4163, 267.7293
364.8984, 264.8266
365.3806, 262.0452
365.8627, 259.3934
366.3448, 256.7804
366.8269, 254.1505
367.3090, 251.5185
367.7911, 248.6067
368.2733, 244.9705
368.7554, 241.3432
369.2375, 238.3259
369.7196, 235.9008
370.2017, 233.5623
370.6838, 230.9754
371.1660, 228.1761
371.6481, 225.3327
372.1302, 222.3949
372.6123, 219.5358
373.0944, 216.9152
373.5765, 214.4569
374.0587, 211.9564
374.5408, 209.2642
375.0229, 206.5527
375.5050, 204.1160
375.9871, 201.9942
376.4692, 199.8768
376.9514, 197.5482
377.4335, 195.1868
377.9156, 193.0734
378.3977, 191.3197
378.8798, 189.5709
379.3619, 187.5078
379.8441, 185.2109
380.3262, 182.9971
380.8083, 180.8632
381.2904, 178.9820
381.7725, 177.6242
382.2546, 176.7652
382.7368, 176.0056
383.2189, 175.4699
383.7010, 174.8526
384.1831, 173.5284
384.6652, 171.3825
385.1473, 169.4114
385.6295, 168.5119
386.1116, 168.5324
386.5937, 168.1714
387.0758, 167.0953
387.5579, 165.9030
388.0400, 164.9010
388.5222, 164.0770
389.0043, 163.3752
389.4864, 162.7978
389.9685, 162.2875
390.4506, 161.6901
390.9327, 160.9317
391.4149, 160.2580
391.8970, 159.8212
392.3791, 159.4501
392.8612, 158.8434
393.3433, 157.9549
393.8254, 157.1770
394.3076, 157.0237
394.7897, 157.6846
395.2718, 157.9302
395.7539, 157.4581
396.2360, 156.8857
396.7181, 156.5824
397.2003, 156.4766
397.6824, 156.2826
398.1645, 155.8061
398.6466, 155.1165
399.1287, 154.5501
399.6108, 154.1592
400.0930, 153.8398
400.5751, 153.6337
401.0572, 153.4698
401.5393, 153.3788
402.0214, 153.3351
402.5035, 153.0749
402.9857, 152.1176
403.4678, 150.0120
403.9499, 148.5303
404.4320, 148.2319
404.9141, 147.9532
405.3962, 147.0343
405.8784, 145.6109
406.3605, 144.2221
406.8426, 143.2793
407.3247, 142.7211
407.8068, 142.1471
408.2889, 141.4843
408.7711, 140.9224
409.2532, 140.5721
409.7353, 140.3015
410.2174, 139.9648
410.6995, 139.5117
411.1816, 139.0108
411.6638, 138.5585
412.1459, 138.1664
412.6280, 137.7653
413.1101, 137.2497
413.5922, 136.8125
414.0743, 136.5634
414.5565, 136.4944
415.0386, 136.5395
415.5207, 136.7392
416.0028, 137.0219
416.4849, 137.0989
416.9670, 136.8844
417.4492, 136.6792
417.9313, 136.5759
418.4134, 136.5953
418.8955, 136.8175
419.3776, 137.3414
419.8597, 137.8863
420.3419, 138.0969
420.8240, 138.0254
421.3061, 138.2097
421.7882, 138.9844
422.2703, 139.8183
422.7524, 139.9662
423.2346, 139.4535
423.7167, 139.1095
424.1988, 139.2675
424.6809, 139.7473
425.1630, 140.4062
425.6451, 141.2305
426.1273, 141.9397
426.6094, 142.2947
427.0915, 142.3456
427.5736, 142.4591
428.0557, 142.6394
428.5378, 142.8745
429.0200, 143.1207
429.5021, 143.4216
429.9842, 143.8696
430.4663, 144.5018
430.9484, 145.2795
431.4305, 146.1816
431.9127, 147.4268
432.3948, 148.2044
432.8769, 148.1971
433.3590, 147.9552
433.8411, 147.7707
434.3232, 147.7077
434.8054, 147.8038
435.2875, 148.1093
435.7696, 148.5954
436.2517, 148.9675
436.7338, 149.0834
437.2159, 149.2486
437.6981, 149.5662
438.1802, 149.9286
438.6623, 150.1966
439.1444, 150.3298
439.6265, 150.4293
440.1086, 150.6634
440.5908, 151.0979
441.0729, 151.4510
441.5550, 151.7166
442.0371, 151.9082
442.5192, 152.0228
443.0013, 152.0666
443.4835, 152.0365
443.9656, 151.8960
444.4477, 151.7132
444.9298, 151.7218
445.4119, 151.9899
445.8940, 152.2793
446.3762, 152.5659
446.8583, 152.8102
447.3404, 153.0246
447.8225, 153.2169
448.3046, 153.1868
448.7867, 152.4929
449.2689, 151.3300
449.7510, 150.8384
450.2331, 151.4058
450.7152, 152.1803
451.1973, 152.4097
451.6794, 152.2975
452.1616, 152.3793
452.6437, 153.0588
453.1258, 153.7793
453.6079, 153.9313
454.0900, 153.5963
454.5721, 153.2752
455.0543, 153.1198
455.5364, 153.1757
456.0185, 153.6432
456.5006, 154.6700
456.9827, 155.4461
457.4648, 155.5943
457.9470, 155.5106
458.4291, 155.5321
458.9112, 155.7309
459.3933, 156.1925
459.8754, 157.0383
460.3575, 158.2551
460.8397, 159.2736
461.3218, 159.9320
461.8039, 160.6202
462.2860, 161.4642
462.7681, 162.3919
463.2502, 163.2959
463.7324, 164.1392
464.2145, 164.9557
464.6966, 165.7667
465.1787, 166.4544
465.6608, 167.4902
466.1429, 168.9546
466.6251, 170.6596
467.1072, 172.6728
467.5893, 174.8642
468.0714, 176.9432
468.5535, 178.6767
469.0356, 180.2795
469.5178, 182.4456
469.9999, 185.4285
470.4820, 188.3196
470.9641, 190.7861
471.4462, 193.1533
471.9283, 195.5358
472.4105, 197.9785
472.8926, 200.7526
473.3747, 204.2975
473.8568, 208.3792
474.3389, 211.9841
474.8210, 214.8628
475.3032, 217.8243
475.7853, 221.4292
476.2674, 225.5056
476.7495, 229.7440
477.2316, 234.2049
477.7137, 238.6247
478.1959, 242.8063
478.6780, 246.7808
479.1601, 250.7315
479.6422, 254.6803
480.1243, 258.6069
480.6064, 262.3942
481.0886, 265.9939
481.5707, 269.9130
482.0528, 274.4607
482.5349, 279.0782
483.0170, 283.3753
483.4991, 287.4048
483.9813, 291.3863
484.4634, 295.4581
484.9455, 299.5857
485.4276, 303.6908
485.9097, 307.7729
486.3918, 311.8223
486.8740, 315.9557
487.3561, 319.9905
487.8382, 323.9445
488.3203, 327.7242
488.8024, 331.0249
489.2845, 333.6235
489.7667, 335.5382
490.2488, 336.9578
490.7309, 337.8197
491.2130, 338.2545
491.6951, 338.4995
492.1772, 338.3115
492.6594, 337.4699
493.1415, 335.9229
493.6236, 333.6557
494.1057, 330.7284
494.5878, 327.1012
495.0699, 322.4637
495.5521, 316.5609
496.0342, 310.0775
496.5163, 303.5374
496.9984, 296.8180
497.4805, 289.6175
497.9626, 281.5477
498.4448, 273.3173
498.9269, 265.5732
499.4090, 258.2022
499.8911, 250.7175
500.3732, 242.9004
500.8553, 235.1395
501.3375, 227.9454
501.8196, 221.3798
502.3017, 215.0882
502.7838, 209.1060
503.2659, 203.3483
503.7480, 197.6784
504.2302, 192.1657
504.7123, 186.9446
505.1944, 182.0894
505.6765, 177.5814
506.1586, 173.3419
506.6407, 169.3410
507.1228, 165.6723
507.6049, 162.5197
508.0871, 159.5065
508.5692, 156.2267
509.0513, 152.7874
509.5334, 149.7244
510.0155, 147.5473
510.4977, 146.0442
510.9798, 144.2347
511.4619, 141.9630
511.9440, 139.7258
512.4261, 137.6514
512.9083, 135.6978
513.3904, 133.8187
513.8725, 132.0034
514.3546, 130.3400
514.8367, 128.9158
515.3188, 127.6874
515.8010, 126.5051
516.2831, 125.3420
516.7652, 124.2989
517.2473, 123.5754
517.7294, 123.0080
518.2115, 122.0646
518.6937, 120.4163
519.1758, 118.8569
519.6579, 117.8269
520.1400, 117.0919
520.6221, 116.2941
521.1042, 115.3419
521.5864, 114.2964
522.0685, 113.1847
522.5506, 111.9712
523.0327, 111.0720
523.5148, 110.8371
523.9969, 110.4581
524.4791, 109.6309
524.9612, 108.5238
525.4433, 107.2903
525.9254, 106.0150
526.4075, 104.8882
526.8896, 104.3519
527.3718, 104.6287
527.8539, 104.3185
528.3360, 102.8185
528.8181, 101.3624
529.3002, 100.5425
529.7823, 100.1170
530.2645, 99.60202
530.7466, 98.78451
531.2287, 97.86176
531.7108, 97.07652
532.1929, 96.42270
532.6750, 95.82883
533.1572, 95.33620
533.6393, 94.80280
534.1214, 93.99167
534.6035, 92.96117
535.0856, 92.06979
535.5677, 91.47883
536.0499, 90.97677
536.5320, 90.40730
537.0141, 89.79092
537.4962, 89.19104
537.9783, 88.63660
538.4604, 88.11731
538.9426, 87.63055
539.4247, 87.22536
539.9068, 86.70525
540.3889, 85.88515
540.8710, 85.13584
541.3531, 84.68491
541.8353, 84.45787
542.3174, 84.25083
542.7995, 83.95217
543.2816, 83.61436
543.7637, 83.36931
544.2458, 83.26035
544.7280, 83.09396
545.2101, 82.82468
545.6922, 82.50582
546.1743, 82.16075
546.6564, 81.78892
547.1385, 81.38775
547.6207, 80.93005
548.1028, 80.46262
548.5849, 80.05092
549.0670, 79.69433
549.5491, 79.39906
550.0313, 79.19535
550.5134, 79.01857
550.9955, 78.76134
551.4776, 78.42136
551.9597, 78.11201
552.4418, 77.82979
552.9240, 77.60861
553.4061, 77.50446
553.8882, 77.48818
554.3703, 77.47085
554.8524, 77.40707
555.3345, 77.31442
555.8167, 77.24029
556.2988, 77.25998
556.7809, 77.14152
557.2630, 76.80837
557.7451, 76.42581
558.2272, 76.03862
558.7094, 75.67686
559.1915, 75.38158
559.6736, 75.17229
560.1557, 75.04764
560.6378, 75.03289
561.1199, 75.15308
561.6021, 75.22143
562.0842, 75.17377
562.5663, 75.08577
563.0484, 75.04129
563.5305, 75.02319
564.0126, 74.93755
564.4948, 74.75152
564.9769, 74.48185
565.4590, 74.07027
565.9411, 73.56759
566.4232, 73.22330
566.9053, 73.15363
567.3875, 73.20950
567.8696, 73.15808
568.3517, 72.94709
568.8338, 72.80569
569.3159, 72.72656
569.7980, 72.72404
570.2802, 72.88552
570.7623, 73.11699
571.2444, 73.23817
571.7265, 73.16512
572.2086, 72.97813
572.6907, 72.80429
573.1729, 72.62393
573.6550, 72.53211
574.1371, 72.62405
574.6192, 72.70972
575.1013, 72.69575
575.5834, 72.61377
576.0656, 72.52145
576.5477, 72.41602
577.0298, 72.36524
577.5119, 72.55910
577.9940, 72.91312
578.4761, 72.92039
578.9583, 72.38085
579.4404, 71.76265
579.9225, 71.54148
580.4046, 71.69970
580.8867, 71.75017
581.3688, 71.58204
581.8510, 71.41367
582.3331, 71.32055
582.8152, 71.29349
583.2973, 71.35513
583.7794, 71.49699
584.2615, 71.58776
