##NAMES=Tsumcorite
##RRUFFID=R060081
##IDEAL CHEMISTRY=Pb^2+^Zn^2+^_2_(As^5+^O_4_)_2_&#183;2H_2_O
##LOCALITY=Tsumeb mine, Tsumeb, Otavi District, Oshikoto, Namibia
##OWNER=RRUFF
##SOURCE=Marcus Origlieri
##DESCRIPTION=Aggregate of yellowish-orange bladed crystals with significant chemical oscillations, associated with green duftite
##STATUS=The identification of this mineral is confirmed by single-crystal X-ray diffraction and chemical analysis.
##URL=rruff.info/R060081
##MEASURED CHEMISTRY=Pb_1.00_Zn_1.00_(Fe_0.80_Zn_0.20_)_Σ=1_(As_1.00_O_4_)_2_(OH)·H_2_O ; trace amounts of Ca, Na, Cu, Al ; H_2_O estimated by difference
93.74609, 12.94599
94.22821, 12.44549
94.71033, 12.71981
95.19244, 13.62827
95.67456, 14.66278
96.15668, 15.58919
96.63879, 16.48887
97.12091, 17.63685
97.60303, 19.04597
98.08514, 20.67945
98.56726, 22.47398
99.04938, 24.43683
99.53149, 26.56237
100.0136, 28.83676
100.4957, 31.24920
100.9778, 33.81985
101.4600, 36.52901
101.9421, 39.39503
102.4242, 42.40836
102.9063, 45.62624
103.3884, 48.89722
103.8705, 52.08757
104.3527, 55.20126
104.8348, 58.34000
105.3169, 61.58866
105.7990, 64.89700
106.2811, 68.15700
106.7632, 71.46729
107.2454, 74.59658
107.7275, 77.27605
108.2096, 78.94578
108.6917, 81.00582
109.1738, 83.71867
109.6559, 87.17435
110.1381, 90.67168
110.6202, 94.07567
111.1023, 97.60486
111.5844, 101.4740
112.0665, 105.8970
112.5486, 110.5096
113.0308, 115.2384
113.5129, 120.1058
113.9950, 125.1665
114.4771, 130.5583
114.9592, 136.1026
115.4413, 141.6220
115.9235, 147.0359
116.4056, 152.4175
116.8877, 157.7512
117.3698, 163.2083
117.8519, 168.4473
118.3340, 173.3411
118.8162, 177.9334
119.2983, 182.3096
119.7804, 186.4299
120.2625, 190.4508
120.7446, 194.4416
121.2267, 198.3563
121.7089, 202.3866
122.1910, 206.7848
122.6731, 211.4618
123.1552, 216.0007
123.6373, 219.8819
124.1194, 223.5306
124.6016, 227.5522
125.0837, 232.1541
125.5658, 237.1133
126.0479, 242.1602
126.5300, 247.3028
127.0121, 252.7164
127.4943, 258.5486
127.9764, 264.7376
128.4585, 271.3081
128.9406, 278.1387
129.4227, 285.3268
129.9048, 293.1351
130.3869, 301.6187
130.8691, 310.2810
131.3512, 318.4651
131.8333, 325.1927
132.3154, 330.4022
132.7975, 335.6792
133.2796, 341.3745
133.7618, 346.6859
134.2439, 351.4352
134.7260, 356.4189
135.2081, 363.2728
135.6902, 372.1010
136.1723, 380.4582
136.6545, 386.9342
137.1366, 391.5296
137.6187, 396.0797
138.1008, 400.6926
138.5829, 405.3601
139.0650, 410.3317
139.5472, 415.8095
140.0293, 420.8809
140.5114, 424.9661
140.9935, 427.9111
141.4756, 430.5929
141.9577, 432.9134
142.4399, 435.0548
142.9220, 437.8809
143.4041, 441.5492
143.8862, 445.6300
144.3683, 449.9723
144.8504, 454.8306
145.3326, 459.2733
145.8147, 462.8292
146.2968, 465.6294
146.7789, 469.3085
147.2610, 474.1644
147.7431, 479.6646
148.2253, 485.4698
148.7074, 491.7137
149.1895, 498.0675
149.6716, 504.5712
150.1537, 511.3393
150.6358, 517.3581
151.1180, 522.3738
151.6001, 526.7322
152.0822, 530.7156
152.5643, 534.5017
153.0464, 537.7361
153.5285, 540.4038
154.0107, 542.5674
154.4928, 543.7782
154.9749, 544.5301
155.4570, 544.1920
155.9391, 541.9913
156.4212, 536.6696
156.9034, 530.4974
157.3855, 524.2846
157.8676, 518.5098
158.3497, 511.7528
158.8318, 503.1871
159.3139, 493.5288
159.7961, 483.9342
160.2782, 474.9239
160.7603, 465.8887
161.2424, 456.4157
161.7245, 446.0041
162.2066, 436.1506
162.6888, 427.7033
163.1709, 420.1765
163.6530, 412.5051
164.1351, 403.5785
164.6172, 394.7818
165.0993, 387.0527
165.5815, 380.8329
166.0636, 375.1943
166.5457, 369.7507
167.0278, 364.4874
167.5099, 359.3765
167.9921, 354.1875
168.4742, 349.2374
168.9563, 344.8380
169.4384, 341.2566
169.9205, 337.9712
170.4026, 334.6315
170.8848, 331.2701
171.3669, 328.0792
171.8490, 325.0010
172.3311, 322.2197
172.8132, 320.0116
173.2953, 318.9513
173.7775, 317.9847
174.2596, 315.8538
174.7417, 312.7334
175.2238, 309.9177
175.7059, 308.7608
176.1880, 308.4853
176.6702, 307.8213
177.1523, 305.7899
177.6344, 303.5690
178.1165, 302.8504
178.5986, 303.5564
179.0807, 304.3246
179.5629, 303.8115
180.0450, 302.4913
180.5271, 301.4904
181.0092, 301.3651
181.4913, 301.7010
181.9734, 301.7899
182.4556, 301.6198
182.9377, 301.4586
183.4198, 301.6008
183.9019, 301.9729
184.3840, 302.3197
184.8661, 302.5641
185.3483, 302.7105
185.8304, 302.6972
186.3125, 302.4941
186.7946, 302.3868
187.2767, 302.8741
187.7588, 303.8374
188.2409, 304.5406
188.7231, 304.4986
189.2052, 303.9525
189.6873, 303.7944
190.1694, 304.0682
190.6515, 304.5372
191.1336, 305.0169
191.6158, 305.4958
192.0979, 305.7575
192.5800, 305.6304
193.0621, 305.1746
193.5442, 304.7370
194.0263, 304.2848
194.5085, 303.9352
194.9906, 303.9527
195.4727, 304.3366
195.9548, 304.6285
196.4369, 304.5038
196.9190, 304.0009
197.4012, 303.8318
197.8833, 304.0457
198.3654, 304.4728
198.8475, 304.9424
199.3296, 305.4839
199.8117, 305.7588
200.2939, 304.8778
200.7760, 304.9823
201.2581, 304.7893
201.7402, 304.3149
202.2223, 302.7162
202.7044, 302.5694
203.1866, 301.8405
203.6687, 301.0880
204.1508, 301.1455
204.6329, 299.7103
205.1150, 299.7549
205.5971, 299.2088
206.0793, 298.9330
206.5614, 298.0718
207.0435, 297.3915
207.5256, 297.2968
208.0077, 296.6219
208.4898, 296.2467
208.9720, 295.5314
209.4541, 294.3291
209.9362, 292.9160
210.4183, 291.9053
210.9004, 291.4220
211.3825, 290.9831
211.8647, 290.3924
212.3468, 289.6460
212.8289, 288.7095
213.3110, 287.4567
213.7931, 286.0942
214.2752, 285.1812
214.7574, 284.9235
215.2395, 284.5992
215.7216, 283.8236
216.2037, 282.4353
216.6858, 281.2383
217.1679, 280.2785
217.6501, 279.4888
218.1322, 278.7365
218.6143, 278.0361
219.0964, 277.3326
219.5785, 276.6508
220.0606, 276.0665
220.5428, 275.1833
221.0249, 273.7457
221.5070, 272.1349
221.9891, 271.3594
222.4712, 271.7750
222.9533, 272.3447
223.4355, 272.6391
223.9176, 272.6403
224.3997, 272.4111
224.8818, 271.8551
225.3639, 271.1120
225.8460, 270.4756
226.3282, 269.9420
226.8103, 269.5323
227.2924, 269.2841
227.7745, 269.2660
228.2566, 269.2099
228.7387, 269.0717
229.2209, 268.9169
229.7030, 268.9249
230.1851, 269.2422
230.6672, 269.4910
231.1493, 269.4823
231.6314, 269.0492
232.1136, 268.8274
232.5957, 268.9012
233.0778, 269.1507
233.5599, 269.2812
234.0420, 269.1015
234.5241, 269.1108
235.0063, 269.5992
235.4884, 270.9061
235.9705, 271.6402
236.4526, 271.4634
236.9347, 270.8611
237.4168, 270.8917
237.8990, 271.9759
238.3811, 273.0094
238.8632, 273.5629
239.3453, 273.4976
239.8274, 273.3513
240.3095, 273.0855
240.7917, 272.7580
241.2738, 272.4702
241.7559, 272.2050
242.2380, 272.0156
242.7201, 271.9585
243.2022, 272.1264
243.6844, 272.1179
244.1665, 271.8782
244.6486, 271.5009
245.1307, 271.1582
245.6128, 270.9445
246.0949, 270.6044
246.5771, 269.9770
247.0592, 268.8865
247.5413, 268.2245
248.0234, 268.1773
248.5055, 268.4317
248.9876, 268.5141
249.4697, 268.3693
249.9519, 268.1521
250.4340, 267.9390
250.9161, 267.7813
251.3982, 267.3172
251.8803, 266.3391
252.3624, 265.2301
252.8446, 264.5787
253.3267, 264.6522
253.8088, 264.6475
254.2909, 264.3148
254.7730, 263.5975
255.2551, 262.9884
255.7373, 262.4670
256.2194, 261.5291
256.7015, 261.7895
257.1836, 261.7878
257.6657, 261.5400
258.1479, 260.2032
258.6300, 260.3536
259.1121, 259.9575
259.5942, 259.5728
260.0763, 260.0335
260.5584, 259.0368
261.0406, 259.5553
261.5227, 259.5184
262.0048, 259.7872
262.4869, 259.5058
262.9690, 259.4406
263.4511, 259.9964
263.9333, 260.2632
264.4154, 260.0558
264.8975, 260.5537
265.3796, 259.8898
265.8617, 260.3848
266.3438, 260.6367
266.8260, 261.2646
267.3081, 262.3721
267.7902, 263.6696
268.2723, 264.9403
268.7544, 266.2666
269.2365, 267.2868
269.7187, 267.7570
270.2008, 267.8682
270.6829, 268.7846
271.1650, 270.8028
271.6471, 272.9067
272.1292, 274.1079
272.6114, 274.1284
273.0935, 274.8398
273.5756, 276.6545
274.0577, 279.2301
274.5398, 281.3907
275.0219, 282.9935
275.5041, 284.5678
275.9862, 286.5822
276.4683, 289.1411
276.9504, 291.1172
277.4325, 292.1780
277.9146, 292.7997
278.3968, 294.2260
278.8788, 296.5568
279.3610, 299.1570
279.8431, 301.6915
280.3252, 304.1419
280.8073, 306.6753
281.2894, 309.4207
281.7715, 312.0909
282.2537, 313.9659
282.7358, 314.9623
283.2179, 316.0619
283.7000, 317.8201
284.1821, 320.2157
284.6642, 322.5410
285.1464, 324.7780
285.6285, 326.9650
286.1106, 329.3203
286.5927, 331.8417
287.0748, 333.8634
287.5569, 334.8677
288.0391, 335.0150
288.5212, 335.3996
289.0033, 336.0496
289.4854, 336.8020
289.9675, 337.5552
290.4496, 338.2921
290.9318, 338.7751
291.4139, 338.8654
291.8960, 338.6492
292.3781, 338.3744
292.8602, 338.0359
293.3423, 337.7008
293.8245, 337.5170
294.3066, 337.4244
294.7887, 337.1509
295.2708, 336.7094
295.7529, 335.9800
296.2350, 334.5806
296.7172, 332.5190
297.1993, 330.3036
297.6814, 328.0386
298.1635, 325.9013
298.6456, 324.5338
299.1277, 324.4562
299.6099, 324.7589
300.0920, 324.0117
300.5741, 322.3161
301.0562, 320.4247
301.5383, 318.6788
302.0204, 317.1145
302.5026, 315.8846
302.9847, 315.1417
303.4668, 314.4547
303.9489, 313.0844
304.4310, 311.2718
304.9131, 309.8123
305.3953, 309.2941
305.8774, 309.3750
306.3595, 309.7646
306.8416, 310.5477
307.3237, 311.1141
307.8058, 310.5729
308.2880, 309.3781
308.7701, 308.5573
309.2522, 308.7697
309.7343, 309.4915
310.2164, 310.3101
310.6985, 311.2152
311.1807, 312.0934
311.6628, 312.7774
312.1449, 313.4160
312.6270, 314.2095
313.1091, 315.4282
313.5912, 316.6976
314.0734, 317.4911
314.5555, 317.8091
315.0376, 318.9330
315.5197, 322.4169
316.0018, 326.7278
316.4839, 330.1826
316.9661, 331.5850
317.4482, 332.6790
317.9303, 334.0603
318.4124, 335.7151
318.8945, 337.5982
319.3766, 339.5754
319.8588, 341.8273
320.3409, 344.4831
320.8230, 348.0082
321.3051, 351.3829
321.7872, 354.3054
322.2693, 356.8616
322.7515, 359.3156
323.2336, 361.7398
323.7157, 364.0704
324.1978, 366.1841
324.6799, 367.5150
325.1620, 369.6802
325.6442, 373.5489
326.1263, 378.3035
326.6084, 382.4938
327.0905, 385.5478
327.5726, 388.4120
328.0547, 391.2873
328.5369, 394.0229
329.0190, 397.2255
329.5011, 401.1558
329.9832, 405.4226
330.4653, 409.5619
330.9474, 413.1706
331.4296, 417.1655
331.9117, 421.8921
332.3938, 427.3835
332.8759, 432.5183
333.3580, 437.0324
333.8401, 441.5115
334.3223, 446.4362
334.8044, 452.3181
335.2865, 457.6647
335.7686, 461.9990
336.2507, 465.5962
336.7328, 469.7592
337.2150, 474.6764
337.6971, 479.8603
338.1792, 485.2363
338.6613, 490.9776
339.1434, 495.9332
339.6255, 499.8694
340.1077, 503.1020
340.5898, 506.4184
341.0719, 509.7565
341.5540, 513.1877
342.0361, 516.8712
342.5182, 520.8630
343.0004, 524.1140
343.4825, 526.4619
343.9646, 528.4125
344.4467, 530.6484
344.9288, 533.1506
345.4109, 535.5889
345.8931, 537.7933
346.3752, 539.8386
346.8573, 541.8874
347.3394, 543.9451
347.8215, 546.1071
348.3036, 548.7162
348.7858, 551.6002
349.2679, 553.8814
349.7500, 555.0811
350.2321, 555.8135
350.7142, 557.3204
351.1964, 559.5000
351.6785, 561.4654
352.1606, 562.3915
352.6427, 562.6503
353.1248, 563.0541
353.6069, 563.8632
354.0891, 564.4994
354.5712, 564.2568
355.0533, 563.3265
355.5354, 562.2285
356.0175, 561.2037
356.4996, 560.1982
356.9818, 559.3051
357.4639, 558.6017
357.9460, 557.3702
358.4281, 554.8199
358.9102, 551.4669
359.3923, 548.1013
359.8745, 545.2108
360.3566, 542.2362
360.8387, 538.7638
361.3208, 534.8146
361.8029, 530.9473
362.2850, 527.5418
362.7672, 524.2599
363.2493, 520.8362
363.7314, 517.4762
364.2135, 513.6188
364.6956, 508.8069
365.1777, 503.3238
365.6599, 498.1066
366.1420, 493.7308
366.6241, 489.3906
367.1062, 484.6869
367.5883, 479.2116
368.0704, 474.1286
368.5526, 469.9509
369.0347, 466.1622
369.5168, 461.8914
369.9989, 456.5289
370.4810, 451.2601
370.9631, 446.3602
371.4453, 441.8959
371.9274, 437.2231
372.4095, 432.2538
372.8916, 427.2018
373.3737, 422.1875
373.8558, 417.1072
374.3380, 412.2689
374.8201, 407.7902
375.3022, 403.5617
375.7843, 399.0652
376.2664, 394.1179
376.7485, 389.2062
377.2307, 384.5255
377.7128, 379.9840
378.1949, 376.2272
378.6770, 373.6157
379.1591, 371.4242
379.6412, 368.1607
380.1234, 363.6582
380.6055, 359.4546
381.0876, 356.2892
381.5697, 354.0417
382.0518, 351.8591
382.5339, 349.7762
383.0161, 347.6583
383.4982, 345.2723
383.9803, 342.6801
384.4624, 340.3561
384.9445, 338.4767
385.4266, 336.8941
385.9088, 335.3281
386.3909, 333.7906
386.8730, 332.3783
387.3551, 331.2405
387.8372, 330.2398
388.3193, 329.1207
388.8015, 327.8116
389.2836, 326.4607
389.7657, 325.0107
390.2478, 323.6100
390.7299, 322.6380
391.2120, 322.8020
391.6942, 323.1329
392.1763, 322.6759
392.6584, 321.3253
393.1405, 320.2240
393.6226, 320.2396
394.1047, 320.7260
394.5869, 320.9940
395.0690, 320.7950
395.5511, 320.3776
396.0332, 319.6962
396.5153, 318.8184
396.9974, 318.0959
397.4796, 317.9186
397.9617, 317.7045
398.4438, 317.1132
398.9259, 315.8118
399.4080, 314.6583
399.8901, 313.7357
400.3723, 313.0075
400.8544, 312.4265
401.3365, 312.3994
401.8186, 312.0384
402.3007, 311.0515
402.7828, 309.3640
403.2649, 307.7003
403.7470, 306.0131
404.2292, 304.3911
404.7113, 302.9422
405.1934, 301.6983
405.6755, 300.5038
406.1576, 299.3823
406.6397, 298.2853
407.1219, 296.9843
407.6040, 295.3770
408.0861, 293.9485
408.5682, 293.1366
409.0503, 292.9362
409.5324, 292.2250
410.0146, 290.8262
410.4967, 288.5132
410.9788, 288.4524
411.4609, 288.1858
411.9430, 287.7295
412.4251, 286.2405
412.9073, 286.2951
413.3894, 285.8596
413.8715, 285.4920
414.3536, 286.0261
414.8357, 285.1593
415.3178, 285.8640
415.8000, 286.0697
416.2821, 286.6375
416.7642, 286.7115
417.2463, 287.0581
417.7284, 287.9362
418.2105, 288.4215
418.6927, 288.4150
419.1748, 288.3603
419.6569, 288.6257
420.1390, 289.2800
420.6211, 289.9734
421.1032, 290.5652
421.5854, 291.1151
422.0675, 291.6881
422.5496, 292.1237
423.0317, 292.7780
423.5138, 293.8278
423.9959, 295.2181
424.4781, 296.6602
424.9602, 298.2920
425.4423, 299.7862
425.9244, 300.9626
426.4065, 301.5223
426.8886, 302.3014
427.3708, 303.4173
427.8529, 304.7033
428.3350, 305.9055
428.8171, 306.9628
429.2992, 308.0556
429.7813, 309.3370
430.2635, 310.7821
430.7456, 311.5749
431.2277, 311.4160
431.7098, 311.2481
432.1919, 311.9440
432.6740, 313.5869
433.1562, 315.0744
433.6383, 316.2757
434.1204, 317.2528
434.6025, 318.0507
435.0846, 318.6747
435.5667, 319.3682
436.0489, 320.3891
436.5310, 321.5872
437.0131, 322.4075
437.4952, 322.8177
437.9773, 323.2463
438.4594, 324.3181
438.9416, 325.7074
439.4237, 326.6672
439.9058, 326.5678
440.3879, 326.4572
440.8700, 327.7695
441.3521, 330.0488
441.8343, 331.6782
442.3164, 330.8931
442.7985, 329.6757
443.2806, 329.6568
443.7627, 331.2930
444.2448, 333.0365
444.7270, 334.5611
445.2091, 335.7173
445.6912, 336.3164
446.1733, 335.6968
446.6554, 335.1391
447.1375, 334.8654
447.6197, 334.8896
448.1018, 335.3554
448.5839, 336.5830
449.0660, 337.9914
449.5481, 339.3399
450.0302, 340.8320
450.5124, 341.8314
450.9945, 342.0349
451.4766, 341.9507
451.9587, 342.4465
452.4408, 343.7609
452.9229, 345.0017
453.4051, 345.8146
453.8872, 346.3075
454.3693, 347.5777
454.8514, 349.8185
455.3335, 352.0257
455.8156, 353.3130
456.2978, 353.7657
456.7799, 354.1601
457.2620, 354.4579
457.7441, 355.0799
458.2262, 356.9920
458.7083, 359.9038
459.1905, 362.5987
459.6726, 364.1803
460.1547, 365.2863
460.6368, 366.8127
461.1189, 368.7692
461.6010, 370.7707
462.0832, 372.3810
462.5653, 373.9583
463.0474, 375.8838
463.5295, 378.3245
464.0116, 381.0666
464.4937, 384.1330
464.9759, 387.4223
465.4580, 390.6307
465.9401, 393.4792
466.4222, 396.4088
466.9043, 399.5707
467.3864, 402.9880
467.8686, 406.5736
468.3507, 410.1772
468.8328, 414.0401
469.3149, 418.3385
469.7970, 423.2564
470.2791, 428.3012
470.7613, 433.5538
471.2434, 438.8475
471.7255, 443.5466
472.2076, 447.1255
472.6897, 451.4321
473.1718, 457.4546
473.6540, 465.1700
474.1361, 472.8294
474.6182, 480.4843
475.1003, 487.9044
475.5824, 494.5825
476.0645, 500.6820
476.5467, 507.3223
477.0288, 514.7899
477.5109, 522.9003
477.9930, 531.4032
478.4751, 540.3007
478.9572, 549.5915
479.4394, 559.5106
479.9215, 569.7499
480.4036, 579.7538
480.8857, 589.5297
481.3678, 599.3687
481.8499, 609.2246
482.3321, 619.3776
482.8142, 630.0140
483.2963, 641.3697
483.7784, 653.1357
484.2605, 665.3651
484.7426, 677.8623
485.2248, 690.0706
485.7069, 701.5486
486.1890, 712.8510
486.6711, 724.2611
487.1532, 735.9410
487.6353, 747.0416
488.1175, 757.1661
488.5996, 766.8176
489.0817, 776.4601
489.5638, 786.4764
490.0459, 795.3633
490.5280, 803.1218
491.0102, 809.5618
491.4923, 814.5383
491.9744, 818.1882
492.4565, 819.6840
492.9386, 818.4045
493.4207, 814.5851
493.9029, 810.1078
494.3850, 805.0248
494.8671, 798.4183
495.3492, 789.1335
495.8313, 777.5714
496.3134, 764.7410
496.7956, 750.8730
497.2777, 735.8729
497.7598, 719.6368
498.2419, 702.2638
498.7240, 684.4675
499.2061, 666.0076
499.6883, 647.4380
500.1704, 628.8028
500.6525, 610.1383
501.1346, 592.5008
501.6167, 576.2726
502.0988, 561.0551
502.5810, 546.5988
503.0631, 533.1199
503.5452, 519.6678
504.0273, 505.8568
504.5094, 492.0808
504.9915, 479.4090
505.4737, 468.1718
505.9558, 457.5570
506.4379, 447.4383
506.9200, 437.8231
507.4021, 428.9721
507.8842, 420.9106
508.3664, 413.3008
508.8485, 405.8851
509.3306, 398.6678
509.8127, 391.3167
510.2948, 383.7056
510.7769, 376.3131
511.2591, 370.0256
511.7412, 364.7046
512.2233, 359.7520
512.7054, 354.9715
513.1875, 350.3630
513.6696, 345.9426
514.1517, 341.7035
514.6339, 337.5996
515.1160, 333.6035
515.5981, 329.7400
516.0802, 325.9675
516.5623, 322.2684
517.0444, 318.7525
517.5266, 315.6837
518.0087, 312.7411
518.4908, 309.5739
518.9729, 305.4750
519.4550, 301.8319
519.9371, 299.3207
520.4193, 297.5990
520.9014, 295.2542
521.3835, 291.5827
521.8656, 288.1847
522.3477, 285.7812
522.8298, 284.5665
523.3120, 282.6935
523.7941, 280.0029
524.2762, 277.0606
524.7583, 274.3145
525.2404, 271.7471
525.7225, 269.6886
526.2047, 268.3528
526.6868, 267.1974
527.1689, 265.2140
527.6510, 262.4980
528.1331, 259.6331
528.6152, 256.5502
529.0974, 253.6317
529.5795, 251.5525
530.0616, 250.2404
530.5437, 248.9314
531.0258, 247.2206
531.5079, 245.2044
531.9901, 242.8613
532.4722, 240.0053
532.9543, 237.3280
533.4364, 235.1099
533.9185, 233.2118
534.4006, 231.4016
534.8828, 229.6867
535.3649, 228.0183
535.8470, 226.5158
536.3291, 225.0973
536.8112, 223.3905
537.2933, 221.2591
537.7755, 219.0516
538.2576, 216.9173
538.7397, 214.8250
539.2218, 212.8616
539.7039, 211.0133
540.1860, 209.3872
540.6682, 208.2890
541.1503, 207.6601
541.6324, 206.7822
542.1145, 205.4816
542.5966, 203.9391
543.0787, 202.2547
543.5609, 200.5252
544.0430, 199.1073
544.5251, 198.5536
545.0072, 198.1653
545.4893, 197.1389
545.9714, 195.5130
546.4536, 194.0186
546.9357, 193.0491
547.4178, 192.3623
547.8999, 191.8138
548.3820, 191.4975
548.8641, 191.0361
549.3463, 190.3070
549.8284, 189.4049
550.3105, 188.4445
550.7926, 187.2827
551.2747, 186.2888
551.7568, 185.5559
552.2390, 185.0208
552.7211, 184.3993
553.2032, 183.6715
553.6853, 182.9232
554.1674, 182.1363
554.6495, 181.3306
555.1317, 180.8791
555.6138, 180.8438
556.0959, 180.7618
556.5780, 180.0148
557.0601, 178.8728
557.5422, 178.1225
558.0244, 178.0374
558.5065, 178.0559
558.9886, 177.5490
559.4707, 176.7321
559.9528, 176.0489
560.4349, 175.8125
560.9171, 175.6353
561.3992, 175.3159
561.8813, 174.8639
562.3634, 174.4033
562.8455, 173.8989
563.3276, 173.4407
563.8098, 173.0611
564.2919, 172.7517
564.7740, 172.5624
565.2561, 172.6134
565.7382, 172.6606
566.2203, 172.3760
566.7025, 171.5638
567.1846, 171.3071
567.6667, 171.9681
568.1488, 172.9434
568.6309, 172.8342
569.1130, 171.6906
569.5952, 170.6521
570.0773, 170.2730
570.5594, 170.2898
571.0415, 170.2382
571.5236, 170.1205
572.0057, 169.9502
572.4879, 169.7453
572.9700, 169.4885
573.4521, 169.1339
573.9342, 168.6456
574.4163, 168.2141
574.8984, 167.8635
575.3806, 167.6418
575.8627, 167.5947
576.3448, 168.0564
576.8269, 168.2983
577.3090, 168.1939
577.7911, 167.8229
578.2733, 167.2928
578.7554, 166.3436
579.2375, 165.7934
579.7196, 166.0652
580.2017, 167.0209
580.6838, 167.3290
581.1660, 166.9206
581.6481, 166.2917
582.1302, 165.6079
582.6123, 164.9726
583.0944, 164.9733
583.5765, 165.7218
584.0587, 166.4707
584.5408, 166.2632
