##NAMES=Tsumcorite
##RRUFFID=R110036
##IDEAL CHEMISTRY=Pb^2+^Zn^2+^_2_(As^5+^O_4_)_2_&#183;2H_2_O
##LOCALITY=Tsumeb, Namibia
##OWNER=RRUFF
##SOURCE=William W Pinch
##DESCRIPTION=Orange wedge-shaped crystals
##STATUS=The identification of this mineral has been confirmed only by single crystal X-ray diffraction.
##URL=rruff.info/R110036
177.2732, 1343.203
177.7553, 1358.211
178.2374, 1367.541
178.7195, 1373.697
179.2017, 1376.041
179.6838, 1376.884
180.1659, 1379.907
180.6480, 1385.302
181.1301, 1391.138
181.6122, 1395.112
182.0944, 1397.937
182.5765, 1401.804
183.0586, 1409.061
183.5407, 1417.816
184.0228, 1423.879
184.5049, 1426.777
184.9871, 1429.109
185.4692, 1433.886
185.9513, 1440.803
186.4334, 1448.090
186.9155, 1455.193
187.3976, 1462.048
187.8798, 1468.496
188.3619, 1474.422
188.8440, 1480.205
189.3261, 1486.147
189.8082, 1492.294
190.2903, 1498.711
190.7725, 1505.716
191.2546, 1513.209
191.7367, 1519.927
192.2188, 1525.722
192.7009, 1531.085
193.1830, 1536.494
193.6652, 1541.918
194.1473, 1547.835
194.6294, 1555.440
195.1115, 1564.414
195.5936, 1569.991
196.0757, 1570.961
196.5579, 1570.074
197.0400, 1573.584
197.5221, 1582.054
198.0042, 1588.944
198.4863, 1589.691
198.9684, 1584.215
199.4506, 1580.220
199.9327, 1578.530
200.4148, 1578.237
200.8969, 1577.509
201.3790, 1576.316
201.8611, 1574.904
202.3433, 1573.711
202.8254, 1572.884
203.3075, 1570.374
203.7896, 1565.353
204.2717, 1559.180
204.7538, 1555.716
205.2360, 1555.602
205.7181, 1555.700
206.2002, 1554.327
206.6823, 1551.433
207.1644, 1547.185
207.6465, 1541.312
208.1287, 1534.227
208.6108, 1526.809
209.0929, 1518.817
209.5750, 1511.081
210.0571, 1504.218
210.5392, 1498.308
211.0214, 1492.777
211.5035, 1487.766
211.9856, 1483.085
212.4677, 1477.705
212.9498, 1471.210
213.4319, 1465.008
213.9140, 1460.072
214.3962, 1456.891
214.8783, 1453.313
215.3604, 1449.157
215.8425, 1444.490
216.3246, 1439.662
216.8067, 1434.444
217.2889, 1429.394
217.7710, 1424.697
218.2531, 1420.132
218.7352, 1416.471
219.2173, 1413.788
219.6994, 1411.981
220.1816, 1410.822
220.6637, 1410.507
221.1458, 1410.388
221.6279, 1410.119
222.1100, 1409.790
222.5921, 1408.973
223.0743, 1407.295
223.5564, 1405.093
224.0385, 1403.762
224.5206, 1403.112
225.0027, 1403.701
225.4848, 1406.328
225.9670, 1412.628
226.4491, 1416.863
226.9312, 1417.449
227.4133, 1415.551
227.8954, 1417.116
228.3775, 1423.920
228.8597, 1431.557
229.3418, 1437.184
229.8239, 1439.625
230.3060, 1442.776
230.7881, 1447.167
231.2702, 1452.489
231.7524, 1457.000
232.2345, 1459.674
232.7166, 1462.827
233.1987, 1468.154
233.6808, 1477.760
234.1629, 1484.650
234.6451, 1487.374
235.1272, 1486.972
235.6093, 1488.143
236.0914, 1491.593
236.5735, 1495.644
237.0556, 1499.635
237.5378, 1504.557
238.0199, 1507.184
238.5020, 1506.303
238.9841, 1503.020
239.4662, 1502.056
239.9483, 1505.636
240.4305, 1508.593
240.9126, 1508.041
241.3947, 1502.262
241.8768, 1496.886
242.3589, 1492.596
242.8410, 1488.894
243.3232, 1483.810
243.8053, 1476.748
244.2874, 1469.117
244.7695, 1461.623
245.2516, 1454.098
245.7337, 1446.936
246.2159, 1440.509
246.6980, 1434.327
247.1801, 1426.818
247.6622, 1416.706
248.1443, 1407.027
248.6264, 1399.703
249.1086, 1396.786
249.5907, 1390.984
250.0728, 1380.761
250.5549, 1368.005
251.0370, 1357.886
251.5191, 1351.777
252.0013, 1346.158
252.4834, 1339.389
252.9655, 1331.035
253.4476, 1322.863
253.9297, 1314.635
254.4118, 1306.732
254.8940, 1299.713
255.3761, 1293.279
255.8582, 1288.229
256.3403, 1285.334
256.8224, 1285.721
257.3046, 1284.344
257.7867, 1280.376
258.2688, 1275.149
258.7509, 1271.377
259.2330, 1269.785
259.7151, 1268.191
260.1973, 1265.533
260.6794, 1261.348
261.1615, 1258.255
261.6436, 1256.037
262.1257, 1255.133
262.6078, 1256.580
263.0900, 1261.160
263.5721, 1266.242
264.0542, 1270.597
264.5363, 1273.882
265.0184, 1279.349
265.5005, 1287.312
265.9827, 1297.210
266.4648, 1308.695
266.9469, 1322.203
267.4290, 1335.797
267.9111, 1348.703
268.3932, 1360.709
268.8754, 1374.575
269.3575, 1390.471
269.8396, 1407.871
270.3217, 1425.802
270.8038, 1443.963
271.2859, 1463.487
271.7681, 1484.798
272.2502, 1507.720
272.7323, 1530.729
273.2144, 1553.432
273.6965, 1576.192
274.1786, 1599.016
274.6608, 1621.950
275.1429, 1645.858
275.6250, 1671.010
276.1071, 1697.236
276.5892, 1724.333
277.0714, 1751.807
277.5535, 1780.361
278.0356, 1811.047
278.5177, 1844.124
278.9998, 1876.531
279.4819, 1907.555
279.9641, 1937.539
280.4462, 1966.236
280.9283, 1993.330
281.4104, 2020.834
281.8925, 2052.161
282.3746, 2087.431
282.8568, 2118.302
283.3389, 2142.539
283.8210, 2162.302
284.3031, 2183.985
284.7852, 2208.123
285.2673, 2230.782
285.7495, 2249.219
286.2316, 2263.688
286.7137, 2277.100
287.1958, 2290.184
287.6779, 2301.938
288.1600, 2310.492
288.6422, 2315.845
289.1243, 2318.063
289.6064, 2316.794
290.0885, 2312.250
290.5706, 2305.382
291.0527, 2296.066
291.5349, 2284.803
292.0170, 2273.028
292.4991, 2260.577
292.9812, 2244.754
293.4633, 2222.331
293.9454, 2195.309
294.4276, 2170.868
294.9097, 2150.239
295.3918, 2129.506
295.8739, 2102.579
296.3560, 2070.930
296.8381, 2040.169
297.3203, 2013.146
297.8024, 1989.171
298.2845, 1967.090
298.7666, 1946.968
299.2487, 1927.131
299.7308, 1904.465
300.2130, 1880.215
300.6951, 1858.317
301.1772, 1841.305
301.6593, 1827.090
302.1414, 1812.265
302.6235, 1796.987
303.1057, 1782.803
303.5878, 1771.740
304.0699, 1762.714
304.5520, 1753.852
305.0341, 1743.341
305.5162, 1733.863
305.9984, 1728.035
306.4805, 1725.756
306.9626, 1725.964
307.4447, 1728.667
307.9268, 1733.232
308.4089, 1738.749
308.8911, 1744.635
309.3732, 1751.955
309.8553, 1761.356
310.3374, 1772.799
310.8195, 1786.417
311.3016, 1803.175
311.7838, 1821.480
312.2659, 1839.932
312.7480, 1857.662
313.2301, 1876.745
313.7122, 1898.451
314.1943, 1922.622
314.6765, 1948.476
315.1586, 1976.493
315.6407, 2005.417
316.1228, 2034.422
316.6049, 2062.781
317.0870, 2093.343
317.5692, 2128.799
318.0513, 2166.673
318.5334, 2203.299
319.0155, 2236.012
319.4976, 2268.531
319.9797, 2301.974
320.4619, 2336.432
320.9440, 2371.986
321.4261, 2408.949
321.9082, 2446.546
322.3903, 2483.898
322.8724, 2519.407
323.3546, 2556.005
323.8367, 2595.438
324.3188, 2637.531
324.8009, 2677.797
325.2830, 2711.504
325.7651, 2745.261
326.2473, 2783.274
326.7294, 2828.011
327.2115, 2874.712
327.6936, 2924.599
328.1757, 2976.519
328.6578, 3026.767
329.1400, 3073.790
329.6221, 3120.587
330.1042, 3168.930
330.5863, 3220.798
331.0684, 3271.284
331.5505, 3320.164
332.0327, 3367.393
332.5148, 3412.697
332.9969, 3458.910
333.4790, 3499.230
333.9611, 3531.554
334.4432, 3554.617
334.9254, 3574.592
335.4075, 3593.192
335.8896, 3606.859
336.3717, 3609.996
336.8538, 3600.077
337.3359, 3585.484
337.8180, 3568.400
338.3001, 3548.924
338.7823, 3525.368
339.2644, 3497.966
339.7465, 3466.773
340.2286, 3430.962
340.7107, 3390.159
341.1928, 3348.874
341.6750, 3308.021
342.1571, 3267.859
342.6392, 3231.979
343.1213, 3200.469
343.6034, 3171.267
344.0855, 3142.260
344.5677, 3113.770
345.0498, 3087.546
345.5319, 3064.072
346.0140, 3042.867
346.4961, 3022.802
346.9782, 3003.986
347.4604, 2987.392
347.9425, 2973.580
348.4246, 2962.487
348.9067, 2955.035
349.3888, 2951.727
349.8709, 2949.773
350.3531, 2946.139
350.8352, 2941.064
351.3173, 2935.477
351.7994, 2928.724
352.2815, 2921.978
352.7636, 2917.410
353.2458, 2914.992
353.7279, 2913.168
354.2100, 2911.254
354.6921, 2908.906
355.1742, 2905.675
355.6563, 2902.285
356.1385, 2896.932
356.6206, 2886.876
357.1027, 2872.810
357.5848, 2858.567
358.0669, 2847.493
358.5490, 2836.684
359.0312, 2823.287
359.5133, 2805.938
359.9954, 2787.531
360.4775, 2770.616
360.9596, 2753.805
361.4417, 2734.440
361.9239, 2709.191
362.4060, 2682.696
362.8881, 2657.668
363.3702, 2634.785
363.8523, 2611.295
364.3344, 2586.302
364.8166, 2560.235
365.2987, 2533.363
365.7808, 2506.698
366.2629, 2479.009
366.7450, 2449.649
367.2271, 2418.620
367.7093, 2387.759
368.1914, 2356.684
368.6735, 2326.171
369.1556, 2296.500
369.6377, 2269.207
370.1198, 2241.594
370.6020, 2212.961
371.0841, 2183.826
371.5662, 2156.024
372.0483, 2130.446
372.5304, 2105.482
373.0125, 2080.584
373.4947, 2056.271
373.9768, 2030.765
374.4589, 2002.655
374.9410, 1974.189
375.4231, 1949.595
375.9052, 1929.818
376.3874, 1910.896
376.8695, 1892.102
377.3516, 1873.220
377.8337, 1853.924
378.3158, 1833.531
378.7979, 1814.005
379.2801, 1798.134
379.7622, 1785.989
380.2443, 1773.141
380.7264, 1758.152
381.2085, 1742.214
381.6906, 1728.350
382.1728, 1716.611
382.6549, 1705.840
383.1370, 1695.032
383.6191, 1684.482
384.1012, 1676.286
384.5833, 1671.017
385.0655, 1666.409
385.5476, 1659.249
386.0297, 1650.072
386.5118, 1641.261
386.9939, 1633.177
387.4760, 1626.376
387.9582, 1622.068
388.4403, 1620.265
388.9224, 1619.108
389.4045, 1617.508
389.8866, 1615.549
390.3687, 1613.292
390.8509, 1610.472
391.3330, 1607.764
391.8151, 1605.547
392.2972, 1603.830
392.7793, 1602.549
393.2614, 1601.759
393.7436, 1601.346
394.2257, 1601.169
394.7078, 1601.075
395.1899, 1601.510
395.6720, 1602.493
396.1541, 1604.102
396.6363, 1606.473
397.1184, 1610.375
397.6005, 1614.338
398.0826, 1617.976
398.5647, 1621.284
399.0468, 1624.070
399.5290, 1626.702
400.0111, 1628.578
400.4932, 1629.215
400.9753, 1627.800
401.4574, 1626.222
401.9395, 1624.345
402.4217, 1622.382
402.9038, 1621.579
403.3859, 1623.352
403.8680, 1624.223
404.3501, 1622.039
404.8322, 1615.369
405.3144, 1610.910
405.7965, 1609.452
406.2786, 1609.316
406.7607, 1607.501
407.2428, 1603.480
407.7249, 1600.684
408.2071, 1600.789
408.6892, 1603.207
409.1713, 1604.064
409.6534, 1603.153
410.1355, 1601.844
410.6176, 1600.407
411.0998, 1599.256
411.5819, 1601.311
412.0640, 1607.984
412.5461, 1616.675
413.0282, 1623.334
413.5103, 1628.231
413.9925, 1633.136
414.4746, 1638.893
414.9567, 1645.436
415.4388, 1652.682
415.9209, 1660.733
416.4030, 1669.078
416.8852, 1677.047
417.3673, 1685.165
417.8494, 1694.297
418.3315, 1706.266
418.8136, 1718.234
419.2957, 1727.602
419.7779, 1734.906
420.2600, 1744.182
420.7421, 1758.513
421.2242, 1774.776
421.7063, 1790.461
422.1884, 1805.545
422.6706, 1819.785
423.1527, 1832.160
423.6348, 1843.869
424.1169, 1857.192
424.5990, 1873.664
425.0811, 1890.791
425.5633, 1908.364
426.0454, 1926.714
426.5275, 1942.882
427.0096, 1955.289
427.4917, 1966.864
427.9738, 1980.076
428.4560, 1995.570
428.9381, 2011.256
429.4202, 2027.189
429.9023, 2042.865
430.3844, 2057.545
430.8665, 2071.283
431.3487, 2083.605
431.8308, 2093.607
432.3129, 2101.063
432.7950, 2110.544
433.2771, 2122.673
433.7592, 2135.250
434.2414, 2145.878
434.7235, 2154.612
435.2056, 2161.820
435.6877, 2167.038
436.1698, 2171.225
436.6519, 2176.509
437.1341, 2182.865
437.6162, 2189.463
438.0983, 2196.659
438.5804, 2203.545
439.0625, 2208.418
439.5446, 2210.776
440.0268, 2211.876
440.5089, 2212.365
440.9910, 2212.433
441.4731, 2212.467
441.9552, 2213.552
442.4373, 2213.917
442.9195, 2212.074
443.4016, 2208.016
443.8837, 2203.769
444.3658, 2200.101
444.8479, 2196.546
445.3300, 2192.776
445.8122, 2188.394
446.2943, 2184.118
446.7764, 2180.189
447.2585, 2176.418
447.7406, 2172.345
448.2227, 2166.983
448.7049, 2162.280
449.1870, 2158.972
449.6691, 2157.420
450.1512, 2155.384
450.6333, 2152.896
451.1154, 2149.979
451.5976, 2146.343
452.0797, 2141.380
452.5618, 2138.075
453.0439, 2137.313
453.5260, 2138.345
454.0081, 2138.498
454.4903, 2137.516
454.9724, 2137.444
455.4545, 2139.453
455.9366, 2143.382
456.4187, 2148.256
456.9008, 2153.956
457.3830, 2160.789
457.8651, 2169.025
458.3472, 2178.583
458.8293, 2188.931
459.3114, 2200.379
459.7935, 2212.081
460.2757, 2222.248
460.7578, 2231.432
461.2399, 2242.706
461.7220, 2258.630
462.2041, 2277.190
462.6862, 2296.489
463.1684, 2316.268
463.6505, 2336.529
464.1326, 2356.192
464.6147, 2376.434
465.0968, 2399.155
465.5789, 2425.566
466.0611, 2453.301
466.5432, 2480.893
467.0253, 2508.657
467.5074, 2540.950
467.9895, 2579.422
468.4716, 2621.746
468.9538, 2666.660
469.4359, 2713.557
469.9180, 2763.025
470.4001, 2814.790
470.8822, 2869.778
471.3643, 2929.750
471.8465, 2995.058
472.3286, 3064.093
472.8107, 3136.134
473.2928, 3210.833
473.7749, 3292.729
474.2570, 3381.655
474.7392, 3476.578
475.2213, 3576.872
475.7034, 3682.524
476.1855, 3793.459
476.6676, 3909.621
477.1497, 4031.821
477.6319, 4159.962
478.1140, 4294.100
478.5961, 4432.719
479.0782, 4574.503
479.5603, 4720.881
480.0424, 4873.646
480.5246, 5033.318
481.0067, 5198.071
481.4888, 5368.604
481.9709, 5542.622
482.4530, 5716.602
482.9352, 5887.070
483.4173, 6064.378
483.8994, 6257.221
484.3815, 6459.159
484.8636, 6658.396
485.3457, 6850.002
485.8279, 7040.205
486.3100, 7231.312
486.7921, 7423.981
487.2742, 7611.759
487.7563, 7800.372
488.2384, 7980.663
488.7206, 8147.138
489.2027, 8300.604
489.6848, 8438.126
490.1669, 8563.283
490.6490, 8668.812
491.1311, 8745.802
491.6133, 8793.365
492.0954, 8814.874
492.5775, 8813.309
493.0596, 8785.493
493.5417, 8719.298
494.0238, 8614.985
494.5060, 8479.064
494.9881, 8310.717
495.4702, 8115.291
495.9523, 7899.456
496.4344, 7663.607
496.9165, 7414.508
497.3987, 7155.472
497.8808, 6887.442
498.3629, 6617.297
498.8450, 6343.521
499.3271, 6071.745
499.8092, 5807.103
500.2914, 5547.153
500.7735, 5300.050
501.2556, 5061.911
501.7377, 4836.728
502.2198, 4627.913
502.7019, 4436.938
503.1841, 4253.779
503.6662, 4075.542
504.1483, 3904.794
504.6304, 3746.381
505.1125, 3603.085
505.5946, 3470.868
506.0768, 3349.269
506.5589, 3237.822
507.0410, 3131.618
507.5231, 3030.304
508.0052, 2935.453
508.4873, 2846.798
508.9695, 2765.445
509.4516, 2689.450
509.9337, 2618.978
510.4158, 2553.027
510.8979, 2490.893
511.3800, 2432.065
511.8622, 2377.029
512.3443, 2326.250
512.8264, 2278.603
513.3085, 2231.635
513.7906, 2185.763
514.2728, 2142.465
514.7549, 2103.740
515.2370, 2067.216
515.7191, 2030.738
516.2012, 1993.943
516.6833, 1958.811
517.1655, 1926.766
517.6476, 1896.175
518.1297, 1865.627
518.6118, 1833.561
519.0939, 1803.116
519.5760, 1776.368
520.0582, 1751.613
520.5403, 1723.899
521.0224, 1691.067
521.5045, 1658.685
521.9866, 1627.997
522.4688, 1598.875
522.9509, 1572.081
523.4330, 1548.447
523.9151, 1524.779
524.3972, 1498.003
524.8793, 1468.129
525.3615, 1439.765
525.8436, 1413.395
526.3257, 1387.808
526.8078, 1361.770
527.2899, 1335.233
527.7720, 1308.387
528.2542, 1281.635
528.7363, 1254.725
529.2184, 1226.797
529.7005, 1198.203
530.1826, 1169.484
530.6647, 1140.064
531.1469, 1111.356
531.6290, 1084.158
532.1111, 1058.836
532.5932, 1034.700
533.0753, 1012.042
533.5574, 990.1510
534.0396, 968.6688
534.5217, 947.3902
535.0038, 926.4618
535.4859, 905.5677
535.9680, 884.9159
536.4501, 864.8264
536.9323, 845.1561
537.4144, 826.3193
537.8965, 808.5065
538.3786, 791.7653
538.8607, 776.5741
539.3428, 763.3133
539.8250, 750.7782
540.3071, 738.0917
540.7892, 725.4163
541.2713, 712.5920
541.7534, 699.5125
542.2355, 686.7678
542.7177, 675.1407
543.1998, 664.4741
543.6819, 654.5853
544.1640, 645.9169
544.6461, 637.7493
545.1282, 629.6156
545.6104, 621.4655
546.0925, 612.7982
546.5746, 601.6993
547.0567, 591.1964
547.5388, 583.6084
548.0209, 580.3138
548.5031, 576.4531
548.9852, 570.0889
549.4673, 563.0792
549.9494, 557.3958
550.4315, 553.9422
550.9136, 550.5081
551.3958, 547.2864
551.8779, 543.8102
552.3600, 538.3879
552.8421, 530.2203
553.3242, 522.8146
553.8063, 517.9971
554.2885, 515.3760
554.7706, 511.6779
555.2527, 506.7967
555.7348, 501.9831
556.2169, 498.5352
556.6990, 496.0124
557.1812, 493.1861
557.6633, 489.8408
558.1454, 486.2814
558.6275, 482.4491
559.1096, 478.6755
559.5917, 475.4583
560.0739, 473.8135
560.5560, 472.0568
561.0381, 468.9810
561.5202, 464.9760
562.0023, 461.6569
562.4844, 460.1499
562.9666, 458.7859
563.4487, 456.8268
563.9308, 454.1511
564.4129, 451.4244
564.8950, 448.4119
565.3771, 445.5971
565.8593, 443.3540
566.3414, 441.7345
566.8235, 440.5166
567.3056, 439.8523
567.7877, 439.2888
568.2698, 437.8496
568.7520, 435.5837
569.2341, 433.5286
569.7162, 432.3983
570.1983, 431.5009
570.6804, 429.2028
571.1625, 425.7380
571.6447, 422.6389
572.1268, 421.0824
572.6089, 420.2756
573.0910, 419.5365
573.5731, 418.7842
574.0552, 418.0712
574.5374, 417.7271
575.0195, 417.2708
575.5016, 416.2509
575.9837, 413.7048
576.4658, 411.6690
576.9479, 410.4590
577.4301, 409.8123
577.9122, 409.2431
578.3943, 408.7782
578.8764, 408.2992
579.3585, 407.7826
579.8406, 407.2177
580.3228, 406.6831
580.8049, 406.2608
581.2870, 405.3402
581.7691, 403.0002
582.2512, 399.7384
582.7333, 397.5172
583.2155, 396.4752
583.6975, 396.2314
584.1796, 397.1536
584.6617, 398.4524
585.1439, 398.7741
585.6260, 397.4424
586.1081, 395.6268
586.5902, 393.2868
587.0723, 391.0425
587.5544, 390.1147
588.0366, 392.6651
588.5187, 394.7079
589.0008, 394.3690
589.4829, 391.8087
589.9650, 390.8477
590.4471, 392.6565
590.9293, 394.5264
591.4114, 395.0793
591.8935, 394.0785
592.3756, 393.5908
592.8577, 393.8936
593.3398, 393.9473
593.8220, 392.0839
594.3041, 388.6727
594.7862, 386.7647
595.2683, 387.2363
595.7504, 388.5364
596.2325, 388.7105
596.7147, 388.1017
597.1968, 387.5949
597.6789, 387.6841
598.1610, 387.9365
598.6431, 388.0280
599.1252, 388.0068
599.6074, 388.0975
600.0895, 389.0357
600.5716, 389.5503
601.0537, 388.8274
601.5358, 386.4488
602.0179, 384.5619
602.5001, 383.0134
602.9822, 382.1368
603.4643, 382.4712
603.9464, 384.6679
604.4285, 385.2980
604.9106, 383.6200
605.3928, 381.3107
605.8749, 381.1828
606.3570, 383.0575
606.8391, 384.5805
607.3212, 384.9735
607.8033, 384.7183
608.2855, 384.3101
608.7676, 383.8314
609.2497, 383.5774
609.7318, 383.7628
610.2139, 384.1971
610.6960, 384.8907
611.1782, 385.8155
611.6603, 386.4103
612.1424, 386.1249
612.6245, 385.7115
613.1066, 385.6772
613.5887, 386.3890
614.0709, 386.7271
614.5530, 386.6299
615.0351, 386.2274
615.5172, 385.5148
615.9993, 384.2866
616.4814, 383.6700
616.9636, 383.8462
617.4457, 384.6727
617.9278, 386.4203
618.4099, 388.9065
618.8920, 390.2848
619.3741, 389.0677
619.8563, 386.8424
620.3384, 385.8793
620.8205, 386.0148
621.3026, 386.4474
621.7847, 386.8106
622.2668, 387.2229
622.7490, 387.8192
623.2311, 388.6400
623.7132, 389.3339
624.1953, 390.3604
624.6774, 390.8544
625.1595, 390.0854
625.6417, 386.4798
626.1238, 384.7506
626.6059, 385.3279
627.0880, 387.3346
627.5701, 390.1075
628.0522, 393.8724
628.5344, 396.2229
629.0165, 396.5238
629.4986, 395.3393
629.9807, 393.1201
630.4628, 390.1320
630.9449, 387.8760
631.4271, 387.2370
631.9092, 387.5771
632.3913, 388.6210
632.8734, 390.2002
633.3555, 391.3118
633.8376, 391.1365
634.3198, 390.5920
634.8019, 390.1761
635.2840, 389.9333
635.7661, 389.8397
636.2482, 389.9058
636.7303, 390.1052
637.2125, 390.4712
637.6946, 391.1724
638.1767, 391.5314
638.6588, 391.4329
639.1409, 391.1552
639.6230, 391.1667
640.1052, 391.4371
640.5873, 391.4061
641.0694, 390.7888
641.5515, 390.0608
642.0336, 389.9386
642.5157, 390.3055
642.9979, 390.8228
643.4800, 391.5806
643.9621, 392.2098
644.4442, 392.3625
644.9263, 392.1090
645.4084, 391.8763
645.8906, 391.6522
646.3727, 391.6113
646.8548, 391.9823
647.3369, 392.8883
647.8190, 393.1795
648.3011, 392.4683
648.7833, 391.7216
649.2654, 391.6879
649.7475, 392.4216
650.2296, 393.3490
650.7117, 394.5663
651.1938, 395.4907
651.6760, 394.7242
652.1581, 392.9916
652.6402, 392.7985
653.1223, 395.5794
653.6044, 398.4281
654.0865, 398.3683
654.5687, 396.5575
655.0508, 395.2353
655.5329, 395.2896
656.0150, 395.9115
656.4971, 397.1974
656.9792, 398.9254
657.4614, 399.9788
657.9435, 399.8047
658.4256, 399.6732
658.9077, 399.9938
659.3898, 400.7495
659.8719, 401.6937
660.3541, 402.9632
660.8362, 403.7745
661.3183, 403.1229
661.8004, 401.4998
662.2825, 400.8781
662.7646, 401.3959
663.2468, 402.3818
663.7289, 403.4333
664.2110, 404.5252
664.6931, 405.8006
665.1752, 407.7681
665.6573, 408.6553
666.1395, 406.1543
666.6216, 402.7414
667.1037, 401.4618
667.5858, 405.1249
668.0679, 407.9242
668.5500, 409.0649
669.0322, 409.2424
669.5143, 410.0031
669.9964, 411.5270
670.4785, 412.7461
670.9606, 413.2444
671.4427, 413.2782
671.9249, 413.4876
672.4070, 413.8653
672.8891, 414.3675
673.3712, 415.1308
673.8533, 415.9038
674.3354, 416.1929
674.8176, 416.0717
675.2997, 416.3625
