##NAMES=Tsumebite
##RRUFFID=R080020
##IDEAL CHEMISTRY=Pb^2+^_2_Cu^2+^(P^5+^O_4_)(S^6+^O_4_)(OH)
##LOCALITY=Mex-Tex mine, Bingham, Hansonburg District, Socorro County, New Mexico, USA
##OWNER=RRUFF
##SOURCE=William W. Pinch
##DESCRIPTION=Teal-green micro-crystals, massive, associated with quartz
##STATUS=The identification of this mineral has been confirmed by single-crystal X-ray diffraction.
##URL=rruff.info/R080020
139.6894, 431.0742
140.1716, 431.1825
140.6537, 431.2873
141.1358, 431.8834
141.6179, 433.1144
142.1000, 434.7045
142.5821, 436.1400
143.0643, 437.4441
143.5464, 438.5868
144.0285, 439.5963
144.5106, 440.5517
144.9927, 441.1554
145.4748, 441.3448
145.9570, 441.1957
146.4391, 440.9293
146.9212, 440.6918
147.4033, 440.1630
147.8854, 439.1496
148.3675, 437.1709
148.8497, 435.4565
149.3318, 434.0412
149.8139, 432.9181
150.2960, 432.0987
150.7781, 432.0606
151.2602, 431.9728
151.7424, 431.3883
152.2245, 429.7384
152.7066, 428.2401
153.1887, 426.9879
153.6708, 425.9778
154.1529, 425.0495
154.6351, 424.3452
155.1172, 423.6172
155.5993, 422.7022
156.0814, 421.3966
156.5635, 420.0808
157.0456, 418.9654
157.5278, 418.0617
158.0099, 416.7353
158.4920, 414.3885
158.9741, 411.7715
159.4562, 409.5426
159.9383, 408.1386
160.4205, 406.8955
160.9026, 405.7113
161.3847, 404.6004
161.8668, 403.2090
162.3489, 401.3550
162.8310, 399.1789
163.3132, 396.8423
163.7953, 394.0462
164.2774, 391.3723
164.7595, 389.2680
165.2416, 387.8628
165.7237, 386.2198
166.2059, 383.2458
166.6880, 379.8082
167.1701, 377.2301
167.6522, 376.9514
168.1343, 377.1700
168.6164, 376.5724
169.0986, 374.8910
169.5807, 372.9530
170.0628, 371.2670
170.5449, 369.7225
171.0270, 368.1164
171.5091, 366.2062
171.9913, 364.2627
172.4734, 362.5541
172.9555, 361.1367
173.4376, 359.8794
173.9197, 358.7263
174.4018, 357.6496
174.8840, 356.5806
175.3661, 355.1897
175.8482, 353.8840
176.3303, 353.3131
176.8124, 353.7872
177.2945, 354.4881
177.7767, 354.6020
178.2588, 354.1977
178.7409, 353.5595
179.2230, 352.8483
179.7051, 352.0202
180.1872, 350.9291
180.6694, 349.3749
181.1515, 347.8494
181.6336, 347.3548
182.1157, 347.7233
182.5978, 347.7622
183.0799, 346.1563
183.5621, 343.5370
184.0442, 341.6841
184.5263, 341.0634
185.0084, 341.1640
185.4905, 341.2332
185.9726, 341.2691
186.4547, 341.2294
186.9369, 341.0367
187.4190, 340.7285
187.9011, 340.4891
188.3832, 340.4293
188.8653, 340.3957
189.3474, 339.9778
189.8296, 339.1621
190.3117, 338.3172
190.7938, 337.5539
191.2759, 336.9325
191.7580, 337.0197
192.2401, 338.2948
192.7223, 340.1728
193.2044, 340.7517
193.6865, 339.8937
194.1686, 338.8451
194.6507, 338.8810
195.1328, 339.9375
195.6150, 340.7261
196.0971, 340.8399
196.5792, 340.4731
197.0613, 340.3853
197.5434, 340.5946
198.0255, 340.9722
198.5077, 341.4503
198.9898, 342.0373
199.4719, 342.5557
199.9540, 343.0904
200.4361, 343.5338
200.9182, 343.0911
201.4004, 341.5126
201.8825, 339.8256
202.3646, 339.1923
202.8467, 339.7629
203.3288, 340.1895
203.8109, 340.1121
204.2931, 339.5960
204.7752, 339.2245
205.2573, 339.0843
205.7394, 338.8854
206.2215, 338.2982
206.7036, 337.2748
207.1858, 336.1407
207.6679, 334.9306
208.1500, 333.6553
208.6321, 332.5170
209.1142, 331.5795
209.5963, 330.6582
210.0785, 329.5455
210.5606, 328.2135
211.0427, 326.8051
211.5248, 325.2628
212.0069, 323.5981
212.4890, 322.3602
212.9712, 321.7231
213.4533, 321.2451
213.9354, 320.4484
214.4175, 319.2564
214.8996, 317.9593
215.3817, 316.6041
215.8639, 315.2018
216.3460, 313.6503
216.8281, 311.7301
217.3102, 309.9417
217.7923, 308.9518
218.2744, 309.0932
218.7566, 309.1540
219.2387, 308.8871
219.7208, 308.2900
220.2029, 307.4059
220.6850, 306.0839
221.1671, 304.6608
221.6493, 303.5426
222.1314, 302.8354
222.6135, 302.1608
223.0956, 301.4112
223.5777, 300.5649
224.0598, 300.0050
224.5420, 299.9371
225.0241, 299.9249
225.5062, 299.3945
225.9883, 297.8634
226.4704, 296.8608
226.9525, 296.9085
227.4347, 298.0668
227.9168, 298.7604
228.3989, 298.8799
228.8810, 298.6539
229.3631, 298.2589
229.8452, 297.4754
230.3274, 296.9707
230.8095, 297.0355
231.2916, 297.7103
231.7737, 297.8036
232.2558, 297.0265
232.7379, 295.9700
233.2201, 295.2197
233.7022, 294.8385
234.1843, 294.6540
234.6664, 294.7366
235.1485, 295.0933
235.6306, 295.1495
236.1128, 294.8505
236.5949, 294.3050
237.0770, 293.5883
237.5591, 292.5982
238.0412, 291.6328
238.5233, 290.7326
239.0055, 289.8951
239.4876, 289.1760
239.9697, 288.5997
240.4518, 288.1112
240.9339, 287.6834
241.4160, 287.4084
241.8982, 287.0099
242.3803, 286.3804
242.8624, 285.5289
243.3445, 284.9100
243.8266, 284.7856
244.3087, 284.5917
244.7909, 283.7822
245.2730, 281.8456
245.7551, 280.3191
246.2372, 279.5058
246.7193, 279.3524
247.2014, 279.1788
247.6836, 279.0388
248.1657, 278.8077
248.6478, 278.3850
249.1299, 277.7002
249.6120, 276.9706
250.0941, 276.2361
250.5762, 275.4861
251.0584, 274.6071
251.5405, 273.5169
252.0226, 272.4237
252.5047, 271.4960
252.9868, 270.8018
253.4689, 270.1193
253.9511, 269.4714
254.4332, 268.8293
254.9153, 267.9710
255.3974, 266.6426
255.8795, 265.5016
256.3617, 265.0804
256.8438, 265.8290
257.3259, 266.0697
257.8080, 265.3765
258.2901, 264.1042
258.7722, 263.6791
259.2544, 264.4672
259.7365, 265.4842
260.2186, 266.2409
260.7007, 266.7266
261.1828, 266.9170
261.6649, 266.6658
262.1471, 266.1560
262.6292, 266.0006
263.1113, 266.4322
263.5934, 266.7341
264.0755, 266.4930
264.5576, 265.5266
265.0398, 264.6493
265.5219, 263.8766
266.0040, 263.2018
266.4861, 262.6327
266.9682, 262.2684
267.4503, 261.7817
267.9325, 260.9518
268.4146, 259.6167
268.8967, 258.6451
269.3788, 258.0462
269.8609, 257.8081
270.3430, 258.0659
270.8252, 259.0487
271.3073, 259.7603
271.7894, 259.6022
272.2715, 258.4372
272.7536, 257.9213
273.2357, 258.2126
273.7179, 258.9226
274.2000, 259.5090
274.6821, 259.9563
275.1642, 260.3135
275.6463, 260.5787
276.1284, 260.7499
276.6106, 260.9036
277.0927, 261.0278
277.5748, 261.1586
278.0569, 261.3362
278.5390, 261.5601
279.0211, 261.8501
279.5032, 262.2779
279.9854, 262.8051
280.4675, 263.0131
280.9496, 262.7996
281.4317, 262.6172
281.9138, 263.0073
282.3959, 263.9911
282.8781, 265.0156
283.3602, 265.9604
283.8423, 266.8389
284.3244, 267.7297
284.8065, 268.6655
285.2886, 269.4396
285.7708, 269.6062
286.2529, 269.2239
286.7350, 269.5108
287.2171, 270.9683
287.6992, 273.0862
288.1813, 274.3112
288.6635, 274.6011
289.1456, 274.8666
289.6277, 275.8262
290.1098, 277.4096
290.5919, 279.1847
291.0740, 281.2422
291.5562, 283.2421
292.0383, 284.2811
292.5204, 284.4161
293.0025, 284.6617
293.4846, 285.8651
293.9667, 287.7545
294.4489, 289.3709
294.9310, 290.5531
295.4131, 291.5296
295.8952, 292.5912
296.3773, 293.7281
296.8594, 294.8806
297.3416, 295.9001
297.8237, 296.9381
298.3058, 298.4432
298.7879, 300.5516
299.2700, 302.6581
299.7521, 303.8329
300.2343, 304.3474
300.7164, 305.0115
301.1985, 306.3839
301.6806, 308.0994
302.1627, 309.5622
302.6448, 310.7533
303.1270, 311.8482
303.6091, 313.0461
304.0912, 314.2668
304.5733, 315.4027
305.0554, 316.1996
305.5375, 316.9897
306.0197, 318.3218
306.5018, 320.1465
306.9839, 321.7056
307.4660, 322.0455
307.9481, 321.8437
308.4302, 322.0746
308.9124, 323.3918
309.3945, 324.9128
309.8766, 325.9174
310.3587, 326.4863
310.8408, 326.9886
311.3229, 327.9313
311.8051, 328.8019
312.2872, 328.9904
312.7693, 327.9727
313.2514, 326.9092
313.7335, 326.4445
314.2156, 326.4696
314.6978, 326.6537
315.1799, 327.0233
315.6620, 327.3821
316.1441, 327.6259
316.6262, 327.8191
317.1083, 327.6749
317.5905, 326.9375
318.0726, 325.7953
318.5547, 324.5630
319.0368, 323.2559
319.5189, 321.9626
320.0010, 320.7364
320.4832, 319.5768
320.9653, 318.4720
321.4474, 317.5952
321.9295, 316.7160
322.4116, 315.5649
322.8937, 313.3942
323.3759, 311.6160
323.8580, 310.9762
324.3401, 311.5858
324.8222, 311.4858
325.3043, 309.9086
325.7864, 307.7811
326.2686, 305.8179
326.7507, 303.9229
327.2328, 302.3755
327.7149, 301.4644
328.1970, 301.1045
328.6791, 300.2811
329.1613, 298.4982
329.6434, 296.6366
330.1255, 295.1461
330.6076, 294.4063
331.0897, 293.4802
331.5718, 292.2063
332.0540, 290.7385
332.5361, 289.4972
333.0182, 288.4566
333.5003, 287.6645
333.9824, 287.2470
334.4645, 287.5095
334.9467, 287.1714
335.4288, 285.9854
335.9109, 284.3781
336.3930, 283.0453
336.8751, 282.0020
337.3572, 281.1813
337.8394, 280.6241
338.3215, 280.3536
338.8036, 279.9158
339.2857, 279.2881
339.7678, 278.5296
340.2499, 277.6151
340.7321, 276.4994
341.2142, 275.6092
341.6963, 275.1274
342.1784, 274.9420
342.6605, 274.5048
343.1426, 273.7697
343.6248, 273.0085
344.1069, 272.4243
344.5890, 272.0189
345.0711, 271.7437
345.5532, 271.6525
346.0353, 271.6044
346.5175, 271.2591
346.9996, 270.6178
347.4817, 269.9938
347.9638, 269.4283
348.4459, 269.0109
348.9280, 269.2323
349.4102, 270.2656
349.8923, 271.3519
350.3744, 271.2473
350.8565, 270.2650
351.3386, 269.6215
351.8207, 270.2782
352.3029, 271.5123
352.7850, 271.9740
353.2671, 271.6396
353.7492, 271.4705
354.2313, 272.9312
354.7134, 275.0478
355.1956, 276.0959
355.6777, 274.9780
356.1598, 273.0321
356.6419, 271.2276
357.1240, 269.5924
357.6061, 268.2723
358.0883, 267.4929
358.5704, 267.0061
359.0525, 266.5741
359.5346, 266.1052
360.0167, 265.7602
360.4988, 265.5204
360.9810, 265.4681
361.4631, 265.7942
361.9452, 266.8723
362.4273, 268.1219
362.9094, 269.2574
363.3915, 270.2567
363.8737, 271.0750
364.3558, 271.3968
364.8379, 271.6181
365.3200, 272.2021
365.8021, 273.7935
366.2842, 275.2309
366.7664, 275.9641
367.2485, 275.9799
367.7306, 276.5031
368.2127, 278.0425
368.6948, 279.9119
369.1769, 281.6707
369.6591, 283.3829
370.1412, 284.8949
370.6233, 286.0257
371.1054, 286.9315
371.5875, 288.2189
372.0696, 290.1113
372.5518, 292.0951
373.0339, 293.9403
373.5160, 295.5033
373.9981, 297.3736
374.4802, 299.6911
374.9623, 302.2253
375.4445, 304.5385
375.9266, 306.5189
376.4087, 308.6482
376.8908, 311.0631
377.3729, 313.7669
377.8550, 316.6621
378.3372, 319.7990
378.8193, 322.9277
379.3014, 325.5298
379.7835, 327.5724
380.2656, 330.4235
380.7477, 334.6014
381.2299, 339.4916
381.7120, 343.6212
382.1941, 346.9428
382.6762, 350.0392
383.1583, 353.3185
383.6404, 356.6896
384.1226, 359.6489
384.6047, 362.1056
385.0868, 364.2903
385.5689, 366.7300
386.0510, 369.2278
386.5331, 371.0860
387.0153, 371.8034
387.4974, 371.7781
387.9795, 371.6049
388.4616, 371.2954
388.9437, 370.6003
389.4258, 369.1766
389.9080, 367.2875
390.3901, 365.2949
390.8722, 363.0449
391.3543, 361.0506
391.8364, 360.0950
392.3185, 359.8468
392.8007, 359.0444
393.2828, 356.7035
393.7649, 353.8263
394.2470, 351.0698
394.7291, 348.4879
395.2112, 346.1583
395.6934, 344.2484
396.1755, 342.5700
396.6576, 340.8451
397.1397, 338.6038
397.6218, 336.6807
398.1039, 335.5086
398.5861, 335.1864
399.0682, 334.5879
399.5503, 333.3462
400.0324, 331.9428
400.5145, 330.7410
400.9966, 329.7575
401.4788, 328.9576
401.9609, 328.4521
402.4430, 328.1442
402.9251, 327.6273
403.4072, 326.7173
403.8893, 325.8800
404.3714, 325.3571
404.8535, 325.2356
405.3357, 325.0398
405.8178, 324.7366
406.2999, 324.4016
406.7820, 324.1705
407.2641, 324.0731
407.7462, 323.8750
408.2284, 323.3633
408.7105, 322.6956
409.1926, 322.7531
409.6747, 323.6220
410.1568, 324.5880
410.6389, 324.9644
411.1211, 324.8653
411.6032, 324.9413
412.0853, 325.2968
412.5674, 325.8879
413.0495, 326.7267
413.5316, 327.7859
414.0138, 328.8918
414.4959, 329.9173
414.9780, 330.9567
415.4601, 332.1300
415.9422, 333.4541
416.4243, 334.8984
416.9065, 336.5029
417.3886, 338.2018
417.8707, 339.8632
418.3528, 341.3965
418.8349, 342.9343
419.3170, 344.6264
419.7992, 346.4409
420.2813, 348.1449
420.7634, 349.2922
421.2455, 350.5612
421.7276, 352.4328
422.2097, 355.1921
422.6919, 358.0812
423.1740, 361.3465
423.6561, 364.5388
424.1382, 367.0481
424.6203, 367.4523
425.1024, 368.4322
425.5846, 370.8732
426.0667, 374.8594
426.5488, 378.6019
427.0309, 381.8925
427.5130, 385.1647
427.9951, 388.6940
428.4773, 392.3882
428.9594, 396.5494
429.4415, 401.2494
429.9236, 406.3848
430.4057, 411.7549
430.8878, 417.2616
431.3700, 423.2409
431.8521, 430.0322
432.3342, 437.6388
432.8163, 444.7818
433.2984, 451.3853
433.7805, 457.8080
434.2627, 464.2327
434.7448, 470.7191
435.2269, 477.9096
435.7090, 486.3388
436.1911, 495.3193
436.6732, 503.5882
437.1554, 511.1806
437.6375, 518.0889
438.1196, 524.5624
438.6017, 530.2679
439.0838, 534.5767
439.5659, 537.3405
440.0481, 539.1561
440.5302, 540.5600
441.0123, 541.3890
441.4944, 541.3712
441.9765, 540.5642
442.4586, 538.7416
442.9408, 535.3723
443.4229, 530.6522
443.9050, 525.8907
444.3871, 522.1158
444.8692, 518.2229
445.3513, 513.4442
445.8335, 507.1288
446.3156, 500.8584
446.7977, 494.7683
447.2798, 488.9564
447.7619, 483.6259
448.2440, 478.6644
448.7262, 474.3770
449.2083, 471.0888
449.6904, 468.8493
450.1725, 466.1580
450.6546, 462.4202
451.1367, 459.0090
451.6189, 457.0329
452.1010, 456.8005
452.5831, 456.9465
453.0652, 457.3015
453.5473, 458.0124
454.0294, 459.4041
454.5116, 461.4933
454.9937, 464.2032
455.4758, 467.4042
455.9579, 471.1806
456.4400, 476.1400
456.9221, 482.3695
457.4043, 489.3203
457.8864, 496.4983
458.3685, 503.9882
458.8506, 512.3415
459.3327, 521.8318
459.8148, 531.8808
460.2970, 542.2164
460.7791, 552.6816
461.2612, 562.4315
461.7433, 571.5978
462.2254, 579.5148
462.7076, 585.5060
463.1897, 589.5649
463.6718, 591.8657
464.1539, 592.8257
464.6360, 591.9462
465.1181, 588.6879
465.6003, 582.5162
466.0824, 574.4039
466.5645, 563.8034
467.0466, 551.2803
467.5287, 538.9858
468.0108, 527.3994
468.4930, 515.8550
468.9751, 504.0393
469.4572, 491.7625
469.9393, 480.0069
470.4214, 468.7903
470.9035, 458.1666
471.3857, 448.2448
471.8678, 439.1106
472.3499, 430.3422
472.8320, 421.6881
473.3141, 413.2835
473.7962, 405.4321
474.2784, 398.1314
474.7605, 391.4279
475.2426, 385.3653
475.7247, 379.9123
476.2068, 375.0729
476.6889, 370.8419
477.1711, 367.0953
477.6532, 363.8265
478.1353, 360.9421
478.6174, 358.1526
479.0995, 355.1469
479.5816, 352.4286
480.0638, 350.8242
480.5459, 350.0799
481.0280, 349.2880
481.5101, 348.1962
481.9922, 346.6694
482.4743, 344.4591
482.9565, 341.3857
483.4386, 338.4429
483.9207, 336.0987
484.4028, 334.0865
484.8849, 332.1313
485.3670, 330.4428
485.8492, 328.5459
486.3313, 326.3293
486.8134, 323.8279
487.2955, 321.1802
487.7776, 318.1646
488.2597, 315.3605
488.7419, 313.0423
489.2240, 311.3445
489.7061, 309.6115
490.1882, 307.8572
490.6703, 306.0448
491.1524, 304.0348
491.6346, 301.7536
492.1167, 299.7149
492.5988, 297.9988
493.0809, 296.5406
493.5630, 295.2652
494.0451, 294.1534
494.5273, 293.0654
495.0094, 291.9921
495.4915, 290.8559
495.9736, 289.4113
496.4557, 287.6387
496.9378, 285.8286
497.4200, 284.2645
497.9021, 282.8404
498.3842, 281.4274
498.8663, 279.9675
499.3484, 278.5139
499.8305, 277.2296
500.3127, 275.9883
500.7948, 274.4714
501.2769, 272.2554
501.7590, 269.9851
502.2411, 267.9414
502.7232, 266.1375
503.2054, 264.4744
503.6875, 262.8454
504.1696, 261.4276
504.6517, 260.4138
505.1338, 260.3278
505.6159, 259.6905
506.0981, 258.1466
506.5802, 256.1247
507.0623, 254.6369
507.5444, 253.7843
508.0265, 253.0860
508.5086, 252.3762
508.9908, 251.6621
509.4729, 251.0211
509.9550, 250.4651
510.4371, 249.9121
510.9192, 249.3323
511.4013, 248.7074
511.8835, 247.9074
512.3655, 246.8171
512.8477, 245.8537
513.3298, 245.6979
513.8119, 246.0589
514.2940, 246.2411
514.7761, 245.7725
515.2582, 245.1287
515.7404, 244.5918
516.2225, 244.1753
516.7046, 243.9240
517.1867, 244.0213
517.6688, 244.1761
518.1509, 244.1596
518.6331, 243.7645
519.1152, 243.6230
519.5973, 244.0368
520.0794, 244.6778
520.5615, 245.1237
521.0436, 245.2461
521.5258, 245.3650
522.0079, 245.5308
522.4900, 245.7270
522.9721, 245.8844
523.4542, 245.9943
523.9363, 246.0776
524.4185, 246.1168
524.9006, 246.1145
525.3827, 246.2038
525.8648, 246.3829
526.3469, 246.6786
526.8290, 247.1141
527.3112, 247.6946
527.7933, 248.4731
528.2754, 249.5888
528.7575, 250.6967
529.2396, 251.3462
529.7217, 251.6541
530.2039, 251.9503
530.6860, 252.3449
531.1681, 252.8370
531.6502, 253.3995
532.1323, 254.0355
532.6144, 254.8632
533.0966, 256.1880
533.5787, 257.5540
534.0608, 258.6623
534.5429, 259.4353
535.0250, 259.9736
535.5071, 260.1697
535.9893, 260.1709
536.4714, 260.2046
536.9535, 260.4414
537.4356, 260.3701
537.9177, 259.7862
538.3998, 258.7882
538.8820, 258.0356
539.3641, 257.5940
539.8462, 257.1434
540.3283, 256.5402
540.8104, 255.7810
541.2925, 254.7637
541.7747, 253.4644
542.2568, 252.0704
542.7389, 250.6798
543.2210, 249.3525
543.7031, 248.2242
544.1852, 247.3237
544.6674, 246.6537
545.1495, 246.3730
545.6316, 246.3449
546.1137, 246.2271
546.5958, 245.8638
547.0779, 245.3731
547.5601, 244.7340
548.0422, 243.9421
548.5243, 243.3402
549.0064, 243.0564
549.4885, 242.9458
549.9706, 242.9238
550.4528, 243.0358
550.9349, 243.1322
551.4170, 243.1772
551.8991, 243.2307
552.3812, 243.4186
552.8633, 243.8065
553.3455, 244.0354
553.8276, 243.9402
554.3097, 243.6701
554.7918, 243.7932
555.2739, 244.3082
555.7560, 244.7289
556.2382, 244.6416
556.7203, 244.2724
557.2024, 244.1299
557.6845, 244.2432
558.1666, 244.4189
558.6487, 244.5033
559.1309, 244.5545
559.6130, 244.6514
560.0951, 244.8527
560.5772, 245.0271
561.0593, 245.1763
561.5414, 245.2451
562.0236, 245.1357
562.5057, 244.3774
562.9878, 243.8989
563.4699, 244.2026
563.9520, 245.1715
564.4341, 245.5459
564.9163, 244.9743
565.3984, 244.2962
565.8805, 243.8917
566.3626, 243.7800
566.8447, 243.8568
567.3268, 244.1777
567.8090, 244.5314
568.2911, 244.7443
568.7732, 244.8048
569.2553, 244.5163
569.7374, 243.6729
570.2195, 242.8074
570.7017, 242.7384
571.1838, 243.2765
571.6659, 243.8174
572.1480, 244.0897
572.6301, 244.2263
573.1122, 244.2956
573.5944, 244.3119
574.0765, 244.3630
574.5586, 244.4998
575.0407, 244.6740
575.5228, 244.8556
576.0049, 245.0275
576.4871, 245.2430
576.9692, 245.5493
577.4513, 245.8751
577.9334, 246.1499
578.4155, 246.3131
578.8976, 246.5951
579.3798, 247.1475
579.8619, 247.7398
580.3440, 247.6591
580.8261, 246.8378
581.3082, 246.2280
581.7903, 246.2796
582.2725, 246.8276
582.7546, 247.5063
583.2367, 248.2969
583.7188, 248.9409
584.2009, 249.0806
584.6830, 249.0210
585.1652, 249.1968
585.6473, 249.7021
586.1294, 250.1699
586.6115, 250.3116
587.0936, 250.3359
587.5757, 250.4607
588.0579, 251.0586
588.5400, 251.3808
589.0221, 250.8439
589.5042, 249.9738
589.9863, 250.0391
590.4684, 251.8827
590.9506, 253.2758
591.4327, 253.4954
591.9148, 252.7044
592.3969, 252.3640
592.8790, 252.5517
593.3611, 252.8668
593.8433, 253.0652
594.3254, 253.1707
594.8075, 253.2686
595.2896, 253.3459
595.7717, 253.6074
596.2538, 254.6108
596.7360, 255.8752
597.2181, 256.4212
597.7002, 255.5822
598.1823, 254.8678
598.6644, 255.5845
599.1465, 257.0639
599.6287, 258.1618
600.1108, 258.1979
600.5929, 258.1072
601.0750, 258.1432
601.5571, 258.2977
602.0392, 258.4176
602.5214, 258.2962
603.0035, 258.4216
603.4856, 259.1172
603.9677, 260.4642
604.4498, 261.2412
604.9319, 261.3781
605.4141, 261.1719
605.8962, 260.7547
606.3783, 260.1768
606.8604, 259.9433
607.3425, 260.2374
607.8246, 260.3740
608.3068, 259.2601
608.7889, 257.3839
609.2710, 255.8371
609.7531, 255.4002
610.2352, 254.9666
610.7173, 253.5725
611.1995, 251.5865
611.6816, 250.0013
612.1637, 249.4335
612.6458, 249.0259
613.1279, 248.4843
613.6100, 247.8008
614.0922, 247.0559
614.5743, 246.1126
615.0564, 245.2827
615.5385, 244.7603
616.0206, 244.5935
616.5027, 244.4557
616.9849, 244.3703
617.4670, 244.2479
617.9491, 243.8854
618.4312, 243.3620
618.9133, 243.1414
619.3954, 243.4002
619.8776, 243.7621
620.3597, 243.6423
620.8418, 243.2819
621.3239, 243.2183
621.8060, 244.1641
622.2881, 245.0190
622.7703, 244.9909
623.2524, 244.2900
623.7345, 243.8024
624.2166, 243.8694
624.6987, 244.0834
625.1808, 244.3280
625.6630, 244.6098
626.1451, 244.7443
626.6272, 244.6154
627.1093, 244.5224
627.5914, 244.8850
628.0735, 245.7982
628.5557, 245.5879
629.0378, 243.9766
629.5199, 242.0081
630.0020, 241.0022
630.4841, 240.6588
630.9662, 239.9857
631.4484, 238.5761
631.9305, 237.1034
632.4126, 236.3400
632.8947, 235.9953
633.3768, 235.4590
633.8589, 234.2757
634.3411, 233.0777
634.8232, 232.0740
635.3053, 231.2700
635.7874, 230.6544
