##NAMES=Tsumcorite
##RRUFFID=R110036
##IDEAL CHEMISTRY=Pb^2+^Zn^2+^_2_(As^5+^O_4_)_2_&#183;2H_2_O
##LOCALITY=Tsumeb, Namibia
##OWNER=RRUFF
##SOURCE=William W Pinch
##DESCRIPTION=Orange wedge-shaped crystals
##STATUS=The identification of this mineral has been confirmed only by single crystal X-ray diffraction.
##URL=rruff.info/R110036
173.0812, 1949.819
173.5634, 1940.853
174.0455, 1936.871
174.5276, 1933.325
175.0097, 1928.097
175.4918, 1921.329
175.9739, 1914.634
176.4561, 1909.907
176.9382, 1907.725
177.4203, 1905.482
177.9024, 1902.756
178.3845, 1900.286
178.8666, 1898.731
179.3488, 1898.037
179.8309, 1897.442
180.3130, 1895.795
180.7951, 1891.906
181.2772, 1889.790
181.7593, 1889.614
182.2415, 1890.821
182.7236, 1893.611
183.2057, 1897.842
183.6878, 1902.306
184.1699, 1905.123
184.6520, 1905.155
185.1342, 1905.686
185.6163, 1907.056
186.0984, 1908.840
186.5805, 1910.529
187.0626, 1911.957
187.5447, 1913.482
188.0269, 1915.934
188.5090, 1919.706
188.9911, 1922.731
189.4732, 1923.746
189.9553, 1923.828
190.4374, 1925.014
190.9196, 1928.223
191.4017, 1931.976
191.8838, 1934.250
192.3659, 1935.085
192.8480, 1935.149
193.3301, 1934.193
193.8123, 1932.558
194.2944, 1931.576
194.7765, 1931.875
195.2586, 1932.585
195.7407, 1933.076
196.2228, 1933.357
196.7050, 1932.713
197.1871, 1929.975
197.6692, 1925.276
198.1513, 1921.665
198.6334, 1920.890
199.1155, 1920.450
199.5977, 1918.775
200.0798, 1915.759
200.5619, 1912.017
201.0440, 1908.045
201.5261, 1903.812
202.0082, 1899.453
202.4904, 1895.544
202.9725, 1891.081
203.4546, 1885.289
203.9367, 1878.175
204.4188, 1870.501
204.9009, 1863.100
205.3831, 1855.860
205.8652, 1849.309
206.3473, 1844.349
206.8294, 1839.360
207.3115, 1833.201
207.7936, 1825.818
208.2758, 1818.126
208.7579, 1811.482
209.2400, 1806.438
209.7221, 1801.312
210.2042, 1796.638
210.6863, 1791.563
211.1685, 1785.294
211.6506, 1777.762
212.1327, 1769.676
212.6148, 1761.957
213.0969, 1754.675
213.5790, 1747.859
214.0612, 1742.020
214.5433, 1736.314
215.0254, 1730.114
215.5075, 1723.291
215.9896, 1715.795
216.4717, 1707.503
216.9539, 1697.654
217.4360, 1688.809
217.9181, 1681.222
218.4002, 1674.530
218.8823, 1668.228
219.3644, 1662.215
219.8466, 1656.920
220.3287, 1653.135
220.8108, 1651.068
221.2929, 1649.169
221.7750, 1647.943
222.2571, 1646.516
222.7393, 1643.020
223.2214, 1636.663
223.7035, 1630.707
224.1856, 1630.161
224.6677, 1634.541
225.1498, 1638.658
225.6320, 1640.752
226.1141, 1641.884
226.5962, 1643.795
227.0783, 1646.855
227.5604, 1650.449
228.0425, 1653.891
228.5247, 1657.260
229.0068, 1661.240
229.4889, 1666.822
229.9710, 1673.102
230.4531, 1677.877
230.9352, 1680.292
231.4174, 1682.492
231.8995, 1685.649
232.3816, 1689.767
232.8637, 1695.102
233.3458, 1702.912
233.8279, 1712.148
234.3101, 1719.342
234.7922, 1723.420
235.2743, 1726.943
235.7564, 1731.838
236.2385, 1737.336
236.7206, 1741.851
237.2028, 1744.032
237.6849, 1744.462
238.1670, 1745.826
238.6491, 1749.179
239.1312, 1751.856
239.6133, 1752.915
240.0955, 1752.673
240.5776, 1751.738
241.0597, 1750.584
241.5418, 1748.987
242.0239, 1745.839
242.5060, 1740.445
242.9882, 1734.240
243.4703, 1727.360
243.9524, 1720.082
244.4345, 1712.785
244.9166, 1705.740
245.3987, 1698.777
245.8809, 1691.170
246.3630, 1681.808
246.8451, 1673.267
247.3272, 1667.509
247.8093, 1662.437
248.2914, 1655.066
248.7736, 1643.603
249.2557, 1629.329
249.7378, 1617.611
250.2199, 1610.702
250.7020, 1603.720
251.1841, 1595.910
251.6663, 1587.762
252.1484, 1580.043
252.6305, 1573.093
253.1126, 1566.625
253.5947, 1559.507
254.0768, 1549.888
254.5590, 1542.035
255.0411, 1536.974
255.5232, 1533.478
256.0053, 1530.252
256.4874, 1526.763
256.9695, 1523.156
257.4517, 1519.785
257.9338, 1516.410
258.4159, 1513.617
258.8980, 1510.991
259.3801, 1509.111
259.8622, 1508.831
260.3444, 1510.411
260.8265, 1512.958
261.3086, 1514.742
261.7907, 1514.050
262.2728, 1515.465
262.7549, 1519.696
263.2371, 1525.740
263.7192, 1532.811
264.2013, 1540.678
264.6834, 1549.095
265.1655, 1557.639
265.6476, 1565.817
266.1298, 1575.583
266.6119, 1586.636
267.0940, 1599.534
267.5761, 1615.452
268.0582, 1634.564
268.5403, 1654.484
269.0225, 1672.230
269.5046, 1686.913
269.9867, 1703.820
270.4688, 1723.826
270.9509, 1745.591
271.4330, 1767.934
271.9152, 1790.684
272.3973, 1814.676
272.8794, 1840.957
273.3615, 1869.810
273.8436, 1897.503
274.3257, 1921.876
274.8079, 1946.703
275.2900, 1974.852
275.7721, 2006.487
276.2542, 2039.441
276.7363, 2072.342
277.2184, 2105.229
277.7006, 2139.561
278.1827, 2175.698
278.6648, 2212.739
279.1469, 2250.319
279.6290, 2288.230
280.1111, 2325.548
280.5933, 2361.148
281.0754, 2395.932
281.5575, 2433.201
282.0396, 2475.853
282.5217, 2517.376
283.0038, 2553.718
283.4860, 2585.425
283.9681, 2615.886
284.4502, 2647.152
284.9323, 2677.395
285.4144, 2703.289
285.8965, 2723.809
286.3787, 2742.809
286.8608, 2763.914
287.3429, 2785.556
287.8250, 2802.328
288.3071, 2812.216
288.7892, 2816.411
289.2714, 2817.179
289.7535, 2814.711
290.2356, 2809.024
290.7177, 2799.360
291.1998, 2786.457
291.6819, 2772.230
292.1641, 2757.274
292.6462, 2740.558
293.1283, 2721.188
293.6104, 2699.440
294.0925, 2674.877
294.5746, 2646.213
295.0568, 2614.875
295.5389, 2583.413
296.0210, 2551.870
296.5031, 2521.023
296.9852, 2491.792
297.4673, 2463.731
297.9495, 2435.501
298.4316, 2405.476
298.9137, 2375.605
299.3958, 2349.293
299.8779, 2327.141
300.3600, 2305.914
300.8422, 2282.852
301.3243, 2259.417
301.8064, 2238.580
302.2885, 2220.720
302.7706, 2205.711
303.2527, 2193.860
303.7349, 2185.267
304.2170, 2177.724
304.6991, 2169.965
305.1812, 2162.895
305.6633, 2157.312
306.1454, 2152.731
306.6276, 2151.206
307.1097, 2155.430
307.5918, 2165.129
308.0739, 2175.659
308.5560, 2184.549
309.0381, 2194.656
309.5203, 2208.882
310.0024, 2227.558
310.4845, 2248.283
310.9666, 2268.822
311.4487, 2289.776
311.9308, 2314.214
312.4130, 2343.362
312.8951, 2375.244
313.3772, 2407.421
313.8593, 2440.089
314.3414, 2474.015
314.8235, 2509.267
315.3057, 2546.103
315.7878, 2586.177
316.2699, 2630.444
316.7520, 2675.595
317.2341, 2719.026
317.7162, 2761.254
318.1984, 2803.727
318.6805, 2846.925
319.1626, 2890.508
319.6447, 2933.486
320.1268, 2975.437
320.6089, 3018.896
321.0911, 3067.655
321.5732, 3118.491
322.0553, 3166.258
322.5374, 3208.326
323.0195, 3250.123
323.5016, 3296.514
323.9838, 3347.772
324.4659, 3402.173
324.9480, 3458.889
325.4301, 3518.819
325.9122, 3582.331
326.3943, 3650.408
326.8765, 3719.928
327.3586, 3788.480
327.8407, 3856.707
328.3228, 3926.574
328.8049, 3998.472
329.2870, 4072.339
329.7692, 4149.112
330.2513, 4228.209
330.7334, 4304.431
331.2155, 4375.379
331.6976, 4441.374
332.1797, 4503.868
332.6619, 4564.130
333.1440, 4617.615
333.6261, 4660.526
334.1082, 4694.075
334.5903, 4718.620
335.0724, 4732.791
335.5546, 4738.487
336.0367, 4738.424
336.5188, 4732.843
337.0009, 4719.092
337.4830, 4693.695
337.9651, 4658.971
338.4473, 4619.810
338.9294, 4576.037
339.4115, 4529.017
339.8936, 4478.788
340.3757, 4425.657
340.8578, 4373.252
341.3400, 4321.510
341.8221, 4272.439
342.3042, 4228.881
342.7863, 4191.382
343.2684, 4154.763
343.7505, 4114.604
344.2327, 4073.468
344.7148, 4037.898
345.1969, 4009.927
345.6790, 3985.966
346.1611, 3961.531
346.6432, 3936.884
347.1254, 3916.675
347.6075, 3904.723
348.0896, 3896.619
348.5717, 3887.519
349.0538, 3876.968
349.5359, 3865.778
350.0181, 3853.696
350.5002, 3841.411
350.9823, 3831.598
351.4644, 3826.343
351.9465, 3821.993
352.4286, 3816.917
352.9108, 3810.911
353.3929, 3802.578
353.8750, 3790.505
354.3571, 3776.438
354.8392, 3764.896
355.3214, 3757.110
355.8035, 3748.717
356.2856, 3738.916
356.7677, 3727.364
357.2498, 3713.521
357.7319, 3697.234
358.2141, 3678.504
358.6962, 3656.601
359.1783, 3631.148
359.6604, 3605.035
360.1425, 3579.293
360.6246, 3552.465
361.1068, 3522.662
361.5889, 3489.728
362.0710, 3456.936
362.5531, 3427.730
363.0352, 3401.730
363.5173, 3370.162
363.9995, 3328.555
364.4816, 3286.233
364.9637, 3248.682
365.4458, 3214.125
365.9279, 3177.405
366.4100, 3135.665
366.8922, 3090.454
367.3743, 3047.402
367.8564, 3006.771
368.3385, 2967.629
368.8206, 2930.494
369.3027, 2894.464
369.7849, 2859.227
370.2670, 2824.709
370.7491, 2789.529
371.2312, 2751.410
371.7133, 2708.432
372.1954, 2669.355
372.6776, 2636.374
373.1597, 2605.270
373.6418, 2573.364
374.1239, 2540.723
374.6060, 2508.735
375.0881, 2478.116
375.5703, 2448.987
376.0524, 2421.229
376.5345, 2394.788
377.0166, 2369.585
377.4987, 2345.843
377.9808, 2323.197
378.4630, 2300.784
378.9451, 2278.197
379.4272, 2256.346
379.9093, 2237.564
380.3914, 2223.857
380.8735, 2209.915
381.3557, 2195.109
381.8378, 2180.322
382.3199, 2165.794
382.8020, 2151.708
383.2841, 2138.675
383.7662, 2127.615
384.2484, 2118.793
384.7305, 2109.741
385.2126, 2099.470
385.6947, 2089.873
386.1768, 2080.875
386.6589, 2073.066
387.1411, 2067.675
387.6232, 2065.813
388.1053, 2066.274
388.5874, 2064.519
389.0695, 2058.677
389.5516, 2054.177
390.0338, 2052.951
390.5159, 2053.032
390.9980, 2052.616
391.4801, 2051.207
391.9622, 2049.712
392.4443, 2049.651
392.9265, 2051.332
393.4086, 2051.453
393.8907, 2047.394
394.3728, 2043.816
394.8549, 2043.610
395.3370, 2046.312
395.8192, 2049.720
396.3013, 2052.665
396.7834, 2055.249
397.2655, 2057.957
397.7476, 2061.182
398.2297, 2063.493
398.7119, 2062.558
399.1940, 2060.729
399.6761, 2061.612
400.1582, 2067.441
400.6403, 2073.196
401.1224, 2073.753
401.6046, 2069.294
402.0867, 2062.830
402.5688, 2054.482
403.0509, 2045.249
403.5330, 2036.331
404.0151, 2027.735
404.4973, 2019.122
404.9794, 2011.060
405.4615, 2002.687
405.9436, 1991.896
406.4257, 1978.204
406.9078, 1964.636
407.3900, 1953.893
407.8721, 1945.592
408.3542, 1937.095
408.8363, 1928.042
409.3184, 1918.967
409.8005, 1909.845
410.2827, 1900.948
410.7648, 1893.196
411.2469, 1886.850
411.7290, 1882.152
412.2111, 1880.015
412.6932, 1880.932
413.1754, 1882.623
413.6575, 1884.685
414.1396, 1887.329
414.6217, 1890.793
415.1038, 1895.104
415.5859, 1900.168
416.0681, 1905.952
416.5502, 1912.510
417.0323, 1919.218
417.5144, 1924.820
417.9965, 1931.803
418.4786, 1941.002
418.9608, 1952.323
419.4429, 1966.135
419.9250, 1982.773
420.4071, 2000.670
420.8892, 2015.412
421.3713, 2024.210
421.8535, 2033.841
422.3356, 2044.110
422.8177, 2055.544
423.2998, 2068.598
423.7819, 2083.309
424.2640, 2099.279
424.7462, 2116.593
425.2283, 2135.594
425.7104, 2151.786
426.1925, 2161.471
426.6746, 2172.263
427.1567, 2187.158
427.6389, 2204.391
428.1210, 2220.851
428.6031, 2234.912
429.0852, 2248.118
429.5673, 2263.978
430.0494, 2283.746
430.5316, 2301.741
431.0137, 2316.422
431.4958, 2328.822
431.9779, 2338.510
432.4600, 2345.816
432.9421, 2353.052
433.4243, 2362.588
433.9064, 2373.647
434.3885, 2382.646
434.8706, 2388.680
435.3527, 2394.461
435.8348, 2402.743
436.3170, 2411.822
436.7991, 2418.835
437.2812, 2423.086
437.7633, 2424.995
438.2454, 2423.629
438.7275, 2419.595
439.2097, 2417.672
439.6918, 2420.802
440.1739, 2424.798
440.6560, 2422.202
441.1381, 2412.410
441.6202, 2405.156
442.1024, 2406.788
442.5845, 2410.364
443.0666, 2407.468
443.5487, 2397.566
444.0308, 2385.999
444.5129, 2376.617
444.9951, 2369.163
445.4772, 2360.656
445.9593, 2349.378
446.4414, 2339.254
446.9235, 2332.841
447.4056, 2327.938
447.8878, 2320.602
448.3699, 2309.564
448.8520, 2297.869
449.3341, 2290.331
449.8162, 2289.101
450.2983, 2286.090
450.7805, 2280.486
451.2626, 2274.156
451.7447, 2267.805
452.2268, 2261.533
452.7089, 2255.028
453.1910, 2247.943
453.6732, 2240.807
454.1553, 2235.989
454.6374, 2234.472
455.1195, 2233.744
455.6016, 2232.856
456.0837, 2232.779
456.5659, 2234.458
457.0480, 2238.017
457.5301, 2242.638
458.0122, 2246.822
458.4943, 2250.658
458.9764, 2258.389
459.4586, 2272.861
459.9407, 2287.198
460.4228, 2296.875
460.9049, 2304.095
461.3870, 2312.720
461.8691, 2324.055
462.3513, 2337.384
462.8334, 2351.816
463.3155, 2367.366
463.7976, 2384.281
464.2797, 2402.293
464.7618, 2422.240
465.2440, 2445.170
465.7261, 2471.053
466.2082, 2498.422
466.6903, 2525.777
467.1724, 2554.997
467.6545, 2589.082
468.1367, 2627.929
468.6188, 2668.155
469.1009, 2706.620
469.5830, 2744.555
470.0651, 2789.323
470.5472, 2843.077
471.0294, 2899.409
471.5115, 2955.175
471.9936, 3013.134
472.4757, 3077.752
472.9578, 3149.797
473.4399, 3225.989
473.9221, 3302.309
474.4042, 3378.080
474.8863, 3457.906
475.3684, 3539.821
475.8505, 3627.932
476.3326, 3724.983
476.8148, 3828.820
477.2969, 3935.542
477.7790, 4042.504
478.2611, 4152.087
478.7432, 4267.964
479.2253, 4389.881
479.7075, 4517.704
480.1896, 4652.042
480.6717, 4791.289
481.1538, 4934.199
481.6359, 5081.125
482.1180, 5234.634
482.6002, 5397.616
483.0823, 5567.453
483.5644, 5739.783
484.0465, 5913.604
484.5286, 6090.721
485.0107, 6272.812
485.4929, 6458.085
485.9750, 6647.062
486.4571, 6839.895
486.9392, 7029.238
487.4213, 7213.350
487.9034, 7390.511
488.3856, 7557.222
488.8677, 7714.903
489.3498, 7856.491
489.8319, 7977.929
490.3140, 8076.313
490.7961, 8145.917
491.2783, 8189.688
491.7604, 8202.674
492.2425, 8182.372
492.7246, 8129.950
493.2067, 8047.077
493.6888, 7934.854
494.1710, 7793.521
494.6531, 7624.286
495.1352, 7422.939
495.6173, 7203.963
496.0994, 6963.602
496.5815, 6712.231
497.0637, 6450.200
497.5458, 6182.260
498.0279, 5915.335
498.5100, 5652.379
498.9921, 5396.123
499.4742, 5148.056
499.9564, 4907.575
500.4385, 4678.291
500.9206, 4458.751
501.4027, 4250.342
501.8848, 4056.968
502.3669, 3877.513
502.8491, 3709.578
503.3312, 3552.396
503.8133, 3405.134
504.2954, 3266.595
504.7775, 3137.706
505.2596, 3015.647
505.7418, 2899.459
506.2239, 2790.679
506.7060, 2690.354
507.1881, 2599.260
507.6702, 2514.882
508.1523, 2436.908
508.6345, 2364.530
509.1166, 2296.916
509.5987, 2233.670
510.0808, 2173.913
510.5629, 2116.721
511.0450, 2062.487
511.5272, 2012.052
512.0093, 1965.597
512.4914, 1921.848
512.9735, 1879.765
513.4556, 1840.280
513.9377, 1805.111
514.4199, 1774.637
514.9020, 1745.743
515.3841, 1714.885
515.8662, 1681.667
516.3483, 1649.591
516.8304, 1618.306
517.3126, 1588.731
517.7947, 1562.533
518.2768, 1537.919
518.7589, 1511.969
519.2410, 1483.427
519.7231, 1454.791
520.2053, 1429.911
520.6874, 1409.136
521.1695, 1387.600
521.6516, 1363.566
522.1337, 1340.113
522.6158, 1320.438
523.0980, 1303.024
523.5801, 1283.336
524.0622, 1258.175
524.5443, 1231.745
525.0264, 1208.945
525.5085, 1189.046
525.9907, 1169.034
526.4728, 1147.970
526.9549, 1125.771
527.4370, 1101.610
527.9191, 1074.512
528.4012, 1050.420
528.8834, 1032.506
529.3655, 1015.556
529.8476, 995.8514
530.3297, 973.9426
530.8118, 952.3497
531.2939, 932.4045
531.7761, 913.5736
532.2582, 894.4067
532.7403, 873.6720
533.2224, 854.9888
533.7045, 839.6205
534.1866, 825.0326
534.6688, 809.6513
535.1509, 793.6191
535.6330, 777.8807
536.1151, 763.0182
536.5972, 748.9061
537.0793, 734.8900
537.5615, 720.8402
538.0436, 707.7396
538.5257, 696.3566
539.0078, 685.8602
539.4899, 675.6444
539.9720, 665.6583
540.4542, 655.8565
540.9363, 646.2713
541.4184, 636.8740
541.9005, 627.3901
542.3826, 617.8672
542.8647, 609.2508
543.3469, 602.0945
543.8290, 596.0369
544.3111, 590.2437
544.7932, 585.0784
545.2753, 579.3514
545.7574, 571.8217
546.2396, 564.3857
546.7217, 559.1669
547.2038, 555.7987
547.6859, 552.0766
548.1680, 546.3301
548.6501, 539.1711
549.1323, 533.3400
549.6144, 529.5519
550.0965, 525.9542
550.5786, 522.6904
551.0607, 519.2327
551.5428, 515.0063
552.0250, 510.1282
552.5071, 505.3794
552.9892, 501.1843
553.4713, 497.5735
553.9534, 494.8202
554.4355, 493.1829
554.9177, 491.0453
555.3998, 487.1584
555.8819, 482.8792
556.3640, 480.2138
556.8461, 479.4320
557.3282, 478.2573
557.8104, 475.3976
558.2925, 471.9071
558.7746, 469.0061
559.2567, 466.7258
559.7388, 464.5949
560.2209, 462.2554
560.7031, 459.9482
561.1852, 458.4507
561.6673, 459.7746
562.1494, 458.9804
562.6315, 453.7643
563.1136, 448.1629
563.5958, 445.2194
564.0779, 444.7293
564.5600, 444.8241
565.0421, 444.2695
565.5242, 443.1626
566.0063, 441.7075
566.4885, 439.6412
566.9706, 438.0135
567.4527, 437.3182
567.9348, 436.9852
568.4169, 436.9659
568.8990, 437.1015
569.3812, 436.5514
569.8633, 434.4969
570.3454, 431.7068
570.8275, 429.1204
571.3096, 426.7665
571.7917, 424.8523
572.2739, 423.5246
572.7560, 422.5578
573.2381, 421.5720
573.7202, 420.5713
574.2023, 419.5294
574.6844, 418.2522
575.1666, 417.0963
575.6487, 416.3818
576.1308, 415.9944
576.6129, 415.6454
577.0950, 415.1900
577.5771, 414.5926
578.0593, 413.7011
578.5414, 412.2435
579.0235, 411.2326
579.5056, 411.7383
579.9877, 411.7336
580.4698, 409.6631
580.9520, 406.3898
581.4341, 403.9264
581.9162, 403.2462
582.3983, 403.6074
582.8804, 404.4044
583.3625, 405.5453
583.8447, 406.0070
584.3268, 405.5235
584.8089, 404.3521
585.2910, 402.1349
585.7731, 399.1089
586.2552, 397.8554
586.7374, 400.4912
587.2195, 402.9734
587.7016, 402.5986
588.1837, 400.8010
588.6658, 400.2208
589.1479, 401.6227
589.6301, 403.7442
590.1122, 405.0910
590.5943, 405.6116
591.0764, 405.8150
591.5585, 405.8540
592.0406, 405.3502
592.5228, 403.5332
593.0049, 401.4471
593.4870, 400.5179
593.9691, 401.0707
594.4512, 401.7240
594.9333, 400.7812
595.4155, 398.7583
595.8976, 398.0958
596.3797, 399.2015
596.8618, 400.4369
597.3439, 400.8658
597.8260, 400.7638
598.3082, 400.9523
598.7903, 401.8598
599.2724, 401.9838
599.7545, 399.9310
600.2366, 397.4204
600.7188, 396.1551
601.2009, 396.2997
601.6830, 397.5583
602.1651, 399.9102
602.6472, 402.7903
603.1293, 404.0061
603.6115, 402.2953
604.0936, 401.2236
604.5757, 401.6678
605.0578, 402.1955
605.5399, 401.6902
606.0220, 400.4581
606.5042, 399.7032
606.9863, 400.2885
607.4684, 401.4171
607.9505, 401.6325
608.4326, 400.9706
608.9147, 400.9204
609.3969, 402.1113
609.8790, 403.5950
610.3611, 404.4572
610.8432, 404.7261
611.3253, 404.4861
611.8074, 402.7542
612.2896, 401.5503
612.7717, 402.4170
613.2538, 404.3954
613.7359, 405.9471
614.2180, 406.5889
614.7001, 406.5593
615.1823, 406.0286
615.6644, 404.9477
616.1465, 404.3784
616.6286, 404.6446
617.1107, 404.9984
617.5928, 405.2329
618.0750, 405.4601
618.5571, 406.0125
619.0392, 406.9032
619.5213, 407.2424
620.0034, 405.6210
620.4855, 403.1487
620.9677, 402.4756
621.4498, 403.7591
621.9319, 405.5062
622.4140, 407.3600
622.8961, 408.8338
623.3782, 408.5331
623.8604, 405.4906
624.3425, 403.9558
624.8246, 405.8951
625.3067, 408.1705
625.7888, 408.3297
626.2709, 407.0821
626.7531, 406.7412
627.2352, 408.4723
627.7173, 410.8103
628.1994, 410.7827
628.6815, 407.7553
629.1636, 405.9094
629.6458, 406.2964
630.1279, 406.8332
630.6100, 406.0143
631.0921, 404.7264
631.5742, 404.7116
632.0563, 406.8272
632.5385, 408.9705
633.0206, 409.4698
633.5027, 408.9644
633.9848, 408.6281
634.4669, 408.6425
634.9490, 408.9718
635.4312, 409.6865
635.9133, 410.6368
636.3954, 411.1083
636.8775, 410.6947
637.3596, 410.3262
637.8417, 410.3544
638.3239, 410.1743
638.8060, 409.0653
639.2881, 407.3217
639.7702, 405.9140
640.2523, 405.4165
640.7344, 405.5862
641.2166, 406.0753
641.6987, 406.9016
642.1808, 407.7262
642.6629, 408.7297
643.1450, 409.3172
643.6271, 408.5968
644.1093, 406.9386
644.5914, 405.6888
645.0735, 405.0818
645.5556, 404.8653
646.0377, 405.2900
646.5198, 405.8833
647.0020, 405.7211
647.4841, 404.7660
647.9662, 404.1432
648.4483, 404.9757
648.9304, 406.9664
649.4125, 407.9606
649.8947, 407.2229
650.3768, 406.8553
650.8589, 407.8452
651.3410, 408.8122
651.8231, 408.5634
652.3052, 407.2899
652.7874, 406.2744
653.2695, 406.1673
653.7516, 406.6230
654.2337, 407.2003
654.7158, 407.9592
655.1979, 409.3490
655.6801, 411.6120
656.1622, 413.8773
656.6443, 415.2752
657.1264, 415.7981
657.6085, 415.4582
658.0906, 413.5350
658.5728, 411.7831
659.0549, 410.6125
659.5370, 409.8111
660.0191, 408.9745
660.5012, 408.1492
660.9833, 407.9621
661.4655, 409.1410
661.9476, 411.2267
662.4297, 413.0484
662.9118, 414.7528
663.3939, 414.7928
663.8760, 411.3994
664.3582, 407.6917
664.8403, 408.1122
665.3224, 412.2645
665.8045, 415.0154
666.2866, 414.2691
666.7687, 413.2708
667.2509, 413.6794
667.7330, 415.0894
668.2151, 417.0670
668.6972, 419.3648
669.1793, 421.1898
669.6614, 421.5543
670.1436, 420.6154
670.6257, 420.8109
671.1078, 423.2197
