##NAMES=Tsumebite
##RRUFFID=R070446
##IDEAL CHEMISTRY=Pb^2+^_2_Cu^2+^(P^5+^O_4_)(S^6+^O_4_)(OH)
##LOCALITY=Tiger mine, Collins Vein, Tiger, Arizona, USA
##OWNER=RRUFF
##SOURCE=Joe Ruiz
##DESCRIPTION=Sea blue tabular crystals on quartz associated with yellowish phosphohedyphane, goethite, hematite, cerussite, fluorite, and corkite.
##STATUS=The identification of this mineral has been confirmed by single-crystal X-ray diffraction.
##URL=rruff.info/R070446
121.5113, 87.86180
121.9934, 89.79455
122.4755, 94.11819
122.9576, 99.36549
123.4398, 104.0574
123.9219, 107.4906
124.4040, 110.4304
124.8861, 114.5473
125.3682, 119.6660
125.8503, 126.6157
126.3325, 136.4440
126.8146, 147.5731
127.2967, 158.0835
127.7788, 166.7363
128.2609, 174.4636
128.7430, 184.6298
129.2252, 196.7507
129.7073, 212.5090
130.1894, 232.4798
130.6715, 255.9768
131.1536, 282.7622
131.6357, 313.2372
132.1179, 346.3573
132.6000, 373.8642
133.0821, 391.5116
133.5642, 407.4737
134.0463, 426.3343
134.5284, 444.3046
135.0106, 454.8152
135.4927, 453.2213
135.9748, 439.9133
136.4569, 421.4601
136.9390, 388.8681
137.4211, 360.8119
137.9033, 343.6636
138.3854, 335.7018
138.8675, 332.0384
139.3496, 329.4922
139.8317, 328.0768
140.3138, 326.8067
140.7960, 323.3798
141.2781, 322.1509
141.7602, 325.2550
142.2423, 332.3546
142.7244, 341.9743
143.2065, 353.4180
143.6887, 366.6923
144.1708, 379.1811
144.6529, 387.0931
145.1350, 397.3831
145.6171, 415.2546
146.0992, 440.0732
146.5814, 466.4131
147.0635, 490.0535
147.5456, 510.9291
148.0277, 533.2263
148.5098, 559.8821
148.9919, 585.7661
149.4741, 608.1783
149.9562, 626.9344
150.4383, 641.1141
150.9204, 649.7023
151.4025, 652.3917
151.8846, 651.6205
152.3668, 645.6999
152.8489, 637.4446
153.3310, 630.5551
153.8131, 625.4548
154.2952, 616.5642
154.7773, 595.7635
155.2595, 566.3953
155.7416, 543.2281
156.2237, 531.9412
156.7058, 526.3046
157.1879, 518.9911
157.6700, 509.2337
158.1522, 500.8237
158.6343, 497.9128
159.1164, 498.7654
159.5985, 499.5106
160.0806, 497.7390
160.5627, 495.8580
161.0449, 497.7575
161.5270, 504.2038
162.0091, 511.8513
162.4912, 519.7539
162.9733, 527.1445
163.4554, 532.3007
163.9376, 533.2787
164.4197, 531.9828
164.9018, 531.5493
165.3839, 531.8238
165.8660, 533.4510
166.3481, 538.0395
166.8303, 544.1015
167.3124, 549.1932
167.7945, 553.1244
168.2766, 555.2264
168.7587, 553.1009
169.2408, 544.2593
169.7230, 536.8685
170.2051, 536.2960
170.6872, 539.6995
171.1693, 542.9229
171.6514, 544.5527
172.1335, 544.5888
172.6157, 542.5743
173.0978, 537.0944
173.5799, 532.4254
174.0620, 531.3878
174.5441, 532.0757
175.0262, 531.6404
175.5084, 528.0688
175.9905, 522.8577
176.4726, 520.0899
176.9547, 520.3355
177.4368, 522.2238
177.9189, 527.2378
178.4010, 532.8439
178.8832, 535.3621
179.3653, 532.4316
179.8474, 525.8006
180.3295, 520.5217
180.8116, 516.9087
181.2937, 514.2500
181.7759, 511.5810
182.2580, 509.7224
182.7401, 510.1504
183.2222, 514.1572
183.7043, 519.9716
184.1864, 522.3160
184.6686, 519.2003
185.1507, 515.8825
185.6328, 512.6699
186.1149, 510.4468
186.5970, 510.5541
187.0791, 513.9166
187.5613, 519.1182
188.0434, 522.5621
188.5255, 523.9967
189.0076, 523.7816
189.4897, 520.1414
189.9718, 515.9498
190.4540, 514.4769
190.9361, 517.3416
191.4182, 522.6985
191.9003, 526.0258
192.3824, 526.0806
192.8645, 526.2272
193.3467, 526.2371
193.8288, 526.9567
194.3109, 529.7760
194.7930, 535.2949
195.2751, 541.6857
195.7572, 544.8336
196.2394, 543.0109
196.7215, 541.0229
197.2036, 537.3613
197.6857, 534.9381
198.1678, 537.6718
198.6499, 546.6802
199.1321, 557.4526
199.6142, 560.8109
200.0963, 550.7078
200.5784, 545.2766
201.0605, 547.3191
201.5426, 552.9214
202.0248, 560.3985
202.5069, 568.9224
202.9890, 576.5372
203.4711, 579.3984
203.9532, 573.6930
204.4353, 571.8915
204.9175, 576.2629
205.3996, 582.8656
205.8817, 589.2692
206.3638, 594.9083
206.8459, 600.5356
207.3280, 607.8289
207.8102, 619.0184
208.2923, 625.7903
208.7744, 625.0545
209.2565, 622.8528
209.7386, 622.2121
210.2207, 623.6879
210.7029, 626.3853
211.1850, 629.3704
211.6671, 632.6666
212.1492, 636.1190
212.6313, 638.0789
213.1134, 641.5242
213.5956, 649.8150
214.0777, 661.7109
214.5598, 672.1755
215.0419, 675.3163
215.5240, 669.3059
216.0061, 668.1540
216.4883, 674.5364
216.9704, 683.2012
217.4525, 694.6851
217.9346, 707.1981
218.4167, 716.9545
218.8988, 720.3085
219.3810, 717.0466
219.8631, 715.1235
220.3452, 713.5264
220.8273, 714.4247
221.3094, 720.4638
221.7915, 729.4990
222.2737, 737.2336
222.7558, 740.2705
223.2379, 739.2811
223.7200, 741.2732
224.2021, 750.4498
224.6842, 758.1641
225.1664, 762.3970
225.6485, 764.1115
226.1306, 764.7909
226.6127, 765.2218
227.0948, 765.3882
227.5770, 765.2728
228.0591, 765.4704
228.5412, 764.4390
229.0233, 758.9160
229.5054, 753.1937
229.9875, 752.8915
230.4697, 760.6982
230.9518, 773.0996
231.4339, 781.5186
231.9160, 784.1846
232.3981, 785.4606
232.8802, 783.8571
233.3624, 782.4322
233.8445, 784.9081
234.3266, 792.3136
234.8087, 800.7960
235.2908, 803.5262
235.7729, 798.4092
236.2551, 792.2587
236.7372, 784.1606
237.2193, 776.3450
237.7014, 769.0402
238.1835, 762.8307
238.6656, 760.0407
239.1478, 765.7462
239.6299, 784.4513
240.1120, 794.7855
240.5941, 788.9631
241.0762, 780.3938
241.5583, 774.2111
242.0405, 771.1890
242.5226, 770.4390
243.0047, 772.9233
243.4868, 779.5084
243.9689, 778.5450
244.4510, 757.1570
244.9332, 740.3088
245.4153, 740.4995
245.8974, 753.3355
246.3795, 766.3816
246.8616, 770.8118
247.3437, 767.5046
247.8259, 764.1208
248.3080, 760.4997
248.7901, 757.0082
249.2722, 753.3513
249.7543, 749.9396
250.2364, 747.5747
250.7186, 746.9673
251.2007, 747.3517
251.6828, 746.4761
252.1649, 743.8804
252.6470, 740.8910
253.1291, 736.4931
253.6113, 732.5356
254.0934, 731.5499
254.5755, 734.9013
255.0576, 739.7912
255.5397, 741.4944
256.0219, 739.0602
256.5040, 737.0250
256.9861, 736.9551
257.4682, 737.6277
257.9503, 738.4176
258.4324, 739.2166
258.9146, 739.6273
259.3967, 739.1536
259.8788, 737.7637
260.3609, 736.1641
260.8430, 734.3790
261.3251, 732.4803
261.8073, 730.8300
262.2894, 729.3492
262.7715, 727.0272
263.2536, 722.3508
263.7357, 715.8744
264.2178, 710.5704
264.7000, 705.6756
265.1821, 703.9029
265.6642, 709.1694
266.1463, 719.3357
266.6284, 727.1722
267.1105, 726.2606
267.5927, 721.2603
268.0748, 723.8311
268.5569, 737.3233
269.0390, 748.2977
269.5211, 742.6779
270.0032, 728.5140
270.4854, 719.4131
270.9675, 721.6493
271.4496, 728.0995
271.9317, 731.0339
272.4138, 730.3680
272.8959, 729.0076
273.3781, 727.6432
273.8602, 726.8763
274.3423, 727.8602
274.8244, 731.7563
275.3065, 735.3950
275.7886, 737.4719
276.2708, 737.7524
276.7529, 734.4586
277.2350, 725.0689
277.7171, 714.4077
278.1992, 711.0616
278.6813, 716.1913
279.1635, 721.2066
279.6456, 720.2654
280.1277, 717.8329
280.6098, 724.1465
281.0919, 742.9499
281.5740, 761.3881
282.0562, 761.7847
282.5383, 742.2940
283.0204, 728.4660
283.5025, 725.2529
283.9846, 727.5670
284.4667, 732.7737
284.9489, 740.0506
285.4310, 745.6863
285.9131, 746.3770
286.3952, 742.0861
286.8773, 738.2277
287.3594, 730.9321
287.8416, 727.7017
288.3237, 735.6104
288.8058, 750.8976
289.2879, 763.5544
289.7700, 767.9536
290.2521, 765.7054
290.7343, 763.3105
291.2164, 757.8669
291.6985, 755.8115
292.1806, 761.5092
292.6627, 769.9249
293.1448, 773.9783
293.6270, 771.2774
294.1091, 766.1732
294.5912, 766.5994
295.0733, 777.5563
295.5554, 784.6816
296.0375, 785.3139
296.5197, 784.3085
297.0018, 783.7955
297.4839, 784.7359
297.9660, 788.6942
298.4481, 798.2350
298.9302, 815.0337
299.4124, 825.6871
299.8945, 827.6116
300.3766, 826.2045
300.8587, 819.9750
301.3408, 811.8553
301.8229, 807.4720
302.3050, 811.0209
302.7871, 820.7419
303.2693, 827.4629
303.7514, 828.1368
304.2335, 830.2626
304.7156, 837.4164
305.1977, 845.7772
305.6798, 850.7335
306.1620, 850.4849
306.6441, 848.2343
307.1262, 849.7831
307.6083, 856.7273
308.0904, 861.4823
308.5725, 859.0046
309.0547, 852.4889
309.5368, 859.7663
310.0189, 864.5670
310.5010, 867.0244
310.9831, 860.1191
311.4652, 865.3037
311.9474, 865.6435
312.4295, 865.7844
312.9116, 872.6705
313.3937, 867.1271
313.8758, 873.9062
314.3579, 875.7665
314.8401, 879.8782
315.3222, 879.1148
315.8043, 879.8571
316.2864, 885.4759
316.7685, 888.3944
317.2506, 887.0699
317.7328, 891.3247
318.2149, 882.1729
318.6970, 887.2126
319.1791, 893.7026
319.6612, 895.5674
320.1433, 894.0758
320.6255, 895.7307
321.1076, 904.3827
321.5897, 914.4659
322.0718, 916.3243
322.5539, 909.0754
323.0360, 901.9384
323.5182, 895.9171
324.0003, 892.1025
324.4824, 892.7783
324.9645, 898.3041
325.4466, 905.0529
325.9287, 909.5336
326.4109, 911.4544
326.8930, 914.4516
327.3751, 921.5179
327.8572, 926.9162
328.3393, 926.2018
328.8214, 920.9127
329.3036, 915.7594
329.7857, 913.4030
330.2678, 913.4403
330.7499, 914.1342
331.2320, 916.8145
331.7141, 918.5038
332.1963, 918.4542
332.6784, 917.4690
333.1605, 916.9703
333.6426, 917.2172
334.1247, 916.3181
334.6068, 910.3303
335.0890, 894.0663
335.5711, 887.2355
336.0532, 897.0237
336.5353, 908.6981
337.0174, 917.2455
337.4995, 921.2086
337.9817, 918.9797
338.4638, 907.0664
338.9459, 887.4694
339.4280, 879.0293
339.9101, 890.8513
340.3922, 900.7380
340.8744, 901.3772
341.3565, 896.8798
341.8386, 892.1513
342.3207, 888.8754
342.8028, 886.6722
343.2849, 884.8776
343.7671, 883.3784
344.2492, 883.2597
344.7313, 887.4677
345.2134, 890.9129
345.6955, 888.5390
346.1776, 880.2929
346.6598, 872.5350
347.1419, 870.0068
347.6240, 871.0158
348.1061, 870.8802
348.5882, 868.9746
349.0703, 866.4365
349.5525, 863.4572
350.0346, 860.4677
350.5167, 858.9447
350.9988, 860.6192
351.4809, 862.6836
351.9630, 863.1926
352.4452, 862.1761
352.9273, 859.6734
353.4094, 855.3338
353.8915, 849.9423
354.3736, 845.5567
354.8557, 842.4054
355.3379, 839.5295
355.8200, 837.8286
356.3021, 835.8002
356.7842, 830.4777
357.2663, 821.5407
357.7484, 813.6754
358.2306, 813.0270
358.7127, 822.2813
359.1948, 823.2696
359.6769, 808.4798
360.1590, 794.1777
360.6411, 786.7303
361.1233, 785.5244
361.6054, 788.6562
362.0875, 795.4822
362.5696, 804.2175
363.0517, 808.3845
363.5338, 806.5408
364.0160, 801.9740
364.4981, 792.3607
364.9802, 782.2256
365.4623, 776.4604
365.9444, 775.6501
366.4265, 774.6957
366.9087, 764.5330
367.3908, 743.7528
367.8729, 737.2641
368.3550, 758.6741
368.8371, 779.6176
369.3192, 785.3078
369.8014, 779.5392
370.2835, 771.7170
370.7656, 765.3010
371.2477, 760.1140
371.7298, 755.0447
372.2119, 749.6718
372.6941, 748.8669
373.1762, 758.4988
373.6583, 771.6376
374.1404, 777.3776
374.6225, 773.5797
375.1046, 768.9375
375.5868, 767.9241
376.0689, 769.2514
376.5510, 770.5565
377.0331, 771.4095
377.5152, 771.9567
377.9973, 773.0008
378.4795, 774.6805
378.9616, 772.0584
379.4437, 758.7245
379.9258, 746.7875
380.4079, 744.2869
380.8900, 749.3260
381.3722, 756.0224
381.8543, 761.3253
382.3364, 765.6172
382.8185, 770.1815
383.3006, 777.4255
383.7827, 781.5214
384.2649, 779.6920
384.7470, 776.4423
385.2291, 776.1600
385.7112, 779.0800
386.1933, 781.4274
386.6754, 778.5267
387.1576, 769.9323
387.6397, 764.8897
388.1218, 765.0077
388.6039, 767.1281
389.0860, 773.4518
389.5681, 780.2699
390.0503, 781.3134
390.5324, 772.9613
391.0145, 760.5723
391.4966, 752.9016
391.9787, 750.5977
392.4608, 747.0890
392.9430, 740.2728
393.4251, 731.8891
393.9072, 722.9844
394.3893, 713.6074
394.8714, 706.0490
395.3535, 704.0258
395.8357, 703.6584
396.3178, 697.1588
396.7999, 683.5004
397.2820, 670.3688
397.7641, 662.6673
398.2462, 660.2002
398.7284, 659.8995
399.2105, 664.4105
399.6926, 668.0826
400.1747, 668.9913
400.6568, 667.5645
401.1389, 664.2291
401.6211, 659.0925
402.1032, 652.9021
402.5853, 646.5717
403.0674, 639.7407
403.5495, 634.0461
404.0316, 629.4797
404.5138, 625.8252
404.9959, 623.8417
405.4780, 622.6803
405.9601, 620.5004
406.4422, 616.0886
406.9243, 609.9169
407.4065, 603.1535
407.8886, 593.3491
408.3707, 588.2058
408.8528, 592.9479
409.3349, 600.0364
409.8170, 603.8309
410.2992, 603.4247
410.7813, 601.1693
411.2634, 598.5035
411.7455, 595.5503
412.2276, 592.6427
412.7097, 589.0126
413.1919, 587.3632
413.6740, 591.8651
414.1561, 599.5619
414.6382, 604.4295
415.1203, 604.0281
415.6024, 602.1610
416.0846, 600.9652
416.5667, 600.4973
417.0488, 601.4893
417.5309, 604.6527
418.0130, 607.6049
418.4951, 606.3455
418.9773, 598.9343
419.4594, 593.9196
419.9415, 590.7899
420.4236, 590.8425
420.9057, 598.5107
421.3878, 610.6792
421.8700, 617.3049
422.3521, 611.0393
422.8342, 596.1270
423.3163, 591.2247
423.7984, 604.4966
424.2805, 615.3609
424.7627, 620.8312
425.2448, 623.8550
425.7269, 626.1392
426.2090, 628.2822
426.6911, 630.9454
427.1732, 634.9308
427.6554, 640.1581
428.1375, 645.1337
428.6196, 649.2176
429.1017, 654.2952
429.5838, 661.7614
430.0659, 670.7224
430.5481, 679.8835
431.0302, 688.7709
431.5123, 698.1777
431.9944, 709.5956
432.4765, 722.2232
432.9586, 732.6640
433.4408, 739.4401
433.9229, 745.9018
434.4050, 756.1329
434.8871, 770.4680
435.3692, 785.0963
435.8513, 801.4313
436.3335, 816.5109
436.8156, 828.9252
437.2977, 838.6234
437.7798, 844.9206
438.2619, 847.0825
438.7440, 848.1259
439.2262, 856.5253
439.7083, 882.7356
440.1904, 897.2417
440.6725, 893.6233
441.1546, 884.6233
441.6367, 877.7205
442.1189, 873.2438
442.6010, 867.9305
443.0831, 859.0956
443.5652, 847.6404
444.0473, 837.3312
444.5294, 829.0570
445.0116, 819.4178
445.4937, 806.4460
445.9758, 791.6478
446.4579, 776.2916
446.9400, 760.6065
447.4221, 744.2451
447.9043, 726.0004
448.3864, 707.1062
448.8685, 690.1188
449.3506, 675.2995
449.8327, 662.4840
450.3148, 651.7783
450.7970, 643.0658
451.2791, 634.6625
451.7612, 627.1204
452.2433, 619.2330
452.7254, 609.4494
453.2076, 599.5188
453.6897, 592.2903
454.1718, 588.4617
454.6539, 585.9702
455.1360, 582.0798
455.6181, 576.3640
456.1003, 571.6970
456.5824, 570.5784
457.0645, 567.9675
457.5466, 558.8154
458.0287, 547.9997
458.5108, 544.1413
458.9930, 551.7358
459.4751, 563.3203
459.9572, 568.0775
460.4393, 565.8861
460.9214, 563.8408
461.4035, 562.8571
461.8857, 562.9924
462.3678, 565.6363
462.8499, 569.9701
463.3320, 571.2876
463.8141, 563.2864
464.2962, 555.6829
464.7784, 559.9417
465.2605, 572.9116
465.7426, 581.2012
466.2247, 578.4373
466.7068, 570.0114
467.1889, 566.6796
467.6711, 573.5922
468.1532, 574.5362
468.6353, 563.6563
469.1174, 552.0037
469.5995, 547.2873
470.0816, 547.9955
470.5638, 548.2917
471.0459, 544.5424
471.5280, 537.7324
472.0101, 530.3396
472.4922, 521.9205
472.9743, 514.2619
473.4565, 503.7801
473.9386, 497.2603
474.4207, 503.9323
474.9028, 521.9459
475.3849, 533.6910
475.8670, 525.1246
476.3492, 505.4633
476.8313, 488.7819
477.3134, 475.4538
477.7955, 466.3990
478.2776, 462.7908
478.7597, 463.2001
479.2419, 464.6134
479.7240, 468.0117
480.2061, 469.8571
480.6882, 469.5294
481.1703, 467.3275
481.6524, 462.2664
482.1346, 455.1479
482.6167, 449.5011
483.0988, 448.3059
483.5809, 450.3709
484.0630, 448.7444
484.5451, 439.5177
485.0273, 433.0464
485.5094, 432.5755
485.9915, 433.8309
486.4736, 433.6017
486.9557, 431.4936
487.4378, 428.8673
487.9200, 426.0479
488.4021, 423.5570
488.8842, 423.6701
489.3663, 427.0442
489.8484, 429.3168
490.3305, 428.3346
490.8127, 424.7238
491.2948, 419.8019
491.7769, 412.5704
492.2590, 406.8851
492.7411, 404.2857
493.2232, 403.8224
493.7054, 406.2966
494.1875, 410.7527
494.6696, 411.5627
495.1517, 403.5415
495.6338, 388.7945
496.1159, 380.9058
496.5981, 385.5324
497.0802, 389.4429
497.5623, 391.8547
498.0444, 392.7208
498.5265, 391.1709
499.0086, 387.6340
499.4908, 384.6387
499.9729, 385.3495
500.4550, 388.2287
500.9371, 386.8795
501.4192, 380.2487
501.9013, 373.6581
502.3835, 367.9082
502.8656, 364.5539
503.3477, 366.7913
503.8298, 376.6830
504.3119, 383.5950
504.7940, 381.5595
505.2762, 375.5794
505.7583, 370.3943
506.2404, 366.7701
506.7225, 365.3223
507.2046, 366.6759
507.6867, 370.2065
508.1689, 373.2671
508.6510, 377.8568
509.1331, 378.8174
509.6152, 371.3504
510.0973, 363.8211
510.5794, 363.7357
511.0616, 370.1658
511.5437, 375.7977
512.0258, 375.0351
512.5079, 369.9296
512.9901, 365.1496
513.4722, 360.1982
513.9543, 359.1703
514.4364, 366.4074
514.9185, 375.8011
515.4006, 379.0011
515.8828, 375.5429
516.3649, 372.3914
516.8470, 371.7583
517.3291, 372.2687
517.8112, 372.5388
518.2933, 372.7269
518.7755, 374.1532
519.2576, 377.7192
519.7397, 381.9998
520.2218, 383.4881
520.7039, 380.3832
521.1860, 377.8677
521.6682, 375.2392
522.1503, 373.7703
522.6324, 374.8014
523.1145, 377.5585
523.5966, 380.0175
524.0787, 380.9566
524.5609, 381.4471
525.0430, 383.5891
525.5251, 387.3663
526.0072, 390.1579
526.4893, 391.2440
526.9714, 391.3142
527.4536, 390.1200
527.9357, 387.9597
528.4178, 388.3347
528.8999, 395.8116
529.3820, 401.9279
529.8641, 399.6483
530.3463, 392.7814
530.8284, 388.7440
531.3105, 390.0635
531.7926, 394.4845
532.2747, 399.3045
532.7568, 404.9243
533.2390, 408.5242
533.7211, 408.5986
534.2032, 408.2987
534.6853, 407.4083
535.1674, 407.1653
535.6495, 409.8004
536.1317, 416.2797
536.6138, 422.6182
537.0959, 424.5392
537.5780, 423.3129
538.0601, 423.2357
538.5422, 424.9964
539.0244, 426.4221
539.5065, 425.9544
539.9886, 423.8661
540.4707, 421.5587
540.9528, 414.5316
541.4349, 413.3611
541.9171, 428.6465
542.3992, 445.2738
542.8813, 446.6968
543.3634, 433.1630
543.8455, 417.5394
544.3276, 409.4720
544.8098, 408.1612
545.2919, 411.1583
545.7740, 421.1806
546.2561, 428.0182
546.7382, 425.9794
547.2203, 422.0414
547.7024, 421.5996
548.1845, 424.6171
548.6666, 427.7151
549.1487, 430.6786
549.6309, 432.0971
550.1130, 428.7090
550.5951, 421.9107
551.0772, 418.2221
551.5593, 420.5816
552.0414, 425.3120
552.5236, 426.3428
553.0057, 422.1098
553.4878, 419.4461
553.9699, 416.5523
554.4520, 416.8701
554.9341, 425.0735
555.4163, 436.3804
555.8984, 442.7310
556.3805, 441.0656
556.8626, 437.6184
557.3447, 441.1536
557.8268, 450.4432
558.3090, 454.9667
558.7911, 452.6767
559.2732, 449.0046
559.7553, 446.7896
560.2374, 446.0410
560.7195, 446.6374
561.2017, 450.4262
561.6838, 452.3218
562.1659, 449.3509
562.6480, 444.5445
563.1301, 440.0570
563.6122, 436.7684
564.0944, 436.3877
564.5765, 440.6032
565.0586, 447.9144
565.5407, 452.3286
566.0228, 452.7289
566.5049, 453.0568
566.9871, 454.8705
567.4692, 456.0555
567.9513, 455.6356
568.4334, 453.4603
568.9155, 449.1678
569.3976, 439.0405
569.8798, 429.9089
570.3619, 430.4326
570.8440, 437.9679
571.3261, 443.8004
571.8082, 445.2918
572.2903, 444.0314
572.7725, 441.3739
573.2546, 436.8311
573.7367, 435.5174
574.2188, 441.3994
574.7009, 445.5936
575.1830, 443.9100
575.6652, 440.4240
576.1473, 440.3284
576.6294, 444.5072
577.1115, 448.6906
577.5936, 449.3559
578.0757, 443.0717
578.5579, 448.2223
579.0400, 450.8965
579.5221, 451.2272
580.0042, 442.1954
580.4863, 445.2533
580.9684, 443.4663
581.4506, 441.4804
581.9327, 446.2400
582.4148, 438.5700
582.8969, 443.2225
583.3790, 442.9561
583.8611, 444.9411
584.3433, 442.0509
584.8254, 440.6667
585.3075, 444.1588
585.7896, 444.9509
586.2717, 428.9328
586.7538, 425.3154
587.2360, 432.1225
587.7181, 439.5172
588.2002, 443.0975
588.6823, 443.2772
589.1644, 439.7708
589.6465, 430.6976
590.1287, 422.8260
590.6108, 419.9768
591.0929, 419.8438
591.5750, 420.1227
592.0571, 420.3044
592.5392, 419.4966
593.0214, 416.7628
593.5035, 413.6383
593.9856, 415.6415
594.4677, 427.1287
594.9498, 433.3501
595.4319, 427.8432
595.9141, 421.5027
596.3962, 420.3216
596.8783, 422.6150
597.3604, 423.2556
597.8425, 419.1551
598.3246, 415.1784
598.8068, 417.2682
599.2889, 422.7801
599.7710, 424.5861
600.2531, 421.3096
600.7352, 416.2729
601.2173, 411.8147
601.6995, 408.1338
602.1816, 406.9072
602.6637, 412.1833
603.1458, 414.3396
603.6279, 410.0056
604.1100, 404.4426
604.5922, 401.8487
605.0743, 401.8796
605.5564, 401.3574
606.0385, 398.1466
606.5206, 393.8084
607.0027, 391.1469
607.4849, 389.7785
607.9670, 386.3017
608.4491, 379.3500
608.9312, 372.1018
609.4133, 367.9615
609.8954, 366.9410
610.3776, 364.6017
610.8597, 358.7503
611.3418, 354.4900
611.8239, 354.6054
612.3060, 355.8604
612.7881, 354.6110
613.2703, 350.7905
613.7524, 347.5075
614.2345, 348.1166
614.7166, 350.0919
615.1987, 345.7718
615.6808, 334.7305
616.1630, 327.3970
616.6451, 328.0680
