##NAMES=Tsumcorite
##RRUFFID=R100185
##IDEAL CHEMISTRY=Pb^2+^Zn^2+^_2_(As^5+^O_4_)_2_&#183;2H_2_O
##LOCALITY=Mina Ojuela (Campo Sur), Mapimi, Durango, Mexico
##OWNER=RRUFF
##SOURCE=Marcus Origlieri
##DESCRIPTION=Brilliant brown wedge-shaped crystals on pulverant segnitite, associated with colorless mimetite
##STATUS=The identification of this mineral has been confirmed by single-crystal X-ray diffraction.
##URL=rruff.info/R100185
129.1224, 5.205080
129.6045, 5.135911
130.0867, 6.208899
130.5688, 7.962585
131.0509, 8.685232
131.5330, 7.949357
132.0151, 6.745556
132.4972, 6.926355
132.9794, 8.494280
133.4615, 10.11712
133.9436, 10.88350
134.4257, 10.84767
134.9078, 10.57959
135.3899, 9.967992
135.8721, 9.313644
136.3542, 9.448107
136.8363, 10.41299
137.3184, 11.99066
137.8005, 14.25308
138.2826, 17.38170
138.7648, 19.96432
139.2469, 21.60936
139.7290, 22.47293
140.2111, 23.48242
140.6932, 24.46030
141.1753, 25.92944
141.6575, 28.45862
142.1396, 32.39277
142.6217, 36.56256
143.1038, 40.94081
143.5859, 45.62178
144.0681, 49.27375
144.5502, 51.67659
145.0323, 53.27796
145.5144, 54.50831
145.9965, 54.68891
146.4786, 55.55294
146.9608, 57.69393
147.4429, 61.57131
147.9250, 64.85035
148.4071, 66.82065
148.8892, 68.46372
149.3713, 71.19277
149.8535, 75.97200
150.3356, 80.92508
150.8177, 85.51937
151.2998, 89.38610
151.7819, 93.68127
152.2640, 98.31016
152.7462, 103.3931
153.2283, 109.0597
153.7104, 116.1818
154.1925, 123.1917
154.6746, 129.4593
155.1567, 134.3195
155.6389, 139.3704
156.1210, 145.0002
156.6031, 150.9884
157.0852, 156.8491
157.5673, 163.5128
158.0495, 169.2844
158.5316, 173.3079
159.0137, 174.4273
159.4958, 175.1660
159.9779, 176.4925
160.4600, 178.0396
160.9422, 178.6075
161.4243, 177.0233
161.9064, 174.7666
162.3885, 172.8321
162.8706, 171.5780
163.3527, 170.5128
163.8349, 169.6027
164.3170, 168.7715
164.7991, 167.6558
165.2812, 165.5492
165.7633, 163.3116
166.2454, 161.7205
166.7276, 161.1939
167.2097, 161.2170
167.6918, 161.4922
168.1739, 162.0352
168.6560, 162.9903
169.1381, 165.0454
169.6203, 167.3304
170.1024, 167.7602
170.5845, 165.7153
171.0666, 163.5454
171.5487, 162.7077
172.0309, 163.1249
172.5130, 163.9852
172.9951, 165.2399
173.4772, 166.4960
173.9593, 167.1337
174.4414, 165.9685
174.9236, 164.5704
175.4057, 164.9075
175.8878, 166.9920
176.3699, 169.2619
176.8520, 170.5585
177.3341, 171.0892
177.8163, 171.2963
178.2984, 170.7556
178.7805, 170.2036
179.2626, 171.0464
179.7447, 173.3907
180.2268, 175.8703
180.7090, 176.6158
181.1911, 176.2371
181.6732, 176.6242
182.1553, 179.4416
182.6374, 183.5075
183.1195, 185.9596
183.6017, 186.5249
184.0838, 186.8643
184.5659, 189.2996
185.0480, 193.4080
185.5301, 197.1792
186.0123, 199.2489
186.4944, 200.1849
186.9765, 201.6989
187.4586, 203.9137
187.9407, 206.5078
188.4228, 209.1269
188.9050, 211.7551
189.3871, 214.3810
189.8692, 216.9216
190.3513, 219.4028
190.8334, 222.0304
191.3155, 224.7949
191.7977, 227.7144
192.2798, 231.1418
192.7619, 235.0805
193.2440, 238.3266
193.7261, 239.6828
194.2082, 239.3952
194.6904, 240.6574
195.1725, 244.0479
195.6546, 248.2339
196.1367, 250.4796
196.6188, 250.6763
197.1009, 250.6497
197.5831, 251.2241
198.0652, 252.4003
198.5473, 254.3230
199.0294, 257.4087
199.5115, 260.6645
199.9937, 261.7367
200.4758, 260.2990
200.9579, 258.7078
201.4400, 258.1646
201.9221, 258.7006
202.4042, 259.9987
202.8864, 262.5707
203.3685, 265.3633
203.8506, 265.5526
204.3327, 262.5914
204.8148, 259.2630
205.2969, 257.2247
205.7791, 256.7373
206.2612, 255.5486
206.7433, 253.2649
207.2254, 250.4092
207.7075, 248.4457
208.1896, 247.6947
208.6718, 246.8893
209.1539, 245.2872
209.6360, 242.7670
210.1181, 240.1624
210.6002, 237.5128
211.0823, 234.8149
211.5645, 232.0914
212.0466, 229.4083
212.5287, 226.5278
213.0108, 223.2577
213.4929, 219.4341
213.9750, 215.8327
214.4572, 212.5965
214.9393, 209.5767
215.4214, 206.2063
215.9035, 202.3461
216.3856, 198.3807
216.8678, 194.5387
217.3499, 190.6898
217.8320, 187.2718
218.3141, 184.6122
218.7962, 182.3235
219.2783, 179.0710
219.7605, 174.2777
220.2426, 169.6109
220.7247, 166.0916
221.2068, 164.2359
221.6889, 162.0719
222.1710, 159.4917
222.6532, 156.5639
223.1353, 153.5807
223.6174, 150.4986
224.0995, 147.3851
224.5816, 144.2086
225.0637, 140.6898
225.5459, 137.7872
226.0280, 135.8027
226.5101, 134.3843
226.9922, 132.4617
227.4743, 129.5908
227.9564, 126.8877
228.4386, 124.9116
228.9207, 124.0640
229.4028, 123.0664
229.8849, 121.9389
230.3670, 120.6363
230.8492, 118.8782
231.3313, 116.1060
231.8134, 113.7469
232.2955, 112.5576
232.7776, 113.3326
233.2597, 113.4511
233.7419, 112.6227
234.2240, 111.2055
234.7061, 110.1800
235.1882, 109.8215
235.6703, 109.4419
236.1524, 108.6846
236.6346, 107.1836
237.1167, 106.1516
237.5988, 105.6275
238.0809, 105.5471
238.5630, 105.8157
239.0451, 106.6893
239.5273, 107.5232
240.0094, 108.0770
240.4915, 108.3507
240.9736, 108.3109
241.4557, 107.7954
241.9378, 107.0352
242.4200, 106.5006
242.9021, 106.1984
243.3842, 106.1016
243.8663, 106.2330
244.3484, 106.6921
244.8306, 107.0841
245.3127, 107.4050
245.7948, 107.6582
246.2769, 107.8339
246.7590, 107.8651
247.2411, 107.9357
247.7233, 108.1863
248.2054, 108.8011
248.6875, 108.8371
249.1696, 107.8399
249.6517, 106.5696
250.1338, 106.3884
250.6160, 108.0741
251.0981, 109.4407
251.5802, 109.6094
252.0623, 108.1874
252.5444, 107.6706
253.0265, 108.5112
253.5087, 109.8902
253.9908, 110.6761
254.4729, 110.8396
254.9550, 110.4525
255.4371, 109.1472
255.9192, 106.6124
256.4014, 105.9908
256.8835, 108.4542
257.3656, 111.6697
257.8477, 112.6688
258.3298, 110.3484
258.8120, 108.2913
259.2941, 107.4855
259.7762, 108.0254
260.2583, 108.1189
260.7404, 107.5137
261.2225, 106.7730
261.7047, 106.6030
262.1868, 107.4096
262.6689, 107.6737
263.1510, 106.7887
263.6331, 104.8155
264.1152, 103.8515
264.5974, 104.1961
265.0795, 105.1011
265.5616, 105.9590
266.0437, 106.9154
266.5258, 107.3494
267.0079, 106.9248
267.4901, 105.7958
267.9722, 105.4522
268.4543, 106.1914
268.9364, 107.1196
269.4185, 107.4702
269.9006, 107.0943
270.3828, 106.7936
270.8649, 106.6857
271.3470, 106.7432
271.8291, 106.8016
272.3112, 106.7956
272.7933, 106.9582
273.2755, 107.4827
273.7576, 108.4037
274.2397, 109.4373
274.7218, 110.6042
275.2039, 111.8214
275.6860, 112.8815
276.1682, 113.8305
276.6503, 114.4868
277.1324, 114.4993
277.6145, 113.7689
278.0966, 113.7465
278.5787, 114.6009
279.0609, 116.1511
279.5430, 118.2305
280.0251, 120.9488
280.5072, 123.4785
280.9893, 125.1239
281.4715, 125.8807
281.9536, 127.4934
282.4357, 130.2794
282.9178, 133.4682
283.3999, 135.6030
283.8820, 136.6190
284.3642, 137.7246
284.8463, 139.6817
285.3284, 142.3840
285.8105, 144.3659
286.2926, 145.4416
286.7747, 146.3897
287.2569, 148.4605
287.7390, 151.6045
288.2211, 154.5599
288.7032, 156.6928
289.1853, 158.1972
289.6674, 159.9210
290.1496, 161.8655
290.6317, 164.0675
291.1138, 166.9621
291.5959, 170.3744
292.0780, 172.9643
292.5602, 174.0688
293.0423, 174.1679
293.5244, 174.4895
294.0065, 175.0493
294.4886, 175.4623
294.9707, 175.5621
295.4529, 175.2668
295.9350, 174.2041
296.4171, 171.8893
296.8992, 169.1140
297.3813, 167.4465
297.8634, 166.8037
298.3456, 166.1702
298.8277, 164.9445
299.3098, 163.1626
299.7919, 160.7723
300.2740, 157.4976
300.7561, 154.1145
301.2383, 151.9566
301.7204, 150.7476
302.2025, 149.3752
302.6846, 146.7497
303.1667, 143.6156
303.6488, 141.0991
304.1310, 139.5167
304.6131, 138.1855
305.0952, 136.6625
305.5773, 134.9000
306.0594, 132.7784
306.5415, 129.7934
307.0237, 126.6229
307.5058, 123.9955
307.9879, 122.0519
308.4700, 120.2612
308.9521, 117.9039
309.4343, 115.4447
309.9164, 113.6408
310.3985, 113.6179
310.8806, 113.8144
311.3627, 112.8867
311.8448, 110.7554
312.3270, 108.6407
312.8091, 107.0174
313.2912, 105.8991
313.7733, 105.3017
314.2554, 106.3346
314.7375, 106.9379
315.2197, 105.4290
315.7018, 102.1079
316.1839, 99.63494
316.6660, 99.85908
317.1481, 101.0984
317.6302, 101.9978
318.1124, 102.3298
318.5945, 102.1622
319.0766, 101.0644
319.5587, 99.37640
320.0408, 98.25939
320.5229, 98.80479
321.0051, 99.51072
321.4872, 99.44577
321.9693, 97.75892
322.4514, 96.63583
322.9335, 96.95856
323.4156, 98.10584
323.8978, 98.88039
324.3799, 98.95296
324.8620, 98.72782
325.3441, 98.21764
325.8262, 97.17303
326.3083, 96.65297
326.7905, 97.32526
327.2726, 98.37630
327.7547, 98.79715
328.2368, 98.01585
328.7189, 97.16727
329.2010, 96.45425
329.6832, 95.89935
330.1653, 95.29321
330.6474, 94.51479
331.1295, 93.77325
331.6116, 93.23294
332.0938, 92.97349
332.5759, 92.79183
333.0580, 92.69991
333.5401, 92.67948
334.0222, 92.56647
334.5043, 92.15653
334.9865, 91.93252
335.4686, 92.22701
335.9507, 93.26037
336.4328, 94.22708
336.9149, 95.10650
337.3970, 95.89491
337.8792, 96.55031
338.3613, 97.07022
338.8434, 97.49264
339.3255, 97.76164
339.8076, 97.81896
340.2898, 98.26536
340.7719, 99.26514
341.2540, 100.3812
341.7361, 100.8837
342.2182, 100.6867
342.7003, 100.6207
343.1825, 100.9904
343.6646, 101.7456
344.1467, 102.5263
344.6288, 103.3306
345.1109, 104.2018
345.5930, 105.2084
346.0752, 106.3325
346.5573, 107.5537
347.0394, 108.9913
347.5215, 110.4227
348.0036, 111.3894
348.4857, 111.8888
348.9679, 112.0844
349.4500, 111.7349
349.9321, 111.1545
350.4142, 111.3551
350.8963, 112.6813
351.3784, 114.3367
351.8606, 115.2649
352.3427, 115.6109
352.8248, 115.9276
353.3069, 116.2940
353.7890, 116.9000
354.2711, 118.2826
354.7533, 120.5985
355.2354, 122.5898
355.7175, 122.8489
356.1996, 122.0611
356.6817, 121.4214
357.1638, 121.3048
357.6460, 121.6177
358.1281, 122.5870
358.6102, 124.1271
359.0923, 125.2855
359.5744, 125.1690
360.0565, 124.5528
360.5387, 124.2172
361.0208, 124.8713
361.5029, 125.2265
361.9850, 124.3260
362.4671, 122.5995
362.9492, 121.3813
363.4314, 121.5400
363.9135, 122.0368
364.3956, 122.3764
364.8777, 122.6289
365.3598, 122.3833
365.8419, 121.0952
366.3241, 119.3613
366.8062, 118.0841
367.2883, 118.0081
367.7704, 117.8033
368.2526, 116.9814
368.7347, 115.3475
369.2168, 114.1648
369.6989, 113.7580
370.1810, 113.6120
370.6631, 113.3141
371.1453, 112.9208
371.6274, 112.2785
372.1095, 111.2522
372.5916, 109.9145
373.0737, 108.7841
373.5558, 107.8927
374.0380, 107.1459
374.5201, 106.4854
375.0022, 105.9153
375.4843, 105.4467
375.9664, 105.1119
376.4485, 104.8514
376.9307, 104.5121
377.4128, 104.0555
377.8949, 103.7055
378.3770, 103.7032
378.8591, 104.0065
379.3412, 103.4937
379.8234, 101.9042
380.3055, 100.4307
380.7876, 100.6781
381.2697, 102.5485
381.7518, 104.2767
382.2339, 105.4414
382.7161, 106.1370
383.1982, 106.4648
383.6803, 106.4347
384.1624, 106.4061
384.6445, 106.4738
385.1266, 106.7499
385.6088, 107.6210
386.0909, 109.2813
386.5730, 111.1045
387.0551, 112.2334
387.5372, 112.8883
388.0193, 113.7239
388.5015, 115.4610
388.9836, 117.3390
389.4657, 118.2728
389.9478, 118.1655
390.4299, 118.4487
390.9120, 120.4675
391.3942, 123.3313
391.8763, 125.9130
392.3584, 127.4624
392.8405, 128.9840
393.3226, 131.1907
393.8047, 133.8869
394.2869, 136.1759
394.7690, 137.3346
395.2511, 138.2339
395.7332, 139.5031
396.2154, 141.7547
396.6975, 143.2961
397.1796, 143.2322
397.6617, 142.3305
398.1438, 141.9115
398.6259, 143.2265
399.1081, 143.9919
399.5902, 143.4285
400.0723, 141.3344
400.5544, 139.2823
401.0365, 137.1204
401.5186, 135.1030
402.0008, 133.5719
402.4829, 133.3349
402.9650, 131.9777
403.4471, 128.7951
403.9292, 124.2819
404.4113, 120.6911
404.8935, 118.4033
405.3756, 116.1125
405.8577, 112.8007
406.3398, 108.1553
406.8219, 105.1999
407.3040, 104.3168
407.7862, 104.4520
408.2683, 104.2129
408.7504, 103.5983
409.2325, 102.6989
409.7146, 101.4172
410.1967, 99.91245
410.6789, 98.73550
411.1610, 97.90589
411.6431, 96.91991
412.1252, 94.79009
412.6073, 92.12290
413.0894, 90.82793
413.5716, 91.64051
414.0537, 93.18776
414.5358, 94.16772
415.0179, 94.55599
415.5000, 94.30482
415.9821, 92.56503
416.4643, 90.61469
416.9464, 89.96203
417.4285, 90.79594
417.9106, 91.74522
418.3927, 91.82658
418.8748, 91.55119
419.3570, 91.52467
419.8391, 92.31377
420.3212, 93.04033
420.8033, 93.13610
421.2854, 92.78214
421.7675, 92.82938
422.2497, 94.04668
422.7318, 95.35587
423.2139, 96.18327
423.6960, 96.35088
424.1781, 96.28971
424.6602, 95.70423
425.1424, 95.00643
425.6245, 94.81314
426.1066, 95.51923
426.5887, 96.23867
427.0709, 96.86380
427.5530, 97.39405
428.0351, 97.48979
428.5172, 96.65723
428.9993, 96.06678
429.4814, 96.79926
429.9636, 99.43738
430.4457, 101.0689
430.9278, 101.1873
431.4099, 100.4387
431.8920, 100.2169
432.3741, 100.5748
432.8563, 101.0331
433.3384, 101.3392
433.8205, 101.5432
434.3026, 102.0796
434.7847, 103.0064
435.2668, 103.8264
435.7490, 103.7770
436.2311, 103.1436
436.7132, 102.9864
437.1953, 103.7702
437.6774, 104.8929
438.1595, 105.5117
438.6417, 105.7439
439.1238, 106.0743
439.6059, 106.9610
440.0880, 108.0107
440.5701, 108.7660
441.0522, 109.1390
441.5344, 109.5163
442.0165, 110.3170
442.4986, 111.2081
442.9807, 111.7766
443.4628, 111.3073
443.9449, 111.0566
444.4271, 111.6383
444.9092, 112.9235
445.3913, 114.1569
445.8734, 115.3608
446.3555, 116.2805
446.8376, 116.6867
447.3198, 115.9280
447.8019, 115.9405
448.2840, 117.3023
448.7661, 119.2202
449.2482, 120.5927
449.7303, 121.1454
450.2125, 121.5729
450.6946, 121.8554
451.1767, 122.0508
451.6588, 123.1074
452.1409, 125.4114
452.6230, 127.7003
453.1052, 128.9448
453.5873, 129.0625
454.0694, 129.3547
454.5515, 129.9024
455.0337, 130.6988
455.5158, 131.7834
455.9979, 133.1494
456.4800, 134.5582
456.9621, 135.9772
457.4442, 137.3615
457.9264, 138.5849
458.4085, 139.6485
458.8906, 140.7144
459.3727, 141.6943
459.8548, 142.8094
460.3369, 144.5088
460.8191, 147.2026
461.3012, 149.7991
461.7833, 151.2593
462.2654, 151.9856
462.7475, 152.8091
463.2296, 153.9656
463.7118, 155.4340
464.1939, 157.4540
464.6760, 160.0651
465.1581, 162.1263
465.6402, 162.5293
466.1223, 162.6883
466.6045, 163.5922
467.0866, 166.3021
467.5687, 168.5995
468.0508, 170.2179
468.5329, 171.3682
469.0150, 172.5361
469.4972, 173.7805
469.9793, 174.9240
470.4614, 175.8200
470.9435, 176.4390
471.4256, 177.4588
471.9077, 178.9997
472.3899, 180.7064
472.8720, 182.3843
473.3541, 184.0939
473.8362, 185.2012
474.3183, 185.4494
474.8004, 185.3427
475.2826, 185.9576
475.7647, 187.2405
476.2468, 188.4410
476.7289, 188.8920
477.2110, 189.0469
477.6931, 189.9378
478.1753, 191.5723
478.6574, 193.5181
479.1395, 195.8721
479.6216, 198.1831
480.1037, 199.6915
480.5858, 199.7973
481.0680, 199.8314
481.5501, 200.7596
482.0322, 202.2867
482.5143, 203.7913
482.9964, 204.6242
483.4786, 205.7331
483.9607, 207.7240
484.4428, 210.6821
484.9249, 213.5240
485.4070, 215.7407
485.8892, 217.9328
486.3713, 220.5363
486.8534, 223.8099
487.3355, 227.0669
487.8176, 230.1394
488.2997, 233.2274
488.7819, 236.9457
489.2640, 241.7722
489.7461, 246.1583
490.2282, 249.4474
490.7103, 251.7443
491.1924, 254.5293
491.6746, 257.9897
492.1567, 261.2285
492.6388, 263.4788
493.1209, 264.8002
493.6030, 265.5028
494.0851, 265.6378
494.5673, 265.1898
495.0494, 264.1767
495.5315, 262.5693
496.0136, 260.3073
496.4957, 257.7732
496.9778, 254.3197
497.4600, 248.5872
497.9421, 240.8150
498.4242, 233.1645
498.9063, 227.1663
499.3884, 221.6749
499.8705, 215.5586
500.3527, 208.4140
500.8348, 201.2230
501.3169, 194.2304
501.7990, 187.5605
502.2811, 181.3388
502.7632, 175.7751
503.2454, 170.5613
503.7275, 165.6703
504.2096, 161.0941
504.6917, 156.4583
505.1738, 151.4770
505.6559, 146.8983
506.1381, 143.2524
506.6202, 140.7918
507.1023, 138.2477
507.5844, 135.6058
508.0665, 132.9167
508.5486, 130.1896
509.0308, 127.4048
509.5129, 125.0574
509.9950, 123.4737
510.4771, 122.1825
510.9592, 119.8018
511.4413, 116.4949
511.9235, 113.7376
512.4056, 112.9667
512.8877, 113.1475
513.3698, 112.6908
513.8519, 111.4446
514.3340, 110.0799
514.8162, 108.8833
515.2983, 107.9244
515.7804, 107.3133
516.2625, 107.5347
516.7446, 107.5333
517.2267, 106.8615
517.7089, 105.6578
518.1910, 104.2603
518.6731, 102.1286
519.1552, 100.3878
519.6373, 99.69257
520.1194, 100.1903
520.6016, 100.0060
521.0837, 98.53451
521.5658, 97.05711
522.0479, 96.68111
522.5300, 97.96301
523.0121, 98.19393
523.4943, 96.80106
523.9764, 94.80648
524.4585, 94.26817
524.9406, 95.23550
525.4227, 95.77000
525.9048, 94.98306
526.3870, 93.38260
526.8691, 92.09622
527.3513, 91.12083
527.8334, 90.46733
528.3155, 90.58408
528.7976, 90.85727
529.2797, 90.24658
529.7618, 88.48449
530.2440, 86.70724
530.7261, 85.86373
531.2082, 85.44309
531.6903, 84.80764
532.1724, 83.26509
532.6545, 81.97971
533.1367, 81.56976
533.6188, 81.75855
534.1009, 81.53739
534.5830, 80.30313
535.0651, 79.07912
535.5472, 78.28551
536.0294, 78.02827
536.5115, 77.35523
536.9936, 76.06454
537.4757, 74.64120
537.9578, 73.42638
538.4399, 72.38240
538.9221, 71.79128
539.4042, 71.81389
539.8863, 72.05917
540.3684, 71.93814
540.8505, 71.44642
541.3326, 70.49568
541.8148, 68.62430
542.2969, 66.53310
542.7790, 65.69213
543.2611, 65.95020
543.7432, 66.06730
544.2253, 65.03045
544.7075, 63.51882
545.1896, 62.20631
545.6717, 61.19782
546.1538, 60.31647
546.6359, 59.58993
547.1180, 58.89530
547.6002, 58.11119
548.0823, 56.58681
548.5644, 55.68650
549.0465, 56.26404
549.5286, 57.66775
550.0107, 57.94224
550.4929, 56.10059
550.9750, 54.63083
551.4571, 54.54498
551.9392, 55.85364
552.4213, 56.23078
552.9034, 55.52222
553.3856, 54.38049
553.8677, 53.00209
554.3498, 51.47427
554.8319, 51.04684
555.3140, 52.04839
555.7961, 53.40871
556.2783, 53.95776
556.7604, 53.75267
557.2425, 52.86178
557.7246, 50.50126
558.2067, 48.31077
558.6888, 48.39395
559.1710, 50.11919
559.6531, 51.34859
560.1352, 50.50847
560.6173, 49.27423
561.0994, 48.62293
561.5815, 48.69330
562.0637, 48.82397
562.5458, 49.16578
563.0279, 49.33644
563.5100, 49.03365
563.9921, 47.68415
564.4742, 46.89896
564.9564, 46.95113
565.4385, 47.39499
565.9206, 47.42760
566.4027, 46.93054
566.8848, 46.63565
567.3669, 46.86115
567.8491, 47.38068
568.3312, 47.38930
568.8133, 46.90716
569.2954, 46.45459
569.7775, 46.37560
570.2596, 46.55395
570.7418, 46.82407
571.2239, 47.18213
571.7060, 47.51129
572.1881, 47.90440
572.6702, 48.14204
573.1523, 47.94377
573.6345, 46.99311
574.1166, 46.05036
574.5987, 45.23369
575.0808, 44.64701
575.5629, 44.45443
576.0450, 45.14376
576.5272, 45.72468
577.0093, 46.02932
577.4914, 46.07426
577.9735, 45.93996
578.4556, 45.54663
578.9377, 45.13917
579.4199, 44.74746
579.9020, 44.36995
580.3841, 44.54481
580.8662, 45.36396
581.3483, 46.23983
581.8304, 46.56430
582.3126, 46.44847
582.7947, 46.23941
583.2768, 45.95290
583.7589, 45.73772
584.2410, 45.93690
584.7231, 46.30849
585.2053, 46.37368
585.6874, 45.58963
586.1696, 44.75968
586.6517, 44.21766
587.1338, 43.96861
587.6159, 44.01255
588.0980, 44.50625
588.5801, 45.15285
589.0623, 45.95636
589.5444, 47.02412
590.0265, 47.49862
590.5086, 47.18485
590.9907, 46.52839
591.4728, 45.77642
591.9550, 44.87130
592.4371, 44.29266
592.9192, 44.09963
593.4013, 44.19764
593.8834, 44.61184
594.3655, 45.26807
594.8477, 45.68370
595.3298, 45.63350
595.8119, 45.35247
596.2940, 44.95333
596.7761, 44.54955
597.2582, 44.50892
597.7404, 45.44872
598.2225, 46.49534
598.7046, 47.10530
599.1867, 47.23805
599.6688, 47.01376
600.1509, 45.96708
600.6331, 44.93552
601.1152, 44.49482
601.5973, 45.00811
602.0794, 45.25962
602.5615, 45.07955
603.0436, 44.79826
603.5258, 44.84725
604.0079, 45.33010
604.4900, 45.56730
604.9721, 45.39405
605.4542, 45.00382
605.9363, 44.69973
606.4185, 44.49711
606.9006, 44.52369
607.3827, 45.23310
607.8648, 45.95968
608.3469, 45.38755
608.8290, 43.76635
609.3112, 42.53167
609.7933, 42.90332
610.2754, 43.71772
610.7575, 44.09085
611.2396, 43.86175
611.7217, 43.64084
612.2039, 43.63374
612.6860, 43.67381
613.1681, 43.62476
613.6502, 43.31359
614.1323, 43.23345
614.6144, 43.58116
615.0966, 43.99274
615.5787, 43.81354
616.0608, 42.88932
616.5429, 42.42080
617.0250, 42.85158
617.5071, 43.71265
617.9893, 43.92328
618.4714, 43.54419
618.9535, 43.05023
619.4356, 42.56691
619.9177, 42.17124
620.3998, 42.01994
620.8820, 42.08607
621.3641, 42.12276
621.8462, 41.86829
622.3283, 41.61642
622.8104, 41.58910
623.2925, 41.84886
623.7747, 42.18441
624.2568, 42.85992
624.7389, 43.40025
