##NAMES=Tugarinovite
##RRUFFID=R100218
##IDEAL CHEMISTRY=Mo^4+^O_2_
##LOCALITY=Mining concentrate
##OWNER=RRUFF
##SOURCE=Mike Carducci, Climax Molybdenum Technology Center 
##DESCRIPTION=Black unconsolidated powder, representing a mixture with a Mo-oxide.
##STATUS=The identification of this mineral has been confirmed by X-ray diffraction.
##URL=rruff.info/R100218
174.0116, 30.81311
174.4937, 31.68863
174.9758, 31.50403
175.4579, 31.41007
175.9401, 32.09696
176.4222, 33.03572
176.9043, 33.63664
177.3864, 33.73240
177.8685, 33.62284
178.3506, 33.67715
178.8328, 33.92903
179.3149, 34.23046
179.7970, 34.63569
180.2791, 35.01921
180.7612, 35.18616
181.2433, 35.01582
181.7255, 34.79431
182.2076, 35.28175
182.6897, 37.32056
183.1718, 38.46487
183.6539, 37.55415
184.1360, 35.92229
184.6181, 34.89293
185.1003, 35.10702
185.5824, 36.32686
186.0645, 37.75239
186.5466, 40.30088
187.0287, 41.86171
187.5108, 41.39274
187.9930, 40.00176
188.4751, 39.07358
188.9572, 39.39724
189.4393, 40.75630
189.9214, 41.96663
190.4035, 43.76550
190.8857, 44.60025
191.3678, 43.45726
191.8499, 41.19527
192.3320, 39.28432
192.8141, 38.63356
193.2962, 39.06296
193.7784, 39.19041
194.2605, 38.57640
194.7426, 38.19510
195.2247, 38.64029
195.7068, 39.63699
196.1889, 40.38032
196.6711, 40.34373
197.1532, 39.65403
197.6353, 39.10624
198.1174, 38.68949
198.5995, 38.40150
199.0816, 38.31132
199.5638, 38.38745
200.0459, 38.46431
200.5280, 38.62875
201.0101, 38.62048
201.4922, 37.84102
201.9743, 35.57103
202.4565, 33.22281
202.9386, 32.17102
203.4207, 32.45067
203.9028, 32.66053
204.3849, 31.79122
204.8670, 30.47717
205.3492, 29.60908
205.8313, 29.35366
206.3134, 29.59107
206.7955, 30.40008
207.2776, 31.98170
207.7597, 33.19386
208.2419, 33.17454
208.7240, 32.64332
209.2061, 32.23215
209.6882, 32.14105
210.1703, 32.25681
210.6524, 32.34721
211.1346, 32.29100
211.6167, 32.54131
212.0988, 33.97608
212.5809, 35.44726
213.0630, 35.58514
213.5451, 33.67594
214.0273, 30.84705
214.5094, 29.79187
214.9915, 31.80930
215.4736, 33.30281
215.9557, 33.34298
216.4378, 32.70278
216.9200, 32.03026
217.4021, 31.59971
217.8842, 31.47773
218.3663, 31.90375
218.8484, 33.48302
219.3305, 34.75093
219.8127, 35.74353
220.2948, 36.29502
220.7769, 36.10643
221.2590, 35.04058
221.7411, 33.43612
222.2232, 32.28308
222.7054, 31.48902
223.1875, 31.36977
223.6696, 32.88118
224.1517, 34.74583
224.6338, 35.47319
225.1159, 34.40139
225.5980, 31.98768
226.0802, 29.52846
226.5623, 25.48898
227.0444, 23.29990
227.5265, 24.56437
228.0086, 27.44398
228.4907, 29.57457
228.9729, 29.94408
229.4550, 29.22682
229.9371, 29.16369
230.4192, 30.49986
230.9013, 31.29447
231.3834, 31.01308
231.8656, 30.06217
232.3477, 28.94043
232.8298, 27.78988
233.3119, 26.74404
233.7940, 26.17852
234.2761, 26.30274
234.7583, 26.27819
235.2404, 25.39871
235.7225, 24.30853
236.2046, 24.37457
236.6867, 26.33658
237.1688, 28.88221
237.6510, 29.51554
238.1331, 28.01985
238.6152, 26.66281
239.0973, 26.21043
239.5794, 26.42844
240.0615, 26.90589
240.5437, 27.66102
241.0258, 28.38268
241.5079, 28.58276
241.9900, 28.27367
242.4721, 28.01042
242.9542, 28.08799
243.4364, 28.38675
243.9185, 28.68874
244.4006, 29.13853
244.8827, 29.20813
245.3648, 28.13855
245.8469, 26.09253
246.3290, 24.24104
246.8112, 22.99938
247.2933, 22.37879
247.7754, 22.54931
248.2575, 24.01071
248.7396, 25.46818
249.2217, 25.80140
249.7039, 25.27777
250.1860, 24.77058
250.6681, 24.93539
251.1502, 25.52386
251.6323, 25.54495
252.1144, 24.61819
252.5966, 23.66780
253.0787, 23.24896
253.5608, 23.21894
254.0429, 23.24811
254.5250, 22.99384
255.0071, 22.64525
255.4893, 23.11699
255.9714, 25.31379
256.4535, 26.82717
256.9356, 26.09322
257.4177, 24.14695
257.8998, 22.70297
258.3820, 22.86584
258.8641, 24.13093
259.3462, 24.65580
259.8283, 23.84230
260.3104, 23.26365
260.7925, 23.62061
261.2747, 24.42669
261.7568, 25.02533
262.2389, 25.06121
262.7210, 24.74868
263.2031, 24.80937
263.6852, 25.89690
264.1674, 26.17651
264.6495, 24.50462
265.1316, 22.23218
265.6137, 20.80520
266.0958, 20.85818
266.5779, 21.93318
267.0601, 23.00846
267.5422, 24.16156
268.0243, 25.15261
268.5064, 26.05406
268.9885, 26.75878
269.4706, 27.12270
269.9528, 27.10311
270.4349, 26.84702
270.9170, 26.63361
271.3991, 26.53100
271.8812, 26.33344
272.3633, 25.88957
272.8455, 25.44839
273.3276, 25.21914
273.8097, 25.24316
274.2918, 25.39367
274.7739, 25.47684
275.2560, 25.43141
275.7382, 25.45081
276.2202, 25.47221
276.7024, 25.58771
277.1845, 25.90189
277.6666, 26.40327
278.1487, 26.96457
278.6308, 27.46744
279.1129, 28.00031
279.5951, 28.13235
280.0772, 27.66636
280.5593, 27.05017
281.0414, 26.52143
281.5235, 26.07689
282.0056, 25.54984
282.4878, 24.74036
282.9699, 23.55137
283.4520, 22.77525
283.9341, 22.59494
284.4162, 22.57645
284.8983, 22.67023
285.3805, 22.79342
285.8626, 22.78104
286.3447, 22.47392
286.8268, 21.88263
287.3089, 21.60215
287.7910, 21.68237
288.2732, 21.98621
288.7553, 22.78292
289.2374, 23.76164
289.7195, 24.32563
290.2016, 24.08616
290.6837, 23.20653
291.1659, 22.58292
291.6480, 22.29446
292.1301, 22.17064
292.6122, 22.18771
293.0943, 22.35416
293.5764, 22.78798
294.0586, 23.56151
294.5407, 24.42239
295.0228, 24.68666
295.5049, 23.78816
295.9870, 22.94905
296.4691, 22.04297
296.9513, 21.28892
297.4334, 20.92831
297.9155, 21.03861
298.3976, 21.52403
298.8797, 22.26810
299.3618, 23.71450
299.8440, 24.52989
300.3261, 24.21707
300.8082, 23.59487
301.2903, 23.51493
301.7724, 24.05547
302.2545, 24.36098
302.7367, 23.25210
303.2188, 19.98288
303.7009, 18.37057
304.1830, 19.39208
304.6651, 21.09253
305.1472, 22.37188
305.6294, 23.15351
306.1115, 23.93031
306.5936, 25.25891
307.0757, 27.22840
307.5578, 27.59406
308.0399, 24.79985
308.5221, 22.24389
309.0042, 21.58389
309.4863, 22.40301
309.9684, 23.46555
310.4505, 24.02116
310.9326, 24.11857
311.4148, 24.05566
311.8969, 23.70368
312.3790, 23.36699
312.8611, 23.11306
313.3432, 22.92273
313.8253, 22.76385
314.3075, 22.62422
314.7896, 22.49677
315.2717, 22.35074
315.7538, 21.73479
316.2359, 21.76361
316.7180, 23.50687
317.2001, 25.50958
317.6823, 25.84937
318.1644, 24.02270
318.6465, 21.54719
319.1286, 20.71648
319.6107, 22.44752
320.0928, 23.79284
320.5750, 24.75129
321.0571, 25.34648
321.5392, 25.30507
322.0213, 24.74124
322.5034, 24.46699
322.9855, 25.46800
323.4677, 28.11765
323.9498, 29.11182
324.4319, 27.01350
324.9140, 24.86348
325.3961, 24.28629
325.8782, 25.01038
326.3604, 25.82833
326.8425, 25.87599
327.3246, 25.25344
327.8067, 25.11014
328.2888, 25.47262
328.7709, 26.20131
329.2531, 27.60903
329.7352, 29.30066
330.2173, 30.62811
330.6994, 31.27368
331.1815, 31.46498
331.6636, 31.81900
332.1458, 32.76651
332.6279, 33.33384
333.1100, 33.36442
333.5921, 33.06347
334.0742, 32.53383
334.5563, 31.83474
335.0385, 31.13579
335.5206, 30.70071
336.0027, 30.67246
336.4848, 30.55080
336.9669, 29.65171
337.4490, 29.19149
337.9312, 30.18920
338.4133, 32.53428
338.8954, 35.30187
339.3775, 37.73387
339.8596, 39.88539
340.3417, 41.01566
340.8239, 40.53887
341.3060, 39.80503
341.7881, 38.81784
342.2702, 37.95358
342.7523, 37.98358
343.2344, 39.46576
343.7166, 41.99483
344.1987, 43.58158
344.6808, 43.27684
345.1629, 43.03713
345.6450, 43.19996
346.1271, 43.44372
346.6093, 43.31382
347.0914, 42.66249
347.5735, 41.82562
348.0556, 41.51189
348.5377, 42.43889
349.0198, 42.55324
349.5020, 40.69170
349.9841, 38.98484
350.4662, 39.42753
350.9483, 41.88640
351.4304, 44.28507
351.9125, 44.17432
352.3947, 40.99327
352.8768, 39.06167
353.3589, 39.40646
353.8410, 39.96742
354.3231, 40.38803
354.8052, 40.45936
355.2874, 39.87235
355.7695, 38.32582
356.2516, 36.04121
356.7337, 34.24535
357.2158, 33.13664
357.6979, 32.30672
358.1800, 31.95629
358.6621, 31.70616
359.1443, 31.05114
359.6264, 29.79764
360.1085, 28.39287
360.5906, 27.73314
361.0727, 28.27162
361.5548, 28.36540
362.0370, 27.72053
362.5191, 26.71527
363.0012, 25.34131
363.4833, 23.71479
363.9654, 22.30583
364.4475, 21.69208
364.9297, 21.93304
365.4118, 21.95852
365.8939, 21.49976
366.3760, 21.11567
366.8581, 20.99456
367.3402, 21.11351
367.8224, 21.44479
368.3045, 22.08697
368.7866, 22.83474
369.2687, 23.03607
369.7508, 22.48201
370.2329, 21.82563
370.7151, 21.02699
371.1972, 20.36410
371.6793, 20.19096
372.1614, 20.65177
372.6435, 21.31304
373.1256, 21.73703
373.6078, 21.93282
374.0899, 21.74237
374.5720, 20.76649
375.0541, 19.70588
375.5362, 19.08864
376.0183, 18.89779
376.5005, 18.80302
376.9826, 18.46150
377.4647, 18.02277
377.9468, 18.16580
378.4289, 19.27251
378.9110, 20.19756
379.3932, 20.06443
379.8753, 19.22387
380.3574, 18.24114
380.8395, 16.98827
381.3216, 15.94895
381.8037, 16.02225
382.2859, 17.24031
382.7680, 17.90980
383.2501, 16.51991
383.7322, 14.70700
384.2143, 15.26855
384.6964, 19.00750
385.1786, 22.44248
385.6607, 23.52109
386.1428, 22.75891
386.6249, 21.25537
387.1070, 18.95600
387.5891, 16.84592
388.0713, 16.28136
388.5534, 17.10710
389.0355, 18.05031
389.5176, 19.03236
389.9997, 19.90657
390.4818, 20.53155
390.9640, 20.90261
391.4461, 21.07953
391.9282, 21.13008
392.4103, 20.99946
392.8924, 20.50066
393.3745, 19.01480
393.8567, 17.86604
394.3388, 17.99762
394.8209, 18.78646
395.3030, 18.88129
395.7851, 17.70499
396.2672, 16.09661
396.7494, 15.59496
397.2315, 16.89411
397.7136, 17.66297
398.1957, 17.33499
398.6778, 16.75925
399.1599, 16.68381
399.6420, 17.14301
400.1241, 17.68744
400.6063, 17.95590
401.0884, 17.95203
401.5705, 17.53207
402.0526, 15.99746
402.5347, 14.87492
403.0168, 14.83678
403.4990, 15.47850
403.9811, 16.20656
404.4632, 16.74083
404.9453, 17.03803
405.4274, 16.91678
405.9095, 15.61831
406.3917, 15.23104
406.8738, 16.39129
407.3559, 17.96144
407.8380, 19.39503
408.3201, 20.47284
408.8022, 20.95932
409.2844, 20.48045
409.7665, 18.95312
410.2486, 17.80920
410.7307, 17.13766
411.2128, 16.80136
411.6949, 17.00286
412.1771, 17.46025
412.6592, 17.71454
413.1413, 17.50760
413.6234, 17.08520
414.1055, 16.97285
414.5876, 17.23207
415.0698, 17.61761
415.5519, 18.60173
416.0340, 19.33196
416.5161, 18.84158
416.9982, 17.12970
417.4803, 15.69069
417.9625, 16.30979
418.4446, 18.56003
418.9267, 19.28128
419.4088, 17.33999
419.8909, 15.52558
420.3730, 15.96071
420.8552, 17.79037
421.3373, 19.35079
421.8194, 20.15154
422.3015, 20.37738
422.7836, 19.94101
423.2657, 18.85790
423.7479, 18.36006
424.2300, 19.46354
424.7121, 20.92999
425.1942, 20.70121
425.6763, 18.43555
426.1584, 16.31050
426.6406, 15.07568
427.1227, 14.63554
427.6048, 15.11040
428.0869, 16.59549
428.5690, 18.02394
429.0511, 18.38749
429.5333, 17.64784
430.0154, 16.97954
430.4975, 16.10931
430.9796, 15.57146
431.4617, 16.03085
431.9438, 17.08173
432.4260, 17.63830
432.9081, 17.14791
433.3902, 16.02520
433.8723, 15.22866
434.3544, 14.74463
434.8365, 14.65574
435.3187, 15.15092
435.8008, 15.91900
436.2829, 16.83933
436.7650, 17.81728
437.2471, 18.60838
437.7292, 18.93696
438.2114, 18.78480
438.6935, 18.95019
439.1756, 20.06937
439.6577, 20.79832
440.1398, 20.66098
440.6219, 20.00423
441.1040, 19.19347
441.5862, 18.38863
442.0683, 17.77095
442.5504, 17.76706
443.0325, 18.65840
443.5146, 19.29889
443.9967, 19.42509
444.4789, 19.41436
444.9610, 19.40485
445.4431, 19.42163
445.9252, 19.48391
446.4073, 19.72363
446.8894, 20.00269
447.3716, 19.60400
447.8537, 18.02048
448.3358, 17.03389
448.8179, 17.97540
449.3000, 19.68843
449.7821, 21.08598
450.2643, 22.00535
450.7464, 22.31454
451.2285, 21.32984
451.7106, 19.44113
452.1927, 18.81810
452.6748, 20.32577
453.1570, 22.28881
453.6391, 22.96460
454.1212, 22.60972
454.6033, 22.23218
455.0854, 22.04128
455.5675, 21.94092
456.0497, 21.78749
456.5318, 21.61733
457.0139, 21.72842
457.4960, 22.41614
457.9781, 23.30661
458.4602, 23.32587
458.9424, 22.21902
459.4245, 20.96251
459.9066, 19.05715
460.3887, 17.45934
460.8708, 17.59532
461.3529, 19.44880
461.8351, 21.28139
462.3172, 21.39349
462.7993, 19.71375
463.2814, 18.50742
463.7635, 17.87426
464.2456, 17.56075
464.7278, 17.95764
465.2099, 18.48376
465.6920, 18.13783
466.1741, 16.56802
466.6562, 14.74880
467.1383, 14.51929
467.6205, 16.69157
468.1026, 17.91481
468.5847, 16.60205
469.0668, 15.65236
469.5489, 17.05331
470.0310, 19.98574
470.5132, 22.07750
470.9953, 21.76175
471.4774, 19.74735
471.9595, 17.59239
472.4416, 15.04737
472.9237, 13.29775
473.4059, 13.10181
473.8880, 13.74391
474.3701, 14.67244
474.8522, 15.82722
475.3343, 17.22254
475.8164, 19.56695
476.2986, 22.08645
476.7807, 22.46670
477.2628, 20.06643
477.7449, 17.61197
478.2270, 17.30277
478.7091, 18.68100
479.1913, 19.61523
479.6734, 19.54818
480.1555, 19.51958
480.6376, 20.21825
481.1197, 21.32659
481.6018, 22.18796
482.0839, 22.58796
482.5660, 22.71001
483.0482, 22.82956
483.5303, 23.03898
484.0124, 22.82847
484.4945, 21.84445
484.9766, 20.80127
485.4587, 19.92948
485.9409, 19.31219
486.4230, 19.08445
486.9051, 19.33864
487.3872, 19.91265
487.8693, 20.34092
488.3514, 20.58454
488.8336, 20.75134
489.3157, 21.22768
489.7978, 21.35176
490.2799, 20.32393
490.7620, 18.38083
491.2441, 16.70592
491.7263, 16.40505
492.2084, 17.15236
492.6905, 17.30906
493.1726, 16.57758
493.6547, 15.97198
494.1368, 16.02236
494.6190, 16.35628
495.1011, 16.68806
495.5832, 16.99838
496.0653, 17.06719
496.5474, 16.59071
497.0295, 15.73471
497.5117, 14.96697
497.9938, 14.33081
498.4759, 13.88724
498.9580, 13.72370
499.4401, 13.81361
499.9222, 13.96846
500.4044, 14.35534
500.8865, 14.62195
501.3686, 14.52294
501.8507, 14.18160
502.3328, 13.80764
502.8149, 13.46711
503.2971, 13.24627
503.7792, 13.32615
504.2613, 13.94136
504.7434, 13.96310
505.2255, 12.36511
505.7076, 11.24752
506.1898, 12.00951
506.6719, 13.97946
507.1540, 15.72414
507.6361, 16.49392
508.1182, 16.61550
508.6003, 16.81977
509.0825, 17.15067
509.5646, 17.44710
510.0467, 17.83210
510.5288, 18.05962
511.0109, 17.80953
511.4930, 17.23810
511.9752, 16.92986
512.4573, 17.53298
512.9394, 18.46216
513.4215, 18.19944
513.9036, 16.53219
514.3857, 14.99764
514.8679, 14.09484
515.3500, 13.69987
515.8321, 13.62547
516.3142, 13.88082
516.7963, 14.33995
517.2784, 15.57444
517.7606, 16.69264
518.2427, 16.02594
518.7248, 13.54468
519.2069, 11.29826
519.6890, 10.63447
520.1711, 11.31231
520.6533, 12.18898
521.1354, 13.49647
521.6175, 14.66829
522.0996, 15.86167
522.5817, 16.73094
523.0638, 16.69408
523.5460, 15.79503
524.0281, 14.82152
524.5102, 14.56230
524.9923, 14.99136
525.4744, 15.14893
525.9565, 14.58185
526.4387, 14.34412
526.9208, 14.86438
527.4029, 15.68739
527.8850, 16.43913
528.3671, 17.00119
528.8492, 17.23423
529.3314, 16.80803
529.8135, 15.81407
530.2956, 15.17209
530.7777, 15.04611
531.2598, 15.04226
531.7419, 15.08082
532.2241, 15.04488
532.7062, 14.59865
533.1883, 13.22345
533.6704, 12.36843
534.1525, 13.79232
534.6346, 16.40104
535.1168, 17.35505
535.5989, 15.89723
536.0810, 14.00814
536.5631, 13.74703
537.0452, 15.21022
537.5273, 16.02431
538.0095, 15.54613
538.4916, 15.20081
538.9737, 15.52437
539.4558, 16.30918
539.9379, 17.41360
540.4200, 18.73148
540.9022, 19.77741
541.3843, 19.71286
541.8664, 18.20293
542.3485, 17.48532
542.8306, 18.37461
543.3127, 19.20761
543.7948, 19.76861
544.2769, 19.84950
544.7590, 18.82916
545.2411, 16.27722
545.7233, 14.01007
546.2054, 15.14510
546.6875, 19.34094
547.1696, 21.14600
547.6517, 18.66452
548.1339, 15.69938
548.6160, 15.88233
549.0981, 18.18537
549.5802, 19.79274
550.0623, 19.27567
550.5444, 18.89047
551.0266, 20.98964
551.5087, 24.24608
551.9908, 25.30511
552.4729, 23.09066
552.9550, 19.72238
553.4371, 17.69044
553.9193, 17.06228
554.4014, 17.50344
554.8835, 20.16250
555.3656, 22.46007
555.8477, 23.42132
556.3298, 23.45066
556.8120, 23.02368
557.2941, 22.35234
557.7762, 21.79806
558.2583, 22.17521
558.7404, 23.74860
559.2225, 23.92382
559.7047, 21.33034
560.1868, 19.03418
560.6689, 18.83403
561.1510, 19.76458
561.6331, 20.11824
562.1152, 19.19474
562.5974, 18.11784
563.0795, 17.88810
563.5616, 18.36472
564.0437, 19.24725
564.5258, 20.66055
565.0079, 21.58110
565.4901, 20.70373
565.9722, 18.17426
566.4543, 17.02427
566.9364, 18.41803
567.4185, 19.84553
567.9006, 20.38264
568.3828, 20.36141
568.8649, 20.15712
569.3470, 19.91745
569.8291, 19.82617
570.3112, 20.09758
570.7933, 20.74227
571.2755, 21.62903
571.7576, 24.01903
572.2397, 24.99172
572.7218, 22.32653
573.2039, 18.69470
573.6860, 17.36831
574.1682, 19.10756
574.6503, 21.42274
575.1324, 21.87144
575.6145, 20.87583
576.0966, 20.37581
576.5787, 20.62996
577.0609, 20.80784
577.5430, 20.20335
578.0251, 19.24100
578.5072, 18.97318
578.9893, 19.76812
579.4714, 20.47298
579.9536, 20.51790
580.4357, 20.30034
580.9178, 20.51319
581.3999, 21.11806
581.8820, 21.17677
582.3641, 19.84122
582.8463, 17.46398
583.3284, 16.11787
583.8105, 16.99750
584.2926, 17.18290
584.7747, 15.43623
585.2568, 13.71821
585.7390, 13.75980
586.2211, 15.41387
586.7032, 17.18183
587.1853, 18.03020
587.6674, 18.20513
588.1495, 18.44629
588.6317, 18.85982
589.1138, 18.57133
589.5959, 16.48808
590.0780, 14.36326
590.5601, 14.77699
591.0422, 17.67448
591.5244, 19.23894
592.0065, 17.21291
592.4886, 14.21709
592.9707, 12.26663
593.4528, 11.38975
593.9349, 11.39157
594.4171, 12.24106
594.8992, 13.54742
595.3813, 14.64356
595.8634, 15.46718
596.3455, 16.26050
596.8276, 17.53673
597.3098, 18.25603
597.7919, 17.68958
598.2740, 16.34301
598.7561, 14.93106
599.2382, 13.71782
599.7203, 12.99350
600.2025, 13.31458
600.6846, 14.65258
601.1667, 15.93081
601.6488, 17.11298
602.1309, 18.08087
602.6130, 18.90543
603.0952, 19.43068
603.5773, 19.19088
604.0594, 17.74012
604.5415, 16.25538
605.0236, 15.15082
605.5057, 14.46021
605.9879, 14.45055
606.4700, 15.07965
606.9521, 15.57848
607.4342, 15.23042
607.9163, 14.21611
608.3984, 13.92177
608.8806, 15.11114
609.3627, 15.99099
609.8448, 16.28868
610.3269, 16.32374
610.8090, 16.14871
611.2911, 15.91011
611.7733, 16.06247
612.2554, 17.22046
612.7375, 18.71146
613.2196, 18.69572
613.7017, 16.98037
614.1838, 15.87273
614.6660, 16.46250
615.1481, 17.45426
615.6302, 17.17582
616.1123, 15.73019
616.5944, 14.63236
617.0765, 14.36624
617.5587, 14.37599
618.0408, 14.32238
618.5229, 14.25438
619.0050, 14.16843
619.4871, 14.07882
619.9692, 14.49772
620.4514, 16.43323
620.9335, 20.41540
621.4156, 21.87841
621.8977, 17.81751
622.3798, 14.74535
622.8619, 15.40302
623.3441, 17.37962
623.8262, 17.66164
624.3083, 15.57585
624.7904, 13.33313
625.2725, 12.88082
625.7546, 13.70379
626.2367, 14.56311
626.7188, 15.44172
627.2009, 15.81821
627.6830, 15.23946
628.1652, 14.13450
628.6473, 13.46770
629.1294, 13.28884
629.6115, 13.27802
630.0936, 13.08713
630.5757, 13.30414
631.0579, 14.88266
631.5400, 17.22553
632.0221, 18.76745
632.5042, 18.69743
632.9863, 17.70135
633.4684, 16.95090
633.9506, 16.41345
634.4327, 16.31244
634.9148, 17.16619
635.3969, 17.81017
635.8790, 17.29016
636.3611, 16.29001
636.8433, 16.03446
637.3254, 16.96264
637.8075, 18.23793
638.2896, 19.72373
638.7717, 21.00062
639.2538, 21.00993
639.7360, 19.65048
640.2181, 18.18736
640.7002, 17.45856
641.1823, 17.37268
641.6644, 17.56296
642.1465, 18.86458
642.6287, 19.25538
643.1108, 17.82774
643.5929, 16.24715
644.0750, 15.72518
644.5571, 16.03661
645.0392, 16.15255
645.5214, 15.38972
646.0035, 14.52951
646.4856, 15.45014
646.9677, 18.13749
647.4498, 18.76660
647.9319, 15.72734
648.4141, 12.45549
648.8962, 11.83702
649.3783, 13.34941
649.8604, 15.10078
650.3425, 18.00699
650.8246, 19.68912
651.3068, 17.98310
651.7889, 15.17289
652.2710, 14.25240
652.7531, 15.44383
653.2352, 16.90063
653.7173, 17.18850
654.1995, 16.57583
654.6816, 16.16053
655.1637, 15.95751
655.6458, 15.92032
656.1279, 16.48937
656.6100, 16.84080
657.0922, 16.15956
657.5743, 14.79961
658.0564, 14.01232
658.5385, 14.50781
659.0206, 15.43402
659.5027, 16.27380
659.9849, 16.88684
660.4670, 16.72348
660.9491, 15.63488
661.4312, 14.38528
661.9133, 13.56846
662.3954, 13.20470
662.8776, 13.58495
663.3597, 15.57648
663.8418, 17.18140
664.3239, 18.06287
664.8060, 18.60373
665.2881, 19.03577
665.7703, 19.42517
666.2524, 19.87701
666.7345, 20.64940
667.2166, 21.23279
667.6987, 20.25365
668.1808, 17.77947
668.6630, 16.47039
669.1451, 17.25212
669.6272, 18.65098
670.1093, 19.38912
670.5914, 19.47720
671.0735, 19.33102
671.5557, 18.83512
