##NAMES=Tugtupite
##RRUFFID=R050562
##IDEAL CHEMISTRY=Na_4_BeAlSi_4_O_12_Cl
##LOCALITY=Kvanefjeld, Ilimaussag, Greenland
##OWNER=RRUFF
##SOURCE=Dave Bunk Minerals
##DESCRIPTION=Pink fragment
##STATUS=The identification of this mineral is confirmed by single-crystal X-ray diffraction and chemical analysis.
##URL=rruff.info/R050562
##MEASURED CHEMISTRY=Na_4.00_Be_1.00_Al_1.00_Si_4.00_O_12_Cl_1.00_; BeO estimated by difference; trace amounts of Fe
91.11523, 74.04363
91.59735, 74.53296
92.07947, 74.09303
92.56158, 73.01624
93.04370, 72.22381
93.52582, 72.76965
94.00793, 73.93755
94.49006, 73.99929
94.97218, 72.51060
95.45429, 70.48784
95.93641, 69.64355
96.41853, 69.94872
96.90064, 70.21123
97.38276, 69.37268
97.86488, 67.56441
98.34699, 66.15340
98.82911, 65.24840
99.31123, 64.94469
99.79334, 66.04156
100.2755, 69.00686
100.7576, 71.71635
101.2397, 71.92350
101.7218, 69.03213
102.2039, 66.50317
102.6861, 65.17827
103.1682, 65.03154
103.6503, 64.42445
104.1324, 62.89540
104.6145, 61.40874
105.0966, 61.16786
105.5788, 62.72341
106.0609, 64.60528
106.5430, 66.64451
107.0251, 69.22959
107.5072, 70.62009
107.9893, 70.35084
108.4715, 69.00646
108.9536, 67.60373
109.4357, 63.93950
109.9178, 62.18656
110.3999, 64.00037
110.8820, 73.17349
111.3642, 79.64216
111.8463, 81.54567
112.3284, 80.32896
112.8105, 80.04079
113.2926, 81.60875
113.7747, 83.94790
114.2569, 86.52103
114.7390, 89.98547
115.2211, 92.84702
115.7032, 94.42295
116.1853, 94.94601
116.6674, 95.59429
117.1496, 94.76352
117.6317, 95.15903
118.1138, 98.98625
118.5959, 110.5678
119.0780, 122.6322
119.5602, 131.3387
120.0423, 136.9092
120.5244, 142.6810
121.0065, 150.5078
121.4886, 159.6779
121.9707, 169.2943
122.4529, 178.4084
122.9350, 188.0561
123.4171, 199.0728
123.8992, 211.5173
124.3813, 225.0308
124.8634, 241.3013
125.3456, 258.5985
125.8277, 273.0488
126.3098, 280.9717
126.7919, 285.2641
127.2740, 289.9717
127.7561, 295.4644
128.2383, 301.1915
128.7204, 306.0974
129.2025, 310.4505
129.6846, 315.6604
130.1667, 323.4092
130.6488, 332.7152
131.1310, 340.8314
131.6131, 347.0454
132.0952, 352.6364
132.5773, 359.3892
133.0594, 367.3326
133.5415, 377.1176
134.0237, 389.8445
134.5058, 405.4152
134.9879, 421.1613
135.4700, 436.6990
135.9521, 452.2216
136.4343, 469.1832
136.9164, 488.0320
137.3985, 506.7099
137.8806, 524.3002
138.3627, 541.2027
138.8448, 554.8450
139.3270, 564.6497
139.8091, 570.8669
140.2912, 574.8350
140.7733, 575.0911
141.2554, 575.7385
141.7375, 581.3709
142.2197, 593.8159
142.7018, 606.5654
143.1839, 618.3112
143.6660, 628.9658
144.1481, 639.1580
144.6302, 648.1566
145.1124, 657.2379
145.5945, 667.7159
146.0766, 679.5117
146.5587, 693.0168
147.0408, 708.2801
147.5230, 725.1224
148.0051, 744.0153
148.4872, 762.3333
148.9693, 777.7491
149.4514, 792.8907
149.9335, 805.8674
150.4157, 820.6464
150.8978, 837.8383
151.3799, 857.3072
151.8620, 879.8961
152.3441, 903.8699
152.8262, 931.0578
153.3084, 964.5545
153.7905, 1008.510
154.2726, 1055.076
154.7547, 1101.788
155.2368, 1144.619
155.7189, 1192.590
156.2011, 1252.462
156.6832, 1318.858
157.1653, 1376.889
157.6474, 1432.863
158.1295, 1473.805
158.6116, 1493.081
159.0938, 1485.389
159.5759, 1462.654
160.0580, 1421.727
160.5401, 1366.744
161.0222, 1311.722
161.5044, 1259.354
161.9865, 1209.558
162.4686, 1162.219
162.9507, 1116.109
163.4328, 1073.658
163.9149, 1034.973
164.3971, 999.8893
164.8792, 969.7285
165.3613, 946.5759
165.8434, 927.8185
166.3255, 910.9944
166.8076, 894.4195
167.2898, 880.5506
167.7719, 870.4980
168.2540, 864.1926
168.7361, 861.2867
169.2182, 863.1480
169.7003, 867.8065
170.1825, 872.9104
170.6646, 878.0565
171.1467, 883.0085
171.6288, 886.8406
172.1109, 889.6098
172.5931, 894.0383
173.0752, 902.2281
173.5573, 913.3171
174.0394, 925.9826
174.5215, 939.9769
175.0036, 955.0393
175.4858, 970.6094
175.9679, 986.8005
176.4500, 1003.691
176.9321, 1023.742
177.4142, 1044.929
177.8963, 1062.295
178.3785, 1074.399
178.8606, 1081.473
179.3427, 1083.953
179.8248, 1082.066
180.3069, 1074.693
180.7890, 1059.488
181.2712, 1037.627
181.7533, 1012.818
182.2354, 984.9888
182.7175, 955.6884
183.1996, 928.0026
183.6818, 901.2029
184.1639, 878.6308
184.6460, 864.4313
185.1281, 857.8052
185.6102, 853.9209
186.0923, 851.2980
186.5745, 849.6837
187.0566, 848.1959
187.5387, 846.6162
188.0208, 845.7797
188.5029, 846.2994
188.9850, 848.2634
189.4672, 852.6274
189.9493, 861.0153
190.4314, 872.5892
190.9135, 883.0483
191.3956, 891.6832
191.8777, 900.3420
192.3599, 912.5370
192.8420, 928.2358
193.3241, 944.7303
193.8062, 960.1208
194.2883, 974.7724
194.7704, 991.4198
195.2526, 1010.345
195.7347, 1030.988
196.2168, 1052.109
196.6989, 1073.578
197.1810, 1096.794
197.6632, 1121.385
198.1453, 1147.555
198.6274, 1179.334
199.1095, 1217.123
199.5916, 1260.473
200.0737, 1308.516
200.5559, 1361.877
201.0380, 1417.298
201.5201, 1476.946
202.0022, 1542.778
202.4843, 1594.774
202.9664, 1635.176
203.4486, 1658.004
203.9307, 1646.884
204.4128, 1598.508
204.8949, 1530.793
205.3770, 1447.759
205.8591, 1345.879
206.3413, 1253.587
206.8234, 1171.947
207.3055, 1100.932
207.7876, 1040.884
208.2697, 992.9424
208.7519, 953.7260
209.2340, 921.6953
209.7161, 897.2545
210.1982, 878.1573
210.6803, 865.2490
211.1624, 857.0450
211.6446, 849.5375
212.1267, 842.5662
212.6088, 836.8558
213.0909, 832.8146
213.5730, 830.6291
214.0551, 829.5251
214.5373, 829.7677
215.0194, 830.9636
215.5015, 832.0817
215.9836, 833.3079
216.4657, 834.1061
216.9478, 833.8735
217.4300, 831.7535
217.9121, 831.5334
218.3942, 834.2451
218.8763, 838.6232
219.3584, 840.7737
219.8405, 839.6150
220.3227, 838.1312
220.8048, 837.9592
221.2869, 839.8596
221.7690, 840.5873
222.2511, 838.7706
222.7333, 836.0732
223.2154, 837.7074
223.6975, 845.5793
224.1796, 854.6204
224.6617, 862.3553
225.1438, 868.0113
225.6260, 874.3875
226.1081, 881.4538
226.5902, 889.3245
227.0723, 898.2969
227.5544, 909.5707
228.0365, 920.2451
228.5187, 928.7973
229.0008, 934.0793
229.4829, 940.0501
229.9650, 947.1904
230.4471, 954.9407
230.9292, 961.6723
231.4114, 966.1569
231.8935, 971.5896
232.3756, 979.3536
232.8577, 990.3505
233.3398, 1001.662
233.8220, 1012.544
234.3041, 1023.986
234.7862, 1038.110
235.2683, 1055.075
235.7504, 1074.371
236.2325, 1095.875
236.7147, 1118.431
237.1968, 1145.369
237.6789, 1176.968
238.1610, 1212.877
238.6431, 1253.198
239.1252, 1303.904
239.6074, 1350.594
240.0895, 1386.992
240.5716, 1408.166
241.0537, 1433.023
241.5358, 1466.271
242.0179, 1500.952
242.5001, 1523.639
242.9822, 1533.118
243.4643, 1532.358
243.9464, 1519.812
244.4285, 1488.999
244.9106, 1467.663
245.3928, 1458.217
245.8749, 1456.549
246.3570, 1455.886
246.8391, 1456.638
247.3212, 1457.626
247.8034, 1458.459
248.2855, 1459.052
248.7676, 1460.082
249.2497, 1462.698
249.7318, 1464.964
250.2139, 1463.241
250.6961, 1453.825
251.1782, 1447.208
251.6603, 1446.195
252.1424, 1451.072
252.6245, 1460.159
253.1066, 1473.735
253.5888, 1491.334
254.0709, 1512.590
254.5530, 1537.540
255.0351, 1566.221
255.5172, 1598.541
255.9993, 1634.735
256.4815, 1673.440
256.9636, 1713.855
257.4457, 1757.105
257.9278, 1805.361
258.4099, 1860.704
258.8921, 1916.490
259.3742, 1971.155
259.8563, 2024.152
260.3384, 2081.429
260.8205, 2143.428
261.3026, 2208.311
261.7848, 2275.573
262.2669, 2345.612
262.7490, 2415.532
263.2311, 2484.846
263.7132, 2553.629
264.1953, 2618.443
264.6775, 2679.022
265.1596, 2735.276
265.6417, 2787.738
266.1238, 2837.351
266.6059, 2879.618
267.0880, 2913.930
267.5702, 2940.275
268.0523, 2956.386
268.5344, 2962.004
269.0165, 2958.178
269.4986, 2945.238
269.9807, 2922.267
270.4629, 2893.460
270.9450, 2859.044
271.4271, 2819.155
271.9092, 2775.592
272.3913, 2728.314
272.8734, 2677.452
273.3556, 2621.595
273.8377, 2559.519
274.3198, 2501.374
274.8019, 2448.734
275.2840, 2399.504
275.7661, 2347.308
276.2483, 2291.989
276.7304, 2234.870
277.2125, 2176.421
277.6946, 2115.945
278.1768, 2060.663
278.6589, 2011.403
279.1410, 1967.044
279.6231, 1924.880
280.1052, 1884.086
280.5873, 1848.470
281.0695, 1821.547
281.5516, 1803.083
282.0337, 1784.586
282.5158, 1764.890
282.9979, 1747.162
283.4800, 1736.271
283.9622, 1732.282
284.4443, 1733.402
284.9264, 1739.213
285.4085, 1749.558
285.8906, 1764.424
286.3727, 1784.464
286.8549, 1806.578
287.3370, 1827.962
287.8191, 1848.504
288.3012, 1866.393
288.7833, 1883.938
289.2654, 1898.127
289.7476, 1899.239
290.2297, 1887.562
290.7118, 1860.915
291.1939, 1813.257
291.6760, 1747.107
292.1581, 1674.089
292.6403, 1593.347
293.1224, 1510.683
293.6045, 1437.003
294.0866, 1372.936
294.5687, 1315.492
295.0508, 1261.814
295.5330, 1212.543
296.0151, 1171.290
296.4972, 1139.727
296.9793, 1114.727
297.4614, 1092.816
297.9435, 1073.665
298.4257, 1056.292
298.9078, 1040.293
299.3899, 1025.589
299.8720, 1012.220
300.3541, 999.6707
300.8362, 989.2469
301.3184, 983.7191
301.8005, 982.0837
302.2826, 980.4499
302.7647, 975.6088
303.2469, 969.5715
303.7290, 965.0769
304.2111, 962.5061
304.6932, 961.4847
305.1753, 961.9391
305.6574, 963.7123
306.1396, 966.4358
306.6217, 969.7199
307.1038, 973.9890
307.5859, 980.0356
308.0680, 988.1003
308.5501, 996.4092
309.0323, 1002.172
309.5144, 1007.525
309.9965, 1015.826
310.4786, 1031.778
310.9607, 1048.930
311.4428, 1062.550
311.9250, 1072.571
312.4071, 1081.603
312.8892, 1088.648
313.3713, 1096.230
313.8534, 1107.131
314.3355, 1126.661
314.8177, 1145.623
315.2998, 1158.271
315.7819, 1165.699
316.2640, 1174.111
316.7461, 1186.266
317.2282, 1200.358
317.7104, 1215.460
318.1925, 1233.887
318.6746, 1249.500
319.1567, 1260.204
319.6388, 1266.568
320.1209, 1269.790
320.6031, 1268.866
321.0852, 1265.927
321.5673, 1261.767
322.0494, 1255.668
322.5315, 1250.310
323.0136, 1244.792
323.4958, 1240.610
323.9779, 1240.193
324.4600, 1245.583
324.9421, 1253.375
325.4242, 1265.217
325.9064, 1284.734
326.3885, 1292.501
326.8706, 1285.763
327.3527, 1267.059
327.8348, 1239.063
328.3170, 1194.528
328.7991, 1148.229
329.2812, 1100.169
329.7633, 1049.850
330.2454, 1008.124
330.7275, 978.4949
331.2097, 955.0127
331.6918, 933.7486
332.1739, 914.5822
332.6560, 897.7141
333.1381, 883.8864
333.6202, 872.5715
334.1024, 861.7236
334.5845, 850.4766
335.0666, 841.1437
335.5487, 835.6086
336.0308, 836.1942
336.5129, 833.8116
336.9951, 827.0606
337.4772, 818.1131
337.9593, 811.2224
338.4414, 806.9600
338.9235, 803.1271
339.4056, 798.5616
339.8878, 793.1521
340.3699, 789.5157
340.8520, 788.1719
341.3341, 787.6137
341.8162, 785.3618
342.2983, 781.1398
342.7805, 778.3965
343.2626, 778.8192
343.7447, 781.6307
344.2268, 782.7961
344.7089, 782.1965
345.1910, 780.5895
345.6732, 777.9571
346.1553, 774.5338
346.6374, 772.7764
347.1195, 773.6161
347.6016, 775.8397
348.0837, 777.2393
348.5659, 777.8411
349.0480, 777.7712
349.5301, 776.6044
350.0122, 774.8569
350.4944, 773.9837
350.9765, 774.3359
351.4586, 775.0625
351.9407, 775.4822
352.4228, 775.4948
352.9049, 774.7462
353.3871, 771.6682
353.8692, 768.3241
354.3513, 767.7194
354.8334, 770.0844
355.3155, 773.2156
355.7976, 775.6497
356.2798, 777.6368
356.7619, 779.6112
357.2440, 781.6111
357.7261, 783.7069
358.2082, 785.8336
358.6903, 788.0243
359.1725, 790.5701
359.6546, 794.3798
360.1367, 798.2343
360.6188, 800.9086
361.1009, 801.1354
361.5830, 801.6332
362.0652, 803.5921
362.5473, 806.6986
363.0294, 810.1794
363.5115, 814.0831
363.9936, 818.0861
364.4757, 821.9754
364.9579, 825.7164
365.4400, 829.5388
365.9221, 833.5804
366.4042, 837.7429
366.8863, 841.8995
367.3684, 845.7820
367.8506, 849.9332
368.3327, 853.8973
368.8148, 857.4608
369.2969, 863.7795
369.7790, 875.7049
370.2611, 888.4108
370.7433, 898.4342
371.2254, 902.4684
371.7075, 908.9026
372.1896, 919.2726
372.6717, 932.6485
373.1538, 944.8453
373.6360, 954.8911
374.1181, 965.2789
374.6002, 977.0461
375.0823, 990.4588
375.5645, 1004.553
376.0466, 1019.242
376.5287, 1034.511
377.0108, 1050.386
377.4929, 1066.608
377.9750, 1083.312
378.4572, 1099.950
378.9393, 1116.814
379.4214, 1136.573
379.9035, 1159.543
380.3856, 1183.439
380.8677, 1204.967
381.3499, 1224.463
381.8320, 1246.355
382.3141, 1272.260
382.7962, 1300.561
383.2783, 1329.019
383.7604, 1357.477
384.2426, 1385.401
384.7247, 1413.199
385.2068, 1440.097
385.6889, 1466.278
386.1710, 1492.049
386.6531, 1514.883
387.1353, 1533.434
387.6174, 1547.167
388.0995, 1554.960
388.5816, 1557.305
389.0637, 1552.948
389.5458, 1540.305
390.0280, 1519.339
390.5101, 1492.328
390.9922, 1458.173
391.4743, 1419.954
391.9564, 1380.562
392.4385, 1340.926
392.9207, 1300.523
393.4028, 1257.590
393.8849, 1213.718
394.3670, 1173.435
394.8491, 1139.376
395.3312, 1109.147
395.8134, 1081.521
396.2955, 1056.399
396.7776, 1033.574
397.2597, 1012.900
397.7418, 994.7657
398.2239, 979.5694
398.7061, 970.2104
399.1882, 961.0834
399.6703, 950.5410
400.1524, 938.4339
400.6346, 928.0604
401.1167, 920.5060
401.5988, 913.8593
402.0809, 906.8037
402.5630, 898.5109
403.0451, 891.3575
403.5273, 885.4681
404.0094, 880.8553
404.4915, 878.0127
404.9736, 877.8297
405.4557, 877.1943
405.9378, 874.2143
406.4200, 868.5031
406.9021, 865.1046
407.3842, 864.5019
407.8663, 865.1629
408.3484, 865.3668
408.8305, 865.1185
409.3127, 864.4919
409.7948, 862.9551
410.2769, 861.3942
410.7590, 863.0716
411.2411, 868.0291
411.7232, 872.5416
412.2054, 872.7330
412.6875, 870.2916
413.1696, 870.0834
413.6517, 873.1525
414.1338, 877.3737
414.6159, 880.1711
415.0981, 882.0717
415.5802, 884.5047
416.0623, 887.7438
416.5444, 892.1049
417.0265, 898.3251
417.5086, 906.4220
417.9908, 914.2609
418.4729, 919.2397
418.9550, 923.6963
419.4371, 930.0963
419.9192, 940.8381
420.4013, 951.6824
420.8835, 960.2539
421.3656, 967.4033
421.8477, 975.8663
422.3298, 986.7125
422.8119, 998.7435
423.2940, 1011.734
423.7762, 1025.926
424.2583, 1039.928
424.7404, 1052.719
425.2225, 1065.426
425.7047, 1079.650
426.1868, 1095.006
426.6689, 1112.213
427.1510, 1131.951
427.6331, 1153.969
428.1152, 1175.986
428.5974, 1197.321
429.0795, 1220.106
429.5616, 1245.581
430.0437, 1273.359
430.5258, 1305.077
431.0079, 1340.904
431.4901, 1380.266
431.9722, 1421.298
432.4543, 1463.364
432.9364, 1511.860
433.4185, 1569.234
433.9006, 1634.207
434.3828, 1700.056
434.8649, 1766.670
435.3470, 1835.437
435.8291, 1910.523
436.3112, 1989.494
436.7933, 2064.435
437.2755, 2136.870
437.7576, 2199.339
438.2397, 2246.610
438.7218, 2276.311
439.2039, 2280.386
439.6860, 2244.760
440.1682, 2186.290
440.6503, 2117.660
441.1324, 2038.626
441.6145, 1965.949
442.0966, 1907.762
442.5787, 1861.921
443.0609, 1826.156
443.5430, 1802.139
444.0251, 1785.502
444.5072, 1774.939
444.9893, 1770.611
445.4714, 1772.806
445.9536, 1782.561
446.4357, 1797.981
446.9178, 1818.078
447.3999, 1842.200
447.8820, 1873.080
448.3641, 1911.037
448.8463, 1955.622
449.3284, 2006.813
449.8105, 2062.171
450.2926, 2127.547
450.7747, 2203.574
451.2569, 2290.745
451.7390, 2388.746
452.2211, 2498.214
452.7032, 2619.410
453.1853, 2751.691
453.6674, 2896.026
454.1496, 3052.882
454.6317, 3222.359
455.1138, 3406.875
455.5959, 3607.450
456.0780, 3825.511
456.5602, 4058.839
457.0423, 4312.480
457.5244, 4576.396
458.0065, 4842.196
458.4886, 5106.200
458.9707, 5353.567
459.4529, 5588.030
459.9350, 5793.146
460.4171, 5940.076
460.8992, 6029.828
461.3813, 6052.683
461.8634, 5997.241
462.3456, 5870.985
462.8277, 5687.919
463.3098, 5418.550
463.7919, 5122.079
464.2740, 4817.337
464.7561, 4506.806
465.2383, 4210.784
465.7204, 3936.429
466.2025, 3677.126
466.6846, 3431.491
467.1667, 3199.017
467.6488, 2981.555
468.1310, 2773.822
468.6131, 2581.578
469.0952, 2409.204
469.5773, 2257.944
470.0594, 2125.341
470.5415, 2011.353
471.0237, 1916.208
471.5058, 1831.076
471.9879, 1756.693
472.4700, 1690.467
472.9521, 1631.779
473.4342, 1580.454
473.9164, 1534.918
474.3985, 1495.101
474.8806, 1459.869
475.3627, 1427.522
475.8448, 1397.989
476.3270, 1370.468
476.8091, 1345.022
477.2912, 1321.441
477.7733, 1300.149
478.2554, 1281.018
478.7375, 1262.132
479.2197, 1241.259
479.7018, 1219.926
480.1839, 1200.602
480.6660, 1184.316
481.1481, 1168.709
481.6302, 1152.290
482.1124, 1135.541
482.5945, 1119.276
483.0766, 1101.875
483.5587, 1086.723
484.0408, 1076.344
484.5229, 1070.656
485.0051, 1064.526
485.4872, 1056.376
485.9693, 1047.954
486.4514, 1040.310
486.9335, 1033.110
487.4156, 1027.285
487.8978, 1023.913
488.3799, 1021.374
488.8620, 1016.559
489.3441, 1007.767
489.8262, 1001.003
490.3083, 998.2733
490.7905, 998.9842
491.2726, 998.5740
491.7547, 996.7136
492.2368, 995.3477
492.7189, 996.2336
493.2010, 999.0660
493.6832, 1001.591
494.1653, 1003.490
494.6474, 1005.552
495.1295, 1008.872
495.6116, 1013.212
496.0938, 1017.888
496.5759, 1022.745
497.0580, 1027.705
497.5401, 1032.090
498.0222, 1036.240
498.5044, 1041.669
498.9865, 1049.204
499.4686, 1058.479
499.9507, 1069.367
500.4328, 1082.043
500.9149, 1095.519
501.3971, 1109.184
501.8792, 1123.694
502.3613, 1139.799
502.8434, 1155.225
503.3255, 1175.223
503.8076, 1201.927
504.2898, 1234.195
504.7719, 1267.067
505.2540, 1300.086
505.7361, 1334.187
506.2182, 1370.212
506.7003, 1408.184
507.1825, 1447.389
507.6646, 1489.049
508.1467, 1529.326
508.6288, 1566.826
509.1109, 1601.533
509.5930, 1623.126
510.0752, 1630.329
510.5573, 1622.302
511.0394, 1594.992
511.5215, 1549.719
512.0037, 1494.663
512.4858, 1427.321
512.9679, 1355.990
513.4500, 1291.311
513.9321, 1233.685
514.4142, 1182.773
514.8964, 1139.250
515.3785, 1101.733
515.8606, 1069.232
516.3427, 1041.077
516.8248, 1018.021
517.3069, 1002.189
517.7891, 991.4223
518.2712, 981.6871
518.7533, 971.1193
519.2354, 962.6181
519.7175, 957.7275
520.1996, 956.3209
520.6818, 954.7531
521.1639, 952.6729
521.6460, 950.8646
522.1281, 949.6628
522.6102, 948.8578
523.0923, 949.5994
523.5745, 952.3483
524.0566, 955.9417
524.5387, 958.6064
525.0208, 960.3536
525.5029, 962.3797
525.9850, 964.7635
526.4672, 967.8743
526.9493, 973.0203
527.4314, 980.0464
527.9135, 987.0765
528.3956, 992.8070
528.8777, 998.0583
529.3599, 1003.254
529.8420, 1008.336
530.3241, 1015.593
530.8062, 1027.900
531.2883, 1042.840
531.7704, 1057.361
532.2526, 1070.149
532.7347, 1083.431
533.2168, 1097.477
533.6989, 1112.541
534.1810, 1129.602
534.6631, 1148.861
535.1453, 1170.075
535.6274, 1192.397
536.1095, 1216.057
536.5916, 1243.165
537.0737, 1275.399
537.5558, 1308.973
538.0380, 1340.417
538.5201, 1368.951
539.0022, 1403.034
539.4843, 1443.193
539.9664, 1487.826
540.4485, 1533.455
540.9307, 1580.168
541.4128, 1631.001
541.8949, 1687.338
542.3770, 1747.097
542.8591, 1807.585
543.3412, 1868.537
543.8234, 1932.745
544.3055, 2000.576
544.7876, 2073.147
545.2697, 2150.591
545.7518, 2232.888
546.2339, 2320.390
546.7161, 2413.625
547.1982, 2511.343
547.6803, 2614.703
548.1624, 2728.381
548.6445, 2840.894
549.1266, 2950.049
549.6088, 3057.263
550.0909, 3165.712
550.5730, 3281.527
551.0551, 3389.883
551.5372, 3488.921
552.0193, 3578.052
552.5015, 3646.715
552.9836, 3695.930
553.4657, 3721.442
553.9478, 3721.170
554.4299, 3694.976
554.9120, 3639.393
555.3942, 3553.411
555.8763, 3445.087
556.3584, 3317.253
556.8405, 3174.276
557.3226, 3026.652
557.8047, 2873.903
558.2869, 2722.144
558.7690, 2574.081
559.2511, 2430.814
559.7332, 2296.789
560.2154, 2173.027
560.6975, 2060.030
561.1796, 1957.418
561.6617, 1865.224
562.1439, 1781.670
562.6260, 1706.995
563.1081, 1640.932
563.5902, 1581.834
564.0723, 1531.887
564.5544, 1483.849
565.0366, 1435.682
565.5187, 1390.798
566.0008, 1355.479
566.4829, 1331.018
566.9650, 1306.996
567.4471, 1280.719
567.9293, 1253.851
568.4114, 1231.794
568.8935, 1214.185
569.3756, 1197.463
569.8577, 1179.276
570.3398, 1160.785
570.8220, 1144.787
571.3041, 1131.079
571.7862, 1118.612
572.2683, 1106.926
572.7504, 1095.836
573.2325, 1084.800
573.7147, 1073.309
574.1968, 1063.229
574.6789, 1055.961
575.1610, 1050.303
575.6431, 1044.611
576.1252, 1039.078
576.6074, 1033.072
577.0895, 1026.160
577.5716, 1018.686
578.0537, 1011.735
578.5358, 1005.113
579.0179, 999.4758
579.5001, 995.2275
579.9822, 992.2695
580.4643, 990.0162
580.9464, 988.6695
581.4285, 986.6094
581.9106, 981.4410
582.3928, 974.3027
582.8749, 969.0837
583.3570, 966.4051
583.8391, 964.9638
584.3212, 964.4600
584.8033, 964.1143
585.2855, 962.5772
585.7676, 958.2668
586.2497, 953.8221
586.7318, 950.4355
