##NAMES=Tugtupite
##RRUFFID=R050562
##IDEAL CHEMISTRY=Na_4_BeAlSi_4_O_12_Cl
##LOCALITY=Kvanefjeld, Ilimaussag, Greenland
##OWNER=RRUFF
##SOURCE=Dave Bunk Minerals
##DESCRIPTION=Pink fragment
##STATUS=The identification of this mineral is confirmed by single-crystal X-ray diffraction and chemical analysis.
##URL=rruff.info/R050562
##MEASURED CHEMISTRY=Na_4.00_Be_1.00_Al_1.00_Si_4.00_O_12_Cl_1.00_; BeO estimated by difference; trace amounts of Fe
92.06543, 332.8914
92.54755, 332.2204
93.02966, 333.6609
93.51178, 334.5161
93.99390, 334.0082
94.47601, 332.8023
94.95813, 331.3312
95.44025, 329.6931
95.92236, 327.7496
96.40448, 325.2505
96.88660, 325.2487
97.36871, 329.3884
97.85082, 334.4560
98.33294, 338.6429
98.81506, 341.5240
99.29717, 342.6151
99.77929, 342.3807
100.2614, 341.0761
100.7435, 340.3310
101.2256, 340.7128
101.7078, 341.8320
102.1899, 342.9648
102.6720, 344.1748
103.1541, 344.9938
103.6362, 345.7504
104.1183, 346.4180
104.6005, 345.2243
105.0826, 339.6260
105.5647, 328.8265
106.0468, 319.7222
106.5289, 314.1055
107.0110, 310.2316
107.4931, 308.1649
107.9753, 307.8117
108.4574, 307.3293
108.9395, 302.7968
109.4216, 290.6913
109.9037, 279.7685
110.3858, 269.2479
110.8680, 260.7546
111.3501, 255.9641
111.8322, 255.7801
112.3143, 259.9641
112.7964, 267.4895
113.2785, 279.2767
113.7607, 293.0120
114.2428, 312.0537
114.7249, 333.3023
115.2070, 349.7241
115.6891, 356.4583
116.1712, 352.4294
116.6534, 341.1640
117.1355, 316.8053
117.6176, 289.6579
118.0997, 266.3487
118.5818, 247.2946
119.0639, 232.7565
119.5461, 225.0870
120.0282, 222.6476
120.5103, 221.6093
120.9924, 221.2202
121.4745, 221.4466
121.9566, 222.2364
122.4388, 223.6549
122.9209, 225.6184
123.4030, 227.9583
123.8851, 230.6624
124.3672, 233.7374
124.8493, 237.4507
125.3315, 241.9029
125.8136, 245.6269
126.2957, 248.6991
126.7778, 250.7820
127.2599, 251.6636
127.7420, 251.3119
128.2242, 249.8454
128.7063, 247.5745
129.1884, 245.2032
129.6705, 240.1797
130.1526, 231.0214
130.6347, 220.6130
131.1169, 210.8613
131.5990, 202.4546
132.0811, 195.1567
132.5632, 188.4883
133.0453, 181.9480
133.5274, 176.7137
134.0096, 173.2860
134.4917, 171.1319
134.9738, 169.5728
135.4559, 168.3153
135.9380, 167.3982
136.4201, 166.9789
136.9023, 167.1489
137.3844, 167.5568
137.8665, 168.3946
138.3486, 169.4914
138.8307, 170.0079
139.3128, 169.2268
139.7950, 167.6012
140.2771, 166.3286
140.7592, 165.7190
141.2413, 165.2230
141.7234, 163.8425
142.2055, 161.1855
142.6877, 159.7210
143.1698, 161.9101
143.6519, 165.7890
144.1340, 169.2794
144.6161, 171.5702
145.0982, 172.9745
145.5803, 174.3318
146.0625, 175.7921
146.5446, 176.9146
147.0267, 176.7713
147.5088, 176.3280
147.9909, 177.1025
148.4730, 180.2724
148.9552, 185.7197
149.4373, 190.8323
149.9194, 196.0184
150.4015, 200.4774
150.8836, 202.7934
151.3657, 204.0138
151.8479, 206.4094
152.3300, 211.9572
152.8121, 220.9901
153.2942, 231.8065
153.7763, 244.2930
154.2584, 258.1842
154.7406, 273.5994
155.2227, 290.3947
155.7048, 308.4661
156.1869, 328.1507
156.6690, 350.6134
157.1511, 369.2299
157.6333, 385.9294
158.1154, 397.9211
158.5975, 402.0727
159.0796, 397.6590
159.5617, 387.3858
160.0438, 373.1329
160.5260, 354.7993
161.0081, 336.6645
161.4902, 319.4405
161.9723, 303.1103
162.4544, 287.4549
162.9365, 272.2353
163.4187, 258.3967
163.9008, 247.1337
164.3829, 238.3276
164.8650, 230.5567
165.3471, 223.0194
165.8292, 215.8153
166.3113, 209.7962
166.7935, 205.7933
167.2756, 202.5168
167.7577, 198.7644
168.2398, 194.5113
168.7219, 190.7016
169.2040, 188.1879
169.6862, 187.0166
170.1683, 186.8475
170.6504, 188.1795
171.1325, 190.1688
171.6146, 192.6147
172.0967, 195.4128
172.5789, 198.2857
173.0610, 200.6819
173.5431, 201.9398
174.0252, 204.3115
174.5073, 208.3421
174.9894, 213.0841
175.4716, 218.0898
175.9537, 223.1335
176.4358, 228.0101
176.9179, 232.1867
177.4000, 233.8601
177.8821, 237.4598
178.3643, 246.0163
178.8464, 255.2237
179.3285, 260.7743
179.8106, 260.9280
180.2927, 256.8483
180.7748, 251.5398
181.2570, 244.5258
181.7391, 236.8853
182.2212, 228.0202
182.7033, 218.7100
183.1854, 210.1005
183.6675, 202.6526
184.1497, 196.3578
184.6318, 191.3327
185.1139, 187.5265
185.5960, 184.6122
186.0781, 182.8672
186.5602, 182.0076
187.0423, 181.1648
187.5245, 179.7854
188.0066, 178.3536
188.4887, 177.9322
188.9708, 178.8787
189.4529, 180.1539
189.9350, 180.7320
190.4172, 180.7588
190.8993, 181.9171
191.3814, 185.5210
191.8635, 190.4820
192.3456, 195.1768
192.8277, 199.3392
193.3099, 203.4066
193.7920, 207.7932
194.2741, 212.5201
194.7562, 217.4777
195.2383, 222.3168
195.7204, 227.5340
196.2026, 233.5077
196.6847, 240.2934
197.1668, 248.1005
197.6489, 256.9621
198.1310, 266.3161
198.6131, 278.5536
199.0953, 295.1884
199.5774, 314.3495
200.0595, 334.4488
200.5416, 354.9664
201.0237, 376.1997
201.5058, 399.6591
201.9880, 430.8948
202.4701, 453.7438
202.9522, 467.8456
203.4343, 472.6756
203.9164, 466.6808
204.3985, 449.0916
204.8807, 422.1711
205.3628, 392.2684
205.8449, 354.3190
206.3270, 320.2909
206.8091, 291.0627
207.2912, 266.4893
207.7733, 246.4930
208.2555, 231.1800
208.7376, 219.9531
209.2197, 210.6685
209.7018, 204.3429
210.1839, 198.9885
210.6660, 194.5576
211.1482, 190.9838
211.6303, 188.3537
212.1124, 186.7655
212.5945, 185.9398
213.0766, 184.6877
213.5587, 182.6986
214.0409, 180.6977
214.5230, 178.6774
215.0051, 176.7511
215.4872, 175.0271
215.9693, 173.5060
216.4514, 172.3198
216.9336, 172.0855
217.4157, 173.7395
217.8978, 174.9191
218.3799, 174.4447
218.8620, 172.8703
219.3441, 171.5736
219.8263, 171.2253
220.3084, 171.5797
220.7905, 171.9075
221.2726, 172.1648
221.7547, 172.4730
222.2368, 173.2029
222.7190, 174.1402
223.2011, 174.2126
223.6832, 172.2771
224.1653, 169.8382
224.6474, 169.6902
225.1295, 172.4606
225.6117, 175.9403
226.0938, 178.9640
226.5759, 181.5342
227.0580, 183.4782
227.5401, 183.9041
228.0222, 184.3474
228.5043, 186.8945
228.9865, 192.0805
229.4686, 197.5667
229.9507, 201.0528
230.4328, 202.5527
230.9149, 204.7819
231.3970, 209.6270
231.8792, 214.7286
232.3613, 217.7982
232.8434, 218.4378
233.3255, 218.7783
233.8076, 220.9043
234.2897, 224.9387
234.7719, 229.3087
235.2540, 233.3595
235.7361, 237.9340
236.2182, 243.3832
236.7003, 249.8089
237.1824, 257.5012
237.6646, 266.8220
238.1467, 277.9021
238.6288, 290.2431
239.1109, 304.7471
239.5930, 319.9250
240.0751, 335.8571
240.5573, 352.2302
241.0394, 367.5904
241.5215, 381.4015
242.0036, 395.3242
242.4857, 400.7646
242.9678, 390.3292
243.4500, 376.9189
243.9321, 365.8723
244.4142, 358.1451
244.8963, 352.3249
245.3784, 346.7667
245.8605, 341.0926
246.3427, 337.2005
246.8248, 336.8255
247.3069, 336.6609
247.7890, 334.5981
248.2711, 330.8839
248.7532, 327.5641
249.2354, 326.9381
249.7175, 329.7853
250.1996, 332.0688
250.6817, 333.6902
251.1638, 334.9214
251.6459, 335.9111
252.1281, 336.6367
252.6102, 336.7487
253.0923, 335.4849
253.5744, 331.9127
254.0565, 333.0930
254.5386, 340.9999
255.0208, 350.8477
255.5029, 361.1782
255.9850, 371.6379
256.4671, 382.1134
256.9492, 392.4619
257.4313, 402.5349
257.9135, 414.0894
258.3956, 427.8913
258.8777, 442.0480
259.3598, 455.4357
259.8419, 468.4295
260.3240, 482.4169
260.8062, 498.5445
261.2883, 516.8292
261.7704, 534.8288
262.2525, 552.4545
262.7346, 570.1405
263.2167, 588.5719
263.6989, 607.2931
264.1810, 624.9654
264.6631, 640.8863
265.1452, 655.0427
265.6273, 667.3763
266.1094, 677.9310
266.5916, 687.0547
267.0737, 695.4852
267.5558, 702.5839
268.0379, 706.8138
268.5200, 707.1851
269.0021, 704.1664
269.4843, 699.6121
269.9664, 694.0546
270.4485, 686.7839
270.9306, 677.2373
271.4127, 665.8300
271.8948, 653.2471
272.3770, 639.5612
272.8591, 625.2947
273.3412, 611.6407
273.8233, 599.4517
274.3054, 586.1417
274.7875, 569.8624
275.2697, 552.0739
275.7518, 535.6570
276.2339, 521.7405
276.7160, 509.2448
277.1981, 496.2977
277.6802, 482.7069
278.1623, 469.4575
278.6444, 456.7512
279.1266, 444.5136
279.6087, 432.4659
280.0908, 420.3571
280.5729, 409.0965
281.0550, 399.9083
281.5371, 392.5088
282.0193, 387.1415
282.5014, 384.6053
282.9835, 383.8940
283.4656, 383.5468
283.9477, 383.2691
284.4298, 383.6307
284.9120, 385.0911
285.3941, 387.6094
285.8762, 391.7511
286.3583, 398.4340
286.8404, 406.4387
287.3225, 414.8406
287.8047, 423.7396
288.2868, 431.5280
288.7689, 437.7447
289.2510, 441.8150
289.7331, 441.6449
290.2152, 436.5762
290.6974, 427.2373
291.1795, 413.6787
291.6616, 395.8473
292.1437, 375.6452
292.6258, 352.1322
293.1079, 327.3231
293.5901, 305.7168
294.0722, 288.6011
294.5543, 273.8678
295.0364, 259.7534
295.5185, 246.2639
296.0006, 234.5606
296.4828, 225.4250
296.9649, 218.4667
297.4470, 212.6758
297.9291, 208.3603
298.4112, 204.4251
298.8933, 199.8894
299.3755, 194.9603
299.8576, 190.9124
300.3397, 188.6623
300.8218, 186.9730
301.3039, 183.7060
301.7860, 178.4877
302.2682, 174.4745
302.7503, 174.2991
303.2324, 176.8863
303.7145, 178.3964
304.1966, 177.7024
304.6787, 176.2351
305.1609, 175.2923
305.6430, 174.8380
306.1251, 174.9446
306.6072, 175.5827
307.0893, 176.8101
307.5714, 178.8698
308.0536, 181.9626
308.5357, 185.3976
309.0178, 188.8171
309.4999, 192.1451
309.9820, 195.0820
310.4641, 196.5045
310.9463, 197.8747
311.4284, 202.0445
311.9105, 209.6856
312.3926, 216.5800
312.8747, 219.0399
313.3568, 218.9851
313.8390, 219.6369
314.3211, 221.1868
314.8032, 224.1069
315.2853, 229.5747
315.7674, 237.6358
316.2495, 245.2677
316.7317, 250.7529
317.2138, 255.2150
317.6959, 260.2779
318.1780, 266.0180
318.6601, 272.4566
319.1422, 280.0234
319.6243, 288.5399
320.1064, 296.4658
320.5886, 302.9539
321.0707, 309.0779
321.5528, 315.7111
322.0349, 322.7302
322.5170, 331.6672
322.9991, 342.7142
323.4813, 356.2451
323.9634, 374.3751
324.4455, 399.0463
324.9276, 424.7979
325.4097, 448.6503
325.8918, 470.1811
326.3740, 483.1268
326.8561, 486.6351
327.3382, 479.8904
327.8203, 459.1223
328.3024, 422.0167
328.7845, 380.9148
329.2667, 342.5184
329.7488, 307.1928
330.2309, 276.1579
330.7130, 250.0666
331.1951, 228.2318
331.6772, 210.4309
332.1594, 196.6393
332.6415, 185.6542
333.1236, 177.7090
333.6057, 171.9389
334.0878, 166.0835
334.5699, 159.9216
335.0521, 154.0264
335.5342, 148.2865
336.0163, 142.9849
336.4984, 139.4237
336.9805, 138.7115
337.4626, 139.0771
337.9448, 137.6622
338.4269, 134.2578
338.9090, 130.9465
339.3911, 128.5577
339.8732, 126.8144
340.3553, 125.2107
340.8375, 123.6302
341.3196, 122.2584
341.8017, 121.4934
342.2838, 121.2649
342.7659, 120.7490
343.2480, 119.2340
343.7302, 117.6691
344.2123, 117.1907
344.6944, 117.8742
345.1765, 118.9025
345.6586, 120.0489
346.1407, 121.0254
346.6229, 120.6890
347.1050, 117.4632
347.5871, 114.3275
348.0692, 113.2047
348.5513, 113.7476
349.0334, 114.7104
349.5156, 115.7323
349.9977, 116.4966
350.4798, 116.0217
350.9619, 113.6901
351.4440, 111.6183
351.9261, 110.4558
352.4083, 109.9988
352.8904, 110.1002
353.3725, 110.7912
353.8546, 111.4937
354.3367, 111.2230
354.8188, 109.6005
355.3010, 108.6510
355.7831, 109.1745
356.2652, 110.0603
356.7473, 110.1406
357.2294, 109.3529
357.7115, 108.7083
358.1937, 109.1551
358.6758, 110.7573
359.1579, 112.0212
359.6400, 112.4876
360.1221, 113.0957
360.6042, 114.8066
361.0863, 117.0835
361.5685, 118.3314
362.0506, 117.5087
362.5327, 115.2586
363.0148, 114.2451
363.4969, 115.1634
363.9790, 116.3490
364.4612, 117.7543
364.9433, 119.2391
365.4254, 120.5699
365.9075, 121.6797
366.3896, 122.7770
366.8717, 124.2197
367.3539, 126.2916
367.8360, 128.0577
368.3181, 129.3463
368.8002, 130.4802
369.2823, 131.3907
369.7644, 132.2545
370.2466, 133.7261
370.7287, 136.5886
371.2108, 140.9988
371.6929, 143.9668
372.1750, 143.7780
372.6571, 144.0938
373.1393, 146.2270
373.6214, 149.5852
374.1035, 153.0535
374.5856, 156.0004
375.0677, 158.6688
375.5498, 161.8971
376.0320, 166.1963
376.5141, 170.3325
376.9962, 173.9457
377.4783, 177.5100
377.9604, 181.5163
378.4425, 186.0600
378.9247, 190.6833
379.4068, 194.5213
379.8889, 196.9097
380.3710, 200.8708
380.8531, 207.4205
381.3352, 214.6400
381.8174, 221.8613
382.2995, 229.0569
382.7816, 236.4779
383.2637, 244.3599
383.7458, 252.6091
384.2279, 260.4512
384.7101, 267.6351
385.1922, 274.7793
385.6743, 282.2625
386.1564, 289.7496
386.6385, 297.2573
387.1206, 304.9191
387.6028, 311.5897
388.0849, 315.5371
388.5670, 316.6237
389.0491, 315.5707
389.5312, 312.1891
390.0133, 306.7430
390.4955, 298.5591
390.9776, 287.8379
391.4597, 276.9154
391.9418, 267.9695
392.4239, 260.5240
392.9060, 252.0089
393.3882, 242.1599
393.8703, 231.3264
394.3524, 218.6343
394.8345, 205.2027
395.3166, 193.5457
395.7987, 185.1933
396.2809, 178.6452
396.7630, 171.9732
397.2451, 165.0791
397.7272, 158.7534
398.2093, 153.0806
398.6914, 148.3991
399.1736, 145.2200
399.6557, 143.9295
400.1378, 142.8265
400.6199, 140.8101
401.1020, 138.2009
401.5841, 135.8897
402.0662, 134.1341
402.5483, 132.5629
403.0305, 130.7490
403.5126, 128.7091
403.9947, 126.7346
404.4768, 124.3314
404.9589, 122.3744
405.4410, 122.2637
405.9232, 123.8105
406.4053, 124.7501
406.8874, 123.3703
407.3695, 120.2292
407.8516, 118.2561
408.3337, 117.9929
408.8159, 118.0904
409.2980, 118.3223
409.7801, 118.5999
410.2622, 118.7009
410.7443, 118.5406
411.2264, 118.4360
411.7086, 118.9662
412.1907, 120.7250
412.6728, 121.5803
413.1549, 120.1373
413.6370, 118.9221
414.1191, 120.1960
414.6013, 123.5455
415.0834, 126.6189
415.5655, 127.4697
416.0476, 126.2576
416.5297, 125.7143
417.0118, 125.7697
417.4940, 126.6236
417.9761, 128.6177
418.4582, 131.3312
418.9403, 134.4960
419.4224, 137.9853
419.9045, 141.2227
420.3867, 143.0099
420.8688, 142.4166
421.3509, 142.8432
421.8330, 145.0721
422.3151, 147.7393
422.7972, 150.2213
423.2794, 152.4802
423.7615, 154.7306
424.2436, 157.0669
424.7257, 159.5277
425.2078, 162.3977
425.6899, 165.6953
426.1721, 169.3992
426.6542, 173.6213
427.1363, 178.1543
427.6184, 182.7070
428.1005, 187.1368
428.5826, 191.8386
429.0648, 197.3237
429.5469, 203.6307
430.0290, 209.9582
430.5111, 215.0804
430.9932, 221.4406
431.4753, 231.3856
431.9575, 244.5536
432.4396, 258.0018
432.9217, 269.1949
433.4038, 280.1012
433.8859, 294.2199
434.3680, 311.7764
434.8502, 331.4251
435.3323, 353.0416
435.8144, 376.1022
436.2965, 399.1986
436.7786, 423.7597
437.2607, 446.1081
437.7429, 466.2928
438.2250, 482.6227
438.7071, 490.8065
439.1892, 489.2653
439.6713, 480.6250
440.1534, 467.5984
440.6356, 449.1042
441.1177, 430.7345
441.5998, 410.5236
442.0819, 392.3676
442.5640, 379.7162
443.0461, 372.0829
443.5282, 366.4990
444.0103, 361.1029
444.4925, 356.0553
444.9746, 352.3551
445.4567, 350.0366
445.9388, 349.0949
446.4209, 348.9088
446.9030, 350.4340
447.3852, 354.8580
447.8673, 362.3835
448.3494, 372.0367
448.8315, 382.6292
449.3136, 394.0990
449.7957, 406.8100
450.2779, 418.4581
450.7600, 433.8316
451.2421, 455.1064
451.7242, 481.3516
452.2063, 510.5357
452.6884, 541.1980
453.1706, 574.5471
453.6527, 612.8645
454.1348, 655.8768
454.6169, 704.1794
455.0990, 758.1324
455.5811, 817.6470
456.0633, 883.3082
456.5454, 955.0367
457.0275, 1032.245
457.5096, 1117.082
457.9917, 1207.367
458.4738, 1298.160
458.9560, 1391.798
459.4381, 1479.048
459.9202, 1559.679
460.4023, 1628.437
460.8844, 1673.349
461.3665, 1691.605
461.8487, 1686.096
462.3308, 1656.031
462.8129, 1603.428
463.2950, 1533.193
463.7771, 1443.569
464.2592, 1344.358
464.7414, 1246.620
465.2235, 1149.250
465.7056, 1059.098
466.1877, 977.7823
466.6698, 902.3819
467.1519, 831.5242
467.6341, 764.5695
468.1162, 700.8841
468.5983, 639.9060
469.0804, 581.9770
469.5625, 531.1082
470.0446, 489.1835
470.5268, 452.2390
471.0089, 421.0061
471.4910, 394.1924
471.9731, 371.3668
472.4552, 352.1240
472.9373, 335.4906
473.4195, 320.6276
473.9016, 307.6531
474.3837, 295.1207
474.8658, 282.6658
475.3479, 271.2003
475.8300, 261.0875
476.3122, 252.1117
476.7943, 243.8150
477.2764, 236.0300
477.7585, 228.9454
478.2406, 223.0023
478.7227, 218.3695
479.2049, 213.5237
479.6870, 207.6856
480.1691, 202.1117
480.6512, 197.9236
481.1333, 194.8829
481.6154, 191.7581
482.0976, 187.9029
482.5797, 183.6420
483.0618, 179.3430
483.5439, 175.0007
484.0260, 170.9605
484.5081, 167.2608
484.9902, 164.0728
485.4724, 161.7281
485.9545, 160.4933
486.4366, 159.2489
486.9187, 157.4648
487.4008, 155.5067
487.8829, 154.0002
488.3651, 152.9992
488.8472, 151.8050
489.3293, 149.6736
489.8114, 146.6069
490.2935, 144.6490
490.7756, 144.1889
491.2578, 144.1621
491.7399, 144.4567
492.2220, 144.9457
492.7041, 145.5288
493.1862, 146.1605
493.6683, 146.7746
494.1505, 147.2213
494.6326, 147.3577
495.1147, 147.8895
495.5968, 149.1336
496.0789, 150.4712
496.5610, 151.8468
497.0432, 153.1280
497.5253, 153.9858
498.0074, 154.0765
498.4895, 154.1390
498.9716, 155.6729
499.4537, 158.8914
499.9359, 162.2292
500.4180, 165.0341
500.9001, 168.1758
501.3822, 172.6745
501.8643, 178.3784
502.3464, 183.5991
502.8286, 186.0531
503.3107, 188.2562
503.7928, 194.4320
504.2749, 204.7029
504.7570, 216.0182
505.2391, 226.7957
505.7213, 237.5651
506.2034, 249.4842
506.6855, 262.8178
507.1676, 276.4719
507.6497, 291.1898
508.1318, 305.5397
508.6140, 318.5319
509.0961, 329.7135
509.5782, 337.9462
510.0603, 342.4904
510.5424, 343.2692
511.0245, 337.8064
511.5067, 323.0599
511.9888, 305.6893
512.4709, 284.6674
512.9530, 262.5568
513.4351, 241.5753
513.9172, 222.4352
514.3994, 205.2385
514.8815, 190.0696
515.3636, 176.8708
515.8457, 165.7534
516.3278, 157.0162
516.8099, 150.0962
517.2921, 145.5191
517.7742, 142.2055
518.2563, 138.3095
518.7384, 132.8595
519.2205, 127.8428
519.7026, 125.9726
520.1848, 126.8143
520.6669, 126.8681
521.1490, 125.0843
521.6311, 122.9947
522.1132, 122.2013
522.5953, 122.4929
523.0775, 122.9565
523.5596, 123.4971
524.0417, 124.1067
524.5238, 124.9633
525.0059, 125.8916
525.4880, 126.2433
525.9702, 125.6687
526.4523, 124.9691
526.9344, 125.5684
527.4165, 128.0980
527.8986, 130.3448
528.3807, 132.3353
528.8629, 134.0562
529.3450, 135.0202
529.8271, 135.7248
530.3092, 137.3629
530.7913, 140.6877
531.2734, 144.8787
531.7556, 147.7259
532.2377, 148.3229
532.7198, 150.1338
533.2019, 154.3701
533.6840, 159.3873
534.1661, 164.4949
534.6483, 169.6491
535.1304, 174.9624
535.6125, 180.4065
536.0946, 186.1315
536.5767, 192.5837
537.0588, 199.7956
537.5410, 207.0210
538.0231, 213.8047
538.5052, 220.5844
538.9873, 227.7290
539.4694, 235.0811
539.9515, 243.8145
540.4337, 254.6942
540.9158, 266.8604
541.3979, 279.6751
541.8800, 292.9962
542.3621, 306.6996
542.8442, 320.6241
543.3264, 334.8899
543.8085, 349.9149
544.2906, 364.7289
544.7726, 381.7144
545.2548, 400.8064
545.7369, 422.0744
546.2190, 445.6998
546.7011, 471.4858
547.1832, 498.9404
547.6653, 527.3378
548.1475, 558.5526
548.6296, 589.5158
549.1117, 625.3825
549.5938, 661.8336
550.0759, 699.0814
550.5580, 735.9329
551.0402, 772.6300
551.5223, 808.8477
552.0044, 841.5858
552.4865, 870.8642
552.9686, 895.0186
553.4507, 911.8778
553.9329, 921.3522
554.4150, 921.6156
554.8971, 911.1947
555.3792, 891.2609
555.8613, 864.0587
556.3434, 828.4391
556.8256, 790.1885
557.3077, 749.9719
557.7898, 707.6736
558.2719, 661.8226
558.7540, 613.5026
559.2361, 567.5920
559.7183, 527.2286
560.2004, 491.8839
560.6825, 458.1576
561.1646, 425.7128
561.6467, 396.1238
562.1288, 368.9427
562.6110, 344.6141
563.0931, 323.8452
563.5752, 306.3039
564.0573, 290.3087
564.5394, 274.4538
565.0215, 259.4396
565.5037, 247.6010
565.9858, 239.3907
566.4679, 231.0327
566.9500, 220.5717
567.4321, 209.7896
567.9142, 200.9124
568.3964, 193.9951
568.8785, 188.0396
569.3606, 183.3886
569.8427, 179.0859
570.3248, 173.7818
570.8069, 167.7595
571.2891, 162.5842
571.7712, 159.2564
572.2533, 157.0138
572.7354, 153.9716
573.2175, 149.0154
573.6996, 145.2408
574.1818, 143.1729
574.6639, 141.7254
575.1460, 140.7502
575.6281, 139.8223
576.1102, 138.0574
576.5923, 134.8076
577.0745, 130.8543
577.5566, 128.0019
578.0387, 126.4785
578.5208, 124.7929
579.0029, 122.1919
579.4850, 119.8899
579.9672, 119.0682
580.4493, 119.3864
580.9314, 119.3628
581.4135, 118.3825
581.8956, 116.8933
582.3777, 114.7526
582.8599, 112.3563
583.3420, 111.6419
583.8241, 113.6151
584.3062, 115.8051
584.7883, 114.6293
585.2704, 109.0468
585.7526, 105.1587
586.2347, 103.7105
586.7168, 103.0119
587.1989, 102.2254
587.6810, 101.7342
