##NAMES=Tugtupite
##RRUFFID=R050278
##IDEAL CHEMISTRY=Na_4_BeAlSi_4_O_12_Cl
##LOCALITY=Kvanefjeld, Ilimaussag, Greenland
##OWNER=RRUFF
##SOURCE=Marcus Origlieri
##DESCRIPTION=Pink fine-grained aggregate associated with albite
##STATUS=The identification of this mineral has been confirmed by X-ray diffraction and chemical analysis
##URL=rruff.info/R050278
##MEASURED CHEMISTRY=Na_4.00_Be_1.00_Al_1.00_Si_4.00_O_12_Cl_1.00_ ; Be not measured but estimated by charge balance
135.9318, 580.2097
136.4139, 583.0927
136.8960, 585.1281
137.3782, 588.2791
137.8603, 592.7142
138.3424, 597.3680
138.8245, 601.6776
139.3066, 605.6918
139.7887, 609.3965
140.2709, 612.8848
140.7530, 616.0341
141.2351, 618.1374
141.7172, 618.6515
142.1993, 619.3471
142.6814, 621.5771
143.1636, 626.1060
143.6457, 629.9310
144.1278, 632.3107
144.6099, 633.4979
145.0920, 636.1734
145.5741, 641.0070
146.0563, 646.4838
146.5384, 651.3762
147.0205, 655.4269
147.5026, 659.3515
147.9847, 663.1279
148.4668, 666.7028
148.9490, 670.8548
149.4311, 675.7126
149.9132, 681.0720
150.3953, 686.6858
150.8774, 692.4471
151.3595, 698.5940
151.8417, 704.9714
152.3238, 711.4359
152.8059, 718.9702
153.2880, 727.5247
153.7701, 737.1296
154.2522, 747.9410
154.7344, 759.3905
155.2165, 772.4745
155.6986, 787.5967
156.1807, 805.2667
156.6628, 823.6247
157.1449, 843.9641
157.6271, 864.2626
158.1092, 881.9359
158.5913, 898.4255
159.0734, 910.4192
159.5555, 916.4427
160.0376, 915.7842
160.5198, 910.9186
161.0019, 900.8640
161.4840, 887.2502
161.9661, 873.1219
162.4482, 859.2001
162.9303, 845.2763
163.4125, 831.1876
163.8946, 816.7643
164.3767, 802.5062
164.8588, 788.1569
165.3409, 774.1520
165.8230, 761.1787
166.3052, 748.7267
166.7873, 737.8776
167.2694, 729.5599
167.7515, 724.4416
168.2336, 720.9807
168.7157, 718.6171
169.1978, 717.2294
169.6800, 716.3632
170.1621, 716.1838
170.6442, 716.2294
171.1263, 715.9431
171.6084, 714.7789
172.0905, 713.8292
172.5727, 713.8635
173.0548, 714.8604
173.5369, 716.6866
174.0190, 720.0978
174.5011, 724.0879
174.9832, 727.0904
175.4654, 727.6366
175.9475, 728.2001
176.4296, 731.7457
176.9117, 738.0555
177.3938, 745.0772
177.8759, 751.5199
178.3581, 757.5703
178.8402, 763.6777
179.3223, 770.8664
179.8044, 777.4084
180.2865, 780.9592
180.7686, 781.5138
181.2508, 779.5374
181.7329, 775.0087
182.2150, 768.2305
182.6971, 759.8079
183.1792, 748.4324
183.6613, 736.3184
184.1435, 728.3135
184.6256, 724.4142
185.1077, 722.3428
185.5898, 719.8997
186.0719, 717.3714
186.5540, 715.8620
187.0362, 716.1912
187.5183, 717.7059
188.0004, 718.6656
188.4825, 719.0457
188.9646, 719.1915
189.4467, 719.1207
189.9289, 718.9480
190.4110, 719.6317
190.8931, 721.7840
191.3752, 725.0704
191.8573, 728.1660
192.3394, 731.0687
192.8216, 733.9539
193.3037, 736.9569
193.7858, 740.0839
194.2679, 743.5400
194.7500, 747.5613
195.2321, 752.0093
195.7143, 755.9069
196.1964, 758.9707
196.6785, 762.2994
197.1606, 767.2875
197.6427, 774.0566
198.1248, 781.6149
198.6070, 789.3762
199.0891, 797.4460
199.5712, 807.7853
200.0533, 820.7268
200.5354, 835.0286
201.0175, 848.9060
201.4997, 862.3693
201.9818, 875.7676
202.4639, 890.5359
202.9460, 906.7021
203.4281, 917.7224
203.9102, 924.0908
204.3924, 924.4945
204.8745, 916.0031
205.3566, 897.4047
205.8387, 875.4986
206.3208, 851.7538
206.8029, 825.8085
207.2851, 802.6987
207.7672, 782.2000
208.2493, 764.8307
208.7314, 751.7440
209.2135, 743.5712
209.6956, 737.5026
210.1778, 733.0321
210.6599, 730.3434
211.1420, 727.1563
211.6241, 723.0057
212.1062, 718.9371
212.5883, 716.7039
213.0705, 716.7128
213.5526, 717.4315
214.0347, 718.3958
214.5168, 719.6215
214.9989, 721.0020
215.4810, 722.5455
215.9632, 724.2314
216.4453, 726.0679
216.9274, 728.2234
217.4095, 730.1346
217.8916, 731.4203
218.3737, 731.8316
218.8559, 733.1697
219.3380, 735.9591
219.8201, 739.1923
220.3022, 741.1843
220.7843, 741.3823
221.2664, 741.4841
221.7486, 741.9529
222.2307, 742.7477
222.7128, 744.1137
223.1949, 746.0651
223.6770, 748.5831
224.1591, 751.5880
224.6413, 755.1055
225.1234, 759.1445
225.6055, 763.9579
226.0876, 769.8291
226.5697, 774.9428
227.0518, 779.0928
227.5340, 782.6525
228.0161, 786.0033
228.4982, 788.8433
228.9803, 792.0723
229.4624, 795.9207
229.9445, 800.4617
230.4267, 805.5287
230.9088, 811.4932
231.3909, 817.7823
231.8730, 823.5144
232.3551, 828.1586
232.8372, 833.2845
233.3194, 839.4407
233.8015, 846.9574
234.2836, 854.0395
234.7657, 860.2830
235.2478, 866.4376
235.7299, 873.5760
236.2121, 881.8586
236.6942, 890.7648
237.1763, 899.9938
237.6584, 909.3145
238.1405, 920.3278
238.6226, 932.8824
239.1048, 947.0472
239.5869, 962.7879
240.0690, 979.7956
240.5511, 998.8322
241.0332, 1020.302
241.5153, 1044.168
241.9975, 1070.106
242.4796, 1098.051
242.9617, 1127.806
243.4438, 1161.309
243.9259, 1210.243
244.4080, 1241.440
244.8902, 1245.106
245.3723, 1219.696
245.8544, 1190.041
246.3365, 1151.055
246.8186, 1112.720
247.3007, 1084.632
247.7829, 1069.770
248.2650, 1059.566
248.7471, 1053.247
249.2292, 1050.870
249.7113, 1049.226
250.1934, 1048.406
250.6756, 1048.189
251.1577, 1048.238
251.6398, 1047.967
252.1219, 1049.151
252.6040, 1052.104
253.0861, 1056.778
253.5683, 1062.824
254.0504, 1070.234
254.5325, 1079.076
255.0146, 1089.491
255.4967, 1101.963
255.9788, 1114.978
256.4609, 1128.122
256.9431, 1141.462
257.4252, 1156.709
257.9073, 1174.463
258.3894, 1193.388
258.8715, 1212.472
259.3536, 1231.618
259.8358, 1251.585
260.3179, 1272.460
260.8000, 1294.404
261.2821, 1317.784
261.7642, 1343.562
262.2463, 1369.581
262.7285, 1394.637
263.2106, 1418.598
263.6927, 1441.687
264.1748, 1463.762
264.6569, 1484.943
265.1390, 1506.930
265.6212, 1530.869
266.1033, 1552.892
266.5854, 1571.035
267.0675, 1584.478
267.5496, 1596.134
268.0317, 1606.472
268.5139, 1614.840
268.9960, 1619.195
269.4781, 1619.196
269.9602, 1616.122
270.4423, 1610.405
270.9244, 1601.874
271.4066, 1591.487
271.8887, 1579.200
272.3708, 1565.113
272.8529, 1549.440
273.3350, 1531.859
273.8171, 1513.903
274.2993, 1496.047
274.7814, 1478.613
275.2635, 1460.447
275.7456, 1441.541
276.2277, 1421.949
276.7098, 1401.777
277.1920, 1380.765
277.6741, 1360.517
278.1562, 1341.437
278.6383, 1323.299
279.1204, 1307.419
279.6025, 1293.953
280.0847, 1282.130
280.5668, 1270.875
281.0489, 1260.123
281.5310, 1250.753
282.0131, 1242.891
282.4952, 1236.591
282.9774, 1232.620
283.4595, 1231.107
283.9416, 1231.298
284.4237, 1232.085
284.9058, 1233.479
285.3879, 1237.258
285.8701, 1244.014
286.3522, 1253.466
286.8343, 1264.969
287.3164, 1278.540
287.7985, 1293.136
288.2806, 1309.180
288.7628, 1326.223
289.2449, 1340.133
289.7270, 1351.065
290.2091, 1357.443
290.6912, 1355.662
291.1733, 1345.771
291.6555, 1328.113
292.1376, 1301.083
292.6197, 1265.912
293.1018, 1227.379
293.5839, 1185.329
294.0660, 1142.639
294.5482, 1103.439
295.0303, 1067.978
295.5124, 1037.005
295.9945, 1011.394
296.4766, 990.3621
296.9587, 972.3322
297.4409, 957.1723
297.9230, 944.3351
298.4051, 933.6699
298.8872, 925.0157
299.3693, 917.4467
299.8514, 910.7181
300.3336, 904.7540
300.8157, 899.4646
301.2978, 894.8821
301.7799, 890.9581
302.2620, 887.8584
302.7441, 885.4347
303.2263, 883.3268
303.7084, 881.0035
304.1905, 879.0332
304.6726, 878.3873
305.1547, 879.1068
305.6368, 879.9300
306.1190, 879.2810
306.6011, 878.0699
307.0832, 877.9191
307.5653, 880.1111
308.0474, 883.1173
308.5295, 885.2440
309.0117, 886.6876
309.4938, 888.9234
309.9759, 893.5809
310.4580, 899.4096
310.9401, 904.8105
311.4222, 909.3704
311.9044, 913.4400
312.3865, 916.8013
312.8686, 919.6927
313.3507, 923.0629
313.8328, 927.7073
314.3149, 932.8603
314.7971, 938.0800
315.2792, 944.1718
315.7613, 948.5912
316.2434, 949.3565
316.7255, 947.5033
317.2076, 945.2941
317.6898, 942.7776
318.1719, 940.7753
318.6540, 939.8101
319.1361, 940.0586
319.6182, 940.9615
320.1003, 942.2519
320.5825, 944.1085
321.0646, 946.7760
321.5467, 949.8058
322.0288, 954.1252
322.5109, 959.8691
322.9930, 966.9193
323.4752, 976.2249
323.9573, 989.7050
324.4394, 1004.714
324.9215, 1018.867
325.4036, 1031.677
325.8857, 1043.748
326.3679, 1057.707
326.8500, 1073.114
327.3321, 1079.773
327.8142, 1074.736
328.2963, 1062.362
328.7784, 1045.192
329.2606, 1017.667
329.7427, 992.1960
330.2248, 968.7870
330.7069, 947.4689
331.1890, 928.8313
331.6711, 912.8806
332.1533, 899.4265
332.6354, 888.4009
333.1175, 880.4677
333.5996, 873.5107
334.0817, 867.5941
334.5638, 862.6134
335.0460, 858.3923
335.5281, 855.1027
336.0102, 852.1582
336.4923, 849.2459
336.9744, 846.2371
337.4565, 844.2615
337.9387, 843.7782
338.4208, 843.6797
338.9029, 842.5255
339.3850, 839.9699
339.8671, 837.7145
340.3492, 836.2552
340.8313, 835.4639
341.3134, 834.1857
341.7956, 832.1795
342.2777, 830.4645
342.7598, 830.0563
343.2419, 831.0262
343.7240, 831.9629
344.2061, 832.7167
344.6883, 833.2608
345.1704, 833.3879
345.6525, 833.0772
346.1346, 832.7982
346.6167, 832.9470
347.0988, 833.4254
347.5810, 833.4963
348.0631, 832.9166
348.5452, 832.4401
349.0273, 833.5246
349.5094, 835.8945
349.9915, 837.8419
350.4737, 838.0020
350.9558, 837.2181
351.4379, 837.5029
351.9200, 838.9280
352.4021, 840.5099
352.8842, 841.3471
353.3664, 841.6451
353.8485, 841.8692
354.3306, 841.9601
354.8127, 842.2634
355.2948, 843.4740
355.7769, 845.4540
356.2591, 847.1561
356.7412, 847.6594
357.2233, 847.5957
357.7054, 847.6473
358.1875, 847.8623
358.6696, 848.4597
359.1518, 849.8537
359.6339, 851.7711
360.1160, 853.5264
360.5981, 854.2481
361.0802, 855.0614
361.5623, 856.8260
362.0445, 859.8235
362.5266, 862.9186
363.0087, 865.7643
363.4908, 868.3594
363.9729, 870.6877
364.4550, 872.2984
364.9372, 874.0480
365.4193, 876.2933
365.9014, 879.0523
366.3835, 881.8151
366.8656, 884.3456
367.3477, 886.9112
367.8299, 889.7570
368.3120, 893.1347
368.7941, 896.5326
369.2762, 899.9033
369.7583, 903.2567
370.2404, 906.6575
370.7226, 910.0848
371.2047, 913.5444
371.6868, 917.0117
372.1689, 920.2595
372.6510, 924.0938
373.1331, 928.6785
373.6153, 933.7916
374.0974, 939.1770
374.5795, 945.0952
375.0616, 950.6455
375.5437, 955.2308
376.0258, 958.7881
376.5080, 963.7631
376.9901, 970.6130
377.4722, 978.0441
377.9543, 984.7875
378.4364, 990.5901
378.9185, 997.1264
379.4007, 1004.795
379.8828, 1013.174
380.3649, 1020.658
380.8470, 1027.058
381.3291, 1033.658
381.8112, 1041.251
382.2934, 1049.802
382.7755, 1058.830
383.2576, 1068.573
383.7397, 1077.936
384.2218, 1085.066
384.7039, 1090.317
385.1861, 1095.244
385.6682, 1101.385
386.1503, 1107.513
386.6324, 1111.352
387.1145, 1112.813
387.5966, 1112.840
388.0788, 1112.440
388.5609, 1111.115
389.0430, 1107.979
389.5251, 1102.425
390.0072, 1095.321
390.4893, 1087.330
390.9715, 1078.507
391.4536, 1068.560
391.9357, 1056.440
392.4178, 1043.765
392.8999, 1031.991
393.3820, 1021.482
393.8642, 1011.079
394.3463, 999.7200
394.8284, 988.1580
395.3105, 977.7091
395.7926, 968.9247
396.2747, 961.0851
396.7569, 954.0278
397.2390, 947.7432
397.7211, 942.2355
398.2032, 937.8479
398.6853, 934.0199
399.1674, 930.3846
399.6496, 926.2152
400.1317, 923.0134
400.6138, 921.4600
401.0959, 921.0120
401.5780, 919.7971
402.0602, 917.3350
402.5423, 914.6233
403.0244, 911.9559
403.5065, 909.1039
403.9886, 907.0582
404.4707, 906.0726
404.9529, 905.6470
405.4350, 905.0832
405.9171, 904.2652
406.3992, 903.7069
406.8813, 903.5922
407.3634, 903.8632
407.8456, 904.1500
408.3277, 904.5004
408.8098, 904.6926
409.2919, 904.4079
409.7740, 903.6896
410.2561, 903.2868
410.7383, 903.3686
411.2204, 903.6685
411.7025, 903.5807
412.1846, 903.1888
412.6667, 903.1942
413.1488, 904.0352
413.6310, 905.5209
414.1131, 907.4625
414.5952, 909.8857
415.0773, 912.1281
415.5594, 913.4247
416.0415, 914.1614
416.5237, 915.0335
417.0058, 916.0897
417.4879, 917.5421
417.9700, 919.6784
418.4521, 922.3964
418.9342, 925.3223
419.4164, 928.5463
419.8985, 931.7102
420.3806, 934.1815
420.8627, 935.2789
421.3448, 937.6481
421.8269, 943.3502
422.3091, 950.6855
422.7912, 957.3057
423.2733, 962.3679
423.7554, 966.8768
424.2375, 970.9199
424.7196, 974.4679
425.2018, 978.4559
425.6839, 983.3364
426.1660, 988.3990
426.6481, 993.2675
427.1302, 997.1888
427.6123, 1001.997
428.0945, 1007.770
428.5766, 1014.497
429.0587, 1022.214
429.5408, 1030.972
430.0229, 1040.583
430.5050, 1051.069
430.9872, 1062.361
431.4693, 1073.582
431.9514, 1084.455
432.4335, 1096.160
432.9156, 1109.922
433.3977, 1125.742
433.8799, 1143.051
434.3620, 1161.794
434.8441, 1181.859
435.3262, 1203.502
435.8083, 1226.635
436.2904, 1249.671
436.7726, 1272.637
437.2547, 1294.677
437.7368, 1314.675
438.2189, 1333.006
438.7010, 1346.193
439.1831, 1351.861
439.6652, 1350.105
440.1473, 1341.029
440.6295, 1322.574
441.1116, 1298.664
441.5937, 1268.950
442.0758, 1235.017
442.5579, 1205.678
443.0400, 1184.693
443.5222, 1170.133
444.0043, 1160.952
444.4864, 1158.005
444.9685, 1157.959
445.4506, 1160.451
445.9327, 1165.043
446.4149, 1171.133
446.8970, 1178.458
447.3791, 1187.327
447.8612, 1197.781
448.3433, 1209.843
448.8254, 1223.750
449.3076, 1239.306
449.7897, 1256.704
450.2718, 1276.081
450.7539, 1297.214
451.2360, 1320.446
451.7181, 1345.662
452.2003, 1373.356
452.6824, 1404.064
453.1645, 1438.015
453.6466, 1474.707
454.1287, 1512.921
454.6108, 1553.588
455.0930, 1600.112
455.5751, 1653.095
456.0572, 1710.696
456.5393, 1771.216
457.0214, 1834.916
457.5035, 1900.550
457.9857, 1969.394
458.4678, 2038.465
458.9499, 2106.869
459.4320, 2172.740
459.9141, 2230.676
460.3962, 2281.269
460.8784, 2320.025
461.3605, 2342.227
461.8426, 2347.906
462.3247, 2334.523
462.8068, 2296.790
463.2889, 2240.953
463.7711, 2173.363
464.2532, 2090.276
464.7353, 2003.440
465.2174, 1914.018
465.6995, 1825.005
466.1816, 1741.651
466.6638, 1667.027
467.1459, 1598.943
467.6280, 1535.908
468.1101, 1477.978
468.5922, 1426.823
469.0743, 1384.292
469.5565, 1347.036
470.0386, 1312.699
470.5207, 1281.240
471.0028, 1253.584
471.4849, 1230.351
471.9670, 1210.877
472.4492, 1193.003
472.9313, 1176.867
473.4134, 1162.254
473.8955, 1149.224
474.3776, 1137.699
474.8597, 1127.064
475.3419, 1117.271
475.8240, 1108.307
476.3061, 1100.164
476.7882, 1092.834
477.2703, 1086.364
477.7524, 1080.883
478.2346, 1076.033
478.7167, 1071.409
479.1988, 1066.959
479.6809, 1062.491
480.1630, 1057.716
480.6451, 1052.976
481.1273, 1048.615
481.6094, 1044.646
482.0915, 1040.945
482.5736, 1037.202
483.0557, 1033.767
483.5378, 1030.932
484.0200, 1028.842
484.5021, 1027.265
484.9842, 1026.518
485.4663, 1026.247
485.9484, 1025.523
486.4305, 1023.636
486.9127, 1021.814
487.3948, 1020.430
487.8769, 1019.549
488.3590, 1018.708
488.8411, 1017.750
489.3232, 1017.017
489.8054, 1016.762
490.2875, 1016.938
490.7696, 1017.885
491.2517, 1019.838
491.7338, 1022.420
492.2159, 1024.672
492.6981, 1026.583
493.1802, 1028.665
493.6623, 1030.825
494.1444, 1033.347
494.6265, 1037.510
495.1086, 1043.395
495.5908, 1049.388
496.0729, 1053.946
496.5550, 1057.666
497.0371, 1061.672
497.5192, 1066.141
498.0013, 1071.041
498.4835, 1076.257
498.9656, 1081.886
499.4477, 1088.013
499.9298, 1094.787
500.4119, 1102.056
500.8940, 1109.422
501.3762, 1117.033
501.8583, 1125.976
502.3404, 1136.995
502.8225, 1149.358
503.3046, 1162.597
503.7867, 1176.884
504.2689, 1191.973
504.7510, 1207.396
505.2331, 1223.723
505.7152, 1242.315
506.1973, 1263.971
506.6794, 1285.720
507.1616, 1307.029
507.6437, 1327.976
508.1258, 1348.175
508.6079, 1368.026
509.0900, 1385.536
509.5721, 1400.686
510.0543, 1413.046
510.5364, 1418.377
511.0185, 1416.632
511.5006, 1406.927
511.9827, 1386.316
512.4648, 1356.588
512.9470, 1322.941
513.4291, 1284.594
513.9112, 1245.968
514.3933, 1210.339
514.8754, 1177.874
515.3575, 1149.194
515.8397, 1124.828
516.3218, 1104.226
516.8039, 1087.467
517.2860, 1074.790
517.7681, 1063.782
518.2502, 1053.495
518.7324, 1044.432
519.2145, 1037.043
519.6966, 1032.095
520.1787, 1027.989
520.6608, 1024.757
521.1429, 1022.230
521.6251, 1019.935
522.1072, 1017.636
522.5893, 1015.994
523.0714, 1015.364
523.5535, 1015.740
524.0356, 1015.890
524.5178, 1015.602
524.9999, 1015.854
525.4820, 1017.971
525.9641, 1021.682
526.4462, 1024.521
526.9283, 1026.099
527.4105, 1027.045
527.8926, 1027.867
528.3747, 1028.731
528.8568, 1030.140
529.3389, 1031.978
529.8210, 1034.704
530.3032, 1039.393
530.7853, 1045.634
531.2674, 1051.356
531.7495, 1054.774
532.2316, 1057.612
532.7137, 1060.892
533.1959, 1064.687
533.6780, 1069.333
534.1601, 1074.973
534.6422, 1081.510
535.1243, 1088.949
535.6064, 1097.360
536.0886, 1106.550
536.5707, 1116.760
537.0528, 1127.763
537.5349, 1138.201
538.0170, 1147.586
538.4991, 1157.741
538.9813, 1169.164
539.4634, 1181.963
539.9455, 1196.296
540.4276, 1212.285
540.9097, 1228.961
541.3918, 1244.735
541.8740, 1260.033
542.3561, 1276.519
542.8382, 1294.167
543.3203, 1313.648
543.8024, 1336.537
544.2845, 1361.936
544.7667, 1387.405
545.2488, 1410.788
545.7309, 1434.460
546.2130, 1459.611
546.6951, 1486.432
547.1772, 1514.755
547.6594, 1544.756
548.1415, 1576.083
548.6236, 1608.826
549.1057, 1642.958
549.5878, 1677.349
550.0699, 1713.897
550.5521, 1749.761
551.0342, 1782.871
551.5163, 1813.709
551.9984, 1841.025
552.4805, 1865.626
552.9626, 1886.073
553.4448, 1899.305
553.9269, 1905.612
554.4090, 1903.361
554.8911, 1891.080
555.3732, 1869.895
555.8553, 1843.348
556.3375, 1811.658
556.8196, 1774.860
557.3017, 1731.219
557.7838, 1683.435
558.2659, 1635.606
558.7480, 1587.971
559.2302, 1542.081
559.7123, 1497.834
560.1944, 1456.397
560.6765, 1419.173
561.1586, 1388.538
561.6407, 1359.672
562.1229, 1330.437
562.6050, 1301.874
563.0871, 1276.191
563.5692, 1254.078
564.0513, 1234.607
564.5334, 1217.658
565.0156, 1203.427
565.4977, 1190.014
565.9798, 1177.273
566.4619, 1165.873
566.9440, 1156.677
567.4261, 1149.930
567.9083, 1142.791
568.3904, 1134.969
568.8725, 1127.220
569.3546, 1120.387
569.8367, 1114.456
570.3188, 1109.084
570.8010, 1104.274
571.2831, 1099.914
571.7652, 1095.729
572.2473, 1091.855
572.7294, 1088.989
573.2115, 1089.140
573.6937, 1089.063
574.1758, 1085.823
574.6579, 1079.186
575.1400, 1073.868
575.6221, 1072.239
576.1042, 1071.737
576.5864, 1070.626
577.0685, 1068.018
577.5506, 1066.241
578.0327, 1065.685
578.5148, 1065.664
578.9969, 1065.309
579.4791, 1064.599
579.9612, 1063.535
580.4433, 1061.982
580.9254, 1060.181
581.4075, 1058.643
581.8896, 1057.367
582.3718, 1056.615
582.8539, 1056.994
583.3360, 1057.859
583.8181, 1057.804
584.3002, 1056.842
584.7823, 1055.573
585.2645, 1054.313
585.7466, 1053.059
586.2287, 1051.740
586.7108, 1050.271
587.1929, 1049.109
587.6750, 1048.353
588.1571, 1048.089
588.6392, 1048.399
589.1213, 1050.649
589.6035, 1051.848
590.0856, 1051.124
590.5677, 1049.205
591.0498, 1048.052
591.5319, 1047.855
592.0140, 1047.970
592.4962, 1048.168
592.9783, 1048.458
593.4604, 1049.076
593.9425, 1050.042
594.4246, 1050.992
594.9067, 1051.695
595.3889, 1052.142
595.8710, 1052.177
596.3531, 1051.710
596.8352, 1051.500
597.3173, 1052.714
597.7994, 1054.495
598.2816, 1055.554
598.7637, 1055.246
599.2458, 1054.641
599.7279, 1053.716
600.2100, 1052.950
600.6921, 1053.236
601.1743, 1056.507
601.6564, 1059.001
602.1385, 1059.497
602.6206, 1058.280
603.1027, 1057.392
603.5848, 1056.643
604.0670, 1056.609
604.5491, 1057.823
605.0312, 1060.295
605.5133, 1062.141
605.9954, 1063.250
606.4775, 1064.139
606.9597, 1065.334
607.4418, 1066.702
607.9239, 1067.655
608.4060, 1067.863
608.8881, 1068.479
609.3702, 1070.949
609.8524, 1074.579
610.3345, 1078.130
610.8166, 1080.863
611.2987, 1083.748
611.7808, 1087.188
612.2629, 1091.139
612.7451, 1095.431
613.2272, 1100.260
613.7093, 1105.257
614.1914, 1110.263
614.6735, 1115.255
615.1556, 1120.932
615.6378, 1127.486
616.1199, 1134.334
616.6020, 1140.935
617.0841, 1147.314
617.5662, 1154.703
618.0483, 1163.267
618.5305, 1172.104
619.0126, 1179.826
619.4947, 1187.048
619.9768, 1195.951
620.4589, 1207.386
620.9410, 1219.650
621.4232, 1230.600
621.9053, 1241.482
622.3874, 1254.654
622.8695, 1271.707
623.3516, 1290.577
623.8337, 1310.568
624.3159, 1331.809
624.7980, 1354.844
625.2801, 1381.208
625.7622, 1408.067
626.2443, 1434.663
626.7264, 1461.088
627.2086, 1487.501
627.6907, 1514.167
628.1728, 1540.428
628.6549, 1567.301
629.1370, 1594.175
629.6191, 1615.682
630.1013, 1631.993
630.5834, 1639.870
