##NAMES=Tundrite-(Ce)
##RRUFFID=R060837
##IDEAL CHEMISTRY=Na_2_Ce^3+^_2_Ti^4+^O_2_SiO_4_(CO_3_)_2_
##LOCALITY=Barkeviksjaer, Norway
##OWNER=RRUFF
##SOURCE=Michael Scott
##DESCRIPTION=Brown elongated bladed crystals associated with white orthoclase and black amphibole
##STATUS=The identification of this mineral is confirmed by single-crystal X-ray diffraction and chemical analysis.
##URL=rruff.info/R060837
##MEASURED CHEMISTRY=(Na_1.95_Ca_0.05_)_Σ=2_(Ce_1.15_La_0.60_Nd_0.25_)_Σ=2_(Ti_0.95_Nb_0.05_)_Σ=1_O_2_Si_1.00_O_4_(CO_3_)_2_; CO_2_ estimated by difference
125.8665, 400.2737
126.3486, 408.8150
126.8307, 424.2061
127.3128, 443.1123
127.7949, 467.5466
128.2770, 495.5335
128.7592, 521.6310
129.2413, 540.5133
129.7234, 551.0339
130.2055, 559.0142
130.6876, 567.3100
131.1698, 571.2093
131.6519, 565.2806
132.1340, 550.7579
132.6161, 535.2756
133.0982, 528.9284
133.5803, 538.1141
134.0625, 539.8669
134.5446, 522.8542
135.0267, 507.5555
135.5088, 510.8505
135.9909, 534.6989
136.4730, 564.8871
136.9552, 579.1994
137.4373, 554.7562
137.9194, 558.4634
138.4015, 611.8058
138.8836, 679.4184
139.3657, 730.1480
139.8479, 755.3547
140.3300, 768.2332
140.8121, 792.4353
141.2942, 837.4777
141.7763, 880.5552
142.2584, 921.5859
142.7406, 960.4810
143.2227, 997.1527
143.7048, 1031.728
144.1869, 1064.111
144.6690, 1094.261
145.1511, 1121.086
145.6333, 1147.368
146.1154, 1172.774
146.5975, 1198.078
147.0796, 1225.992
147.5617, 1258.336
148.0438, 1290.931
148.5260, 1311.644
149.0081, 1316.416
149.4902, 1319.244
149.9723, 1322.271
150.4544, 1325.888
150.9365, 1331.381
151.4187, 1339.905
151.9008, 1349.681
152.3829, 1355.362
152.8650, 1355.442
153.3471, 1354.805
153.8292, 1351.629
154.3114, 1348.572
154.7935, 1354.815
155.2756, 1378.253
155.7577, 1410.371
156.2398, 1427.570
156.7219, 1418.285
157.2041, 1411.921
157.6862, 1423.571
158.1683, 1451.069
158.6504, 1486.885
159.1325, 1533.783
159.6146, 1582.380
160.0968, 1609.578
160.5789, 1598.261
161.0610, 1588.387
161.5431, 1608.638
162.0252, 1655.864
162.5073, 1704.917
162.9895, 1744.866
163.4716, 1777.622
163.9537, 1808.950
164.4358, 1838.629
164.9179, 1867.479
165.4000, 1895.796
165.8822, 1923.548
166.3643, 1951.953
166.8464, 1983.974
167.3285, 2016.000
167.8106, 2041.358
168.2927, 2053.904
168.7749, 2066.171
169.2570, 2093.042
169.7391, 2135.139
170.2212, 2172.217
170.7033, 2190.986
171.1854, 2199.474
171.6676, 2209.897
172.1497, 2223.505
172.6318, 2240.223
173.1139, 2260.175
173.5960, 2283.550
174.0781, 2309.508
174.5603, 2341.944
175.0424, 2375.206
175.5245, 2400.643
176.0066, 2412.272
176.4887, 2420.875
176.9708, 2438.839
177.4530, 2467.014
177.9351, 2499.458
178.4172, 2541.159
178.8993, 2583.014
179.3814, 2611.265
179.8635, 2615.219
180.3457, 2614.291
180.8278, 2635.933
181.3099, 2684.528
181.7920, 2731.891
182.2741, 2766.512
182.7562, 2791.489
183.2384, 2806.565
183.7205, 2806.056
184.2026, 2803.902
184.6847, 2822.987
185.1668, 2869.060
185.6489, 2909.109
186.1311, 2917.338
186.6132, 2915.369
187.0953, 2924.612
187.5774, 2952.558
188.0595, 2991.270
188.5416, 3034.759
189.0238, 3087.694
189.5059, 3125.487
189.9880, 3121.780
190.4701, 3103.589
190.9522, 3095.113
191.4343, 3102.480
191.9165, 3123.093
192.3986, 3158.491
192.8807, 3214.178
193.3628, 3261.179
193.8449, 3271.401
194.3270, 3274.303
194.8092, 3299.194
195.2913, 3358.917
195.7734, 3431.301
196.2555, 3485.837
196.7376, 3519.622
197.2197, 3550.216
197.7019, 3580.056
198.1840, 3611.604
198.6661, 3645.836
199.1482, 3682.000
199.6303, 3724.600
200.1124, 3783.977
200.5946, 3865.095
201.0767, 3937.175
201.5588, 3981.908
202.0409, 4016.017
202.5230, 4052.559
203.0051, 4095.193
203.4873, 4136.947
203.9694, 4165.090
204.4515, 4175.647
204.9336, 4197.772
205.4157, 4247.883
205.8978, 4310.029
206.3800, 4376.181
206.8621, 4446.775
207.3442, 4510.257
207.8263, 4546.613
208.3084, 4551.874
208.7905, 4570.707
209.2727, 4633.420
209.7548, 4703.394
210.2369, 4751.889
210.7190, 4773.351
211.2011, 4783.886
211.6832, 4796.756
212.1654, 4811.898
212.6475, 4829.605
213.1296, 4851.120
213.6117, 4874.499
214.0938, 4899.449
214.5760, 4926.123
215.0581, 4950.438
215.5402, 4969.974
216.0223, 4984.692
216.5044, 4992.600
216.9865, 4988.146
217.4687, 4981.175
217.9508, 4979.262
218.4329, 4982.825
218.9150, 4988.421
219.3971, 4993.067
219.8792, 4997.120
220.3614, 5003.958
220.8435, 5014.787
221.3256, 5028.222
221.8077, 5044.304
222.2898, 5062.702
222.7719, 5079.038
223.2541, 5090.350
223.7362, 5097.075
224.2183, 5100.567
224.7004, 5097.893
225.1825, 5096.344
225.6646, 5098.897
226.1468, 5106.034
226.6289, 5121.634
227.1110, 5152.223
227.5931, 5193.233
228.0752, 5229.602
228.5573, 5256.656
229.0395, 5285.015
229.5216, 5325.311
230.0037, 5373.995
230.4858, 5419.845
230.9679, 5458.404
231.4500, 5490.601
231.9322, 5515.514
232.4143, 5528.839
232.8964, 5546.942
233.3785, 5587.459
233.8606, 5642.601
234.3427, 5694.966
234.8249, 5737.457
235.3070, 5774.884
235.7891, 5815.166
236.2712, 5859.959
236.7533, 5900.940
237.2354, 5931.640
237.7176, 5954.260
238.1997, 5972.267
238.6818, 5982.334
239.1639, 5990.895
239.6460, 6007.279
240.1281, 6031.980
240.6103, 6051.715
241.0924, 6055.960
241.5745, 6050.269
242.0566, 6049.413
242.5387, 6063.001
243.0208, 6072.774
243.5030, 6060.836
243.9851, 6029.869
244.4672, 6000.943
244.9493, 5985.780
245.4314, 5978.669
245.9135, 5965.268
246.3957, 5945.711
246.8778, 5920.167
247.3599, 5884.801
247.8420, 5842.677
248.3241, 5805.690
248.8062, 5780.583
249.2884, 5759.911
249.7705, 5725.612
250.2526, 5668.225
250.7347, 5621.906
251.2168, 5609.082
251.6989, 5614.172
252.1811, 5606.352
252.6632, 5574.145
253.1453, 5532.012
253.6274, 5507.045
254.1095, 5508.669
254.5916, 5492.395
255.0738, 5433.618
255.5559, 5359.065
256.0380, 5302.458
256.5201, 5271.650
257.0022, 5251.032
257.4843, 5221.788
257.9665, 5181.425
258.4486, 5141.202
258.9307, 5099.694
259.4128, 5059.634
259.8949, 5024.953
260.3770, 4995.361
260.8592, 4964.568
261.3413, 4924.336
261.8234, 4871.486
262.3055, 4837.749
262.7876, 4841.836
263.2697, 4846.171
263.7519, 4828.694
264.2340, 4792.322
264.7161, 4752.970
265.1982, 4723.102
265.6803, 4702.205
266.1624, 4672.809
266.6446, 4626.829
267.1267, 4582.291
267.6088, 4544.025
268.0909, 4511.112
268.5730, 4481.232
269.0551, 4452.889
269.5373, 4426.889
270.0194, 4406.866
270.5015, 4408.870
270.9836, 4398.389
271.4657, 4358.383
271.9478, 4309.166
272.4300, 4276.121
272.9121, 4269.347
273.3942, 4277.380
273.8763, 4274.354
274.3584, 4246.093
274.8405, 4231.643
275.3227, 4253.427
275.8048, 4275.256
276.2869, 4261.464
276.7690, 4207.044
277.2511, 4144.957
277.7332, 4123.811
278.2154, 4161.314
278.6975, 4181.226
279.1796, 4163.316
279.6617, 4142.794
280.1438, 4137.530
280.6259, 4147.456
281.1081, 4161.360
281.5902, 4169.305
282.0723, 4171.155
282.5544, 4175.157
283.0365, 4190.403
283.5186, 4196.936
284.0008, 4180.172
284.4829, 4148.748
284.9650, 4122.237
285.4471, 4114.311
285.9292, 4119.682
286.4113, 4120.088
286.8935, 4113.591
287.3756, 4106.162
287.8577, 4092.403
288.3398, 4081.443
288.8219, 4088.284
289.3040, 4124.636
289.7862, 4170.619
290.2683, 4196.775
290.7504, 4199.977
291.2325, 4206.419
291.7146, 4234.838
292.1967, 4266.697
292.6789, 4278.066
293.1610, 4260.357
293.6431, 4242.244
294.1252, 4247.273
294.6073, 4272.002
295.0894, 4295.752
295.5716, 4308.945
296.0537, 4324.740
296.5358, 4364.346
297.0179, 4429.890
297.5000, 4486.813
297.9821, 4515.734
298.4643, 4528.036
298.9464, 4544.048
299.4285, 4568.006
299.9106, 4590.121
300.3927, 4596.317
300.8748, 4586.377
301.3570, 4590.374
301.8391, 4624.858
302.3212, 4664.954
302.8033, 4688.846
303.2854, 4696.774
303.7675, 4703.905
304.2497, 4722.077
304.7318, 4750.055
305.2139, 4769.540
305.6960, 4770.174
306.1781, 4774.681
306.6602, 4797.423
307.1424, 4830.213
307.6245, 4856.621
308.1066, 4868.483
308.5887, 4868.781
309.0708, 4866.438
309.5529, 4852.008
310.0351, 4846.830
310.5172, 4860.752
310.9993, 4879.985
311.4814, 4890.391
311.9635, 4888.159
312.4456, 4880.024
312.9278, 4874.299
313.4099, 4866.040
313.8920, 4873.993
314.3741, 4910.922
314.8562, 4950.799
315.3383, 4980.466
315.8205, 4999.416
316.3026, 5013.836
316.7847, 5029.629
317.2668, 5046.793
317.7489, 5056.901
318.2310, 5046.267
318.7132, 5045.108
319.1953, 5072.837
319.6774, 5114.635
320.1595, 5144.029
320.6416, 5143.291
321.1237, 5127.694
321.6059, 5134.890
322.0880, 5173.492
322.5701, 5210.408
323.0522, 5231.271
323.5343, 5246.585
324.0164, 5264.354
324.4986, 5285.706
324.9807, 5313.077
325.4628, 5357.305
325.9449, 5415.917
326.4270, 5451.021
326.9091, 5440.875
327.3913, 5419.315
327.8734, 5421.730
328.3555, 5447.599
328.8376, 5478.612
329.3197, 5516.114
329.8018, 5550.981
330.2840, 5563.873
330.7661, 5549.856
331.2482, 5532.006
331.7303, 5529.201
332.2124, 5540.577
332.6945, 5552.667
333.1767, 5564.925
333.6588, 5577.488
334.1409, 5590.942
334.6230, 5605.007
335.1051, 5618.663
335.5872, 5631.642
336.0694, 5643.778
336.5515, 5654.396
337.0336, 5657.330
337.5157, 5666.614
337.9979, 5689.804
338.4800, 5718.841
338.9621, 5746.391
339.4442, 5769.695
339.9263, 5784.528
340.4084, 5781.902
340.8906, 5744.901
341.3727, 5731.656
341.8548, 5759.524
342.3369, 5792.839
342.8190, 5809.887
343.3011, 5811.672
343.7833, 5812.855
344.2654, 5827.137
344.7475, 5853.677
345.2296, 5869.504
345.7117, 5864.917
346.1938, 5860.961
346.6760, 5859.902
347.1581, 5863.980
347.6402, 5878.438
348.1223, 5908.092
348.6044, 5941.027
349.0865, 5952.298
349.5687, 5935.384
350.0508, 5925.552
350.5329, 5939.141
351.0150, 5959.532
351.4971, 5975.652
351.9792, 5986.172
352.4614, 5990.803
352.9435, 5989.085
353.4256, 5981.288
353.9077, 5965.787
354.3898, 5937.933
354.8719, 5912.826
355.3541, 5912.901
355.8362, 5930.812
356.3183, 5934.802
356.8004, 5905.275
357.2825, 5867.084
357.7646, 5841.989
358.2468, 5830.157
358.7289, 5827.740
359.2110, 5836.942
359.6931, 5851.745
360.1752, 5846.218
360.6573, 5802.095
361.1395, 5763.915
361.6216, 5750.259
362.1037, 5746.706
362.5858, 5730.691
363.0679, 5695.374
363.5500, 5654.927
364.0322, 5631.261
364.5143, 5632.857
364.9964, 5630.056
365.4785, 5626.364
365.9606, 5615.996
366.4427, 5587.859
366.9249, 5548.471
367.4070, 5519.037
367.8891, 5519.898
368.3712, 5545.287
368.8533, 5543.509
369.3354, 5490.464
369.8176, 5444.106
370.2997, 5425.387
370.7818, 5418.078
371.2639, 5403.313
371.7460, 5374.204
372.2281, 5338.539
372.7103, 5304.333
373.1924, 5271.432
373.6745, 5244.400
374.1566, 5228.508
374.6387, 5214.766
375.1208, 5195.375
375.6030, 5170.532
376.0851, 5145.385
376.5672, 5122.362
377.0493, 5100.654
377.5314, 5079.913
378.0135, 5060.544
378.4957, 5037.669
378.9778, 5004.637
379.4599, 4964.836
379.9420, 4934.772
380.4241, 4920.633
380.9063, 4910.183
381.3884, 4902.257
381.8705, 4893.376
382.3526, 4874.834
382.8347, 4842.821
383.3168, 4803.107
383.7990, 4766.607
384.2811, 4735.011
384.7632, 4703.628
385.2453, 4672.849
385.7274, 4642.063
386.2095, 4605.008
386.6917, 4565.563
387.1738, 4540.321
387.6559, 4547.943
388.1380, 4586.176
388.6201, 4597.462
389.1022, 4559.167
389.5844, 4520.471
390.0665, 4488.277
390.5486, 4463.780
391.0307, 4450.493
391.5128, 4450.543
391.9949, 4454.263
392.4771, 4446.588
392.9592, 4426.239
393.4413, 4408.190
393.9234, 4397.909
394.4055, 4388.177
394.8876, 4370.234
395.3698, 4345.493
395.8519, 4327.447
396.3340, 4327.586
396.8161, 4337.001
397.2982, 4342.076
397.7803, 4342.022
398.2625, 4337.745
398.7446, 4331.834
399.2267, 4321.267
399.7088, 4296.517
400.1909, 4235.336
400.6730, 4186.660
401.1552, 4181.606
401.6373, 4198.427
402.1194, 4196.977
402.6015, 4164.258
403.0836, 4123.736
403.5657, 4111.439
404.0479, 4141.764
404.5300, 4159.374
405.0121, 4156.129
405.4942, 4149.605
405.9763, 4150.425
406.4584, 4156.182
406.9406, 4157.517
407.4227, 4147.089
407.9048, 4129.016
408.3869, 4121.150
408.8690, 4132.829
409.3511, 4136.010
409.8333, 4114.381
410.3154, 4087.829
410.7975, 4074.285
411.2796, 4077.412
411.7617, 4085.679
412.2438, 4088.416
412.7260, 4087.072
413.2081, 4089.163
413.6902, 4094.190
414.1723, 4105.571
414.6544, 4133.480
415.1365, 4171.591
415.6187, 4198.589
416.1008, 4210.029
416.5829, 4209.290
417.0650, 4189.232
417.5471, 4156.994
418.0292, 4139.945
418.5114, 4152.068
418.9935, 4180.233
419.4756, 4196.848
419.9577, 4195.664
420.4398, 4193.998
420.9219, 4189.113
421.4041, 4186.368
421.8862, 4191.191
422.3683, 4202.908
422.8504, 4216.303
423.3325, 4227.464
423.8146, 4236.296
424.2968, 4241.756
424.7789, 4240.939
425.2610, 4240.748
425.7431, 4240.722
426.2252, 4243.022
426.7073, 4252.447
427.1895, 4270.705
427.6716, 4287.039
428.1537, 4284.728
428.6358, 4265.385
429.1179, 4257.366
429.6000, 4268.515
430.0822, 4285.583
430.5643, 4300.972
431.0464, 4313.993
431.5285, 4320.397
432.0106, 4315.354
432.4927, 4306.071
432.9749, 4294.969
433.4570, 4284.124
433.9391, 4283.872
434.4212, 4301.223
434.9033, 4327.187
435.3854, 4340.914
435.8676, 4333.800
436.3497, 4329.890
436.8318, 4332.365
437.3139, 4337.129
437.7960, 4342.307
438.2781, 4346.899
438.7603, 4348.602
439.2424, 4343.998
439.7245, 4334.665
440.2066, 4337.737
440.6887, 4366.622
441.1708, 4387.833
441.6530, 4390.371
442.1351, 4383.778
442.6172, 4374.525
443.0993, 4364.009
443.5814, 4361.356
444.0635, 4385.127
444.5457, 4429.325
445.0278, 4447.909
445.5099, 4424.963
445.9920, 4397.838
446.4741, 4400.420
446.9562, 4424.833
447.4384, 4445.882
447.9205, 4461.315
448.4026, 4470.470
448.8847, 4469.843
449.3668, 4462.354
449.8489, 4455.861
450.3311, 4453.526
450.8132, 4452.987
451.2953, 4449.732
451.7774, 4440.113
452.2595, 4436.794
452.7416, 4440.703
453.2238, 4449.640
453.7059, 4469.250
454.1880, 4493.347
454.6701, 4505.764
455.1522, 4493.836
455.6343, 4466.669
456.1165, 4453.680
456.5986, 4458.737
457.0807, 4467.796
457.5628, 4484.528
458.0449, 4499.189
458.5270, 4499.481
459.0092, 4485.010
459.4913, 4478.496
459.9734, 4501.988
460.4555, 4541.408
460.9376, 4568.252
461.4197, 4579.896
461.9019, 4585.488
462.3840, 4590.691
462.8661, 4594.193
463.3482, 4591.118
463.8303, 4575.030
464.3124, 4561.499
464.7946, 4552.345
465.2767, 4549.365
465.7588, 4559.016
466.2409, 4580.916
466.7230, 4601.221
467.2051, 4603.326
467.6873, 4585.273
468.1694, 4576.201
468.6515, 4585.246
469.1336, 4593.370
469.6157, 4592.877
470.0978, 4589.672
470.5800, 4594.085
471.0621, 4610.698
471.5442, 4626.144
472.0263, 4620.563
472.5084, 4595.790
472.9905, 4580.948
473.4727, 4586.916
473.9548, 4592.061
474.4369, 4567.093
474.9190, 4521.868
475.4011, 4497.479
475.8832, 4518.877
476.3654, 4547.222
476.8475, 4556.500
477.3296, 4551.775
477.8117, 4548.676
478.2938, 4553.724
478.7759, 4557.957
479.2581, 4544.867
479.7402, 4501.560
480.2223, 4475.486
480.7044, 4478.055
481.1865, 4484.586
481.6686, 4485.001
482.1508, 4479.681
482.6329, 4471.677
483.1150, 4462.116
483.5971, 4452.441
484.0792, 4445.315
484.5613, 4440.812
485.0435, 4438.620
485.5256, 4439.370
486.0077, 4441.862
486.4898, 4446.251
486.9719, 4452.103
487.4540, 4454.496
487.9362, 4449.017
488.4183, 4440.824
488.9004, 4435.471
489.3825, 4432.611
489.8646, 4429.901
490.3467, 4426.792
490.8289, 4421.566
491.3110, 4409.788
491.7931, 4381.878
492.2752, 4363.443
492.7573, 4367.921
493.2394, 4370.587
493.7216, 4348.489
494.2037, 4308.029
494.6858, 4274.998
495.1679, 4268.128
495.6500, 4279.010
496.1321, 4282.277
496.6143, 4276.914
497.0964, 4267.149
497.5785, 4246.434
498.0606, 4227.640
498.5427, 4225.440
499.0248, 4240.001
499.5070, 4249.931
499.9891, 4244.611
500.4712, 4229.520
500.9533, 4209.167
501.4355, 4184.632
501.9176, 4160.828
502.3997, 4139.415
502.8818, 4122.352
503.3639, 4115.623
503.8460, 4133.703
504.3282, 4140.759
504.8103, 4126.567
505.2924, 4108.374
505.7745, 4100.472
506.2566, 4101.292
506.7387, 4097.917
507.2209, 4077.964
507.7030, 4050.222
508.1851, 4048.980
508.6672, 4086.364
509.1493, 4110.293
509.6314, 4096.622
510.1136, 4069.441
510.5957, 4048.872
511.0778, 4035.872
511.5599, 4027.162
512.0420, 4022.475
512.5241, 4020.546
513.0062, 4019.964
513.4883, 4020.649
513.9705, 4023.675
514.4526, 4030.606
514.9347, 4038.339
515.4168, 4038.511
515.8989, 4030.076
516.3810, 4014.742
516.8632, 3977.832
517.3453, 3946.220
517.8274, 3942.335
518.3095, 3961.014
518.7916, 3981.166
519.2737, 3989.830
519.7559, 3988.886
520.2380, 3981.431
520.7201, 3966.061
521.2022, 3951.700
521.6843, 3938.426
522.1664, 3929.672
522.6486, 3931.025
523.1307, 3942.199
523.6128, 3948.987
524.0949, 3948.846
524.5770, 3940.863
525.0591, 3917.876
525.5413, 3885.086
526.0234, 3859.588
526.5055, 3849.077
526.9876, 3852.249
527.4697, 3868.779
527.9518, 3916.676
528.4340, 3937.271
528.9161, 3908.385
529.3982, 3877.117
529.8803, 3867.693
530.3624, 3874.620
530.8445, 3883.350
531.3267, 3889.656
531.8088, 3887.142
532.2909, 3857.548
532.7730, 3802.362
533.2551, 3767.719
533.7372, 3771.065
534.2194, 3784.045
534.7015, 3770.822
535.1836, 3734.675
535.6657, 3724.931
536.1478, 3776.077
536.6299, 3824.868
537.1121, 3831.294
537.5942, 3812.456
538.0763, 3799.754
538.5584, 3803.988
539.0405, 3817.765
539.5226, 3832.778
540.0048, 3850.446
540.4869, 3859.283
540.9690, 3854.080
541.4511, 3846.215
541.9332, 3842.936
542.4153, 3838.697
542.8975, 3823.254
543.3796, 3791.245
543.8617, 3760.502
544.3438, 3747.316
544.8259, 3746.126
545.3080, 3743.324
545.7902, 3737.047
546.2723, 3727.168
546.7544, 3711.617
547.2365, 3692.024
547.7186, 3682.972
548.2007, 3692.922
548.6829, 3701.188
549.1650, 3701.839
549.6471, 3701.297
550.1292, 3707.685
550.6113, 3720.381
551.0934, 3729.933
551.5756, 3727.154
552.0577, 3715.521
552.5398, 3708.814
553.0219, 3708.238
553.5040, 3707.877
553.9861, 3705.754
554.4683, 3702.814
554.9504, 3698.968
555.4325, 3693.709
555.9146, 3693.832
556.3967, 3706.818
556.8788, 3721.872
557.3610, 3730.571
557.8431, 3732.938
558.3252, 3730.012
558.8073, 3721.855
559.2894, 3712.729
559.7715, 3713.174
560.2537, 3732.142
560.7358, 3736.851
561.2179, 3714.134
561.7000, 3689.073
562.1821, 3668.757
562.6642, 3653.905
563.1464, 3645.730
563.6285, 3647.229
564.1106, 3649.126
564.5927, 3642.766
565.0748, 3629.019
565.5569, 3608.541
566.0391, 3580.117
566.5212, 3555.556
567.0033, 3547.617
567.4854, 3555.328
567.9675, 3551.362
568.4496, 3521.467
568.9318, 3499.543
569.4139, 3493.556
569.8960, 3498.162
570.3781, 3514.501
570.8602, 3538.628
571.3423, 3553.470
571.8245, 3539.418
572.3066, 3505.311
572.7887, 3483.811
573.2708, 3476.210
573.7529, 3475.573
574.2350, 3482.486
574.7172, 3492.514
575.1993, 3498.884
575.6814, 3501.002
576.1635, 3504.963
576.6456, 3516.530
577.1277, 3526.582
577.6099, 3529.070
578.0920, 3524.410
578.5741, 3513.830
579.0562, 3497.795
579.5383, 3479.674
580.0204, 3465.705
580.5026, 3457.082
580.9847, 3445.814
581.4668, 3424.674
581.9489, 3410.402
582.4310, 3414.169
582.9132, 3428.589
583.3953, 3442.547
583.8774, 3456.979
584.3596, 3461.006
584.8417, 3433.285
585.3238, 3395.289
585.8059, 3391.379
586.2880, 3424.778
586.7701, 3454.942
587.2523, 3450.885
587.7344, 3418.694
588.2165, 3388.551
588.6986, 3357.980
589.1807, 3333.794
589.6628, 3309.737
590.1450, 3297.175
590.6271, 3314.892
591.1092, 3353.523
591.5913, 3376.750
592.0734, 3355.838
592.5555, 3319.873
593.0377, 3311.388
593.5198, 3325.362
594.0019, 3330.127
594.4840, 3315.321
594.9661, 3295.680
595.4482, 3288.551
595.9304, 3295.635
596.4125, 3294.073
596.8946, 3274.647
597.3767, 3258.721
597.8588, 3257.301
598.3409, 3259.738
598.8231, 3252.927
599.3052, 3234.800
599.7873, 3214.687
600.2694, 3199.095
600.7515, 3188.293
601.2336, 3185.156
601.7158, 3191.009
602.1979, 3192.811
602.6800, 3183.601
603.1621, 3169.340
603.6442, 3160.261
604.1263, 3157.883
604.6085, 3152.736
605.0906, 3142.508
605.5727, 3130.651
606.0548, 3118.568
606.5369, 3106.428
607.0190, 3094.269
607.5012, 3082.130
607.9833, 3069.244
608.4654, 3052.239
608.9475, 3031.483
609.4296, 3022.727
609.9117, 3034.230
610.3939, 3037.457
610.8760, 3007.423
611.3581, 2962.118
611.8402, 2939.640
612.3223, 2949.047
612.8044, 2957.903
613.2866, 2958.035
613.7687, 2952.899
614.2508, 2941.675
614.7329, 2927.755
615.2150, 2920.162
615.6971, 2924.144
616.1793, 2934.873
616.6614, 2944.712
617.1435, 2955.051
617.6256, 2954.668
618.1077, 2939.773
