##NAMES=Tunellite
##RRUFFID=R070755
##IDEAL CHEMISTRY=SrB_6_O_9_(OH)_2_&#183;3H_2_O
##LOCALITY=Jennifer mine, U.S. Borax Mine, Boron, Kramer District, Kern County, California, USA
##OWNER=RRUFF
##SOURCE=Michael Scott
##DESCRIPTION=Colorless rhombohedron with defined cleavage
##STATUS=The identification of this mineral has been confirmed by single-crystal X-ray diffraction.
##URL=rruff.info/R070755
172.8132, 6550.995
173.2953, 6471.243
173.7774, 6414.457
174.2595, 6379.542
174.7416, 6356.528
175.2237, 6340.284
175.7059, 6330.658
176.1880, 6325.941
176.6701, 6337.645
177.1522, 6344.295
177.6343, 6324.642
178.1164, 6278.109
178.5986, 6233.828
179.0807, 6229.378
179.5628, 6276.652
180.0449, 6313.926
180.5270, 6335.105
181.0091, 6341.849
181.4913, 6327.032
181.9734, 6289.947
182.4555, 6247.931
182.9376, 6233.118
183.4197, 6267.095
183.9018, 6285.669
184.3840, 6272.496
184.8661, 6248.795
185.3482, 6230.466
185.8303, 6224.043
186.3124, 6228.598
186.7945, 6242.791
187.2767, 6289.179
187.7588, 6315.744
188.2409, 6310.244
188.7230, 6286.118
189.2051, 6257.321
189.6872, 6230.364
190.1694, 6205.961
190.6515, 6186.909
191.1336, 6184.390
191.6157, 6174.874
192.0978, 6151.651
192.5799, 6118.788
193.0621, 6085.089
193.5442, 6056.859
194.0263, 6031.955
194.5084, 5985.609
194.9905, 5905.666
195.4726, 5822.495
195.9548, 5745.227
196.4369, 5673.533
196.9190, 5603.912
197.4011, 5532.161
197.8832, 5460.249
198.3653, 5402.691
198.8475, 5375.246
199.3296, 5347.747
199.8117, 5296.571
200.2938, 5224.070
200.7759, 5157.557
201.2580, 5118.400
201.7402, 5105.662
202.2223, 5091.336
202.7044, 5066.342
203.1865, 5044.650
203.6686, 5044.448
204.1507, 5067.909
204.6329, 5088.412
205.1150, 5080.891
205.5971, 5052.091
206.0792, 5025.736
206.5613, 5006.904
207.0434, 4992.734
207.5256, 4979.763
208.0077, 4967.929
208.4898, 4956.876
208.9719, 4949.075
209.4540, 4942.308
209.9361, 4930.360
210.4183, 4906.963
210.9004, 4877.249
211.3825, 4854.604
211.8646, 4845.815
212.3467, 4830.887
212.8288, 4788.340
213.3110, 4728.611
213.7931, 4677.748
214.2752, 4655.317
214.7573, 4654.596
215.2394, 4648.038
215.7215, 4632.792
216.2037, 4614.112
216.6858, 4590.176
217.1679, 4564.587
217.6500, 4547.650
218.1321, 4552.478
218.6142, 4576.675
219.0964, 4589.333
219.5785, 4583.766
220.0606, 4572.302
220.5427, 4556.968
221.0248, 4540.099
221.5069, 4527.381
221.9891, 4529.168
222.4712, 4546.962
222.9533, 4545.001
223.4354, 4498.293
223.9175, 4452.553
224.3996, 4425.857
224.8818, 4416.525
225.3639, 4412.953
225.8460, 4404.220
226.3281, 4388.997
226.8102, 4378.006
227.2923, 4380.471
227.7745, 4379.412
228.2566, 4361.785
228.7387, 4331.670
229.2208, 4306.044
229.7029, 4305.938
230.1850, 4340.909
230.6672, 4357.826
231.1493, 4338.957
231.6314, 4318.461
232.1135, 4313.806
232.5956, 4324.417
233.0777, 4337.484
233.5599, 4337.374
234.0420, 4316.501
234.5241, 4310.706
235.0062, 4329.086
235.4883, 4352.350
235.9704, 4369.950
236.4526, 4381.412
236.9347, 4393.380
237.4168, 4414.717
237.8989, 4452.403
238.3810, 4475.715
238.8631, 4478.277
239.3453, 4474.303
239.8274, 4469.243
240.3095, 4465.137
240.7916, 4464.110
241.2737, 4469.131
241.7558, 4483.315
242.2380, 4494.028
242.7201, 4494.409
243.2022, 4496.766
243.6843, 4514.059
244.1664, 4545.434
244.6485, 4574.655
245.1307, 4581.659
245.6128, 4556.036
246.0949, 4540.363
246.5770, 4534.624
247.0591, 4537.572
247.5412, 4553.571
248.0234, 4580.991
248.5055, 4607.200
248.9876, 4616.968
249.4697, 4603.262
249.9518, 4596.330
250.4339, 4604.970
250.9161, 4614.064
251.3982, 4612.244
251.8803, 4598.173
252.3624, 4576.748
252.8445, 4550.300
253.3266, 4513.111
253.8088, 4502.070
254.2909, 4543.505
254.7730, 4593.116
255.2551, 4613.537
255.7372, 4600.796
256.2193, 4580.200
256.7014, 4578.144
257.1836, 4600.114
257.6657, 4615.514
258.1478, 4629.067
258.6299, 4633.012
259.1120, 4615.579
259.5941, 4576.794
260.0763, 4535.750
260.5584, 4512.774
261.0405, 4511.766
261.5226, 4498.052
262.0047, 4458.121
262.4868, 4414.006
262.9690, 4384.761
263.4511, 4371.888
263.9332, 4363.318
264.4153, 4349.958
264.8974, 4331.020
265.3795, 4305.219
265.8617, 4264.395
266.3438, 4221.985
266.8259, 4190.359
267.3080, 4170.048
267.7901, 4151.529
268.2722, 4126.926
268.7544, 4095.978
269.2365, 4067.303
269.7186, 4039.803
270.2007, 4015.523
270.6828, 3997.034
271.1649, 3984.116
271.6471, 3973.403
272.1292, 3963.487
272.6113, 3953.765
273.0934, 3940.382
273.5755, 3917.836
274.0576, 3895.681
274.5398, 3881.419
275.0219, 3874.941
275.5040, 3871.077
275.9861, 3866.449
276.4682, 3861.686
276.9503, 3859.708
277.4325, 3864.946
277.9146, 3869.428
278.3967, 3865.207
278.8788, 3853.552
279.3609, 3845.245
279.8430, 3848.262
280.3252, 3859.937
280.8073, 3867.225
281.2894, 3863.301
281.7715, 3861.262
282.2536, 3871.605
282.7357, 3892.303
283.2179, 3912.281
283.7000, 3927.549
284.1821, 3936.567
284.6642, 3936.147
285.1463, 3908.856
285.6284, 3894.064
286.1106, 3925.919
286.5927, 3992.960
287.0748, 4048.442
287.5569, 4070.781
288.0390, 4068.066
288.5211, 4063.610
289.0033, 4058.366
289.4854, 4050.143
289.9675, 4030.535
290.4496, 4005.811
290.9317, 3997.578
291.4138, 4019.011
291.8960, 4055.107
292.3781, 4074.919
292.8602, 4075.100
293.3423, 4072.380
293.8244, 4074.332
294.3065, 4078.307
294.7887, 4077.025
295.2708, 4066.438
295.7529, 4053.262
296.2350, 4053.015
296.7171, 4071.091
297.1992, 4076.087
297.6814, 4043.075
298.1635, 3993.317
298.6456, 3967.132
299.1277, 3978.498
299.6098, 4002.890
300.0919, 4003.967
300.5741, 3979.765
301.0562, 3960.493
301.5383, 3955.367
302.0204, 3958.185
302.5025, 3962.428
302.9846, 3967.302
303.4668, 3969.389
303.9489, 3962.954
304.4310, 3947.399
304.9131, 3935.260
305.3952, 3921.455
305.8773, 3915.461
306.3595, 3932.982
306.8416, 3975.900
307.3237, 4019.392
307.8058, 4036.514
308.2879, 4026.341
308.7701, 4036.340
309.2522, 4084.676
309.7343, 4142.280
310.2164, 4184.756
310.6985, 4211.887
311.1806, 4240.067
311.6628, 4280.179
312.1449, 4333.177
312.6270, 4397.025
313.1091, 4478.047
313.5912, 4563.280
314.0733, 4647.512
314.5555, 4729.805
315.0376, 4807.802
315.5197, 4876.433
316.0018, 4940.340
316.4839, 5025.478
316.9660, 5146.796
317.4482, 5269.856
317.9303, 5387.968
318.4124, 5498.571
318.8945, 5592.542
319.3766, 5660.574
319.8587, 5716.611
320.3409, 5807.641
320.8230, 5962.738
321.3051, 6107.360
321.7872, 6217.164
322.2693, 6309.160
322.7514, 6403.337
323.2336, 6506.047
323.7157, 6624.784
324.1978, 6776.997
324.6799, 6967.999
325.1620, 7183.696
325.6441, 7427.140
326.1263, 7691.482
326.6084, 7968.907
327.0905, 8257.144
327.5726, 8564.414
328.0547, 8908.668
328.5368, 9307.925
329.0190, 9697.563
329.5011, 10086.83
329.9832, 10459.76
330.4653, 10828.52
330.9474, 11182.30
331.4295, 11476.63
331.9117, 11671.78
332.3938, 11772.44
332.8759, 11720.12
333.3580, 11472.76
333.8401, 11144.14
334.3222, 10772.10
334.8044, 10365.98
335.2865, 9922.829
335.7686, 9436.703
336.2507, 8908.509
336.7328, 8395.758
337.2149, 7870.548
337.6971, 7392.063
338.1792, 6977.975
338.6613, 6619.360
339.1434, 6305.945
339.6255, 6031.606
340.1076, 5790.871
340.5898, 5557.025
341.0719, 5306.065
341.5540, 5096.333
342.0361, 4951.040
342.5182, 4842.428
343.0003, 4741.542
343.4825, 4636.946
343.9646, 4536.052
344.4467, 4453.868
344.9288, 4398.291
345.4109, 4347.999
345.8930, 4302.699
346.3752, 4260.463
346.8573, 4220.971
347.3394, 4183.882
347.8215, 4146.424
348.3036, 4102.568
348.7857, 4046.736
349.2679, 4006.342
349.7500, 3984.560
350.2321, 3976.226
350.7142, 3986.237
351.1963, 4010.032
351.6784, 4033.555
352.1606, 4044.092
352.6427, 4042.051
353.1248, 4041.094
353.6069, 4038.960
354.0890, 4041.136
354.5711, 4051.362
355.0533, 4067.020
355.5354, 4082.732
356.0175, 4094.196
356.4996, 4104.342
356.9817, 4122.441
357.4638, 4152.421
357.9460, 4181.794
358.4281, 4206.312
358.9102, 4227.237
359.3923, 4245.076
359.8744, 4259.088
360.3565, 4272.348
360.8387, 4292.656
361.3208, 4322.289
361.8029, 4338.667
362.2850, 4325.938
362.7671, 4301.585
363.2492, 4281.582
363.7314, 4267.488
364.2135, 4257.452
364.6956, 4251.148
365.1777, 4248.117
365.6598, 4247.404
366.1419, 4254.287
366.6241, 4254.868
367.1062, 4224.788
367.5883, 4167.113
368.0704, 4130.688
368.5525, 4150.874
369.0346, 4200.877
369.5168, 4234.958
369.9989, 4246.426
370.4810, 4252.307
370.9631, 4268.355
371.4452, 4291.947
371.9273, 4307.640
372.4095, 4320.659
372.8916, 4319.859
373.3737, 4286.521
373.8558, 4224.802
374.3379, 4170.193
374.8200, 4146.683
375.3022, 4145.480
375.7843, 4127.161
376.2664, 4076.705
376.7485, 4028.349
377.2306, 3996.754
377.7127, 3975.616
378.1949, 3953.600
378.6770, 3926.395
379.1591, 3895.368
379.6412, 3863.136
380.1233, 3823.196
380.6054, 3794.247
381.0876, 3788.768
381.5697, 3788.546
382.0518, 3774.290
382.5339, 3743.282
383.0160, 3709.016
383.4981, 3687.971
383.9803, 3684.724
384.4624, 3675.071
384.9445, 3654.223
385.4266, 3632.579
385.9087, 3613.982
386.3908, 3598.862
386.8730, 3587.417
387.3551, 3580.388
387.8372, 3576.980
388.3193, 3568.582
388.8014, 3542.243
389.2835, 3526.100
389.7657, 3531.161
390.2478, 3546.969
390.7299, 3560.944
391.2120, 3567.666
391.6941, 3569.470
392.1762, 3572.049
392.6584, 3579.192
393.1405, 3577.242
393.6226, 3556.901
394.1047, 3532.677
394.5868, 3513.108
395.0689, 3499.831
395.5511, 3490.985
396.0332, 3484.822
396.5153, 3481.362
396.9974, 3481.407
397.4795, 3488.361
397.9616, 3494.911
398.4438, 3499.566
398.9259, 3500.949
399.4080, 3495.124
399.8901, 3472.672
400.3722, 3443.739
400.8543, 3433.490
401.3365, 3446.692
401.8186, 3459.805
402.3007, 3456.599
402.7828, 3446.240
403.2649, 3443.018
403.7470, 3453.031
404.2292, 3464.500
404.7113, 3468.960
405.1934, 3466.762
405.6755, 3458.930
406.1576, 3444.027
406.6397, 3425.902
407.1219, 3409.757
407.6040, 3394.718
408.0861, 3384.574
408.5682, 3380.956
409.0503, 3382.801
409.5324, 3391.050
410.0146, 3405.817
410.4967, 3419.603
410.9788, 3424.409
411.4609, 3418.742
411.9430, 3415.008
412.4251, 3415.097
412.9073, 3415.308
413.3894, 3412.793
413.8715, 3408.516
414.3536, 3404.928
414.8357, 3403.077
415.3178, 3403.873
415.8000, 3411.669
416.2821, 3431.978
416.7642, 3453.102
417.2463, 3479.736
417.7284, 3503.997
418.2105, 3512.452
418.6927, 3502.654
419.1748, 3492.145
419.6569, 3512.112
420.1390, 3582.792
420.6211, 3627.677
421.1032, 3631.304
421.5854, 3624.176
422.0675, 3613.905
422.5496, 3604.836
423.0317, 3603.652
423.5138, 3616.693
423.9959, 3641.988
424.4781, 3668.681
424.9602, 3698.496
425.4423, 3726.319
425.9244, 3754.208
426.4065, 3777.968
426.8886, 3790.842
427.3708, 3788.210
427.8529, 3780.122
428.3350, 3777.973
428.8171, 3781.812
429.2992, 3789.048
429.7813, 3796.492
430.2635, 3810.179
430.7456, 3838.145
431.2277, 3881.343
431.7098, 3921.823
432.1919, 3949.094
432.6740, 3968.418
433.1562, 3990.334
433.6383, 4016.660
434.1204, 4040.931
434.6025, 4055.225
435.0846, 4060.986
435.5667, 4075.946
436.0489, 4120.602
436.5310, 4156.281
437.0131, 4145.702
437.4952, 4105.741
437.9773, 4088.153
438.4594, 4120.667
438.9416, 4184.762
439.4237, 4230.385
439.9058, 4242.778
440.3879, 4257.434
440.8700, 4275.778
441.3521, 4297.328
441.8343, 4323.718
442.3164, 4354.152
442.7985, 4382.498
443.2806, 4399.402
443.7627, 4400.332
444.2448, 4421.849
444.7270, 4479.753
445.2091, 4542.616
445.6912, 4602.579
446.1733, 4659.922
446.6554, 4716.092
447.1375, 4771.448
447.6197, 4827.878
448.1018, 4890.151
448.5839, 4957.079
449.0660, 5032.890
449.5481, 5112.841
450.0302, 5205.811
450.5124, 5325.166
450.9945, 5472.032
451.4766, 5623.896
451.9587, 5757.357
452.4408, 5879.120
452.9229, 6017.981
453.4051, 6178.764
453.8872, 6356.406
454.3693, 6544.256
454.8514, 6744.744
455.3335, 6968.828
455.8156, 7223.699
456.2978, 7502.039
456.7799, 7794.308
457.2620, 8103.904
457.7441, 8448.392
458.2262, 8844.714
458.7083, 9270.075
459.1904, 9660.609
459.6725, 10000.85
460.1547, 10341.10
460.6368, 10719.11
461.1189, 11086.30
461.6010, 11406.33
462.0831, 11666.14
462.5652, 11838.90
463.0474, 11893.63
463.5295, 11822.13
464.0116, 11700.41
464.4937, 11531.22
464.9758, 11313.65
465.4579, 11026.90
465.9401, 10695.98
466.4222, 10351.86
466.9043, 10012.16
467.3864, 9675.163
467.8685, 9337.179
468.3506, 8986.858
468.8328, 8665.379
469.3149, 8383.459
469.7970, 8131.860
470.2791, 7909.566
470.7612, 7715.550
471.2433, 7537.887
471.7255, 7366.440
472.2076, 7204.802
472.6897, 7069.381
473.1718, 6967.128
473.6539, 6872.553
474.1360, 6767.544
474.6182, 6658.600
475.1003, 6558.419
475.5824, 6471.870
476.0645, 6390.758
476.5466, 6308.458
477.0287, 6226.940
477.5109, 6151.704
477.9930, 6084.759
478.4751, 6025.706
478.9572, 5976.065
479.4393, 5940.125
479.9214, 5899.406
480.4036, 5852.285
480.8857, 5800.930
481.3678, 5747.096
481.8499, 5690.352
482.3320, 5626.588
482.8141, 5550.188
483.2963, 5466.358
483.7784, 5411.311
484.2605, 5429.723
484.7426, 5417.098
485.2247, 5328.499
485.7068, 5221.198
486.1890, 5155.939
486.6711, 5146.177
487.1532, 5148.979
487.6353, 5109.833
488.1174, 5026.176
488.5995, 4963.436
489.0817, 4938.953
489.5638, 4917.102
490.0459, 4873.655
490.5280, 4817.480
491.0101, 4769.190
491.4922, 4743.178
491.9744, 4722.199
492.4565, 4680.999
492.9386, 4621.533
493.4207, 4574.672
493.9028, 4559.436
494.3849, 4553.859
494.8671, 4514.120
495.3492, 4430.593
495.8313, 4362.454
496.3134, 4333.189
496.7955, 4319.745
497.2776, 4299.168
497.7598, 4269.781
498.2419, 4242.850
498.7240, 4228.938
499.2061, 4226.281
499.6882, 4210.193
500.1703, 4167.417
500.6525, 4127.202
501.1346, 4097.780
501.6167, 4071.817
502.0988, 4036.761
502.5809, 3990.267
503.0630, 3947.694
503.5452, 3934.046
504.0273, 3955.754
504.5094, 3959.750
504.9915, 3929.103
505.4736, 3898.243
505.9557, 3882.928
506.4379, 3879.792
506.9200, 3881.263
507.4021, 3888.231
507.8842, 3893.223
508.3663, 3883.076
508.8484, 3858.422
509.3306, 3836.352
509.8127, 3821.628
510.2948, 3813.634
510.7769, 3811.127
511.2590, 3813.352
511.7411, 3822.667
512.2233, 3843.202
512.7054, 3868.776
513.1875, 3895.630
513.6696, 3922.438
514.1517, 3944.084
514.6339, 3955.161
515.1160, 3959.170
515.5981, 3978.311
516.0802, 4030.398
516.5623, 4076.114
517.0444, 4101.282
517.5266, 4124.517
518.0087, 4166.956
518.4908, 4231.391
518.9729, 4300.308
519.4550, 4355.815
519.9371, 4397.759
520.4193, 4432.963
520.9014, 4461.441
521.3835, 4482.262
521.8656, 4497.221
522.3477, 4504.726
522.8298, 4504.101
523.3120, 4499.668
523.7941, 4476.548
524.2762, 4413.230
524.7583, 4315.903
525.2404, 4212.715
525.7225, 4107.542
526.2047, 4007.812
526.6868, 3924.194
527.1689, 3857.236
527.6510, 3792.317
528.1331, 3723.995
528.6152, 3660.665
529.0974, 3608.081
529.5795, 3564.881
530.0616, 3527.284
530.5437, 3493.717
531.0258, 3462.381
531.5079, 3428.265
531.9901, 3384.738
532.4722, 3350.991
532.9543, 3338.799
533.4364, 3325.606
533.9185, 3294.130
534.4006, 3247.727
534.8828, 3203.812
535.3649, 3176.864
535.8470, 3160.441
536.3291, 3131.775
536.8112, 3084.657
537.2933, 3049.017
537.7755, 3047.340
538.2576, 3056.334
538.7397, 3045.826
539.2218, 3010.023
539.7039, 2982.689
540.1860, 2988.182
540.6682, 3009.666
541.1503, 3021.898
541.6324, 3021.950
542.1145, 3017.072
542.5966, 3011.987
543.0787, 3006.654
543.5609, 3000.737
544.0430, 2992.874
544.5251, 2986.173
545.0072, 2977.847
545.4893, 2972.784
545.9714, 2978.397
546.4536, 2995.159
546.9357, 3014.188
547.4178, 3023.128
547.8999, 3021.163
548.3820, 3038.017
548.8641, 3096.913
549.3463, 3141.054
549.8284, 3138.025
550.3105, 3113.890
550.7926, 3104.311
551.2747, 3120.779
551.7568, 3147.820
552.2390, 3170.775
552.7211, 3192.207
553.2032, 3223.752
553.6853, 3269.732
554.1674, 3317.962
554.6495, 3356.871
555.1317, 3386.651
555.6138, 3417.859
556.0959, 3444.771
556.5780, 3479.482
557.0601, 3526.242
557.5422, 3584.859
558.0244, 3657.558
558.5065, 3744.392
558.9886, 3835.776
559.4707, 3914.154
559.9528, 3971.029
560.4349, 4047.949
560.9171, 4162.393
561.3992, 4279.944
561.8813, 4382.674
562.3634, 4481.428
562.8455, 4599.976
563.3276, 4752.094
563.8098, 4915.709
564.2919, 5059.489
564.7740, 5184.973
565.2561, 5320.999
565.7382, 5486.366
566.2203, 5643.634
566.7025, 5747.584
567.1846, 5803.431
567.6667, 5850.511
568.1488, 5924.742
568.6309, 5964.272
569.1130, 5923.224
569.5952, 5815.816
570.0773, 5674.713
570.5594, 5513.567
571.0415, 5336.019
571.5236, 5150.382
572.0057, 4951.629
572.4879, 4756.197
572.9700, 4559.172
573.4521, 4370.220
573.9342, 4189.477
574.4163, 4020.674
574.8984, 3869.569
575.3806, 3739.281
575.8627, 3627.263
576.3448, 3533.167
576.8269, 3457.295
577.3090, 3379.304
577.7911, 3288.649
578.2733, 3204.030
578.7554, 3149.636
579.2375, 3121.839
579.7196, 3093.033
580.2017, 3056.667
580.6838, 3018.739
581.1660, 2978.491
581.6481, 2939.934
582.1302, 2913.881
582.6123, 2905.367
583.0944, 2904.069
583.5765, 2891.286
584.0587, 2860.203
584.5408, 2837.254
585.0229, 2830.099
585.5050, 2822.824
585.9871, 2803.236
586.4692, 2779.311
586.9514, 2768.294
587.4335, 2780.184
587.9156, 2801.372
588.3977, 2810.655
588.8798, 2808.771
589.3619, 2816.042
589.8441, 2841.489
590.3262, 2868.384
590.8083, 2875.026
591.2904, 2865.107
591.7725, 2868.007
592.2546, 2901.643
592.7368, 2935.273
593.2189, 2944.990
593.7010, 2942.558
594.1831, 2953.408
594.6652, 2986.314
595.1473, 3027.647
595.6295, 3057.925
596.1116, 3075.608
596.5937, 3089.496
597.0758, 3100.715
597.5579, 3106.441
598.0400, 3109.545
598.5222, 3105.370
599.0043, 3085.353
599.4864, 3045.049
599.9685, 2996.485
600.4506, 2948.524
600.9327, 2902.407
601.4149, 2864.738
601.8970, 2837.279
602.3791, 2815.775
602.8612, 2797.966
603.3433, 2783.689
603.8254, 2769.114
604.3076, 2751.818
604.7897, 2737.042
605.2718, 2724.050
605.7539, 2715.798
606.2360, 2718.645
606.7181, 2732.677
607.2003, 2747.969
607.6824, 2752.486
608.1645, 2746.650
608.6466, 2751.757
609.1287, 2775.840
609.6108, 2797.612
610.0930, 2804.263
610.5751, 2808.259
611.0572, 2824.820
611.5393, 2857.345
612.0214, 2890.065
612.5035, 2910.532
612.9857, 2924.774
613.4678, 2941.066
613.9499, 2960.533
614.4320, 2991.190
614.9141, 3040.445
615.3962, 3103.163
615.8784, 3161.848
616.3605, 3210.162
616.8426, 3262.971
617.3247, 3323.293
617.8068, 3386.551
618.2889, 3446.052
618.7711, 3504.580
619.2532, 3574.104
619.7353, 3666.855
620.2174, 3769.980
620.6995, 3843.572
621.1816, 3879.828
621.6638, 3933.698
622.1459, 4032.362
622.6280, 4141.472
623.1101, 4227.384
623.5922, 4291.311
624.0743, 4349.142
624.5565, 4407.452
625.0386, 4459.203
625.5207, 4494.438
626.0028, 4518.615
626.4849, 4543.967
626.9670, 4574.917
627.4492, 4615.689
627.9313, 4673.127
628.4134, 4749.654
628.8955, 4832.483
629.3776, 4935.414
629.8597, 5029.994
630.3419, 5093.073
630.8240, 5145.941
631.3061, 5228.043
631.7882, 5357.823
632.2703, 5482.773
632.7524, 5538.775
633.2346, 5547.237
633.7167, 5584.985
634.1988, 5666.191
634.6809, 5745.601
635.1630, 5788.881
635.6451, 5801.362
636.1273, 5817.360
636.6094, 5844.888
637.0915, 5864.807
637.5736, 5878.062
638.0557, 5879.670
638.5378, 5862.653
639.0200, 5828.266
639.5021, 5784.878
639.9842, 5737.451
640.4663, 5687.328
640.9484, 5640.875
641.4305, 5598.905
641.9127, 5557.918
642.3948, 5524.958
642.8769, 5484.715
643.3590, 5417.154
643.8411, 5323.233
644.3232, 5236.403
644.8054, 5167.127
645.2875, 5107.250
645.7696, 5055.059
646.2517, 5007.333
646.7338, 4958.638
647.2159, 4907.089
647.6981, 4849.962
648.1802, 4781.102
648.6623, 4697.192
649.1444, 4620.276
649.6265, 4546.975
650.1086, 4486.117
650.5908, 4447.729
651.0729, 4419.939
651.5550, 4385.925
652.0371, 4340.715
652.5192, 4292.787
653.0013, 4247.787
653.4835, 4204.837
653.9656, 4163.361
654.4477, 4123.188
654.9298, 4077.739
655.4119, 4020.539
655.8940, 3956.485
656.3762, 3905.457
656.8583, 3874.253
657.3404, 3847.494
657.8225, 3829.325
658.3046, 3811.909
658.7867, 3788.567
659.2689, 3760.882
659.7510, 3736.260
660.2331, 3720.601
660.7152, 3705.943
661.1973, 3674.910
661.6794, 3628.151
662.1616, 3590.690
662.6437, 3570.596
663.1258, 3555.081
663.6079, 3531.761
664.0900, 3501.076
664.5721, 3473.527
665.0543, 3449.843
665.5364, 3428.757
666.0185, 3409.989
666.5006, 3393.578
666.9827, 3380.064
667.4648, 3369.317
667.9470, 3359.972
668.4291, 3351.539
668.9112, 3343.292
669.3933, 3331.967
