##NAMES=Tunellite
##RRUFFID=R070755
##IDEAL CHEMISTRY=SrB_6_O_9_(OH)_2_&#183;3H_2_O
##LOCALITY=Jennifer mine, U.S. Borax Mine, Boron, Kramer District, Kern County, California, USA
##OWNER=RRUFF
##SOURCE=Michael Scott
##DESCRIPTION=Colorless rhombohedron with defined cleavage
##STATUS=The identification of this mineral has been confirmed by single-crystal X-ray diffraction.
##URL=rruff.info/R070755
164.5130, 10690.88
164.9951, 10663.75
165.4772, 10637.61
165.9593, 10620.88
166.4414, 10622.57
166.9236, 10671.78
167.4057, 10722.07
167.8878, 10738.11
168.3699, 10716.60
168.8520, 10691.31
169.3341, 10677.29
169.8163, 10674.62
170.2984, 10683.58
170.7805, 10718.49
171.2626, 10758.47
171.7447, 10784.51
172.2268, 10795.73
172.7090, 10790.07
173.1911, 10752.77
173.6732, 10693.43
174.1553, 10643.66
174.6374, 10635.86
175.1195, 10645.67
175.6017, 10634.30
176.0838, 10582.35
176.5659, 10523.34
177.0480, 10498.63
177.5301, 10505.19
178.0122, 10516.23
178.4944, 10509.34
178.9765, 10491.21
179.4586, 10477.48
179.9407, 10476.14
180.4228, 10479.99
180.9049, 10477.85
181.3871, 10469.61
181.8692, 10456.08
182.3513, 10436.92
182.8334, 10413.04
183.3155, 10386.91
183.7976, 10357.17
184.2797, 10326.26
184.7619, 10299.63
185.2440, 10275.58
185.7261, 10262.59
186.2082, 10280.13
186.6903, 10325.36
187.1724, 10366.08
187.6546, 10383.60
188.1367, 10381.49
188.6188, 10376.69
189.1009, 10369.58
189.5830, 10361.80
190.0651, 10359.19
190.5473, 10361.85
191.0294, 10358.28
191.5115, 10333.25
191.9936, 10289.04
192.4757, 10258.86
192.9578, 10254.75
193.4400, 10264.23
193.9221, 10251.31
194.4042, 10214.90
194.8863, 10162.35
195.3684, 10088.48
195.8505, 9992.479
196.3327, 9923.468
196.8148, 9903.988
197.2969, 9925.113
197.7790, 9923.658
198.2611, 9894.886
198.7432, 9858.255
199.2254, 9836.968
199.7075, 9832.402
200.1896, 9831.900
200.6717, 9829.212
201.1538, 9824.103
201.6359, 9833.708
202.1181, 9863.670
202.6002, 9899.265
203.0823, 9907.387
203.5644, 9876.488
204.0465, 9865.427
204.5286, 9917.560
205.0108, 10048.08
205.4929, 10122.50
205.9750, 10122.11
206.4571, 10073.61
206.9392, 10044.33
207.4213, 10039.63
207.9035, 10038.73
208.3856, 10028.58
208.8677, 10005.80
209.3498, 9988.197
209.8319, 9980.608
210.3140, 9978.930
210.7962, 9963.144
211.2783, 9928.080
211.7604, 9889.586
212.2425, 9858.021
212.7246, 9831.287
213.2067, 9819.936
213.6889, 9832.902
214.1710, 9867.604
214.6531, 9879.458
215.1352, 9860.825
215.6173, 9831.403
216.0994, 9808.704
216.5816, 9790.143
217.0637, 9785.251
217.5458, 9800.983
218.0279, 9839.063
218.5100, 9862.530
218.9921, 9863.969
219.4743, 9857.437
219.9564, 9861.979
220.4385, 9882.945
220.9206, 9902.966
221.4027, 9916.935
221.8848, 9924.735
222.3670, 9926.785
222.8491, 9923.267
223.3312, 9913.601
223.8133, 9894.735
224.2954, 9856.875
224.7775, 9826.635
225.2596, 9816.700
225.7418, 9838.092
226.2239, 9848.848
226.7060, 9842.319
227.1881, 9827.295
227.6702, 9829.342
228.1523, 9865.927
228.6345, 9893.673
229.1166, 9888.671
229.5987, 9833.462
230.0808, 9785.006
230.5629, 9742.648
231.0450, 9708.713
231.5272, 9694.824
232.0093, 9714.054
232.4914, 9736.416
232.9735, 9744.027
233.4556, 9730.959
233.9377, 9714.486
234.4199, 9692.678
234.9020, 9667.102
235.3841, 9654.615
235.8662, 9663.956
236.3483, 9676.771
236.8304, 9678.323
237.3126, 9659.882
237.7947, 9647.053
238.2768, 9642.088
238.7589, 9645.053
239.2410, 9661.180
239.7231, 9700.912
240.2053, 9743.385
240.6874, 9766.960
241.1695, 9754.638
241.6516, 9754.869
242.1337, 9785.707
242.6158, 9852.303
243.0980, 9880.146
243.5801, 9844.357
244.0622, 9790.609
244.5443, 9773.331
245.0264, 9812.576
245.5085, 9853.823
245.9907, 9884.437
246.4728, 9902.780
246.9549, 9919.978
247.4370, 9933.823
247.9191, 9948.064
248.4012, 9968.178
248.8834, 9996.218
249.3655, 10026.93
249.8476, 10061.83
250.3297, 10106.32
250.8118, 10132.42
251.2939, 10133.12
251.7761, 10119.19
252.2582, 10108.91
252.7403, 10101.02
253.2224, 10098.65
253.7045, 10102.86
254.1866, 10113.96
254.6688, 10132.26
255.1509, 10165.40
255.6330, 10201.94
256.1151, 10213.15
256.5972, 10182.30
257.0793, 10155.44
257.5615, 10157.09
258.0436, 10206.27
258.5257, 10228.67
259.0078, 10210.68
259.4899, 10170.47
259.9720, 10161.60
260.4542, 10204.57
260.9363, 10241.65
261.4184, 10238.36
261.9005, 10176.49
262.3826, 10132.33
262.8647, 10110.95
263.3469, 10109.53
263.8290, 10122.79
264.3111, 10159.50
264.7932, 10193.20
265.2753, 10208.80
265.7574, 10203.94
266.2396, 10187.12
266.7217, 10156.32
267.2038, 10114.36
267.6859, 10067.26
268.1680, 10007.06
268.6501, 9959.923
269.1323, 9952.066
269.6144, 9996.028
270.0965, 10020.33
270.5786, 10011.98
271.0607, 9978.278
271.5428, 9948.833
272.0250, 9924.518
272.5071, 9903.285
272.9892, 9883.939
273.4713, 9866.970
273.9534, 9849.780
274.4355, 9829.835
274.9177, 9809.732
275.3998, 9804.511
275.8819, 9819.847
276.3640, 9833.335
276.8461, 9823.945
277.3282, 9789.307
277.8104, 9753.742
278.2925, 9718.646
278.7746, 9686.523
279.2567, 9672.209
279.7388, 9679.555
280.2209, 9689.987
280.7031, 9683.811
281.1852, 9660.041
281.6673, 9644.582
282.1494, 9646.178
282.6315, 9659.775
283.1136, 9665.338
283.5958, 9662.500
284.0779, 9653.946
284.5600, 9634.512
285.0421, 9605.040
285.5242, 9596.461
286.0063, 9627.051
286.4884, 9681.490
286.9706, 9702.089
287.4527, 9684.813
287.9348, 9661.296
288.4169, 9661.304
288.8990, 9683.010
289.3811, 9712.637
289.8633, 9752.939
290.3454, 9795.690
290.8275, 9815.574
291.3096, 9811.411
291.7917, 9797.260
292.2738, 9780.006
292.7560, 9762.139
293.2381, 9756.703
293.7202, 9777.759
294.2023, 9810.160
294.6844, 9816.950
295.1665, 9797.338
295.6487, 9774.899
296.1308, 9775.463
296.6129, 9792.375
297.0950, 9802.729
297.5771, 9792.906
298.0592, 9775.326
298.5414, 9772.226
299.0235, 9783.696
299.5056, 9797.084
299.9877, 9794.233
300.4698, 9784.367
300.9519, 9789.102
301.4341, 9819.734
301.9162, 9866.486
302.3983, 9929.021
302.8804, 10005.90
303.3625, 10063.85
303.8446, 10055.31
304.3268, 10009.96
304.8089, 9980.963
305.2910, 10000.82
305.7731, 10037.65
306.2552, 10061.50
306.7373, 10073.03
307.2195, 10080.89
307.7016, 10090.69
308.1837, 10100.99
308.6658, 10109.60
309.1479, 10103.43
309.6300, 10104.56
310.1122, 10135.76
310.5943, 10195.58
311.0764, 10253.11
311.5585, 10291.29
312.0406, 10316.71
312.5227, 10337.14
313.0049, 10341.05
313.4870, 10352.33
313.9691, 10384.94
314.4512, 10438.32
314.9333, 10500.40
315.4154, 10576.46
315.8976, 10653.86
316.3797, 10720.64
316.8618, 10771.08
317.3439, 10812.27
317.8260, 10841.35
318.3081, 10859.77
318.7903, 10881.90
319.2724, 10908.98
319.7545, 10943.51
320.2366, 10987.47
320.7187, 11047.15
321.2008, 11110.81
321.6830, 11160.52
322.1651, 11201.70
322.6472, 11287.68
323.1293, 11495.12
323.6114, 11712.12
324.0935, 11863.26
324.5757, 11851.70
325.0578, 11869.64
325.5399, 11937.02
326.0220, 12053.69
326.5041, 12218.19
326.9862, 12445.85
327.4684, 12710.88
327.9505, 13000.72
328.4326, 13349.08
328.9147, 13679.48
329.3968, 14000.75
329.8789, 14304.85
330.3611, 14552.53
330.8432, 14749.66
331.3253, 14886.54
331.8074, 14960.11
332.2895, 14985.88
332.7716, 14917.78
333.2538, 14734.05
333.7359, 14453.47
334.2180, 14146.92
334.7001, 13800.22
335.1822, 13446.57
335.6643, 13104.28
336.1465, 12766.80
336.6286, 12453.70
337.1107, 12167.80
337.5928, 11907.44
338.0749, 11671.62
338.5570, 11453.89
339.0392, 11280.38
339.5213, 11183.15
340.0034, 11172.58
340.4855, 11136.87
340.9676, 11062.58
341.4497, 10969.00
341.9319, 10895.01
342.4140, 10842.04
342.8961, 10798.46
343.3782, 10760.75
343.8603, 10728.58
344.3424, 10695.07
344.8246, 10654.55
345.3067, 10625.55
345.7888, 10645.96
346.2709, 10712.98
346.7530, 10780.43
347.2351, 10827.58
347.7173, 10857.08
348.1994, 10872.00
348.6815, 10867.79
349.1636, 10869.89
349.6457, 10915.91
350.1278, 10996.59
350.6100, 11076.95
351.0921, 11137.50
351.5742, 11187.46
352.0563, 11239.29
352.5384, 11292.33
353.0205, 11354.75
353.5027, 11443.44
353.9848, 11546.65
354.4669, 11638.66
354.9490, 11699.17
355.4311, 11749.88
355.9132, 11806.42
356.3954, 11869.40
356.8775, 11946.34
357.3596, 12056.21
357.8417, 12179.91
358.3238, 12294.54
358.8059, 12394.64
359.2881, 12481.11
359.7702, 12543.87
360.2523, 12585.51
360.7344, 12642.23
361.2165, 12742.66
361.6986, 12858.72
362.1808, 12967.12
362.6629, 13039.80
363.1450, 13125.74
363.6271, 13243.60
364.1092, 13389.73
364.5913, 13538.38
365.0735, 13691.12
365.5556, 13840.14
366.0377, 13980.48
366.5198, 14073.93
367.0019, 14203.99
367.4840, 14413.84
367.9662, 14677.62
368.4482, 14881.32
368.9304, 15022.85
369.4125, 15103.67
369.8946, 15121.08
370.3767, 15046.89
370.8588, 14958.03
371.3409, 14859.12
371.8231, 14744.11
372.3052, 14597.10
372.7873, 14415.94
373.2694, 14207.66
373.7515, 13966.10
374.2336, 13673.66
374.7158, 13428.13
375.1979, 13244.71
375.6800, 13092.32
376.1621, 12916.42
376.6442, 12711.64
377.1263, 12502.26
377.6085, 12286.24
378.0906, 12068.22
378.5727, 11882.00
379.0548, 11731.64
379.5369, 11605.92
380.0190, 11498.29
380.5012, 11407.43
380.9833, 11322.42
381.4654, 11236.01
381.9475, 11153.20
382.4296, 11082.07
382.9117, 11022.83
383.3939, 10979.12
383.8760, 10969.45
384.3581, 10980.75
384.8402, 10971.75
385.3223, 10918.34
385.8044, 10850.03
386.2866, 10810.16
386.7687, 10795.82
387.2508, 10783.53
387.7329, 10752.01
388.2150, 10714.41
388.6971, 10688.52
389.1793, 10683.02
389.6614, 10684.29
390.1435, 10682.60
390.6256, 10679.58
391.1077, 10679.95
391.5898, 10690.03
392.0720, 10702.21
392.5541, 10711.78
393.0362, 10719.18
393.5183, 10720.52
394.0004, 10712.71
394.4825, 10697.82
394.9647, 10679.69
395.4468, 10642.82
395.9289, 10616.43
396.4110, 10616.23
396.8931, 10652.16
397.3752, 10681.77
397.8574, 10705.96
398.3395, 10718.39
398.8216, 10710.66
399.3037, 10651.89
399.7858, 10607.63
400.2679, 10592.19
400.7501, 10607.33
401.2322, 10628.54
401.7143, 10666.31
402.1964, 10700.05
402.6785, 10710.89
403.1606, 10691.40
403.6428, 10666.38
404.1249, 10634.48
404.6070, 10599.65
405.0891, 10589.43
405.5712, 10613.85
406.0533, 10633.88
406.5355, 10616.28
407.0176, 10558.07
407.4997, 10513.02
407.9818, 10489.83
408.4639, 10477.39
408.9460, 10448.06
409.4282, 10401.91
409.9103, 10365.13
410.3924, 10355.08
410.8745, 10366.46
411.3566, 10385.93
411.8387, 10415.92
412.3209, 10439.64
412.8030, 10425.11
413.2851, 10385.77
413.7672, 10361.12
414.2493, 10386.16
414.7314, 10427.58
415.2136, 10443.24
415.6957, 10431.45
416.1778, 10420.12
416.6599, 10431.29
417.1420, 10454.24
417.6241, 10474.58
418.1063, 10484.01
418.5884, 10492.60
419.0705, 10508.04
419.5526, 10528.50
420.0347, 10543.22
420.5168, 10544.87
420.9990, 10541.22
421.4811, 10537.73
421.9632, 10538.82
422.4453, 10536.00
422.9274, 10531.67
423.4095, 10523.29
423.8917, 10503.28
424.3738, 10442.54
424.8559, 10396.12
425.3380, 10387.12
425.8201, 10436.19
426.3022, 10466.86
426.7844, 10468.85
427.2665, 10458.71
427.7486, 10460.35
428.2307, 10476.60
428.7128, 10497.59
429.1949, 10524.24
429.6771, 10555.48
430.1592, 10567.91
430.6413, 10553.92
431.1234, 10539.29
431.6055, 10552.82
432.0876, 10595.15
432.5698, 10636.06
433.0519, 10669.86
433.5340, 10697.83
434.0161, 10727.44
434.4982, 10758.50
434.9803, 10778.05
435.4625, 10773.56
435.9446, 10750.60
436.4267, 10716.54
436.9088, 10664.27
437.3909, 10626.63
437.8730, 10658.55
438.3552, 10737.83
438.8373, 10801.95
439.3194, 10800.03
439.8015, 10779.21
440.2836, 10783.08
440.7657, 10816.75
441.2479, 10855.71
441.7300, 10892.73
442.2121, 10924.96
442.6942, 10949.58
443.1763, 10962.21
443.6584, 10969.98
444.1406, 10971.63
444.6227, 10968.01
445.1048, 10970.83
445.5869, 10986.23
446.0690, 11006.07
446.5511, 11025.56
447.0333, 11033.44
447.5154, 11055.71
447.9975, 11100.26
448.4796, 11159.04
448.9617, 11209.39
449.4438, 11241.34
449.9260, 11279.80
450.4081, 11335.45
450.8902, 11410.28
451.3723, 11490.88
451.8544, 11583.70
452.3365, 11672.46
452.8186, 11723.68
453.3008, 11730.96
453.7829, 11772.98
454.2650, 11881.00
454.7471, 12039.47
455.2292, 12199.29
455.7113, 12360.83
456.1935, 12527.14
456.6756, 12703.52
457.1577, 12886.72
457.6398, 13077.40
458.1219, 13271.47
458.6040, 13476.92
459.0862, 13709.32
459.5683, 13959.91
460.0504, 14204.67
460.5325, 14463.47
461.0146, 14688.08
461.4967, 14828.27
461.9789, 14869.43
462.4610, 14876.26
462.9431, 14898.99
463.4252, 14901.35
463.9073, 14835.81
464.3894, 14650.91
464.8716, 14432.65
465.3537, 14195.88
465.8358, 13941.76
466.3179, 13703.71
466.8000, 13478.88
467.2821, 13273.39
467.7643, 13090.25
468.2464, 12933.05
468.7285, 12792.86
469.2106, 12678.37
469.6927, 12579.86
470.1748, 12470.61
470.6570, 12341.17
471.1391, 12223.46
471.6212, 12132.38
472.1033, 12068.22
472.5854, 12014.45
473.0675, 11975.26
473.5497, 11936.14
474.0318, 11875.57
474.5139, 11795.68
474.9960, 11720.17
475.4781, 11650.20
475.9602, 11593.57
476.4424, 11574.17
476.9245, 11589.81
477.4066, 11608.53
477.8887, 11610.42
478.3708, 11599.86
478.8529, 11579.00
479.3351, 11539.63
479.8172, 11512.23
480.2993, 11539.29
480.7814, 11594.93
481.2635, 11624.76
481.7456, 11581.22
482.2278, 11526.57
482.7099, 11489.02
483.1920, 11470.79
483.6741, 11467.97
484.1562, 11495.84
484.6383, 11530.03
485.1205, 11549.57
485.6026, 11546.01
486.0847, 11534.76
486.5668, 11516.14
487.0489, 11490.49
487.5310, 11456.90
488.0132, 11403.56
488.4953, 11362.41
488.9774, 11355.53
489.4595, 11393.91
489.9416, 11407.63
490.4237, 11391.68
490.9059, 11359.92
491.3880, 11330.80
491.8701, 11304.72
492.3522, 11277.58
492.8343, 11244.68
493.3164, 11211.70
493.7986, 11198.60
494.2807, 11205.09
494.7628, 11205.03
495.2449, 11167.94
495.7270, 11111.59
496.2091, 11068.16
496.6913, 11045.76
497.1734, 11032.48
497.6555, 11017.47
498.1376, 11003.85
498.6197, 10998.90
499.1018, 11018.30
499.5840, 11036.38
500.0661, 11037.05
500.5482, 11016.28
501.0303, 10996.44
501.5124, 10986.76
501.9945, 10977.62
502.4767, 10960.39
502.9588, 10926.58
503.4409, 10894.55
503.9230, 10867.71
504.4051, 10844.45
504.8872, 10811.85
505.3694, 10749.70
505.8515, 10766.21
506.3336, 10814.94
506.8157, 10856.49
507.2978, 10891.24
507.7799, 10898.83
508.2621, 10941.50
508.7442, 10970.11
509.2263, 10998.14
509.7084, 11045.74
510.1905, 11057.28
510.6726, 11104.57
511.1548, 11081.65
511.6369, 11093.20
512.1190, 11103.39
512.6011, 11121.13
513.0832, 11154.25
513.5653, 11215.69
514.0474, 11313.77
514.5295, 11421.58
515.0117, 11527.14
515.4938, 11630.94
515.9759, 11732.30
516.4580, 11814.83
516.9401, 11911.66
517.4222, 12038.63
517.9044, 12197.37
518.3865, 12361.97
518.8686, 12538.30
519.3507, 12713.85
519.8328, 12884.46
520.3149, 13056.41
520.7971, 13210.35
521.2792, 13355.92
521.7613, 13477.40
522.2434, 13530.70
522.7255, 13503.97
523.2076, 13461.27
523.6898, 13441.37
524.1719, 13433.38
524.6540, 13338.80
525.1361, 13149.80
525.6182, 12935.79
526.1003, 12765.69
526.5825, 12626.28
527.0646, 12479.40
527.5467, 12314.00
528.0288, 12147.61
528.5109, 11992.76
528.9930, 11852.93
529.4752, 11733.44
529.9573, 11649.02
530.4394, 11578.72
530.9215, 11506.67
531.4036, 11428.52
531.8857, 11367.43
532.3679, 11346.07
532.8500, 11337.40
533.3321, 11317.17
533.8142, 11274.35
534.2963, 11228.22
534.7784, 11172.13
535.2606, 11113.20
535.7427, 11079.69
536.2248, 11087.45
536.7069, 11089.82
537.1890, 11065.45
537.6711, 11012.37
538.1533, 10958.29
538.6354, 10900.89
539.1175, 10848.17
539.5996, 10809.71
540.0817, 10784.46
540.5638, 10768.73
541.0460, 10764.44
541.5281, 10765.71
542.0102, 10763.88
542.4923, 10759.62
542.9744, 10755.70
543.4565, 10760.44
543.9387, 10762.53
544.4208, 10746.44
544.9029, 10707.30
545.3850, 10675.36
545.8671, 10674.43
546.3492, 10684.20
546.8314, 10682.46
547.3135, 10650.26
547.7956, 10621.39
548.2777, 10596.86
548.7598, 10579.37
549.2419, 10582.12
549.7241, 10624.55
550.2062, 10660.52
550.6883, 10666.92
551.1704, 10635.36
551.6525, 10624.07
552.1346, 10634.20
552.6168, 10661.84
553.0989, 10716.71
553.5810, 10796.17
554.0631, 10840.51
554.5452, 10825.26
555.0273, 10780.63
555.5095, 10753.15
555.9916, 10742.84
556.4737, 10750.98
556.9558, 10783.75
557.4379, 10832.52
557.9200, 10889.12
558.4022, 10952.75
558.8843, 11021.09
559.3664, 11104.40
559.8485, 11186.97
560.3306, 11252.94
560.8127, 11259.25
561.2949, 11291.08
561.7770, 11376.10
562.2591, 11502.61
562.7412, 11623.84
563.2233, 11739.46
563.7054, 11848.52
564.1876, 11941.74
564.6697, 12013.75
565.1518, 12137.98
565.6339, 12336.19
566.1160, 12534.09
566.5981, 12654.48
567.0803, 12698.35
567.5624, 12726.28
568.0445, 12752.32
568.5266, 12761.85
569.0087, 12728.15
569.4908, 12655.41
569.9730, 12562.76
570.4551, 12452.50
570.9372, 12331.63
571.4193, 12195.59
571.9014, 12045.75
572.3835, 11911.85
572.8657, 11822.52
573.3478, 11749.98
573.8299, 11672.65
574.3120, 11586.43
574.7941, 11493.09
575.2762, 11375.55
575.7584, 11252.79
576.2405, 11165.83
576.7226, 11131.85
577.2047, 11105.72
577.6868, 11077.03
578.1689, 11045.95
578.6511, 11015.82
579.1332, 10986.72
579.6153, 10957.90
580.0974, 10932.21
580.5795, 10907.67
581.0616, 10866.51
581.5438, 10800.47
582.0259, 10739.96
582.5080, 10737.91
582.9901, 10771.61
583.4722, 10784.88
583.9543, 10717.22
584.4365, 10649.48
584.9186, 10656.19
585.4007, 10723.44
585.8828, 10774.58
586.3649, 10773.00
586.8470, 10749.35
587.3292, 10716.19
587.8113, 10662.83
588.2934, 10632.76
588.7755, 10645.86
589.2576, 10670.50
589.7397, 10668.91
590.2219, 10623.32
590.7040, 10601.79
591.1861, 10623.13
591.6682, 10671.01
592.1503, 10696.26
592.6324, 10697.61
593.1146, 10696.60
593.5967, 10704.11
594.0788, 10718.05
594.5609, 10736.51
595.0430, 10759.77
595.5251, 10774.35
596.0073, 10761.65
596.4894, 10735.92
596.9715, 10715.29
597.4536, 10704.05
597.9357, 10698.99
598.4178, 10706.12
598.9000, 10717.48
599.3821, 10717.73
599.8642, 10710.08
600.3463, 10683.87
600.8284, 10628.15
601.3105, 10544.06
601.7927, 10479.07
602.2748, 10436.64
602.7569, 10408.00
603.2390, 10391.21
603.7211, 10387.43
604.2032, 10382.43
604.6854, 10376.88
605.1675, 10366.67
605.6496, 10336.61
606.1317, 10294.43
606.6138, 10273.36
607.0959, 10292.08
607.5781, 10327.50
608.0602, 10350.84
608.5423, 10366.99
609.0244, 10394.29
609.5065, 10457.63
609.9886, 10522.44
610.4708, 10561.37
610.9529, 10566.92
611.4350, 10587.24
611.9171, 10651.55
612.3992, 10721.62
612.8813, 10767.44
613.3635, 10772.70
613.8456, 10785.53
614.3277, 10806.29
614.8098, 10837.43
615.2919, 10884.28
615.7740, 10947.25
616.2562, 11019.30
616.7383, 11097.38
617.2204, 11182.80
617.7025, 11282.45
618.1846, 11396.05
618.6667, 11504.20
619.1489, 11584.80
619.6310, 11656.40
620.1131, 11742.51
620.5952, 11848.91
621.0773, 11958.80
621.5594, 12072.37
622.0416, 12180.00
622.5237, 12270.83
623.0058, 12332.28
623.4879, 12388.86
623.9700, 12440.66
624.4521, 12490.33
624.9343, 12544.46
625.4164, 12601.91
625.8985, 12664.92
626.3806, 12734.17
626.8627, 12809.48
627.3448, 12891.47
627.8270, 12980.73
628.3091, 13070.79
628.7912, 13158.24
629.2733, 13241.93
629.7554, 13320.36
630.2375, 13392.54
630.7197, 13463.11
631.2018, 13532.76
631.6839, 13604.35
632.1660, 13682.57
632.6481, 13787.25
633.1302, 13879.02
633.6124, 13943.29
634.0945, 13983.77
634.5766, 14014.17
635.0587, 14034.63
635.5408, 14047.08
636.0229, 14055.29
636.5051, 14060.34
636.9872, 14034.74
637.4693, 13970.35
637.9514, 13896.84
638.4335, 13843.34
638.9156, 13806.09
639.3978, 13750.91
639.8799, 13672.34
640.3620, 13582.63
640.8441, 13494.05
641.3262, 13405.00
641.8083, 13309.36
642.2905, 13191.35
642.7726, 13081.14
643.2547, 13009.81
643.7368, 12965.04
644.2189, 12902.11
644.7010, 12781.77
645.1832, 12665.53
645.6653, 12588.68
646.1474, 12557.99
646.6295, 12488.95
647.1116, 12356.00
647.5938, 12221.11
648.0759, 12132.67
648.5580, 12094.32
649.0401, 12058.28
649.5222, 12022.81
650.0043, 11983.33
650.4865, 11931.76
650.9686, 11870.13
651.4507, 11806.13
651.9328, 11734.22
652.4149, 11670.64
652.8970, 11642.52
653.3792, 11637.18
653.8613, 11616.39
654.3434, 11540.64
654.8255, 11465.32
655.3076, 11420.13
655.7897, 11409.92
656.2718, 11391.89
656.7539, 11352.43
657.2360, 11317.20
657.7181, 11303.75
658.2003, 11318.69
658.6824, 11328.17
659.1645, 11333.73
659.6466, 11329.32
660.1287, 11299.69
660.6108, 11250.30
661.0930, 11212.53
