##NAMES=Tunellite
##RRUFFID=R050283
##IDEAL CHEMISTRY=SrB_6_O_9_(OH)_2_&#183;3H_2_O
##LOCALITY=Boron, Kern County, California, USA
##OWNER=RRUFF
##SOURCE=Marcus Origlieri
##DESCRIPTION=Colorless flattened tabular crystals
##STATUS=The identification of this mineral has been confirmed by X-ray diffraction and chemical analysis
##URL=rruff.info/R050283
##MEASURED CHEMISTRY=(Sr_0.96_Ba_0.06_)_Σ=1_B_6_O_9_(OH)_2_·3H_2_O ; B not measured but estimated by stoichiometry
117.1114, 340.5540
117.5935, 339.8557
118.0756, 340.3782
118.5577, 342.0092
119.0398, 344.9921
119.5220, 349.9982
120.0041, 357.4525
120.4862, 367.2753
120.9683, 378.3907
121.4504, 390.8291
121.9325, 404.3844
122.4147, 419.3246
122.8968, 435.7915
123.3789, 451.8974
123.8610, 467.5860
124.3431, 482.0539
124.8252, 494.5094
125.3074, 505.2161
125.7895, 513.1532
126.2716, 516.4261
126.7537, 515.5391
127.2358, 507.9873
127.7179, 493.1021
128.2001, 472.5832
128.6822, 448.0090
129.1643, 419.9070
129.6464, 388.5591
130.1285, 359.1022
130.6107, 330.9848
131.0928, 305.3325
131.5749, 282.4493
132.0570, 262.4236
132.5391, 245.2449
133.0212, 231.1481
133.5034, 220.3979
133.9855, 211.3177
134.4676, 204.1576
134.9497, 198.0587
135.4318, 192.6729
135.9139, 187.9254
136.3960, 183.7619
136.8782, 180.2182
137.3603, 177.4030
137.8424, 174.8354
138.3245, 172.3268
138.8066, 170.1217
139.2887, 168.6252
139.7709, 168.0141
140.2530, 167.7965
140.7351, 167.2297
141.2172, 166.3379
141.6993, 165.9483
142.1814, 166.4227
142.6636, 167.6849
143.1457, 169.5009
143.6278, 171.9599
144.1099, 174.8685
144.5920, 178.0025
145.0741, 181.3488
145.5563, 184.9695
146.0384, 189.0216
146.5205, 193.5585
147.0026, 198.0019
147.4847, 202.3200
147.9668, 206.4754
148.4490, 210.4094
148.9311, 214.1029
149.4132, 217.6641
149.8953, 221.2594
150.3774, 225.0393
150.8595, 228.5577
151.3417, 231.9218
151.8238, 234.9842
152.3059, 237.6414
152.7880, 239.8355
153.2701, 241.5897
153.7522, 242.9271
154.2344, 244.0787
154.7165, 244.4107
155.1986, 243.7916
155.6807, 242.3763
156.1628, 240.2933
156.6449, 237.5879
157.1271, 234.3433
157.6092, 230.8520
158.0913, 226.7506
158.5734, 222.8300
159.0555, 219.2752
159.5376, 216.0739
160.0198, 213.2133
160.5019, 210.7442
160.9840, 208.6068
161.4661, 206.4858
161.9482, 203.9914
162.4303, 201.8923
162.9125, 200.8045
163.3946, 200.6980
163.8767, 200.9613
164.3588, 201.4662
164.8409, 202.0590
165.3230, 202.4660
165.8052, 202.5005
166.2873, 202.4583
166.7694, 202.8067
167.2515, 203.7063
167.7336, 204.4467
168.2157, 204.8391
168.6979, 204.8501
169.1800, 204.3720
169.6621, 203.3204
170.1442, 201.7753
170.6263, 199.9557
171.1084, 197.8771
171.5906, 195.4453
172.0727, 192.6981
172.5548, 189.6301
173.0369, 186.1393
173.5190, 182.0379
174.0011, 177.4736
174.4833, 173.7116
174.9654, 171.7760
175.4475, 169.6649
175.9296, 166.7147
176.4117, 163.2875
176.8938, 160.0785
177.3760, 157.6374
177.8581, 155.9885
178.3402, 154.1726
178.8223, 151.9639
179.3044, 149.8320
179.7865, 147.9441
180.2687, 146.2852
180.7508, 144.7682
181.2329, 143.3312
181.7150, 141.9737
182.1971, 140.7357
182.6792, 139.6950
183.1614, 138.6926
183.6435, 137.6135
184.1256, 136.4650
184.6077, 135.3459
185.0898, 134.2960
185.5719, 133.3420
186.0541, 132.7222
186.5362, 132.6728
187.0183, 132.8288
187.5004, 132.8544
187.9825, 132.7087
188.4646, 132.5503
188.9468, 132.5410
189.4289, 132.6466
189.9110, 132.7344
190.3931, 132.8746
190.8752, 132.9500
191.3573, 132.7448
191.8395, 132.1773
192.3216, 131.5100
192.8037, 130.9165
193.2858, 130.3813
193.7679, 129.8743
194.2500, 129.3990
194.7322, 128.9455
195.2143, 128.4276
195.6964, 127.6516
196.1785, 127.1469
196.6606, 127.3334
197.1427, 127.9682
197.6249, 128.5062
198.1070, 128.4318
198.5891, 127.8514
199.0712, 127.8781
199.5533, 129.0852
200.0354, 130.3095
200.5176, 131.0670
200.9997, 131.4807
201.4818, 131.8792
201.9639, 132.5478
202.4460, 133.4987
202.9281, 134.2380
203.4103, 135.0278
203.8924, 135.3259
204.3745, 134.7160
204.8566, 133.4186
205.3387, 132.0067
205.8208, 131.0251
206.3030, 130.5766
206.7851, 129.5325
207.2672, 127.6908
207.7493, 125.5241
208.2314, 123.1081
208.7135, 120.5126
209.1957, 117.8319
209.6778, 115.1280
210.1599, 112.3789
210.6420, 109.8630
211.1241, 107.7522
211.6062, 105.6840
212.0884, 103.3822
212.5705, 100.9053
213.0526, 98.56840
213.5347, 96.67569
214.0168, 95.29768
214.4989, 93.78011
214.9811, 91.73420
215.4632, 89.85209
215.9453, 88.75636
216.4274, 88.41801
216.9095, 88.11946
217.3916, 87.22900
217.8737, 85.71450
218.3559, 84.32643
218.8380, 82.95007
219.3201, 81.77446
219.8022, 81.06147
220.2843, 80.82982
220.7664, 80.64614
221.2486, 80.14912
221.7307, 79.40047
222.2128, 78.69717
222.6949, 78.01716
223.1770, 77.43281
223.6591, 77.06831
224.1413, 76.95119
224.6234, 76.87585
225.1055, 76.71264
225.5876, 76.48582
226.0697, 76.22581
226.5518, 75.84695
227.0340, 75.48767
227.5161, 75.38993
227.9982, 75.61990
228.4803, 75.88230
228.9624, 76.00031
229.4445, 76.04489
229.9267, 76.09129
230.4088, 76.11111
230.8909, 76.19263
231.3730, 76.57781
231.8551, 77.45365
232.3372, 78.15092
232.8194, 78.20957
233.3015, 78.01157
233.7836, 78.00069
234.2657, 78.38083
234.7478, 79.01749
235.2299, 79.63768
235.7121, 80.31140
236.1942, 80.81751
236.6763, 80.97054
237.1584, 81.00029
237.6405, 81.15611
238.1227, 81.55454
238.6048, 82.10608
239.0869, 82.55967
239.5690, 82.75091
240.0511, 83.15199
240.5332, 83.96192
241.0154, 84.93904
241.4975, 85.84041
241.9796, 86.56162
242.4617, 87.17045
242.9438, 87.83581
243.4259, 88.68200
243.9081, 89.38198
244.3902, 89.76130
244.8723, 90.05842
245.3544, 90.54895
245.8365, 91.33540
246.3186, 92.22495
246.8008, 92.78504
247.2829, 92.85181
247.7650, 92.77383
248.2471, 92.56043
248.7292, 92.22738
249.2113, 91.78673
249.6935, 91.24276
250.1756, 90.59364
250.6577, 89.83553
251.1398, 88.98184
251.6219, 87.97625
252.1040, 86.74683
252.5862, 85.41936
253.0683, 84.08176
253.5504, 82.77107
254.0325, 81.49397
254.5146, 80.25835
254.9967, 79.02673
255.4789, 77.94593
255.9610, 77.08569
256.4431, 76.33927
256.9252, 75.61082
257.4073, 74.87756
257.8894, 74.18570
258.3716, 73.60883
258.8537, 73.23483
259.3358, 72.73801
259.8179, 72.01662
260.3000, 71.23206
260.7821, 70.49223
261.2643, 69.82117
261.7464, 69.24747
262.2285, 68.82301
262.7106, 68.59422
263.1927, 68.27494
263.6748, 67.63454
264.1570, 67.04651
264.6391, 66.94466
265.1212, 67.34474
265.6033, 67.73698
266.0854, 67.60899
266.5675, 66.92650
267.0497, 66.41016
267.5318, 65.61475
268.0139, 66.29727
268.4960, 66.69634
268.9781, 66.82718
269.4602, 65.88643
269.9424, 66.32942
270.4245, 66.21787
270.9066, 66.08358
271.3887, 66.72132
271.8708, 65.93643
272.3529, 66.56194
272.8351, 66.62444
273.3172, 66.94460
273.7993, 66.70681
274.2814, 66.64136
274.7635, 67.13404
275.2456, 67.31768
275.7278, 67.01566
276.2099, 67.35221
276.6920, 66.54783
277.1741, 66.74463
277.6562, 67.37340
278.1383, 67.09943
278.6205, 67.44619
279.1026, 67.55653
279.5847, 66.59251
280.0668, 67.49693
280.5489, 67.57362
281.0310, 67.95115
281.5132, 68.01537
281.9953, 68.01315
282.4774, 68.32697
282.9595, 69.01682
283.4416, 69.66185
283.9237, 69.97086
284.4059, 70.01247
284.8880, 70.06248
285.3701, 70.14416
285.8522, 70.31880
286.3343, 70.72149
286.8164, 71.33736
287.2986, 71.80698
287.7807, 71.78130
288.2628, 71.43887
288.7449, 71.38838
289.2270, 71.81719
289.7091, 72.36499
290.1913, 72.79141
290.6734, 73.10026
291.1555, 73.28985
291.6376, 73.31409
292.1197, 73.22141
292.6018, 73.10152
293.0840, 72.91685
293.5661, 72.80809
294.0482, 72.96484
294.5303, 73.25282
295.0124, 73.41551
295.4945, 73.22488
295.9767, 72.91879
296.4588, 72.99970
296.9409, 73.61359
297.4230, 74.11285
297.9051, 74.00010
298.3872, 73.62830
298.8694, 73.39137
299.3515, 73.40472
299.8336, 73.58839
300.3157, 73.89073
300.7978, 74.34707
301.2799, 74.71608
301.7621, 74.77822
302.2442, 74.77637
302.7263, 74.93813
303.2084, 75.32040
303.6905, 75.77114
304.1726, 76.13253
304.6548, 76.39864
305.1369, 76.68607
305.6190, 76.87045
306.1011, 77.23178
306.5832, 78.02910
307.0653, 79.26829
307.5475, 80.63722
308.0296, 81.94335
308.5117, 83.18155
308.9938, 84.30287
309.4759, 85.18717
309.9580, 86.08357
310.4402, 87.10237
310.9223, 88.25164
311.4044, 89.55639
311.8865, 91.11385
312.3686, 92.85281
312.8507, 94.46390
313.3329, 95.82401
313.8150, 97.26584
314.2971, 99.03515
314.7792, 101.0044
315.2613, 102.9620
315.7434, 104.8575
316.2256, 106.6617
316.7077, 108.2685
317.1898, 109.5926
317.6719, 110.9972
318.1540, 112.7793
318.6361, 114.6761
319.1183, 116.3720
319.6004, 117.7296
320.0825, 119.0049
320.5646, 120.4764
321.0467, 122.1188
321.5288, 124.1218
322.0110, 126.7169
322.4931, 129.6217
322.9752, 132.6377
323.4573, 135.7237
323.9394, 138.9293
324.4215, 142.2523
324.9037, 145.6759
325.3858, 149.4054
325.8679, 153.5022
326.3500, 157.9213
326.8321, 162.7214
327.3142, 167.8442
327.7964, 172.9198
328.2785, 178.0017
328.7606, 182.9148
329.2427, 186.8674
329.7248, 189.7870
330.2069, 191.7024
330.6891, 193.1374
331.1712, 193.7315
331.6533, 192.5845
332.1354, 188.8784
332.6175, 183.3885
333.0996, 177.5657
333.5818, 171.3258
334.0639, 164.9268
334.5460, 158.1226
335.0281, 151.3749
335.5102, 145.2080
335.9923, 139.6378
336.4745, 134.8690
336.9566, 131.1438
337.4387, 128.4981
337.9208, 126.5165
338.4029, 125.1231
338.8850, 124.3776
339.3671, 124.4541
339.8492, 125.4136
340.3314, 126.5384
340.8135, 127.1915
341.2956, 127.4928
341.7777, 128.1466
342.2598, 129.2620
342.7419, 130.8172
343.2241, 132.8032
343.7062, 135.1773
344.1883, 137.7300
344.6704, 140.3645
345.1525, 143.1091
345.6346, 145.9787
346.1168, 148.9078
346.5989, 152.1593
347.0810, 156.0025
347.5631, 160.2777
348.0452, 164.8319
348.5273, 169.6861
349.0095, 174.7471
349.4916, 179.7850
349.9737, 184.7670
350.4558, 190.3513
350.9379, 197.0435
351.4200, 204.4136
351.9022, 211.6468
352.3843, 218.5535
352.8664, 225.6812
353.3485, 233.3106
353.8306, 241.4219
354.3127, 249.9918
354.7949, 259.2172
355.2770, 268.6296
355.7591, 277.5494
356.2412, 285.9492
356.7233, 294.8852
357.2054, 305.1535
357.6876, 316.0592
358.1697, 326.5613
358.6518, 336.5276
359.1339, 346.1053
359.6160, 355.2088
360.0981, 363.9686
360.5803, 372.7775
361.0624, 381.6730
361.5445, 390.6167
362.0266, 399.2086
362.5087, 407.5972
362.9908, 416.7795
363.4730, 427.3795
363.9551, 439.1636
364.4372, 451.4195
364.9193, 464.1198
365.4014, 477.1835
365.8835, 491.1267
366.3657, 505.2903
366.8478, 518.7087
367.3299, 531.1854
367.8120, 542.0922
368.2941, 550.5328
368.7762, 556.8004
369.2584, 559.7181
369.7405, 559.5787
370.2226, 555.7220
370.7047, 547.1044
371.1868, 533.6591
371.6689, 516.9176
372.1511, 497.9638
372.6332, 476.6061
373.1153, 453.5755
373.5974, 427.0822
374.0795, 400.6613
374.5616, 375.4292
375.0438, 351.5643
375.5259, 328.8618
376.0080, 307.3127
376.4901, 286.9979
376.9722, 268.4353
377.4543, 252.1144
377.9365, 236.9058
378.4186, 222.7791
378.9007, 209.6603
379.3828, 197.5479
379.8649, 186.4363
380.3470, 176.3831
380.8292, 167.5618
381.3113, 160.3725
381.7934, 153.2240
382.2755, 145.4812
382.7576, 138.3018
383.2397, 132.4783
383.7219, 127.8578
384.2040, 123.8898
384.6861, 120.1999
385.1682, 116.7690
385.6503, 113.4000
386.1324, 110.1993
386.6146, 106.9569
387.0967, 103.4488
387.5788, 99.96883
388.0609, 96.84596
388.5430, 94.23295
389.0251, 92.06153
389.5073, 90.22289
389.9894, 88.89957
390.4715, 87.53053
390.9536, 86.11846
391.4357, 84.63340
391.9178, 82.92818
392.4000, 81.06947
392.8821, 79.36047
393.3642, 78.11902
393.8463, 77.35549
394.3284, 76.66273
394.8105, 76.19681
395.2927, 75.60680
395.7748, 74.65372
396.2569, 73.52499
396.7390, 72.53800
397.2211, 71.87802
397.7032, 71.39265
398.1854, 70.67834
398.6675, 69.54839
399.1496, 68.75465
399.6317, 68.84328
400.1138, 69.14188
400.5959, 69.14448
401.0781, 68.76704
401.5602, 68.29000
402.0423, 67.94569
402.5244, 67.72736
403.0065, 67.55415
403.4886, 67.41442
403.9708, 67.32891
404.4529, 67.30766
404.9350, 67.34421
405.4171, 67.42626
405.8992, 67.59988
406.3813, 67.78941
406.8635, 67.83372
407.3456, 67.70769
407.8277, 67.66599
408.3098, 67.82313
408.7919, 68.15993
409.2740, 68.63196
409.7562, 69.26827
410.2383, 69.96018
410.7204, 70.69424
411.2025, 71.43931
411.6846, 72.07324
412.1667, 72.51869
412.6489, 72.98895
413.1310, 73.76822
413.6131, 74.84475
414.0952, 76.00098
414.5773, 77.29743
415.0594, 78.59361
415.5416, 79.71377
416.0237, 80.67252
416.5058, 81.68672
416.9879, 82.95783
417.4700, 84.38138
417.9521, 85.39010
418.4343, 85.67537
418.9164, 85.99156
419.3985, 86.72768
419.8806, 87.56516
420.3627, 87.97728
420.8448, 87.80050
421.3270, 87.37241
421.8091, 87.21810
422.2912, 87.57227
422.7733, 87.49445
423.2554, 86.58350
423.7375, 85.62586
424.2197, 85.22336
424.7018, 85.22690
425.1839, 85.03575
425.6660, 84.19817
426.1481, 82.81669
426.6302, 81.55381
427.1124, 80.40939
427.5945, 79.41678
428.0766, 78.63914
428.5587, 77.98534
429.0408, 77.36565
429.5229, 76.75307
430.0051, 76.15811
430.4872, 75.59657
430.9693, 75.07616
431.4514, 74.56886
431.9335, 73.99355
432.4156, 73.50578
432.8978, 73.23301
433.3799, 73.10406
433.8620, 72.92814
434.3441, 72.55959
434.8262, 72.08681
435.3083, 71.77352
435.7905, 71.66230
436.2726, 71.59646
436.7547, 71.48945
437.2368, 71.41859
437.7189, 71.48232
438.2010, 71.70667
438.6832, 71.94862
439.1653, 72.02382
439.6474, 71.98701
440.1295, 72.15537
440.6116, 72.63004
441.0938, 73.21671
441.5759, 73.82515
442.0580, 74.42219
442.5401, 74.87894
443.0222, 74.91383
443.5043, 74.95967
443.9865, 75.52040
444.4686, 76.54604
444.9507, 77.60065
445.4328, 78.50003
445.9149, 79.28453
446.3970, 80.02380
446.8792, 80.67242
447.3613, 81.40292
447.8434, 82.30847
448.3255, 83.30051
448.8076, 84.24797
449.2897, 85.13900
449.7719, 86.09077
450.2540, 87.22111
450.7361, 88.54411
451.2182, 89.87301
451.7003, 90.95895
452.1824, 92.31587
452.6646, 94.24471
453.1467, 96.55332
453.6288, 98.87652
454.1109, 101.0601
454.5930, 103.2623
455.0751, 105.8534
455.5573, 109.1728
456.0394, 112.2168
456.5215, 114.7171
457.0036, 117.2133
457.4857, 120.0820
457.9678, 123.2600
458.4500, 126.4753
458.9321, 129.5546
459.4142, 132.4798
459.8963, 135.2713
460.3784, 138.4269
460.8605, 140.4788
461.3427, 140.9295
461.8248, 140.3329
462.3069, 139.1764
462.7890, 137.5827
463.2711, 135.4694
463.7532, 132.7122
464.2354, 129.3180
464.7175, 125.5328
465.1996, 121.1295
465.6817, 116.7408
466.1638, 112.7126
466.6459, 109.0289
467.1281, 105.6836
467.6102, 102.6923
468.0923, 100.0378
468.5744, 97.82015
469.0565, 95.98972
469.5386, 94.20993
470.0208, 92.30515
470.5029, 90.43748
470.9850, 88.89539
471.4671, 87.64794
471.9492, 86.68786
472.4313, 86.10612
472.9135, 85.75169
473.3956, 85.52087
473.8777, 85.38049
474.3598, 85.23417
474.8419, 85.02447
475.3240, 84.74462
475.8062, 84.32348
476.2883, 83.58540
476.7704, 82.94121
477.2525, 82.45454
477.7346, 82.11617
478.2167, 81.94711
478.6989, 81.93898
479.1810, 82.00498
479.6631, 82.04416
480.1452, 82.06347
480.6273, 82.01615
481.1094, 81.73843
481.5916, 81.56249
482.0737, 81.67683
482.5558, 81.95434
483.0379, 82.17538
483.5200, 82.23495
484.0021, 82.18777
484.4843, 82.11243
484.9664, 81.98315
485.4485, 81.94636
485.9306, 82.14956
486.4127, 82.35253
486.8948, 82.33836
487.3770, 82.15009
487.8591, 82.05641
488.3412, 82.33225
488.8233, 82.76785
489.3054, 82.88657
489.7875, 82.64135
490.2697, 82.52068
490.7518, 82.86095
491.2339, 83.43685
491.7160, 83.75515
492.1981, 83.69034
492.6802, 83.73131
493.1624, 84.18244
493.6445, 84.82848
494.1266, 85.35555
494.6087, 85.71201
495.0908, 85.98575
495.5729, 86.23547
496.0551, 86.46284
496.5372, 86.78477
497.0193, 87.12141
497.5014, 87.62538
497.9835, 88.40176
498.4656, 89.35532
498.9478, 90.32758
499.4299, 91.27377
499.9120, 92.32601
500.3941, 93.69108
500.8762, 95.47559
501.3583, 97.18694
501.8405, 98.72195
502.3226, 100.2837
502.8047, 101.8274
503.2868, 103.4699
503.7689, 105.3918
504.2510, 107.7135
504.7331, 110.2762
505.2152, 112.8676
505.6974, 115.5424
506.1795, 117.9295
506.6616, 119.6445
507.1437, 121.3306
507.6258, 123.3962
508.1079, 125.8481
508.5901, 128.5603
509.0722, 131.7004
509.5543, 134.9547
510.0364, 137.7257
510.5185, 140.0193
511.0006, 142.6773
511.4828, 146.0864
511.9649, 150.1034
512.4470, 154.3718
512.9291, 158.7918
513.4113, 163.7093
513.8934, 169.3093
514.3755, 175.3608
514.8576, 181.4711
515.3397, 187.6983
515.8218, 194.4686
516.3040, 202.1373
516.7861, 210.6647
517.2682, 219.6399
517.7503, 229.2381
518.2324, 239.0660
518.7145, 249.1581
519.1967, 259.5078
519.6788, 270.8490
520.1609, 282.8867
520.6430, 293.7231
521.1251, 301.6074
521.6072, 306.5815
522.0894, 308.9545
522.5715, 309.0346
523.0536, 305.7757
523.5357, 298.7191
524.0178, 288.6839
524.4999, 276.1553
524.9821, 261.0858
525.4642, 245.1132
525.9463, 229.0897
526.4284, 213.3063
526.9105, 198.5652
527.3926, 185.0599
527.8748, 172.6482
528.3569, 161.1414
528.8390, 150.6629
529.3211, 141.4855
529.8032, 134.1862
530.2853, 127.6212
530.7675, 121.0659
531.2496, 114.8543
531.7317, 109.7687
532.2138, 106.0233
532.6959, 102.9910
533.1780, 99.95438
533.6602, 96.89977
534.1423, 93.89719
534.6244, 90.66557
535.1065, 87.75703
535.5886, 85.46840
536.0707, 83.61877
536.5529, 81.93145
537.0350, 80.30602
537.5171, 78.80602
537.9992, 77.59251
538.4813, 76.72664
538.9634, 75.84145
539.4456, 74.92009
539.9277, 73.98504
540.4098, 72.92651
540.8919, 71.88417
541.3740, 71.15732
541.8561, 70.94881
542.3383, 70.91832
542.8204, 70.64472
543.3025, 70.15627
543.7846, 69.70784
544.2667, 69.32499
544.7488, 69.07311
545.2310, 69.11781
545.7131, 69.41801
546.1952, 69.58130
546.6773, 69.41675
547.1594, 69.22041
547.6415, 69.06573
548.1237, 69.03680
548.6058, 69.39793
549.0879, 70.27047
549.5700, 71.30074
550.0521, 71.87727
550.5342, 71.75437
551.0164, 71.92357
551.4985, 72.63243
551.9806, 73.33225
552.4627, 73.72719
552.9448, 73.94851
553.4269, 74.27372
553.9091, 74.83625
554.3912, 75.53907
554.8733, 76.23520
555.3554, 76.93497
555.8375, 77.57007
556.3196, 78.09415
556.8018, 78.59201
557.2839, 79.04314
557.7660, 79.50989
558.2481, 80.16028
558.7302, 81.05498
559.2123, 82.15369
559.6945, 83.43206
560.1766, 84.88069
560.6587, 86.42183
561.1408, 88.00571
561.6229, 89.78127
562.1050, 92.02946
562.5872, 94.85040
563.0693, 97.37931
563.5514, 99.34087
564.0335, 101.2674
564.5156, 103.5376
564.9977, 105.9305
565.4799, 108.0494
565.9620, 109.7289
566.4441, 111.1030
566.9262, 112.4375
567.4083, 113.8809
567.8904, 114.6812
568.3726, 114.8250
568.8547, 114.2714
569.3368, 112.8361
569.8189, 110.7261
570.3010, 108.2155
570.7831, 105.3326
571.2653, 102.3363
571.7474, 99.54235
572.2295, 96.92045
572.7116, 94.06944
573.1937, 90.81157
573.6758, 87.63510
574.1580, 84.92893
574.6401, 82.65110
575.1222, 80.63574
575.6043, 79.08789
576.0864, 77.55041
576.5685, 75.67644
577.0507, 73.71437
577.5328, 72.07365
578.0149, 70.85571
578.4970, 69.92130
578.9791, 69.13859
579.4612, 68.51096
579.9434, 67.95259
580.4255, 67.48965
580.9076, 67.06893
581.3897, 66.62672
581.8718, 66.24664
582.3539, 66.06030
582.8361, 66.07833
583.3182, 66.12629
583.8003, 65.99229
584.2824, 65.71458
584.7645, 65.57530
585.2466, 65.58231
585.7288, 65.71428
586.2108, 66.13206
586.6929, 66.58784
587.1750, 66.66629
587.6572, 66.23459
588.1393, 65.88260
588.6214, 65.82664
589.1035, 66.03000
589.5856, 66.61179
590.0677, 67.50548
590.5499, 68.13418
591.0320, 68.06369
591.5141, 67.53918
591.9962, 67.47422
592.4783, 68.46313
592.9604, 69.08144
593.4426, 68.94716
593.9247, 68.74563
594.4068, 69.01640
594.8889, 69.67052
595.3710, 70.25121
595.8531, 70.43739
596.3353, 70.41375
596.8174, 70.65072
597.2995, 71.20939
597.7816, 71.66543
598.2637, 71.82980
598.7458, 71.96445
599.2280, 72.30576
599.7101, 72.82136
600.1922, 73.33862
600.6743, 73.68497
601.1564, 74.11201
601.6385, 74.90654
602.1207, 75.96117
602.6028, 76.93785
603.0849, 77.71175
603.5670, 78.47787
604.0491, 79.50916
604.5313, 80.87698
605.0134, 82.05992
605.4955, 82.88363
605.9776, 83.75195
606.4597, 84.77122
606.9418, 85.92069
607.4240, 87.19946
607.9061, 88.58862
608.3882, 89.95260
608.8703, 91.08617
609.3524, 92.01157
609.8345, 93.00317
610.3167, 93.93563
610.7988, 95.25275
611.2809, 97.47723
611.7630, 100.0865
612.2451, 102.3412
