##NAMES=Tungstenite
##RRUFFID=R070616
##IDEAL CHEMISTRY=WS_2_
##LOCALITY=Emma mine, Little Cottonwood Canyon, Salt Lake County, Utah, USA
##OWNER=RRUFF
##SOURCE=James Shigley
##DESCRIPTION=Gray metallic massive, X-ray diffraction shows this to be the 3R polytype. Intimately associated with galena
##STATUS=The identification of this mineral has been confirmed by X-ray diffraction.
##URL=rruff.info/R070616
97.76447, 5124.816
98.24658, 5327.360
98.72870, 5552.621
99.21082, 5762.609
99.69293, 5958.015
100.1750, 6139.569
100.6572, 6307.237
101.1393, 6450.642
101.6214, 6544.366
102.1035, 6519.313
102.5856, 6500.452
103.0677, 6479.079
103.5499, 6447.225
104.0320, 6410.111
104.5141, 6385.265
104.9962, 6384.384
105.4783, 6379.055
105.9605, 6353.628
106.4426, 6310.675
106.9247, 6261.208
107.4068, 6211.864
107.8889, 6160.562
108.3710, 6117.386
108.8532, 6072.404
109.3353, 6040.700
109.8174, 6037.025
110.2995, 6063.036
110.7816, 6101.940
111.2637, 6119.068
111.7459, 6056.754
112.2280, 6058.227
112.7101, 6188.939
113.1922, 6363.786
113.6743, 6487.857
114.1564, 6510.104
114.6386, 6444.692
115.1207, 6383.273
115.6028, 6320.366
116.0849, 6265.634
116.5670, 6219.588
117.0491, 6183.478
117.5313, 6161.132
118.0134, 6157.632
118.4955, 6174.501
118.9776, 6188.404
119.4597, 6198.408
119.9418, 6205.958
120.4240, 6211.055
120.9061, 6213.254
121.3882, 6216.280
121.8703, 6228.777
122.3524, 6248.635
122.8345, 6259.766
123.3167, 6251.798
123.7988, 6230.339
124.2809, 6211.943
124.7630, 6203.412
125.2451, 6193.747
125.7272, 6168.557
126.2094, 6127.572
126.6915, 6092.693
127.1736, 6089.578
127.6557, 6123.633
128.1378, 6145.027
128.6199, 6132.000
129.1021, 6107.572
129.5842, 6083.592
130.0663, 6063.172
130.5484, 6046.173
131.0305, 6032.962
131.5126, 6027.759
131.9948, 6018.784
132.4769, 6003.826
132.9590, 5984.760
133.4411, 5965.071
133.9232, 5947.409
134.4053, 5929.601
134.8875, 5895.849
135.3696, 5815.774
135.8517, 5749.391
136.3338, 5712.355
136.8159, 5699.598
137.2980, 5699.900
137.7802, 5706.113
138.2623, 5720.011
138.7444, 5719.841
139.2265, 5699.123
139.7086, 5672.542
140.1908, 5648.271
140.6729, 5626.999
141.1550, 5604.551
141.6371, 5575.240
142.1192, 5536.342
142.6013, 5501.818
143.0835, 5476.794
143.5656, 5454.925
144.0477, 5426.789
144.5298, 5388.035
145.0119, 5349.232
145.4940, 5329.441
145.9762, 5329.859
146.4583, 5328.214
146.9404, 5313.599
147.4225, 5289.426
147.9046, 5266.717
148.3867, 5247.227
148.8689, 5233.058
149.3510, 5226.770
149.8331, 5230.615
150.3152, 5234.634
150.7973, 5224.095
151.2794, 5196.168
151.7616, 5184.344
152.2437, 5219.321
152.7258, 5269.336
153.2079, 5309.756
153.6900, 5332.508
154.1721, 5345.025
154.6543, 5360.092
155.1364, 5379.795
155.6185, 5397.342
156.1006, 5415.790
156.5827, 5429.882
157.0648, 5430.695
157.5470, 5409.458
158.0291, 5373.464
158.5112, 5361.351
158.9933, 5396.168
159.4754, 5432.048
159.9575, 5461.962
160.4397, 5484.771
160.9218, 5499.856
161.4039, 5505.729
161.8860, 5501.512
162.3681, 5500.300
162.8502, 5496.330
163.3324, 5500.058
163.8145, 5526.813
164.2966, 5569.359
164.7787, 5602.915
165.2608, 5599.656
165.7429, 5546.351
166.2251, 5501.848
166.7072, 5472.405
167.1893, 5446.526
167.6714, 5415.822
168.1535, 5378.975
168.6356, 5341.748
169.1178, 5313.094
169.5999, 5301.786
170.0820, 5276.988
170.5641, 5225.928
171.0462, 5164.732
171.5283, 5111.693
172.0105, 5072.465
172.4926, 5042.293
172.9747, 5014.281
173.4568, 4989.651
173.9389, 4962.826
174.4210, 4925.657
174.9032, 4884.653
175.3853, 4857.330
175.8674, 4855.295
176.3495, 4864.183
176.8316, 4857.294
177.3137, 4830.847
177.7959, 4799.824
178.2780, 4772.095
178.7601, 4747.530
179.2422, 4723.510
179.7243, 4698.540
180.2064, 4674.054
180.6886, 4653.163
181.1707, 4639.109
181.6528, 4623.378
182.1349, 4592.548
182.6170, 4542.806
183.0991, 4501.320
183.5813, 4488.862
184.0634, 4488.605
184.5455, 4485.637
185.0276, 4475.067
185.5097, 4459.541
185.9918, 4442.504
186.4740, 4420.773
186.9561, 4404.975
187.4382, 4402.639
187.9203, 4406.708
188.4024, 4409.091
188.8845, 4406.009
189.3667, 4398.006
189.8488, 4386.788
190.3309, 4368.624
190.8130, 4352.262
191.2951, 4343.717
191.7772, 4338.327
192.2594, 4327.678
192.7415, 4304.341
193.2236, 4269.299
193.7057, 4243.701
194.1878, 4236.189
194.6699, 4231.138
195.1521, 4222.875
195.6342, 4213.742
196.1163, 4210.832
196.5984, 4222.846
197.0805, 4253.759
197.5626, 4262.341
198.0448, 4225.589
198.5269, 4189.150
199.0090, 4170.515
199.4911, 4169.282
199.9732, 4176.300
200.4553, 4183.659
200.9375, 4194.228
201.4196, 4191.418
201.9017, 4164.404
202.3838, 4135.336
202.8659, 4116.181
203.3480, 4108.561
203.8302, 4107.673
204.3123, 4108.945
204.7944, 4115.795
205.2765, 4113.317
205.7586, 4089.464
206.2407, 4064.337
206.7229, 4054.514
207.2050, 4063.175
207.6871, 4081.551
208.1692, 4099.522
208.6513, 4121.206
209.1334, 4129.637
209.6156, 4115.556
210.0977, 4091.508
210.5798, 4069.751
211.0619, 4053.483
211.5440, 4040.957
212.0261, 4028.177
212.5083, 4011.066
212.9904, 4006.929
213.4725, 4030.368
213.9546, 4066.081
214.4367, 4092.331
214.9188, 4103.094
215.4010, 4100.732
215.8831, 4083.665
216.3652, 4047.823
216.8473, 4019.743
217.3294, 4011.299
217.8115, 4017.088
218.2937, 4024.861
218.7758, 4030.414
219.2579, 4037.570
219.7400, 4055.490
220.2221, 4088.704
220.7042, 4112.483
221.1864, 4103.423
221.6685, 4071.642
222.1506, 4059.709
222.6327, 4092.120
223.1148, 4138.633
223.5969, 4155.805
224.0791, 4138.857
224.5612, 4114.367
225.0433, 4097.321
225.5254, 4087.254
226.0075, 4079.923
226.4896, 4071.841
226.9718, 4068.412
227.4539, 4076.132
227.9360, 4097.340
228.4181, 4121.131
228.9002, 4143.587
229.3823, 4164.586
229.8645, 4169.640
230.3466, 4140.096
230.8287, 4100.984
231.3108, 4073.767
231.7929, 4060.998
232.2750, 4060.828
232.7572, 4076.232
233.2393, 4109.235
233.7214, 4137.985
234.2035, 4155.655
234.6856, 4165.958
235.1677, 4168.676
235.6499, 4162.434
236.1320, 4156.650
236.6141, 4166.892
237.0962, 4198.543
237.5783, 4218.441
238.0604, 4199.014
238.5426, 4173.999
239.0247, 4170.001
239.5068, 4195.185
239.9889, 4230.482
240.4710, 4248.492
240.9531, 4243.795
241.4353, 4241.154
241.9174, 4249.099
242.3995, 4259.936
242.8816, 4268.818
243.3637, 4274.498
243.8458, 4276.763
244.3280, 4273.382
244.8101, 4259.732
245.2922, 4253.689
245.7743, 4268.353
246.2564, 4286.032
246.7385, 4290.438
247.2207, 4276.135
247.7028, 4256.251
248.1849, 4253.411
248.6670, 4273.905
249.1491, 4297.060
249.6312, 4328.036
250.1134, 4355.291
250.5955, 4365.943
251.0776, 4355.938
251.5597, 4338.221
252.0418, 4338.617
252.5239, 4373.946
253.0061, 4390.430
253.4882, 4367.231
253.9703, 4333.463
254.4524, 4312.438
254.9345, 4311.833
255.4166, 4321.994
255.8988, 4325.326
256.3809, 4318.802
256.8630, 4311.238
257.3451, 4303.448
257.8272, 4295.327
258.3094, 4286.301
258.7915, 4276.277
259.2736, 4266.453
259.7557, 4260.142
260.2378, 4263.924
260.7199, 4257.634
261.2021, 4229.237
261.6842, 4198.173
262.1663, 4180.845
262.6484, 4181.830
263.1305, 4191.945
263.6126, 4195.388
264.0948, 4189.949
264.5769, 4181.313
265.0590, 4164.667
265.5411, 4148.640
266.0232, 4141.881
266.5053, 4146.139
266.9875, 4153.562
267.4696, 4150.206
267.9517, 4126.764
268.4338, 4110.652
268.9159, 4108.754
269.3980, 4109.422
269.8802, 4101.895
270.3623, 4084.501
270.8444, 4066.057
271.3265, 4061.391
271.8086, 4079.522
272.2907, 4093.605
272.7729, 4106.680
273.2550, 4114.301
273.7371, 4110.614
274.2192, 4095.686
274.7013, 4077.413
275.1834, 4066.542
275.6656, 4065.040
276.1477, 4067.276
276.6298, 4078.618
277.1119, 4089.018
277.5940, 4090.077
278.0761, 4081.636
278.5583, 4071.455
279.0404, 4070.482
279.5225, 4085.416
280.0046, 4090.527
280.4867, 4077.594
280.9688, 4063.260
281.4510, 4056.419
281.9331, 4058.132
282.4152, 4064.530
282.8973, 4072.027
283.3794, 4082.233
283.8615, 4087.302
284.3437, 4082.267
284.8258, 4077.152
285.3079, 4077.102
285.7900, 4082.083
286.2721, 4089.262
286.7542, 4096.817
287.2364, 4106.412
287.7185, 4106.782
288.2006, 4085.457
288.6827, 4067.093
289.1648, 4062.766
289.6469, 4071.048
290.1291, 4084.870
290.6112, 4099.769
291.0933, 4116.888
291.5754, 4119.810
292.0575, 4092.505
292.5396, 4066.794
293.0218, 4055.983
293.5039, 4055.882
293.9860, 4054.106
294.4681, 4040.306
294.9502, 4014.805
295.4323, 3996.347
295.9145, 3988.532
296.3966, 3984.841
296.8787, 3986.653
297.3608, 3991.377
297.8429, 3994.768
298.3250, 3993.903
298.8072, 3989.375
299.2893, 3985.974
299.7714, 3973.413
300.2535, 3974.474
300.7356, 4001.998
301.2177, 4043.722
301.6999, 4083.486
302.1820, 4112.552
302.6641, 4131.782
303.1462, 4144.370
303.6283, 4148.012
304.1104, 4147.285
304.5926, 4137.875
305.0747, 4126.670
305.5568, 4121.632
306.0389, 4126.442
306.5210, 4138.134
307.0031, 4149.457
307.4853, 4161.272
307.9674, 4171.049
308.4495, 4177.343
308.9316, 4182.356
309.4137, 4187.283
309.8958, 4192.626
310.3780, 4199.736
310.8601, 4211.906
311.3422, 4232.829
311.8243, 4250.244
312.3064, 4257.631
312.7885, 4264.926
313.2707, 4281.784
313.7528, 4309.569
314.2349, 4338.167
314.7170, 4352.333
315.1991, 4346.113
315.6812, 4346.444
316.1634, 4361.023
316.6455, 4378.229
317.1276, 4391.638
317.6097, 4400.930
318.0918, 4410.155
318.5739, 4423.851
319.0561, 4442.479
319.5382, 4460.832
320.0203, 4475.881
320.5024, 4493.249
320.9845, 4517.702
321.4666, 4547.400
321.9488, 4575.662
322.4309, 4597.587
322.9130, 4613.310
323.3951, 4624.224
323.8772, 4621.157
324.3593, 4625.083
324.8415, 4649.272
325.3236, 4686.953
325.8057, 4722.599
326.2878, 4744.783
326.7699, 4758.225
327.2520, 4781.415
327.7342, 4819.501
328.2163, 4858.674
328.6984, 4888.665
329.1805, 4916.623
329.6626, 4955.213
330.1447, 5016.840
330.6269, 5084.440
331.1090, 5120.263
331.5911, 5112.134
332.0732, 5113.500
332.5553, 5155.777
333.0374, 5216.148
333.5196, 5273.868
334.0017, 5324.276
334.4838, 5369.182
334.9659, 5410.321
335.4480, 5447.590
335.9301, 5483.072
336.4123, 5520.654
336.8944, 5554.206
337.3765, 5578.663
337.8586, 5593.979
338.3407, 5598.527
338.8228, 5585.904
339.3050, 5558.727
339.7871, 5536.181
340.2692, 5526.866
340.7513, 5518.921
341.2334, 5500.203
341.7155, 5470.906
342.1977, 5434.464
342.6798, 5390.353
343.1619, 5340.431
343.6440, 5287.221
344.1261, 5228.424
344.6082, 5172.998
345.0904, 5143.552
345.5725, 5134.047
346.0546, 5094.365
346.5367, 4984.438
347.0188, 4849.912
347.5009, 4746.846
347.9831, 4681.569
348.4652, 4630.862
348.9473, 4584.149
349.4294, 4538.201
349.9115, 4475.205
350.3936, 4380.379
350.8758, 4279.054
351.3579, 4186.637
351.8400, 4103.739
352.3221, 4029.265
352.8042, 3963.519
353.2863, 3905.845
353.7685, 3850.905
354.2506, 3792.212
354.7327, 3742.679
355.2148, 3714.361
355.6969, 3698.566
356.1790, 3676.380
356.6612, 3638.977
357.1433, 3592.963
357.6254, 3554.176
358.1075, 3524.590
358.5896, 3499.072
359.0717, 3475.272
359.5539, 3456.109
360.0360, 3447.852
360.5181, 3451.670
361.0002, 3457.615
361.4823, 3450.760
361.9644, 3423.871
362.4466, 3401.338
362.9287, 3388.548
363.4108, 3375.681
363.8929, 3352.311
364.3750, 3320.119
364.8571, 3292.252
365.3393, 3282.347
365.8214, 3293.087
366.3035, 3298.372
366.7856, 3292.137
367.2677, 3286.977
367.7498, 3291.480
368.2320, 3300.431
368.7141, 3301.411
369.1962, 3284.785
369.6783, 3254.993
370.1604, 3238.909
370.6425, 3248.187
371.1247, 3256.612
371.6068, 3265.108
372.0889, 3268.107
372.5710, 3255.466
373.0531, 3222.298
373.5352, 3183.193
374.0174, 3168.583
374.4995, 3188.766
374.9816, 3206.043
375.4637, 3215.373
375.9458, 3219.247
376.4279, 3217.010
376.9101, 3209.193
377.3922, 3201.071
377.8743, 3198.826
378.3564, 3202.666
378.8385, 3204.972
379.3206, 3204.316
379.8028, 3202.626
380.2849, 3201.504
380.7670, 3200.608
381.2491, 3198.415
381.7312, 3193.842
382.2133, 3187.316
382.6955, 3178.636
383.1776, 3165.302
383.6597, 3156.582
384.1418, 3163.307
384.6239, 3178.256
385.1060, 3188.852
385.5882, 3188.010
386.0703, 3184.866
386.5524, 3190.361
387.0345, 3204.194
387.5166, 3216.974
387.9987, 3225.193
388.4809, 3228.760
388.9630, 3227.688
389.4451, 3217.975
389.9272, 3212.225
390.4093, 3221.393
390.8914, 3238.851
391.3736, 3247.675
391.8557, 3241.033
392.3378, 3230.922
392.8199, 3238.139
393.3020, 3269.456
393.7841, 3287.283
394.2663, 3275.507
394.7484, 3254.904
395.2305, 3242.395
395.7126, 3240.794
396.1947, 3249.646
396.6768, 3271.218
397.1590, 3307.215
397.6411, 3328.096
398.1232, 3319.877
398.6053, 3312.870
399.0874, 3323.383
399.5695, 3344.992
400.0517, 3361.138
400.5338, 3361.558
401.0159, 3351.590
401.4980, 3353.352
401.9801, 3381.595
402.4622, 3403.183
402.9444, 3412.676
403.4265, 3415.890
403.9086, 3417.344
404.3907, 3418.781
404.8728, 3421.540
405.3549, 3426.897
405.8371, 3433.486
406.3192, 3447.285
406.8013, 3483.858
407.2834, 3514.715
407.7655, 3520.851
408.2477, 3506.192
408.7298, 3491.205
409.2119, 3495.969
409.6940, 3516.364
410.1761, 3520.107
410.6582, 3499.253
411.1404, 3474.310
411.6225, 3457.488
412.1046, 3442.695
412.5867, 3419.629
413.0688, 3381.050
413.5509, 3337.306
414.0331, 3305.458
414.5152, 3286.768
414.9973, 3260.403
415.4794, 3212.937
415.9615, 3157.586
416.4436, 3112.400
416.9258, 3079.231
417.4079, 3050.448
417.8900, 3022.563
418.3721, 2995.766
418.8542, 2969.749
419.3363, 2943.726
419.8185, 2921.217
420.3006, 2908.121
420.7827, 2904.853
421.2648, 2897.680
421.7469, 2879.454
422.2290, 2860.810
422.7112, 2851.071
423.1933, 2849.687
423.6754, 2850.255
424.1575, 2848.713
424.6396, 2845.295
425.1217, 2841.874
425.6039, 2835.771
426.0860, 2832.787
426.5681, 2840.581
427.0502, 2850.275
427.5323, 2846.784
428.0144, 2824.790
428.4966, 2796.889
428.9787, 2788.169
429.4608, 2819.374
429.9429, 2827.492
430.4250, 2791.492
430.9071, 2753.496
431.3893, 2742.231
431.8714, 2755.618
432.3535, 2771.313
432.8356, 2768.979
433.3177, 2749.824
433.7998, 2736.892
434.2820, 2733.101
434.7641, 2731.848
435.2462, 2728.032
435.7283, 2725.688
436.2104, 2733.254
436.6925, 2758.232
437.1747, 2783.967
437.6568, 2782.995
438.1389, 2752.675
438.6210, 2722.242
439.1031, 2695.074
439.5852, 2676.303
440.0674, 2672.736
440.5495, 2685.682
441.0316, 2699.278
441.5137, 2706.737
441.9958, 2708.538
442.4779, 2704.755
442.9601, 2694.849
443.4422, 2682.121
443.9243, 2666.139
444.4064, 2648.236
444.8885, 2642.171
445.3707, 2660.629
445.8528, 2680.506
446.3349, 2685.617
446.8170, 2679.802
447.2991, 2676.295
447.7813, 2682.215
448.2634, 2693.723
448.7455, 2699.583
449.2276, 2693.818
449.7097, 2690.137
450.1918, 2693.188
450.6740, 2696.079
451.1561, 2691.756
451.6382, 2679.433
452.1203, 2663.964
452.6024, 2649.950
453.0845, 2636.702
453.5667, 2629.831
454.0488, 2638.629
454.5309, 2644.861
455.0130, 2636.205
455.4951, 2621.940
455.9772, 2621.615
456.4594, 2649.685
456.9415, 2688.410
457.4236, 2692.964
457.9057, 2650.728
458.3878, 2621.006
458.8699, 2636.028
459.3521, 2661.542
459.8342, 2669.382
460.3163, 2655.857
460.7984, 2639.683
461.2805, 2634.742
461.7626, 2637.436
462.2448, 2635.749
462.7269, 2626.514
463.2090, 2618.705
463.6911, 2623.190
464.1732, 2636.930
464.6553, 2643.209
465.1375, 2635.756
465.6196, 2624.022
466.1017, 2609.976
466.5838, 2596.282
467.0659, 2591.830
467.5480, 2602.008
468.0302, 2620.898
468.5123, 2634.062
468.9944, 2644.458
469.4765, 2643.936
469.9586, 2620.505
470.4407, 2593.554
470.9229, 2579.996
471.4050, 2581.314
471.8871, 2587.994
472.3692, 2590.884
472.8513, 2589.780
473.3334, 2591.502
473.8156, 2602.566
474.2977, 2608.990
474.7798, 2601.632
475.2619, 2589.225
475.7440, 2584.998
476.2261, 2595.250
476.7083, 2611.201
477.1904, 2619.364
477.6725, 2618.872
478.1546, 2617.164
478.6367, 2616.120
479.1188, 2613.865
479.6010, 2608.494
480.0831, 2600.198
480.5652, 2591.775
481.0473, 2581.489
481.5294, 2573.024
482.0115, 2575.193
482.4937, 2589.069
482.9758, 2600.241
483.4579, 2597.811
483.9400, 2585.376
484.4221, 2579.546
484.9042, 2587.751
485.3864, 2593.028
485.8685, 2587.993
486.3506, 2576.762
486.8327, 2561.992
487.3148, 2544.905
487.7969, 2534.805
488.2791, 2547.518
488.7612, 2596.707
489.2433, 2619.734
489.7254, 2600.942
490.2075, 2576.259
490.6896, 2557.300
491.1718, 2545.635
491.6539, 2540.751
492.1360, 2542.711
492.6181, 2550.272
493.1002, 2562.050
493.5823, 2583.508
494.0645, 2594.622
494.5466, 2580.600
495.0287, 2561.136
495.5108, 2548.657
495.9929, 2544.925
496.4750, 2547.601
496.9572, 2560.052
497.4393, 2577.559
497.9214, 2585.145
498.4035, 2579.720
498.8856, 2572.356
499.3677, 2570.962
499.8499, 2573.891
500.3320, 2574.717
500.8141, 2565.234
501.2962, 2561.893
501.7783, 2583.425
502.2604, 2616.010
502.7426, 2628.674
503.2247, 2610.401
503.7068, 2579.325
504.1889, 2563.141
504.6710, 2568.565
505.1531, 2569.761
505.6353, 2562.596
506.1174, 2555.525
506.5995, 2551.839
507.0816, 2552.007
507.5637, 2556.604
508.0458, 2566.772
508.5280, 2579.736
509.0101, 2586.169
509.4922, 2581.692
509.9743, 2581.133
510.4564, 2598.585
510.9385, 2613.730
511.4207, 2606.667
511.9028, 2576.519
512.3849, 2548.573
512.8670, 2543.563
513.3491, 2554.500
513.8312, 2563.702
514.3134, 2570.759
514.7955, 2571.936
515.2776, 2560.253
515.7597, 2540.877
516.2418, 2532.128
516.7239, 2546.616
517.2061, 2556.494
517.6882, 2542.580
518.1703, 2517.281
518.6524, 2502.958
519.1345, 2505.938
519.6166, 2514.836
520.0988, 2514.460
520.5809, 2501.223
521.0630, 2494.679
521.5451, 2503.868
522.0272, 2509.407
522.5093, 2499.579
522.9915, 2480.910
523.4736, 2465.287
523.9557, 2458.313
524.4378, 2458.897
524.9199, 2468.233
525.4020, 2490.906
525.8842, 2501.670
526.3663, 2485.871
526.8484, 2465.090
527.3305, 2454.030
527.8126, 2452.260
528.2947, 2452.200
528.7769, 2447.163
529.2590, 2442.881
529.7411, 2451.273
530.2232, 2472.291
530.7053, 2489.785
531.1874, 2495.589
531.6696, 2492.022
532.1517, 2484.284
532.6338, 2466.554
533.1159, 2456.482
533.5980, 2464.486
534.0801, 2477.655
534.5623, 2484.088
535.0444, 2481.961
535.5265, 2474.684
536.0086, 2464.219
536.4907, 2450.977
536.9728, 2444.781
537.4550, 2451.264
537.9371, 2457.656
538.4192, 2462.883
538.9013, 2465.942
539.3834, 2464.154
539.8655, 2456.966
540.3477, 2451.244
540.8298, 2457.868
541.3119, 2474.346
541.7940, 2480.879
542.2761, 2474.927
542.7582, 2460.429
543.2404, 2429.990
543.7225, 2392.779
544.2046, 2374.965
544.6867, 2399.756
545.1688, 2423.740
545.6509, 2411.909
546.1331, 2381.065
546.6152, 2370.964
547.0973, 2394.788
547.5794, 2427.915
548.0615, 2436.057
548.5436, 2410.208
549.0258, 2394.629
549.5079, 2398.244
549.9900, 2401.239
550.4721, 2389.802
550.9542, 2372.829
551.4363, 2368.927
551.9185, 2388.014
552.4006, 2416.429
552.8827, 2429.673
553.3648, 2425.962
553.8469, 2418.835
554.3290, 2410.756
554.8112, 2399.010
555.2933, 2375.106
555.7754, 2343.737
556.2575, 2327.750
556.7396, 2347.499
557.2217, 2378.710
557.7039, 2397.576
558.1860, 2405.045
558.6681, 2407.520
559.1502, 2407.280
559.6323, 2404.521
560.1144, 2399.128
560.5966, 2387.803
561.0787, 2381.340
561.5608, 2382.032
562.0429, 2385.782
562.5250, 2393.250
563.0071, 2401.647
563.4893, 2403.359
563.9714, 2392.197
564.4535, 2374.964
564.9356, 2373.568
565.4177, 2395.639
565.8998, 2411.352
566.3820, 2405.979
566.8641, 2398.414
567.3462, 2404.792
567.8283, 2423.720
568.3104, 2435.694
568.7925, 2424.896
569.2747, 2403.687
569.7568, 2387.999
570.2389, 2378.469
570.7210, 2379.317
571.2031, 2396.965
571.6852, 2421.179
572.1674, 2424.940
572.6495, 2392.224
573.1316, 2374.219
573.6137, 2390.330
574.0958, 2411.565
574.5779, 2414.132
575.0601, 2399.377
575.5422, 2382.545
576.0243, 2374.258
576.5064, 2372.234
576.9885, 2367.261
577.4706, 2356.303
577.9528, 2349.766
578.4349, 2353.859
578.9170, 2360.479
579.3991, 2364.153
579.8812, 2364.575
580.3633, 2364.397
580.8455, 2363.405
581.3276, 2363.511
581.8097, 2370.116
582.2918, 2382.888
582.7739, 2390.857
583.2560, 2386.979
583.7382, 2376.452
584.2203, 2372.327
584.7024, 2379.079
585.1845, 2382.782
585.6666, 2375.898
586.1487, 2370.384
586.6309, 2379.373
587.1130, 2399.219
587.5951, 2414.772
588.0772, 2415.644
588.5593, 2404.497
589.0414, 2388.558
589.5236, 2363.359
590.0057, 2345.664
590.4878, 2347.156
590.9699, 2351.731
591.4520, 2345.540
591.9341, 2329.387
592.4163, 2318.679
592.8984, 2326.856
593.3805, 2341.225
593.8626, 2342.221
594.3447, 2331.832
