##NAMES=Tungusite
##RRUFFID=R070757
##IDEAL CHEMISTRY=Ca_14_Fe^2+^_9_Si_24_O_60_(OH)_22_
##LOCALITY=Nizhnyaya Tunguska River Basin (Lower Tunguska River), Evenkia (Evenkiyskiy Autonomous okrug), Krasnoyarsk Territory (Krasnoyarsk Kray; Krasnoyarskii Krai), Eastern-Siberian Region, Russia
##OWNER=RRUFF
##SOURCE=Michael Scott
##DESCRIPTION=Dark green micaceous flakes
##STATUS=The identification of this mineral has been confirmed by single-crystal X-ray diffraction.
##URL=rruff.info/R070757
80.14258, 463.1688
80.62469, 480.4924
81.10681, 485.1432
81.58893, 478.8222
82.07104, 468.6643
82.55316, 451.4322
83.03528, 433.5358
83.51740, 419.9267
83.99951, 415.2502
84.48163, 412.5412
84.96375, 406.8120
85.44586, 396.6863
85.92798, 392.9306
86.41010, 410.6942
86.89221, 438.7840
87.37433, 456.8644
87.85645, 445.2809
88.33856, 422.8809
88.82068, 408.6227
89.30280, 408.7803
89.78491, 413.9718
90.26703, 415.8113
90.74914, 414.5612
91.23125, 412.1975
91.71337, 411.0129
92.19549, 409.9665
92.67760, 406.4252
93.15972, 395.6149
93.64184, 382.0500
94.12395, 377.0101
94.60607, 381.7100
95.08819, 390.2436
95.57030, 395.0834
96.05242, 396.3363
96.53454, 397.5903
97.01665, 400.2355
97.49877, 404.3171
97.98089, 412.0524
98.46301, 426.9697
98.94512, 443.8666
99.42724, 442.5554
99.90936, 417.4764
100.3915, 390.1949
100.8736, 382.0704
101.3557, 398.3895
101.8378, 413.6613
102.3199, 420.8099
102.8021, 418.3908
103.2842, 422.7079
103.7663, 437.4954
104.2484, 456.5440
104.7305, 468.0664
105.2126, 461.7854
105.6948, 461.7629
106.1769, 478.2470
106.6590, 526.8657
107.1411, 567.1859
107.6232, 591.7125
108.1053, 604.1907
108.5875, 630.0850
109.0696, 685.4367
109.5517, 745.3514
110.0338, 794.0823
110.5159, 819.2893
110.9980, 845.8088
111.4801, 878.9042
111.9623, 920.4567
112.4444, 959.9491
112.9265, 995.8147
113.4086, 1028.657
113.8907, 1059.767
114.3728, 1082.591
114.8550, 1108.553
115.3371, 1144.622
115.8192, 1202.744
116.3013, 1251.936
116.7834, 1271.978
117.2655, 1271.760
117.7477, 1280.803
118.2298, 1324.401
118.7119, 1378.327
119.1940, 1420.114
119.6761, 1422.706
120.1582, 1426.145
120.6404, 1458.909
121.1225, 1521.309
121.6046, 1587.588
122.0867, 1653.799
122.5688, 1711.375
123.0509, 1744.856
123.5331, 1730.270
124.0152, 1693.995
124.4973, 1664.648
124.9794, 1643.728
125.4615, 1634.252
125.9436, 1642.570
126.4258, 1666.550
126.9079, 1696.075
127.3900, 1733.021
127.8721, 1770.695
128.3542, 1790.938
128.8363, 1781.705
129.3185, 1757.058
129.8006, 1743.878
130.2827, 1744.436
130.7648, 1753.002
131.2469, 1760.377
131.7290, 1766.727
132.2112, 1774.064
132.6933, 1781.048
133.1754, 1788.696
133.6575, 1805.057
134.1396, 1831.719
134.6217, 1862.974
135.1039, 1891.171
135.5860, 1916.370
136.0681, 1936.815
136.5502, 1947.052
137.0323, 1944.953
137.5145, 1960.618
137.9966, 2007.877
138.4787, 2070.176
138.9608, 2082.999
139.4429, 2028.071
139.9250, 1963.878
140.4072, 1937.408
140.8893, 1962.026
141.3714, 1982.072
141.8535, 1984.507
142.3356, 1968.461
142.8177, 1965.588
143.2998, 1976.105
143.7820, 1999.412
144.2641, 2037.373
144.7462, 2106.465
145.2283, 2165.279
145.7104, 2201.260
146.1925, 2205.567
146.6747, 2208.599
147.1568, 2206.432
147.6389, 2203.080
148.1210, 2209.957
148.6031, 2245.816
149.0852, 2275.455
149.5674, 2283.249
150.0495, 2238.663
150.5316, 2208.330
151.0137, 2200.375
151.4958, 2212.631
151.9779, 2220.710
152.4601, 2218.769
152.9422, 2214.930
153.4243, 2214.904
153.9064, 2230.835
154.3885, 2239.252
154.8706, 2230.257
155.3528, 2199.320
155.8349, 2179.213
156.3170, 2184.416
156.7991, 2201.340
157.2812, 2213.166
157.7633, 2215.484
158.2455, 2212.327
158.7276, 2204.346
159.2097, 2188.818
159.6918, 2174.994
160.1739, 2168.053
160.6560, 2165.199
161.1382, 2159.856
161.6203, 2152.396
162.1024, 2140.249
162.5845, 2120.893
163.0666, 2080.742
163.5487, 2047.768
164.0309, 2034.774
164.5130, 2040.360
164.9951, 2057.038
165.4772, 2095.823
165.9593, 2138.906
166.4414, 2167.078
166.9236, 2165.489
167.4057, 2152.314
167.8878, 2135.188
168.3699, 2114.003
168.8520, 2099.295
169.3341, 2111.388
169.8163, 2133.986
170.2984, 2138.625
170.7805, 2085.884
171.2626, 2021.041
171.7447, 1995.306
172.2268, 2023.656
172.7090, 2057.830
173.1911, 2053.425
173.6732, 2019.456
174.1553, 1985.414
174.6374, 1970.425
175.1195, 1965.585
175.6017, 1958.137
176.0838, 1945.761
176.5659, 1929.619
177.0480, 1906.558
177.5301, 1878.057
178.0122, 1855.339
178.4944, 1853.801
178.9765, 1864.820
179.4586, 1868.214
179.9407, 1851.840
180.4228, 1827.231
180.9049, 1816.725
181.3871, 1821.229
181.8692, 1823.198
182.3513, 1796.547
182.8334, 1749.466
183.3155, 1714.004
183.7976, 1714.345
184.2797, 1737.120
184.7619, 1743.115
185.2440, 1729.425
185.7261, 1708.632
186.2082, 1695.761
186.6903, 1690.519
187.1724, 1688.697
187.6546, 1687.932
188.1367, 1688.600
188.6188, 1693.349
189.1009, 1703.673
189.5830, 1715.810
190.0651, 1721.700
190.5473, 1721.001
191.0294, 1721.006
191.5115, 1730.387
191.9936, 1747.745
192.4757, 1754.214
192.9578, 1739.964
193.4400, 1716.531
193.9221, 1722.851
194.4042, 1763.214
194.8863, 1809.405
195.3684, 1833.787
195.8505, 1835.896
196.3327, 1840.175
196.8148, 1853.124
197.2969, 1873.631
197.7790, 1892.602
198.2611, 1908.074
198.7432, 1927.746
199.2254, 1964.602
199.7075, 2021.841
200.1896, 2074.467
200.6717, 2112.541
201.1538, 2135.531
201.6359, 2160.537
202.1181, 2188.454
202.6002, 2216.949
203.0823, 2241.896
203.5644, 2262.650
204.0465, 2282.338
204.5286, 2304.280
205.0108, 2329.851
205.4929, 2346.678
205.9750, 2355.773
206.4571, 2354.816
206.9392, 2333.227
207.4213, 2282.527
207.9035, 2234.325
208.3856, 2210.634
208.8677, 2219.381
209.3498, 2218.297
209.8319, 2201.295
210.3140, 2171.997
210.7962, 2147.716
211.2783, 2132.881
211.7604, 2114.424
212.2425, 2079.932
212.7246, 2021.824
213.2067, 1972.161
213.6889, 1937.864
214.1710, 1917.603
214.6531, 1893.289
215.1352, 1864.002
215.6173, 1831.776
216.0994, 1797.655
216.5816, 1758.102
217.0637, 1725.172
217.5458, 1703.381
218.0279, 1693.851
218.5100, 1678.465
218.9921, 1654.882
219.4743, 1627.910
219.9564, 1602.974
220.4385, 1578.500
220.9206, 1559.756
221.4027, 1551.452
221.8848, 1558.133
222.3670, 1551.679
222.8491, 1525.733
223.3312, 1490.616
223.8133, 1465.519
224.2954, 1453.502
224.7775, 1445.864
225.2596, 1440.109
225.7418, 1438.005
226.2239, 1432.812
226.7060, 1423.103
227.1881, 1410.828
227.6702, 1401.225
228.1523, 1397.040
228.6345, 1391.571
229.1166, 1380.309
229.5987, 1357.064
230.0808, 1342.623
230.5629, 1339.723
231.0450, 1346.374
231.5272, 1355.178
232.0093, 1368.244
232.4914, 1380.584
232.9735, 1388.435
233.4556, 1386.401
233.9377, 1391.377
234.4199, 1409.920
234.9020, 1439.343
235.3841, 1452.400
235.8662, 1439.647
236.3483, 1421.302
236.8304, 1411.929
237.3126, 1412.612
237.7947, 1420.574
238.2768, 1438.487
238.7589, 1466.109
239.2410, 1486.934
239.7231, 1500.150
240.2053, 1507.389
240.6874, 1508.956
241.1695, 1498.623
241.6516, 1493.943
242.1337, 1500.567
242.6158, 1519.945
243.0980, 1531.585
243.5801, 1530.919
244.0622, 1526.335
244.5443, 1527.622
245.0264, 1537.385
245.5085, 1548.620
245.9907, 1560.347
246.4728, 1573.108
246.9549, 1582.749
247.4370, 1585.771
247.9191, 1588.111
248.4012, 1599.493
248.8834, 1627.295
249.3655, 1651.423
249.8476, 1665.202
250.3297, 1665.645
250.8118, 1667.170
251.2939, 1668.532
251.7761, 1671.647
252.2582, 1679.984
252.7403, 1694.248
253.2224, 1712.692
253.7045, 1736.369
254.1866, 1770.052
254.6688, 1794.102
255.1509, 1805.391
255.6330, 1808.395
256.1151, 1812.495
256.5972, 1818.292
257.0793, 1824.206
257.5615, 1828.408
258.0436, 1827.333
258.5257, 1835.115
259.0078, 1854.194
259.4899, 1881.415
259.9720, 1909.586
260.4542, 1940.833
260.9363, 1969.298
261.4184, 1991.808
261.9005, 2005.967
262.3826, 2020.469
262.8647, 2035.397
263.3469, 2050.981
263.8290, 2068.700
264.3111, 2092.023
264.7932, 2110.789
265.2753, 2116.432
265.7574, 2102.872
266.2396, 2098.022
266.7217, 2105.265
267.2038, 2122.639
267.6859, 2142.618
268.1680, 2163.278
268.6501, 2190.353
269.1323, 2227.903
269.6144, 2276.116
270.0965, 2331.157
270.5786, 2392.003
271.0607, 2458.788
271.5428, 2536.589
272.0250, 2629.464
272.5071, 2721.548
272.9892, 2799.366
273.4713, 2859.088
273.9534, 2925.496
274.4355, 3003.588
274.9177, 3091.068
275.3998, 3183.508
275.8819, 3284.793
276.3640, 3377.809
276.8461, 3443.666
277.3282, 3479.086
277.8104, 3519.961
278.2925, 3577.850
278.7746, 3645.848
279.2567, 3694.420
279.7388, 3723.908
280.2209, 3733.001
280.7031, 3715.337
281.1852, 3669.792
281.6673, 3621.887
282.1494, 3577.656
282.6315, 3534.972
283.1136, 3485.289
283.5958, 3428.363
284.0779, 3365.800
284.5600, 3296.912
285.0421, 3221.912
285.5242, 3149.098
286.0063, 3085.607
286.4884, 3025.055
286.9706, 2942.554
287.4527, 2835.620
287.9348, 2724.205
288.4169, 2626.402
288.8990, 2542.068
289.3811, 2461.952
289.8633, 2383.655
290.3454, 2308.403
290.8275, 2238.159
291.3096, 2172.061
291.7917, 2118.378
292.2738, 2089.158
292.7560, 2080.625
293.2381, 2073.989
293.7202, 2063.469
294.2023, 2051.085
294.6844, 2042.529
295.1665, 2038.084
295.6487, 2031.496
296.1308, 2011.849
296.6129, 1984.009
297.0950, 1965.023
297.5771, 1969.637
298.0592, 1981.730
298.5414, 1972.371
299.0235, 1941.330
299.5056, 1904.561
299.9877, 1875.192
300.4698, 1850.595
300.9519, 1823.853
301.4341, 1791.185
301.9162, 1756.149
302.3983, 1720.813
302.8804, 1685.559
303.3625, 1655.240
303.8446, 1638.589
304.3268, 1629.443
304.8089, 1617.131
305.2910, 1593.497
305.7731, 1567.561
306.2552, 1547.773
306.7373, 1533.856
307.2195, 1523.702
307.7016, 1518.365
308.1837, 1515.241
308.6658, 1510.827
309.1479, 1503.758
309.6300, 1494.982
310.1122, 1485.065
310.5943, 1473.945
311.0764, 1461.686
311.5585, 1445.715
312.0406, 1429.555
312.5227, 1416.955
313.0049, 1409.824
313.4870, 1406.274
313.9691, 1407.720
314.4512, 1413.550
314.9333, 1416.269
315.4154, 1412.002
315.8976, 1403.101
316.3797, 1391.785
316.8618, 1375.855
317.3439, 1360.200
317.8260, 1345.232
318.3081, 1331.302
318.7903, 1322.970
319.2724, 1330.723
319.7545, 1340.106
320.2366, 1339.672
320.7187, 1314.454
321.2008, 1291.707
321.6830, 1277.553
322.1651, 1271.751
322.6472, 1271.882
323.1293, 1285.382
323.6114, 1300.077
324.0935, 1307.760
324.5757, 1302.556
325.0578, 1295.602
325.5399, 1283.636
326.0220, 1268.286
326.5041, 1265.128
326.9862, 1288.713
327.4684, 1315.625
327.9505, 1332.525
328.4326, 1331.336
328.9147, 1330.010
329.3968, 1327.779
329.8789, 1325.460
330.3611, 1328.318
330.8432, 1339.445
331.3253, 1352.654
331.8074, 1364.330
332.2895, 1372.025
332.7716, 1382.590
333.2538, 1396.248
333.7359, 1413.128
334.2180, 1434.560
334.7001, 1463.800
335.1822, 1492.752
335.6643, 1516.156
336.1465, 1531.892
336.6286, 1548.892
337.1107, 1565.906
337.5928, 1585.197
338.0749, 1614.162
338.5570, 1655.356
339.0392, 1698.160
339.5213, 1735.408
340.0034, 1766.377
340.4855, 1800.767
340.9676, 1839.730
341.4497, 1882.085
341.9319, 1928.104
342.4140, 1978.607
342.8961, 2024.039
343.3782, 2057.194
343.8603, 2079.247
344.3424, 2101.043
344.8246, 2123.813
345.3067, 2145.532
345.7888, 2163.259
346.2709, 2176.926
346.7530, 2188.869
347.2351, 2200.710
347.7173, 2211.800
348.1994, 2217.957
348.6815, 2217.318
349.1636, 2219.558
349.6457, 2238.275
350.1278, 2270.494
350.6100, 2304.869
351.0921, 2334.361
351.5742, 2362.911
352.0563, 2399.228
352.5384, 2444.250
353.0205, 2488.334
353.5027, 2524.040
353.9848, 2552.273
354.4669, 2573.659
354.9490, 2590.099
355.4311, 2599.016
355.9132, 2599.449
356.3954, 2591.445
356.8775, 2571.094
357.3596, 2527.987
357.8417, 2473.139
358.3238, 2420.125
358.8059, 2383.430
359.2881, 2342.042
359.7702, 2283.206
360.2523, 2207.559
360.7344, 2126.421
361.2165, 2033.511
361.6986, 1942.823
362.1808, 1865.396
362.6629, 1812.165
363.1450, 1764.465
363.6271, 1715.983
364.1092, 1667.670
364.5913, 1626.546
365.0735, 1582.262
365.5556, 1553.295
366.0377, 1534.746
366.5198, 1541.479
367.0019, 1539.561
367.4840, 1529.457
367.9662, 1486.646
368.4482, 1486.071
368.9304, 1468.567
369.4125, 1450.371
369.8946, 1455.738
370.3767, 1417.686
370.8588, 1422.679
371.3409, 1410.489
371.8231, 1406.161
372.3052, 1384.806
372.7873, 1368.712
373.2694, 1369.651
373.7515, 1361.159
374.2336, 1337.844
374.7158, 1334.016
375.1979, 1295.369
375.6800, 1287.278
376.1621, 1292.370
376.6442, 1269.912
377.1263, 1266.397
377.6085, 1255.666
378.0906, 1212.146
378.5727, 1225.652
379.0548, 1206.657
379.5369, 1203.256
380.0190, 1197.498
380.5012, 1189.642
380.9833, 1188.883
381.4654, 1204.055
381.9475, 1227.401
382.4296, 1233.999
382.9117, 1222.981
383.3939, 1207.768
383.8760, 1197.076
384.3581, 1191.918
384.8402, 1196.990
385.3223, 1220.986
385.8044, 1248.781
386.2866, 1257.329
386.7687, 1248.536
387.2508, 1236.969
387.7329, 1229.500
388.2150, 1226.693
388.6971, 1229.773
389.1793, 1241.242
389.6614, 1255.180
390.1435, 1268.474
390.6256, 1281.039
391.1077, 1292.128
391.5898, 1297.684
392.0720, 1303.937
392.5541, 1317.021
393.0362, 1342.535
393.5183, 1363.389
394.0004, 1371.907
394.4825, 1371.512
394.9647, 1368.467
395.4468, 1361.265
395.9289, 1354.425
396.4110, 1347.954
396.8931, 1338.991
397.3752, 1340.845
397.8574, 1366.319
398.3395, 1399.700
398.8216, 1421.927
399.3037, 1427.029
399.7858, 1427.006
400.2679, 1421.811
400.7501, 1410.766
401.2322, 1405.419
401.7143, 1409.996
402.1964, 1416.205
402.6785, 1417.313
403.1606, 1413.171
403.6428, 1403.934
404.1249, 1387.821
404.6070, 1366.524
405.0891, 1350.056
405.5712, 1340.058
406.0533, 1330.537
406.5355, 1316.143
407.0176, 1296.300
407.4997, 1280.669
407.9818, 1270.281
408.4639, 1264.298
408.9460, 1262.211
409.4282, 1264.028
409.9103, 1265.861
410.3924, 1265.484
410.8745, 1263.346
411.3566, 1260.841
411.8387, 1257.970
412.3209, 1255.136
412.8030, 1253.031
413.2851, 1251.435
413.7672, 1249.637
414.2493, 1247.353
414.7314, 1244.700
415.2136, 1241.680
415.6957, 1238.305
416.1778, 1234.974
416.6599, 1231.037
417.1420, 1227.556
417.6241, 1226.033
418.1063, 1228.407
418.5884, 1231.477
419.0705, 1235.293
419.5526, 1239.174
420.0347, 1238.946
420.5168, 1228.093
420.9990, 1215.491
421.4811, 1207.657
421.9632, 1210.950
422.4453, 1211.742
422.9274, 1205.033
423.4095, 1193.890
423.8917, 1187.002
424.3738, 1185.637
424.8559, 1188.252
425.3380, 1195.616
425.8201, 1212.866
426.3022, 1221.150
426.7844, 1216.297
427.2665, 1205.062
427.7486, 1196.987
428.2307, 1192.271
428.7128, 1190.176
429.1949, 1190.679
429.6771, 1193.726
430.1592, 1197.912
430.6413, 1202.674
431.1234, 1209.825
431.6055, 1223.583
432.0876, 1244.266
432.5698, 1257.999
433.0519, 1258.505
433.5340, 1252.993
434.0161, 1262.061
434.4982, 1285.309
434.9803, 1307.105
435.4625, 1311.610
435.9446, 1305.983
436.4267, 1309.735
436.9088, 1327.967
437.3909, 1349.377
437.8730, 1363.749
438.3552, 1371.496
438.8373, 1373.731
439.3194, 1365.402
439.8015, 1355.169
440.2836, 1352.116
440.7657, 1357.664
441.2479, 1362.301
441.7300, 1358.378
442.2121, 1351.283
442.6942, 1347.386
443.1763, 1355.500
443.6584, 1360.485
444.1406, 1354.087
444.6227, 1337.263
445.1048, 1325.113
445.5869, 1324.310
446.0690, 1326.584
446.5511, 1327.086
447.0333, 1318.420
447.5154, 1317.324
447.9975, 1328.070
448.4796, 1346.174
448.9617, 1359.559
449.4438, 1366.230
449.9260, 1371.078
450.4081, 1375.749
450.8902, 1380.176
451.3723, 1384.597
451.8544, 1388.959
452.3365, 1393.431
452.8186, 1398.802
453.3008, 1405.252
453.7829, 1410.456
454.2650, 1415.348
454.7471, 1418.151
455.2292, 1409.896
455.7113, 1389.871
456.1935, 1370.379
456.6756, 1361.028
457.1577, 1360.329
457.6398, 1364.387
458.1219, 1374.100
458.6040, 1385.118
459.0862, 1392.356
459.5683, 1396.473
460.0504, 1399.774
460.5325, 1401.507
461.0146, 1404.163
461.4967, 1411.792
461.9789, 1426.524
462.4610, 1436.732
462.9431, 1435.572
463.4252, 1426.597
463.9073, 1414.373
464.3894, 1396.631
464.8716, 1379.386
465.3537, 1368.265
465.8358, 1363.190
466.3179, 1346.546
466.8000, 1284.434
467.2821, 1232.238
467.7643, 1226.300
468.2464, 1322.263
468.7285, 1372.554
469.2106, 1353.240
469.6927, 1288.892
470.1748, 1241.734
470.6570, 1212.848
471.1391, 1198.726
471.6212, 1204.116
472.1033, 1231.223
472.5854, 1238.341
473.0675, 1221.130
473.5497, 1195.984
474.0318, 1181.708
474.5139, 1177.758
474.9960, 1177.977
475.4781, 1182.571
475.9602, 1188.759
476.4424, 1188.906
476.9245, 1183.694
477.4066, 1181.460
477.8887, 1190.816
478.3708, 1206.324
478.8529, 1220.085
479.3351, 1230.486
479.8172, 1239.202
480.2993, 1245.291
480.7814, 1250.663
481.2635, 1259.334
481.7456, 1279.904
482.2278, 1298.539
482.7099, 1306.272
483.1920, 1300.991
483.6741, 1297.944
484.1562, 1303.557
484.6383, 1311.600
485.1205, 1316.701
485.6026, 1311.377
486.0847, 1311.690
486.5668, 1323.658
487.0489, 1343.277
487.5310, 1350.688
488.0132, 1337.685
488.4953, 1325.852
488.9774, 1326.617
489.4595, 1342.667
489.9416, 1357.135
490.4237, 1369.990
490.9059, 1381.247
491.3880, 1389.991
491.8701, 1396.192
492.3522, 1405.146
492.8343, 1421.912
493.3164, 1441.409
493.7986, 1447.546
494.2807, 1440.635
494.7628, 1436.542
495.2449, 1454.855
495.7270, 1483.479
496.2091, 1499.888
496.6913, 1495.858
497.1734, 1487.176
497.6555, 1484.045
498.1376, 1485.674
498.6197, 1490.146
499.1018, 1496.869
499.5840, 1505.933
500.0661, 1520.286
500.5482, 1541.612
501.0303, 1554.073
501.5124, 1551.715
501.9945, 1540.114
502.4767, 1524.339
502.9588, 1503.054
503.4409, 1479.435
503.9230, 1452.437
504.4051, 1423.205
504.8872, 1396.637
505.3694, 1374.194
505.8515, 1351.814
506.3336, 1327.950
506.8157, 1302.473
507.2978, 1274.852
507.7799, 1244.350
508.2621, 1213.326
508.7442, 1184.090
509.2263, 1156.722
509.7084, 1130.792
510.1905, 1106.373
510.6726, 1083.384
511.1548, 1061.306
511.6369, 1040.142
512.1190, 1021.325
512.6011, 977.0428
513.0832, 985.2682
513.5653, 980.9550
514.0474, 964.8446
514.5295, 897.8257
515.0117, 899.4329
515.4938, 875.3099
515.9759, 851.3398
516.4580, 866.2203
516.9401, 813.0986
517.4222, 829.9089
517.9044, 820.5661
518.3865, 825.0349
518.8686, 803.5988
519.3507, 791.8156
519.8328, 808.4691
520.3149, 811.3386
520.7971, 791.8233
521.2792, 804.6619
521.7613, 763.2133
522.2434, 771.7720
522.7255, 802.6243
523.2076, 790.7863
523.6898, 810.4335
524.1719, 819.8311
524.6540, 778.1836
525.1361, 828.7672
525.6182, 809.0322
526.1003, 812.4004
526.5825, 815.8072
527.0646, 815.4024
527.5467, 808.1803
528.0288, 800.5722
528.5109, 800.4957
528.9930, 805.8928
529.4752, 810.6739
529.9573, 811.1315
530.4394, 810.2014
530.9215, 809.3625
531.4036, 808.5668
531.8857, 809.3999
532.3679, 816.8922
532.8500, 824.0305
533.3321, 824.3242
533.8142, 805.8212
534.2963, 793.9402
534.7784, 794.1013
535.2606, 802.6881
535.7427, 806.9124
536.2248, 805.1116
536.7069, 802.1729
537.1890, 798.6348
537.6711, 793.9164
538.1533, 798.3309
538.6354, 814.4627
539.1175, 832.3492
539.5996, 839.7613
540.0817, 837.9954
540.5638, 835.5286
541.0460, 834.4507
541.5281, 833.8732
542.0102, 831.2970
542.4923, 827.5345
542.9744, 826.3686
543.4565, 829.9344
543.9387, 837.2557
544.4208, 850.9337
544.9029, 873.3033
545.3850, 885.7358
545.8671, 868.6766
546.3492, 841.3448
546.8314, 824.5592
547.3135, 831.2359
547.7956, 840.0511
548.2777, 848.9191
548.7598, 857.1979
549.2419, 861.8367
549.7241, 857.6052
550.2062, 856.9322
550.6883, 867.6489
551.1704, 893.8908
551.6525, 904.0930
552.1346, 892.5712
552.6168, 877.5719
553.0989, 881.9590
553.5810, 904.9147
554.0631, 927.3926
554.5452, 945.0314
555.0273, 959.7535
555.5095, 972.4184
555.9916, 984.0769
556.4737, 1000.228
556.9558, 1027.371
557.4379, 1059.176
557.9200, 1088.462
558.4022, 1114.109
558.8843, 1140.293
559.3664, 1166.867
559.8485, 1196.402
560.3306, 1231.682
560.8127, 1277.890
561.2949, 1324.315
561.7770, 1367.544
562.2591, 1409.207
562.7412, 1454.147
563.2233, 1496.860
563.7054, 1549.787
564.1876, 1614.600
564.6697, 1690.365
565.1518, 1793.977
565.6339, 1933.718
566.1160, 2079.706
566.5981, 2192.627
567.0803, 2273.367
567.5624, 2386.325
568.0445, 2547.327
568.5266, 2736.791
569.0087, 2927.424
569.4908, 3119.265
569.9730, 3304.128
570.4551, 3472.925
570.9372, 3637.084
571.4193, 3820.055
571.9014, 4020.896
572.3835, 4206.488
572.8657, 4374.404
573.3478, 4509.602
573.8299, 4597.441
574.3120, 4639.836
