##NAMES=Tungusite
##RRUFFID=R070757
##IDEAL CHEMISTRY=Ca_14_Fe^2+^_9_Si_24_O_60_(OH)_22_
##LOCALITY=Nizhnyaya Tunguska River Basin (Lower Tunguska River), Evenkia (Evenkiyskiy Autonomous okrug), Krasnoyarsk Territory (Krasnoyarsk Kray; Krasnoyarskii Krai), Eastern-Siberian Region, Russia
##OWNER=RRUFF
##SOURCE=Michael Scott
##DESCRIPTION=Dark green micaceous flakes
##STATUS=The identification of this mineral has been confirmed by single-crystal X-ray diffraction.
##URL=rruff.info/R070757
87.96063, 3939.804
88.44275, 4030.272
88.92487, 4122.341
89.40698, 4219.156
89.88910, 4323.226
90.37122, 4429.151
90.85333, 4541.188
91.33545, 4657.900
91.81757, 4766.483
92.29968, 4842.907
92.78180, 4858.334
93.26392, 4870.062
93.74603, 4837.913
94.22815, 4784.866
94.71027, 4747.569
95.19238, 4731.043
95.67450, 4724.568
96.15662, 4696.164
96.63873, 4629.044
97.12085, 4561.962
97.60297, 4513.451
98.08508, 4482.514
98.56720, 4468.844
99.04932, 4491.752
99.53143, 4528.997
100.0135, 4540.696
100.4957, 4501.579
100.9778, 4432.628
101.4599, 4377.630
101.9420, 4337.253
102.4241, 4309.832
102.9063, 4289.832
103.3884, 4278.151
103.8705, 4277.530
104.3526, 4287.785
104.8347, 4307.676
105.3168, 4348.092
105.7990, 4438.012
106.2811, 4527.077
106.7632, 4598.012
107.2453, 4646.364
107.7274, 4673.951
108.2095, 4681.148
108.6917, 4649.811
109.1738, 4627.007
109.6559, 4623.496
110.1380, 4623.347
110.6201, 4612.783
111.1022, 4585.914
111.5844, 4545.114
112.0665, 4498.371
112.5486, 4444.541
113.0307, 4386.918
113.5128, 4321.830
113.9949, 4253.076
114.4771, 4187.767
114.9592, 4131.104
115.4413, 4083.028
115.9234, 4037.967
116.4055, 3994.307
116.8876, 3954.357
117.3698, 3920.899
117.8519, 3894.253
118.3340, 3871.151
118.8161, 3849.454
119.2982, 3829.309
119.7803, 3811.913
120.2624, 3793.305
120.7446, 3777.849
121.2267, 3776.312
121.7088, 3792.394
122.1909, 3820.119
122.6730, 3867.688
123.1551, 3928.092
123.6373, 3966.390
124.1194, 3938.600
124.6015, 3837.397
125.0836, 3771.974
125.5657, 3800.951
126.0478, 3839.572
126.5300, 3845.793
127.0121, 3812.794
127.4942, 3764.431
127.9763, 3735.730
128.4584, 3735.604
128.9406, 3739.710
129.4227, 3752.635
129.9048, 3764.846
130.3869, 3768.806
130.8690, 3761.163
131.3511, 3743.133
131.8333, 3718.878
132.3154, 3665.668
132.7975, 3631.100
133.2796, 3636.589
133.7617, 3663.630
134.2438, 3679.529
134.7260, 3660.956
135.2081, 3611.119
135.6902, 3589.055
136.1723, 3612.099
136.6544, 3640.857
137.1365, 3655.313
137.6187, 3656.296
138.1008, 3658.445
138.5829, 3676.845
139.0650, 3711.010
139.5471, 3732.498
140.0292, 3734.206
140.5114, 3725.032
140.9935, 3709.661
141.4756, 3685.293
141.9577, 3669.181
142.4398, 3687.108
142.9219, 3731.790
143.4041, 3772.956
143.8862, 3798.111
144.3683, 3810.024
144.8504, 3816.900
145.3325, 3814.940
145.8146, 3814.284
146.2968, 3823.774
146.7789, 3842.982
147.2610, 3863.598
147.7431, 3881.189
148.2252, 3896.537
148.7073, 3901.871
149.1895, 3887.707
149.6716, 3867.461
150.1537, 3846.579
150.6358, 3826.470
151.1179, 3807.331
151.6000, 3789.689
152.0821, 3773.935
152.5643, 3758.888
153.0464, 3735.578
153.5285, 3716.645
154.0106, 3717.074
154.4927, 3743.477
154.9748, 3784.381
155.4570, 3804.334
155.9391, 3779.861
156.4212, 3759.258
156.9033, 3748.105
157.3854, 3743.573
157.8675, 3741.393
158.3497, 3739.054
158.8318, 3736.742
159.3139, 3736.783
159.7960, 3750.220
160.2781, 3754.748
160.7602, 3735.738
161.2424, 3700.223
161.7245, 3667.591
162.2066, 3651.899
162.6887, 3654.531
163.1708, 3665.223
163.6529, 3705.281
164.1351, 3736.735
164.6172, 3722.308
165.0993, 3662.173
165.5814, 3605.414
166.0635, 3605.497
166.5456, 3661.509
167.0278, 3694.628
167.5099, 3681.480
167.9920, 3647.114
168.4741, 3621.389
168.9562, 3609.211
169.4383, 3602.638
169.9205, 3596.118
170.4026, 3589.406
170.8847, 3578.588
171.3668, 3555.217
171.8489, 3525.870
172.3310, 3513.691
172.8132, 3537.938
173.2953, 3557.102
173.7774, 3531.738
174.2595, 3464.982
174.7416, 3394.918
175.2237, 3347.203
175.7059, 3321.096
176.1880, 3299.460
176.6701, 3288.810
177.1522, 3273.923
177.6343, 3237.584
178.1164, 3179.556
178.5986, 3126.776
179.0807, 3118.977
179.5628, 3173.665
180.0449, 3199.080
180.5270, 3151.606
181.0091, 3090.493
181.4913, 3051.030
181.9734, 3042.956
182.4555, 3052.115
182.9376, 3056.059
183.4197, 3054.846
183.9018, 3047.300
184.3840, 3025.631
184.8661, 3002.707
185.3482, 2990.701
185.8303, 2994.496
186.3124, 3008.049
186.7945, 3015.692
187.2767, 3012.898
187.7588, 3009.084
188.2409, 3002.246
188.7230, 2995.685
189.2051, 2992.739
189.6872, 2995.025
190.1694, 3002.514
190.6515, 3015.471
191.1336, 3050.526
191.6157, 3072.584
192.0978, 3058.768
192.5799, 3028.553
193.0621, 3017.768
193.5442, 3050.279
194.0263, 3120.104
194.5084, 3169.303
194.9905, 3189.307
195.4726, 3202.964
195.9548, 3212.535
196.4369, 3221.298
196.9190, 3238.024
197.4011, 3270.722
197.8832, 3317.860
198.3653, 3356.668
198.8475, 3380.604
199.3296, 3402.422
199.8117, 3423.940
200.2938, 3447.007
200.7759, 3485.043
201.2580, 3559.213
201.7402, 3661.756
202.2223, 3726.854
202.7044, 3726.925
203.1865, 3704.840
203.6686, 3698.426
204.1507, 3710.493
204.6329, 3722.756
205.1150, 3718.746
205.5971, 3702.561
206.0792, 3688.712
206.5613, 3684.896
207.0434, 3682.984
207.5256, 3672.081
208.0077, 3650.914
208.4898, 3623.461
208.9719, 3589.034
209.4540, 3550.396
209.9361, 3513.958
210.4183, 3487.931
210.9004, 3465.048
211.3825, 3426.596
211.8646, 3363.474
212.3467, 3301.553
212.8288, 3263.489
213.3110, 3241.063
213.7931, 3213.721
214.2752, 3165.861
214.7573, 3103.083
215.2394, 3049.535
215.7215, 3006.912
216.2037, 2973.135
216.6858, 2950.312
217.1679, 2934.648
217.6500, 2915.540
218.1321, 2881.918
218.6142, 2835.549
219.0964, 2798.680
219.5785, 2781.523
220.0606, 2763.465
220.5427, 2731.019
221.0248, 2688.457
221.5069, 2649.938
221.9891, 2632.900
222.4712, 2639.156
222.9533, 2625.466
223.4354, 2560.716
223.9175, 2502.633
224.3996, 2475.787
224.8818, 2476.933
225.3639, 2488.131
225.8460, 2495.075
226.3281, 2498.014
226.8102, 2494.482
227.2923, 2474.779
227.7745, 2456.565
228.2566, 2448.839
228.7387, 2450.310
229.2208, 2452.865
229.7029, 2447.056
230.1850, 2429.250
230.6672, 2419.604
231.1493, 2423.644
231.6314, 2430.446
232.1135, 2434.355
232.5956, 2435.653
233.0777, 2438.700
233.5599, 2448.805
234.0420, 2468.517
234.5241, 2486.242
235.0062, 2506.813
235.4883, 2522.146
235.9704, 2522.898
236.4526, 2511.292
236.9347, 2500.294
237.4168, 2505.899
237.8989, 2535.784
238.3810, 2557.297
238.8631, 2562.060
239.3453, 2540.516
239.8274, 2574.948
240.3095, 2596.264
240.7916, 2605.217
241.2737, 2562.186
241.7558, 2588.262
242.2380, 2587.856
242.7201, 2587.191
243.2022, 2625.466
243.6843, 2594.445
244.1664, 2633.844
244.6485, 2646.343
245.1307, 2672.417
245.6128, 2671.834
246.0949, 2680.616
246.5770, 2717.788
247.0591, 2740.584
247.5412, 2740.292
248.0234, 2772.361
248.5055, 2749.023
248.9876, 2775.926
249.4697, 2824.996
249.9518, 2830.411
250.4339, 2867.302
250.9161, 2893.404
251.3982, 2875.889
251.8803, 2870.228
252.3624, 2862.044
252.8445, 2866.644
253.3266, 2887.995
253.8088, 2908.828
254.2909, 2929.535
254.7730, 2949.388
255.2551, 2967.649
255.7372, 2984.229
256.2193, 2999.640
256.7014, 3013.422
257.1836, 3024.376
257.6657, 3042.609
258.1478, 3074.171
258.6299, 3109.020
259.1120, 3137.806
259.5941, 3159.795
260.0763, 3182.803
260.5584, 3215.513
261.0405, 3260.022
261.5226, 3298.766
262.0047, 3327.057
262.4868, 3352.297
262.9690, 3382.891
263.4511, 3419.092
263.9332, 3449.945
264.4153, 3461.610
264.8974, 3452.582
265.3795, 3459.940
265.8617, 3493.954
266.3438, 3538.282
266.8259, 3580.823
267.3080, 3620.508
267.7901, 3660.070
268.2722, 3701.077
268.7544, 3744.195
269.2365, 3789.987
269.7186, 3831.373
270.2007, 3880.362
270.6828, 3948.921
271.1649, 4037.312
271.6471, 4132.167
272.1292, 4225.512
272.6113, 4317.349
273.0934, 4408.628
273.5755, 4501.020
274.0576, 4591.657
274.5398, 4677.999
275.0219, 4759.904
275.5040, 4841.376
275.9861, 4927.530
276.4682, 5015.295
276.9503, 5086.958
277.4325, 5141.124
277.9146, 5180.770
278.3967, 5208.173
278.8788, 5223.276
279.3609, 5223.678
279.8430, 5205.039
280.3252, 5169.547
280.8073, 5132.807
281.2894, 5088.173
281.7715, 5048.049
282.2536, 5031.816
282.7357, 5032.765
283.2179, 5011.722
283.7000, 4942.855
284.1821, 4838.366
284.6642, 4742.163
285.1463, 4663.387
285.6284, 4581.429
286.1106, 4481.280
286.5927, 4366.979
287.0748, 4256.465
287.5569, 4156.146
288.0390, 4065.248
288.5211, 3981.081
289.0033, 3909.305
289.4854, 3834.058
289.9675, 3738.715
290.4496, 3632.210
290.9317, 3544.245
291.4138, 3489.972
291.8960, 3455.783
292.3781, 3412.480
292.8602, 3353.584
293.3423, 3302.712
293.8244, 3267.062
294.3065, 3246.271
294.7887, 3244.047
295.2708, 3267.498
295.7529, 3297.673
296.2350, 3300.232
296.7171, 3274.048
297.1992, 3239.518
297.6814, 3197.458
298.1635, 3152.186
298.6456, 3112.708
299.1277, 3082.662
299.6098, 3053.983
300.0919, 3014.172
300.5741, 2963.250
301.0562, 2909.875
301.5383, 2852.021
302.0204, 2794.435
302.5025, 2743.849
302.9846, 2701.626
303.4668, 2665.780
303.9489, 2635.422
304.4310, 2610.979
304.9131, 2585.671
305.3952, 2555.769
305.8773, 2526.133
306.3595, 2502.848
306.8416, 2486.566
307.3237, 2471.345
307.8058, 2450.022
308.2879, 2422.563
308.7701, 2404.714
309.2522, 2408.479
309.7343, 2414.041
310.2164, 2403.505
310.6985, 2377.242
311.1806, 2350.033
311.6628, 2332.299
312.1449, 2324.318
312.6270, 2318.052
313.1091, 2314.466
313.5912, 2311.662
314.0733, 2310.707
314.5555, 2310.314
315.0376, 2305.223
315.5197, 2291.370
316.0018, 2270.274
316.4839, 2251.420
316.9660, 2235.948
317.4482, 2221.031
317.9303, 2204.773
318.4124, 2188.184
318.8945, 2173.228
319.3766, 2160.705
319.8587, 2150.893
320.3409, 2145.587
320.8230, 2150.648
321.3051, 2151.615
321.7872, 2141.419
322.2693, 2126.251
322.7514, 2115.110
323.2336, 2111.375
323.7157, 2113.010
324.1978, 2116.211
324.6799, 2121.947
325.1620, 2127.549
325.6441, 2130.628
326.1263, 2134.496
326.6084, 2143.760
327.0905, 2159.342
327.5726, 2176.643
328.0547, 2189.504
328.5368, 2195.856
329.0190, 2202.117
329.5011, 2203.228
329.9832, 2207.739
330.4653, 2226.278
330.9474, 2257.591
331.4295, 2286.948
331.9117, 2297.526
332.3938, 2283.263
332.8759, 2285.068
333.3580, 2308.685
333.8401, 2339.662
334.3222, 2373.526
334.8044, 2408.861
335.2865, 2444.945
335.7686, 2481.321
336.2507, 2517.968
336.7328, 2553.518
337.2149, 2584.149
337.6971, 2617.663
338.1792, 2659.484
338.6613, 2705.346
339.1434, 2745.617
339.6255, 2773.956
340.1076, 2796.189
340.5898, 2838.466
341.0719, 2933.983
341.5540, 3007.647
342.0361, 3036.635
342.5182, 3046.215
343.0003, 3064.537
343.4825, 3102.573
343.9646, 3149.392
344.4467, 3181.296
344.9288, 3181.780
345.4109, 3199.856
345.8930, 3255.353
346.3752, 3315.219
346.8573, 3355.891
347.3394, 3372.467
347.8215, 3376.763
348.3036, 3381.451
348.7857, 3385.401
349.2679, 3394.366
349.7500, 3411.867
350.2321, 3431.792
350.7142, 3451.641
351.1963, 3471.419
351.6784, 3492.329
352.1606, 3515.435
352.6427, 3540.643
353.1248, 3566.946
353.6069, 3598.049
354.0890, 3625.262
354.5711, 3646.116
355.0533, 3660.926
355.5354, 3672.080
356.0175, 3686.039
356.4996, 3694.043
356.9817, 3666.273
357.4638, 3586.123
357.9460, 3506.780
358.4281, 3459.476
358.9102, 3421.179
359.3923, 3363.822
359.8744, 3274.496
360.3565, 3173.104
360.8387, 3086.143
361.3208, 3014.506
361.8029, 2946.364
362.2850, 2882.306
362.7671, 2817.009
363.2492, 2742.161
363.7314, 2654.494
364.2135, 2575.768
364.6956, 2527.474
365.1777, 2504.424
365.6598, 2476.820
366.1419, 2436.741
366.6241, 2392.951
367.1062, 2352.444
367.5883, 2315.197
368.0704, 2284.343
368.5525, 2267.532
369.0346, 2256.424
369.5168, 2234.345
369.9989, 2197.282
370.4810, 2161.786
370.9631, 2141.764
371.4452, 2135.627
371.9273, 2134.051
372.4095, 2147.321
372.8916, 2156.297
373.3737, 2138.671
373.8558, 2097.645
374.3379, 2062.707
374.8200, 2053.326
375.3022, 2062.969
375.7843, 2061.894
376.2664, 2042.625
376.7485, 2022.585
377.2306, 2007.646
377.7127, 1996.353
378.1949, 1985.356
378.6770, 1972.976
379.1591, 1962.064
379.6412, 1959.060
380.1233, 1968.290
380.6054, 1977.557
381.0876, 1986.283
381.5697, 1994.646
382.0518, 2004.243
382.5339, 2014.803
383.0160, 2021.938
383.4981, 2019.582
383.9803, 2003.975
384.4624, 1995.090
384.9445, 1995.852
385.4266, 1999.323
385.9087, 2002.217
386.3908, 2004.840
386.8730, 2008.903
387.3551, 2015.570
387.8372, 2024.863
388.3193, 2036.850
388.8014, 2056.531
389.2835, 2073.159
389.7657, 2084.006
390.2478, 2091.045
390.7299, 2096.439
391.2120, 2101.073
391.6941, 2105.366
392.1762, 2110.377
392.6584, 2116.726
393.1405, 2122.109
393.6226, 2124.608
394.1047, 2127.197
394.5868, 2133.256
395.0689, 2142.757
395.5511, 2150.676
396.0332, 2151.468
396.5153, 2145.091
396.9974, 2137.522
397.4795, 2124.186
397.9616, 2116.073
398.4438, 2122.913
398.9259, 2139.999
399.4080, 2153.733
399.8901, 2155.536
400.3722, 2149.591
400.8543, 2146.353
401.3365, 2147.808
401.8186, 2143.974
402.3007, 2119.796
402.7828, 2089.580
403.2649, 2076.678
403.7470, 2092.521
404.2292, 2113.991
404.7113, 2125.420
405.1934, 2126.958
405.6755, 2117.433
406.1576, 2092.262
406.6397, 2061.177
407.1219, 2040.367
407.6040, 2031.237
408.0861, 2022.799
408.5682, 2009.159
409.0503, 1995.317
409.5324, 1989.149
410.0146, 1992.052
410.4967, 1998.030
410.9788, 2001.473
411.4609, 2001.992
411.9430, 2002.254
412.4251, 2007.863
412.9073, 2008.234
413.3894, 1989.747
413.8715, 1959.846
414.3536, 1940.695
414.8357, 1946.738
415.3178, 1922.913
415.8000, 1948.012
416.2821, 1963.127
416.7642, 1968.793
417.2463, 1936.712
417.7284, 1953.374
418.2105, 1950.501
418.6927, 1946.828
419.1748, 1970.350
419.6569, 1943.760
420.1390, 1966.850
420.6211, 1970.109
421.1032, 1982.444
421.5854, 1975.125
422.0675, 1973.877
422.5496, 1992.289
423.0317, 1999.814
423.5138, 1990.233
423.9959, 2003.145
424.4781, 1975.868
424.9602, 1983.858
425.4423, 2007.063
425.9244, 1998.470
426.4065, 2011.741
426.8886, 2016.685
427.3708, 1983.785
427.8529, 2016.700
428.3350, 2021.152
428.8171, 1996.379
429.2992, 2027.039
429.7813, 2006.295
430.2635, 2003.899
430.7456, 2015.311
431.2277, 2012.328
431.7098, 2032.040
432.1919, 2029.889
432.6740, 2025.785
433.1562, 2030.205
433.6383, 2010.469
434.1204, 2035.547
434.6025, 2030.014
435.0846, 2039.696
435.5667, 2052.828
436.0489, 2039.552
436.5310, 2054.233
437.0131, 2025.557
437.4952, 2033.160
437.9773, 2036.856
438.4594, 2058.750
438.9416, 2075.256
439.4237, 2088.378
439.9058, 2097.987
440.3879, 2104.327
440.8700, 2105.102
441.3521, 2104.005
441.8343, 2105.253
442.3164, 2109.106
442.7985, 2111.769
443.2806, 2109.015
443.7627, 2100.435
444.2448, 2089.383
444.7270, 2065.682
445.2091, 2049.915
445.6912, 2053.840
446.1733, 2070.041
446.6554, 2084.387
447.1375, 2088.805
447.6197, 2087.899
448.1018, 2093.822
448.5839, 2109.492
449.0660, 2123.815
449.5481, 2131.673
450.0302, 2138.490
450.5124, 2150.705
450.9945, 2169.125
451.4766, 2182.826
451.9587, 2175.706
452.4408, 2154.359
452.9229, 2153.057
453.4051, 2184.759
453.8872, 2216.911
454.3693, 2213.995
454.8514, 2188.070
455.3335, 2174.794
455.8156, 2192.695
456.2978, 2218.326
456.7799, 2233.551
457.2620, 2238.670
457.7441, 2234.436
458.2262, 2217.463
458.7083, 2196.106
459.1904, 2194.951
459.6725, 2226.663
460.1547, 2250.935
460.6368, 2252.776
461.1189, 2248.049
461.6010, 2255.626
462.0831, 2277.886
462.5652, 2300.834
463.0474, 2309.114
463.5295, 2300.290
464.0116, 2297.934
464.4937, 2312.468
464.9758, 2321.967
465.4579, 2317.247
465.9401, 2303.135
466.4222, 2287.337
466.9043, 2273.591
467.3864, 2261.848
467.8685, 2251.538
468.3506, 2241.020
468.8328, 2236.619
469.3149, 2248.915
469.7970, 2260.791
470.2791, 2258.780
470.7612, 2243.140
471.2433, 2228.106
471.7255, 2223.650
472.2076, 2228.308
472.6897, 2237.785
473.1718, 2253.284
473.6539, 2269.395
474.1360, 2281.542
474.6182, 2291.973
475.1003, 2305.887
475.5824, 2327.616
476.0645, 2348.445
476.5466, 2359.405
477.0287, 2364.276
477.5109, 2375.811
477.9930, 2399.552
478.4751, 2427.010
478.9572, 2443.180
479.4393, 2440.624
479.9214, 2451.461
480.4036, 2487.076
480.8857, 2528.851
481.3678, 2567.784
481.8499, 2601.266
482.3320, 2625.572
482.8141, 2637.151
483.2963, 2638.087
483.7784, 2641.435
484.2605, 2630.209
484.7426, 2645.977
485.2247, 2719.831
485.7068, 2807.804
486.1890, 2866.500
486.6711, 2885.374
487.1532, 2888.175
487.6353, 2897.991
488.1174, 2914.727
488.5995, 2943.307
489.0817, 2993.191
489.5638, 3042.903
490.0459, 3082.404
490.5280, 3113.005
491.0101, 3137.878
491.4922, 3153.294
491.9744, 3168.322
492.4565, 3194.328
492.9386, 3230.835
493.4207, 3271.844
493.9028, 3319.585
494.3849, 3365.255
494.8671, 3389.066
495.3492, 3384.649
495.8313, 3391.530
496.3134, 3438.323
496.7955, 3488.906
497.2776, 3503.345
497.7598, 3480.751
498.2419, 3447.783
498.7240, 3424.268
499.2061, 3409.916
499.6882, 3400.006
500.1703, 3420.576
500.6525, 3414.154
501.1346, 3357.409
501.6167, 3275.310
502.0988, 3192.395
502.5809, 3117.058
503.0630, 3047.083
503.5452, 2980.592
504.0273, 2919.167
504.5094, 2851.428
504.9915, 2769.603
505.4736, 2690.301
505.9557, 2623.478
506.4379, 2564.949
506.9200, 2504.699
507.4021, 2437.485
507.8842, 2367.836
508.3663, 2300.323
508.8484, 2235.336
509.3306, 2178.108
509.8127, 2133.454
510.2948, 2093.996
510.7769, 2046.194
511.2590, 1987.548
511.7411, 1938.615
512.2233, 1913.706
512.7054, 1895.255
513.1875, 1864.042
513.6696, 1820.477
514.1517, 1779.001
514.6339, 1749.687
515.1160, 1731.014
515.5981, 1714.046
516.0802, 1705.398
516.5623, 1690.023
517.0444, 1647.687
517.5266, 1608.562
518.0087, 1613.858
518.4908, 1665.639
518.9729, 1715.065
519.4550, 1701.022
519.9371, 1621.405
520.4193, 1565.361
520.9014, 1544.884
521.3835, 1531.563
521.8656, 1512.127
522.3477, 1491.044
522.8298, 1475.489
523.3120, 1467.998
523.7941, 1465.544
524.2762, 1467.536
524.7583, 1472.772
525.2404, 1475.000
525.7225, 1472.562
526.2047, 1466.904
526.6868, 1459.703
527.1689, 1451.065
527.6510, 1439.050
528.1331, 1420.291
528.6152, 1400.878
529.0974, 1382.436
529.5795, 1366.509
530.0616, 1356.490
530.5437, 1354.262
531.0258, 1357.904
531.5079, 1363.418
531.9901, 1376.374
532.4722, 1380.630
532.9543, 1366.533
533.4364, 1352.664
533.9185, 1352.558
534.4006, 1364.008
534.8828, 1375.163
535.3649, 1377.673
535.8470, 1373.627
536.3291, 1368.344
536.8112, 1360.533
537.2933, 1356.524
537.7755, 1362.972
538.2576, 1371.883
538.7397, 1372.538
539.2218, 1362.657
539.7039, 1355.977
540.1860, 1362.167
540.6682, 1374.693
541.1503, 1384.217
541.6324, 1389.573
542.1145, 1391.866
542.5966, 1391.754
543.0787, 1389.282
543.5609, 1384.662
544.0430, 1349.689
544.5251, 1375.240
545.0072, 1390.797
545.4893, 1396.898
545.9714, 1365.218
546.4536, 1382.325
546.9357, 1379.880
547.4178, 1376.633
547.8999, 1400.605
548.3820, 1374.421
548.8641, 1397.961
549.3463, 1421.520
549.8284, 1432.345
550.3105, 1433.333
550.7926, 1436.275
551.2747, 1444.737
551.7568, 1454.642
552.2390, 1462.709
552.7211, 1469.150
553.2032, 1472.812
553.6853, 1471.441
554.1674, 1475.316
554.6495, 1497.438
555.1317, 1537.507
555.6138, 1566.988
556.0959, 1578.184
556.5780, 1586.353
557.0601, 1591.032
557.5422, 1599.258
558.0244, 1624.509
558.5065, 1671.163
558.9886, 1728.335
559.4707, 1778.571
559.9528, 1817.581
560.4349, 1866.218
560.9171, 1931.130
561.3992, 1999.236
561.8813, 2067.101
562.3634, 2134.943
562.8455, 2203.911
563.3276, 2273.583
563.8098, 2346.459
564.2919, 2425.453
564.7740, 2510.559
565.2561, 2601.430
565.7382, 2698.251
566.2203, 2801.146
566.7025, 2904.341
567.1846, 3008.885
567.6667, 3143.645
568.1488, 3346.795
568.6309, 3550.887
569.1130, 3710.371
569.5952, 3837.017
570.0773, 3960.801
570.5594, 4093.754
571.0415, 4231.033
571.5236, 4363.506
572.0057, 4498.925
572.4879, 4609.142
572.9700, 4699.372
573.4521, 4761.019
573.9342, 4791.901
574.4163, 4790.590
574.8984, 4753.761
575.3806, 4677.167
575.8627, 4571.679
576.3448, 4451.483
576.8269, 4316.776
577.3090, 4165.236
577.7911, 3987.776
578.2733, 3807.629
578.7554, 3647.907
579.2375, 3506.647
579.7196, 3374.320
580.2017, 3247.470
580.6838, 3130.036
581.1660, 3019.759
581.6481, 2920.516
582.1302, 2839.478
