##NAMES=Tungstenite
##RRUFFID=R070616
##IDEAL CHEMISTRY=WS_2_
##LOCALITY=Emma mine, Little Cottonwood Canyon, Salt Lake County, Utah, USA
##OWNER=RRUFF
##SOURCE=James Shigley
##DESCRIPTION=Gray metallic massive, X-ray diffraction shows this to be the 3R polytype. Intimately associated with galena
##STATUS=The identification of this mineral has been confirmed by X-ray diffraction.
##URL=rruff.info/R070616
136.2070, 1636.859
136.6891, 1701.816
137.1712, 1809.034
137.6533, 1884.319
138.1354, 1918.474
138.6176, 1919.297
139.0997, 1914.131
139.5818, 1896.112
140.0639, 1883.717
140.5460, 1891.456
141.0281, 1926.970
141.5103, 1965.607
141.9924, 2007.341
142.4745, 2053.159
142.9566, 2080.133
143.4387, 2062.920
143.9208, 2033.959
144.4030, 2030.574
144.8851, 2077.342
145.3672, 2115.590
145.8493, 2130.219
146.3314, 2112.285
146.8135, 2097.631
147.2957, 2077.651
147.7778, 2061.729
148.2599, 2069.074
148.7420, 2141.559
149.2241, 2202.208
149.7062, 2224.246
150.1883, 2150.449
150.6705, 2112.920
151.1526, 2140.026
151.6347, 2215.129
152.1168, 2269.748
152.5989, 2284.880
153.0810, 2284.813
153.5632, 2284.066
154.0453, 2282.261
154.5274, 2282.404
155.0095, 2284.888
155.4916, 2289.654
155.9737, 2297.002
156.4559, 2307.438
156.9380, 2320.233
157.4201, 2334.546
157.9022, 2356.922
158.3843, 2375.172
158.8664, 2381.453
159.3486, 2371.354
159.8307, 2366.198
160.3128, 2376.724
160.7949, 2397.050
161.2770, 2417.201
161.7591, 2435.814
162.2413, 2451.378
162.7234, 2462.780
163.2055, 2468.952
163.6876, 2472.584
164.1697, 2478.299
164.6518, 2483.552
165.1339, 2480.009
165.6161, 2453.644
166.0982, 2420.404
166.5803, 2395.987
167.0624, 2387.973
167.5445, 2387.040
168.0266, 2386.505
168.5088, 2386.644
168.9909, 2390.179
169.4730, 2412.203
169.9551, 2436.748
170.4372, 2439.923
170.9193, 2392.938
171.4015, 2330.444
171.8836, 2288.193
172.3657, 2268.040
172.8478, 2251.290
173.3299, 2224.543
173.8120, 2188.969
174.2942, 2147.589
174.7763, 2091.257
175.2584, 2032.830
175.7405, 1993.952
176.2226, 1979.215
176.7047, 1973.044
177.1869, 1957.986
177.6690, 1935.675
178.1511, 1914.329
178.6332, 1902.985
179.1153, 1896.196
179.5974, 1879.385
180.0796, 1845.972
180.5617, 1808.460
181.0438, 1786.984
181.5259, 1780.991
182.0080, 1778.001
182.4901, 1764.268
182.9722, 1744.153
183.4544, 1736.259
183.9365, 1751.713
184.4186, 1778.600
184.9007, 1787.466
185.3828, 1776.906
185.8649, 1763.045
186.3471, 1764.656
186.8292, 1779.451
187.3113, 1788.474
187.7934, 1781.908
188.2755, 1763.760
188.7576, 1748.995
189.2398, 1736.927
189.7219, 1730.985
190.2040, 1742.425
190.6861, 1771.252
191.1682, 1789.618
191.6503, 1777.103
192.1325, 1737.251
192.6146, 1715.254
193.0967, 1715.543
193.5788, 1727.531
194.0609, 1734.969
194.5430, 1738.240
195.0252, 1734.326
195.5073, 1717.542
195.9894, 1687.162
196.4715, 1666.055
196.9536, 1638.706
197.4357, 1656.741
197.9178, 1663.547
198.4000, 1659.726
198.8821, 1613.452
199.3642, 1621.998
199.8463, 1608.575
200.3284, 1594.251
200.8105, 1610.513
201.2927, 1570.413
201.7748, 1586.190
202.2569, 1579.662
202.7390, 1583.343
203.2211, 1564.918
203.7032, 1553.321
204.1854, 1563.835
204.6675, 1562.106
205.1496, 1541.137
205.6317, 1515.988
206.1138, 1516.521
206.5959, 1523.571
207.0781, 1529.488
207.5602, 1535.286
208.0423, 1536.238
208.5244, 1527.725
209.0065, 1507.861
209.4886, 1503.110
209.9708, 1520.154
210.4529, 1544.520
210.9350, 1553.367
211.4171, 1541.776
211.8992, 1526.682
212.3813, 1512.372
212.8635, 1496.879
213.3456, 1491.970
213.8277, 1503.333
214.3098, 1521.682
214.7919, 1524.615
215.2740, 1502.634
215.7561, 1484.434
216.2383, 1485.223
216.7204, 1513.478
217.2025, 1535.308
217.6846, 1549.831
218.1667, 1557.370
218.6488, 1559.007
219.1310, 1553.702
219.6131, 1544.191
220.0952, 1529.970
220.5773, 1505.362
221.0594, 1490.977
221.5415, 1489.178
222.0237, 1499.070
222.5058, 1518.131
222.9879, 1557.425
223.4700, 1591.228
223.9521, 1598.433
224.4342, 1559.693
224.9164, 1536.453
225.3985, 1542.362
225.8806, 1574.584
226.3627, 1591.904
226.8448, 1585.320
227.3270, 1573.701
227.8091, 1575.082
228.2912, 1601.184
228.7733, 1616.977
229.2554, 1612.908
229.7375, 1588.122
230.2197, 1572.026
230.7018, 1570.482
231.1839, 1572.484
231.6660, 1565.482
232.1481, 1542.201
232.6302, 1522.591
233.1123, 1511.758
233.5945, 1510.625
234.0766, 1511.159
234.5587, 1515.524
235.0408, 1519.946
235.5229, 1517.874
236.0050, 1500.104
236.4872, 1491.517
236.9693, 1503.795
237.4514, 1546.834
237.9335, 1568.359
238.4156, 1559.748
238.8977, 1534.555
239.3799, 1514.243
239.8620, 1497.592
240.3441, 1487.838
240.8262, 1488.021
241.3083, 1503.623
241.7904, 1511.350
242.2726, 1505.776
242.7547, 1494.574
243.2368, 1495.858
243.7189, 1521.872
244.2010, 1541.646
244.6831, 1540.242
245.1653, 1502.998
245.6474, 1479.679
246.1295, 1473.714
246.6116, 1480.822
247.0937, 1490.018
247.5758, 1502.614
248.0579, 1515.355
248.5401, 1527.621
249.0222, 1541.922
249.5043, 1549.246
249.9864, 1547.383
250.4685, 1538.454
250.9506, 1528.900
251.4328, 1514.066
251.9149, 1505.509
252.3970, 1511.453
252.8791, 1539.964
253.3612, 1563.504
253.8433, 1581.008
254.3255, 1592.319
254.8076, 1596.445
255.2897, 1589.946
255.7718, 1581.549
256.2539, 1576.884
256.7360, 1577.823
257.2181, 1577.711
257.7003, 1576.021
258.1824, 1572.762
258.6645, 1566.947
259.1466, 1554.628
259.6287, 1546.010
260.1108, 1551.135
260.5930, 1578.159
261.0751, 1594.019
261.5572, 1588.776
262.0393, 1566.930
262.5214, 1566.140
263.0035, 1598.468
263.4857, 1630.708
263.9678, 1631.618
264.4499, 1588.395
264.9320, 1557.179
265.4141, 1549.832
265.8962, 1563.467
266.3784, 1576.950
266.8605, 1591.182
267.3426, 1603.359
267.8247, 1611.465
268.3068, 1616.112
268.7889, 1613.333
269.2711, 1597.781
269.7532, 1572.407
270.2353, 1564.047
270.7174, 1575.709
271.1995, 1598.127
271.6816, 1626.564
272.1638, 1664.651
272.6459, 1689.963
273.1280, 1693.623
273.6101, 1678.522
274.0922, 1668.349
274.5743, 1661.432
275.0565, 1663.518
275.5386, 1687.840
276.0207, 1738.742
276.5028, 1773.299
276.9849, 1774.645
277.4670, 1748.463
277.9492, 1734.244
278.4313, 1733.257
278.9134, 1740.679
279.3955, 1751.946
279.8776, 1767.055
280.3597, 1786.606
280.8419, 1814.201
281.3240, 1847.293
281.8061, 1868.977
282.2882, 1878.467
282.7703, 1880.744
283.2524, 1878.869
283.7346, 1872.995
284.2167, 1869.251
284.6988, 1867.337
285.1809, 1869.002
285.6630, 1885.075
286.1451, 1917.656
286.6273, 1952.330
287.1094, 1972.487
287.5915, 1979.344
288.0736, 1984.382
288.5557, 1988.611
289.0378, 1994.220
289.5199, 2010.395
290.0020, 2038.176
290.4842, 2067.882
290.9663, 2089.405
291.4484, 2103.656
291.9305, 2116.203
292.4126, 2130.216
292.8947, 2143.674
293.3769, 2151.674
293.8590, 2153.996
294.3411, 2153.538
294.8232, 2149.088
295.3053, 2143.323
295.7874, 2145.197
296.2696, 2165.197
296.7517, 2192.741
297.2338, 2206.070
297.7159, 2204.931
298.1980, 2203.089
298.6801, 2216.799
299.1623, 2239.801
299.6444, 2256.917
300.1265, 2255.082
300.6086, 2247.410
301.0907, 2250.308
301.5728, 2263.735
302.0550, 2284.185
302.5371, 2316.285
303.0192, 2352.767
303.5013, 2379.985
303.9834, 2379.594
304.4655, 2375.269
304.9477, 2392.602
305.4298, 2431.403
305.9119, 2472.030
306.3940, 2508.800
306.8761, 2537.227
307.3582, 2550.384
307.8404, 2530.794
308.3225, 2505.914
308.8046, 2497.622
309.2867, 2505.489
309.7688, 2511.831
310.2509, 2497.151
310.7331, 2478.334
311.2152, 2474.551
311.6973, 2509.239
312.1794, 2546.509
312.6615, 2566.584
313.1436, 2570.092
313.6258, 2571.551
314.1079, 2577.626
314.5900, 2584.642
315.0721, 2589.180
315.5542, 2581.940
316.0363, 2579.824
316.5185, 2593.017
317.0006, 2620.232
317.4827, 2642.934
317.9648, 2652.404
318.4469, 2656.563
318.9290, 2661.606
319.4112, 2667.292
319.8933, 2675.625
320.3754, 2687.865
320.8575, 2703.698
321.3396, 2720.070
321.8217, 2731.702
322.3038, 2746.414
322.7859, 2769.178
323.2681, 2807.367
323.7502, 2846.210
324.2323, 2883.285
324.7144, 2919.090
325.1965, 2956.672
325.6786, 2994.614
326.1608, 3035.086
326.6429, 3078.985
327.1250, 3121.489
327.6071, 3173.914
328.0892, 3237.795
328.5714, 3312.423
329.0535, 3394.942
329.5356, 3493.817
330.0177, 3591.707
330.4998, 3680.333
330.9819, 3751.407
331.4641, 3829.569
331.9462, 3914.901
332.4283, 4007.621
332.9104, 4109.434
333.3925, 4225.772
333.8746, 4340.180
334.3568, 4443.525
334.8389, 4529.383
335.3210, 4623.604
335.8031, 4728.164
336.2852, 4840.968
336.7673, 4964.108
337.2495, 5102.869
337.7316, 5232.627
338.2137, 5341.005
338.6958, 5428.030
339.1779, 5499.303
339.6600, 5549.640
340.1422, 5591.560
340.6243, 5649.481
341.1064, 5725.686
341.5885, 5797.571
342.0706, 5849.246
342.5527, 5884.157
343.0349, 5928.887
343.5170, 5987.344
343.9991, 6046.692
344.4812, 6091.826
344.9633, 6122.671
345.4454, 6142.072
345.9276, 6150.995
346.4097, 6149.421
346.8918, 6133.476
347.3739, 6101.080
347.8560, 6067.914
348.3381, 6057.089
348.8203, 6060.971
349.3024, 6055.332
349.7845, 6056.125
350.2666, 6031.385
350.7487, 5935.214
351.2308, 5766.967
351.7130, 5541.328
352.1951, 5247.040
352.6772, 4906.494
353.1593, 4558.198
353.6414, 4190.772
354.1235, 3839.270
354.6056, 3535.172
355.0877, 3276.888
355.5699, 3043.668
356.0520, 2814.245
356.5341, 2606.256
357.0162, 2438.502
357.4983, 2344.307
357.9804, 2267.662
358.4626, 2177.158
358.9447, 2077.707
359.4268, 2001.611
359.9089, 1978.284
360.3910, 1974.057
360.8731, 1964.295
361.3553, 1940.818
361.8374, 1914.830
362.3195, 1888.555
362.8016, 1861.780
363.2837, 1833.706
363.7658, 1796.295
364.2480, 1763.327
364.7301, 1741.944
365.2122, 1740.708
365.6943, 1739.025
366.1764, 1736.303
366.6585, 1732.184
367.1407, 1725.971
367.6228, 1720.419
368.1049, 1709.894
368.5870, 1690.986
369.0691, 1657.504
369.5512, 1631.539
370.0334, 1614.812
370.5155, 1605.034
370.9976, 1599.751
371.4797, 1602.258
371.9618, 1602.792
372.4439, 1597.014
372.9261, 1583.605
373.4082, 1576.301
373.8903, 1577.252
374.3724, 1580.945
374.8545, 1578.997
375.3366, 1569.506
375.8188, 1565.497
376.3009, 1572.828
376.7830, 1589.274
377.2651, 1600.604
377.7472, 1606.553
378.2293, 1608.230
378.7115, 1606.385
379.1936, 1601.096
379.6757, 1592.234
380.1578, 1577.017
380.6399, 1560.437
381.1220, 1553.313
381.6042, 1555.623
382.0863, 1563.550
382.5684, 1578.277
383.0505, 1596.404
383.5326, 1609.064
384.0147, 1613.286
384.4969, 1613.504
384.9790, 1611.563
385.4611, 1609.042
385.9432, 1612.142
386.4253, 1634.601
386.9074, 1660.256
387.3895, 1668.309
387.8716, 1649.161
388.3538, 1631.440
388.8359, 1638.180
389.3180, 1660.781
389.8001, 1681.266
390.2822, 1689.528
390.7643, 1695.100
391.2465, 1701.341
391.7286, 1707.167
392.2107, 1722.184
392.6928, 1756.649
393.1749, 1800.312
393.6570, 1840.098
394.1392, 1873.123
394.6213, 1902.133
395.1034, 1920.869
395.5855, 1927.152
396.0676, 1955.735
396.5497, 2021.469
397.0319, 2104.660
397.5140, 2190.139
397.9961, 2275.212
398.4782, 2364.448
398.9603, 2459.407
399.4424, 2559.817
399.9246, 2659.627
400.4067, 2758.606
400.8888, 2858.284
401.3709, 2961.686
401.8530, 3072.533
402.3351, 3172.710
402.8173, 3261.170
403.2994, 3338.302
403.7815, 3403.999
404.2636, 3457.293
404.7457, 3503.703
405.2278, 3542.127
405.7100, 3572.431
406.1921, 3613.700
406.6742, 3666.114
407.1563, 3730.639
407.6384, 3816.410
408.1205, 3921.274
408.6027, 4020.578
409.0848, 4091.744
409.5669, 4150.856
410.0490, 4238.781
410.5311, 4355.695
411.0132, 4486.987
411.4954, 4618.632
411.9775, 4753.800
412.4596, 4902.168
412.9417, 5068.431
413.4238, 5247.798
413.9059, 5471.583
414.3881, 5723.743
414.8702, 5915.472
415.3523, 6008.809
415.8344, 6005.292
416.3165, 5902.213
416.7986, 5686.455
417.2808, 5391.517
417.7629, 4997.489
418.2450, 4534.453
418.7271, 4090.275
419.2092, 3674.960
419.6913, 3299.559
420.1734, 2974.588
420.6555, 2700.156
421.1377, 2468.705
421.6198, 2289.764
422.1019, 2150.256
422.5840, 2032.389
423.0661, 1934.305
423.5482, 1857.136
424.0304, 1806.658
424.5125, 1785.475
424.9946, 1757.015
425.4767, 1714.299
425.9588, 1672.397
426.4409, 1647.691
426.9231, 1649.000
427.4052, 1640.750
427.8873, 1613.264
428.3694, 1572.762
428.8515, 1546.369
429.3336, 1535.825
429.8158, 1532.068
430.2979, 1531.483
430.7800, 1533.711
431.2621, 1531.197
431.7442, 1521.869
432.2263, 1510.370
432.7085, 1504.839
433.1906, 1504.603
433.6727, 1504.392
434.1548, 1502.475
434.6369, 1498.522
435.1190, 1491.613
435.6012, 1481.633
436.0833, 1469.979
436.5654, 1452.453
437.0475, 1434.746
437.5296, 1427.130
438.0117, 1443.976
438.4939, 1464.057
438.9760, 1473.823
439.4581, 1473.683
439.9402, 1466.863
440.4223, 1449.254
440.9044, 1428.706
441.3866, 1411.565
441.8687, 1399.140
442.3508, 1389.999
442.8329, 1382.834
443.3150, 1378.616
443.7971, 1380.089
444.2793, 1397.575
444.7614, 1412.226
445.2435, 1415.623
445.7256, 1402.597
446.2077, 1394.148
446.6898, 1393.124
447.1720, 1394.914
447.6541, 1392.776
448.1362, 1381.748
448.6183, 1377.752
449.1004, 1388.083
449.5826, 1410.776
450.0647, 1419.502
450.5468, 1410.736
451.0289, 1398.399
451.5110, 1395.796
451.9931, 1402.940
452.4753, 1403.664
452.9574, 1392.136
453.4395, 1377.854
453.9216, 1383.040
454.4037, 1406.083
454.8858, 1427.313
455.3679, 1433.458
455.8500, 1430.097
456.3322, 1427.823
456.8143, 1427.355
457.2964, 1429.018
457.7785, 1435.404
458.2606, 1443.906
458.7427, 1449.867
459.2249, 1453.726
459.7070, 1452.456
460.1891, 1438.729
460.6712, 1413.915
461.1533, 1397.519
461.6354, 1404.961
462.1176, 1420.497
462.5997, 1432.035
463.0818, 1435.575
463.5639, 1436.764
464.0460, 1433.947
464.5281, 1429.177
465.0103, 1428.627
465.4924, 1431.089
465.9745, 1439.452
466.4566, 1457.443
466.9387, 1491.863
467.4208, 1511.111
467.9030, 1511.309
468.3851, 1500.082
468.8672, 1485.120
469.3493, 1464.274
469.8314, 1447.936
470.3135, 1437.948
470.7957, 1434.527
471.2778, 1441.566
471.7599, 1460.711
472.2420, 1479.067
472.7241, 1486.145
473.2062, 1483.249
473.6884, 1475.413
474.1705, 1460.230
474.6526, 1447.848
475.1347, 1457.055
475.6168, 1482.722
476.0989, 1505.359
476.5811, 1515.531
477.0632, 1516.573
477.5453, 1506.839
478.0274, 1485.247
478.5095, 1473.604
478.9916, 1502.449
479.4738, 1542.794
479.9559, 1561.394
480.4380, 1526.907
480.9201, 1489.703
481.4022, 1463.989
481.8843, 1449.291
482.3665, 1443.393
482.8486, 1453.017
483.3307, 1465.889
483.8128, 1476.644
484.2949, 1488.107
484.7770, 1491.407
485.2592, 1481.459
485.7413, 1466.011
486.2234, 1455.991
486.7055, 1450.336
487.1876, 1452.997
487.6697, 1468.069
488.1518, 1494.296
488.6339, 1512.383
489.1161, 1521.478
489.5982, 1525.610
490.0803, 1526.016
490.5624, 1523.386
491.0445, 1524.934
491.5266, 1533.203
492.0088, 1543.711
492.4909, 1550.319
492.9730, 1553.156
493.4551, 1553.333
493.9372, 1550.323
494.4193, 1545.548
494.9015, 1541.019
495.3836, 1536.968
495.8657, 1531.754
496.3478, 1517.787
496.8299, 1504.252
497.3120, 1501.819
497.7942, 1523.786
498.2763, 1547.600
498.7584, 1568.396
499.2405, 1585.398
499.7226, 1595.515
500.2047, 1589.235
500.6869, 1583.141
501.1690, 1585.911
501.6511, 1604.881
502.1332, 1616.542
502.6153, 1618.430
503.0974, 1614.632
503.5796, 1608.935
504.0617, 1596.723
504.5438, 1596.707
505.0259, 1619.820
505.5080, 1660.219
505.9901, 1677.082
506.4723, 1666.537
506.9544, 1653.633
507.4365, 1661.521
507.9186, 1685.743
508.4007, 1704.418
508.8828, 1714.635
509.3650, 1717.365
509.8471, 1707.612
510.3292, 1689.926
510.8113, 1678.770
511.2934, 1688.597
511.7755, 1703.826
512.2576, 1710.177
512.7397, 1706.917
513.2219, 1700.232
513.7040, 1690.179
514.1861, 1679.747
514.6682, 1671.634
515.1503, 1668.191
515.6324, 1665.125
516.1146, 1660.325
516.5967, 1655.107
517.0788, 1653.824
517.5609, 1667.925
518.0430, 1673.239
518.5251, 1659.159
519.0073, 1620.732
519.4894, 1592.057
519.9715, 1575.793
520.4536, 1564.979
520.9357, 1552.253
521.4178, 1537.201
521.9000, 1523.008
522.3821, 1509.544
522.8642, 1497.772
523.3463, 1490.801
523.8284, 1488.423
524.3105, 1487.825
524.7927, 1486.934
525.2748, 1486.678
525.7569, 1491.293
526.2390, 1502.338
526.7211, 1507.947
527.2032, 1492.594
527.6854, 1466.767
528.1675, 1446.136
528.6496, 1434.191
529.1317, 1430.559
529.6138, 1441.193
530.0959, 1462.195
530.5781, 1475.075
531.0602, 1465.827
531.5423, 1454.189
532.0244, 1451.043
532.5065, 1465.055
532.9886, 1468.018
533.4708, 1453.090
533.9529, 1431.692
534.4350, 1417.332
534.9171, 1409.432
535.3992, 1411.010
535.8813, 1428.379
536.3635, 1454.849
536.8456, 1459.081
537.3277, 1438.992
537.8098, 1414.247
538.2919, 1392.925
538.7740, 1377.187
539.2562, 1381.872
539.7383, 1413.302
540.2204, 1441.417
540.7025, 1426.547
541.1846, 1385.065
541.6667, 1351.682
542.1489, 1347.731
542.6310, 1351.032
543.1131, 1335.407
543.5952, 1345.927
544.0773, 1351.456
544.5594, 1352.262
545.0416, 1334.201
545.5237, 1340.503
546.0058, 1337.042
546.4879, 1333.180
546.9700, 1342.911
547.4521, 1327.594
547.9343, 1337.110
548.4164, 1336.713
548.8985, 1340.853
549.3806, 1335.169
549.8627, 1332.519
550.3448, 1339.697
550.8270, 1341.432
551.3091, 1334.617
551.7912, 1339.046
552.2733, 1323.385
552.7554, 1325.353
553.2375, 1330.258
553.7197, 1334.176
554.2018, 1331.564
554.6839, 1324.557
555.1660, 1318.440
555.6481, 1312.070
556.1302, 1310.182
556.6124, 1321.697
557.0945, 1343.130
557.5766, 1357.568
558.0587, 1345.998
558.5408, 1333.116
559.0229, 1335.500
559.5051, 1363.425
559.9872, 1384.613
560.4693, 1391.343
560.9514, 1391.304
561.4335, 1392.117
561.9156, 1391.560
562.3978, 1396.761
562.8799, 1413.713
563.3620, 1437.034
563.8441, 1440.058
564.3262, 1418.781
564.8083, 1396.327
565.2905, 1384.186
565.7726, 1381.956
566.2547, 1390.292
566.7368, 1411.184
567.2189, 1429.192
567.7010, 1419.910
568.1831, 1395.739
568.6652, 1383.163
569.1473, 1396.032
569.6295, 1417.037
570.1116, 1434.760
570.5937, 1449.846
571.0758, 1463.841
571.5579, 1483.750
572.0400, 1497.342
572.5222, 1495.988
573.0043, 1475.339
573.4864, 1457.737
573.9685, 1445.184
574.4506, 1436.453
574.9327, 1431.609
575.4149, 1434.463
575.8970, 1431.270
576.3791, 1416.599
576.8612, 1398.121
577.3433, 1391.168
577.8254, 1395.130
578.3076, 1417.692
578.7897, 1477.243
579.2718, 1558.719
579.7539, 1610.910
580.2360, 1634.315
580.7181, 1623.255
581.2003, 1543.178
581.6824, 1434.377
582.1645, 1360.317
582.6466, 1344.703
583.1287, 1342.458
583.6108, 1326.649
584.0930, 1305.224
584.5751, 1292.030
585.0572, 1295.056
585.5393, 1303.015
586.0214, 1315.429
586.5035, 1332.021
586.9857, 1341.688
587.4678, 1342.810
587.9499, 1338.821
588.4320, 1329.703
588.9141, 1312.461
589.3962, 1303.951
589.8784, 1306.568
590.3605, 1313.639
590.8426, 1315.485
591.3247, 1312.637
591.8068, 1311.781
592.2889, 1316.253
592.7711, 1322.426
593.2532, 1326.607
593.7353, 1328.052
594.2174, 1323.193
594.6995, 1299.692
595.1816, 1275.590
595.6638, 1269.561
596.1459, 1286.014
596.6280, 1298.661
597.1101, 1290.115
597.5922, 1276.974
598.0743, 1274.365
598.5565, 1298.426
599.0386, 1315.156
599.5207, 1320.593
600.0028, 1318.128
600.4849, 1315.263
600.9670, 1311.952
601.4492, 1308.334
601.9313, 1304.313
602.4134, 1299.965
602.8955, 1296.088
603.3776, 1292.769
603.8597, 1288.921
604.3419, 1280.396
604.8240, 1270.976
605.3061, 1270.397
605.7882, 1281.475
606.2703, 1296.268
606.7524, 1313.035
607.2346, 1327.653
607.7167, 1333.138
608.1988, 1313.921
608.6809, 1298.245
609.1630, 1298.314
609.6451, 1312.107
610.1273, 1327.346
610.6094, 1353.281
611.0915, 1369.379
611.5736, 1364.108
612.0557, 1330.708
612.5378, 1314.522
613.0200, 1318.179
613.5021, 1333.811
613.9842, 1362.449
614.4663, 1402.940
614.9484, 1413.948
615.4305, 1378.860
615.9127, 1332.253
616.3948, 1335.554
616.8769, 1374.555
617.3590, 1401.351
617.8411, 1376.554
618.3232, 1340.476
618.8054, 1330.709
619.2875, 1333.720
619.7696, 1344.461
620.2517, 1350.211
620.7338, 1351.239
621.2159, 1333.398
621.6981, 1339.922
622.1802, 1336.682
622.6623, 1333.041
623.1444, 1342.993
623.6265, 1327.897
624.1086, 1337.635
624.5908, 1337.458
625.0729, 1341.820
625.5550, 1336.356
626.0371, 1333.928
626.5192, 1341.326
627.0013, 1343.284
627.4835, 1338.103
627.9656, 1341.482
628.4477, 1345.033
628.9298, 1348.678
629.4119, 1350.450
629.8940, 1350.940
630.3762, 1347.868
630.8583, 1336.479
631.3404, 1306.470
631.8225, 1290.893
632.3046, 1312.842
632.7867, 1349.605
