##NAMES=Tunisite
##RRUFFID=R060776
##IDEAL CHEMISTRY=NaCa_2_Al_4_(CO_3_)_4_(OH)_8_Cl
##LOCALITY=Condorcet, Drome, France
##OWNER=RRUFF
##SOURCE=Michael Scott
##DESCRIPTION=Transparent colorless tabular crystals
##STATUS=The identification of this mineral is confirmed by single-crystal X-ray diffraction and chemical analysis.
##URL=rruff.info/R060776
##MEASURED CHEMISTRY=(Na_0.99_K_0.01_)_âˆ‘=0.99_Ca_1.99_Al_4.00_(CO_3_)_4.05_(OH)_7.78_Cl_1.03_
138.397, 8957.237
138.879, 9046.850
139.361, 9139.224
139.843, 9222.848
140.326, 9293.274
140.808, 9365.586
141.290, 9454.614
141.772, 9564.354
142.254, 9678.183
142.736, 9789.808
143.218, 9899.602
143.700, 10026.130
144.182, 10175.650
144.665, 10336.290
145.147, 10489.480
145.629, 10621.850
146.111, 10768.250
146.593, 10939.490
147.075, 11146.820
147.557, 11347.190
148.039, 11534.000
148.521, 11713.850
149.004, 11902.720
149.486, 12125.210
149.968, 12331.400
150.450, 12505.570
150.932, 12620.940
151.414, 12742.900
151.896, 12881.540
152.378, 13029.570
152.861, 13163.120
153.343, 13241.250
153.825, 13335.260
154.307, 13479.120
154.789, 13710.350
155.271, 13958.120
155.753, 14210.980
156.235, 14469.780
156.717, 14754.070
157.200, 15085.840
157.682, 15438.140
158.164, 15791.860
158.646, 16128.670
159.128, 16478.680
159.610, 16858.789
160.092, 17269.311
160.574, 17669.990
161.057, 17957.631
161.539, 18254.680
162.021, 18694.900
162.503, 19703.230
162.985, 20571.180
163.467, 20885.010
163.949, 20539.359
164.431, 20079.820
164.913, 19700.990
165.396, 19385.529
165.878, 19105.270
166.360, 18876.301
166.842, 18662.189
167.324, 18438.109
167.806, 18199.631
168.288, 17955.160
168.770, 17670.561
169.253, 17377.590
169.735, 17153.699
170.217, 17081.689
170.699, 17084.961
171.181, 17084.010
171.663, 17049.910
172.145, 17032.260
172.627, 17084.020
173.109, 17193.711
173.592, 17313.420
174.074, 17404.330
174.556, 17487.260
175.038, 17594.590
175.520, 17752.051
176.002, 17920.939
176.484, 18062.109
176.966, 18174.721
177.449, 18256.500
177.931, 18300.580
178.413, 18311.570
178.895, 18299.670
179.377, 18253.410
179.859, 18193.350
180.341, 18154.801
180.823, 18138.000
181.305, 18126.119
181.788, 18097.369
182.270, 18058.301
182.752, 18030.881
183.234, 18027.420
183.716, 18041.930
184.198, 18053.801
184.680, 18059.240
185.162, 18083.250
185.645, 18167.779
186.127, 18304.400
186.609, 18443.189
187.091, 18555.801
187.573, 18649.939
188.055, 18752.820
188.537, 18868.420
189.019, 18987.980
189.501, 19102.141
189.984, 19211.949
190.466, 19317.471
190.948, 19419.811
191.430, 19519.391
191.912, 19612.811
192.394, 19702.090
192.876, 19781.830
193.358, 19839.189
193.840, 19873.430
194.323, 19898.670
194.805, 19926.221
195.287, 19955.721
195.769, 19969.551
196.251, 19966.439
196.733, 19946.650
197.215, 19911.350
197.697, 19860.900
198.180, 19794.369
198.662, 19721.080
199.144, 19643.119
199.626, 19511.449
200.108, 19310.141
200.590, 19051.199
201.072, 18790.211
201.554, 18530.711
202.036, 18250.949
202.519, 17922.801
203.001, 17537.561
203.483, 17162.699
203.965, 16809.090
204.447, 16473.990
204.929, 16156.550
205.411, 15859.140
205.893, 15567.470
206.376, 15264.590
206.858, 14944.770
207.340, 14638.500
207.822, 14349.100
208.304, 14077.380
208.786, 13838.040
209.268, 13638.410
209.750, 13464.110
210.232, 13300.710
210.714, 13149.720
211.197, 13011.270
211.679, 12880.960
212.161, 12757.810
212.643, 12675.740
213.125, 12641.090
213.607, 12641.100
214.089, 12665.280
214.572, 12724.340
215.054, 12781.120
215.536, 12835.910
216.018, 12897.230
216.500, 12876.470
216.982, 12732.930
217.464, 12545.230
217.946, 12428.860
218.428, 12405.010
218.911, 12407.590
219.393, 12424.410
219.875, 12465.460
220.357, 12471.230
220.839, 12433.840
221.321, 12366.750
221.803, 12288.940
222.285, 12196.840
222.767, 12103.180
223.250, 12017.030
223.732, 11947.320
224.214, 11851.380
224.696, 11710.170
225.178, 11553.010
225.660, 11435.480
226.142, 11378.640
226.624, 11327.360
227.107, 11257.790
227.589, 11153.160
228.071, 11072.860
228.553, 11022.080
229.035, 10992.880
229.517, 10967.340
229.999, 10947.710
230.481, 10926.980
230.963, 10902.070
231.445, 10871.180
231.928, 10839.010
232.410, 10803.770
232.892, 10767.400
233.374, 10740.380
233.856, 10740.360
234.338, 10724.040
234.820, 10670.170
235.303, 10567.700
235.785, 10450.240
236.267, 10308.230
236.749, 10152.080
237.231, 10022.590
237.713, 9936.235
238.195, 9855.865
238.677, 9762.274
239.159, 9643.905
239.641, 9537.482
240.124, 9444.255
240.606, 9363.568
241.088, 9291.810
241.570, 9234.688
242.052, 9179.911
242.534, 9118.346
243.016, 9034.058
243.498, 8977.290
243.981, 8959.249
244.463, 8970.832
244.945, 8975.847
245.427, 8973.534
245.909, 8964.816
246.391, 8950.615
246.873, 8933.485
247.355, 8902.769
247.837, 8846.266
248.320, 8774.041
248.802, 8734.069
249.284, 8737.459
249.766, 8758.410
250.248, 8786.160
250.730, 8833.305
251.212, 8858.981
251.694, 8854.194
252.176, 8825.783
252.659, 8803.769
253.141, 8790.250
253.623, 8781.072
254.105, 8773.980
254.587, 8769.655
255.069, 8766.604
255.551, 8763.839
256.033, 8762.374
256.516, 8766.647
256.998, 8777.768
257.480, 8792.891
257.962, 8809.592
258.444, 8825.791
258.926, 8849.278
259.408, 8883.952
259.890, 8926.449
260.372, 8959.596
260.855, 8978.775
261.337, 8996.270
261.819, 9018.123
262.301, 9041.901
262.783, 9077.969
263.265, 9130.770
263.747, 9195.978
264.229, 9257.635
264.711, 9311.692
265.194, 9368.811
265.676, 9438.837
266.158, 9527.912
266.640, 9601.729
267.122, 9648.011
267.604, 9678.706
268.086, 9740.314
268.569, 9844.650
269.051, 9954.845
269.533, 10046.330
270.015, 10114.160
270.497, 10186.150
270.979, 10261.690
271.461, 10344.750
271.943, 10447.190
272.425, 10571.720
272.908, 10707.130
273.390, 10850.120
273.872, 11002.270
274.354, 11141.510
274.836, 11263.910
275.318, 11374.910
275.800, 11494.080
276.282, 11625.450
276.764, 11748.330
277.247, 11847.430
277.729, 11919.830
278.211, 11997.660
278.693, 12087.140
279.175, 12180.230
279.657, 12256.010
280.139, 12312.220
280.621, 12363.310
281.103, 12418.810
281.586, 12478.670
282.068, 12530.560
282.550, 12571.790
283.032, 12606.840
283.514, 12640.880
283.996, 12672.850
284.478, 12716.740
284.960, 12787.400
285.443, 12882.970
285.925, 12967.840
286.407, 13036.760
286.889, 13099.680
287.371, 13171.890
287.853, 13253.480
288.335, 13341.460
288.817, 13437.980
289.299, 13540.990
289.782, 13646.410
290.264, 13759.640
290.746, 13852.940
291.228, 13879.030
291.710, 13841.170
292.192, 13775.370
292.674, 13700.790
293.156, 13613.620
293.638, 13502.320
294.121, 13367.190
294.603, 13207.530
295.085, 13011.690
295.567, 12785.230
296.049, 12554.710
296.531, 12331.830
297.013, 12116.360
297.496, 11907.780
297.978, 11709.810
298.460, 11520.270
298.942, 11339.120
299.424, 11167.060
299.906, 11008.120
300.388, 10863.050
300.870, 10733.040
301.352, 10625.960
301.835, 10542.550
302.317, 10469.010
302.799, 10390.120
303.281, 10310.940
303.763, 10240.780
304.245, 10183.330
304.727, 10137.140
305.209, 10107.630
305.691, 10094.350
306.174, 10076.600
306.656, 10027.800
307.138, 9965.406
307.620, 9916.846
308.102, 9895.987
308.584, 9890.538
309.066, 9897.312
309.548, 9915.295
310.030, 9926.359
310.513, 9913.555
310.995, 9889.832
311.477, 9869.586
311.959, 9844.547
312.441, 9836.601
312.923, 9878.479
313.405, 9959.869
313.887, 10015.800
314.370, 9989.964
314.852, 9937.302
315.334, 9906.132
315.816, 9919.383
316.298, 9943.709
316.780, 9969.853
317.262, 9996.908
317.744, 10021.720
318.226, 10042.950
318.709, 10061.600
319.191, 10077.950
319.673, 10089.470
320.155, 10103.030
320.637, 10116.350
321.119, 10132.710
321.601, 10160.880
322.083, 10214.430
322.565, 10271.050
323.048, 10321.490
323.530, 10368.600
324.012, 10401.200
324.494, 10406.880
324.976, 10397.660
325.458, 10396.670
325.940, 10418.000
326.422, 10437.590
326.905, 10448.120
327.387, 10448.460
327.869, 10441.580
328.351, 10422.000
328.833, 10396.800
329.315, 10375.740
329.797, 10366.410
330.279, 10352.610
330.762, 10328.780
331.244, 10291.910
331.726, 10261.720
332.208, 10246.130
332.690, 10231.450
333.172, 10201.850
333.654, 10149.880
334.136, 10096.750
334.618, 10043.300
335.100, 9990.179
335.583, 9951.595
336.065, 9932.667
336.547, 9921.248
337.029, 9906.797
337.511, 9888.428
337.993, 9868.812
338.475, 9847.174
338.957, 9824.373
339.440, 9805.701
339.922, 9792.297
340.404, 9779.005
340.886, 9759.328
341.368, 9732.089
341.850, 9714.417
342.332, 9710.701
342.814, 9716.248
343.297, 9719.406
343.779, 9719.979
344.261, 9722.768
344.743, 9732.828
345.225, 9749.327
345.707, 9762.716
346.189, 9772.022
346.671, 9779.495
347.153, 9790.730
347.635, 9804.918
348.118, 9814.290
348.600, 9808.981
349.082, 9795.457
349.564, 9793.263
350.046, 9804.411
350.528, 9818.342
351.010, 9817.784
351.492, 9809.216
351.975, 9812.132
352.457, 9844.607
352.939, 9889.297
353.421, 9918.025
353.903, 9930.494
354.385, 9951.166
354.867, 10031.360
355.349, 10127.210
355.832, 10168.810
356.314, 10088.290
356.796, 9982.065
357.278, 9927.954
357.760, 9920.100
358.242, 9918.360
358.724, 9898.255
359.206, 9874.050
359.688, 9859.675
360.171, 9866.003
360.653, 9872.181
361.135, 9861.988
361.617, 9842.439
362.099, 9835.322
362.581, 9859.064
363.063, 9889.696
363.545, 9915.369
364.027, 9938.382
364.510, 9946.729
364.992, 9885.857
365.474, 9867.370
365.956, 9915.062
366.438, 9946.689
366.920, 9963.114
367.402, 9918.812
367.884, 9952.927
368.366, 9955.616
368.849, 9973.866
369.331, 9966.629
369.813, 9975.602
370.295, 10016.480
370.777, 10052.800
371.259, 10076.550
371.741, 10087.380
372.224, 10100.510
372.706, 10111.920
373.188, 10129.890
373.670, 10162.420
374.152, 10215.710
374.634, 10266.310
375.116, 10312.210
375.598, 10352.620
376.080, 10382.500
376.562, 10398.530
377.045, 10412.350
377.527, 10432.060
378.009, 10458.910
378.491, 10479.540
378.973, 10492.390
379.455, 10500.430
379.937, 10504.180
380.419, 10503.350
380.902, 10514.800
381.384, 10551.680
381.866, 10609.670
382.348, 10669.130
382.830, 10731.100
383.312, 10787.470
383.794, 10821.870
384.276, 10839.860
384.759, 10864.090
385.241, 10909.150
385.723, 10961.880
386.205, 10997.310
386.687, 11016.130
387.169, 11032.450
387.651, 11060.170
388.133, 11091.090
388.615, 11111.790
389.098, 11110.100
389.580, 11108.450
390.062, 11130.040
390.544, 11168.590
391.026, 11202.550
391.508, 11217.970
391.990, 11226.100
392.472, 11232.870
392.954, 11234.170
393.437, 11250.390
393.919, 11302.950
394.401, 11374.360
394.883, 11437.880
395.365, 11490.050
395.847, 11528.460
396.329, 11542.430
396.811, 11524.810
397.293, 11533.120
397.776, 11601.340
398.258, 11687.430
398.740, 11753.950
399.222, 11758.130
399.704, 11788.050
400.186, 11867.770
400.668, 11990.400
401.151, 12086.800
401.633, 12145.400
402.115, 12190.490
402.597, 12233.270
403.079, 12265.020
403.561, 12317.640
404.043, 12400.000
404.525, 12499.880
405.007, 12590.580
405.490, 12673.290
405.972, 12744.120
406.454, 12796.130
406.936, 12828.910
407.418, 12877.830
407.900, 12948.190
408.382, 13020.470
408.864, 13065.440
409.346, 13084.500
409.828, 13114.920
410.311, 13174.200
410.793, 13249.730
411.275, 13311.980
411.757, 13361.180
412.239, 13401.590
412.721, 13435.300
413.203, 13463.460
413.685, 13488.210
414.168, 13509.740
414.650, 13528.250
415.132, 13550.110
415.614, 13570.290
416.096, 13572.450
416.578, 13554.700
417.060, 13510.420
417.542, 13426.580
418.025, 13296.680
418.507, 13160.990
418.989, 13041.870
419.471, 12930.000
419.953, 12810.770
420.435, 12671.390
420.917, 12532.580
421.399, 12400.060
421.881, 12274.730
422.364, 12164.860
422.846, 12082.790
423.328, 12010.400
423.810, 11937.420
424.292, 11863.720
424.774, 11787.430
425.256, 11702.670
425.738, 11614.540
426.220, 11541.110
426.703, 11490.130
427.185, 11442.850
427.667, 11391.980
428.149, 11334.550
428.631, 11286.960
429.113, 11252.920
429.595, 11223.160
430.077, 11183.360
430.560, 11129.210
431.042, 11085.320
431.524, 11061.050
432.006, 11052.090
432.488, 11039.500
432.970, 11023.800
433.452, 11001.340
433.934, 10962.310
434.417, 10911.350
434.899, 10873.630
435.381, 10854.440
435.863, 10846.390
436.345, 10841.340
436.827, 10838.860
437.309, 10836.760
437.791, 10838.360
438.273, 10837.740
438.755, 10822.950
439.238, 10792.390
439.720, 10765.190
440.202, 10759.290
440.684, 10764.550
441.166, 10767.230
441.648, 10760.320
442.130, 10751.130
442.612, 10746.910
443.095, 10744.970
443.577, 10732.460
444.059, 10698.260
444.541, 10656.620
445.023, 10613.700
445.505, 10560.160
445.987, 10525.640
446.469, 10532.760
446.952, 10558.020
447.434, 10562.420
447.916, 10529.080
448.398, 10493.940
448.880, 10465.400
449.362, 10443.780
449.844, 10420.250
450.326, 10391.920
450.808, 10365.610
451.290, 10347.320
451.773, 10338.500
452.255, 10332.040
452.737, 10327.500
453.219, 10324.180
453.701, 10321.240
454.183, 10319.020
454.665, 10313.230
455.147, 10300.760
455.630, 10282.510
456.112, 10260.660
456.594, 10234.400
457.076, 10211.260
457.558, 10207.590
458.040, 10215.400
458.522, 10210.040
459.004, 10170.110
459.487, 10124.380
459.969, 10109.910
460.451, 10122.130
460.933, 10133.820
461.415, 10129.890
461.897, 10116.350
462.379, 10094.440
462.861, 10055.420
463.343, 10032.360
463.826, 10053.990
464.308, 10099.260
464.790, 10134.610
465.272, 10152.390
465.754, 10156.500
466.236, 10143.730
466.718, 10112.660
467.200, 10086.230
467.682, 10059.810
468.165, 10042.890
468.647, 10042.860
469.129, 10074.900
469.611, 10096.310
470.093, 10101.910
470.575, 10096.420
471.057, 10090.770
471.539, 10083.190
472.022, 10080.040
472.504, 10084.770
472.986, 10097.210
473.468, 10113.020
473.950, 10134.700
474.432, 10149.470
474.914, 10136.250
475.396, 10100.260
475.878, 10075.310
476.361, 10073.060
476.843, 10082.730
477.325, 10089.470
477.807, 10093.560
478.289, 10095.040
478.771, 10092.890
479.253, 10088.980
479.735, 10082.820
480.217, 10072.740
480.700, 10071.520
481.182, 10094.230
481.664, 10128.690
482.146, 10159.180
482.628, 10172.340
483.110, 10187.240
483.592, 10216.300
484.074, 10255.750
484.556, 10281.070
485.039, 10273.850
485.521, 10260.450
486.003, 10254.270
486.485, 10261.470
486.967, 10263.240
487.449, 10259.280
487.931, 10250.270
488.414, 10235.210
488.896, 10208.290
489.378, 10191.230
489.860, 10191.810
490.342, 10207.820
490.824, 10222.470
491.306, 10236.200
491.788, 10248.250
492.270, 10255.540
492.753, 10259.420
493.235, 10273.430
493.717, 10301.810
494.199, 10331.080
494.681, 10341.070
495.163, 10335.400
495.645, 10327.610
496.127, 10318.200
496.609, 10312.950
497.092, 10315.660
497.574, 10326.910
498.056, 10354.240
498.538, 10431.170
499.020, 10511.480
499.502, 10548.750
499.984, 10511.070
500.466, 10473.100
500.948, 10451.770
501.431, 10449.150
501.913, 10469.870
502.395, 10544.540
502.877, 10613.050
503.359, 10657.000
503.841, 10675.290
504.323, 10691.160
504.805, 10698.490
505.288, 10709.590
505.770, 10734.030
506.252, 10776.170
506.734, 10817.240
507.216, 10857.130
507.698, 10893.590
508.180, 10920.200
508.662, 10936.370
509.145, 10953.570
509.627, 10978.500
510.109, 11008.140
510.591, 11025.680
511.073, 11030.930
511.555, 11050.650
512.037, 11124.690
512.519, 11226.380
513.001, 11301.400
513.484, 11327.150
513.966, 11354.430
514.448, 11430.120
514.930, 11536.950
515.412, 11639.800
515.894, 11711.260
516.376, 11785.890
516.858, 11883.540
517.341, 12005.420
517.823, 12123.870
518.305, 12217.350
518.787, 12315.280
519.269, 12437.380
519.751, 12599.580
520.233, 12764.760
520.715, 12932.620
521.197, 13100.880
521.680, 13262.250
522.162, 13414.580
522.644, 13565.200
523.126, 13705.450
523.608, 13842.220
524.090, 14031.660
524.572, 14281.070
525.054, 14551.520
525.536, 14829.990
526.019, 15110.640
526.501, 15363.430
526.983, 15574.300
527.465, 15781.130
527.947, 16041.150
528.429, 16330.410
528.911, 16603.699
529.393, 16832.779
529.875, 17039.500
530.358, 17257.680
530.840, 17477.471
531.322, 17636.160
531.804, 17708.990
532.286, 17706.350
532.768, 17635.369
533.250, 17503.391
533.732, 17291.010
534.214, 16951.650
534.697, 16545.971
535.179, 16146.880
535.661, 15763.270
536.143, 15374.800
536.625, 14976.230
537.107, 14570.390
537.589, 14205.250
538.071, 13884.650
538.554, 13594.800
539.036, 13330.980
539.518, 13094.060
540.000, 12884.260
540.482, 12705.320
540.964, 12550.570
541.446, 12407.250
541.928, 12280.630
542.411, 12185.990
542.893, 12131.540
543.375, 12049.575
543.857, 12025.366
544.339, 11987.135
544.821, 11935.644
545.303, 11831.172
545.785, 11795.119
546.268, 11731.629
546.750, 11667.043
547.232, 11640.612
547.714, 11569.300
548.196, 11517.980
548.678, 11482.990
549.160, 11487.740
549.642, 11474.780
550.124, 11433.650
550.606, 11375.520
551.089, 11326.500
551.571, 11287.370
552.053, 11255.580
552.535, 11232.940
553.017, 11218.090
553.499, 11199.430
553.981, 11177.220
554.463, 11149.350
554.945, 11104.920
555.428, 11051.850
555.910, 11022.460
556.392, 11026.440
556.874, 11037.980
557.356, 11024.810
557.838, 10999.040
558.320, 10985.540
558.802, 11020.130
559.284, 11049.060
559.767, 11023.900
560.249, 10955.590
560.731, 10914.670
561.213, 10958.560
561.695, 11009.380
562.177, 11022.980
562.659, 10971.870
563.141, 10944.830
563.624, 10961.820
564.106, 10988.850
564.588, 10988.150
565.070, 10947.080
565.552, 10915.510
566.034, 10902.020
566.516, 10902.300
566.998, 10903.410
567.481, 10904.980
567.963, 10915.400
568.445, 10957.700
568.927, 11010.660
569.409, 11002.580
569.891, 10932.930
570.373, 10867.400
570.855, 10871.180
571.338, 10909.150
571.820, 10934.630
572.302, 10938.480
572.784, 10927.410
573.266, 10889.920
573.748, 10842.990
574.230, 10813.520
574.712, 10820.390
575.194, 10834.260
575.677, 10855.600
576.159, 10881.670
576.641, 10883.210
577.123, 10841.330
577.605, 10800.610
578.087, 10784.750
578.569, 10799.750
579.051, 10804.590
579.533, 10797.140
580.016, 10785.330
580.498, 10775.080
580.980, 10767.130
581.462, 10770.340
581.944, 10790.650
582.426, 10815.600
582.908, 10827.940
583.390, 10828.880
583.872, 10823.180
584.355, 10803.070
584.837, 10784.370
585.319, 10780.220
585.801, 10790.630
586.283, 10806.320
586.765, 10835.150
587.247, 10859.720
587.729, 10866.890
588.211, 10840.350
588.694, 10826.140
589.176, 10833.190
589.658, 10849.290
590.140, 10859.720
590.622, 10862.880
591.104, 10864.210
591.586, 10862.880
592.068, 10861.460
592.551, 10871.360
593.033, 10893.560
593.515, 10909.940
593.997, 10906.310
594.479, 10890.070
594.961, 10882.120
595.443, 10882.640
595.925, 10881.650
596.407, 10862.010
596.890, 10840.010
597.372, 10840.810
597.854, 10884.280
598.336, 10913.070
598.818, 10879.390
599.300, 10819.360
599.782, 10786.050
600.265, 10807.370
600.747, 10837.050
601.229, 10875.320
601.711, 10916.610
602.193, 10931.910
602.675, 10908.710
603.157, 10883.430
603.639, 10870.900
604.121, 10871.180
604.604, 10875.220
605.086, 10883.150
605.568, 10894.180
606.050, 10910.570
606.532, 10929.830
607.014, 10943.130
607.496, 10947.750
607.978, 10950.050
608.460, 10949.770
608.943, 10952.470
609.425, 10968.300
609.907, 11031.620
610.389, 11080.060
610.871, 11068.370
611.353, 11011.000
611.835, 10975.800
612.317, 10995.460
612.799, 11021.330
613.282, 11035.210
613.764, 11034.820
614.246, 11038.700
614.728, 11046.460
615.210, 11059.640
615.692, 11086.960
616.174, 11130.450
616.656, 11139.630
617.138, 11100.090
617.621, 11080.350
618.103, 11122.643
618.585, 11149.877
619.067, 11162.865
619.549, 11118.925
620.031, 11148.492
620.513, 11148.603
620.995, 11147.504
621.477, 11187.417
621.960, 11179.100
622.442, 11203.590
622.924, 11238.710
623.406, 11283.780
623.888, 11304.220
624.370, 11278.690
624.852, 11242.370
625.334, 11214.140
625.817, 11194.330
626.299, 11181.710
626.781, 11176.290
627.263, 11177.930
627.745, 11190.920
628.227, 11214.570
628.709, 11228.590
629.191, 11224.400
629.674, 11213.670
630.156, 11219.550
630.638, 11236.310
631.120, 11244.350
631.602, 11231.890
632.084, 11208.120
632.566, 11169.090
633.048, 11118.360
633.531, 11092.090
634.013, 11132.150
634.495, 11179.230
634.977, 11197.970
635.459, 11171.850
635.941, 11159.170
636.423, 11167.360
636.905, 11180.820
637.387, 11184.080
637.870, 11175.220
