##NAMES=Tunisite
##RRUFFID=R060776
##IDEAL CHEMISTRY=NaCa_2_Al_4_(CO_3_)_4_(OH)_8_Cl
##LOCALITY=Condorcet, Drome, France
##OWNER=RRUFF
##SOURCE=Michael Scott
##DESCRIPTION=Transparent colorless tabular crystals
##STATUS=The identification of this mineral is confirmed by single-crystal X-ray diffraction and chemical analysis.
##URL=rruff.info/R060776
##MEASURED CHEMISTRY=(Na_0.99_K_0.01_)_âˆ‘=0.99_Ca_1.99_Al_4.00_(CO_3_)_4.05_(OH)_7.78_Cl_1.03_
155.758, 13575.660
156.240, 13598.070
156.722, 13662.180
157.204, 13773.710
157.686, 13914.780
158.169, 14065.980
158.651, 14225.710
159.133, 14411.090
159.615, 14639.900
160.097, 14892.050
160.579, 15157.860
161.061, 15439.240
161.543, 15714.130
162.025, 15957.720
162.508, 16166.510
162.990, 16353.250
163.472, 16521.260
163.954, 16666.119
164.436, 16782.410
164.918, 16867.660
165.400, 16926.789
165.882, 16963.170
166.365, 16972.660
166.847, 16972.650
167.329, 16971.750
167.811, 16961.199
168.293, 16926.381
168.775, 16861.689
169.257, 16792.920
169.739, 16764.730
170.221, 16794.131
170.704, 16817.350
171.186, 16818.150
171.668, 16810.480
172.150, 16802.439
172.632, 16796.510
173.114, 16796.289
173.596, 16808.820
174.078, 16839.090
174.561, 16871.680
175.043, 16919.840
175.525, 16960.949
176.007, 16969.439
176.489, 16936.820
176.971, 16889.150
177.453, 16877.100
177.935, 16925.670
178.417, 16955.660
178.900, 16945.699
179.382, 16920.980
179.864, 16900.650
180.346, 16891.189
180.828, 16887.721
181.310, 16880.000
181.792, 16859.891
182.274, 16852.410
182.757, 16845.180
183.239, 16856.789
183.721, 16910.539
184.203, 17012.891
184.685, 17137.689
185.167, 17232.699
185.649, 17266.619
186.131, 17332.340
186.613, 17466.039
187.096, 17612.520
187.578, 17721.939
188.060, 17779.430
188.542, 17819.039
189.024, 17908.920
189.506, 18096.189
189.988, 18241.330
190.470, 18324.461
190.952, 18377.539
191.435, 18419.080
191.917, 18456.391
192.399, 18496.779
192.881, 18555.080
193.363, 18649.490
193.845, 18726.910
194.327, 18775.580
194.809, 18816.080
195.292, 18868.270
195.774, 18935.859
196.256, 19002.240
196.738, 19042.881
197.220, 19061.350
197.702, 19042.250
198.184, 18958.020
198.666, 18862.020
199.148, 18804.500
199.631, 18791.070
200.113, 18775.260
200.595, 18685.939
201.077, 18491.580
201.559, 18287.430
202.041, 18061.631
202.523, 17837.619
203.005, 17634.891
203.488, 17455.250
203.970, 17283.100
204.452, 17097.119
204.934, 16888.859
205.416, 16689.070
205.898, 16496.461
206.380, 16311.310
206.862, 16131.340
207.344, 15957.620
207.827, 15795.760
208.309, 15651.880
208.791, 15529.150
209.273, 15415.490
209.755, 15317.680
210.237, 15221.960
210.719, 15109.000
211.201, 14985.750
211.684, 14885.010
212.166, 14849.000
212.648, 14899.600
213.130, 14910.120
213.612, 14842.940
214.094, 14773.180
214.576, 14725.220
215.058, 14703.470
215.540, 14705.530
216.023, 14734.220
216.505, 14794.720
216.987, 14834.700
217.469, 14847.640
217.951, 14847.370
218.433, 14831.180
218.915, 14804.810
219.397, 14779.870
219.880, 14766.380
220.362, 14764.610
220.844, 14758.630
221.326, 14755.860
221.808, 14741.180
222.290, 14703.730
222.772, 14650.930
223.254, 14599.690
223.736, 14564.020
224.219, 14540.320
224.701, 14489.210
225.183, 14366.710
225.665, 14262.890
226.147, 14202.960
226.629, 14173.150
227.111, 14150.040
227.593, 14119.460
228.076, 14085.250
228.558, 14065.540
229.040, 14073.390
229.522, 14079.390
230.004, 14073.890
230.486, 14064.660
230.968, 14062.360
231.450, 14072.740
231.932, 14090.390
232.415, 14100.480
232.897, 14102.450
233.379, 14096.610
233.861, 14086.750
234.343, 14068.890
234.825, 14037.440
235.307, 13990.050
235.789, 13933.270
236.271, 13880.810
236.754, 13840.800
237.236, 13785.260
237.718, 13691.300
238.200, 13593.710
238.682, 13519.540
239.164, 13475.590
239.646, 13447.310
240.128, 13412.080
240.611, 13363.420
241.093, 13331.460
241.575, 13342.130
242.057, 13354.220
242.539, 13341.410
243.021, 13301.490
243.503, 13254.050
243.985, 13220.200
244.467, 13202.000
244.950, 13180.200
245.432, 13141.953
245.914, 13198.023
246.396, 13231.199
246.878, 13242.710
247.360, 13167.670
247.842, 13204.393
248.324, 13196.326
248.807, 13186.423
249.289, 13238.876
249.771, 13176.424
250.253, 13227.890
250.735, 13233.881
251.217, 13260.684
251.699, 13242.420
252.181, 13238.077
252.663, 13240.670
253.146, 13253.540
253.628, 13263.650
254.110, 13227.620
254.592, 13167.820
255.074, 13122.540
255.556, 13112.380
256.038, 13124.500
256.520, 13133.160
257.003, 13135.260
257.485, 13144.020
257.967, 13177.460
258.449, 13218.010
258.931, 13242.400
259.413, 13236.640
259.895, 13225.440
260.377, 13245.780
260.859, 13301.140
261.341, 13338.450
261.824, 13318.820
262.306, 13279.670
262.788, 13269.710
263.270, 13301.070
263.752, 13338.280
264.234, 13348.430
264.716, 13336.670
265.198, 13340.190
265.681, 13376.920
266.163, 13426.400
266.645, 13458.750
267.127, 13471.160
267.609, 13488.350
268.091, 13521.580
268.573, 13568.310
269.055, 13626.260
269.538, 13699.270
270.020, 13772.110
270.502, 13819.280
270.984, 13842.480
271.466, 13879.260
271.948, 13955.810
272.430, 14043.870
272.912, 14099.340
273.394, 14114.480
273.877, 14136.780
274.359, 14217.510
274.841, 14355.700
275.323, 14463.890
275.805, 14517.960
276.287, 14555.180
276.769, 14602.510
277.251, 14659.330
277.733, 14710.850
278.216, 14745.020
278.698, 14764.790
279.180, 14795.430
279.662, 14857.290
280.144, 14907.490
280.626, 14921.430
281.108, 14910.620
281.590, 14898.160
282.073, 14893.470
282.555, 14899.430
283.037, 14926.530
283.519, 14985.680
284.001, 15050.990
284.483, 15131.830
284.965, 15212.580
285.447, 15271.550
285.930, 15301.890
286.412, 15318.040
286.894, 15343.710
287.376, 15383.050
287.858, 15425.030
288.340, 15488.280
288.822, 15540.970
289.304, 15549.480
289.786, 15516.750
290.268, 15482.140
290.751, 15493.740
291.233, 15568.900
291.715, 15594.410
292.197, 15548.280
292.679, 15478.380
293.161, 15394.990
293.643, 15302.580
294.125, 15206.270
294.608, 15111.150
295.090, 15015.040
295.572, 14899.620
296.054, 14732.320
296.536, 14585.770
297.018, 14484.060
297.500, 14408.610
297.982, 14335.320
298.465, 14253.460
298.947, 14167.600
299.429, 14087.560
299.911, 14012.170
300.393, 13945.770
300.875, 13887.300
301.357, 13838.490
301.839, 13803.270
302.321, 13782.430
302.804, 13767.720
303.286, 13749.780
303.768, 13728.410
304.250, 13712.080
304.732, 13704.720
305.214, 13700.640
305.696, 13696.280
306.178, 13691.550
306.660, 13686.520
307.143, 13684.260
307.625, 13681.950
308.107, 13669.720
308.589, 13644.200
309.071, 13616.020
309.553, 13592.150
310.035, 13571.720
310.517, 13553.790
311.000, 13538.170
311.482, 13524.860
311.964, 13514.070
312.446, 13505.810
312.928, 13500.010
313.410, 13496.960
313.892, 13496.600
314.374, 13497.590
314.857, 13497.930
315.339, 13502.720
315.821, 13519.530
316.303, 13542.800
316.785, 13559.700
317.267, 13565.970
317.749, 13563.350
318.231, 13551.940
318.713, 13522.730
319.195, 13509.830
319.678, 13532.320
320.160, 13564.920
320.642, 13581.090
321.124, 13577.150
321.606, 13567.330
322.088, 13564.630
322.570, 13567.780
323.052, 13588.200
323.535, 13635.850
324.017, 13687.840
324.499, 13735.710
324.981, 13779.160
325.463, 13821.750
325.945, 13867.770
326.427, 13912.380
326.909, 13926.580
327.392, 13876.180
327.874, 13835.640
328.356, 13823.170
328.838, 13821.700
329.320, 13811.920
329.802, 13786.920
330.284, 13754.810
330.766, 13728.860
331.248, 13711.590
331.731, 13693.880
332.213, 13684.380
332.695, 13667.070
333.177, 13624.780
333.659, 13561.230
334.141, 13502.040
334.623, 13477.440
335.105, 13482.580
335.587, 13463.910
336.070, 13404.810
336.552, 13346.710
337.034, 13312.660
337.516, 13295.630
337.998, 13282.790
338.480, 13275.000
338.962, 13263.970
339.444, 13229.050
339.927, 13166.950
340.409, 13123.580
340.891, 13125.320
341.373, 13156.110
341.855, 13188.860
342.337, 13230.730
342.819, 13254.520
343.301, 13223.490
343.784, 13163.220
344.266, 13143.500
344.748, 13190.210
345.230, 13256.360
345.712, 13277.180
346.194, 13244.800
346.676, 13221.640
347.158, 13216.100
347.640, 13221.190
348.122, 13238.400
348.605, 13263.870
349.087, 13279.030
349.569, 13266.610
350.051, 13228.070
350.533, 13207.400
351.015, 13217.620
351.497, 13228.250
351.979, 13232.200
352.462, 13230.980
352.944, 13227.640
353.426, 13223.530
353.908, 13217.670
354.390, 13206.890
354.872, 13183.990
355.354, 13170.480
355.836, 13174.830
356.319, 13181.730
356.801, 13183.080
357.283, 13177.010
357.765, 13164.000
358.247, 13144.240
358.729, 13117.770
359.211, 13083.240
359.693, 13020.260
360.175, 12977.840
360.658, 12988.300
361.140, 13029.920
361.622, 13064.610
362.104, 13078.470
362.586, 13074.440
363.068, 13048.530
363.550, 12996.810
364.032, 12962.850
364.514, 12972.770
364.997, 13002.840
365.479, 13021.010
365.961, 13023.750
366.443, 13026.070
366.925, 13036.920
367.407, 13052.990
367.889, 13069.570
368.371, 13087.100
368.853, 13096.310
369.336, 13078.830
369.818, 13032.610
370.300, 13021.860
370.782, 13087.350
371.264, 13157.410
371.746, 13179.410
372.228, 13162.910
372.711, 13148.040
373.193, 13158.400
373.675, 13187.760
374.157, 13210.880
374.639, 13218.930
375.121, 13231.580
375.603, 13260.460
376.085, 13289.210
376.567, 13297.910
377.049, 13283.620
377.532, 13264.470
378.014, 13266.510
378.496, 13298.050
378.978, 13310.980
379.460, 13274.770
379.942, 13247.910
380.424, 13261.770
380.906, 13301.660
381.389, 13332.300
381.871, 13330.820
382.353, 13309.640
382.835, 13301.440
383.317, 13312.350
383.799, 13314.860
384.281, 13286.980
384.763, 13252.140
385.246, 13233.380
385.728, 13235.360
386.210, 13243.410
386.692, 13252.960
387.174, 13260.920
387.656, 13251.870
388.138, 13216.370
388.620, 13186.240
389.102, 13200.480
389.585, 13255.710
390.067, 13300.630
390.549, 13321.320
391.031, 13336.530
391.513, 13358.330
391.995, 13386.220
392.477, 13417.490
392.959, 13451.740
393.441, 13485.660
393.924, 13509.080
394.406, 13508.010
394.888, 13513.800
395.370, 13531.940
395.852, 13555.060
396.334, 13576.920
396.816, 13596.160
397.298, 13614.730
397.780, 13633.910
398.263, 13653.120
398.745, 13678.790
399.227, 13719.410
399.709, 13757.650
400.191, 13790.990
400.673, 13817.820
401.155, 13835.270
401.638, 13840.730
402.120, 13839.510
402.602, 13837.680
403.084, 13833.810
403.566, 13841.310
404.048, 13871.610
404.530, 13908.860
405.012, 13936.660
405.494, 13954.400
405.977, 13973.490
406.459, 14005.700
406.941, 14041.230
407.423, 14059.110
407.905, 14056.500
408.387, 14058.080
408.869, 14088.460
409.351, 14140.560
409.833, 14160.710
410.316, 14112.030
410.798, 14074.290
411.280, 14080.930
411.762, 14117.110
412.244, 14164.410
412.726, 14216.210
413.208, 14261.030
413.690, 14279.490
414.172, 14262.290
414.655, 14241.280
415.137, 14212.650
415.619, 14183.690
416.101, 14160.420
416.583, 14139.850
417.065, 14113.980
417.547, 14077.340
418.029, 14031.520
418.512, 13982.980
418.994, 13934.060
419.476, 13876.390
419.958, 13794.790
420.440, 13710.670
420.922, 13644.040
421.404, 13598.550
421.886, 13558.040
422.368, 13514.460
422.851, 13466.960
423.333, 13408.260
423.815, 13333.750
424.297, 13265.880
424.779, 13228.230
425.261, 13215.710
425.743, 13192.130
426.225, 13145.080
426.708, 13096.750
427.190, 13055.170
427.672, 13021.430
428.154, 13000.990
428.636, 12996.550
429.118, 12997.080
429.600, 12982.370
430.082, 12943.080
430.565, 12909.230
431.047, 12884.270
431.529, 12860.770
432.011, 12836.380
432.493, 12809.760
432.975, 12777.330
433.457, 12734.480
433.939, 12687.060
434.421, 12659.150
434.904, 12660.070
435.386, 12659.130
435.868, 12635.750
436.350, 12614.240
436.832, 12621.640
437.314, 12662.540
437.796, 12699.570
438.278, 12703.840
438.760, 12683.100
439.243, 12658.170
439.725, 12630.430
440.207, 12602.420
440.689, 12574.050
441.171, 12546.890
441.653, 12528.380
442.135, 12524.460
442.617, 12522.910
443.099, 12520.060
443.582, 12515.170
444.064, 12506.680
444.546, 12493.990
445.028, 12478.410
445.510, 12460.720
445.992, 12435.860
446.474, 12425.720
446.957, 12452.730
447.439, 12470.240
447.921, 12453.100
448.403, 12410.600
448.885, 12362.920
449.367, 12319.290
449.849, 12282.770
450.331, 12261.840
450.813, 12260.450
451.296, 12259.130
451.778, 12260.880
452.260, 12254.970
452.742, 12227.670
453.224, 12180.390
453.706, 12139.170
454.188, 12121.400
454.670, 12115.920
455.152, 12102.950
455.635, 12081.760
456.117, 12069.600
456.599, 12079.980
457.081, 12105.230
457.563, 12117.270
458.045, 12119.880
458.527, 12106.200
459.009, 12054.720
459.491, 11997.180
459.974, 11966.750
460.456, 11968.540
460.938, 11988.180
461.420, 12014.300
461.902, 12046.870
462.384, 12069.080
462.866, 12077.270
463.348, 12078.700
463.831, 12072.920
464.313, 12062.890
464.795, 12051.280
465.277, 12038.890
465.759, 12027.010
466.241, 12019.000
466.723, 12013.860
467.205, 12000.900
467.687, 11973.920
468.170, 11949.620
468.652, 11948.360
469.134, 11962.600
469.616, 11964.660
470.098, 11935.330
470.580, 11907.340
471.062, 11908.110
471.544, 11924.770
472.026, 11925.830
472.509, 11899.660
472.991, 11863.190
473.473, 11843.920
473.955, 11852.920
474.437, 11843.210
474.919, 11786.910
475.401, 11742.500
475.883, 11745.630
476.366, 11779.780
476.848, 11809.440
477.330, 11816.540
477.812, 11809.310
478.294, 11802.970
478.776, 11798.150
479.258, 11790.420
479.740, 11776.540
480.223, 11762.020
480.705, 11755.240
481.187, 11754.170
481.669, 11743.270
482.151, 11695.050
482.633, 11648.750
483.115, 11658.630
483.597, 11715.900
484.079, 11762.240
484.561, 11768.380
485.044, 11751.460
485.526, 11748.720
486.008, 11773.830
486.490, 11787.980
486.972, 11787.550
487.454, 11778.580
487.936, 11761.180
488.418, 11738.400
488.901, 11715.300
489.383, 11693.310
489.865, 11676.990
490.347, 11687.240
490.829, 11741.160
491.311, 11773.080
491.793, 11734.610
492.275, 11690.720
492.758, 11698.440
493.240, 11757.470
493.722, 11804.120
494.204, 11797.430
494.686, 11761.780
495.168, 11727.270
495.650, 11696.230
496.132, 11678.780
496.614, 11684.670
497.097, 11703.750
497.579, 11706.700
498.061, 11676.470
498.543, 11661.610
499.025, 11676.490
499.507, 11701.170
499.989, 11726.030
500.471, 11746.260
500.953, 11753.620
501.436, 11740.100
501.918, 11710.940
502.400, 11687.570
502.882, 11666.550
503.364, 11659.400
503.846, 11685.090
504.328, 11715.210
504.810, 11724.700
505.293, 11712.640
505.775, 11704.680
506.257, 11717.390
506.739, 11742.290
507.221, 11768.790
507.703, 11795.950
508.185, 11817.770
508.667, 11830.610
509.150, 11836.160
509.632, 11838.490
510.114, 11833.150
510.596, 11832.560
511.078, 11835.800
511.560, 11845.580
512.042, 11867.930
512.524, 11899.730
513.006, 11930.120
513.489, 11951.620
513.971, 11965.320
514.453, 11972.860
514.935, 11967.790
515.417, 11974.480
515.899, 12003.100
516.381, 12043.140
516.863, 12091.900
517.346, 12147.750
517.828, 12197.070
518.310, 12224.930
518.792, 12247.030
519.274, 12281.580
519.756, 12329.080
520.238, 12388.130
520.720, 12459.860
521.202, 12538.460
521.685, 12611.220
522.167, 12668.190
522.649, 12737.280
523.131, 12825.650
523.613, 12919.850
524.095, 13008.770
524.577, 13096.580
525.059, 13196.870
525.541, 13318.520
526.024, 13455.140
526.506, 13599.120
526.988, 13756.100
527.470, 13885.560
527.952, 13964.090
528.434, 14027.220
528.916, 14107.720
529.398, 14202.880
529.880, 14291.290
530.363, 14377.120
530.845, 14445.470
531.327, 14492.550
531.809, 14512.740
532.291, 14488.790
532.773, 14413.190
533.255, 14298.580
533.737, 14163.740
534.219, 14008.010
534.702, 13833.810
535.184, 13617.930
535.666, 13409.440
536.148, 13221.690
536.630, 13055.750
537.112, 12912.920
537.594, 12795.780
538.076, 12689.480
538.559, 12568.780
539.041, 12437.050
539.523, 12333.460
540.005, 12269.390
540.487, 12216.460
540.969, 12151.670
541.451, 12077.960
541.933, 12011.950
542.416, 11953.040
542.898, 11902.740
543.380, 11862.600
543.862, 11831.140
544.344, 11811.420
544.826, 11801.800
545.308, 11786.610
545.790, 11747.210
546.273, 11684.930
546.755, 11638.980
547.237, 11623.830
547.719, 11601.320
548.201, 11550.730
548.683, 11494.110
549.165, 11451.450
549.647, 11426.220
550.129, 11413.300
550.612, 11423.460
551.094, 11438.490
551.576, 11401.340
552.058, 11350.653
552.540, 11379.567
553.022, 11389.159
553.504, 11380.467
553.986, 11298.732
554.468, 11311.319
554.951, 11286.102
555.433, 11259.340
555.915, 11285.200
556.397, 11249.170
556.879, 11222.260
557.361, 11207.300
557.843, 11192.060
558.325, 11181.360
558.807, 11188.720
559.290, 11215.710
559.772, 11234.040
560.254, 11235.200
560.736, 11229.920
561.218, 11232.350
561.700, 11239.330
562.182, 11229.930
562.664, 11182.570
563.146, 11136.790
563.629, 11113.980
564.111, 11107.970
564.593, 11110.650
565.075, 11118.740
565.557, 11127.150
566.039, 11132.340
566.521, 11135.020
567.003, 11112.790
567.486, 11034.390
567.968, 10978.870
568.450, 10990.360
568.932, 11024.670
569.414, 11029.860
569.896, 10995.240
570.378, 10962.550
570.860, 10965.110
571.343, 10984.390
571.825, 10987.790
572.307, 10974.620
572.789, 10966.690
573.271, 10978.700
573.753, 11000.070
574.235, 11001.990
574.717, 10967.480
575.200, 10942.220
575.682, 10927.280
576.164, 10919.790
576.646, 10921.000
577.128, 10928.000
577.610, 10934.720
578.092, 10937.670
578.574, 10940.420
579.056, 10946.930
579.539, 10957.400
580.021, 10977.790
580.503, 11015.090
580.985, 11046.210
581.467, 11048.880
581.949, 11024.010
582.431, 10998.550
582.913, 10973.540
583.395, 10946.600
583.878, 10912.160
584.360, 10877.890
584.842, 10851.570
585.324, 10834.980
585.806, 10826.240
586.288, 10823.980
586.770, 10828.090
587.252, 10842.330
587.734, 10875.500
588.217, 10888.900
588.699, 10857.320
589.181, 10810.250
589.663, 10777.870
590.145, 10760.680
590.627, 10750.220
591.109, 10748.590
591.591, 10748.750
592.073, 10744.460
592.556, 10737.310
593.038, 10734.090
593.520, 10737.390
594.002, 10737.240
594.484, 10713.390
594.966, 10656.750
595.448, 10637.390
595.930, 10692.390
596.413, 10734.740
596.895, 10717.060
597.377, 10676.180
597.859, 10664.500
598.341, 10696.450
598.823, 10726.820
599.305, 10726.000
599.787, 10706.250
600.269, 10682.000
600.752, 10655.970
601.234, 10634.620
601.716, 10621.040
602.198, 10615.980
602.680, 10623.030
603.162, 10659.820
603.644, 10674.130
604.127, 10641.830
604.609, 10612.500
605.091, 10617.700
605.573, 10643.820
606.055, 10658.620
606.537, 10646.350
607.019, 10628.660
607.501, 10635.490
607.983, 10655.580
608.466, 10644.880
608.948, 10593.890
609.430, 10550.470
609.912, 10555.030
610.394, 10598.470
610.876, 10625.050
611.358, 10625.200
611.840, 10620.680
612.322, 10611.990
612.805, 10599.590
613.287, 10577.620
613.769, 10551.320
614.251, 10538.250
614.733, 10553.520
615.215, 10579.440
615.697, 10591.940
616.179, 10590.770
616.661, 10565.340
617.144, 10503.640
617.626, 10452.170
618.108, 10462.720
618.590, 10534.220
619.072, 10579.910
619.554, 10598.170
620.036, 10595.400
620.518, 10550.620
621.000, 10499.710
621.483, 10479.510
621.965, 10492.460
622.447, 10514.780
622.929, 10531.790
623.411, 10542.840
623.893, 10546.980
624.375, 10544.230
624.857, 10529.510
625.340, 10494.100
625.822, 10459.920
626.304, 10455.890
626.786, 10485.220
627.268, 10502.210
627.750, 10505.420
628.232, 10497.270
628.714, 10461.950
629.196, 10424.240
629.679, 10421.400
630.161, 10456.560
630.643, 10491.310
631.125, 10489.480
631.607, 10460.350
632.089, 10431.870
632.571, 10402.220
633.054, 10392.490
633.536, 10421.340
634.018, 10457.980
634.500, 10457.130
634.982, 10414.850
635.464, 10385.090
635.946, 10379.740
636.428, 10378.730
636.910, 10371.830
637.393, 10364.050
637.875, 10366.740
638.357, 10381.010
638.839, 10390.940
639.321, 10376.480
639.803, 10343.850
640.285, 10324.310
640.767, 10320.020
641.250, 10312.850
641.732, 10292.750
642.214, 10270.150
642.696, 10261.030
643.178, 10266.540
643.660, 10273.710
644.142, 10287.300
644.624, 10296.300
645.106, 10292.310
645.589, 10281.600
646.071, 10275.080
646.553, 10275.100
647.035, 10272.260
647.517, 10254.870
647.999, 10226.430
648.481, 10199.920
648.963, 10174.130
649.445, 10162.310
649.928, 10177.940
650.410, 10199.850
650.892, 10190.680
651.374, 10141.030
