##NAMES=Turneaureite
##RRUFFID=R070758
##IDEAL CHEMISTRY=Ca_5_(As^5+^O_4_)_3_Cl
##LOCALITY=ZCA mine No. 4 (St Joe mine), Balmat, Balmat-Edwards Zinc District, St Lawrence County, New York, USA
##OWNER=RRUFF
##SOURCE=Michael Scott
##DESCRIPTION=Colorless to grayish white massive that fluoresces bright orange under SW UV.
##STATUS=The identification of this mineral has been confirmed only by single crystal X-ray diffraction.
##URL=rruff.info/R070758
87.96063, 1359.972
88.44275, 1397.843
88.92487, 1465.594
89.40698, 1519.275
89.88910, 1553.086
90.37122, 1580.371
90.85333, 1610.669
91.33545, 1645.826
91.81757, 1679.441
92.29968, 1699.176
92.78180, 1686.682
93.26392, 1682.536
93.74603, 1680.450
94.22815, 1680.383
94.71027, 1682.624
95.19238, 1682.602
95.67450, 1680.770
96.15662, 1678.460
96.63873, 1671.619
97.12085, 1668.180
97.60297, 1676.893
98.08508, 1697.462
98.56720, 1712.820
99.04932, 1706.918
99.53143, 1688.922
100.0135, 1674.144
100.4957, 1663.246
100.9778, 1658.240
101.4599, 1665.437
101.9420, 1691.757
102.4241, 1718.775
102.9063, 1737.849
103.3884, 1750.091
103.8705, 1758.176
104.3526, 1760.971
104.8347, 1756.944
105.3168, 1761.723
105.7990, 1790.814
106.2811, 1817.193
106.7632, 1826.964
107.2453, 1819.196
107.7274, 1803.919
108.2095, 1796.114
108.6917, 1801.672
109.1738, 1805.354
109.6559, 1805.232
110.1380, 1804.055
110.6201, 1805.722
111.1022, 1811.987
111.5844, 1819.756
112.0665, 1817.150
112.5486, 1791.590
113.0307, 1770.521
113.5128, 1761.805
113.9949, 1762.113
114.4771, 1764.008
114.9592, 1763.980
115.4413, 1760.986
115.9234, 1751.783
116.4055, 1731.141
116.8876, 1708.380
117.3698, 1690.899
117.8519, 1679.324
118.3340, 1668.810
118.8161, 1654.181
119.2982, 1637.120
119.7803, 1622.786
120.2624, 1615.639
120.7446, 1612.267
121.2267, 1603.832
121.7088, 1585.893
122.1909, 1568.442
122.6730, 1558.775
123.1551, 1555.844
123.6373, 1554.517
124.1194, 1551.661
124.6015, 1547.324
125.0836, 1540.909
125.5657, 1526.701
126.0478, 1514.182
126.5300, 1508.877
127.0121, 1511.500
127.4942, 1518.060
127.9763, 1522.947
128.4584, 1525.971
128.9406, 1527.355
129.4227, 1525.557
129.9048, 1523.201
130.3869, 1523.036
130.8690, 1526.270
131.3511, 1531.390
131.8333, 1533.006
132.3154, 1524.259
132.7975, 1519.328
133.2796, 1524.084
133.7617, 1533.543
134.2438, 1539.082
134.7260, 1534.755
135.2081, 1521.185
135.6902, 1510.910
136.1723, 1500.799
136.6544, 1495.801
137.1365, 1501.205
137.6187, 1515.814
138.1008, 1531.072
138.5829, 1540.359
139.0650, 1543.258
139.5471, 1543.829
140.0292, 1538.056
140.5114, 1531.936
140.9935, 1533.674
141.4756, 1545.907
141.9577, 1559.072
142.4398, 1560.660
142.9219, 1553.355
143.4041, 1550.393
143.8862, 1562.571
144.3683, 1584.308
144.8504, 1596.106
145.3325, 1588.743
145.8146, 1577.460
146.2968, 1575.327
146.7789, 1582.030
147.2610, 1589.553
147.7431, 1588.812
148.2252, 1578.322
148.7073, 1575.219
149.1895, 1589.763
149.6716, 1608.588
150.1537, 1627.180
150.6358, 1644.185
151.1179, 1656.686
151.6000, 1658.945
152.0821, 1645.255
152.5643, 1633.204
153.0464, 1617.937
153.5285, 1608.077
154.0106, 1614.914
154.4927, 1643.491
154.9748, 1683.800
155.4570, 1704.824
155.9391, 1681.194
156.4212, 1665.916
156.9033, 1668.449
157.3854, 1681.651
157.8675, 1695.702
158.3497, 1704.791
158.8318, 1709.429
159.3139, 1714.776
159.7960, 1722.694
160.2781, 1729.368
160.7602, 1730.874
161.2424, 1729.531
161.7245, 1732.767
162.2066, 1748.263
162.6887, 1776.250
163.1708, 1788.544
163.6529, 1773.575
164.1351, 1753.682
164.6172, 1740.885
165.0993, 1736.461
165.5814, 1739.995
166.0635, 1754.068
166.5456, 1778.551
167.0278, 1798.782
167.5099, 1811.016
167.9920, 1819.085
168.4741, 1828.552
168.9562, 1841.110
169.4383, 1851.385
169.9205, 1851.230
170.4026, 1842.690
170.8847, 1835.536
171.3668, 1833.565
171.8489, 1835.862
172.3310, 1839.200
172.8132, 1840.932
173.2953, 1847.355
173.7774, 1865.907
174.2595, 1895.575
174.7416, 1923.288
175.2237, 1940.031
175.7059, 1946.076
176.1880, 1948.217
176.6701, 1942.525
177.1522, 1937.170
177.6343, 1937.257
178.1164, 1943.260
178.5986, 1952.522
179.0807, 1962.645
179.5628, 1974.001
180.0449, 1984.823
180.5270, 1999.340
181.0091, 2010.467
181.4913, 2011.857
181.9734, 2002.066
182.4555, 1987.223
182.9376, 1976.261
183.4197, 1965.519
183.9018, 1967.529
184.3840, 1993.417
184.8661, 2025.059
185.3482, 2047.307
185.8303, 2054.025
186.3124, 2049.385
186.7945, 2043.930
187.2767, 2032.026
187.7588, 2027.078
188.2409, 2032.209
188.7230, 2043.897
189.2051, 2059.415
189.6872, 2077.850
190.1694, 2097.299
190.6515, 2109.097
191.1336, 2104.525
191.6157, 2101.950
192.0978, 2106.871
192.5799, 2115.798
193.0621, 2121.784
193.5442, 2120.062
194.0263, 2111.987
194.5084, 2111.410
194.9905, 2123.289
195.4726, 2135.632
195.9548, 2144.844
196.4369, 2151.037
196.9190, 2155.083
197.4011, 2157.209
197.8832, 2157.550
198.3653, 2158.631
198.8475, 2158.181
199.3296, 2160.208
199.8117, 2169.188
200.2938, 2184.365
200.7759, 2198.238
201.2580, 2204.200
201.7402, 2203.212
202.2223, 2206.498
202.7044, 2220.647
203.1865, 2235.331
203.6686, 2239.059
204.1507, 2230.674
204.6329, 2222.794
205.1150, 2225.548
205.5971, 2237.173
206.0792, 2251.881
206.5613, 2273.862
207.0434, 2296.295
207.5256, 2308.383
208.0077, 2307.291
208.4898, 2304.459
208.9719, 2310.278
209.4540, 2321.488
209.9361, 2330.746
210.4183, 2332.256
210.9004, 2330.318
211.3825, 2334.842
211.8646, 2348.339
212.3467, 2364.304
212.8288, 2380.192
213.3110, 2395.166
213.7931, 2406.708
214.2752, 2410.751
214.7573, 2409.536
215.2394, 2412.331
215.7215, 2420.180
216.2037, 2431.500
216.6858, 2449.491
217.1679, 2470.699
217.6500, 2485.174
218.1321, 2479.383
218.6142, 2455.929
219.0964, 2448.732
219.5785, 2470.625
220.0606, 2496.720
220.5427, 2521.244
221.0248, 2541.263
221.5069, 2550.402
221.9891, 2535.329
222.4712, 2493.960
222.9533, 2475.626
223.4354, 2503.396
223.9175, 2535.835
224.3996, 2560.057
224.8818, 2575.200
225.3639, 2584.493
225.8460, 2588.846
226.3281, 2586.618
226.8102, 2590.768
227.2923, 2607.441
227.7745, 2625.480
228.2566, 2640.865
228.7387, 2653.365
229.2208, 2664.803
229.7029, 2677.137
230.1850, 2691.082
230.6672, 2702.768
231.1493, 2715.046
231.6314, 2723.019
232.1135, 2717.560
232.5956, 2702.510
233.0777, 2693.573
233.5599, 2709.979
234.0420, 2761.365
234.5241, 2803.584
235.0062, 2841.039
235.4883, 2867.995
235.9704, 2877.333
236.4526, 2870.776
236.9347, 2857.558
237.4168, 2847.555
237.8989, 2840.045
238.3810, 2839.017
238.8631, 2851.184
239.3453, 2863.385
239.8274, 2862.703
240.3095, 2850.616
240.7916, 2843.076
241.2737, 2860.315
241.7558, 2915.339
242.2380, 2955.398
242.7201, 2975.631
243.2022, 2986.895
243.6843, 2995.031
244.1664, 3001.231
244.6485, 3004.378
245.1307, 3002.369
245.6128, 2991.471
246.0949, 2988.211
246.5770, 2997.158
247.0591, 3009.715
247.5412, 3019.212
248.0234, 3025.076
248.5055, 3031.731
248.9876, 3044.258
249.4697, 3064.427
249.9518, 3085.697
250.4339, 3116.732
250.9161, 3143.037
251.3982, 3148.072
251.8803, 3131.812
252.3624, 3114.722
252.8445, 3119.817
253.3266, 3154.058
253.8088, 3186.985
254.2909, 3221.205
254.7730, 3252.322
255.2551, 3274.786
255.7372, 3288.428
256.2193, 3300.799
256.7014, 3320.023
257.1836, 3348.132
257.6657, 3373.330
258.1478, 3396.866
258.6299, 3416.613
259.1120, 3429.642
259.5941, 3435.924
260.0763, 3439.344
260.5584, 3441.972
261.0405, 3443.306
261.5226, 3454.194
262.0047, 3484.283
262.4868, 3517.724
262.9690, 3541.217
263.4511, 3553.637
263.9332, 3562.181
264.4153, 3570.607
264.8974, 3579.334
265.3795, 3600.740
265.8617, 3650.014
266.3438, 3702.227
266.8259, 3736.917
267.3080, 3752.760
267.7901, 3759.547
268.2722, 3762.364
268.7544, 3761.718
269.2365, 3767.947
269.7186, 3789.396
270.2007, 3812.129
270.6828, 3822.385
271.1649, 3820.341
271.6471, 3820.821
272.1292, 3837.306
272.6113, 3868.049
273.0934, 3889.210
273.5755, 3887.479
274.0576, 3885.736
274.5398, 3905.245
275.0219, 3944.656
275.5040, 3982.395
275.9861, 4005.128
276.4682, 4012.383
276.9503, 4012.850
277.4325, 3998.696
277.9146, 3984.064
278.3967, 3975.192
278.8788, 3972.841
279.3609, 3984.034
279.8430, 4021.758
280.3252, 4074.857
280.8073, 4099.423
281.2894, 4067.258
281.7715, 4032.953
282.2536, 4032.350
282.7357, 4060.978
283.2179, 4095.467
283.7000, 4130.339
284.1821, 4158.104
284.6642, 4159.964
285.1463, 4110.755
285.6284, 4068.224
286.1106, 4071.616
286.5927, 4111.290
287.0748, 4149.086
287.5569, 4169.144
288.0390, 4175.048
288.5211, 4176.962
289.0033, 4171.028
289.4854, 4168.244
289.9675, 4176.082
290.4496, 4191.646
290.9317, 4205.349
291.4138, 4212.146
291.8960, 4217.059
292.3781, 4229.796
292.8602, 4250.264
293.3423, 4276.600
293.8244, 4317.248
294.3065, 4363.212
294.7887, 4391.048
295.2708, 4388.992
295.7529, 4374.606
296.2350, 4377.625
296.7171, 4397.887
297.1992, 4426.437
297.6814, 4469.568
298.1635, 4517.500
298.6456, 4550.444
299.1277, 4560.642
299.6098, 4564.208
300.0919, 4584.971
300.5741, 4623.468
301.0562, 4662.968
301.5383, 4699.435
302.0204, 4734.705
302.5025, 4774.149
302.9846, 4819.943
303.4668, 4859.237
303.9489, 4870.865
304.4310, 4852.344
304.9131, 4852.410
305.3952, 4889.098
305.8773, 4941.149
306.3595, 4988.406
306.8416, 5028.433
307.3237, 5065.157
307.8058, 5101.433
308.2879, 5137.333
308.7701, 5174.666
309.2522, 5213.490
309.7343, 5253.806
310.2164, 5295.924
310.6985, 5339.615
311.1806, 5384.564
311.6628, 5431.960
312.1449, 5480.820
312.6270, 5523.952
313.1091, 5555.989
313.5912, 5587.066
314.0733, 5620.301
314.5555, 5656.710
315.0376, 5700.584
315.5197, 5755.813
316.0018, 5820.273
316.4839, 5880.934
316.9660, 5933.924
317.4482, 5988.024
317.9303, 6053.190
318.4124, 6122.398
318.8945, 6176.386
319.3766, 6202.145
319.8587, 6212.396
320.3409, 6250.011
320.8230, 6333.040
321.3051, 6413.898
321.7872, 6480.977
322.2693, 6540.310
322.7514, 6602.961
323.2336, 6673.883
323.7157, 6744.085
324.1978, 6794.749
324.6799, 6806.638
325.1620, 6832.826
325.6441, 6878.213
326.1263, 6938.813
326.6084, 7017.830
327.0905, 7114.539
327.5726, 7210.915
328.0547, 7281.292
328.5368, 7306.740
329.0190, 7352.455
329.5011, 7434.059
329.9832, 7523.521
330.4653, 7601.219
330.9474, 7664.975
331.4295, 7724.037
331.9117, 7786.148
332.3938, 7848.890
332.8759, 7930.843
333.3580, 8050.435
333.8401, 8168.511
334.3222, 8266.988
334.8044, 8346.838
335.2865, 8417.646
335.7686, 8485.698
336.2507, 8551.082
336.7328, 8619.943
337.2149, 8692.538
337.6971, 8767.822
338.1792, 8845.784
338.6613, 8926.606
339.1434, 9012.400
339.6255, 9105.979
340.1076, 9202.190
340.5898, 9279.039
341.0719, 9312.275
341.5540, 9355.886
342.0361, 9424.572
342.5182, 9502.455
343.0003, 9574.069
343.4825, 9633.213
343.9646, 9680.753
344.4467, 9717.396
344.9288, 9735.563
345.4109, 9757.041
345.8930, 9779.812
346.3752, 9807.935
346.8573, 9847.287
347.3394, 9897.598
347.8215, 9950.648
348.3036, 10000.03
348.7857, 10051.62
349.2679, 10076.21
349.7500, 10044.03
350.2321, 10008.77
350.7142, 9997.410
351.1963, 10007.14
351.6784, 10017.55
352.1606, 10011.47
352.6427, 9989.347
353.1248, 9964.883
353.6069, 9942.752
354.0890, 9911.786
354.5711, 9868.076
355.0533, 9813.031
355.5354, 9747.838
356.0175, 9667.652
356.4996, 9581.563
356.9817, 9520.059
357.4638, 9497.473
357.9460, 9466.273
358.4281, 9391.799
358.9102, 9304.680
359.3923, 9243.943
359.8744, 9229.600
360.3565, 9226.401
360.8387, 9181.822
361.3208, 9090.031
361.8029, 9008.047
362.2850, 8961.621
362.7671, 8928.749
363.2492, 8888.988
363.7314, 8839.723
364.2135, 8788.679
364.6956, 8746.396
365.1777, 8709.354
365.6598, 8651.996
366.1419, 8552.450
366.6241, 8456.506
367.1062, 8424.381
367.5883, 8450.468
368.0704, 8454.884
368.5525, 8387.705
369.0346, 8283.182
369.5168, 8197.173
369.9989, 8136.122
370.4810, 8091.139
370.9631, 8060.117
371.4452, 8040.560
371.9273, 8018.089
372.4095, 7984.861
372.8916, 7952.441
373.3737, 7937.194
373.8558, 7935.854
374.3379, 7919.711
374.8200, 7865.362
375.3022, 7784.875
375.7843, 7730.864
376.2664, 7725.118
376.7485, 7717.233
377.2306, 7683.259
377.7127, 7634.871
378.1949, 7596.126
378.6770, 7577.372
379.1591, 7568.470
379.6412, 7548.665
380.1233, 7510.440
380.6054, 7474.987
381.0876, 7444.655
381.5697, 7417.025
382.0518, 7391.133
382.5339, 7366.339
383.0160, 7340.583
383.4981, 7310.556
383.9803, 7272.593
384.4624, 7246.822
384.9445, 7243.709
385.4266, 7240.862
385.9087, 7230.075
386.3908, 7210.213
386.8730, 7179.882
387.3551, 7135.241
387.8372, 7079.467
388.3193, 7048.026
388.8014, 7070.581
389.2835, 7084.766
389.7657, 7070.650
390.2478, 7045.427
390.7299, 7032.693
391.2120, 7042.987
391.6941, 7064.403
392.1762, 7072.653
392.6584, 7063.218
393.1405, 7051.035
393.6226, 7028.099
394.1047, 7010.151
394.5868, 7015.241
395.0689, 7043.213
395.5511, 7067.491
396.0332, 7053.185
396.5153, 6999.924
396.9974, 6970.796
397.4795, 6985.210
397.9616, 7007.035
398.4438, 7014.778
398.9259, 7012.462
399.4080, 7012.646
399.8901, 7021.848
400.3722, 7038.083
400.8543, 7057.554
401.3365, 7080.783
401.8186, 7105.624
402.3007, 7139.898
402.7828, 7172.389
403.2649, 7183.378
403.7470, 7160.779
404.2292, 7130.525
404.7113, 7111.689
405.1934, 7103.253
405.6755, 7100.918
406.1576, 7105.544
406.6397, 7112.502
407.1219, 7112.480
407.6040, 7102.788
408.0861, 7099.612
408.5682, 7114.930
409.0503, 7136.895
409.5324, 7149.486
410.0146, 7149.794
410.4967, 7143.211
410.9788, 7133.216
411.4609, 7118.914
411.9430, 7112.307
412.4251, 7112.490
412.9073, 7120.686
413.3894, 7145.354
413.8715, 7179.748
414.3536, 7205.176
414.8357, 7209.654
415.3178, 7197.150
415.8000, 7186.201
416.2821, 7171.071
416.7642, 7164.854
417.2463, 7173.979
417.7284, 7190.363
418.2105, 7205.176
418.6927, 7215.840
419.1748, 7226.470
419.6569, 7245.564
420.1390, 7281.711
420.6211, 7302.100
421.1032, 7289.905
421.5854, 7277.542
422.0675, 7282.733
422.5496, 7302.783
423.0317, 7323.008
423.5138, 7330.583
423.9959, 7328.487
424.4781, 7335.481
424.9602, 7352.181
425.4423, 7377.645
425.9244, 7427.382
426.4065, 7479.243
426.8886, 7502.548
427.3708, 7482.140
427.8529, 7442.692
428.3350, 7406.995
428.8171, 7374.646
429.2992, 7365.805
429.7813, 7398.215
430.2635, 7446.364
430.7456, 7481.405
431.2277, 7502.958
431.7098, 7520.118
432.1919, 7540.528
432.6740, 7558.625
433.1562, 7560.926
433.6383, 7543.871
434.1204, 7525.845
434.6025, 7521.734
435.0846, 7531.408
435.5667, 7543.763
436.0489, 7564.632
436.5310, 7582.375
437.0131, 7588.721
437.4952, 7586.154
437.9773, 7581.703
438.4594, 7578.359
438.9416, 7576.541
439.4237, 7577.506
439.9058, 7585.611
440.3879, 7590.379
440.8700, 7592.290
441.3521, 7590.106
441.8343, 7578.139
442.3164, 7557.776
442.7985, 7541.846
443.2806, 7546.497
443.7627, 7575.885
444.2448, 7596.066
444.7270, 7606.776
445.2091, 7608.173
445.6912, 7594.567
446.1733, 7572.069
446.6554, 7552.001
447.1375, 7541.412
447.6197, 7534.413
448.1018, 7513.874
448.5839, 7472.347
449.0660, 7438.240
449.5481, 7424.155
450.0302, 7417.089
450.5124, 7406.870
450.9945, 7392.017
451.4766, 7380.247
451.9587, 7383.642
452.4408, 7397.058
452.9229, 7394.143
453.4051, 7365.715
453.8872, 7334.311
454.3693, 7326.289
454.8514, 7332.051
455.3335, 7321.352
455.8156, 7264.838
456.2978, 7206.179
456.7799, 7192.374
457.2620, 7215.435
457.7441, 7227.851
458.2262, 7204.541
458.7083, 7159.299
459.1904, 7128.829
459.6725, 7117.697
460.1547, 7109.667
460.6368, 7099.730
461.1189, 7092.651
461.6010, 7099.690
462.0831, 7120.190
462.5652, 7133.642
463.0474, 7116.369
463.5295, 7063.357
464.0116, 7023.497
464.4937, 7005.478
464.9758, 6990.704
465.4579, 6972.734
465.9401, 6954.208
466.4222, 6941.545
466.9043, 6938.804
467.3864, 6938.982
467.8685, 6924.389
468.3506, 6887.156
468.8328, 6857.480
469.3149, 6852.718
469.7970, 6848.390
470.2791, 6825.423
470.7612, 6784.184
471.2433, 6744.196
471.7255, 6723.060
472.2076, 6715.356
472.6897, 6700.273
473.1718, 6674.011
473.6539, 6649.229
474.1360, 6639.483
474.6182, 6636.438
475.1003, 6621.976
475.5824, 6587.332
476.0645, 6548.501
476.5466, 6512.993
477.0287, 6481.823
477.5109, 6458.508
477.9930, 6444.816
478.4751, 6438.133
478.9572, 6437.308
479.4393, 6449.969
479.9214, 6442.575
480.4036, 6393.548
480.8857, 6339.516
481.3678, 6308.519
481.8499, 6298.208
482.3320, 6290.147
482.8141, 6272.080
483.2963, 6243.864
483.7784, 6203.921
484.2605, 6133.630
484.7426, 6076.503
485.2247, 6040.984
485.7068, 6019.179
486.1890, 6006.707
486.6711, 6001.411
487.1532, 5996.397
487.6353, 5983.673
488.1174, 5962.987
488.5995, 5939.852
489.0817, 5911.922
489.5638, 5885.082
490.0459, 5862.702
490.5280, 5843.645
491.0101, 5824.907
491.4922, 5806.115
491.9744, 5786.567
492.4565, 5765.530
492.9386, 5742.947
493.4207, 5717.901
493.9028, 5688.030
494.3849, 5657.913
494.8671, 5636.818
495.3492, 5626.555
495.8313, 5614.404
496.3134, 5596.669
496.7955, 5576.049
497.2776, 5555.483
497.7598, 5535.079
498.2419, 5512.958
498.7240, 5487.956
499.2061, 5460.039
499.6882, 5427.297
500.1703, 5376.020
500.6525, 5336.667
501.1346, 5327.884
501.6167, 5327.449
502.0988, 5304.395
502.5809, 5251.621
503.0630, 5197.969
503.5452, 5188.960
504.0273, 5235.123
504.5094, 5249.295
504.9915, 5206.998
505.4736, 5156.949
505.9557, 5121.291
506.4379, 5096.009
506.9200, 5070.647
507.4021, 5040.106
507.8842, 5008.252
508.3663, 4980.055
508.8484, 4955.567
509.3306, 4933.741
509.8127, 4914.354
510.2948, 4897.370
510.7769, 4882.694
511.2590, 4870.141
511.7411, 4859.784
512.2233, 4857.947
512.7054, 4854.325
513.1875, 4837.368
513.6696, 4807.422
514.1517, 4773.396
514.6339, 4741.250
515.1160, 4710.468
515.5981, 4678.629
516.0802, 4634.449
516.5623, 4603.375
517.0444, 4596.858
517.5266, 4599.333
518.0087, 4596.536
518.4908, 4585.245
518.9729, 4570.567
519.4550, 4560.146
519.9371, 4554.398
520.4193, 4534.869
520.9014, 4491.583
521.3835, 4449.269
521.8656, 4418.262
522.3477, 4395.294
522.8298, 4375.849
523.3120, 4359.062
523.7941, 4343.991
524.2762, 4330.408
524.7583, 4318.004
525.2404, 4304.586
525.7225, 4289.254
526.2047, 4273.839
526.6868, 4261.022
527.1689, 4250.979
527.6510, 4239.242
528.1331, 4224.506
528.6152, 4208.689
529.0974, 4191.249
529.5795, 4173.636
530.0616, 4160.331
530.5437, 4154.066
531.0258, 4150.506
531.5079, 4138.069
531.9901, 4105.383
532.4722, 4084.892
532.9543, 4090.489
533.4364, 4095.733
533.9185, 4079.961
534.4006, 4047.430
534.8828, 4019.362
535.3649, 4013.837
535.8470, 4022.258
536.3291, 4017.344
536.8112, 3996.342
537.2933, 3972.397
537.7755, 3948.717
538.2576, 3925.562
538.7397, 3901.222
539.2218, 3874.137
539.7039, 3856.324
540.1860, 3864.322
540.6682, 3881.301
541.1503, 3879.340
541.6324, 3855.631
542.1145, 3826.609
542.5966, 3802.644
543.0787, 3783.951
543.5609, 3773.020
544.0430, 3777.982
544.5251, 3779.433
545.0072, 3771.914
545.4893, 3759.957
545.9714, 3748.311
546.4536, 3738.141
546.9357, 3727.664
547.4178, 3714.391
547.8999, 3698.134
548.3820, 3685.050
548.8641, 3678.261
549.3463, 3670.163
549.8284, 3659.152
550.3105, 3644.938
550.7926, 3625.077
551.2747, 3596.630
551.7568, 3571.755
552.2390, 3562.756
552.7211, 3566.974
553.2032, 3576.594
553.6853, 3592.784
554.1674, 3603.803
554.6495, 3595.594
555.1317, 3568.376
555.6138, 3549.871
556.0959, 3546.845
556.5780, 3545.922
557.0601, 3546.311
557.5422, 3543.280
558.0244, 3527.034
558.5065, 3494.481
558.9886, 3455.326
559.4707, 3423.853
559.9528, 3400.811
560.4349, 3382.750
560.9171, 3366.902
561.3992, 3359.533
561.8813, 3370.836
562.3634, 3390.929
562.8455, 3402.108
563.3276, 3395.813
563.8098, 3380.623
564.2919, 3366.497
564.7740, 3353.418
565.2561, 3340.614
565.7382, 3326.455
566.2203, 3314.966
566.7025, 3313.486
567.1846, 3320.651
567.6667, 3322.262
568.1488, 3310.958
568.6309, 3298.325
569.1130, 3292.523
569.5952, 3291.321
570.0773, 3289.060
570.5594, 3283.431
571.0415, 3275.284
571.5236, 3266.320
572.0057, 3257.113
572.4879, 3245.325
572.9700, 3226.964
573.4521, 3210.134
573.9342, 3196.630
574.4163, 3187.562
574.8984, 3186.021
575.3806, 3196.147
575.8627, 3207.406
576.3448, 3200.838
576.8269, 3176.323
577.3090, 3154.955
577.7911, 3140.396
578.2733, 3132.435
578.7554, 3133.921
579.2375, 3143.595
579.7196, 3150.455
580.2017, 3152.839
580.6838, 3151.412
581.1660, 3143.659
581.6481, 3132.533
582.1302, 3126.420
582.6123, 3129.093
583.0944, 3133.542
