##NAMES=Turquoise
##RRUFFID=R050554
##IDEAL CHEMISTRY=Cu^2+^Al_6_(P^5+^O_4_)_4_(OH)_8_&#183;4H_2_O
##LOCALITY=Bishop mine, Lynch Station, Campbell County, Virginia, USA
##OWNER=RRUFF
##SOURCE=Dave Bunk Minerals
##DESCRIPTION=Group of blue bladed crystals
##STATUS=The identification of this mineral has been confirmed by X-ray diffraction and chemical analysis
##URL=rruff.info/R050554
##MEASURED CHEMISTRY=(Cu_0.97_Zn_0.02_Ca_0.01_)_Σ=1_Al_6.00_(P_1.00_O_4_)_4_(OH)_8_·4H_2_O
92.37695, 502.7582
92.85907, 496.5189
93.34119, 497.9195
93.82330, 502.8489
94.30542, 506.4937
94.78754, 508.0970
95.26965, 508.6362
95.75177, 508.5002
96.23389, 508.4228
96.71600, 507.7098
97.19812, 506.1385
97.68024, 503.8054
98.16235, 500.8448
98.64447, 497.2306
99.12659, 492.6631
99.60870, 487.1968
100.0908, 482.6629
100.5729, 478.5138
101.0551, 474.0377
101.5372, 468.7811
102.0193, 462.8087
102.5014, 456.8316
102.9835, 450.1263
103.4656, 443.9626
103.9478, 439.5532
104.4299, 435.8073
104.9120, 430.7061
105.3941, 422.5244
105.8762, 410.7849
106.3583, 399.8851
106.8405, 390.0359
107.3226, 380.5025
107.8047, 370.4925
108.2868, 360.0531
108.7689, 350.2996
109.2510, 342.7267
109.7332, 337.4519
110.2153, 332.6477
110.6974, 328.2906
111.1795, 324.2253
111.6616, 319.9284
112.1437, 314.8761
112.6259, 310.6266
113.1080, 309.0977
113.5901, 310.0654
114.0722, 311.4154
114.5543, 311.7939
115.0364, 311.2607
115.5185, 311.0321
116.0007, 311.2733
116.4828, 312.0105
116.9649, 313.4832
117.4470, 315.6922
117.9291, 318.0464
118.4112, 319.6031
118.8934, 319.6549
119.3755, 320.6640
119.8576, 323.5995
120.3397, 327.0701
120.8218, 330.0692
121.3039, 332.1827
121.7861, 333.5895
122.2682, 334.8239
122.7503, 336.0972
123.2324, 336.8905
123.7145, 336.9177
124.1966, 336.4759
124.6788, 336.0781
125.1609, 336.0821
125.6430, 336.3264
126.1251, 335.3855
126.6072, 332.9539
127.0893, 329.9872
127.5715, 326.5735
128.0536, 322.8316
128.5357, 319.2454
129.0178, 316.0534
129.4999, 313.3567
129.9821, 311.2303
130.4642, 309.7688
130.9463, 308.8160
131.4284, 308.3115
131.9105, 308.3282
132.3926, 308.4510
132.8748, 308.4425
133.3569, 308.3183
133.8390, 308.0669
134.3211, 307.3011
134.8032, 306.3456
135.2853, 306.4066
135.7674, 308.1563
136.2496, 310.0902
136.7317, 311.5519
137.2138, 312.5867
137.6959, 313.3570
138.1780, 314.1496
138.6601, 315.0611
139.1423, 314.9673
139.6244, 313.4035
140.1065, 311.1724
140.5886, 308.2133
141.0707, 304.7260
141.5528, 301.1631
142.0350, 298.0520
142.5171, 295.4763
142.9992, 293.2088
143.4813, 291.1364
143.9634, 289.3791
144.4455, 288.1636
144.9277, 287.5006
145.4098, 286.9680
145.8919, 285.8009
146.3740, 282.9165
146.8561, 281.5073
147.3382, 282.8921
147.8204, 285.4383
148.3025, 287.1501
148.7846, 287.2946
149.2667, 286.4569
149.7488, 285.6656
150.2309, 284.7811
150.7131, 284.2541
151.1952, 284.4920
151.6773, 285.2727
152.1594, 285.8715
152.6415, 285.9346
153.1236, 285.7601
153.6058, 286.0213
154.0879, 287.0254
154.5700, 287.5244
155.0521, 286.1814
155.5342, 282.9164
156.0163, 279.7754
156.4985, 277.3032
156.9806, 275.4540
157.4627, 274.5211
157.9448, 274.7579
158.4269, 275.1344
158.9090, 273.8339
159.3912, 269.8597
159.8733, 266.7413
160.3554, 265.5431
160.8375, 265.3619
161.3196, 265.5923
161.8017, 266.0133
162.2839, 266.4624
162.7660, 266.4247
163.2481, 265.3561
163.7302, 264.5069
164.2123, 263.7208
164.6944, 263.3277
165.1766, 263.7954
165.6587, 265.4271
166.1408, 268.0372
166.6229, 270.4587
167.1050, 272.2689
167.5871, 274.3536
168.0693, 277.0316
168.5514, 280.1276
169.0335, 283.2350
169.5156, 286.0161
169.9977, 288.5728
170.4798, 292.0387
170.9620, 296.9359
171.4441, 302.0302
171.9262, 306.9188
172.4083, 311.5542
172.8904, 315.9094
173.3725, 319.8643
173.8547, 323.4466
174.3368, 327.2210
174.8189, 332.0367
175.3010, 336.4882
175.7831, 339.5410
176.2652, 341.1620
176.7474, 341.5528
177.2295, 340.6970
177.7116, 338.6481
178.1937, 335.4502
178.6758, 330.1111
179.1579, 323.9695
179.6401, 318.8681
180.1222, 314.8964
180.6043, 311.8234
181.0864, 309.6569
181.5685, 308.2058
182.0506, 307.2893
182.5328, 306.7527
183.0149, 306.6946
183.4970, 307.4369
183.9791, 309.0738
184.4612, 311.5027
184.9433, 315.2602
185.4255, 319.5947
185.9076, 323.1900
186.3897, 324.9285
186.8718, 325.0345
187.3539, 325.9273
187.8360, 328.0247
188.3182, 330.5859
188.8003, 333.4478
189.2824, 336.5942
189.7645, 340.1566
190.2466, 344.4306
190.7287, 349.5316
191.2109, 352.8603
191.6930, 351.9575
192.1751, 351.6760
192.6572, 354.0880
193.1393, 358.5783
193.6214, 363.2531
194.1036, 366.4422
194.5857, 367.9935
195.0678, 369.2876
195.5499, 370.3766
196.0320, 371.2374
196.5141, 371.7880
196.9963, 372.0708
197.4784, 372.2303
197.9605, 372.3687
198.4426, 372.4701
198.9247, 372.7708
199.4068, 373.1270
199.8890, 373.7607
200.3711, 375.0402
200.8532, 376.9224
201.3353, 378.6830
201.8174, 379.4738
202.2995, 379.2422
202.7817, 379.9275
203.2638, 381.9605
203.7459, 384.7352
204.2280, 388.0620
204.7101, 391.9876
205.1922, 395.4139
205.6744, 396.8216
206.1565, 396.6901
206.6386, 397.3053
207.1207, 400.1678
207.6028, 403.6245
208.0849, 405.4521
208.5671, 405.3917
209.0492, 404.1260
209.5313, 401.6542
210.0134, 398.3795
210.4955, 395.0635
210.9776, 391.9080
211.4598, 388.9000
211.9419, 385.9890
212.4240, 383.1788
212.9061, 380.4989
213.3882, 377.9562
213.8703, 375.5365
214.3525, 373.2299
214.8346, 371.1133
215.3167, 369.1059
215.7988, 366.9140
216.2809, 364.2940
216.7630, 361.8674
217.2451, 360.0922
217.7273, 358.6461
218.2094, 356.9906
218.6915, 354.8643
219.1736, 352.2597
219.6557, 349.0819
220.1378, 344.6568
220.6200, 340.4884
221.1021, 337.0465
221.5842, 334.1595
222.0663, 331.4345
222.5484, 328.5337
223.0305, 325.5798
223.5127, 323.7760
223.9948, 324.5627
224.4769, 325.0805
224.9590, 324.4936
225.4411, 323.2442
225.9232, 322.0841
226.4054, 321.4720
226.8875, 321.4109
227.3696, 321.9488
227.8517, 324.1885
228.3338, 325.8818
228.8159, 326.4132
229.2981, 326.0598
229.7802, 325.3790
230.2623, 324.7447
230.7444, 324.0996
231.2265, 322.7828
231.7086, 320.5596
232.1908, 317.9930
232.6729, 315.2353
233.1550, 312.2240
233.6371, 308.7019
234.1192, 304.4252
234.6013, 299.5779
235.0835, 295.5991
235.5656, 292.5322
236.0477, 290.0467
236.5298, 288.1569
237.0119, 286.7834
237.4940, 285.7435
237.9762, 284.9294
238.4583, 284.3878
238.9404, 284.3523
239.4225, 285.2453
239.9046, 286.0663
240.3867, 286.6095
240.8689, 286.8365
241.3510, 286.6038
241.8331, 285.7657
242.3152, 284.4876
242.7973, 283.2342
243.2794, 281.7129
243.7616, 280.6458
244.2437, 280.9219
244.7258, 282.0107
245.2079, 282.2208
245.6900, 280.6159
246.1721, 278.0018
246.6543, 275.9711
247.1364, 274.5021
247.6185, 273.5552
248.1006, 273.2793
248.5827, 273.5527
249.0648, 273.9372
249.5470, 274.2903
250.0291, 274.7026
250.5112, 275.2904
250.9933, 276.0635
251.4754, 276.9173
251.9576, 277.7276
252.4397, 278.5478
252.9218, 279.6541
253.4039, 281.1850
253.8860, 282.9553
254.3681, 284.7409
254.8503, 286.5433
255.3324, 288.3661
255.8145, 290.2686
256.2966, 292.2111
256.7787, 294.0404
257.2608, 295.9370
257.7430, 297.3859
258.2251, 298.1251
258.7072, 298.1718
259.1893, 297.6251
259.6714, 296.3623
260.1535, 294.4928
260.6357, 292.6901
261.1178, 291.5560
261.5999, 289.6857
262.0820, 285.7464
262.5641, 280.3499
263.0462, 275.3795
263.5284, 272.4283
264.0105, 271.1024
264.4926, 268.9135
264.9747, 265.3125
265.4568, 261.6054
265.9389, 258.2614
266.4211, 255.2880
266.9032, 252.7284
267.3853, 250.7324
267.8674, 249.1620
268.3495, 247.3937
268.8316, 245.3248
269.3138, 243.1891
269.7959, 240.8047
270.2780, 238.4684
270.7601, 236.6886
271.2422, 235.8747
271.7243, 235.6575
272.2065, 234.7628
272.6886, 232.6647
273.1707, 230.7745
273.6528, 229.3134
274.1349, 228.2846
274.6170, 227.9363
275.0992, 228.4938
275.5813, 229.2618
276.0634, 228.3553
276.5455, 224.5919
277.0276, 221.3313
277.5097, 219.0318
277.9919, 217.4911
278.4740, 216.7087
278.9561, 216.6698
279.4382, 216.9280
279.9203, 216.5726
280.4024, 215.1161
280.8846, 214.0924
281.3667, 214.1379
281.8488, 214.2967
282.3309, 213.6285
282.8130, 211.9925
283.2951, 210.2750
283.7773, 209.8920
284.2594, 211.5293
284.7415, 212.8255
285.2236, 213.9181
285.7057, 214.5668
286.1878, 214.4963
286.6700, 213.7476
287.1521, 212.6571
287.6342, 211.4488
288.1163, 209.8269
288.5984, 209.3497
289.0805, 210.6808
289.5627, 212.4513
290.0448, 214.4838
290.5269, 216.4924
291.0090, 217.8721
291.4911, 217.9075
291.9732, 216.4144
292.4554, 215.9351
292.9375, 217.2289
293.4196, 218.7588
293.9017, 220.2471
294.3838, 221.5856
294.8659, 222.6781
295.3481, 223.4424
295.8302, 223.8999
296.3123, 224.2966
296.7944, 224.0751
297.2765, 224.4090
297.7586, 226.0434
298.2408, 228.2829
298.7229, 230.0096
299.2050, 230.5701
299.6871, 230.3497
300.1692, 230.8366
300.6513, 232.9706
301.1335, 234.7083
301.6156, 235.6915
302.0977, 236.2635
302.5798, 236.7682
303.0619, 237.3445
303.5440, 237.9737
304.0262, 238.6017
304.5083, 238.8713
304.9904, 239.7322
305.4725, 241.4596
305.9546, 243.5615
306.4367, 245.7307
306.9189, 247.8570
307.4010, 249.9292
307.8831, 251.9618
308.3652, 254.1073
308.8473, 255.7514
309.3294, 256.1586
309.8116, 256.7398
310.2937, 258.4484
310.7758, 261.2565
311.2579, 264.4775
311.7400, 267.4348
312.2221, 270.1238
312.7043, 272.7292
313.1864, 275.2347
313.6685, 277.6987
314.1506, 280.0785
314.6327, 282.4387
315.1148, 284.9765
315.5970, 287.8835
316.0791, 291.0912
316.5612, 293.6267
317.0433, 294.9925
317.5254, 296.2575
318.0075, 297.0917
318.4897, 298.0732
318.9718, 300.4248
319.4539, 304.8642
319.9360, 310.2510
320.4181, 312.9113
320.9002, 309.6190
321.3824, 307.4546
321.8645, 307.3621
322.3466, 308.2607
322.8287, 309.1696
323.3108, 309.7350
323.7929, 310.1110
324.2751, 310.5794
324.7572, 311.4052
325.2393, 311.7775
325.7214, 311.4047
326.2035, 310.8631
326.6856, 310.5451
327.1678, 310.4938
327.6499, 310.5089
328.1320, 310.3983
328.6141, 310.1925
329.0962, 309.6772
329.5783, 308.5702
330.0605, 307.4657
330.5426, 306.6932
331.0247, 306.1465
331.5068, 305.5824
331.9889, 304.8883
332.4710, 304.0167
332.9532, 302.1768
333.4353, 298.2555
333.9174, 294.5020
334.3995, 291.3231
334.8816, 288.5890
335.3637, 286.1164
335.8459, 283.8365
336.3280, 281.6747
336.8101, 279.4872
337.2922, 277.4007
337.7743, 275.0641
338.2564, 272.4039
338.7386, 269.5258
339.2206, 266.4483
339.7028, 263.1955
340.1849, 259.9601
340.6670, 257.0005
341.1491, 254.2993
341.6312, 251.9656
342.1133, 250.7575
342.5955, 249.2591
343.0776, 246.3323
343.5597, 242.2064
344.0418, 238.1354
344.5239, 235.3301
345.0060, 233.8639
345.4882, 232.3639
345.9703, 231.0538
346.4524, 229.4715
346.9345, 227.2897
347.4166, 224.7600
347.8987, 222.3007
348.3809, 220.1621
348.8630, 218.3141
349.3451, 216.6670
349.8272, 215.1104
350.3093, 213.9493
350.7914, 213.3445
351.2736, 213.0524
351.7557, 212.9097
352.2378, 212.8528
352.7199, 212.7524
353.2020, 212.3496
353.6841, 211.5022
354.1663, 210.7840
354.6484, 210.2939
355.1305, 209.9171
355.6126, 209.6006
356.0947, 209.3380
356.5768, 209.1511
357.0590, 209.0924
357.5411, 209.1701
358.0232, 209.1791
358.5053, 208.9012
358.9874, 208.8154
359.4695, 209.1769
359.9517, 209.8673
360.4338, 210.6378
360.9159, 211.3555
361.3980, 212.0437
361.8801, 212.8367
362.3622, 213.9018
362.8444, 214.6803
363.3265, 215.0619
363.8086, 215.0489
364.2907, 214.4222
364.7728, 212.9907
365.2549, 211.6266
365.7371, 211.5147
366.2192, 212.7593
366.7013, 214.3052
367.1834, 216.1650
367.6655, 218.0573
368.1476, 219.8148
368.6298, 221.4276
369.1119, 222.8698
369.5940, 224.0852
370.0761, 225.1034
370.5582, 226.0335
371.0403, 226.8399
371.5225, 227.6402
372.0046, 228.3623
372.4867, 229.1277
372.9688, 230.2781
373.4509, 232.2341
373.9330, 234.4614
374.4152, 236.1249
374.8973, 237.1608
375.3794, 238.1106
375.8615, 239.1678
376.3436, 240.3255
376.8257, 241.5491
377.3079, 242.7939
377.7900, 244.2152
378.2721, 246.2231
378.7542, 248.5935
379.2363, 250.2862
379.7184, 250.8494
380.2006, 250.9047
380.6827, 251.2614
381.1648, 251.9134
381.6469, 252.4235
382.1290, 252.5541
382.6111, 252.5030
383.0933, 252.5450
383.5754, 252.7149
384.0575, 252.9476
384.5396, 253.4293
385.0217, 253.9738
385.5038, 253.5269
385.9860, 251.2247
386.4681, 248.6806
386.9502, 246.7916
387.4323, 245.4768
387.9144, 244.4319
388.3965, 243.5977
388.8787, 242.8219
389.3608, 241.6633
389.8429, 239.9350
390.3250, 238.2839
390.8071, 236.7866
391.2892, 235.4588
391.7714, 234.3333
392.2535, 233.4162
392.7356, 232.6341
393.2177, 231.8405
393.6998, 230.9087
394.1819, 230.8071
394.6641, 232.8239
395.1462, 234.4429
395.6283, 233.7703
396.1104, 231.3929
396.5925, 229.2436
397.0746, 228.5629
397.5568, 229.1523
398.0389, 229.9085
398.5210, 231.0995
399.0031, 232.1289
399.4852, 233.1966
399.9673, 233.9536
400.4495, 233.6894
400.9316, 232.2873
401.4137, 230.8218
401.8958, 231.1172
402.3779, 234.2983
402.8600, 236.1628
403.3422, 235.8547
403.8243, 235.1971
404.3064, 234.7956
404.7885, 234.8318
405.2706, 235.4726
405.7527, 236.9452
406.2349, 239.1180
406.7170, 240.8570
407.1991, 241.7565
407.6812, 242.7761
408.1633, 244.2086
408.6454, 245.8376
409.1276, 247.3963
409.6097, 248.7817
410.0918, 250.1728
410.5739, 252.0482
411.0560, 254.6498
411.5381, 256.3895
412.0203, 256.0261
412.5024, 255.5434
412.9845, 256.1746
413.4666, 257.7958
413.9487, 259.4546
414.4308, 260.6781
414.9130, 261.4294
415.3951, 261.5388
415.8772, 260.9335
416.3593, 259.8541
416.8414, 258.1582
417.3235, 256.1494
417.8057, 254.0984
418.2878, 251.7714
418.7699, 250.0265
419.2520, 250.2359
419.7341, 252.1396
420.2162, 253.1356
420.6984, 252.1071
421.1805, 250.2735
421.6626, 249.1172
422.1447, 248.6050
422.6268, 248.4167
423.1089, 248.8501
423.5911, 249.3585
424.0732, 249.0448
424.5553, 247.8080
425.0374, 246.5078
425.5195, 245.7616
426.0016, 245.5385
426.4838, 245.3866
426.9659, 245.4087
427.4480, 245.3923
427.9301, 245.2114
428.4122, 244.9254
428.8943, 244.7241
429.3765, 244.7049
429.8586, 244.6156
430.3407, 243.9787
430.8228, 242.3799
431.3049, 241.1319
431.7870, 240.1381
432.2692, 239.5839
432.7513, 239.9226
433.2334, 240.9485
433.7155, 241.8334
434.1976, 241.9238
434.6797, 241.2500
435.1619, 240.2149
435.6440, 238.2461
436.1261, 236.5657
436.6082, 235.6153
437.0903, 234.9555
437.5724, 233.9730
438.0546, 232.4783
438.5367, 230.9236
439.0188, 230.1472
439.5009, 230.5797
439.9830, 230.3920
440.4651, 229.1426
440.9473, 227.6077
441.4294, 225.8820
441.9115, 224.1430
442.3936, 222.7727
442.8757, 222.1639
443.3578, 222.0291
443.8400, 221.4149
444.3221, 220.2169
444.8042, 218.7874
445.2863, 216.6783
445.7684, 214.6974
446.2505, 213.8230
446.7327, 214.3158
447.2148, 214.9670
447.6969, 214.5659
448.1790, 213.3380
448.6611, 212.6113
449.1432, 212.8219
449.6254, 213.1033
450.1075, 212.5051
450.5896, 211.3288
451.0717, 210.5139
451.5538, 210.4738
452.0359, 210.7846
452.5181, 211.0190
453.0002, 211.2132
453.4823, 211.6838
453.9644, 212.6772
454.4465, 213.9081
454.9286, 214.6361
455.4108, 214.5554
455.8929, 214.9461
456.3750, 216.5478
456.8571, 218.5222
457.3392, 219.9200
457.8214, 220.6298
458.3035, 221.1775
458.7856, 221.9939
459.2677, 223.0816
459.7498, 224.4378
460.2319, 226.6160
460.7141, 228.3882
461.1962, 228.9025
461.6783, 228.9617
462.1604, 230.0195
462.6425, 232.5730
463.1246, 235.2853
463.6068, 235.6419
464.0889, 232.2558
464.5710, 230.1902
465.0531, 230.7881
465.5352, 231.3782
466.0173, 230.5715
466.4995, 228.6681
466.9816, 226.7304
467.4637, 225.4447
467.9458, 224.6189
468.4279, 223.6447
468.9100, 222.4854
469.3922, 221.2630
469.8743, 219.6799
470.3564, 218.2448
470.8385, 217.6265
471.3206, 217.8974
471.8027, 217.9326
472.2849, 216.4407
472.7670, 213.9296
473.2491, 212.5262
473.7312, 212.7775
474.2133, 213.0938
474.6954, 212.0981
475.1776, 210.3180
475.6597, 208.9654
476.1418, 208.2867
476.6239, 208.0203
477.1060, 208.3899
477.5881, 209.0672
478.0703, 208.8829
478.5524, 207.2756
479.0345, 205.3436
479.5166, 204.7567
479.9987, 205.8715
480.4808, 206.7153
480.9630, 207.0922
481.4451, 207.2491
481.9272, 207.3907
482.4093, 207.4679
482.8914, 207.2453
483.3735, 206.5498
483.8557, 205.5391
484.3378, 204.7829
484.8199, 204.7093
485.3020, 204.2702
485.7841, 202.8948
486.2662, 201.5239
486.7484, 201.1700
487.2305, 201.7372
487.7126, 202.0599
488.1947, 200.8570
488.6768, 198.2872
489.1589, 196.9662
489.6411, 197.6916
490.1232, 198.4339
490.6053, 198.5487
491.0874, 198.3364
491.5695, 198.1268
492.0516, 198.0135
492.5338, 197.8925
493.0159, 197.7554
493.4980, 197.5670
493.9801, 196.8858
494.4622, 195.2840
494.9443, 193.8772
495.4265, 193.8532
495.9086, 194.7803
496.3907, 195.5107
496.8728, 195.8713
497.3549, 195.8454
497.8370, 195.1355
498.3192, 193.9619
498.8013, 193.2224
499.2834, 193.3484
499.7655, 193.7943
500.2476, 193.5421
500.7297, 192.1236
501.2119, 191.7366
501.6940, 193.5921
502.1761, 195.6370
502.6582, 196.3555
503.1403, 195.9370
503.6224, 195.4356
504.1045, 195.5210
504.5866, 195.9556
505.0688, 195.8517
505.5509, 194.5323
506.0330, 193.7466
506.5151, 193.9628
506.9972, 194.4225
507.4793, 194.5997
507.9615, 194.4470
508.4436, 194.1894
508.9257, 193.9750
509.4078, 193.8158
509.8899, 193.8338
510.3720, 194.1895
510.8542, 194.3694
511.3363, 194.0327
511.8184, 193.5060
512.3005, 192.9975
512.7827, 192.5117
513.2648, 192.4141
513.7469, 193.3968
514.2290, 194.9807
514.7111, 195.7703
515.1932, 195.5488
515.6754, 194.6986
516.1575, 193.1680
516.6396, 191.2076
517.1217, 189.9603
517.6038, 189.6897
518.0859, 189.8824
518.5681, 191.0074
519.0502, 192.2666
519.5323, 191.8680
520.0144, 189.3456
520.4965, 186.6715
520.9786, 186.3239
521.4608, 188.7550
521.9429, 190.8160
522.4250, 193.0058
522.9071, 194.3787
523.3892, 194.0906
523.8713, 192.9086
524.3535, 191.9021
524.8356, 191.5190
525.3177, 191.6035
525.7998, 191.9991
526.2819, 192.8031
526.7640, 193.4254
527.2462, 193.7468
527.7283, 193.9531
528.2104, 193.9181
528.6925, 193.8495
529.1746, 194.2504
529.6567, 195.5511
530.1389, 197.0690
530.6210, 197.7571
531.1031, 197.6748
531.5852, 197.8906
532.0673, 198.8110
532.5494, 199.9860
533.0316, 200.9291
533.5137, 201.6540
533.9958, 202.1978
534.4779, 202.5326
534.9600, 202.7174
535.4421, 202.6818
535.9243, 202.5208
536.4064, 202.5298
536.8885, 202.8538
537.3706, 203.3983
537.8527, 203.9538
538.3348, 204.4290
538.8170, 205.1284
539.2991, 206.3218
539.7812, 207.4766
540.2633, 208.4648
540.7454, 209.1558
541.2275, 209.2957
541.7097, 208.6755
542.1918, 207.5834
542.6739, 206.8146
543.1560, 206.5420
543.6381, 206.0278
544.1202, 205.0777
544.6024, 203.8736
545.0845, 202.5262
545.5666, 201.0228
546.0487, 199.3041
546.5308, 196.8618
547.0129, 194.4185
547.4951, 193.4284
547.9772, 193.8442
548.4593, 193.9110
548.9414, 192.8690
549.4235, 191.1297
549.9056, 189.2256
550.3878, 186.9906
550.8699, 185.4605
551.3520, 185.5412
551.8341, 185.8697
552.3162, 185.3582
552.7983, 184.0501
553.2805, 182.3983
553.7626, 180.6128
554.2447, 178.8466
554.7268, 177.5282
555.2089, 176.6969
555.6910, 176.2888
556.1732, 176.7668
556.6553, 177.2065
557.1374, 176.9419
557.6195, 176.1118
558.1016, 175.3311
558.5837, 175.0403
559.0659, 174.9632
559.5480, 174.2828
560.0301, 172.8050
560.5122, 171.9389
560.9943, 172.5621
561.4764, 173.5031
561.9586, 173.3853
562.4407, 172.3074
562.9228, 171.8165
563.4049, 173.1288
563.8870, 174.8594
564.3691, 175.4936
564.8513, 175.1507
565.3334, 174.6372
565.8155, 174.2578
566.2976, 174.0863
566.7797, 174.3466
567.2618, 175.6352
567.7440, 175.8813
568.2261, 174.0581
568.7082, 172.1458
569.1903, 171.2163
569.6724, 171.1458
570.1545, 171.5286
570.6367, 172.1966
571.1188, 172.7486
571.6009, 172.0848
572.0830, 169.6236
572.5651, 168.1755
573.0472, 168.9839
573.5294, 169.9597
574.0115, 170.0076
574.4936, 169.3090
574.9757, 168.4691
575.4578, 167.7250
575.9399, 166.9608
576.4221, 165.9653
576.9042, 164.8004
577.3863, 163.7465
577.8684, 162.8082
578.3505, 162.2583
578.8326, 162.6519
579.3148, 164.0927
579.7969, 164.6680
580.2790, 163.3584
580.7611, 162.1853
581.2432, 162.4024
581.7253, 163.3397
582.2075, 163.7595
582.6896, 163.2537
583.1717, 162.4832
583.6538, 162.3402
584.1359, 162.8778
584.6180, 163.6762
585.1002, 165.1871
585.5823, 166.4229
586.0643, 167.2096
586.5464, 167.4990
587.0286, 167.0663
