##NAMES=Turquoise
##RRUFFID=R050225
##IDEAL CHEMISTRY=Cu^2+^Al_6_(P^5+^O_4_)_4_(OH)_8_&#183;4H_2_O
##LOCALITY=Badger Prospect, Lander County, Nevada, USA
##OWNER=RRUFF
##SOURCE=Marcus Origlieri
##DESCRIPTION=Light blue massive
##STATUS=The identification of this mineral has been confirmed by X-ray diffraction and chemical analysis
##URL=rruff.info/R050225
##MEASURED CHEMISTRY=Cu_1.00_(Al_5.83_Fe^3+^_0.17_)_Σ=6_(P_1.00_O_4_)_4_(OH)_8_·4H_2_O
130.8691, 308.1726
131.3512, 313.2069
131.8333, 318.8728
132.3154, 324.5902
132.7975, 329.8781
133.2796, 334.9488
133.7618, 340.5838
134.2439, 346.1714
134.7260, 350.3271
135.2081, 353.3394
135.6902, 356.0525
136.1723, 358.4474
136.6545, 360.4995
137.1366, 362.2113
137.6187, 363.7955
138.1008, 365.3862
138.5829, 366.7398
139.0650, 367.3711
139.5472, 367.2527
140.0293, 366.5940
140.5114, 365.4495
140.9935, 363.7489
141.4756, 361.8632
141.9577, 359.7487
142.4399, 357.4535
142.9220, 355.1217
143.4041, 352.4919
143.8862, 350.2337
144.3683, 348.7576
144.8504, 348.2715
145.3326, 348.0768
145.8147, 348.1847
146.2968, 348.5555
146.7789, 348.8519
147.2610, 348.8599
147.7431, 348.9962
148.2253, 349.5720
148.7074, 350.8359
149.1895, 352.1716
149.6716, 353.6374
150.1537, 355.2526
150.6358, 356.3181
151.1180, 356.2931
151.6001, 356.0137
152.0822, 356.1758
152.5643, 357.3411
153.0464, 358.3517
153.5285, 359.0863
154.0107, 359.5498
154.4928, 359.6601
154.9749, 359.4136
155.4570, 358.8245
155.9391, 357.9120
156.4212, 356.5178
156.9034, 354.9467
157.3855, 353.2807
157.8676, 351.5554
158.3497, 349.6596
158.8318, 347.1246
159.3139, 344.5071
159.7961, 342.4993
160.2782, 341.4809
160.7603, 340.9220
161.2424, 340.7453
161.7245, 341.1014
162.2066, 341.1870
162.6888, 340.5382
163.1709, 339.4626
163.6530, 338.4611
164.1351, 337.4430
164.6172, 336.7346
165.0993, 336.5877
165.5815, 337.1703
166.0636, 337.9070
166.5457, 338.5798
167.0278, 339.2072
167.5099, 339.8264
167.9920, 340.1941
168.4742, 340.7088
168.9563, 341.7370
169.4384, 343.4944
169.9205, 345.4399
170.4026, 347.3088
170.8847, 349.1028
171.3669, 350.7945
171.8490, 352.2080
172.3311, 353.5834
172.8132, 355.2586
173.2953, 357.5703
173.7774, 359.7180
174.2596, 360.9316
174.7417, 361.3563
175.2238, 361.5087
175.7059, 361.7153
176.1880, 361.8487
176.6701, 361.7550
177.1523, 361.4760
177.6344, 360.8284
178.1165, 359.5301
178.5986, 357.6205
179.0807, 355.4305
179.5628, 353.0625
180.0450, 350.5619
180.5271, 347.9755
181.0092, 344.9653
181.4913, 342.2205
181.9734, 340.9883
182.4555, 341.1898
182.9377, 341.8180
183.4198, 342.1708
183.9019, 342.3370
184.3840, 342.5250
184.8661, 342.6248
185.3482, 342.9140
185.8304, 344.1152
186.3125, 346.2293
186.7946, 348.4593
187.2767, 349.9648
187.7588, 350.9382
188.2409, 352.1960
188.7231, 354.0052
189.2052, 356.2265
189.6873, 358.6179
190.1694, 361.2179
190.6515, 363.7372
191.1336, 365.7320
191.6158, 367.2854
192.0979, 369.1646
192.5800, 371.6719
193.0621, 374.6540
193.5442, 377.6772
194.0263, 380.8007
194.5085, 383.8047
194.9906, 386.5214
195.4727, 388.9540
195.9548, 390.9056
196.4369, 392.0733
196.9190, 392.6901
197.4012, 394.0190
197.8833, 396.1863
198.3654, 398.5525
198.8475, 400.2675
199.3296, 401.3004
199.8117, 402.5637
200.2939, 404.5192
200.7760, 406.9897
201.2581, 408.6020
201.7402, 409.1882
202.2223, 409.3399
202.7044, 409.5799
203.1866, 409.8594
203.6687, 410.6115
204.1508, 412.2354
204.6329, 414.6214
205.1150, 415.9127
205.5971, 415.7740
206.0793, 415.2686
206.5614, 415.7141
207.0435, 417.3066
207.5256, 418.8348
208.0077, 419.9694
208.4898, 420.7143
208.9720, 421.3940
209.4541, 422.0194
209.9362, 422.5519
210.4183, 422.9782
210.9004, 423.3349
211.3825, 423.4185
211.8647, 423.0750
212.3468, 422.2938
212.8289, 421.8180
213.3110, 421.7445
213.7931, 421.8413
214.2752, 421.7961
214.7574, 421.4997
215.2395, 421.4063
215.7216, 421.7055
216.2037, 422.4173
216.6858, 422.9627
217.1679, 423.3295
217.6500, 423.5511
218.1322, 423.5923
218.6143, 423.2700
219.0964, 423.2324
219.5785, 423.7014
220.0606, 424.7037
220.5427, 425.5898
221.0249, 426.2128
221.5070, 426.8697
221.9891, 427.9320
222.4712, 429.6039
222.9533, 431.2252
223.4354, 432.5318
223.9176, 433.5017
224.3997, 434.8563
224.8818, 436.7196
225.3639, 438.8476
225.8460, 441.0248
226.3281, 443.2388
226.8103, 445.5220
227.2924, 447.9143
227.7745, 450.4731
228.2566, 452.6833
228.7387, 454.5168
229.2208, 456.0344
229.7030, 457.2916
230.1851, 458.3946
230.6672, 459.0546
231.1493, 459.2603
231.6314, 459.0185
232.1135, 458.0592
232.5957, 456.2185
233.0778, 453.8326
233.5599, 451.2558
234.0420, 448.5836
234.5241, 445.5250
235.0062, 441.8400
235.4884, 437.5555
235.9705, 433.8242
236.4526, 430.7349
236.9347, 428.0584
237.4168, 425.6087
237.8989, 423.5305
238.3811, 421.4019
238.8632, 419.1626
239.3453, 416.8007
239.8274, 414.3730
240.3095, 411.6599
240.7916, 409.0968
241.2738, 407.0227
241.7559, 405.4034
242.2380, 404.4229
242.7201, 404.7231
243.2022, 406.1213
243.6843, 405.2532
244.1665, 400.8831
244.6486, 395.7190
245.1307, 391.8985
245.6128, 390.1901
246.0949, 388.2776
246.5770, 385.8470
247.0592, 382.9476
247.5413, 379.9866
248.0234, 376.8482
248.5055, 373.8244
248.9876, 371.1578
249.4697, 368.8853
249.9519, 366.8423
250.4340, 365.0695
250.9161, 363.5199
251.3982, 361.9038
251.8803, 360.1107
252.3624, 358.4120
252.8446, 357.0348
253.3267, 356.1509
253.8088, 355.1368
254.2909, 353.8896
254.7730, 352.4711
255.2551, 351.1653
255.7373, 350.0027
256.2194, 348.9137
256.7015, 347.8997
257.1836, 347.0269
257.6657, 346.0350
258.1478, 344.8392
258.6299, 343.5433
259.1121, 342.4224
259.5942, 341.4912
260.0763, 340.7098
260.5584, 340.0512
261.0405, 339.5414
261.5226, 339.1321
262.0048, 338.9673
262.4869, 338.8279
262.9690, 338.0991
263.4511, 336.4963
263.9332, 334.9220
264.4153, 333.7670
264.8975, 333.0935
265.3796, 332.5591
265.8617, 332.1932
266.3438, 331.9348
266.8259, 331.6495
267.3080, 331.3007
267.7902, 331.0298
268.2723, 330.9257
268.7544, 331.0206
269.2365, 331.0325
269.7186, 330.9400
270.2007, 330.7946
270.6829, 330.7162
271.1650, 330.7751
271.6471, 330.6449
272.1292, 329.7752
272.6113, 329.7285
273.0934, 329.5332
273.5756, 329.1992
274.0577, 328.2137
274.5398, 328.1435
275.0219, 327.7519
275.5040, 327.3780
275.9861, 327.5291
276.4683, 326.8048
276.9504, 327.0128
277.4325, 326.8939
277.9146, 326.9717
278.3967, 326.7259
278.8788, 326.6224
279.3610, 326.9073
279.8431, 327.0275
280.3252, 326.8700
280.8073, 327.1524
281.2894, 326.7391
281.7715, 326.9970
282.2537, 327.5628
282.7358, 327.5850
283.2179, 328.0356
283.7000, 328.3677
284.1821, 328.0466
284.6642, 328.9500
285.1464, 329.3703
285.6285, 329.2934
286.1106, 330.2530
286.5927, 330.3138
287.0748, 331.6760
287.5569, 332.6060
288.0391, 333.2486
288.5212, 333.6210
289.0033, 333.7195
289.4854, 333.9831
289.9675, 334.8011
290.4496, 336.0827
290.9318, 337.2477
291.4139, 338.2253
291.8960, 339.1403
292.3781, 340.2137
292.8602, 341.4361
293.3423, 342.5909
293.8245, 343.4532
294.3066, 344.1542
294.7887, 345.1587
295.2708, 346.5210
295.7529, 348.0031
296.2350, 349.3198
296.7172, 350.4902
297.1993, 351.6323
297.6814, 352.8101
298.1635, 354.0069
298.6456, 355.1815
299.1277, 356.3417
299.6099, 357.4571
300.0920, 358.4539
300.5741, 359.3680
301.0562, 360.2576
301.5383, 361.2877
302.0204, 362.2404
302.5026, 362.7336
302.9847, 362.7838
303.4668, 362.6795
303.9489, 362.4676
304.4310, 362.2881
304.9131, 362.3969
305.3953, 362.9782
305.8774, 363.7587
306.3595, 364.5121
306.8416, 365.2268
307.3237, 365.8608
307.8058, 366.1328
308.2880, 366.3940
308.7701, 367.1376
309.2522, 368.7166
309.7343, 370.3507
310.2164, 371.4004
310.6985, 372.0131
311.1807, 372.5706
311.6628, 373.1841
312.1449, 373.8941
312.6270, 374.7131
313.1091, 375.6375
313.5912, 376.6932
314.0734, 377.9509
314.5555, 379.3458
315.0376, 380.7724
315.5197, 382.3243
316.0018, 383.7869
316.4839, 384.8989
316.9661, 385.5805
317.4482, 386.4240
317.9303, 387.9695
318.4124, 389.7165
318.8945, 391.1001
319.3766, 391.5856
319.8588, 391.9873
320.3409, 392.7204
320.8230, 393.7932
321.3051, 394.5954
321.7872, 394.7312
322.2693, 394.6539
322.7515, 394.7205
323.2336, 394.9514
323.7157, 395.3954
324.1978, 396.1959
324.6799, 397.2735
325.1620, 398.2099
325.6442, 398.7738
326.1263, 399.2919
326.6084, 399.9306
327.0905, 400.8231
327.5726, 401.6589
328.0547, 402.4586
328.5369, 403.1826
329.0190, 403.7549
329.5011, 404.2769
329.9832, 404.5465
330.4653, 404.4119
330.9474, 403.5372
331.4296, 403.1653
331.9117, 403.8228
332.3938, 404.7595
332.8759, 404.8687
333.3580, 403.5819
333.8401, 402.3472
334.3223, 401.6392
334.8044, 401.5457
335.2865, 400.9123
335.7686, 399.5453
336.2507, 397.8576
336.7328, 396.2473
337.2150, 394.6995
337.6971, 393.2385
338.1792, 391.9388
338.6613, 390.7386
339.1434, 389.1385
339.6255, 387.0039
340.1077, 384.7658
340.5898, 382.6602
341.0719, 380.7249
341.5540, 378.9177
342.0361, 377.3079
342.5182, 375.7724
343.0003, 373.9953
343.4825, 371.9563
343.9646, 369.9193
344.4467, 368.0530
344.9288, 366.3655
345.4109, 364.6777
345.8930, 363.0338
346.3752, 361.2831
346.8573, 359.0298
347.3394, 356.3260
347.8215, 354.0721
348.3036, 352.8804
348.7857, 352.3732
349.2679, 351.4141
349.7500, 349.9905
350.2321, 348.5233
350.7142, 347.4241
351.1963, 346.6240
351.6784, 345.8841
352.1606, 345.0502
352.6427, 344.3514
353.1248, 344.3137
353.6069, 344.8167
354.0890, 345.0979
354.5711, 344.4870
355.0533, 343.3765
355.5354, 342.2513
356.0175, 341.1225
356.4996, 340.2293
356.9817, 339.8502
357.4638, 339.8654
357.9460, 339.9861
358.4281, 340.1373
358.9102, 340.2922
359.3923, 340.4150
359.8744, 340.4955
360.3565, 340.6039
360.8387, 340.8522
361.3208, 341.1249
361.8029, 341.2776
362.2850, 341.0267
362.7671, 340.8466
363.2492, 340.9853
363.7314, 341.4194
364.2135, 341.8537
364.6956, 342.1702
365.1777, 342.4542
365.6598, 342.7629
366.1419, 343.0735
366.6241, 343.4534
367.1062, 344.0359
367.5883, 344.7155
368.0704, 345.1703
368.5525, 345.0912
369.0346, 345.0182
369.5168, 345.2095
369.9989, 345.9527
370.4810, 346.2984
370.9631, 345.8287
371.4452, 345.1422
371.9273, 345.0531
372.4095, 345.8160
372.8916, 346.8120
373.3737, 347.9917
373.8558, 349.3706
374.3379, 350.5727
374.8200, 351.5940
375.3022, 352.4618
375.7843, 353.1623
376.2664, 353.6473
376.7485, 354.1523
377.2306, 354.7192
377.7127, 355.3205
378.1949, 355.8052
378.6770, 356.1030
379.1591, 356.5484
379.6412, 357.3262
380.1233, 358.4425
380.6054, 359.8054
381.0876, 361.5033
381.5697, 363.1968
382.0518, 364.5009
382.5339, 365.3979
383.0160, 365.7924
383.4981, 365.4660
383.9803, 364.6283
384.4624, 363.7917
384.9445, 362.9497
385.4266, 362.3476
385.9087, 362.4459
386.3908, 362.9637
386.8730, 363.1653
387.3551, 362.8073
387.8372, 362.1563
388.3193, 361.4306
388.8014, 360.6649
389.2835, 359.9911
389.7657, 359.4849
390.2478, 359.1155
390.7299, 358.9300
391.2120, 359.0039
391.6941, 358.9287
392.1762, 358.0294
392.6584, 356.8599
393.1405, 356.2846
393.6226, 357.1004
394.1047, 358.2075
394.5868, 359.0850
395.0689, 359.7136
395.5511, 360.2458
396.0332, 360.5036
396.5153, 360.8138
396.9974, 361.4258
397.4795, 362.5496
397.9616, 363.7921
398.4438, 365.1346
398.9259, 366.5546
399.4080, 367.9787
399.8901, 369.2593
400.3722, 370.6777
400.8543, 372.3061
401.3365, 374.1291
401.8186, 376.2425
402.3007, 378.9026
402.7828, 381.6939
403.2649, 384.0610
403.7470, 385.6436
404.2292, 387.4745
404.7113, 389.6669
405.1934, 392.2460
405.6755, 395.5278
406.1576, 399.6933
406.6397, 404.0855
407.1219, 408.1845
407.6040, 411.9325
408.0861, 415.9469
408.5682, 420.4250
409.0503, 425.0281
409.5324, 429.1583
410.0146, 432.8027
410.4967, 436.6604
410.9788, 441.2170
411.4609, 446.2736
411.9430, 451.1885
412.4251, 455.9951
412.9073, 460.6211
413.3894, 465.2280
413.8715, 469.7202
414.3536, 473.7458
414.8357, 477.2049
415.3178, 480.1933
415.8000, 482.7997
416.2821, 485.0265
416.7642, 486.7928
417.2463, 488.2604
417.7284, 489.1490
418.2105, 489.0294
418.6927, 487.6880
419.1748, 486.0167
419.6569, 484.5707
420.1390, 483.1392
420.6211, 481.4397
421.1032, 479.2194
421.5854, 476.8263
422.0675, 474.4372
422.5496, 472.0348
423.0317, 469.4817
423.5138, 466.7334
423.9959, 463.8111
424.4781, 460.6730
424.9602, 457.2016
425.4423, 453.7500
425.9244, 450.4123
426.4065, 447.0835
426.8886, 443.4949
427.3708, 439.0984
427.8529, 435.0669
428.3350, 431.7863
428.8171, 429.3346
429.2992, 427.0864
429.7813, 425.0163
430.2635, 423.1924
430.7456, 421.6855
431.2277, 420.5473
431.7098, 419.5605
432.1919, 418.7383
432.6740, 418.0098
433.1562, 417.1503
433.6383, 416.1454
434.1204, 415.0901
434.6025, 413.9265
435.0846, 412.7134
435.5667, 411.8537
436.0489, 411.3804
436.5310, 411.1350
437.0131, 411.1137
437.4952, 411.1992
437.9773, 410.9797
438.4594, 410.1670
438.9416, 409.0858
439.4236, 408.0041
439.9058, 406.9687
440.3879, 406.3049
440.8700, 406.7539
441.3521, 407.4332
441.8342, 407.3422
442.3163, 406.1164
442.7985, 404.6817
443.2806, 403.3161
443.7627, 402.1409
444.2448, 401.3220
444.7269, 401.4446
445.2090, 401.4530
445.6912, 400.7776
446.1733, 399.3980
446.6554, 398.2866
447.1375, 397.9354
447.6196, 397.7162
448.1017, 397.2355
448.5839, 396.2567
449.0660, 395.2918
449.5481, 394.2278
450.0302, 393.2126
450.5123, 392.6050
450.9944, 392.6463
451.4766, 392.6753
451.9587, 392.4181
452.4408, 391.8457
452.9229, 391.7185
453.4050, 392.1745
453.8871, 392.7492
454.3693, 392.9348
454.8514, 392.7010
455.3335, 392.8089
455.8156, 393.5032
456.2977, 394.4155
456.7798, 394.5823
457.2620, 394.0847
457.7441, 394.0063
458.2262, 395.2469
458.7083, 397.2585
459.1904, 398.8805
459.6725, 400.0588
460.1547, 401.1100
460.6368, 402.2121
461.1189, 403.3983
461.6010, 404.7198
462.0831, 406.2975
462.5652, 407.8665
463.0474, 409.3186
463.5295, 410.6150
464.0116, 411.6063
464.4937, 411.9909
464.9758, 412.2259
465.4579, 412.5177
465.9401, 412.8700
466.4222, 413.3830
466.9043, 414.4081
467.3864, 415.4470
467.8685, 416.0304
468.3506, 415.8033
468.8328, 415.4718
469.3149, 414.9925
469.7970, 414.4479
470.2791, 414.1833
470.7612, 414.4979
471.2433, 414.6442
471.7255, 414.2604
472.2076, 413.2437
472.6897, 412.3170
473.1718, 411.4415
473.6539, 410.6950
474.1360, 410.1673
474.6182, 409.8589
475.1003, 409.7099
475.5824, 409.7488
476.0645, 409.8890
476.5466, 409.9379
477.0287, 409.8972
477.5109, 409.8212
477.9930, 409.6955
478.4751, 409.5644
478.9572, 409.5410
479.4393, 409.6413
479.9214, 409.7364
480.4036, 409.7942
480.8857, 409.7581
481.3678, 409.5348
481.8499, 408.9804
482.3320, 408.3684
482.8141, 407.8777
483.2963, 407.4745
483.7784, 407.0501
484.2605, 406.8246
484.7426, 406.3725
485.2247, 405.3990
485.7068, 403.7427
486.1890, 402.2087
486.6711, 400.9268
487.1532, 399.8090
487.6353, 398.7619
488.1174, 397.8326
488.5995, 396.9276
489.0817, 395.9684
489.5638, 395.0338
490.0459, 394.4238
490.5280, 394.3044
491.0101, 394.0666
491.4922, 393.3347
491.9744, 392.0836
492.4565, 391.2672
492.9386, 390.9516
493.4207, 390.7201
493.9028, 390.1179
494.3849, 389.1852
494.8671, 388.2294
495.3492, 387.2756
495.8313, 386.3786
496.3134, 385.6803
496.7955, 385.1327
497.2776, 384.5295
497.7598, 383.8927
498.2419, 383.0840
498.7240, 381.8406
499.2061, 380.1508
499.6882, 378.6106
500.1703, 377.5112
500.6525, 376.7628
501.1346, 376.3174
501.6167, 376.5028
502.0988, 376.4666
502.5809, 375.8294
503.0630, 374.8099
503.5452, 373.8716
504.0273, 373.1927
504.5094, 372.4696
504.9915, 371.5262
505.4736, 370.3371
505.9557, 369.6100
506.4379, 369.7147
506.9200, 369.7748
507.4021, 369.1016
507.8842, 367.4767
508.3663, 366.1042
508.8484, 365.1062
509.3306, 364.3068
509.8127, 363.4368
510.2948, 362.5078
510.7769, 361.5465
511.2590, 360.5217
511.7411, 359.5118
512.2233, 358.7921
512.7054, 358.3337
513.1875, 357.8080
513.6696, 356.7611
514.1517, 355.5816
514.6339, 354.8555
515.1160, 354.7250
515.5981, 354.7271
516.0802, 354.5349
516.5623, 354.2732
517.0444, 354.1102
517.5266, 354.3152
518.0087, 354.3981
518.4908, 353.9904
518.9729, 353.2447
519.4550, 352.8679
519.9371, 353.3098
520.4193, 353.8467
520.9014, 354.1513
521.3835, 354.0963
521.8656, 354.3943
522.3477, 355.2965
522.8298, 356.2752
523.3120, 356.7816
523.7941, 356.6951
524.2762, 356.6580
524.7583, 356.7606
525.2404, 356.9659
525.7225, 357.0701
526.2047, 357.0781
526.6868, 357.4893
527.1689, 358.8546
527.6510, 360.7542
528.1331, 362.0653
528.6152, 362.8139
529.0974, 363.4540
529.5795, 364.3936
530.0616, 365.4459
530.5437, 366.2621
531.0258, 366.6274
531.5079, 367.2208
531.9901, 368.5800
532.4722, 370.4297
532.9543, 372.3202
533.4364, 374.0321
533.9185, 375.8541
534.4006, 378.0253
534.8828, 380.4698
535.3649, 382.6592
535.8470, 384.2681
536.3291, 385.8374
536.8112, 387.5612
537.2933, 389.4542
537.7755, 391.4091
538.2576, 393.4113
538.7397, 395.4648
539.2218, 397.6227
539.7039, 399.8925
540.1860, 401.9052
540.6682, 403.5620
541.1503, 404.9323
541.6324, 406.0509
542.1145, 406.9526
542.5966, 408.0166
543.0787, 409.7330
543.5609, 411.6258
544.0430, 412.9981
544.5251, 413.8394
545.0072, 414.1620
545.4893, 413.4424
545.9714, 412.4648
546.4536, 412.1168
546.9357, 412.8677
547.4178, 413.4910
547.8999, 413.4634
548.3820, 413.0139
548.8641, 412.4579
549.3463, 411.9842
549.8284, 411.2570
550.3105, 410.1312
550.7926, 408.6662
551.2747, 407.2191
551.7568, 405.8276
552.2390, 404.3462
552.7211, 402.7074
553.2032, 400.9051
553.6853, 398.9438
554.1674, 396.7436
554.6495, 394.6337
555.1317, 392.9883
555.6138, 391.7833
556.0959, 390.6247
556.5780, 389.4601
557.0601, 388.2993
557.5422, 387.0344
558.0244, 385.7706
558.5065, 384.8037
558.9886, 384.4193
559.4707, 384.2966
559.9528, 384.2252
560.4349, 384.1960
560.9171, 384.1805
561.3992, 384.0054
561.8813, 383.9489
562.3634, 384.1926
562.8455, 384.8046
563.3276, 385.5344
563.8098, 386.4573
564.2919, 387.4099
564.7740, 388.2801
565.2561, 389.1869
565.7382, 389.7098
566.2203, 389.6020
566.7025, 389.2119
567.1846, 389.6012
567.6667, 390.9509
568.1488, 391.8210
568.6309, 391.4967
569.1130, 390.2820
569.5952, 389.1021
570.0773, 387.9548
570.5594, 387.1521
571.0415, 387.2007
571.5236, 387.6447
572.0057, 387.7104
572.4879, 387.2632
572.9700, 386.7149
573.4521, 386.3073
573.9342, 385.9859
574.4163, 385.6914
574.8984, 385.4683
575.3806, 385.1898
575.8627, 384.7619
576.3448, 384.2421
576.8269, 383.7881
577.3090, 383.1771
577.7911, 382.9035
578.2733, 383.2388
578.7554, 384.1598
579.2375, 384.6322
579.7196, 384.4486
580.2017, 384.3064
580.6838, 384.6234
581.1660, 385.3931
581.6481, 386.6479
582.1302, 388.4601
582.6123, 390.4279
583.0944, 392.1466
583.5765, 393.6230
584.0587, 394.8186
584.5408, 395.4915
585.0229, 396.2644
585.5050, 398.3676
585.9871, 399.5324
586.4692, 400.4274
586.9514, 401.0597
587.4335, 401.0641
587.9155, 401.5557
588.3976, 401.6544
588.8798, 401.6018
589.3619, 401.7585
589.8440, 401.1282
590.3261, 400.9971
590.8082, 400.4692
591.2903, 399.9174
591.7725, 398.9708
592.2546, 397.9616
592.7367, 396.5093
593.2188, 394.5964
593.7009, 392.7612
594.1830, 391.1777
594.6652, 389.6099
595.1473, 387.4536
595.6294, 384.8338
596.1115, 382.3888
596.5936, 380.4685
597.0757, 378.8336
597.5579, 377.4358
598.0400, 376.1761
598.5221, 374.4131
599.0042, 371.0770
599.4863, 367.6609
599.9684, 365.2870
600.4506, 364.2791
600.9327, 363.1182
601.4148, 361.3005
601.8969, 359.3051
602.3790, 357.4901
602.8611, 355.8184
603.3433, 354.3954
603.8254, 353.3712
604.3075, 352.4677
604.7896, 351.2001
605.2717, 349.4893
605.7538, 347.9165
606.2360, 346.6079
606.7181, 345.5853
607.2002, 345.1121
607.6823, 345.1100
608.1644, 345.0190
608.6465, 344.3664
609.1287, 343.5153
609.6108, 342.9470
610.0929, 342.6660
610.5750, 342.4705
611.0571, 342.2706
611.5392, 342.0938
612.0214, 342.0020
612.5035, 342.1174
612.9856, 342.0025
613.4677, 341.2166
613.9498, 340.3528
614.4319, 340.0112
614.9141, 340.4237
615.3962, 340.9068
615.8783, 341.3950
616.3604, 341.9164
616.8425, 342.5613
617.3246, 343.3462
617.8068, 344.0340
618.2889, 344.4852
618.7710, 344.7922
619.2531, 345.1254
619.7352, 345.4972
620.2173, 346.0077
620.6995, 346.7781
621.1816, 347.6929
621.6637, 348.6447
622.1458, 349.6370
622.6279, 350.5558
623.1100, 351.2752
623.5922, 351.9402
624.0743, 352.6608
624.5564, 353.4499
625.0385, 354.3168
625.5206, 355.3469
626.0027, 356.4049
626.4849, 357.3516
