##NAMES=Turquoise
##RRUFFID=R050554
##IDEAL CHEMISTRY=Cu^2+^Al_6_(P^5+^O_4_)_4_(OH)_8_&#183;4H_2_O
##LOCALITY=Bishop mine, Lynch Station, Campbell County, Virginia, USA
##OWNER=RRUFF
##SOURCE=Dave Bunk Minerals
##DESCRIPTION=Group of blue bladed crystals
##STATUS=The identification of this mineral has been confirmed by X-ray diffraction and chemical analysis
##URL=rruff.info/R050554
##MEASURED CHEMISTRY=(Cu_0.97_Zn_0.02_Ca_0.01_)_Σ=1_Al_6.00_(P_1.00_O_4_)_4_(OH)_8_·4H_2_O
90.92609, 0.0000000E+00
91.40820, 29.24639
91.89032, 29.11044
92.37244, 29.25397
92.85455, 29.61225
93.33667, 29.79928
93.81879, 29.13181
94.30090, 28.01181
94.78302, 27.78079
95.26514, 29.21349
95.74725, 31.30377
96.22937, 31.68145
96.71149, 30.24528
97.19360, 28.21229
97.67572, 26.22826
98.15784, 24.34313
98.63995, 23.77306
99.12207, 25.46561
99.60419, 29.02863
100.0863, 30.99501
100.5684, 31.05169
101.0505, 30.13575
101.5327, 29.28984
102.0148, 28.43263
102.4969, 27.95623
102.9790, 28.16965
103.4611, 29.31992
103.9432, 29.67367
104.4253, 28.65760
104.9075, 27.15362
105.3896, 27.04763
105.8717, 29.39915
106.3538, 31.70885
106.8359, 32.95348
107.3180, 31.76815
107.8002, 31.89066
108.2823, 34.06273
108.7644, 37.67744
109.2465, 40.59474
109.7286, 41.93836
110.2107, 43.17154
110.6929, 44.95110
111.1750, 46.62951
111.6571, 49.56820
112.1392, 54.82232
112.6213, 61.96533
113.1034, 67.88808
113.5856, 70.10462
114.0677, 72.06436
114.5498, 76.19734
115.0319, 84.06699
115.5140, 93.17992
115.9961, 102.8345
116.4783, 113.0142
116.9604, 123.9565
117.4425, 134.9245
117.9246, 147.1044
118.4067, 161.6784
118.8888, 181.1963
119.3710, 201.7791
119.8531, 220.8022
120.3352, 237.7616
120.8173, 255.8601
121.2994, 277.9054
121.7815, 302.2552
122.2637, 326.1546
122.7458, 346.9836
123.2279, 367.1197
123.7100, 388.7509
124.1921, 412.1908
124.6742, 436.7784
125.1564, 461.9803
125.6385, 487.8441
126.1206, 514.6371
126.6027, 544.3102
127.0848, 574.5256
127.5669, 601.2071
128.0491, 623.9746
128.5312, 642.5588
129.0133, 655.6550
129.4954, 663.4713
129.9775, 669.0286
130.4596, 672.6219
130.9418, 675.1876
131.4239, 680.4454
131.9060, 688.9641
132.3881, 700.7311
132.8702, 715.2584
133.3523, 732.5300
133.8345, 753.3789
134.3166, 778.9320
134.7987, 809.4363
135.2808, 842.1302
135.7629, 876.5360
136.2450, 913.1726
136.7272, 953.6609
137.2093, 998.4938
137.6914, 1046.309
138.1735, 1097.079
138.6556, 1151.540
139.1377, 1203.911
139.6199, 1255.478
140.1020, 1305.762
140.5841, 1343.160
141.0662, 1367.747
141.5483, 1378.844
142.0304, 1374.127
142.5126, 1350.121
142.9947, 1317.266
143.4768, 1273.254
143.9589, 1212.744
144.4410, 1159.632
144.9231, 1112.348
145.4053, 1072.524
145.8874, 1042.222
146.3695, 1024.228
146.8516, 1011.536
147.3337, 1002.413
147.8158, 996.7929
148.2980, 994.1552
148.7801, 993.9138
149.2622, 996.6082
149.7443, 1003.356
150.2264, 1016.599
150.7085, 1031.735
151.1907, 1047.038
151.6728, 1062.188
152.1549, 1078.468
152.6370, 1096.789
153.1191, 1116.365
153.6012, 1134.789
154.0834, 1155.762
154.5655, 1172.589
155.0476, 1182.707
155.5297, 1184.907
156.0118, 1181.448
156.4939, 1171.456
156.9761, 1155.820
157.4582, 1137.680
157.9403, 1115.155
158.4224, 1092.011
158.9045, 1070.316
159.3866, 1050.626
159.8688, 1032.557
160.3509, 1015.734
160.8330, 1000.393
161.3151, 987.7258
161.7972, 979.0042
162.2793, 972.6368
162.7615, 967.4229
163.2436, 964.3475
163.7257, 961.0963
164.2078, 955.9495
164.6899, 949.2896
165.1720, 943.8810
165.6541, 940.8901
166.1363, 939.8343
166.6184, 940.2385
167.1005, 941.1319
167.5826, 944.0236
168.0647, 949.8264
168.5468, 958.4828
169.0290, 969.4750
169.5111, 982.8954
169.9932, 998.3393
170.4753, 1015.352
170.9574, 1032.224
171.4395, 1051.330
171.9217, 1074.763
172.4038, 1102.519
172.8859, 1133.767
173.3680, 1168.901
173.8501, 1206.878
174.3322, 1246.529
174.8144, 1290.380
175.2965, 1334.588
175.7786, 1376.519
176.2607, 1416.960
176.7428, 1446.774
177.2249, 1459.803
177.7071, 1456.036
178.1892, 1435.715
178.6713, 1391.545
179.1534, 1332.842
179.6355, 1272.202
180.1176, 1208.755
180.5998, 1149.068
181.0819, 1097.477
181.5640, 1054.491
182.0461, 1020.107
182.5282, 997.5462
183.0103, 983.5624
183.4925, 971.1946
183.9746, 960.1582
184.4567, 951.3430
184.9388, 946.0045
185.4209, 943.9252
185.9030, 944.1139
186.3852, 947.1916
186.8673, 952.2937
187.3494, 956.1321
187.8315, 958.1777
188.3136, 960.3450
188.7957, 965.4979
189.2779, 973.4567
189.7600, 982.3832
190.2421, 991.0315
190.7242, 999.6389
191.2063, 1009.922
191.6884, 1022.025
192.1706, 1035.486
192.6527, 1050.349
193.1348, 1066.559
193.6169, 1082.970
194.0990, 1098.631
194.5811, 1113.637
195.0633, 1130.931
195.5454, 1150.987
196.0275, 1172.642
196.5096, 1192.857
196.9917, 1211.549
197.4738, 1230.742
197.9560, 1252.353
198.4381, 1276.316
198.9202, 1297.632
199.4023, 1315.657
199.8844, 1331.462
200.3665, 1346.902
200.8487, 1362.219
201.3308, 1376.422
201.8129, 1390.829
202.2950, 1406.168
202.7771, 1412.570
203.2592, 1409.426
203.7414, 1397.549
204.2235, 1376.333
204.7056, 1343.427
205.1877, 1310.991
205.6698, 1284.724
206.1519, 1264.883
206.6341, 1249.243
207.1162, 1237.800
207.5983, 1230.564
208.0804, 1228.307
208.5625, 1231.939
209.0446, 1237.744
209.5268, 1244.481
210.0089, 1252.638
210.4910, 1259.205
210.9731, 1263.304
211.4552, 1266.367
211.9373, 1271.516
212.4195, 1278.658
212.9016, 1288.035
213.3837, 1299.901
213.8658, 1314.629
214.3479, 1330.652
214.8300, 1347.844
215.3121, 1366.464
215.7943, 1387.687
216.2764, 1412.718
216.7585, 1437.404
217.2406, 1460.688
217.7227, 1483.327
218.2048, 1501.233
218.6870, 1513.741
219.1691, 1521.751
219.6512, 1527.530
220.1333, 1530.917
220.6154, 1532.342
221.0975, 1531.236
221.5797, 1525.326
222.0618, 1523.368
222.5439, 1524.984
223.0260, 1530.747
223.5081, 1542.043
223.9902, 1558.843
224.4724, 1581.222
224.9545, 1608.413
225.4366, 1639.854
225.9187, 1678.882
226.4008, 1726.584
226.8829, 1781.739
227.3651, 1842.088
227.8472, 1909.042
228.3293, 1980.072
228.8114, 2055.458
229.2935, 2137.924
229.7757, 2216.419
230.2578, 2294.071
230.7399, 2365.419
231.2220, 2421.690
231.7041, 2465.642
232.1862, 2489.167
232.6684, 2489.376
233.1505, 2465.563
233.6326, 2419.774
234.1147, 2347.324
234.5968, 2255.353
235.0789, 2156.716
235.5611, 2045.703
236.0432, 1937.678
236.5253, 1835.080
237.0074, 1737.793
237.4895, 1652.172
237.9716, 1579.111
238.4538, 1517.163
238.9359, 1464.424
239.4180, 1421.304
239.9001, 1385.909
240.3822, 1358.516
240.8643, 1340.869
241.3465, 1324.157
241.8286, 1307.488
242.3107, 1292.370
242.7928, 1281.126
243.2749, 1275.129
243.7570, 1270.682
244.2392, 1267.471
244.7213, 1266.122
245.2034, 1261.926
245.6855, 1253.783
246.1676, 1243.700
246.6497, 1234.091
247.1319, 1225.013
247.6140, 1216.366
248.0961, 1208.333
248.5782, 1201.025
249.0603, 1193.013
249.5424, 1183.645
250.0246, 1174.151
250.5067, 1165.818
250.9888, 1159.190
251.4709, 1152.615
251.9530, 1145.411
252.4351, 1137.407
252.9173, 1131.161
253.3994, 1126.491
253.8815, 1123.582
254.3636, 1122.780
254.8457, 1124.739
255.3278, 1127.236
255.8100, 1129.381
256.2921, 1131.265
256.7742, 1136.476
257.2563, 1146.584
257.7384, 1157.879
258.2205, 1167.049
258.7026, 1173.369
259.1848, 1179.784
259.6669, 1187.724
260.1490, 1196.586
260.6311, 1200.391
261.1132, 1198.402
261.5953, 1192.654
262.0775, 1184.595
262.5596, 1174.135
263.0417, 1161.426
263.5238, 1146.167
264.0059, 1128.672
264.4880, 1109.404
264.9702, 1087.780
265.4523, 1065.707
265.9344, 1044.151
266.4165, 1022.504
266.8986, 1002.839
267.3807, 985.0212
267.8629, 969.2474
268.3450, 956.2062
268.8271, 946.3558
269.3092, 937.7953
269.7913, 929.0030
270.2734, 919.5217
270.7556, 912.5535
271.2377, 908.6872
271.7198, 907.0201
272.2019, 905.5353
272.6840, 904.2806
273.1661, 903.1146
273.6483, 902.1598
274.1304, 901.5527
274.6125, 900.0254
275.0946, 897.3612
275.5767, 894.0176
276.0588, 890.6547
276.5410, 887.1937
277.0231, 884.0369
277.5052, 881.5341
277.9873, 879.6695
278.4694, 877.3594
278.9515, 874.3806
279.4337, 871.3690
279.9158, 869.1426
280.3979, 867.7075
280.8800, 866.9680
281.3621, 866.9509
281.8442, 867.6384
282.3264, 868.9029
282.8085, 870.7927
283.2906, 873.1548
283.7727, 875.7480
284.2548, 878.5806
284.7369, 882.0751
285.2191, 886.5618
285.7012, 891.7814
286.1833, 896.8420
286.6654, 901.7300
287.1475, 906.5936
287.6296, 911.2831
288.1118, 915.8857
288.5939, 921.3289
289.0760, 928.4648
289.5581, 936.0742
290.0402, 940.8363
290.5223, 942.6777
291.0045, 944.1727
291.4866, 947.4264
291.9687, 952.1121
292.4508, 956.8068
292.9329, 961.5123
293.4150, 965.7490
293.8972, 968.4310
294.3793, 969.7070
294.8614, 971.2265
295.3435, 974.1066
295.8256, 978.0800
296.3077, 982.3260
296.7899, 986.6185
297.2720, 991.4594
297.7541, 997.6072
298.2362, 1004.872
298.7183, 1012.552
299.2004, 1021.100
299.6826, 1029.581
300.1647, 1036.151
300.6468, 1040.421
301.1289, 1044.040
301.6110, 1049.471
302.0931, 1055.695
302.5753, 1060.196
303.0574, 1061.599
303.5395, 1060.657
304.0216, 1057.798
304.5037, 1052.984
304.9858, 1047.832
305.4680, 1043.404
305.9501, 1039.604
306.4322, 1036.282
306.9143, 1033.328
307.3964, 1030.860
307.8785, 1028.762
308.3607, 1027.111
308.8428, 1026.422
309.3249, 1027.083
309.8070, 1028.881
310.2891, 1031.570
310.7712, 1035.246
311.2534, 1039.607
311.7355, 1044.486
312.2176, 1049.901
312.6997, 1055.803
313.1818, 1062.135
313.6639, 1068.856
314.1461, 1075.999
314.6282, 1083.541
315.1103, 1091.433
315.5924, 1099.909
316.0745, 1108.680
316.5566, 1117.288
317.0388, 1125.245
317.5209, 1133.120
318.0030, 1141.552
318.4851, 1150.968
318.9672, 1159.495
319.4493, 1166.608
319.9315, 1172.425
320.4136, 1177.184
320.8957, 1180.047
321.3778, 1182.621
321.8599, 1185.843
322.3420, 1189.917
322.8242, 1192.655
323.3063, 1191.747
323.7884, 1190.191
324.2705, 1190.598
324.7526, 1195.469
325.2347, 1200.139
325.7169, 1203.168
326.1990, 1204.772
326.6811, 1207.512
327.1632, 1211.703
327.6453, 1216.979
328.1274, 1223.143
328.6096, 1231.768
329.0917, 1239.341
329.5738, 1244.565
330.0559, 1248.497
330.5380, 1254.699
331.0201, 1264.502
331.5023, 1275.146
331.9844, 1285.928
332.4665, 1297.920
332.9486, 1307.103
333.4307, 1312.515
333.9128, 1315.563
334.3950, 1318.594
334.8771, 1322.291
335.3592, 1324.741
335.8413, 1325.348
336.3234, 1324.065
336.8055, 1321.652
337.2877, 1318.741
337.7698, 1313.855
338.2519, 1304.592
338.7340, 1289.771
339.2161, 1275.476
339.6982, 1263.235
340.1803, 1252.639
340.6624, 1242.099
341.1446, 1231.664
341.6267, 1220.739
342.1088, 1208.050
342.5909, 1193.604
343.0730, 1180.491
343.5551, 1169.553
344.0373, 1159.818
344.5194, 1149.159
345.0015, 1137.410
345.4836, 1126.225
345.9657, 1117.299
346.4478, 1110.029
346.9300, 1100.879
347.4121, 1089.228
347.8942, 1076.925
348.3763, 1065.742
348.8584, 1055.785
349.3405, 1047.322
349.8227, 1040.652
350.3048, 1035.538
350.7869, 1031.795
351.2690, 1029.466
351.7511, 1027.552
352.2332, 1024.541
352.7154, 1021.306
353.1975, 1019.769
353.6796, 1021.019
354.1617, 1023.709
354.6438, 1026.604
355.1259, 1029.679
355.6081, 1032.834
356.0902, 1035.933
356.5723, 1039.105
357.0544, 1042.492
357.5365, 1046.000
358.0186, 1049.866
358.5008, 1054.426
358.9829, 1059.447
359.4650, 1064.437
359.9471, 1069.829
360.4292, 1074.646
360.9113, 1078.106
361.3935, 1079.964
361.8756, 1081.589
362.3577, 1083.564
362.8398, 1085.617
363.3219, 1087.438
363.8040, 1090.655
364.2862, 1092.000
364.7683, 1089.380
365.2504, 1083.033
365.7325, 1077.873
366.2146, 1076.615
366.6967, 1075.701
367.1789, 1072.921
367.6610, 1065.801
368.1431, 1059.470
368.6252, 1054.689
369.1073, 1050.967
369.5894, 1046.824
370.0716, 1041.839
370.5537, 1036.815
371.0358, 1031.702
371.5179, 1025.704
372.0000, 1022.150
372.4821, 1022.370
372.9643, 1024.134
373.4464, 1024.281
373.9285, 1021.550
374.4106, 1019.831
374.8927, 1020.055
375.3748, 1022.182
375.8570, 1025.073
376.3391, 1028.907
376.8212, 1033.146
377.3033, 1037.411
377.7854, 1041.659
378.2675, 1045.977
378.7497, 1050.169
379.2318, 1054.669
379.7139, 1061.386
380.1960, 1070.530
380.6781, 1078.842
381.1602, 1083.541
381.6424, 1085.347
382.1245, 1089.301
382.6066, 1096.199
383.0887, 1103.078
383.5708, 1105.894
384.0529, 1105.276
384.5351, 1104.403
385.0172, 1105.484
385.4993, 1106.665
385.9814, 1104.108
386.4635, 1097.974
386.9456, 1091.307
387.4278, 1086.366
387.9099, 1082.629
388.3920, 1079.314
388.8741, 1076.583
389.3562, 1073.607
389.8383, 1069.547
390.3205, 1064.581
390.8026, 1059.329
391.2847, 1053.258
391.7668, 1047.588
392.2489, 1043.309
392.7310, 1040.734
393.2132, 1038.661
393.6953, 1037.085
394.1774, 1035.530
394.6595, 1033.400
395.1416, 1029.025
395.6237, 1025.508
396.1059, 1024.250
396.5880, 1025.155
397.0701, 1026.182
397.5522, 1027.068
398.0343, 1027.852
398.5164, 1028.544
398.9986, 1028.466
399.4807, 1029.201
399.9628, 1030.991
400.4449, 1033.612
400.9270, 1036.596
401.4091, 1040.270
401.8913, 1043.839
402.3734, 1046.882
402.8555, 1049.140
403.3376, 1052.349
403.8197, 1056.669
404.3018, 1061.742
404.7840, 1067.260
405.2661, 1073.332
405.7482, 1079.463
406.2303, 1085.501
406.7124, 1091.538
407.1945, 1098.220
407.6767, 1105.563
408.1588, 1113.406
408.6409, 1121.458
409.1230, 1129.746
409.6051, 1139.238
410.0872, 1150.073
410.5694, 1162.114
411.0515, 1175.212
411.5336, 1189.328
412.0157, 1203.878
412.4978, 1219.017
412.9799, 1234.337
413.4621, 1249.418
413.9442, 1264.377
414.4263, 1278.171
414.9084, 1290.165
415.3905, 1300.523
415.8727, 1309.882
416.3548, 1319.114
416.8369, 1326.246
417.3190, 1329.545
417.8011, 1329.442
418.2832, 1327.083
418.7654, 1321.588
419.2475, 1315.013
419.7296, 1308.195
420.2117, 1300.776
420.6938, 1295.586
421.1759, 1294.075
421.6581, 1295.197
422.1402, 1297.849
422.6223, 1302.969
423.1044, 1308.312
423.5865, 1314.091
424.0686, 1319.974
424.5508, 1323.750
425.0329, 1324.675
425.5150, 1323.824
425.9971, 1321.813
426.4792, 1319.620
426.9613, 1314.203
427.4435, 1304.384
427.9256, 1292.049
428.4077, 1279.783
428.8898, 1266.291
429.3719, 1255.487
429.8540, 1248.552
430.3362, 1245.330
430.8183, 1243.488
431.3004, 1243.145
431.7825, 1243.890
432.2646, 1245.217
432.7467, 1247.109
433.2289, 1250.916
433.7110, 1257.327
434.1931, 1264.705
434.6752, 1269.907
435.1573, 1273.087
435.6394, 1276.024
436.1216, 1279.661
436.6036, 1283.710
437.0858, 1287.502
437.5679, 1291.036
438.0500, 1294.411
438.5321, 1297.980
439.0142, 1301.406
439.4963, 1304.026
439.9785, 1305.076
440.4606, 1306.081
440.9427, 1308.112
441.4248, 1311.082
441.9069, 1314.699
442.3890, 1319.227
442.8712, 1324.098
443.3533, 1328.876
443.8354, 1333.406
444.3175, 1338.447
444.7996, 1344.597
445.2817, 1351.178
445.7639, 1357.530
446.2460, 1363.217
446.7281, 1369.006
447.2102, 1375.212
447.6923, 1381.708
448.1744, 1387.499
448.6566, 1392.926
449.1387, 1397.240
449.6208, 1399.916
450.1029, 1400.274
450.5850, 1401.127
451.0671, 1402.882
451.5493, 1404.700
452.0314, 1405.206
452.5135, 1404.044
452.9956, 1403.113
453.4777, 1402.803
453.9598, 1403.147
454.4420, 1404.162
454.9241, 1405.794
455.4062, 1408.555
455.8883, 1412.875
456.3704, 1418.650
456.8525, 1425.372
457.3347, 1432.821
457.8168, 1441.392
458.2989, 1451.084
458.7810, 1462.173
459.2631, 1475.137
459.7452, 1491.404
460.2274, 1509.165
460.7095, 1526.382
461.1916, 1543.316
461.6737, 1560.168
462.1558, 1576.920
462.6379, 1593.951
463.1201, 1611.760
463.6022, 1631.157
464.0843, 1650.063
464.5664, 1668.082
465.0485, 1684.991
465.5306, 1700.446
466.0128, 1714.837
466.4949, 1727.280
466.9770, 1737.335
467.4591, 1744.959
467.9412, 1750.822
468.4233, 1756.516
468.9055, 1759.207
469.3876, 1757.087
469.8697, 1748.236
470.3518, 1739.016
470.8339, 1730.338
471.3160, 1720.748
471.7982, 1707.107
472.2803, 1688.667
472.7624, 1669.101
473.2445, 1649.642
473.7266, 1630.157
474.2087, 1610.169
474.6909, 1589.654
475.1730, 1569.309
475.6551, 1548.949
476.1372, 1529.208
476.6193, 1513.037
477.1014, 1501.446
477.5836, 1492.174
478.0657, 1482.856
478.5478, 1473.649
479.0299, 1465.199
479.5120, 1457.227
479.9941, 1450.407
480.4763, 1445.675
480.9584, 1442.911
481.4405, 1441.064
481.9226, 1440.677
482.4047, 1440.339
482.8868, 1438.714
483.3690, 1434.547
483.8511, 1431.215
484.3332, 1431.390
484.8153, 1432.670
485.2974, 1431.135
485.7795, 1423.819
486.2617, 1416.202
486.7438, 1409.267
487.2259, 1402.990
487.7080, 1397.307
488.1901, 1392.352
488.6722, 1387.760
489.1544, 1383.302
489.6365, 1379.092
490.1186, 1374.805
490.6007, 1370.509
491.0828, 1366.013
491.5649, 1360.798
492.0471, 1354.871
492.5292, 1348.942
493.0113, 1343.323
493.4934, 1337.880
493.9755, 1331.903
494.4576, 1325.474
494.9398, 1319.552
495.4219, 1315.610
495.9040, 1312.495
496.3861, 1308.299
496.8682, 1302.687
497.3503, 1296.249
497.8325, 1288.844
498.3146, 1281.045
498.7967, 1273.588
499.2788, 1267.199
499.7609, 1260.933
500.2430, 1254.393
500.7252, 1247.652
501.2073, 1240.803
501.6894, 1233.799
502.1715, 1226.892
502.6536, 1220.078
503.1357, 1213.266
503.6179, 1207.014
504.1000, 1201.830
504.5821, 1196.874
505.0642, 1191.233
505.5463, 1184.377
506.0284, 1178.007
506.5106, 1172.527
506.9927, 1167.655
507.4748, 1162.551
507.9569, 1157.208
508.4390, 1151.564
508.9211, 1145.005
509.4033, 1137.825
509.8854, 1132.892
510.3675, 1130.409
510.8496, 1128.441
511.3317, 1125.264
511.8138, 1121.082
512.2960, 1116.404
512.7781, 1111.003
513.2602, 1105.718
513.7423, 1101.748
514.2244, 1098.594
514.7065, 1095.026
515.1887, 1090.570
515.6708, 1085.401
516.1529, 1079.223
516.6350, 1072.078
517.1171, 1065.732
517.5992, 1061.551
518.0814, 1057.944
518.5635, 1053.844
519.0456, 1048.244
519.5277, 1043.610
520.0098, 1040.618
520.4919, 1038.427
520.9741, 1035.667
521.4562, 1031.407
521.9383, 1028.549
522.4204, 1028.134
522.9025, 1029.718
523.3846, 1030.610
523.8668, 1030.791
524.3489, 1030.282
524.8310, 1028.484
525.3131, 1025.676
525.7952, 1024.423
526.2773, 1024.885
526.7595, 1026.527
527.2416, 1029.652
527.7237, 1033.489
528.2058, 1035.930
528.6879, 1035.392
529.1700, 1034.563
529.6522, 1035.906
530.1343, 1039.091
530.6164, 1043.189
531.0985, 1048.420
531.5806, 1053.875
532.0627, 1058.613
532.5449, 1062.454
533.0270, 1067.550
533.5091, 1075.263
533.9912, 1083.923
534.4733, 1092.258
534.9554, 1100.850
535.4376, 1108.169
535.9197, 1112.689
536.4018, 1116.614
536.8839, 1123.923
537.3660, 1136.028
537.8481, 1147.826
538.3303, 1157.898
538.8124, 1166.611
539.2945, 1176.141
539.7766, 1186.525
540.2587, 1197.427
540.7408, 1209.030
541.2230, 1221.078
541.7051, 1232.095
542.1872, 1241.921
542.6693, 1251.298
543.1514, 1261.391
543.6335, 1271.562
544.1157, 1280.988
544.5978, 1289.985
545.0799, 1297.344
545.5620, 1301.164
546.0441, 1302.576
546.5262, 1304.373
547.0084, 1308.650
547.4905, 1312.557
547.9726, 1315.088
548.4547, 1316.139
548.9368, 1315.882
549.4189, 1314.148
549.9011, 1311.235
550.3832, 1307.262
550.8653, 1302.080
551.3474, 1296.046
551.8295, 1289.003
552.3116, 1281.359
552.7938, 1273.933
553.2759, 1266.851
553.7580, 1258.688
554.2401, 1248.788
554.7222, 1237.813
555.2043, 1227.027
555.6865, 1216.576
556.1686, 1206.973
556.6507, 1198.843
557.1328, 1191.709
557.6149, 1184.356
558.0970, 1176.722
558.5792, 1170.521
559.0613, 1168.822
559.5434, 1168.357
560.0255, 1165.467
560.5076, 1156.783
560.9897, 1150.273
561.4719, 1149.879
561.9540, 1153.029
562.4361, 1155.431
562.9182, 1154.684
563.4003, 1155.262
563.8824, 1158.292
564.3646, 1163.427
564.8467, 1168.662
565.3288, 1174.515
565.8109, 1179.353
566.2930, 1181.768
566.7751, 1181.583
567.2573, 1183.424
567.7394, 1187.539
568.2215, 1192.555
568.7036, 1197.436
569.1857, 1202.093
569.6678, 1206.469
570.1500, 1210.666
570.6321, 1214.196
571.1142, 1216.567
571.5963, 1217.806
572.0784, 1217.970
572.5605, 1215.811
573.0427, 1213.729
573.5248, 1213.543
574.0069, 1214.956
574.4890, 1215.772
574.9711, 1214.985
575.4532, 1213.715
575.9354, 1212.186
576.4175, 1209.782
576.8996, 1209.516
577.3817, 1212.621
577.8638, 1216.654
578.3459, 1218.730
578.8281, 1217.201
579.3102, 1220.735
579.7923, 1231.362
580.2744, 1245.785
580.7565, 1257.311
581.2386, 1266.156
581.7208, 1276.227
582.2029, 1289.532
582.6850, 1304.732
583.1671, 1319.866
583.6492, 1335.015
584.1313, 1350.586
584.6134, 1366.400
585.0955, 1383.229
585.5776, 1402.416
