##NAMES=Turquoise
##RRUFFID=R050418
##IDEAL CHEMISTRY=Cu^2+^Al_6_(P^5+^O_4_)_4_(OH)_8_&#183;4H_2_O
##LOCALITY=Panoche Valley, San Benito County, California, USA
##OWNER=RRUFF
##SOURCE=Marcus Origlieri
##DESCRIPTION=Pale-blue botryoidal crust on colorless quartz
##STATUS=The identification of this mineral has been determined only by Raman spectroscopy
##URL=rruff.info/R050418
98.578, 293523.688
99.060, 293255.594
99.542, 294294.406
100.024, 296359.406
100.506, 298243.500
100.988, 299806.312
101.470, 301534.000
101.953, 304112.094
102.435, 307979.594
102.917, 311076.812
103.399, 312820.406
103.881, 313175.406
104.363, 313430.000
104.845, 313512.906
105.327, 313563.312
105.810, 313773.688
106.292, 314259.188
106.774, 314734.312
107.256, 315234.094
107.738, 316056.000
108.220, 315998.594
108.702, 314520.000
109.184, 312245.406
109.666, 310428.500
110.149, 309657.688
110.631, 308842.312
111.113, 307626.594
111.595, 305721.188
112.077, 303848.406
112.559, 302007.812
113.041, 300215.312
113.523, 298571.094
114.006, 296852.812
114.488, 295442.812
114.970, 294552.000
115.452, 294600.500
115.934, 294737.594
116.416, 294903.594
116.898, 295045.000
117.380, 294879.188
117.862, 293871.906
118.345, 292701.406
118.827, 291951.188
119.309, 292442.500
119.791, 292852.312
120.273, 292284.406
120.755, 290784.188
121.237, 289455.688
121.719, 288863.000
122.201, 288854.688
122.684, 289226.406
123.166, 290270.000
123.648, 291433.812
124.130, 292352.312
124.612, 293019.906
125.094, 293221.000
125.576, 292465.406
126.058, 291064.094
126.540, 289761.812
127.023, 289032.906
127.505, 288619.906
127.987, 288166.000
128.469, 287677.188
128.951, 287018.500
129.433, 285840.594
129.915, 284246.812
130.398, 282827.094
130.880, 281964.094
131.362, 281565.500
131.844, 281357.000
132.326, 281420.312
132.808, 281460.906
133.290, 280833.312
133.772, 279520.000
134.254, 278164.812
134.736, 277145.594
135.219, 276453.312
135.701, 276139.094
136.183, 276357.812
136.665, 276856.188
137.147, 276816.688
137.629, 276134.312
138.111, 275311.688
138.594, 274757.906
139.076, 274527.312
139.558, 274218.406
140.040, 273750.094
140.522, 273138.094
141.004, 272543.812
141.486, 272009.500
141.968, 271410.688
142.450, 270569.000
142.932, 269258.906
143.415, 268282.812
143.897, 268019.688
144.379, 268530.406
144.861, 268123.812
145.343, 266346.312
145.825, 264040.812
146.307, 262136.297
146.790, 260581.500
147.272, 259485.797
147.754, 259021.297
148.236, 259401.500
148.718, 259376.703
149.200, 258673.406
149.682, 257673.797
150.164, 256862.406
150.646, 256035.297
151.128, 255602.203
151.611, 255825.297
152.093, 257184.406
152.575, 257938.406
153.057, 257807.094
153.539, 257086.094
154.021, 256254.703
154.503, 255164.203
154.985, 254112.203
155.468, 253214.406
155.950, 252571.406
156.432, 251891.594
156.914, 251030.500
157.396, 250107.000
157.878, 249361.500
158.360, 249141.203
158.842, 248888.594
159.324, 248288.094
159.807, 247001.500
160.289, 245889.000
160.771, 245267.203
161.253, 245009.203
161.735, 244778.000
162.217, 244601.797
162.699, 244328.906
163.181, 243829.500
163.663, 242843.000
164.146, 241966.406
164.628, 241445.797
165.110, 241240.703
165.592, 241208.797
166.074, 241435.203
166.556, 241734.000
167.038, 241949.000
167.520, 242055.297
168.003, 242046.703
168.485, 241869.797
168.967, 241551.797
169.449, 241230.797
169.931, 240987.203
170.413, 240788.797
170.895, 240595.297
171.377, 240317.094
171.859, 240110.703
172.342, 240155.297
172.824, 240427.594
173.306, 240730.797
173.788, 241089.406
174.270, 241365.594
174.752, 241335.203
175.234, 240706.094
175.717, 239884.203
176.199, 239336.906
176.681, 239049.406
177.163, 238826.406
177.645, 238629.797
178.127, 238377.797
178.609, 237891.797
179.091, 236844.203
179.573, 235635.203
180.055, 234990.203
180.538, 234904.594
181.020, 234919.500
181.502, 234498.000
181.984, 233800.406
182.466, 233328.500
182.948, 233365.406
183.430, 233731.297
183.913, 234081.297
184.395, 234425.203
184.877, 234695.797
185.359, 234699.203
185.841, 234519.406
186.323, 234568.000
186.805, 235243.203
187.287, 236279.500
187.769, 236768.297
188.251, 236653.797
188.734, 236319.297
189.216, 236159.797
189.698, 236168.703
190.180, 236296.203
190.662, 236646.797
191.144, 237136.297
191.626, 237267.297
192.108, 236966.594
192.591, 236573.297
193.073, 236634.203
193.555, 237141.906
194.037, 237521.406
194.519, 237395.406
195.001, 236840.203
195.483, 236641.406
195.965, 236855.203
196.447, 237291.797
196.930, 237736.000
197.412, 238196.406
197.894, 238533.297
198.376, 238643.500
198.858, 238530.297
199.340, 238414.406
199.822, 238259.406
200.304, 238173.000
200.786, 238400.406
201.269, 239000.906
201.751, 239515.406
202.233, 239693.000
202.715, 239509.094
203.197, 239494.500
203.679, 239719.797
204.161, 240008.703
204.643, 240030.094
205.126, 239726.406
205.608, 239413.797
206.090, 239235.594
206.572, 239213.203
207.054, 239133.297
207.536, 238976.500
208.018, 238785.203
208.500, 238656.094
208.982, 238630.000
209.465, 238533.000
209.947, 238252.406
210.429, 237740.406
210.911, 237383.406
211.393, 237241.797
211.875, 237195.906
212.357, 237038.000
212.839, 236768.500
213.322, 236380.094
213.804, 235868.906
214.286, 235228.203
214.768, 234467.406
215.250, 233513.203
215.732, 232500.297
216.214, 231668.797
216.696, 231078.000
217.178, 230527.297
217.661, 229898.000
218.143, 229097.797
218.625, 228636.594
219.107, 228665.797
219.589, 228926.094
220.071, 228945.297
220.553, 228659.000
221.036, 228259.500
221.518, 227827.797
222.000, 227378.703
222.482, 226785.094
222.964, 225904.203
223.446, 224977.297
223.928, 224493.406
224.410, 224663.594
224.892, 224876.297
225.374, 224902.406
225.857, 224671.906
226.339, 224549.797
226.821, 224578.406
227.303, 224689.297
227.785, 224765.406
228.267, 224788.297
228.749, 224809.500
229.231, 224850.797
229.714, 224925.797
230.196, 224965.797
230.678, 224962.797
231.160, 224929.906
231.642, 224884.797
232.124, 224815.703
232.606, 224759.000
233.088, 224776.500
233.570, 224949.703
234.053, 224792.594
234.535, 224143.094
235.017, 223273.203
235.499, 222580.094
235.981, 222092.203
236.463, 221726.703
236.945, 221509.297
237.427, 221507.406
237.910, 221299.094
238.392, 220795.500
238.874, 220150.594
239.356, 219563.297
239.838, 219026.703
240.320, 218559.906
240.802, 218171.594
241.284, 217866.203
241.766, 217614.906
242.249, 217448.297
242.731, 217310.906
243.213, 217133.406
243.695, 216893.703
244.177, 216653.703
244.659, 216438.500
245.141, 216255.297
245.623, 216009.906
246.105, 215664.500
246.588, 215289.094
247.070, 214953.000
247.552, 214629.703
248.034, 214400.797
248.516, 214337.000
248.998, 214454.703
249.480, 214382.703
249.962, 214029.703
250.445, 213582.906
250.927, 213230.094
251.409, 213020.094
251.891, 212800.297
252.373, 212514.094
252.855, 212161.797
253.337, 211968.797
253.819, 212027.297
254.301, 212137.406
254.784, 212116.000
255.266, 211902.594
255.748, 211698.000
256.230, 211557.297
256.712, 211467.797
257.194, 211261.094
257.676, 210872.000
258.158, 210459.906
258.641, 210142.500
259.123, 209937.703
259.605, 209786.906
260.087, 209711.500
260.569, 209690.094
261.051, 209568.000
261.533, 209272.297
262.015, 208993.594
262.497, 208879.594
262.980, 209013.297
263.462, 209058.203
263.944, 208965.203
264.426, 208759.594
264.908, 208536.406
265.390, 208267.797
265.872, 208032.594
266.354, 207872.703
266.837, 207796.703
267.319, 207777.797
267.801, 207848.297
268.283, 207959.703
268.765, 207944.500
269.247, 207745.203
269.729, 207568.906
270.211, 207542.406
270.694, 207701.594
271.176, 207822.297
271.658, 207898.500
272.140, 207928.406
272.622, 207889.594
273.104, 207755.297
273.586, 207644.594
274.068, 207631.406
274.550, 207734.406
275.033, 207767.500
275.515, 207697.906
275.997, 207604.203
276.479, 207644.797
276.961, 207848.797
277.443, 208037.000
277.925, 208146.297
278.407, 208177.703
278.889, 208124.094
279.372, 207965.906
279.854, 207765.406
280.336, 207579.500
280.818, 207400.094
281.300, 207325.500
281.782, 207430.594
282.264, 207687.906
282.746, 207889.594
283.228, 208046.703
283.711, 208108.906
284.193, 207953.203
284.675, 207578.797
285.157, 207302.406
285.639, 207237.500
286.121, 207338.406
286.603, 207438.297
287.086, 207540.594
287.568, 207617.406
288.050, 207590.000
288.532, 207477.406
289.014, 207504.797
289.496, 207787.703
289.978, 208201.594
290.460, 208375.500
290.942, 208307.406
291.424, 208235.906
291.907, 208397.797
292.389, 208738.500
292.871, 208973.906
293.353, 209028.094
293.835, 208996.797
294.317, 209049.000
294.799, 209178.797
295.281, 209324.000
295.764, 209426.203
296.246, 209510.797
296.728, 209660.297
297.210, 209902.297
297.692, 210168.500
298.174, 210362.094
298.656, 210493.297
299.138, 210599.297
299.621, 210681.906
300.103, 210757.094
300.585, 210859.906
301.067, 210998.406
301.549, 211136.703
302.031, 211207.797
302.513, 211242.094
302.995, 211318.203
303.477, 211553.500
303.960, 211817.297
304.442, 211909.406
304.924, 211815.203
305.406, 211719.000
305.888, 211794.297
306.370, 211975.094
306.852, 212150.203
307.334, 212342.000
307.816, 212464.406
308.299, 212359.297
308.781, 212047.797
309.263, 211811.797
309.745, 211890.500
310.227, 212138.594
310.709, 212379.797
311.191, 212558.094
311.673, 212716.500
312.155, 212875.906
312.638, 213036.797
313.120, 213201.203
313.602, 213400.703
314.084, 213589.297
314.566, 213721.094
315.048, 213740.000
315.530, 213784.906
316.013, 213978.203
316.495, 214253.406
316.977, 214448.594
317.459, 214390.797
317.941, 214309.797
318.423, 214352.906
318.905, 214588.500
319.387, 214805.000
319.869, 214898.594
320.352, 214934.094
320.834, 215011.594
321.316, 215233.906
321.798, 215438.203
322.280, 215562.406
322.762, 215598.594
323.244, 215584.297
323.726, 215465.703
324.208, 215325.500
324.691, 215246.906
325.173, 215265.906
325.655, 215323.406
326.137, 215429.406
326.619, 215583.797
327.101, 215698.203
327.583, 215703.594
328.065, 215705.406
328.547, 215774.094
329.030, 215969.703
329.512, 216160.000
329.994, 216366.703
330.476, 216570.797
330.958, 216680.906
331.440, 216622.797
331.922, 216546.094
332.404, 216520.094
332.887, 216578.203
333.369, 216623.703
333.851, 216651.797
334.333, 216668.594
334.815, 216695.703
335.297, 216770.500
335.779, 216786.500
336.261, 216689.500
336.743, 216451.297
337.226, 216255.500
337.708, 216115.000
338.190, 215999.203
338.672, 215860.703
339.154, 215689.797
339.636, 215530.406
340.118, 215396.703
340.600, 215287.000
341.083, 215173.297
341.565, 215065.297
342.047, 214927.703
342.529, 214693.703
343.011, 214356.094
343.493, 214116.797
343.975, 214044.000
344.457, 214073.594
344.940, 214046.094
345.422, 213963.094
345.904, 213806.000
346.386, 213532.500
346.868, 213160.906
347.350, 212799.703
347.832, 212441.000
348.314, 212147.797
348.796, 212072.000
349.279, 212184.203
349.761, 212289.203
350.243, 212266.203
350.725, 212164.000
351.207, 212078.297
351.689, 212012.500
352.171, 211972.703
352.653, 211961.000
353.135, 211979.703
353.618, 212036.297
354.100, 212191.000
354.582, 212347.703
355.064, 212371.000
355.546, 212271.906
356.028, 212184.797
356.510, 212248.000
356.992, 212364.500
357.474, 212404.500
357.957, 212272.203
358.439, 212145.203
358.921, 212166.000
359.403, 212297.000
359.885, 212421.203
360.367, 212484.906
360.849, 212517.797
361.332, 212538.594
361.814, 212547.406
362.296, 212552.797
362.778, 212577.094
363.260, 212596.906
363.742, 212576.703
364.224, 212451.203
364.706, 212332.797
365.188, 212265.297
365.671, 212254.594
366.153, 212261.906
366.635, 212325.797
367.117, 212380.797
367.599, 212372.000
368.081, 212074.906
368.563, 211956.703
369.045, 212207.703
369.527, 212771.094
370.010, 213108.000
370.492, 213031.703
370.974, 212899.297
371.456, 212886.797
371.938, 213098.797
372.420, 213241.094
372.902, 213286.500
373.384, 213272.000
373.866, 213268.297
374.349, 213250.703
374.831, 213293.297
375.313, 213434.906
375.795, 213687.203
376.277, 213919.703
376.759, 214121.000
377.241, 214317.703
377.723, 214552.594
378.206, 214837.297
378.688, 215081.297
379.170, 215262.094
379.652, 215387.297
380.134, 215467.406
380.616, 215496.500
381.098, 215526.500
381.580, 215621.000
382.062, 215765.203
382.545, 215830.797
383.027, 215775.297
383.509, 215693.094
383.991, 215757.000
384.473, 215947.500
384.955, 216126.406
385.437, 216232.703
385.919, 216274.297
386.402, 216245.406
386.884, 216138.000
387.366, 216049.500
387.848, 216098.594
388.330, 216230.594
388.812, 216337.703
389.294, 216353.500
389.776, 216349.000
390.259, 216382.500
390.741, 216451.594
391.223, 216544.703
391.705, 216694.594
392.187, 216844.594
392.669, 216934.297
393.151, 216916.594
393.633, 216908.203
394.115, 216993.094
394.598, 217125.594
395.080, 217214.906
395.562, 217156.906
396.044, 217111.406
396.526, 217169.000
397.008, 217364.297
397.490, 217507.297
397.972, 217467.406
398.454, 217400.297
398.937, 217455.500
399.419, 217815.094
399.901, 218108.594
400.383, 218225.406
400.865, 218200.594
401.347, 218321.797
401.829, 218675.906
402.311, 219084.297
402.793, 219460.203
403.276, 219774.594
403.758, 220123.594
404.240, 220519.703
404.722, 220943.094
405.204, 221365.500
405.686, 221796.797
406.168, 222184.203
406.651, 222486.906
407.133, 222710.703
407.615, 223025.406
408.097, 223443.094
408.579, 223916.703
409.061, 224424.797
409.543, 224965.500
410.025, 225478.500
410.507, 225945.703
410.990, 226377.000
411.472, 226790.500
411.954, 227189.203
412.436, 227589.094
412.918, 228015.906
413.400, 228457.000
413.882, 228881.500
414.364, 229298.203
414.846, 229660.500
415.329, 229888.297
415.811, 230024.203
416.293, 230155.500
416.775, 230381.297
417.257, 230575.906
417.739, 230595.000
418.221, 230454.703
418.703, 230312.094
419.185, 230289.000
419.668, 230284.797
420.150, 230199.594
420.632, 229937.203
421.114, 229718.594
421.596, 229713.000
422.078, 229808.594
422.560, 229769.500
423.042, 229393.406
423.525, 229000.500
424.007, 228706.594
424.489, 228538.094
424.971, 228386.203
425.453, 228237.000
425.935, 228102.297
426.417, 227997.500
426.899, 227985.297
427.382, 227902.406
427.864, 227693.203
428.346, 227392.406
428.828, 227175.594
429.310, 227058.500
429.792, 226996.797
430.274, 226992.094
430.756, 227071.203
431.238, 227042.297
431.721, 226859.906
432.203, 226648.797
432.685, 226627.500
433.167, 226808.406
433.649, 226934.000
434.131, 226890.094
434.613, 226742.406
435.095, 226703.594
435.578, 226774.906
436.060, 226869.703
436.542, 226934.906
437.024, 226969.906
437.506, 226967.000
437.988, 226916.594
438.470, 226853.297
438.952, 226816.297
439.434, 226797.094
439.917, 226773.297
440.399, 226744.703
440.881, 226699.797
441.363, 226605.500
441.845, 226463.297
442.327, 226362.703
442.809, 226387.000
443.291, 226460.406
443.773, 226511.203
444.256, 226483.500
444.738, 226479.000
445.220, 226536.906
445.702, 226642.406
446.184, 226753.797
446.666, 226900.797
447.148, 227018.094
447.630, 227090.000
448.112, 227125.906
448.595, 227070.000
449.077, 226812.000
449.559, 226539.000
450.041, 226449.297
450.523, 226660.703
451.005, 226801.906
451.487, 226790.406
451.970, 226672.406
452.452, 226639.094
452.934, 226695.500
453.416, 226820.906
453.898, 227040.906
454.380, 227359.000
454.862, 227563.906
455.344, 227630.500
455.826, 227658.094
456.309, 227777.000
456.791, 227976.906
457.273, 228174.594
457.755, 228334.203
458.237, 228485.297
458.719, 228697.000
459.201, 228960.406
459.683, 229223.797
460.165, 229474.703
460.648, 229692.797
461.130, 229827.094
461.612, 229845.797
462.094, 229883.297
462.576, 230050.500
463.058, 230293.500
463.540, 230528.297
464.022, 230750.203
464.504, 230933.000
464.987, 231071.000
465.469, 231161.797
465.951, 231187.297
466.433, 231021.000
466.915, 230874.797
467.397, 230882.500
467.879, 231248.297
468.361, 231438.094
468.844, 231316.594
469.326, 231060.797
469.808, 230955.797
470.290, 231117.406
470.772, 231218.500
471.254, 231146.797
471.736, 230920.703
472.218, 230836.297
472.701, 230943.406
473.183, 231060.406
473.665, 231016.406
474.147, 230808.594
474.629, 230724.297
475.111, 231055.391
475.593, 230974.797
476.075, 231037.000
476.557, 231015.000
477.039, 231002.906
477.522, 231028.094
478.004, 231094.703
478.486, 231050.234
478.968, 231046.422
479.450, 231037.922
479.932, 231033.297
480.414, 231034.078
480.897, 231037.281
481.379, 231032.844
481.861, 231025.984
482.343, 231017.344
482.825, 231005.922
483.307, 230988.594
483.789, 230980.469
484.271, 230975.344
484.753, 230969.953
485.236, 230962.234
485.718, 230954.094
486.200, 230945.109
486.682, 230935.500
487.164, 230926.750
487.646, 230913.844
488.128, 230900.016
488.610, 230886.422
489.092, 230873.484
489.575, 230860.031
490.057, 230846.141
490.539, 230831.484
491.021, 230816.547
491.503, 230901.406
491.985, 230789.594
492.467, 230814.703
492.949, 230839.703
493.431, 230707.797
493.914, 230720.594
494.396, 230705.594
494.878, 230505.500
495.360, 230689.000
495.842, 230749.000
496.324, 230707.797
496.806, 230629.000
497.289, 230514.000
497.771, 230393.594
498.253, 230288.906
498.735, 230202.000
499.217, 230151.797
499.699, 230183.000
500.181, 230232.797
500.663, 230249.000
501.145, 230206.797
501.628, 230177.000
502.110, 230182.297
502.592, 230210.297
503.074, 230245.406
503.556, 230290.094
504.038, 230337.297
504.520, 230396.406
505.002, 230461.500
505.484, 230484.000
505.967, 230430.500
506.449, 230387.594
506.931, 230404.000
507.413, 230493.297
507.895, 230569.203
508.377, 230633.797
508.859, 230680.797
509.341, 230692.703
509.823, 230671.906
510.306, 230660.203
510.788, 230664.500
511.270, 230689.094
511.752, 230751.500
512.234, 230846.594
512.716, 230943.000
513.198, 231061.906
513.680, 231151.406
514.162, 231095.906
514.645, 230876.000
515.127, 230732.500
515.609, 230966.797
516.091, 231306.000
516.573, 231446.906
517.055, 231105.594
517.537, 230803.906
518.019, 230727.703
518.502, 230814.203
518.984, 230906.797
519.466, 230939.797
519.948, 231017.500
520.430, 231221.906
520.912, 231580.000
521.394, 231713.203
521.876, 231475.297
522.359, 231200.500
522.841, 231158.906
523.323, 231411.500
523.805, 231608.500
524.287, 231710.703
524.769, 231764.297
525.251, 231818.500
525.733, 231876.203
526.216, 232034.797
526.698, 232389.297
527.180, 232842.094
527.662, 233198.297
528.144, 233461.594
528.626, 233650.000
529.108, 233739.500
529.590, 233783.406
530.072, 233822.703
530.555, 233840.797
531.037, 233968.297
531.519, 234415.703
532.001, 234983.094
532.483, 235405.906
532.965, 235499.000
533.447, 235547.094
533.929, 235597.406
534.411, 235660.703
534.894, 235785.203
535.376, 235981.594
535.858, 236233.906
536.340, 236557.500
536.822, 236971.094
537.304, 237305.797
537.786, 237533.000
538.268, 237721.297
538.750, 237932.594
539.233, 238169.594
539.715, 238394.594
540.197, 238600.594
540.679, 238791.703
541.161, 238963.203
541.643, 239119.797
542.125, 239297.406
542.607, 239564.094
543.089, 239842.594
543.572, 239992.000
544.054, 240022.000
544.536, 240030.500
545.018, 240058.797
545.500, 240111.000
545.982, 240214.203
546.464, 240414.406
546.946, 240523.203
547.429, 240375.094
547.911, 240117.703
548.393, 239939.594
548.875, 239941.203
549.357, 239949.297
549.839, 239963.406
550.321, 239966.297
550.803, 239879.297
551.286, 239638.203
551.768, 239410.594
552.250, 239277.500
552.732, 239247.703
553.214, 239148.703
553.696, 238956.000
554.178, 238772.594
554.660, 238752.906
555.143, 238861.594
555.625, 238800.203
556.107, 238469.797
556.589, 238086.594
557.071, 237937.000
557.553, 237969.000
558.035, 238034.797
558.517, 238087.797
558.999, 238129.797
559.482, 238143.797
559.964, 238139.500
560.446, 238171.703
560.928, 238302.297
561.410, 238450.406
561.892, 238571.500
562.374, 238666.906
562.856, 238716.797
563.338, 238689.203
563.821, 238630.500
564.303, 238578.297
564.785, 238509.797
565.267, 238497.094
565.749, 238570.594
566.231, 238690.594
566.713, 238746.500
567.195, 238724.594
567.677, 238731.594
568.160, 238851.094
568.642, 239029.594
569.124, 239028.703
569.606, 238850.094
570.088, 238672.406
570.570, 238673.297
571.052, 238756.094
