##NAMES=Tuscanite
##RRUFFID=R050324
##IDEAL CHEMISTRY=KCa_6_(Si,Al)_10_O_22_(S^6+^O_4_,CO_3_)_2_(OH)&#183;H_2_O
##LOCALITY=Valle Biachella, Sacrofano, Roma, Lazio, Italy
##OWNER=RRUFF
##SOURCE=Marcus Origlieri
##DESCRIPTION=Colorless platy crystals
##STATUS=The identification of this mineral is confirmed by single-crystal X-ray diffraction and chemical analysis.
##URL=rruff.info/R050324
##MEASURED CHEMISTRY=K_1.00_(Ca_5.55_Na_0.45_)_Σ=6_(Si_6.62_Al_3.38_)_10_O_22_((SO_4_)_1.80_(PO_4_)_0.17_(CO_3_)_0.03_)_Σ=2_(OH)·H_2_O
155.6807, 380.9382
156.1628, 381.7795
156.6449, 383.1232
157.1271, 384.7683
157.6092, 385.8614
158.0913, 386.0041
158.5734, 386.1711
159.0555, 386.7357
159.5376, 387.5501
160.0198, 388.1642
160.5019, 388.1946
160.9840, 387.9290
161.4661, 388.3830
161.9482, 390.3138
162.4303, 392.1492
162.9125, 392.5257
163.3946, 391.5130
163.8767, 390.8090
164.3588, 391.8718
164.8409, 393.7602
165.3230, 394.8195
165.8052, 394.2166
166.2873, 393.1837
166.7694, 393.4142
167.2515, 395.2142
167.7336, 397.2563
168.2157, 399.2007
168.6979, 400.9251
169.1800, 402.2327
169.6621, 402.9643
170.1442, 403.2802
170.6263, 403.5910
171.1084, 403.7374
171.5906, 404.1687
172.0727, 405.0228
172.5548, 406.2003
173.0369, 407.5911
173.5190, 409.1656
174.0011, 410.8896
174.4833, 412.4750
174.9654, 413.7099
175.4475, 415.0161
175.9296, 416.6894
176.4117, 418.4924
176.8938, 419.9539
177.3760, 420.6450
177.8581, 420.5267
178.3402, 421.1785
178.8223, 423.2766
179.3044, 425.3857
179.7865, 426.9191
180.2687, 427.9952
180.7508, 429.1313
181.2329, 430.8297
181.7150, 433.1868
182.1971, 434.7273
182.6792, 434.9622
183.1614, 434.9230
183.6435, 434.9857
184.1256, 435.2466
184.6077, 435.9306
185.0898, 437.3293
185.5719, 439.5089
186.0541, 441.5745
186.5362, 443.4682
187.0183, 445.2598
187.5004, 447.1127
187.9825, 449.0695
188.4646, 450.6943
188.9468, 451.1194
189.4289, 450.7224
189.9110, 451.1490
190.3931, 453.5399
190.8752, 456.7394
191.3573, 458.8672
191.8395, 459.4918
192.3216, 459.8848
192.8037, 460.9063
193.2858, 462.4247
193.7679, 464.2430
194.2500, 466.6235
194.7322, 469.2726
195.2143, 471.1823
195.6964, 471.8441
196.1785, 472.5027
196.6606, 473.7863
197.1427, 475.5743
197.6249, 477.6168
198.1070, 479.9915
198.5891, 482.6023
199.0712, 484.4173
199.5533, 484.4360
200.0354, 484.7373
200.5176, 486.2560
200.9997, 488.6751
201.4818, 491.1946
201.9639, 493.0691
202.4460, 494.2609
202.9281, 496.2525
203.4103, 500.6292
203.8924, 504.3722
204.3745, 506.2742
204.8566, 506.7080
205.3387, 506.6996
205.8208, 507.0742
206.3030, 507.8212
206.7851, 509.1401
207.2672, 511.8819
207.7493, 514.3507
208.2314, 515.4927
208.7135, 515.6266
209.1957, 515.9664
209.6778, 517.7142
210.1599, 521.1788
210.6420, 523.5438
211.1241, 524.2687
211.6062, 524.5946
212.0884, 524.9689
212.5705, 525.4900
213.0526, 526.2169
213.5347, 527.2281
214.0168, 528.5625
214.4989, 529.9074
214.9811, 531.3546
215.4632, 532.7451
215.9453, 533.7589
216.4274, 534.4564
216.9095, 535.5460
217.3916, 537.9001
217.8737, 541.5143
218.3559, 543.9894
218.8380, 544.8011
219.3201, 544.8004
219.8022, 544.4169
220.2843, 543.6877
220.7664, 543.2823
221.2486, 543.8934
221.7307, 545.3388
222.2128, 546.7594
222.6949, 548.4847
223.1770, 549.9001
223.6591, 550.0607
224.1413, 548.7769
224.6234, 547.4072
225.1055, 547.1523
225.5876, 547.4903
226.0697, 547.4744
226.5518, 546.6274
227.0340, 545.4100
227.5161, 544.4187
227.9982, 543.6105
228.4803, 543.1837
228.9624, 543.4727
229.4445, 544.1535
229.9267, 544.8667
230.4088, 545.5557
230.8909, 546.1417
231.3730, 546.4630
231.8551, 546.4897
232.3372, 546.3150
232.8194, 545.5990
233.3015, 544.8392
233.7836, 544.7786
234.2657, 545.9811
234.7478, 547.6482
235.2299, 547.8315
235.7121, 545.6953
236.1942, 543.7208
236.6763, 542.5058
237.1584, 541.8495
237.6405, 541.4299
238.1227, 541.0381
238.6048, 541.0742
239.0869, 542.9139
239.5690, 548.9032
240.0511, 552.4454
240.5332, 550.8118
241.0154, 547.1964
241.4975, 544.6744
241.9796, 544.5599
242.4617, 546.0973
242.9438, 547.5038
243.4259, 549.1779
243.9081, 549.9976
244.3902, 549.1270
244.8723, 547.7861
245.3544, 547.0038
245.8365, 547.1922
246.3186, 548.2488
246.8008, 550.0430
247.2829, 553.8618
247.7650, 556.4827
248.2471, 557.1689
248.7292, 556.9933
249.2113, 556.6791
249.6935, 556.5323
250.1756, 556.7992
250.6577, 558.0127
251.1398, 561.3473
251.6219, 563.9306
252.1040, 565.3816
252.5862, 566.3041
253.0683, 566.9858
253.5504, 567.5688
254.0325, 568.4532
254.5146, 570.3577
254.9967, 574.2781
255.4789, 577.3752
255.9610, 579.1802
256.4431, 580.4386
256.9252, 581.7782
257.4073, 583.3545
257.8894, 584.9401
258.3716, 586.1637
258.8537, 586.6241
259.3358, 587.9286
259.8179, 591.0638
260.3000, 594.4616
260.7821, 596.5717
261.2643, 597.1788
261.7464, 597.4581
262.2285, 598.6780
262.7106, 601.0748
263.1927, 603.5991
263.6748, 606.4850
264.1570, 609.3246
264.6391, 611.7303
265.1212, 613.6696
265.6033, 615.4008
266.0854, 617.1203
266.5675, 618.8191
267.0497, 620.4495
267.5318, 621.8793
268.0139, 623.3211
268.4960, 624.8878
268.9781, 626.5936
269.4602, 628.5801
269.9424, 631.2225
270.4245, 634.2898
270.9066, 636.3854
271.3887, 636.6443
271.8708, 636.5606
272.3529, 637.4742
272.8351, 639.2960
273.3172, 640.6707
273.7993, 640.4374
274.2814, 639.2256
274.7635, 639.1398
275.2456, 641.1874
275.7278, 643.2894
276.2099, 643.8809
276.6920, 643.1129
277.1741, 642.1932
277.6562, 641.5957
278.1383, 641.2606
278.6205, 640.9518
279.1026, 640.5329
279.5847, 640.4212
280.0668, 641.1840
280.5489, 642.6373
281.0310, 643.5871
281.5132, 643.2314
281.9953, 642.5755
282.4774, 643.2089
282.9595, 645.3914
283.4416, 647.3032
283.9237, 647.7395
284.4059, 646.9602
284.8880, 645.9441
285.3701, 644.5775
285.8522, 643.5534
286.3343, 643.7301
286.8164, 645.0424
287.2986, 646.3051
287.7807, 646.8517
288.2628, 646.8500
288.7449, 646.7779
289.2270, 646.5533
289.7091, 646.5495
290.1913, 647.2440
290.6734, 648.4450
291.1555, 649.4777
291.6376, 649.8619
292.1197, 649.8659
292.6018, 650.1128
293.0840, 650.6349
293.5661, 651.3964
294.0482, 652.7086
294.5303, 654.2130
295.0124, 655.1710
295.4945, 654.5927
295.9767, 653.6692
296.4588, 654.8497
296.9409, 658.7744
297.4230, 662.6171
297.9051, 664.7602
298.3872, 666.0426
298.8694, 667.3544
299.3515, 668.9310
299.8336, 670.6642
300.3157, 672.4317
300.7978, 674.2427
301.2799, 676.0842
301.7621, 677.5944
302.2442, 679.3478
302.7263, 682.0916
303.2084, 686.1093
303.6905, 690.2438
304.1726, 693.1557
304.6548, 694.7723
305.1369, 696.7684
305.6190, 699.8704
306.1011, 703.2629
306.5832, 706.3267
307.0653, 709.0239
307.5475, 711.6125
308.0296, 714.4571
308.5117, 717.4907
308.9938, 719.8570
309.4759, 720.7777
309.9580, 721.8019
310.4402, 724.0167
310.9223, 727.2162
311.4044, 730.5797
311.8865, 733.6191
312.3686, 736.3873
312.8507, 739.0463
313.3329, 741.1296
313.8150, 743.9702
314.2971, 749.1227
314.7792, 755.3862
315.2613, 760.5043
315.7434, 763.0060
316.2256, 764.0446
316.7077, 766.1538
317.1898, 769.6931
317.6719, 773.3646
318.1540, 776.7574
318.6361, 779.9177
319.1183, 782.6642
319.6004, 784.6930
320.0825, 787.0369
320.5646, 791.6432
321.0467, 799.0441
321.5288, 805.2867
322.0110, 807.6779
322.4931, 809.2709
322.9752, 812.6794
323.4573, 818.3325
323.9394, 824.0716
324.4215, 827.2849
324.9037, 828.0327
325.3858, 830.5646
325.8679, 837.0786
326.3500, 844.1416
326.8321, 848.9241
327.3142, 851.7689
327.7964, 855.0669
328.2785, 861.0255
328.7606, 868.9663
329.2427, 875.4837
329.7248, 879.6232
330.2069, 883.6488
330.6891, 889.1105
331.1712, 895.4747
331.6533, 901.6426
332.1354, 906.9440
332.6175, 911.8298
333.0996, 917.4318
333.5818, 924.2113
334.0639, 930.2913
334.5460, 933.8865
335.0281, 936.5233
335.5102, 939.8063
335.9923, 944.1685
336.4745, 949.2819
336.9566, 955.1699
337.4387, 961.8918
337.9208, 967.9871
338.4029, 972.9338
338.8850, 977.0013
339.3671, 979.8490
339.8492, 981.2980
340.3314, 983.9037
340.8135, 990.7667
341.2956, 1001.050
341.7777, 1008.978
342.2598, 1012.577
342.7419, 1014.886
343.2241, 1018.665
343.7062, 1023.628
344.1883, 1028.273
344.6704, 1031.153
345.1525, 1033.335
345.6346, 1037.576
346.1168, 1044.734
346.5989, 1051.596
347.0810, 1055.135
347.5631, 1056.789
348.0452, 1059.032
348.5273, 1063.179
349.0095, 1067.557
349.4916, 1070.221
349.9737, 1071.137
350.4558, 1071.523
350.9379, 1071.653
351.4200, 1071.723
351.9022, 1072.266
352.3843, 1073.782
352.8664, 1074.430
353.3485, 1072.063
353.8306, 1067.564
354.3127, 1064.663
354.7949, 1064.963
355.2770, 1066.226
355.7591, 1065.449
356.2412, 1062.699
356.7233, 1060.110
357.2054, 1058.598
357.6876, 1057.668
358.1697, 1056.560
358.6518, 1055.165
359.1339, 1053.663
359.6160, 1052.104
360.0981, 1050.543
360.5803, 1049.310
361.0624, 1048.632
361.5445, 1048.167
362.0266, 1048.000
362.5087, 1047.997
362.9908, 1047.072
363.4730, 1044.211
363.9551, 1040.248
364.4372, 1037.739
364.9193, 1037.305
365.4014, 1037.145
365.8835, 1036.632
366.3657, 1035.864
366.8478, 1034.948
367.3299, 1033.864
367.8120, 1032.880
368.2941, 1032.453
368.7762, 1032.647
369.2584, 1033.038
369.7405, 1033.683
370.2226, 1034.430
370.7047, 1035.129
371.1868, 1035.767
371.6689, 1036.402
372.1511, 1037.065
372.6332, 1037.763
373.1153, 1038.684
373.5974, 1040.387
374.0795, 1041.762
374.5616, 1042.014
375.0438, 1041.496
375.5259, 1041.052
376.0080, 1041.081
376.4901, 1041.644
376.9722, 1043.004
377.4543, 1045.893
377.9365, 1048.604
378.4186, 1051.008
378.9007, 1053.128
379.3828, 1054.740
379.8649, 1055.850
380.3470, 1057.123
380.8292, 1059.641
381.3113, 1064.365
381.7934, 1067.376
382.2755, 1067.354
382.7576, 1067.010
383.2397, 1067.800
383.7219, 1069.692
384.2040, 1071.934
384.6861, 1073.906
385.1682, 1075.666
385.6503, 1078.052
386.1324, 1082.588
386.6146, 1086.052
387.0967, 1087.032
387.5788, 1086.886
388.0609, 1087.259
388.5430, 1088.855
389.0251, 1091.362
389.5073, 1094.301
389.9894, 1098.246
390.4715, 1101.373
390.9536, 1102.832
391.4357, 1104.133
391.9178, 1106.440
392.4000, 1109.705
392.8821, 1112.881
393.3642, 1114.707
393.8463, 1115.108
394.3284, 1116.736
394.8105, 1120.688
395.2927, 1124.678
395.7748, 1127.550
396.2569, 1129.991
396.7390, 1133.375
397.2211, 1138.649
397.7032, 1144.689
398.1854, 1148.761
398.6675, 1150.198
399.1496, 1151.753
399.6317, 1154.161
400.1138, 1157.031
400.5959, 1160.174
401.0781, 1163.543
401.5602, 1167.014
402.0423, 1170.303
402.5244, 1173.465
403.0065, 1177.365
403.4886, 1182.733
403.9708, 1187.900
404.4529, 1191.327
404.9350, 1193.599
405.4171, 1196.407
405.8992, 1200.791
406.3813, 1205.942
406.8635, 1211.001
407.3456, 1216.103
407.8277, 1219.828
408.3098, 1220.622
408.7919, 1219.988
409.2740, 1220.482
409.7562, 1222.453
410.2383, 1225.012
410.7204, 1228.105
411.2025, 1231.408
411.6846, 1233.825
412.1667, 1234.843
412.6489, 1235.650
413.1310, 1238.374
413.6131, 1243.002
414.0952, 1245.403
414.5773, 1243.732
415.0594, 1240.301
415.5416, 1236.895
416.0237, 1233.677
416.5058, 1230.533
416.9879, 1227.276
417.4700, 1224.069
417.9521, 1221.794
418.4343, 1221.863
418.9164, 1221.015
419.3985, 1217.248
419.8806, 1212.344
420.3627, 1209.305
420.8448, 1209.058
421.3270, 1209.591
421.8091, 1207.889
422.2912, 1203.071
422.7733, 1198.348
423.2554, 1193.392
423.7375, 1188.809
424.2197, 1185.277
424.7018, 1182.532
425.1839, 1179.758
425.6660, 1176.402
426.1481, 1172.500
426.6302, 1168.132
427.1124, 1161.793
427.5945, 1156.965
428.0766, 1155.268
428.5587, 1154.667
429.0408, 1152.999
429.5229, 1149.660
430.0051, 1145.728
430.4872, 1142.823
430.9693, 1141.350
431.4514, 1139.283
431.9335, 1135.682
432.4156, 1132.256
432.8978, 1129.686
433.3799, 1127.856
433.8620, 1126.314
434.3441, 1124.851
434.8262, 1123.448
435.3083, 1122.089
435.7905, 1120.824
436.2726, 1119.466
436.7547, 1117.868
437.2368, 1116.172
437.7189, 1114.480
438.2010, 1112.807
438.6832, 1111.185
439.1653, 1109.802
439.6474, 1108.554
440.1295, 1106.837
440.6116, 1104.490
441.0938, 1101.787
441.5759, 1098.412
442.0580, 1094.766
442.5401, 1092.274
443.0222, 1091.461
443.5043, 1091.901
443.9865, 1094.064
444.4686, 1097.617
444.9507, 1099.668
445.4328, 1098.678
445.9149, 1095.512
446.3970, 1091.945
446.8792, 1087.602
447.3613, 1083.978
447.8434, 1082.211
448.3255, 1081.044
448.8076, 1079.009
449.2897, 1075.835
449.7719, 1071.897
450.2540, 1067.425
450.7361, 1062.360
451.2182, 1057.783
451.7003, 1053.389
452.1824, 1049.726
452.6646, 1048.106
453.1467, 1047.098
453.6288, 1044.097
454.1109, 1037.944
454.5930, 1030.259
455.0751, 1024.288
455.5573, 1021.288
456.0394, 1017.576
456.5215, 1012.204
457.0036, 1007.036
457.4857, 1003.152
457.9678, 1000.497
458.4500, 998.3947
458.9321, 996.3557
459.4142, 994.4285
459.8963, 993.0439
460.3784, 993.2028
460.8605, 992.0587
461.3427, 987.7181
461.8248, 982.4899
462.3069, 978.6929
462.7890, 976.9053
463.2711, 975.7670
463.7532, 974.1815
464.2354, 972.1211
464.7175, 969.0906
465.1996, 964.2695
465.6817, 959.7034
466.1638, 957.0101
466.6459, 955.6621
467.1281, 954.3722
467.6102, 952.3065
468.0923, 950.4902
468.5744, 950.7546
469.0565, 952.7874
469.5386, 953.2633
470.0208, 950.3589
470.5029, 945.8760
470.9850, 943.1403
471.4671, 942.4415
471.9492, 941.3268
472.4313, 938.3446
472.9135, 935.1191
473.3956, 933.8594
473.8777, 934.5277
474.3598, 934.8405
474.8419, 932.9974
475.3240, 929.2313
475.8062, 925.8400
476.2883, 921.9183
476.7704, 919.4100
477.2525, 920.4883
477.7346, 922.4240
478.2167, 921.9922
478.6989, 918.3347
479.1810, 912.7759
479.6631, 906.6247
480.1452, 899.4725
480.6273, 894.0428
481.1094, 891.8185
481.5916, 889.8325
482.0737, 887.5768
482.5558, 884.8063
483.0379, 880.9628
483.5200, 875.5672
484.0021, 869.9534
484.4843, 867.0211
484.9664, 867.5015
485.4485, 867.2278
485.9306, 864.9684
486.4127, 862.0511
486.8948, 858.9227
487.3770, 855.7829
487.8591, 853.4227
488.3412, 852.7914
488.8233, 853.0954
489.3054, 852.8239
489.7875, 851.9340
490.2697, 850.8492
490.7518, 849.9621
491.2339, 848.8824
491.7160, 846.7820
492.1981, 843.2064
492.6802, 839.9818
493.1624, 838.2046
493.6445, 837.1537
494.1266, 835.5903
494.6087, 833.3206
495.0908, 831.3834
495.5729, 830.7850
496.0551, 831.5125
496.5372, 831.8555
497.0193, 831.1230
497.5014, 830.8630
497.9835, 832.1832
498.4656, 834.0419
498.9478, 834.7537
499.4299, 833.8296
499.9120, 832.4982
500.3941, 832.6091
500.8762, 834.6243
501.3583, 836.2448
501.8405, 837.5121
502.3226, 838.3320
502.8047, 838.4523
503.2868, 838.1238
503.7689, 837.8249
504.2510, 837.8314
504.7331, 837.7971
505.2152, 837.1527
505.6974, 835.9103
506.1795, 833.9731
506.6616, 831.0466
507.1437, 827.6418
507.6258, 823.7910
508.1079, 819.6701
508.5901, 816.2819
509.0722, 814.5713
509.5543, 813.6436
510.0364, 812.3500
510.5185, 810.6805
511.0006, 808.4244
511.4828, 805.3547
511.9649, 801.7482
512.4470, 798.2368
512.9291, 794.9291
513.4113, 791.3322
513.8934, 786.7728
514.3755, 782.2145
514.8576, 778.8553
515.3397, 776.6687
515.8218, 774.6786
516.3040, 772.1342
516.7861, 769.1412
517.2682, 766.5092
517.7503, 764.6622
518.2324, 762.6552
518.7145, 760.2655
519.1967, 757.7419
519.6788, 755.1821
520.1609, 752.6787
520.6430, 750.4688
521.1251, 748.7546
521.6072, 747.5312
522.0894, 747.0433
522.5715, 748.3438
523.0536, 748.6627
523.5357, 746.7220
524.0178, 743.5796
524.4999, 740.1605
524.9821, 736.6068
525.4642, 733.7211
525.9463, 732.6555
526.4284, 732.9860
526.9105, 732.8351
527.3926, 732.0233
527.8748, 730.4970
528.3569, 727.8290
528.8390, 724.3644
529.3211, 721.2668
529.8032, 718.8625
530.2853, 716.6210
530.7675, 714.2908
531.2496, 711.9244
531.7317, 709.5994
532.2138, 707.3265
532.6959, 705.1735
533.1780, 703.2349
533.6602, 701.5261
534.1423, 699.9222
534.6244, 698.4785
535.1065, 697.0458
535.5886, 695.7689
536.0707, 694.4103
536.5529, 692.5435
537.0350, 690.0245
537.5171, 687.2306
537.9992, 684.8019
538.4813, 682.8140
538.9634, 680.8149
539.4456, 678.5771
539.9277, 676.5903
540.4098, 675.2238
540.8919, 674.2589
541.3740, 673.2601
541.8561, 672.0576
542.3383, 670.7577
542.8204, 669.5966
543.3025, 668.5253
543.7846, 666.9533
544.2667, 664.4406
544.7488, 661.9688
545.2310, 660.9198
545.7131, 661.1017
546.1952, 660.7095
546.6773, 659.5016
547.1594, 657.6235
547.6415, 654.7616
548.1237, 651.3141
548.6058, 648.1454
549.0879, 645.6151
549.5700, 643.5487
550.0521, 641.6791
550.5342, 640.0280
551.0164, 638.5560
551.4985, 637.5836
551.9806, 636.4523
552.4627, 634.7410
552.9448, 632.6713
553.4269, 630.6750
553.9091, 628.9583
554.3912, 627.3733
554.8733, 625.6752
555.3554, 623.8442
555.8375, 621.9375
556.3196, 619.6345
556.8018, 617.6519
557.2839, 616.6351
557.7660, 616.2676
558.2481, 615.6761
558.7302, 614.5063
559.2123, 613.0408
559.6945, 611.5131
560.1766, 609.9308
560.6587, 608.3942
561.1408, 606.9971
561.6229, 605.4336
562.1050, 603.2229
562.5872, 600.2366
563.0693, 597.5547
563.5514, 594.9480
564.0335, 592.9033
564.5156, 591.9807
564.9977, 591.7426
565.4799, 591.3894
565.9620, 590.6066
566.4441, 589.6969
566.9262, 589.2220
567.4083, 589.4271
567.8904, 589.0577
568.3726, 587.5274
568.8547, 586.0001
569.3368, 584.9879
569.8189, 584.2097
570.3010, 583.2084
570.7831, 581.8076
571.2653, 580.1259
571.7474, 578.2502
572.2295, 576.1971
572.7116, 573.9045
573.1937, 571.1154
573.6758, 568.7422
574.1580, 567.9274
574.6401, 568.2402
575.1222, 567.9747
575.6043, 566.4818
576.0864, 564.9391
576.5685, 564.1740
577.0507, 563.6788
577.5328, 562.4826
578.0149, 560.3792
578.4970, 558.0992
578.9791, 556.3993
579.4612, 555.2922
579.9434, 554.4708
580.4255, 554.3369
580.9076, 554.0217
581.3897, 553.5020
581.8718, 552.6451
582.3539, 551.2104
582.8361, 549.1877
583.3182, 547.0161
583.8003, 544.6650
584.2824, 542.3524
584.7645, 542.1815
585.2466, 545.2318
585.7288, 547.3228
586.2108, 545.6503
586.6929, 542.1019
587.1750, 539.1741
587.6572, 536.9183
588.1393, 535.8016
588.6214, 537.2321
589.1035, 539.3153
589.5856, 539.2665
590.0677, 537.0191
590.5499, 534.5758
591.0320, 533.2029
591.5141, 532.6476
591.9962, 531.9954
592.4783, 531.2267
592.9604, 530.3893
593.4426, 529.3809
593.9247, 528.3961
594.4068, 527.7727
594.8889, 527.3268
595.3710, 526.4213
595.8531, 524.5466
596.3353, 522.1773
596.8174, 520.2471
597.2995, 518.6796
597.7816, 518.1578
598.2637, 519.6403
598.7458, 521.3632
599.2280, 521.9104
599.7101, 521.3926
600.1922, 520.4166
600.6743, 518.8329
601.1564, 517.1566
601.6385, 515.6944
602.1207, 514.4806
602.6028, 513.7235
603.0849, 513.5306
603.5670, 513.3660
604.0491, 512.4807
604.5313, 510.6836
605.0134, 509.3482
605.4955, 508.7001
605.9776, 508.1827
606.4597, 507.8563
606.9418, 507.4572
607.4240, 506.5824
607.9061, 505.1557
608.3882, 503.6273
608.8703, 502.4258
609.3524, 501.5580
609.8345, 501.1922
610.3167, 501.6425
610.7988, 501.8235
611.2809, 500.6937
611.7630, 499.2135
612.2451, 498.8817
612.7272, 500.1487
613.2094, 501.0042
613.6915, 500.2584
614.1736, 498.7507
614.6557, 497.3619
615.1378, 496.2123
615.6199, 495.4675
616.1021, 495.3078
616.5842, 495.4158
617.0663, 494.8647
617.5484, 492.8641
618.0305, 491.5334
618.5126, 491.6230
618.9948, 491.6191
619.4769, 490.3141
619.9590, 488.2370
620.4411, 486.7615
620.9232, 486.6215
621.4053, 487.1888
621.8875, 487.5673
622.3696, 487.7583
622.8517, 487.8236
623.3338, 487.7503
623.8159, 487.6026
624.2980, 487.5825
624.7802, 487.5480
625.2623, 486.9613
625.7444, 485.0187
626.2265, 483.4747
626.7086, 483.5141
627.1907, 484.2803
627.6729, 484.7230
628.1550, 484.5788
628.6371, 483.8171
629.1192, 482.3857
629.6013, 480.3206
630.0834, 477.8864
630.5656, 474.1660
631.0477, 471.6305
631.5298, 471.6357
632.0119, 472.0326
632.4940, 471.0189
632.9761, 468.7406
633.4583, 466.7931
633.9404, 466.4740
634.4225, 466.7345
634.9046, 465.6035
635.3867, 463.2290
635.8688, 461.7840
636.3510, 462.3017
636.8331, 463.1125
637.3152, 462.0530
637.7973, 458.8696
638.2794, 456.4176
638.7615, 455.1974
639.2437, 454.1856
639.7258, 453.2541
640.2079, 452.1399
640.6900, 450.3058
641.1721, 447.7153
641.6542, 445.1950
642.1364, 443.6413
642.6185, 442.9905
643.1006, 442.6546
643.5827, 443.2733
644.0648, 442.7769
644.5469, 439.1956
645.0291, 434.9310
645.5112, 432.0408
645.9933, 430.6828
646.4754, 429.9651
646.9575, 429.8969
647.4396, 429.9905
647.9218, 429.9151
648.4039, 429.5641
648.8860, 428.4097
649.3681, 426.1424
