##NAMES=Tvalchrelidzeite
##RRUFFID=R061128
##IDEAL CHEMISTRY=Hg_3_SbAsS_3_
##LOCALITY=Gomi deposit, Rioni River Valley, Caucacus Mountains, Georgia
##OWNER=RRUFF
##SOURCE=Michael Scott
##DESCRIPTION=Black submetallic with internal red hints, no distinct crystal forms
##STATUS=The identification of this mineral is confirmed by single-crystal X-ray diffraction and chemical analysis.
##URL=rruff.info/R061128
##MEASURED CHEMISTRY=Hg_3.00_Sb_1.00_As_1.00_S_3.00_ : darker inclusions are HgS.
122.0469, 200.7289
122.5290, 209.7954
123.0111, 223.5750
123.4933, 237.7527
123.9754, 249.1830
124.4575, 259.1524
124.9396, 266.0846
125.4217, 271.7986
125.9038, 278.6568
126.3860, 286.2804
126.8681, 294.6261
127.3502, 302.5482
127.8323, 309.9193
128.3144, 316.3262
128.7965, 320.2736
129.2787, 319.5856
129.7608, 316.2036
130.2429, 314.7605
130.7250, 315.1473
131.2071, 317.2653
131.6892, 322.6199
132.1714, 330.9190
132.6535, 336.6557
133.1356, 335.6218
133.6177, 328.6190
134.0998, 324.7093
134.5819, 324.8801
135.0640, 327.2145
135.5462, 327.1631
136.0283, 323.9952
136.5104, 322.6314
136.9925, 327.4172
137.4746, 339.5201
137.9567, 347.9695
138.4389, 350.8453
138.9210, 349.5899
139.4031, 350.9356
139.8852, 356.2062
140.3673, 361.3713
140.8494, 362.4813
141.3316, 357.0952
141.8137, 354.7586
142.2958, 357.7332
142.7779, 366.0798
143.2600, 373.6730
143.7421, 380.3656
144.2243, 386.4567
144.7064, 392.2316
145.1885, 398.2560
145.6706, 403.2123
146.1527, 406.2669
146.6348, 406.0587
147.1170, 408.4910
147.5991, 415.8161
148.0812, 425.2380
148.5633, 431.3064
149.0454, 429.6708
149.5275, 428.6687
150.0097, 431.5104
150.4918, 446.6489
150.9739, 453.1837
151.4560, 445.9933
151.9381, 429.2609
152.4202, 415.8915
152.9024, 409.8880
153.3845, 405.2815
153.8666, 399.1072
154.3487, 386.6956
154.8308, 377.5704
155.3129, 373.0255
155.7950, 372.8482
156.2772, 375.9275
156.7593, 386.2033
157.2414, 397.4978
157.7235, 405.1969
158.2056, 405.8923
158.6877, 405.0991
159.1699, 403.8817
159.6520, 402.2686
160.1341, 401.3487
160.6162, 400.2209
161.0983, 400.3563
161.5804, 403.4144
162.0626, 411.3965
162.5447, 421.2335
163.0268, 433.0659
163.5089, 448.0051
163.9910, 458.4412
164.4731, 456.2917
164.9553, 447.6344
165.4374, 442.6144
165.9195, 446.4864
166.4016, 455.1171
166.8837, 467.0148
167.3658, 484.1620
167.8480, 498.1454
168.3301, 500.3676
168.8122, 494.5547
169.2943, 490.6722
169.7764, 495.8650
170.2585, 505.1593
170.7407, 513.0057
171.2228, 517.0784
171.7049, 521.4106
172.1870, 531.3649
172.6691, 545.6334
173.1512, 557.4270
173.6334, 557.1758
174.1155, 552.6511
174.5976, 556.1600
175.0797, 574.7924
175.5618, 599.3790
176.0439, 616.9142
176.5260, 628.2398
177.0082, 645.1039
177.4903, 676.4392
177.9724, 720.9246
178.4545, 773.8219
178.9366, 832.1999
179.4187, 899.5851
179.9009, 982.8018
180.3830, 1082.989
180.8651, 1190.443
181.3472, 1299.001
181.8293, 1408.945
182.3114, 1518.634
182.7936, 1632.675
183.2757, 1745.550
183.7578, 1847.839
184.2399, 1937.038
184.7220, 2023.325
185.2041, 2112.747
185.6863, 2207.107
186.1684, 2313.520
186.6505, 2434.479
187.1326, 2569.993
187.6147, 2728.458
188.0968, 2914.700
188.5790, 3115.534
189.0611, 3362.176
189.5432, 3650.407
190.0253, 3825.616
190.5074, 3790.084
190.9895, 3557.405
191.4717, 3210.233
191.9538, 2716.827
192.4359, 2164.538
192.9180, 1719.116
193.4001, 1378.574
193.8822, 1117.233
194.3644, 930.8673
194.8465, 818.1083
195.3286, 733.9122
195.8107, 676.7176
196.2928, 641.3127
196.7749, 614.2635
197.2570, 595.8057
197.7392, 584.5104
198.2213, 579.3871
198.7034, 580.3741
199.1855, 589.0905
199.6676, 607.6854
200.1497, 633.8359
200.6319, 656.6580
201.1140, 674.5353
201.5961, 694.1532
202.0782, 722.6525
202.5603, 761.5984
203.0424, 799.2349
203.5246, 832.4583
204.0067, 861.9760
204.4888, 892.6182
204.9709, 925.1918
205.4530, 957.2490
205.9352, 984.8022
206.4173, 1005.730
206.8994, 1031.714
207.3815, 1067.147
207.8636, 1112.000
208.3457, 1153.108
208.8279, 1194.489
209.3100, 1225.865
209.7921, 1233.471
210.2742, 1213.521
210.7563, 1180.694
211.2384, 1136.498
211.7206, 1079.316
212.2027, 1028.970
212.6848, 989.1346
213.1669, 951.7812
213.6490, 906.2700
214.1311, 851.8264
214.6133, 790.3984
215.0954, 718.9275
215.5775, 635.1688
216.0596, 562.0295
216.5417, 498.1364
217.0238, 446.1178
217.5059, 411.0099
217.9881, 398.7493
218.4702, 391.0391
218.9523, 381.0765
219.4344, 367.4370
219.9165, 357.4135
220.3986, 352.1117
220.8808, 349.7074
221.3629, 346.0440
221.8450, 339.2448
222.3271, 334.5317
222.8092, 334.5690
223.2913, 341.9838
223.7735, 347.0075
224.2556, 348.7995
224.7377, 348.5206
225.2198, 349.0966
225.7019, 351.3396
226.1840, 353.1365
226.6662, 353.3600
227.1483, 350.8686
227.6304, 349.3544
228.1125, 348.5168
228.5946, 348.7181
229.0767, 351.3631
229.5589, 358.2213
230.0410, 364.9019
230.5231, 369.2385
231.0052, 370.0427
231.4873, 370.9372
231.9694, 371.6891
232.4516, 372.6438
232.9337, 375.0393
233.4158, 378.8601
233.8979, 384.1407
234.3800, 391.1711
234.8621, 401.4715
235.3443, 410.3706
235.8264, 417.6057
236.3085, 423.2865
236.7906, 427.3435
237.2727, 427.0578
237.7548, 428.6670
238.2369, 436.6286
238.7191, 456.5692
239.2012, 471.2239
239.6833, 476.5049
240.1654, 474.8975
240.6475, 479.6859
241.1296, 494.2870
241.6118, 510.9427
242.0939, 524.3858
242.5760, 530.5194
243.0581, 541.9077
243.5402, 561.3167
244.0223, 587.2059
244.5045, 611.4167
244.9866, 633.3442
245.4687, 654.3585
245.9508, 675.0228
246.4329, 694.0316
246.9150, 715.6497
247.3972, 741.7256
247.8793, 771.1246
248.3614, 797.2195
248.8435, 817.0901
249.3256, 837.5264
249.8077, 863.7706
250.2899, 900.7488
250.7720, 933.0229
251.2541, 957.7292
251.7362, 975.6852
252.2183, 994.9490
252.7004, 1015.378
253.1826, 1036.908
253.6647, 1060.110
254.1468, 1087.657
254.6289, 1110.950
255.1110, 1129.790
255.5931, 1143.966
256.0753, 1150.883
256.5574, 1149.396
257.0395, 1142.623
257.5216, 1133.694
258.0037, 1125.422
258.4858, 1107.171
258.9680, 1074.110
259.4501, 1028.708
259.9322, 991.7813
260.4143, 966.3557
260.8964, 944.5780
261.3785, 921.0381
261.8607, 894.5251
262.3428, 869.1862
262.8249, 845.4059
263.3070, 823.2183
263.7891, 800.3513
264.2712, 774.6010
264.7534, 752.9458
265.2355, 743.1884
265.7176, 750.5070
266.1997, 751.3442
266.6818, 740.2138
267.1639, 719.7848
267.6461, 705.8521
268.1282, 700.7958
268.6103, 697.1129
269.0924, 688.8559
269.5745, 674.7593
270.0566, 661.7308
270.5387, 650.9622
271.0208, 641.8633
271.5030, 630.6468
271.9851, 615.7919
272.4672, 602.8345
272.9493, 597.0796
273.4314, 600.0313
273.9135, 600.3931
274.3957, 595.6119
274.8778, 587.4836
275.3599, 582.5251
275.8420, 580.8074
276.3241, 582.0060
276.8062, 587.5115
277.2884, 598.0481
277.7705, 604.3281
278.2526, 603.6328
278.7347, 598.8843
279.2168, 599.3047
279.6989, 605.7471
280.1811, 613.4238
280.6632, 618.9092
281.1453, 622.1658
281.6274, 626.2174
282.1095, 631.3634
282.5916, 637.6044
283.0738, 644.9601
283.5559, 653.4405
284.0380, 662.9884
284.5201, 674.2667
285.0022, 687.0931
285.4843, 697.7996
285.9665, 705.0954
286.4486, 711.2147
286.9307, 721.4296
287.4128, 735.7402
287.8949, 750.3604
288.3770, 761.6160
288.8592, 770.4624
289.3413, 783.0256
289.8234, 801.2547
290.3055, 820.9172
290.7876, 831.7493
291.2697, 834.5757
291.7519, 841.5029
292.2340, 863.3427
292.7161, 895.8809
293.1982, 923.8546
293.6803, 945.4174
294.1624, 963.9851
294.6446, 982.9257
295.1267, 1002.520
295.6088, 1024.043
296.0909, 1051.808
296.5730, 1081.588
297.0551, 1104.258
297.5373, 1118.025
298.0194, 1127.921
298.5015, 1140.836
298.9836, 1155.184
299.4657, 1165.563
299.9478, 1170.422
300.4300, 1169.002
300.9121, 1159.057
301.3942, 1140.038
301.8763, 1115.535
302.3584, 1085.826
302.8405, 1053.094
303.3227, 1023.715
303.8048, 1001.319
304.2869, 983.4063
304.7690, 966.8984
305.2511, 951.8271
305.7332, 937.0898
306.2154, 919.9848
306.6975, 902.6916
307.1796, 888.7386
307.6617, 883.0856
308.1438, 879.4955
308.6259, 873.3348
309.1081, 864.4790
309.5901, 852.4305
310.0723, 839.0023
310.5544, 821.5582
311.0365, 796.6433
311.5186, 756.4761
312.0007, 712.9464
312.4828, 672.8266
312.9650, 636.1779
313.4471, 602.4638
313.9292, 572.6592
314.4113, 545.5106
314.8934, 519.7649
315.3755, 493.8801
315.8577, 470.2328
316.3398, 450.0302
316.8219, 433.1848
317.3040, 419.8207
317.7861, 410.1084
318.2682, 403.8287
318.7504, 400.9170
319.2325, 405.7940
319.7146, 409.0768
320.1967, 406.6019
320.6788, 399.8434
321.1609, 394.9479
321.6431, 396.2323
322.1252, 397.9207
322.6073, 396.7122
323.0894, 389.6466
323.5715, 383.1209
324.0536, 377.1370
324.5358, 372.2759
325.0179, 370.0634
325.5000, 375.9491
325.9821, 380.2752
326.4642, 378.7137
326.9464, 365.5247
327.4285, 355.9505
327.9106, 353.1569
328.3927, 353.8745
328.8748, 351.4235
329.3569, 342.3549
329.8391, 333.9046
330.3212, 328.3824
330.8033, 326.6944
331.2854, 325.3385
331.7675, 325.0232
332.2496, 324.6806
332.7318, 322.6683
333.2139, 318.2285
333.6960, 313.3638
334.1781, 308.4828
334.6602, 303.5433
335.1423, 298.8184
335.6245, 294.4879
336.1066, 290.0674
336.5887, 284.5391
337.0708, 276.5870
337.5529, 271.5736
338.0350, 271.5794
338.5172, 276.1473
338.9993, 279.3701
339.4814, 281.0228
339.9635, 281.9705
340.4456, 283.4657
340.9277, 285.8027
341.4099, 285.6642
341.8920, 281.4121
342.3741, 274.6919
342.8562, 271.7923
343.3383, 273.3271
343.8204, 274.5728
344.3026, 270.3028
344.7847, 261.4503
345.2668, 257.0168
345.7489, 259.5259
346.2310, 265.3317
346.7131, 267.5600
347.1953, 266.3445
347.6774, 263.9781
348.1595, 260.9207
348.6416, 257.8369
349.1237, 256.6324
349.6058, 257.7403
350.0880, 260.0473
350.5700, 263.4850
351.0522, 267.3584
351.5343, 269.0585
352.0164, 265.0282
352.4985, 258.7918
352.9806, 255.7469
353.4627, 256.4748
353.9449, 258.0330
354.4270, 257.7060
354.9091, 256.4234
355.3912, 255.8604
355.8733, 259.2587
356.3554, 261.9932
356.8376, 258.8229
357.3197, 249.8540
357.8018, 242.1474
358.2839, 239.9521
358.7660, 241.2782
359.2481, 243.9662
359.7303, 250.8351
360.2124, 255.5843
360.6945, 254.4317
361.1766, 248.1973
361.6587, 241.7225
362.1408, 233.3385
362.6230, 227.6058
363.1051, 228.1321
363.5872, 242.9430
364.0693, 253.7187
364.5514, 253.0192
365.0335, 244.7838
365.5157, 239.4658
365.9978, 241.5556
366.4799, 244.7239
366.9620, 246.6490
367.4441, 247.6660
367.9262, 246.3219
368.4084, 239.9362
368.8905, 231.8023
369.3726, 227.0875
369.8547, 228.6390
370.3368, 230.1983
370.8189, 230.0406
371.3011, 227.7557
371.7832, 226.2370
372.2653, 225.2777
372.7474, 225.2579
373.2295, 226.8064
373.7116, 230.6999
374.1938, 234.3414
374.6759, 237.8944
375.1580, 241.0083
375.6401, 239.7989
376.1222, 232.3784
376.6043, 225.0050
377.0865, 223.0362
377.5686, 227.1021
378.0507, 230.1536
378.5328, 230.9592
379.0149, 230.4527
379.4970, 231.1472
379.9792, 233.1511
380.4613, 234.8202
380.9434, 235.0250
381.4255, 233.9503
381.9076, 232.4174
382.3897, 230.3335
382.8719, 228.3122
383.3540, 227.1586
383.8361, 226.8174
384.3182, 227.0728
384.8003, 229.3327
385.2824, 231.6796
385.7646, 229.8380
386.2467, 223.5197
386.7288, 217.2153
387.2109, 214.5357
387.6930, 214.6628
388.1751, 216.2453
388.6573, 220.5986
389.1394, 224.7095
389.6215, 225.9759
390.1036, 224.6084
390.5857, 221.9630
391.0678, 216.5424
391.5499, 211.2973
392.0320, 209.3033
392.5142, 213.9546
392.9963, 217.5301
393.4784, 215.3963
393.9605, 209.6455
394.4426, 205.5656
394.9247, 204.9411
395.4069, 206.3143
395.8890, 209.9768
396.3711, 218.0840
396.8532, 221.9950
397.3353, 217.0878
397.8174, 208.3209
398.2996, 202.0474
398.7817, 200.0262
399.2638, 199.2729
399.7459, 199.0962
400.2280, 199.4189
400.7101, 201.6578
401.1923, 207.8282
401.6744, 214.0476
402.1565, 217.1011
402.6386, 215.2597
403.1207, 214.2426
403.6028, 215.1137
404.0850, 217.2485
404.5671, 217.9151
405.0492, 216.6077
405.5313, 215.2693
406.0134, 215.0047
406.4955, 215.8718
406.9777, 217.3678
407.4598, 220.0226
407.9419, 222.2355
408.4240, 220.4084
408.9061, 214.6458
409.3882, 209.7821
409.8704, 208.0303
410.3525, 208.8174
410.8346, 210.8430
411.3167, 214.2728
411.7988, 216.8915
412.2809, 215.2021
412.7631, 210.8935
413.2452, 208.3541
413.7273, 209.9789
414.2094, 212.8664
414.6915, 213.4195
415.1736, 212.0450
415.6558, 210.8363
416.1379, 211.7100
416.6200, 213.1781
417.1021, 213.5461
417.5842, 212.0306
418.0663, 210.7138
418.5485, 211.6852
419.0306, 213.6347
419.5127, 214.1462
419.9948, 209.3721
420.4769, 205.4204
420.9590, 205.4006
421.4412, 209.8549
421.9233, 215.1969
422.4054, 224.1661
422.8875, 231.9584
423.3696, 234.3508
423.8517, 223.6281
424.3339, 215.5529
424.8160, 213.6958
425.2981, 216.8746
425.7802, 216.7089
426.2623, 210.1570
426.7444, 203.6574
427.2266, 200.6441
427.7087, 203.0225
428.1908, 204.1451
428.6729, 203.7119
429.1550, 202.2533
429.6371, 200.3304
430.1193, 197.4946
430.6014, 196.0819
431.0835, 197.7759
431.5656, 202.1559
432.0477, 203.6379
432.5298, 201.7946
433.0119, 199.0126
433.4940, 197.6842
433.9762, 197.6250
434.4583, 197.5480
434.9404, 197.1808
435.4225, 196.5912
435.9046, 196.4041
436.3867, 196.3947
436.8689, 195.0009
437.3510, 188.3207
437.8331, 180.5523
438.3152, 178.9067
438.7973, 185.5127
439.2794, 192.6562
439.7616, 192.8449
440.2437, 189.3622
440.7258, 187.9829
441.2079, 194.1802
441.6900, 200.6926
442.1721, 203.4025
442.6543, 202.2179
443.1364, 199.5266
443.6185, 193.4424
444.1006, 187.7714
444.5827, 185.4563
445.0648, 190.9794
445.5470, 195.0882
446.0291, 196.6632
446.5112, 195.9232
446.9933, 193.4505
447.4754, 185.8097
447.9576, 180.1693
448.4397, 179.5654
448.9218, 185.8865
449.4039, 189.2528
449.8860, 188.0929
450.3681, 185.5859
450.8503, 185.8412
451.3324, 190.0157
451.8145, 192.7355
452.2966, 192.1210
452.7787, 189.2419
453.2608, 189.5594
453.7430, 193.5627
454.2251, 197.5696
454.7072, 199.0629
455.1893, 198.2524
455.6714, 196.0103
456.1535, 191.8001
456.6357, 188.0954
457.1178, 188.4706
457.5999, 192.2860
458.0820, 197.1779
458.5641, 203.9998
459.0462, 210.2680
459.5284, 212.2354
460.0105, 209.9485
460.4926, 206.5113
460.9747, 202.8731
461.4568, 199.6937
461.9389, 197.8217
462.4211, 198.2195
462.9032, 198.8976
463.3853, 199.6752
463.8674, 200.1090
464.3495, 199.0094
464.8316, 193.7412
465.3138, 188.8083
465.7959, 186.0549
466.2780, 185.9567
466.7601, 186.9977
467.2422, 189.0405
467.7243, 192.2099
468.2065, 197.0448
468.6886, 207.7543
469.1707, 212.7416
469.6528, 208.1538
470.1349, 196.1445
470.6170, 188.8176
471.0992, 187.3529
471.5813, 187.6775
472.0634, 187.3540
472.5455, 186.2823
473.0276, 187.0464
473.5097, 190.2713
473.9918, 193.9740
474.4739, 194.9746
474.9561, 193.5278
475.4382, 192.0807
475.9203, 191.6079
476.4024, 191.6974
476.8845, 191.4920
477.3666, 191.0292
477.8488, 190.8252
478.3309, 191.6686
478.8130, 192.8749
479.2951, 193.3611
479.7772, 192.5825
480.2593, 191.9295
480.7415, 193.3280
481.2236, 195.4161
481.7057, 195.6455
482.1878, 190.4890
482.6699, 185.4751
483.1520, 183.1898
483.6342, 183.8442
484.1163, 185.3949
484.5984, 189.7410
485.0805, 193.4723
485.5626, 193.9010
486.0447, 184.7496
486.5269, 181.5459
487.0090, 189.0192
487.4911, 201.8365
487.9732, 206.3448
488.4553, 199.1042
488.9374, 191.0780
489.4196, 185.7762
489.9017, 183.2102
490.3838, 182.5318
490.8659, 183.8933
491.3480, 186.6370
491.8301, 191.7130
492.3123, 198.5930
492.7944, 200.6369
493.2765, 194.7848
493.7586, 186.1225
494.2407, 183.1539
494.7228, 185.1381
495.2050, 187.9770
495.6871, 188.3016
496.1692, 188.6173
496.6513, 193.5867
497.1334, 203.9747
497.6155, 211.5408
498.0977, 208.3229
498.5798, 200.3004
499.0619, 194.2207
499.5440, 193.4953
500.0261, 193.8379
500.5082, 193.7166
500.9904, 193.5021
501.4725, 194.4992
501.9546, 200.0823
502.4367, 204.1685
502.9188, 203.5428
503.4009, 196.0909
503.8831, 191.9380
504.3652, 192.7376
504.8473, 195.3454
505.3294, 196.6637
505.8115, 196.5117
506.2936, 195.4017
506.7758, 192.7410
507.2579, 189.5246
507.7400, 189.5203
508.2221, 193.0719
508.7042, 196.5458
509.1863, 197.3387
509.6685, 196.2135
510.1506, 196.9372
510.6327, 199.9714
511.1148, 202.2906
511.5969, 198.8575
512.0790, 192.4645
512.5612, 189.3066
513.0433, 193.2677
513.5254, 198.9818
514.0075, 201.8521
514.4896, 202.6099
514.9717, 203.7316
515.4539, 209.4171
515.9360, 213.5548
516.4181, 210.7362
516.9002, 197.9106
517.3823, 190.0938
517.8644, 196.9397
518.3466, 207.2617
518.8287, 209.6091
519.3108, 195.2169
519.7929, 184.4931
520.2750, 179.5969
520.7571, 179.8084
521.2393, 183.3120
521.7214, 192.4447
522.2035, 199.3680
522.6856, 198.6925
523.1677, 190.0751
523.6498, 189.1705
524.1320, 197.7341
524.6141, 207.0170
525.0962, 205.6318
525.5783, 195.7420
526.0604, 188.5164
526.5425, 187.2208
527.0247, 188.8693
527.5068, 190.1639
527.9889, 191.0536
528.4710, 191.3234
528.9531, 190.7034
529.4352, 189.5391
529.9174, 187.8325
530.3995, 185.5271
530.8816, 183.8536
531.3637, 183.6221
531.8458, 184.1131
532.3279, 184.7043
532.8101, 184.9348
533.2922, 185.6539
533.7743, 187.9167
534.2564, 190.7181
534.7385, 191.4428
535.2206, 188.1482
535.7027, 185.6374
536.1848, 185.6428
536.6669, 188.2157
537.1490, 189.8385
537.6312, 190.5203
538.1133, 190.2525
538.5954, 188.2731
539.0775, 184.6893
539.5596, 183.4621
540.0417, 185.7530
540.5239, 188.8682
541.0060, 188.4405
541.4881, 185.1310
541.9702, 181.6387
542.4523, 178.0789
542.9344, 175.6516
543.4166, 176.7278
543.8987, 180.8205
544.3808, 184.1666
544.8629, 183.5334
545.3450, 181.7879
545.8271, 181.1503
546.3093, 182.0047
546.7914, 183.9941
547.2735, 189.0997
547.7556, 194.6601
548.2377, 197.0152
548.7198, 193.1420
549.2020, 189.2941
549.6841, 185.2247
550.1662, 181.5924
550.6483, 183.5301
551.1304, 194.2457
551.6125, 203.1621
552.0947, 203.1988
552.5768, 193.8899
553.0589, 189.4778
553.5410, 190.9700
554.0231, 193.7139
554.5052, 190.9149
554.9874, 184.3790
555.4695, 181.8905
555.9516, 187.4108
556.4337, 194.7362
556.9158, 195.1397
557.3979, 190.7307
557.8801, 187.8763
558.3622, 193.1452
558.8443, 198.8044
559.3264, 198.3062
559.8085, 191.0075
560.2906, 185.4933
560.7728, 185.3548
561.2549, 187.6372
561.7370, 190.2343
562.2191, 195.0538
562.7012, 197.0770
563.1833, 195.0765
563.6655, 190.7879
564.1476, 186.9327
564.6297, 183.1792
565.1118, 180.7500
565.5939, 180.2304
566.0760, 181.3049
566.5582, 181.8036
567.0403, 181.5611
567.5224, 182.4544
568.0045, 187.7744
568.4866, 195.3397
568.9688, 197.8228
569.4509, 194.0364
569.9330, 188.8970
570.4151, 186.7501
570.8972, 186.4748
571.3793, 186.1970
571.8615, 185.3044
572.3436, 184.2294
572.8257, 182.5380
573.3078, 180.7842
573.7899, 180.5381
574.2720, 185.4544
574.7542, 189.0879
575.2363, 187.7167
575.7184, 180.1159
576.2005, 176.4142
576.6826, 178.7079
577.1647, 182.6333
577.6469, 185.1867
578.1290, 186.0504
578.6111, 186.7865
579.0932, 187.6702
579.5753, 188.1918
580.0574, 186.9847
580.5396, 184.2141
581.0217, 182.3586
581.5038, 182.8791
581.9859, 184.4479
582.4680, 184.6098
582.9501, 183.5959
583.4323, 182.7009
583.9144, 181.6305
584.3965, 181.7451
584.8786, 185.3115
585.3607, 193.2880
585.8428, 199.3707
586.3250, 200.2642
586.8071, 198.4252
587.2892, 196.1138
587.7713, 193.0309
588.2534, 190.3038
588.7355, 187.5816
589.2177, 185.3488
589.6998, 185.0065
590.1819, 187.7699
590.6640, 189.4186
591.1461, 188.1926
591.6282, 184.6256
592.1104, 182.3502
592.5925, 181.3960
593.0746, 181.4376
593.5567, 182.6552
594.0388, 184.6738
594.5209, 186.3901
595.0031, 187.6687
595.4852, 188.9151
595.9673, 191.7125
596.4494, 194.4491
596.9315, 194.4495
597.4136, 187.1048
597.8958, 181.5390
598.3779, 184.0883
598.8600, 191.6314
599.3421, 196.3856
599.8242, 194.2540
600.3063, 191.3883
600.7885, 189.7513
601.2706, 189.4104
601.7527, 187.9715
602.2348, 184.6868
602.7169, 181.5287
603.1990, 179.6817
603.6812, 179.1856
604.1633, 179.7832
604.6454, 181.7725
605.1275, 183.8838
605.6096, 184.2580
606.0917, 183.2870
606.5739, 182.4980
607.0560, 182.1472
607.5381, 182.4309
608.0202, 184.4921
608.5023, 187.4901
608.9844, 189.0160
609.4666, 184.1773
609.9487, 180.6735
610.4308, 185.4097
610.9129, 198.5547
611.3950, 205.9766
611.8771, 198.5849
612.3593, 189.4010
612.8414, 186.0784
613.3235, 192.2960
613.8056, 194.5256
614.2877, 191.4331
614.7698, 186.0702
615.2520, 181.7031
615.7341, 178.3263
616.2162, 176.4209
