##NAMES=Tweddillite
##RRUFFID=R120125
##IDEAL CHEMISTRY=CaSrMn^3+^_2_Al(Si_2_O_7_)(SiO_4_)O(OH)
##LOCALITY=Wessels mine, Kalahari manganese field, Cape Province, South Africa
##OWNER=RRUFF
##SOURCE=William W. Pinch
##DESCRIPTION=Sprays of dark red elongated crystals
##STATUS=The identification of this mineral has been confirmed only by single crystal X-ray diffraction.
##URL=rruff.info/R120125
90.74744, 205.9645
91.22955, 210.4509
91.71167, 216.6061
92.19379, 220.5003
92.67590, 222.5296
93.15802, 224.2953
93.64014, 226.9032
94.12225, 230.1881
94.60437, 233.6253
95.08649, 237.2986
95.56860, 240.8423
96.05072, 243.5934
96.53284, 245.6988
97.01495, 247.6851
97.49707, 250.0400
97.97919, 252.7460
98.46130, 255.4488
98.94342, 258.1707
99.42554, 260.8954
99.90765, 263.1979
100.3898, 265.2088
100.8719, 266.6760
101.3540, 267.2945
101.8361, 267.1400
102.3182, 266.0944
102.8004, 264.1608
103.2825, 261.4448
103.7646, 257.7233
104.2467, 252.7740
104.7288, 247.0435
105.2109, 241.5679
105.6931, 236.4699
106.1752, 231.4034
106.6573, 226.1423
107.1394, 220.5234
107.6215, 215.0850
108.1036, 209.7555
108.5858, 204.5927
109.0679, 199.9503
109.5500, 196.0033
110.0321, 192.4133
110.5142, 189.0261
110.9963, 185.5410
111.4785, 182.5579
111.9606, 180.3010
112.4427, 178.7365
112.9248, 177.1875
113.4069, 175.2865
113.8890, 173.4943
114.3712, 172.1601
114.8533, 171.7944
115.3354, 171.4959
115.8175, 170.9568
116.2996, 170.1329
116.7817, 169.3425
117.2639, 168.6336
117.7460, 168.0282
118.2281, 167.5551
118.7102, 167.1021
119.1923, 166.8609
119.6744, 166.9930
120.1566, 167.5609
120.6387, 168.2666
121.1208, 168.8459
121.6029, 169.4175
122.0850, 170.2218
122.5671, 171.6314
123.0493, 173.2176
123.5314, 174.5650
124.0135, 175.6124
124.4956, 176.3867
124.9777, 176.7540
125.4598, 176.8039
125.9420, 176.8805
126.4241, 177.2756
126.9062, 177.8377
127.3883, 178.2952
127.8704, 178.5872
128.3525, 178.7522
128.8347, 178.8469
129.3168, 178.8696
129.7989, 178.7993
130.2810, 178.5576
130.7631, 178.1909
131.2452, 177.8984
131.7274, 177.8158
132.2095, 177.8017
132.6916, 177.4324
133.1737, 176.6712
133.6558, 175.7925
134.1379, 174.9805
134.6201, 174.2379
135.1022, 173.6826
135.5843, 173.4300
136.0664, 173.4260
136.5485, 173.2586
137.0306, 172.8948
137.5128, 172.4418
137.9949, 172.0236
138.4770, 171.6524
138.9591, 171.2395
139.4412, 170.7094
139.9233, 170.0450
140.4055, 169.5788
140.8876, 169.4342
141.3697, 169.3528
141.8518, 168.8768
142.3339, 167.8562
142.8160, 166.7784
143.2982, 165.7566
143.7803, 164.6945
144.2624, 164.0474
144.7445, 163.9622
145.2266, 164.2502
145.7087, 164.4899
146.1909, 164.7059
146.6730, 164.8516
147.1551, 164.9067
147.6372, 164.8200
148.1193, 164.7254
148.6014, 164.4916
149.0836, 164.2328
149.5657, 164.3448
150.0478, 165.1340
150.5299, 166.0439
151.0120, 166.8388
151.4941, 167.3255
151.9763, 167.9124
152.4584, 168.5129
152.9405, 169.1817
153.4226, 170.2022
153.9047, 172.0860
154.3868, 174.0069
154.8690, 175.5147
155.3511, 175.8849
155.8332, 176.5554
156.3153, 177.8867
156.7974, 179.8008
157.2795, 181.6473
157.7617, 183.2206
158.2438, 184.7139
158.7259, 186.2671
159.2080, 187.7100
159.6901, 189.4143
160.1722, 191.5311
160.6544, 194.0524
161.1365, 196.7589
161.6186, 199.5146
162.1007, 202.4252
162.5828, 205.6573
163.0649, 209.7085
163.5471, 213.6855
164.0292, 217.1317
164.5113, 220.0290
164.9934, 222.8031
165.4755, 225.8518
165.9576, 228.8584
166.4398, 231.3936
166.9219, 233.3768
167.4040, 234.8101
167.8861, 235.7675
168.3682, 236.2792
168.8503, 235.9884
169.3325, 234.4039
169.8146, 231.8861
170.2967, 229.0505
170.7788, 226.3033
171.2609, 223.2494
171.7430, 219.4510
172.2252, 214.8060
172.7073, 209.9615
173.1894, 205.0382
173.6715, 200.2402
174.1536, 196.1821
174.6357, 193.4785
175.1179, 191.4509
175.6000, 189.2582
176.0821, 186.8145
176.5642, 184.4271
177.0463, 182.3783
177.5284, 180.6263
178.0106, 179.0757
178.4927, 177.6503
178.9748, 176.3898
179.4569, 175.3899
179.9390, 174.6514
180.4211, 174.1712
180.9033, 173.9014
181.3854, 173.8632
181.8675, 174.1498
182.3496, 175.1027
182.8317, 176.4060
183.3138, 177.2939
183.7960, 177.5913
184.2781, 177.7049
184.7602, 178.2131
185.2423, 179.0827
185.7244, 179.9973
186.2065, 180.9311
186.6887, 181.7898
187.1708, 182.2372
187.6529, 182.2186
188.1350, 181.8117
188.6171, 181.0350
189.0992, 179.8900
189.5814, 178.7122
190.0635, 177.8271
190.5456, 177.1450
191.0277, 176.1172
191.5098, 174.6226
191.9919, 172.8423
192.4741, 171.0545
192.9562, 169.2525
193.4383, 167.7179
193.9204, 166.6816
194.4025, 166.1294
194.8846, 165.8286
195.3668, 165.7672
195.8489, 165.9255
196.3310, 166.2966
196.8131, 166.8978
197.2952, 167.5746
197.7773, 168.1317
198.2595, 168.5532
198.7416, 169.4568
199.2237, 171.0739
199.7058, 173.0789
200.1879, 174.4737
200.6700, 175.1506
201.1522, 175.7681
201.6343, 176.8703
202.1164, 178.5330
202.5985, 179.8887
203.0806, 180.7354
203.5627, 181.2497
204.0449, 181.9976
204.5270, 183.0346
205.0091, 184.1190
205.4912, 185.0671
205.9733, 185.8450
206.4554, 186.6730
206.9376, 187.5446
207.4197, 188.4901
207.9018, 189.6430
208.3839, 190.9886
208.8660, 192.5898
209.3481, 194.5487
209.8303, 196.9843
210.3124, 199.2621
210.7945, 201.1877
211.2766, 202.9211
211.7587, 205.2659
212.2408, 208.4641
212.7230, 211.7834
213.2051, 214.7707
213.6872, 217.3460
214.1693, 219.8568
214.6514, 222.2698
215.1335, 224.6397
215.6157, 227.1692
216.0978, 230.0411
216.5799, 232.7608
217.0620, 234.9733
217.5441, 236.4747
218.0262, 238.0862
218.5084, 240.0070
218.9905, 242.1261
219.4726, 243.7951
219.9547, 244.9750
220.4368, 245.8266
220.9189, 246.4529
221.4011, 246.9071
221.8832, 246.9996
222.3653, 246.5891
222.8474, 245.8084
223.3295, 245.2513
223.8116, 245.0838
224.2938, 244.9016
224.7759, 244.4589
225.2580, 243.6885
225.7401, 242.8053
226.2222, 241.7163
226.7043, 240.5210
227.1865, 239.6332
227.6686, 239.2717
228.1507, 238.9135
228.6328, 238.2992
229.1149, 237.4844
229.5970, 236.2637
230.0792, 234.4719
230.5613, 232.2659
231.0434, 230.3228
231.5255, 228.7754
232.0076, 227.3374
232.4897, 225.9129
232.9719, 224.6319
233.4540, 223.0755
233.9361, 221.1123
234.4182, 218.8650
234.9003, 216.7383
235.3824, 214.8224
235.8646, 212.8975
236.3467, 210.8135
236.8288, 208.3417
237.3109, 206.2171
237.7930, 204.5271
238.2751, 203.1740
238.7573, 201.9122
239.2394, 200.6840
239.7215, 199.6206
240.2036, 198.7822
240.6857, 198.2422
241.1678, 197.7440
241.6500, 197.2134
242.1321, 196.7434
242.6142, 196.5906
243.0963, 196.9107
243.5784, 197.3226
244.0605, 197.6623
244.5427, 197.8804
245.0248, 198.1477
245.5069, 198.3966
245.9890, 198.7268
246.4711, 199.3890
246.9532, 200.6252
247.4354, 201.8073
247.9175, 202.6181
248.3996, 202.8155
248.8817, 203.4753
249.3638, 204.7924
249.8459, 206.4658
250.3281, 207.9665
250.8102, 209.3406
251.2923, 210.4693
251.7744, 211.2696
252.2565, 211.6262
252.7386, 212.1302
253.2208, 212.8688
253.7029, 213.6910
254.1850, 214.3783
254.6671, 214.9139
255.1492, 215.3489
255.6313, 215.7550
256.1135, 216.1959
256.5956, 216.0879
257.0777, 215.1176
257.5598, 213.8945
258.0419, 213.2905
258.5240, 213.6027
259.0062, 213.8627
259.4883, 213.7722
259.9704, 213.3018
260.4525, 212.9410
260.9346, 212.6960
261.4167, 212.5585
261.8989, 212.5827
262.3810, 212.9237
262.8631, 213.0007
263.3452, 212.5489
263.8273, 211.5714
264.3094, 211.1532
264.7916, 211.5561
265.2737, 212.0980
265.7558, 212.1021
266.2379, 211.4376
266.7200, 210.6746
267.2021, 209.9415
267.6843, 209.2149
268.1664, 208.2161
268.6485, 206.8830
269.1306, 205.4075
269.6127, 203.8965
270.0948, 202.2839
270.5770, 200.9597
271.0591, 200.0906
271.5412, 199.5600
272.0233, 198.7841
272.5054, 197.7273
272.9875, 196.5444
273.4697, 195.2811
273.9518, 193.8752
274.4339, 192.7436
274.9160, 192.0074
275.3981, 191.5378
275.8802, 190.8773
276.3624, 189.9590
276.8445, 189.1602
277.3266, 188.6458
277.8087, 188.4025
278.2908, 188.7522
278.7729, 189.9092
279.2551, 191.4551
279.7372, 192.3201
280.2193, 192.3964
280.7014, 192.5193
281.1835, 193.1774
281.6656, 194.3635
282.1478, 195.5522
282.6299, 196.7104
283.1120, 197.8900
283.5941, 199.0719
284.0762, 200.2448
284.5583, 201.7949
285.0405, 204.1468
285.5226, 207.1815
286.0047, 209.7652
286.4868, 211.8349
286.9689, 213.6412
287.4510, 215.5189
287.9332, 217.4588
288.4153, 219.3088
288.8974, 221.1271
289.3795, 222.7973
289.8616, 223.8352
290.3438, 224.2392
290.8259, 224.0148
291.3080, 223.1064
291.7901, 221.5502
292.2722, 219.4893
292.7543, 216.8817
293.2365, 213.8616
293.7186, 210.6707
294.2007, 207.3333
294.6828, 204.0073
295.1649, 200.7874
295.6470, 197.7095
296.1292, 194.7459
296.6113, 191.7988
297.0934, 189.1146
297.5755, 187.2113
298.0576, 186.0245
298.5397, 184.9489
299.0219, 183.2942
299.5040, 181.4258
299.9861, 180.1848
300.4682, 179.8386
300.9503, 179.9551
301.4324, 180.0920
301.9146, 180.2637
302.3967, 180.5319
302.8788, 180.9209
303.3609, 181.4351
303.8430, 182.0620
304.3251, 182.7869
304.8073, 183.6699
305.2894, 184.7421
305.7715, 186.0122
306.2536, 187.5351
306.7357, 189.6215
307.2178, 191.8134
307.7000, 193.5578
308.1821, 194.7717
308.6642, 195.9132
309.1463, 197.3598
309.6284, 198.9392
310.1105, 200.4061
310.5927, 201.7714
311.0748, 202.8796
311.5569, 203.5324
312.0390, 203.7307
312.5211, 203.8990
313.0032, 204.1767
313.4854, 204.5941
313.9675, 205.1803
314.4496, 206.1816
314.9317, 207.1431
315.4138, 207.7515
315.8959, 208.0808
316.3781, 208.5935
316.8602, 209.6048
317.3423, 210.8071
317.8244, 211.9671
318.3065, 212.9158
318.7886, 213.9845
319.2708, 215.3255
319.7529, 216.8696
320.2350, 218.4290
320.7171, 219.9062
321.1992, 221.3951
321.6813, 222.9672
322.1635, 224.7437
322.6456, 226.3367
323.1277, 227.6480
323.6098, 228.7299
324.0919, 229.6752
324.5740, 230.4969
325.0562, 231.1696
325.5383, 231.7142
326.0204, 232.1747
326.5025, 232.3289
326.9846, 231.9699
327.4667, 231.3797
327.9489, 230.8562
328.4310, 230.6823
328.9131, 230.2671
329.3952, 229.4315
329.8773, 228.1644
330.3594, 227.0192
330.8416, 225.9552
331.3237, 225.0609
331.8058, 224.4205
332.2879, 224.2151
332.7700, 223.9377
333.2521, 223.4219
333.7343, 222.7761
334.2164, 222.5302
334.6985, 222.7317
335.1806, 223.2552
335.6627, 224.0359
336.1448, 225.0441
336.6270, 226.3738
337.1091, 228.0195
337.5912, 229.9767
338.0733, 232.2539
338.5554, 234.8013
339.0375, 237.7624
339.5197, 241.3048
340.0018, 245.4330
340.4839, 249.4814
340.9660, 253.2888
341.4481, 257.2024
341.9302, 261.6550
342.4124, 266.7265
342.8945, 271.7301
343.3766, 276.4200
343.8587, 280.8889
344.3408, 285.8686
344.8229, 291.3952
345.3051, 297.0157
345.7872, 302.5330
346.2693, 307.8544
346.7514, 312.4848
347.2335, 316.1390
347.7156, 319.2245
348.1978, 322.6718
348.6799, 326.4043
349.1620, 329.4229
349.6441, 331.0357
350.1262, 331.4458
350.6083, 331.0589
351.0905, 329.8633
351.5726, 328.0962
352.0547, 326.2660
352.5368, 324.1371
353.0189, 320.9949
353.5010, 315.9669
353.9832, 309.9668
354.4653, 304.0768
354.9474, 298.2978
355.4295, 292.4301
355.9116, 286.2890
356.3937, 279.9196
356.8759, 273.4808
357.3580, 266.7589
357.8401, 260.1404
358.3222, 253.8884
358.8043, 247.9394
359.2864, 242.2569
359.7686, 236.8923
360.2507, 231.7135
360.7328, 226.6685
361.2149, 221.6861
361.6970, 216.8565
362.1791, 212.1701
362.6613, 207.6586
363.1434, 203.3978
363.6255, 199.4992
364.1076, 195.7836
364.5897, 192.0858
365.0718, 188.3486
365.5540, 185.0304
366.0361, 182.5055
366.5182, 180.3497
367.0003, 178.0541
367.4824, 175.3426
367.9645, 172.7163
368.4467, 170.1352
368.9288, 167.6242
369.4109, 165.7088
369.8930, 164.7626
370.3751, 164.1291
370.8572, 163.3596
371.3394, 162.2463
371.8215, 161.3691
372.3036, 160.8246
372.7857, 160.5447
373.2678, 160.2601
373.7499, 159.8721
374.2321, 159.6455
374.7142, 159.7383
375.1963, 160.2333
375.6784, 160.6769
376.1605, 161.0180
376.6426, 161.3671
377.1248, 161.8692
377.6069, 162.5290
378.0890, 163.3586
378.5711, 164.5306
379.0532, 165.9286
379.5353, 166.4778
380.0175, 166.0441
380.4996, 165.4639
380.9817, 165.6707
381.4638, 166.5459
381.9459, 167.1061
382.4280, 167.1332
382.9102, 166.7577
383.3923, 166.1949
383.8744, 165.4397
384.3565, 164.4967
384.8386, 163.3576
385.3207, 162.0367
385.8029, 160.5943
386.2850, 159.0183
386.7671, 157.3388
387.2492, 155.4800
387.7313, 153.5255
388.2134, 151.7015
388.6956, 150.3137
389.1777, 148.9962
389.6598, 147.3233
390.1419, 145.3237
390.6240, 143.4383
391.1061, 141.8372
391.5883, 140.5165
392.0704, 139.4825
392.5525, 138.9221
393.0346, 138.3975
393.5167, 137.6470
393.9988, 136.7617
394.4810, 135.9875
394.9631, 135.4074
395.4452, 134.9610
395.9273, 134.6207
396.4094, 134.3835
396.8915, 134.2497
397.3737, 134.1873
397.8558, 134.2368
398.3379, 134.4484
398.8200, 135.0036
399.3021, 135.5292
399.7842, 135.8488
400.2664, 135.9626
400.7485, 136.4721
401.2306, 137.6724
401.7127, 138.9700
402.1948, 139.9760
402.6769, 140.5228
403.1591, 141.1294
403.6412, 141.8040
404.1233, 142.5618
404.6054, 143.4696
405.0875, 144.5386
405.5696, 145.6991
406.0518, 146.9325
406.5339, 148.2410
407.0160, 149.6246
407.4981, 151.1152
407.9802, 152.5612
408.4623, 153.6132
408.9445, 154.2941
409.4266, 155.4525
409.9087, 157.4582
410.3908, 159.9561
410.8729, 162.0713
411.3550, 163.8258
411.8372, 165.5740
412.3193, 167.6392
412.8014, 169.9003
413.2835, 172.0457
413.7656, 174.0019
414.2477, 176.0265
414.7299, 178.3791
415.2120, 181.0081
415.6941, 183.7238
416.1762, 186.3142
416.6583, 189.0622
417.1404, 192.2872
417.6226, 196.0035
418.1047, 199.7951
418.5868, 203.2591
419.0689, 206.7815
419.5510, 210.7931
420.0331, 215.4757
420.5153, 220.5343
420.9974, 225.7395
421.4795, 231.2006
421.9616, 236.9915
422.4437, 243.1988
422.9258, 249.7631
423.4080, 256.7377
423.8901, 264.3587
424.3722, 271.7955
424.8543, 278.5674
425.3364, 285.3417
425.8185, 292.7713
426.3007, 301.7926
426.7828, 310.2471
427.2649, 317.8795
427.7470, 324.6855
428.2291, 330.8427
428.7112, 336.2991
429.1934, 341.1102
429.6755, 345.5551
430.1576, 349.8216
430.6397, 352.6347
431.1218, 353.9893
431.6039, 353.8349
432.0861, 351.9095
432.5682, 348.1459
433.0503, 343.3896
433.5324, 337.5940
434.0145, 331.0688
434.4966, 324.8584
434.9788, 318.9700
435.4609, 313.2794
435.9430, 307.4798
436.4251, 301.7310
436.9072, 296.4799
437.3893, 291.7370
437.8715, 287.5835
438.3536, 284.2169
438.8357, 281.5297
439.3178, 279.2224
439.7999, 276.9025
440.2820, 275.0323
440.7642, 274.2596
441.2463, 274.6095
441.7284, 275.0264
442.2105, 274.8739
442.6926, 274.5271
443.1747, 274.3482
443.6569, 274.5459
444.1390, 274.7841
444.6211, 275.0212
445.1032, 275.2273
445.5853, 275.3086
446.0674, 275.4916
446.5496, 275.3412
447.0317, 274.6357
447.5138, 273.1879
447.9959, 271.7905
448.4780, 270.5910
448.9601, 269.3441
449.4423, 267.7418
449.9244, 265.5152
450.4065, 263.5687
450.8886, 262.1993
451.3707, 261.2083
451.8528, 259.6902
452.3350, 257.5641
452.8171, 255.1037
453.2992, 252.2805
453.7813, 249.0711
454.2634, 246.2426
454.7455, 243.9194
455.2277, 241.5296
455.7098, 238.1104
456.1919, 233.8336
456.6740, 229.6492
457.1561, 225.9842
457.6382, 222.5903
458.1204, 219.2186
458.6025, 215.8338
459.0846, 212.4016
459.5667, 208.7049
460.0488, 204.9836
460.5309, 201.5345
461.0131, 198.4329
461.4952, 195.5062
461.9773, 192.5506
462.4594, 189.7550
462.9415, 187.3573
463.4236, 185.6888
463.9058, 184.2499
464.3879, 182.9586
464.8700, 181.7799
465.3521, 180.3284
465.8342, 177.9905
466.3163, 175.7167
466.7985, 174.0436
467.2806, 173.3224
467.7627, 172.6500
468.2448, 172.1135
468.7269, 171.5771
469.2090, 170.8077
469.6912, 169.5395
470.1733, 168.5213
470.6554, 168.0284
471.1375, 167.9818
471.6196, 167.5870
472.1017, 166.7508
472.5839, 165.8243
473.0660, 165.0553
473.5481, 164.4500
474.0302, 163.6596
474.5123, 162.5852
474.9944, 161.5208
475.4766, 160.9782
475.9587, 160.8846
476.4408, 160.7601
476.9229, 160.3208
477.4050, 159.7967
477.8871, 159.5989
478.3693, 159.7025
478.8514, 159.8704
479.3335, 159.9563
479.8156, 160.0045
480.2977, 160.0344
480.7798, 160.0010
481.2620, 160.1125
481.7441, 160.4955
482.2262, 161.0968
482.7083, 161.8390
483.1904, 162.6448
483.6725, 163.6369
484.1547, 164.9889
484.6368, 166.6528
485.1189, 168.0833
485.6010, 168.7674
486.0831, 169.5471
486.5652, 170.8624
487.0474, 173.0738
487.5295, 175.0619
488.0116, 176.7186
488.4937, 178.2083
488.9758, 179.7757
489.4579, 181.4531
489.9401, 183.1312
490.4222, 184.8360
490.9043, 186.5196
491.3864, 187.9573
491.8685, 189.1059
492.3506, 190.3500
492.8328, 192.1117
493.3149, 194.2294
493.7970, 195.9510
494.2791, 197.1781
494.7612, 198.2533
495.2433, 199.6743
495.7255, 201.2729
496.2076, 202.6351
496.6897, 203.5914
497.1718, 204.2704
497.6539, 204.6859
498.1360, 204.8892
498.6182, 205.0841
499.1003, 205.5233
499.5824, 205.8898
500.0645, 205.9893
500.5466, 205.8208
501.0287, 205.2935
501.5109, 204.1475
501.9930, 202.7309
502.4751, 201.4047
502.9572, 200.7273
503.4393, 199.5194
503.9214, 197.5768
504.4036, 195.0250
504.8857, 192.2341
505.3678, 189.1562
505.8499, 185.8627
506.3320, 182.2930
506.8141, 178.4106
507.2963, 174.8681
507.7784, 171.7113
508.2605, 168.6589
508.7426, 165.3043
509.2247, 161.6777
509.7068, 158.2329
510.1890, 155.0510
510.6711, 152.1010
511.1532, 149.4190
511.6353, 146.9770
512.1174, 144.7122
512.5995, 142.5781
513.0817, 140.5822
513.5638, 138.7514
514.0459, 137.0825
514.5280, 135.5080
515.0101, 133.8430
515.4922, 132.3214
515.9744, 131.2348
516.4565, 130.9328
516.9386, 130.4752
517.4207, 129.3595
517.9028, 127.9338
518.3849, 126.7679
518.8671, 126.0153
519.3492, 125.4755
519.8313, 125.3150
520.3134, 125.4705
520.7955, 124.8748
521.2776, 122.9440
521.7598, 121.1178
522.2419, 120.3595
522.7240, 120.9654
523.2061, 120.9971
523.6882, 120.3215
524.1703, 119.2903
524.6525, 118.1965
525.1346, 117.0626
525.6167, 116.3797
526.0988, 116.4443
526.5809, 116.8536
527.0630, 116.9006
527.5452, 116.6285
528.0273, 116.2872
528.5094, 115.9127
528.9915, 115.6083
529.4736, 115.5186
529.9557, 115.6593
530.4379, 115.8396
530.9200, 115.9170
531.4021, 115.9905
531.8842, 116.1596
532.3663, 116.4902
532.8484, 116.8539
533.3306, 117.3601
533.8127, 117.8662
534.2948, 118.0510
534.7769, 117.3730
535.2590, 116.9812
535.7411, 117.2848
536.2233, 118.2516
536.7054, 118.7236
537.1875, 118.4655
537.6696, 118.1654
538.1517, 118.2506
538.6339, 118.7360
539.1160, 119.4421
539.5981, 120.4060
540.0802, 121.4568
540.5623, 122.4040
541.0444, 123.2586
541.5266, 124.0897
542.0087, 124.8388
542.4908, 125.6663
542.9729, 126.8132
543.4550, 128.2305
543.9371, 129.7581
544.4193, 131.2629
544.9014, 132.8825
545.3835, 134.7602
545.8656, 136.9151
546.3477, 139.1550
546.8298, 141.4378
547.3120, 143.7830
547.7941, 146.1849
548.2762, 148.5811
548.7583, 151.1431
549.2404, 153.9289
549.7225, 156.8728
550.2047, 159.8648
550.6868, 162.8613
551.1689, 166.0095
551.6510, 169.3617
552.1331, 172.8893
552.6152, 176.2447
553.0974, 179.3555
553.5795, 182.6621
554.0616, 186.4754
554.5437, 190.7496
555.0258, 195.2244
555.5079, 199.9128
555.9901, 204.7571
556.4722, 209.8571
556.9543, 215.1104
557.4364, 220.3074
557.9185, 225.4284
558.4006, 230.4224
558.8828, 235.8760
559.3649, 241.1986
559.8470, 245.1552
560.3291, 246.9559
560.8112, 247.5187
561.2933, 247.3568
561.7755, 246.4895
562.2576, 244.1729
562.7397, 239.5816
563.2218, 234.0945
563.7039, 228.2798
564.1860, 221.9862
564.6682, 215.6736
565.1503, 209.1406
565.6324, 202.7656
566.1145, 197.0925
566.5966, 192.0938
567.0787, 187.6436
567.5609, 183.7379
568.0430, 180.3362
568.5251, 177.4155
569.0072, 174.9660
569.4893, 173.1115
569.9714, 172.0747
570.4536, 171.5763
570.9357, 171.1684
571.4178, 170.8596
571.8999, 170.9372
572.3820, 171.9550
572.8641, 173.2339
573.3463, 174.0756
573.8284, 174.0593
574.3105, 174.4381
574.7926, 175.9782
575.2747, 177.9767
575.7568, 179.5353
576.2390, 180.0159
576.7211, 180.8367
577.2032, 182.2567
577.6853, 184.1264
578.1674, 185.9011
578.6495, 187.5665
579.1317, 189.1848
579.6138, 190.8338
580.0959, 192.4790
580.5780, 193.7524
581.0601, 194.6350
581.5422, 195.4866
582.0244, 196.5631
582.5065, 197.8538
582.9886, 199.3027
583.4707, 200.9229
583.9528, 202.7084
584.4349, 204.7780
584.9171, 206.9832
585.3992, 209.1029
585.8813, 210.9933
586.3634, 212.8607
586.8455, 214.7615
587.3276, 216.6992
