##NAMES=Tweddillite
##RRUFFID=R120125
##IDEAL CHEMISTRY=CaSrMn^3+^_2_Al(Si_2_O_7_)(SiO_4_)O(OH)
##LOCALITY=Wessels mine, Kalahari manganese field, Cape Province, South Africa
##OWNER=RRUFF
##SOURCE=William W. Pinch
##DESCRIPTION=Sprays of dark red elongated crystals
##STATUS=The identification of this mineral has been confirmed only by single crystal X-ray diffraction.
##URL=rruff.info/R120125
91.55994, 238.8587
92.04205, 246.1259
92.52417, 257.0392
93.00629, 269.3201
93.48840, 280.6801
93.97052, 289.0862
94.45264, 293.5662
94.93475, 298.6519
95.41687, 302.0970
95.89898, 303.3741
96.38110, 303.9533
96.86321, 305.3359
97.34533, 307.9706
97.82745, 310.5704
98.30956, 311.6429
98.79168, 310.8955
99.27380, 309.7220
99.75591, 308.4122
100.2380, 306.8874
100.7201, 305.0523
101.2023, 303.0566
101.6844, 300.5117
102.1665, 296.6571
102.6486, 290.8926
103.1307, 284.1991
103.6128, 277.4541
104.0950, 270.6495
104.5771, 263.5750
105.0592, 255.7183
105.5413, 247.4591
106.0234, 239.4012
106.5055, 231.8159
106.9877, 224.6000
107.4698, 217.2164
107.9519, 208.8523
108.4340, 201.3717
108.9161, 195.6203
109.3982, 191.2845
109.8804, 187.6439
110.3625, 184.0937
110.8446, 180.6178
111.3267, 177.3891
111.8088, 174.3969
112.2909, 171.6182
112.7731, 169.0137
113.2552, 166.6031
113.7373, 164.4403
114.2194, 162.6393
114.7015, 161.3931
115.1836, 160.1892
115.6658, 159.0304
116.1479, 157.9048
116.6300, 156.7793
117.1121, 155.6338
117.5942, 154.5224
118.0763, 153.5944
118.5584, 152.8307
119.0406, 152.2124
119.5227, 151.7296
120.0048, 151.3875
120.4869, 151.2185
120.9690, 151.3018
121.4511, 151.5297
121.9333, 151.6734
122.4154, 151.7390
122.8975, 151.7091
123.3796, 151.5739
123.8617, 151.3343
124.3438, 150.9733
124.8260, 150.3446
125.3081, 149.6357
125.7902, 149.0049
126.2723, 148.5105
126.7544, 148.1261
127.2365, 147.8000
127.7187, 147.5280
128.2008, 147.3333
128.6829, 147.2984
129.1650, 147.3160
129.6471, 147.2669
130.1292, 147.1001
130.6114, 146.8046
131.0935, 146.2008
131.5756, 145.0229
132.0577, 143.7677
132.5398, 142.4247
133.0219, 141.0854
133.5041, 139.9091
133.9862, 139.0257
134.4683, 138.4527
134.9504, 138.1370
135.4325, 138.3260
135.9146, 138.5234
136.3968, 138.3857
136.8789, 137.9048
137.3610, 137.3852
137.8431, 137.2353
138.3252, 137.5889
138.8073, 137.5402
139.2895, 136.7366
139.7716, 135.6230
140.2537, 134.6855
140.7358, 134.0276
141.2179, 133.5743
141.7000, 133.3471
142.1821, 133.3298
142.6643, 133.1814
143.1464, 132.6169
143.6285, 131.7747
144.1106, 131.1759
144.5927, 131.0780
145.0748, 131.1039
145.5570, 130.8694
146.0391, 130.3735
146.5212, 129.8979
147.0033, 129.7623
147.4854, 130.0213
147.9675, 130.0819
148.4497, 129.6419
148.9318, 129.0799
149.4139, 128.5412
149.8960, 128.0695
150.3781, 127.6961
150.8602, 127.4882
151.3424, 127.5201
151.8245, 127.5628
152.3066, 127.6046
152.7887, 127.6397
153.2708, 127.6437
153.7529, 127.6109
154.2351, 127.5828
154.7172, 127.6568
155.1993, 127.6202
155.6814, 127.9956
156.1635, 128.9772
156.6456, 130.3256
157.1278, 131.7832
157.6099, 133.2290
158.0920, 134.6611
158.5741, 136.0686
159.0562, 137.4068
159.5383, 138.7736
160.0205, 140.0620
160.5026, 141.3809
160.9847, 143.0222
161.4668, 145.2131
161.9489, 147.8199
162.4310, 150.1503
162.9131, 151.9926
163.3953, 153.7778
163.8774, 155.8399
164.3595, 158.1387
164.8416, 160.2507
165.3237, 162.0450
165.8058, 163.3863
166.2880, 164.0720
166.7701, 163.8958
167.2522, 163.2007
167.7343, 162.3796
168.2164, 161.4755
168.6985, 160.2459
169.1807, 158.4571
169.6628, 156.2911
170.1449, 153.8938
170.6270, 151.3155
171.1091, 148.5511
171.5912, 145.5482
172.0734, 142.1482
172.5555, 138.7978
173.0376, 135.4322
173.5197, 132.2318
174.0018, 129.4673
174.4839, 127.3761
174.9661, 125.8511
175.4482, 124.2679
175.9303, 122.5294
176.4124, 120.8411
176.8945, 119.1479
177.3766, 117.5478
177.8588, 116.2389
178.3409, 115.4005
178.8230, 115.0362
179.3051, 114.4653
179.7872, 113.4369
180.2693, 112.4481
180.7515, 111.5613
181.2336, 110.8280
181.7157, 110.3377
182.1978, 110.1832
182.6799, 110.4004
183.1620, 110.6265
183.6441, 111.0888
184.1263, 111.3653
184.6084, 111.1505
185.0905, 110.4983
185.5726, 109.7476
186.0547, 109.2107
186.5368, 108.9263
187.0190, 108.5805
187.5011, 108.0782
187.9832, 107.5870
188.4653, 107.3084
188.9474, 107.2511
189.4296, 107.1189
189.9117, 106.5738
190.3938, 105.6250
190.8759, 104.7418
191.3580, 103.9637
191.8401, 103.2832
192.3223, 102.7183
192.8044, 102.2882
193.2865, 101.8785
193.7686, 101.3289
194.2507, 100.6922
194.7328, 100.1568
195.2150, 99.78792
195.6971, 99.55553
196.1792, 99.44200
196.6613, 99.53159
197.1434, 99.54632
197.6255, 99.18269
198.1077, 98.57299
198.5898, 98.06387
199.0719, 97.91794
199.5540, 98.03897
200.0361, 98.01292
200.5182, 97.77395
201.0004, 97.45125
201.4825, 97.08057
201.9646, 96.68901
202.4467, 96.34302
202.9288, 96.09348
203.4109, 95.93613
203.8930, 95.80495
204.3752, 95.68425
204.8573, 95.61508
205.3394, 95.62930
205.8215, 95.70851
206.3036, 95.80598
206.7857, 95.86842
207.2679, 95.88828
207.7500, 96.02457
208.2321, 96.30888
208.7142, 96.69062
209.1963, 97.17402
209.6784, 97.74695
210.1606, 98.38917
210.6427, 99.09046
211.1248, 99.85287
211.6069, 100.6177
212.0890, 101.3618
212.5711, 102.1264
213.0533, 102.8891
213.5354, 103.6780
214.0175, 104.5948
214.4996, 105.7699
214.9817, 107.2930
215.4638, 108.4165
215.9460, 108.8377
216.4281, 109.2256
216.9102, 109.9140
217.3923, 110.8941
217.8744, 111.9819
218.3565, 113.0228
218.8387, 114.0150
219.3208, 114.9119
219.8029, 115.6226
220.2850, 116.3275
220.7671, 117.1358
221.2492, 118.0500
221.7314, 119.0065
222.2135, 119.9430
222.6956, 120.8614
223.1777, 121.8768
223.6598, 123.1845
224.1419, 124.4484
224.6240, 125.3329
225.1062, 125.8423
225.5883, 126.3587
226.0704, 127.2366
226.5525, 128.4210
227.0346, 129.4401
227.5167, 130.1875
227.9989, 130.8052
228.4810, 131.5130
228.9631, 132.3333
229.4452, 132.8319
229.9273, 132.4460
230.4094, 131.4786
230.8916, 130.7815
231.3737, 130.8489
231.8558, 131.0507
232.3379, 130.6643
232.8200, 129.6415
233.3021, 128.3680
233.7843, 126.9719
234.2664, 125.4904
234.7485, 123.9740
235.2306, 122.4716
235.7127, 120.9081
236.1948, 119.0424
236.6770, 116.7123
237.1591, 114.7172
237.6412, 113.8577
238.1233, 113.4381
238.6054, 112.6846
239.0875, 111.2761
239.5697, 109.5534
240.0518, 107.9734
240.5339, 106.4423
241.0160, 105.3554
241.4981, 105.2956
241.9802, 105.5525
242.4624, 105.4137
242.9445, 104.5730
243.4266, 103.4466
243.9087, 102.7378
244.3908, 102.5371
244.8729, 102.5287
245.3550, 102.7681
245.8372, 103.0713
246.3193, 103.2743
246.8014, 103.3185
247.2835, 103.2866
247.7656, 103.3272
248.2477, 103.4804
248.7299, 103.6094
249.2120, 103.5650
249.6941, 103.5602
250.1762, 103.8102
250.6583, 104.3730
251.1404, 105.0518
251.6226, 105.4971
252.1047, 105.5394
252.5868, 105.7308
253.0689, 106.3013
253.5510, 106.8988
254.0331, 107.2673
254.5153, 107.3459
254.9974, 107.2662
255.4795, 107.2130
255.9616, 107.1646
256.4437, 107.1998
256.9258, 107.3943
257.4080, 107.6029
257.8901, 107.6845
258.3722, 107.6374
258.8543, 107.6168
259.3364, 107.8632
259.8185, 108.5808
260.3007, 109.0412
260.7828, 109.0714
261.2649, 109.0382
261.7470, 109.1155
262.2291, 109.3489
262.7112, 109.7444
263.1934, 110.3544
263.6755, 111.3424
264.1576, 111.9164
264.6397, 111.8137
265.1218, 111.6022
265.6039, 111.7073
266.0861, 112.0646
266.5682, 112.2268
267.0503, 111.7134
267.5324, 110.3795
268.0145, 109.2852
268.4966, 108.6853
268.9788, 108.0438
269.4609, 107.1168
269.9430, 105.9113
270.4251, 104.5247
270.9072, 102.9911
271.3893, 101.3051
271.8715, 99.96140
272.3536, 99.20930
272.8357, 98.47828
273.3178, 97.48199
273.7999, 96.29967
274.2820, 95.20326
274.7642, 94.39439
275.2463, 93.83843
275.7284, 93.12200
276.2105, 92.08920
276.6926, 91.10206
277.1747, 90.21364
277.6568, 89.45675
278.1389, 88.89874
278.6211, 88.58170
279.1032, 88.48080
279.5853, 88.51096
280.0674, 88.90809
280.5495, 89.13702
281.0316, 88.89364
281.5138, 88.41223
281.9959, 88.11449
282.4780, 88.19048
282.9601, 88.52244
283.4422, 88.82578
283.9243, 89.12674
284.4065, 89.36323
284.8886, 89.37975
285.3707, 89.36096
285.8528, 89.62953
286.3349, 90.31682
286.8170, 91.16601
287.2992, 91.74641
287.7813, 92.00392
288.2634, 92.20516
288.7455, 92.38577
289.2276, 92.53027
289.7097, 92.64135
290.1919, 92.72289
290.6740, 92.70214
291.1561, 92.42594
291.6382, 91.84003
292.1203, 91.44785
292.6024, 91.58562
293.0846, 91.77688
293.5667, 91.50283
294.0488, 90.70153
294.5309, 89.75420
295.0130, 88.93699
295.4951, 88.27414
295.9773, 87.89468
296.4594, 87.93737
296.9415, 88.16846
297.4236, 88.50424
297.9057, 88.91165
298.3878, 89.18874
298.8700, 89.15545
299.3521, 88.85300
299.8342, 88.63907
300.3163, 88.37968
300.7984, 88.32573
301.2805, 88.71921
301.7627, 89.48331
302.2448, 90.27421
302.7269, 90.92958
303.2090, 91.48032
303.6911, 92.02835
304.1732, 92.53488
304.6554, 93.10255
305.1375, 93.78789
305.6196, 94.57084
306.1017, 95.44675
306.5838, 96.47971
307.0659, 97.48086
307.5481, 98.01116
308.0302, 97.97385
308.5123, 97.98604
308.9944, 98.29346
309.4765, 98.76888
309.9586, 99.21977
310.4408, 99.61098
310.9229, 99.90443
311.4050, 100.0144
311.8871, 99.94307
312.3692, 99.83378
312.8513, 99.68850
313.3335, 99.53052
313.8156, 99.36898
314.2977, 99.20312
314.7798, 99.08156
315.2619, 99.03445
315.7440, 99.07069
316.2262, 99.23336
316.7083, 99.64890
317.1904, 100.1054
317.6725, 100.4247
318.1546, 100.6075
318.6367, 100.7475
319.1188, 100.8797
319.6010, 101.0246
320.0831, 101.2554
320.5652, 101.6264
321.0473, 102.0269
321.5294, 102.4145
322.0115, 102.7850
322.4937, 103.1510
322.9758, 103.5536
323.4579, 103.9065
323.9400, 103.9693
324.4221, 103.6451
324.9042, 103.3061
325.3864, 103.0628
325.8685, 102.8968
326.3506, 102.8064
326.8327, 102.8176
327.3148, 102.8053
327.7969, 102.5505
328.2791, 102.0344
328.7612, 101.4701
329.2433, 100.9243
329.7254, 100.3385
330.2075, 99.59903
330.6896, 98.68628
331.1718, 97.77722
331.6539, 97.01446
332.1360, 96.41577
332.6181, 96.02593
333.1002, 96.03962
333.5823, 96.11878
334.0645, 95.96955
334.5466, 95.61626
335.0287, 95.31471
335.5108, 95.21719
335.9929, 95.33555
336.4750, 95.66129
336.9572, 96.12847
337.4393, 96.84120
337.9214, 97.96154
338.4035, 99.36694
338.8856, 100.7582
339.3677, 101.9926
339.8499, 103.1353
340.3320, 104.3533
340.8141, 105.6239
341.2962, 106.9873
341.7783, 108.4496
342.2604, 110.0112
342.7426, 111.6933
343.2247, 113.4958
343.7068, 115.3438
344.1889, 117.1387
344.6710, 118.8843
345.1531, 120.5357
345.6353, 122.1993
346.1174, 123.6819
346.5995, 124.7869
347.0816, 125.5200
347.5637, 126.1080
348.0458, 126.7806
348.5280, 127.5582
349.0101, 127.7870
349.4922, 127.1939
349.9743, 126.4324
350.4564, 125.8420
350.9385, 125.3089
351.4207, 124.5185
351.9028, 123.2800
352.3849, 121.6744
352.8670, 120.0205
353.3491, 118.5614
353.8312, 116.7605
354.3134, 114.2915
354.7955, 111.5529
355.2776, 108.9590
355.7597, 106.6624
356.2418, 104.6075
356.7239, 102.7062
357.2061, 101.1644
357.6882, 99.33874
358.1703, 96.89517
358.6524, 94.44023
359.1345, 92.45952
359.6166, 90.93909
360.0987, 89.49673
360.5808, 87.70325
361.0630, 85.46819
361.5451, 83.77262
362.0272, 83.25485
362.5093, 82.58141
362.9914, 81.15746
363.4735, 79.25584
363.9557, 77.44694
364.4378, 76.06814
364.9199, 75.05904
365.4020, 74.16979
365.8841, 73.48739
366.3662, 72.81670
366.8484, 72.13461
367.3305, 71.45541
367.8126, 70.76472
368.2947, 70.06889
368.7768, 69.43678
369.2589, 69.00634
369.7411, 68.89849
370.2232, 68.66311
370.7053, 68.05887
371.1874, 67.51906
371.6695, 67.37180
372.1516, 67.54688
372.6338, 67.64828
373.1159, 67.18963
373.5980, 66.20761
374.0801, 65.98660
374.5622, 67.22464
375.0443, 68.40187
375.5265, 68.99399
376.0086, 69.20661
376.4907, 69.33472
376.9728, 69.48450
377.4549, 69.72321
377.9370, 70.25781
378.4192, 71.24020
378.9013, 72.08584
379.3834, 72.62449
379.8655, 72.97359
380.3476, 73.18769
380.8297, 73.27949
381.3119, 73.29354
381.7940, 73.25418
382.2761, 73.16273
382.7582, 73.08987
383.2403, 73.12022
383.7224, 73.07283
384.2046, 72.82221
384.6867, 72.40089
385.1688, 71.92197
385.6509, 71.47881
386.1330, 71.01800
386.6151, 70.39257
387.0973, 69.56783
387.5794, 68.70800
388.0615, 67.87302
388.5436, 67.06628
389.0257, 66.28893
389.5078, 65.51910
389.9900, 64.81853
390.4721, 64.29409
390.9542, 63.91670
391.4363, 63.46445
391.9184, 62.82300
392.4005, 62.12754
392.8827, 61.57500
393.3648, 61.17375
393.8469, 60.76855
394.3290, 60.18351
394.8111, 59.59529
395.2932, 59.35187
395.7754, 59.52752
396.2575, 59.76018
396.7396, 59.72450
397.2217, 59.44032
397.7038, 59.22046
398.1859, 58.99239
398.6681, 58.90556
399.1501, 59.14589
399.6323, 59.63179
400.1144, 60.06608
400.5965, 60.28972
401.0786, 60.38253
401.5607, 60.57867
402.0428, 60.98035
402.5250, 61.29033
403.0071, 61.27590
403.4892, 61.22557
403.9713, 61.53943
404.4534, 62.28718
404.9355, 63.12974
405.4177, 63.65721
405.8998, 63.77319
406.3819, 64.03299
406.8640, 64.49434
407.3461, 65.02252
407.8282, 65.56478
408.3104, 66.12059
408.7925, 66.70168
409.2746, 67.31908
409.7567, 67.97656
410.2388, 68.70522
410.7209, 69.67078
411.2031, 70.48490
411.6852, 70.99355
412.1673, 71.40682
412.6494, 71.93731
413.1315, 72.63463
413.6136, 73.38087
414.0958, 73.98159
414.5779, 74.34239
415.0600, 74.95200
415.5421, 76.16077
416.0242, 77.29433
416.5063, 77.92222
416.9885, 78.25723
417.4706, 78.81824
417.9527, 79.96325
418.4348, 81.55692
418.9169, 83.13790
419.3990, 84.58883
419.8812, 86.28063
420.3633, 88.41272
420.8454, 90.76273
421.3275, 93.15398
421.8096, 95.54324
422.2917, 97.91391
422.7739, 100.1573
423.2560, 102.2889
423.7381, 104.7299
424.2202, 107.6193
424.7023, 110.7367
425.1844, 113.9856
425.6666, 117.3224
426.1487, 120.6162
426.6308, 124.0602
427.1129, 127.3226
427.5950, 129.8281
428.0771, 131.5641
428.5593, 133.0030
429.0414, 134.4067
429.5235, 135.6271
430.0056, 136.4662
430.4877, 136.9972
430.9698, 136.9824
431.4520, 136.2561
431.9341, 134.9113
432.4162, 133.0045
432.8983, 130.5061
433.3804, 127.8230
433.8625, 125.4025
434.3447, 123.2823
434.8268, 121.2358
435.3089, 119.2340
435.7910, 117.3212
436.2731, 115.4473
436.7552, 113.6794
437.2374, 112.2386
437.7195, 111.2782
438.2016, 110.6923
438.6837, 110.0985
439.1658, 109.3908
439.6479, 108.8119
440.1301, 108.3704
440.6122, 108.0713
441.0943, 107.9189
441.5764, 107.9166
442.0585, 108.0838
442.5406, 108.4814
443.0227, 109.1715
443.5049, 109.6475
443.9870, 109.6870
444.4691, 109.7400
444.9512, 110.0313
445.4333, 110.4105
445.9154, 110.6073
446.3976, 110.4692
446.8797, 110.1357
447.3618, 109.9361
447.8439, 109.9592
448.3260, 109.8497
448.8081, 109.4343
449.2903, 108.9414
449.7724, 108.5772
450.2545, 108.3184
450.7366, 107.8864
451.2187, 106.9892
451.7008, 105.7260
452.1830, 104.5812
452.6651, 103.6812
453.1472, 102.6166
453.6293, 101.0488
454.1114, 99.18466
454.5935, 97.29319
455.0757, 95.47104
455.5578, 93.56748
456.0399, 91.32054
456.5220, 88.84616
457.0041, 86.64526
457.4862, 84.92515
457.9684, 83.38017
458.4505, 81.55265
458.9326, 79.43900
459.4147, 77.55995
459.8968, 76.16064
460.3789, 74.93183
460.8611, 73.60210
461.3432, 72.18047
461.8253, 70.83491
462.3074, 69.67871
462.7895, 68.65703
463.2716, 67.50986
463.7538, 65.97621
464.2359, 64.66589
464.7180, 63.75938
465.2001, 63.03644
465.6822, 62.27875
466.1643, 61.43950
466.6465, 60.60831
467.1286, 59.87540
467.6107, 59.23242
468.0928, 58.71597
468.5749, 58.45467
469.0570, 58.18351
469.5392, 57.85505
470.0213, 57.46616
470.5034, 57.01311
470.9855, 56.49188
471.4676, 55.93761
471.9497, 55.40360
472.4319, 54.88508
472.9140, 54.41150
473.3961, 53.99475
473.8782, 53.62464
474.3603, 53.28426
474.8424, 52.98420
475.3246, 52.75834
475.8067, 52.68996
476.2888, 52.68944
476.7709, 52.50877
477.2530, 52.10082
477.7351, 51.82389
478.2173, 51.95664
478.6994, 52.26251
479.1815, 52.34000
479.6636, 52.09899
480.1457, 51.90366
480.6278, 51.99464
481.1100, 52.23949
481.5920, 52.39462
482.0742, 52.41519
482.5563, 52.38957
483.0384, 52.35387
483.5205, 52.32178
484.0026, 52.51843
484.4847, 53.10189
484.9669, 53.72550
485.4490, 54.24188
485.9311, 54.70647
486.4132, 55.22896
486.8953, 55.85148
487.3774, 56.51711
487.8596, 57.12020
488.3417, 57.60769
488.8238, 58.19416
489.3059, 58.89011
489.7880, 59.65536
490.2701, 60.50516
490.7523, 61.40511
491.2344, 62.27339
491.7165, 63.04364
492.1986, 63.78984
492.6807, 64.74606
493.1628, 66.01839
493.6450, 67.20079
494.1271, 68.00182
494.6092, 68.82729
495.0913, 70.07095
495.5734, 71.69051
496.0555, 73.16065
496.5377, 73.92365
497.0198, 74.26768
497.5019, 75.03469
497.9840, 76.33784
498.4661, 77.61124
498.9482, 78.55005
499.4304, 79.26427
499.9125, 79.97878
500.3946, 80.73430
500.8767, 81.42421
501.3588, 82.02653
501.8409, 82.52449
502.3231, 82.94949
502.8052, 83.30936
503.2873, 83.40295
503.7694, 83.00110
504.2515, 82.07817
504.7336, 81.17606
505.2158, 80.49863
505.6979, 79.61551
506.1800, 78.28246
506.6621, 76.67124
507.1442, 75.04416
507.6263, 73.49648
508.1085, 71.96043
508.5906, 70.32210
509.0727, 68.50717
509.5548, 66.85290
510.0369, 65.49175
510.5190, 64.16337
511.0012, 62.68053
511.4833, 61.16580
511.9654, 59.88731
512.4475, 59.01423
512.9296, 58.31561
513.4117, 57.28027
513.8939, 55.81183
514.3760, 54.74857
514.8581, 54.59768
515.3402, 54.58268
515.8223, 53.99228
516.3044, 52.91108
516.7866, 51.94401
517.2687, 51.43623
517.7508, 51.12367
518.2329, 50.66087
518.7150, 50.05514
519.1971, 49.48958
519.6793, 49.06678
520.1614, 48.71532
520.6435, 48.25262
521.1256, 47.57267
521.6077, 47.09796
522.0898, 47.14372
522.5720, 47.25428
523.0541, 46.95063
523.5362, 46.27943
524.0183, 45.66536
524.5004, 45.42228
524.9825, 45.48281
525.4647, 45.49762
525.9468, 45.43653
526.4289, 45.36974
526.9110, 45.32175
527.3931, 45.25850
527.8752, 45.12651
528.3574, 44.93675
528.8395, 44.77847
529.3216, 44.76099
529.8037, 44.84843
530.2858, 44.79815
530.7679, 44.53135
531.2501, 44.31044
531.7322, 44.23791
532.2143, 44.27533
532.6964, 44.42938
533.1785, 44.72506
533.6606, 44.96818
534.1428, 45.00859
534.6249, 44.91113
535.1070, 44.78628
535.5891, 44.64111
536.0712, 44.56557
536.5533, 44.65615
537.0355, 44.87892
537.5176, 45.01211
537.9997, 44.92816
538.4818, 44.91908
538.9639, 45.10006
539.4460, 45.38643
539.9282, 45.66817
540.4103, 45.92470
540.8924, 46.22903
541.3745, 46.68606
541.8566, 47.30738
542.3387, 47.67652
542.8209, 47.45642
543.3029, 47.37895
543.7850, 47.66030
544.2672, 48.12482
544.7493, 48.56593
545.2314, 48.92950
545.7135, 49.31606
546.1956, 49.82999
546.6777, 50.46714
547.1599, 51.16176
547.6420, 51.92847
548.1241, 52.71114
548.6062, 53.46556
549.0883, 54.21387
549.5704, 54.99000
550.0526, 55.75820
550.5347, 56.63686
551.0168, 57.81158
551.4989, 59.13400
551.9810, 60.23346
552.4631, 61.02531
552.9453, 61.87082
553.4274, 63.09821
553.9095, 64.71545
554.3916, 66.48885
554.8737, 68.47127
555.3558, 70.51929
555.8380, 72.71899
556.3201, 74.91880
556.8022, 76.91480
557.2843, 78.66502
557.7664, 80.24492
558.2485, 81.78034
558.7307, 83.27308
559.2128, 84.46744
559.6949, 85.45439
560.1770, 85.95627
560.6591, 85.89991
561.1412, 85.37108
561.6234, 84.46320
562.1055, 83.19847
562.5876, 81.57702
563.0697, 79.40510
563.5518, 76.86391
564.0339, 74.56656
564.5161, 72.59164
564.9982, 70.76510
565.4803, 68.92297
565.9624, 67.13938
566.4445, 65.66582
566.9266, 64.61551
567.4088, 63.70991
567.8909, 62.83691
568.3730, 62.06548
568.8551, 61.49768
569.3372, 61.14249
569.8193, 60.89024
570.3015, 60.63453
570.7836, 60.38406
571.2657, 60.32573
571.7478, 60.54380
572.2299, 60.85588
572.7120, 61.20558
573.1942, 61.64956
573.6763, 62.32029
574.1584, 63.20007
574.6405, 64.01096
575.1226, 64.47263
575.6047, 64.66005
576.0869, 64.86196
576.5690, 65.06070
577.0511, 65.35141
577.5332, 65.84065
578.0153, 66.41231
578.4974, 66.84951
578.9796, 67.09728
579.4617, 67.44487
579.9438, 68.12965
580.4259, 68.89488
580.9080, 69.44718
581.3901, 69.77747
581.8723, 70.02683
582.3544, 70.27274
582.8365, 70.52544
583.3186, 70.82249
583.8007, 71.23479
584.2828, 71.58476
584.7650, 71.67382
585.2471, 71.86895
585.7292, 72.48465
586.2113, 73.43535
586.6934, 74.39546
587.1755, 75.15287
587.6577, 75.80770
588.1398, 76.65041
