##NAMES=Tychite
##RRUFFID=R060700
##IDEAL CHEMISTRY=Na_6_Mg_2_(CO_3_)_4_(S^6+^O_4_)
##LOCALITY=Borax Lake, Lake County, California
##OWNER=RRUFF
##SOURCE=Michael Scott
##DESCRIPTION=Colorless octahedra
##STATUS=The identification of this mineral is confirmed by single-crystal X-ray diffraction and chemical analysis.
##URL=rruff.info/R060700
##MEASURED CHEMISTRY=Na_6.00_(Mg_1.99_Ca_0.01_)_Î£=2.00_(CO_3_)_4_(S_1.00_O_4_) ; C not measured but estimated by difference and stoichiometry
136.467, 21890.180
136.949, 22267.939
137.432, 22667.180
137.914, 23089.301
138.396, 23529.359
138.878, 23986.770
139.360, 24455.830
139.842, 24931.859
140.324, 25420.170
140.806, 25893.189
141.288, 26331.350
141.771, 26721.381
142.253, 27150.211
142.735, 27648.619
143.217, 28173.920
143.699, 28603.490
144.181, 28936.881
144.663, 29182.070
145.145, 29351.641
145.628, 29494.221
146.110, 29462.840
146.592, 29207.869
147.074, 28752.141
147.556, 28273.260
148.038, 27714.990
148.520, 27168.859
149.002, 26697.961
149.484, 26298.000
149.967, 25966.211
150.449, 25717.070
150.931, 25552.660
151.413, 25404.051
151.895, 25260.980
152.377, 25139.471
152.859, 25054.449
153.342, 25028.789
153.824, 25022.131
154.306, 25032.289
154.788, 25063.539
155.270, 25095.400
155.752, 25109.410
156.234, 25129.109
156.716, 25184.010
157.198, 25322.211
157.680, 25462.289
158.163, 25570.160
158.645, 25628.070
159.127, 25691.561
159.609, 25781.070
160.091, 25884.461
160.573, 25979.350
161.055, 26041.061
161.538, 26099.820
162.020, 26172.131
162.502, 26267.789
162.984, 26361.680
163.466, 26442.650
163.948, 26511.949
164.430, 26575.650
164.912, 26636.930
165.394, 26692.811
165.876, 26741.350
166.359, 26777.699
166.841, 26812.039
167.323, 26857.869
167.805, 26912.080
168.287, 26951.830
168.769, 26951.430
169.251, 26934.180
169.733, 26926.289
170.216, 26936.600
170.698, 26961.199
171.180, 27003.869
171.662, 27064.740
172.144, 27123.221
172.626, 27154.971
173.108, 27175.961
173.590, 27212.760
174.072, 27282.939
174.555, 27371.260
175.037, 27465.740
175.519, 27566.609
176.001, 27665.391
176.483, 27756.279
176.965, 27838.689
177.447, 27909.119
177.929, 27959.359
178.412, 27998.131
178.894, 28040.801
179.376, 28089.840
179.858, 28133.699
180.340, 28153.199
180.822, 28153.240
181.304, 28156.189
181.786, 28166.631
182.268, 28189.410
182.751, 28245.131
183.233, 28347.779
183.715, 28453.760
184.197, 28487.740
184.679, 28456.051
185.161, 28419.820
185.643, 28409.330
186.125, 28424.961
186.607, 28472.279
187.090, 28560.580
187.572, 28667.859
188.054, 28752.301
188.536, 28812.891
189.018, 28874.080
189.500, 28973.180
189.982, 29097.721
190.464, 29167.391
190.947, 29141.680
191.429, 29066.840
191.911, 29073.480
192.393, 29167.721
192.875, 29289.869
193.357, 29395.061
193.839, 29483.689
194.321, 29563.061
194.803, 29631.131
195.286, 29693.240
195.768, 29773.039
196.250, 29872.211
196.732, 29982.820
197.214, 30097.029
197.696, 30214.711
198.178, 30347.000
198.661, 30507.320
199.143, 30689.680
199.625, 30834.289
200.107, 30929.020
200.589, 31022.900
201.071, 31181.480
201.553, 31412.980
202.035, 31653.830
202.517, 31883.471
202.999, 32102.760
203.482, 32314.410
203.964, 32511.439
204.446, 32711.000
204.928, 32944.539
205.410, 33221.391
205.892, 33487.520
206.374, 33723.359
206.857, 33929.340
207.339, 34101.961
207.821, 34237.910
208.303, 34343.012
208.785, 34429.141
209.267, 34500.410
209.749, 34541.441
210.231, 34548.949
210.713, 34525.172
211.195, 34458.969
211.678, 34339.840
212.160, 34189.672
212.642, 34051.078
213.124, 33922.641
213.606, 33810.930
214.088, 33719.699
214.570, 33652.160
215.052, 33598.539
215.535, 33559.148
216.017, 33532.559
216.499, 33513.621
216.981, 33495.531
217.463, 33495.730
217.945, 33527.711
218.427, 33606.449
218.909, 33664.711
219.391, 33687.930
219.874, 33690.500
220.356, 33723.141
220.838, 33805.379
221.320, 33882.199
221.802, 33923.941
222.284, 33925.281
222.766, 33906.480
223.248, 33863.730
223.731, 33803.070
224.213, 33747.930
224.695, 33700.480
225.177, 33657.141
225.659, 33615.859
226.141, 33578.398
226.623, 33540.199
227.105, 33492.828
227.587, 33443.629
228.070, 33432.121
228.552, 33481.691
229.034, 33535.648
229.516, 33554.059
229.998, 33510.391
230.480, 33487.738
230.962, 33500.570
231.444, 33541.738
231.926, 33569.941
232.409, 33577.660
232.891, 33581.109
233.373, 33588.129
233.855, 33586.691
234.337, 33616.859
234.819, 33700.602
235.301, 33828.172
235.783, 33902.141
236.266, 33887.672
236.748, 33862.410
237.230, 33882.770
237.712, 33969.641
238.194, 34063.020
238.676, 34158.051
239.158, 34254.238
239.640, 34350.551
240.122, 34434.609
240.605, 34534.031
241.087, 34672.301
241.569, 34874.219
242.051, 35070.699
242.533, 35252.609
243.015, 35419.570
243.497, 35585.270
243.980, 35740.070
244.462, 35903.770
244.944, 36097.359
245.426, 36352.191
245.908, 36571.629
246.390, 36737.211
246.872, 36850.070
247.354, 36945.250
247.836, 37027.219
248.318, 37083.078
248.801, 37103.250
249.283, 37089.922
249.765, 37033.898
250.247, 36929.969
250.729, 36778.961
251.211, 36599.172
251.693, 36369.051
252.176, 36141.340
252.658, 35969.039
253.140, 35897.672
253.622, 35782.871
254.104, 35581.879
254.586, 35303.578
255.068, 35098.859
255.550, 34997.480
256.032, 34931.828
256.514, 34844.109
256.997, 34713.762
257.479, 34612.141
257.961, 34560.340
258.443, 34552.961
258.925, 34513.590
259.407, 34424.352
259.889, 34326.891
260.371, 34256.281
260.854, 34222.051
261.336, 34184.852
261.818, 34135.051
262.300, 34074.320
262.782, 34019.191
263.264, 33967.309
263.746, 33924.988
264.228, 33902.969
264.711, 33911.570
265.193, 33905.121
265.675, 33873.770
266.157, 33820.352
266.639, 33760.449
267.121, 33685.578
267.603, 33621.879
268.085, 33594.488
268.567, 33614.898
269.050, 33628.160
269.532, 33622.480
270.014, 33603.211
270.496, 33602.512
270.978, 33629.750
271.460, 33655.762
271.942, 33650.922
272.424, 33605.461
272.906, 33588.230
273.389, 33621.762
273.871, 33690.488
274.353, 33715.250
274.835, 33681.840
275.317, 33648.930
275.799, 33666.320
276.281, 33740.180
276.763, 33806.789
277.246, 33852.039
277.728, 33884.730
278.210, 33945.039
278.692, 34041.621
279.174, 34126.781
279.656, 34156.570
280.138, 34128.672
280.620, 34102.879
281.103, 34078.750
281.585, 34067.539
282.067, 34112.379
282.549, 34220.391
283.031, 34330.781
283.513, 34396.930
283.995, 34421.289
284.477, 34447.578
284.959, 34482.660
285.441, 34521.230
285.924, 34550.820
286.406, 34571.430
286.888, 34590.230
287.370, 34605.609
287.852, 34620.449
288.334, 34658.219
288.816, 34727.570
289.298, 34811.230
289.781, 34882.512
290.263, 34941.531
290.745, 34990.160
291.227, 35019.039
291.709, 35035.480
292.191, 35073.469
292.673, 35140.102
293.155, 35218.289
293.638, 35287.422
294.120, 35346.711
294.602, 35395.320
295.084, 35425.160
295.566, 35444.379
296.048, 35476.129
296.530, 35525.820
297.012, 35579.398
297.494, 35622.090
297.977, 35655.199
298.459, 35679.641
298.941, 35683.328
299.423, 35683.219
299.905, 35713.629
300.387, 35780.879
300.869, 35857.160
301.351, 35910.820
301.833, 35949.879
302.316, 35996.422
302.798, 36071.699
303.280, 36154.422
303.762, 36221.641
304.244, 36271.648
304.726, 36295.039
305.208, 36263.730
305.690, 36198.930
306.172, 36141.199
306.655, 36110.930
307.137, 36093.391
307.619, 36081.160
308.101, 36074.070
308.583, 36057.621
309.065, 36013.852
309.547, 35957.449
310.030, 35909.430
310.512, 35878.301
310.994, 35859.840
311.476, 35864.469
311.958, 35889.750
312.440, 35895.430
312.922, 35828.750
313.404, 35743.059
313.886, 35693.672
314.369, 35741.031
314.851, 35790.020
315.333, 35787.121
315.815, 35740.391
316.297, 35701.699
316.779, 35702.180
317.261, 35714.340
317.743, 35717.199
318.225, 35698.422
318.708, 35678.922
319.190, 35659.852
319.672, 35644.719
320.154, 35644.871
320.636, 35673.648
321.118, 35712.551
321.600, 35751.520
322.082, 35790.020
322.565, 35826.629
323.047, 35856.648
323.529, 35883.520
324.011, 35916.340
324.493, 35963.090
324.975, 36009.551
325.457, 36049.500
325.939, 36079.070
326.422, 36107.621
326.904, 36134.449
327.386, 36160.410
327.868, 36186.441
328.350, 36211.238
328.832, 36237.141
329.314, 36263.699
329.796, 36288.609
330.278, 36322.691
330.760, 36382.320
331.243, 36443.191
331.725, 36469.840
332.207, 36429.930
332.689, 36405.531
333.171, 36419.051
333.653, 36474.109
334.135, 36534.078
334.617, 36614.871
335.100, 36683.691
335.582, 36700.199
336.064, 36642.352
336.546, 36590.371
337.028, 36552.820
337.510, 36532.121
337.992, 36557.430
338.474, 36644.020
338.957, 36743.320
339.439, 36815.801
339.921, 36855.602
340.403, 36895.922
340.885, 36948.711
341.367, 37000.469
341.849, 36991.500
342.331, 36909.031
342.813, 36836.391
343.296, 36846.020
343.778, 36934.020
344.260, 36986.160
344.742, 36981.699
345.224, 36953.809
345.706, 36969.891
346.188, 37029.871
346.670, 37087.629
347.152, 37107.309
347.635, 37102.539
348.117, 37125.039
348.599, 37181.719
349.081, 37249.309
349.563, 37297.840
350.045, 37329.559
350.527, 37357.520
351.009, 37379.000
351.491, 37401.020
351.974, 37434.141
352.456, 37477.930
352.938, 37534.371
353.420, 37627.988
353.902, 37733.422
354.384, 37804.039
354.866, 37791.809
355.349, 37754.641
355.831, 37748.031
356.313, 37770.551
356.795, 37800.750
357.277, 37841.199
357.759, 37877.828
358.241, 37894.309
358.723, 37887.090
359.205, 37859.211
359.688, 37781.148
360.170, 37674.590
360.652, 37621.059
361.134, 37690.590
361.616, 37803.828
362.098, 37909.680
362.580, 38002.809
363.062, 38078.289
363.544, 38135.898
364.027, 38173.551
364.509, 38188.809
364.991, 38168.031
365.473, 38134.480
365.955, 38091.891
366.437, 38029.469
366.919, 37992.930
367.401, 38000.531
367.884, 38033.289
368.366, 38066.840
368.848, 38092.461
369.330, 38129.109
369.812, 38190.102
370.294, 38281.129
370.776, 38338.820
371.258, 38332.750
371.741, 38318.719
372.223, 38347.020
372.705, 38445.691
373.187, 38530.371
373.669, 38586.949
374.151, 38619.121
374.633, 38652.371
375.115, 38689.211
375.597, 38719.711
376.079, 38727.309
376.562, 38700.879
377.044, 38720.410
377.526, 38811.148
378.008, 38929.730
378.490, 38963.961
378.972, 38901.910
379.454, 38853.500
379.936, 38897.211
380.419, 39019.160
380.901, 39079.289
381.383, 39067.691
381.865, 39022.828
382.347, 38980.719
382.829, 38944.461
383.311, 38932.922
383.793, 38971.520
384.276, 39034.539
384.758, 39055.570
385.240, 39034.172
385.722, 39029.672
386.204, 39117.531
386.686, 39256.270
387.168, 39357.941
387.650, 39366.512
388.132, 39365.980
388.615, 39474.828
389.097, 39662.480
389.579, 39795.809
390.061, 39725.090
390.543, 39595.871
391.025, 39554.270
391.507, 39663.059
391.989, 39772.270
392.471, 39801.801
392.954, 39776.281
393.436, 39740.211
393.918, 39678.801
394.400, 39639.531
394.882, 39656.641
395.364, 39744.699
395.846, 39822.078
396.328, 39866.180
396.810, 39893.191
397.293, 39919.789
397.775, 39959.000
398.257, 39986.480
398.739, 39986.270
399.221, 39959.211
399.703, 39956.660
400.185, 40000.012
400.668, 40048.070
401.150, 40076.211
401.632, 40067.480
402.114, 40067.859
402.596, 40077.129
403.078, 40097.410
403.560, 40139.410
404.042, 40218.719
404.524, 40286.512
405.007, 40313.578
405.489, 40290.480
405.971, 40313.590
406.453, 40402.262
406.935, 40502.000
407.417, 40529.461
407.899, 40479.559
408.381, 40429.730
408.863, 40393.109
409.346, 40376.410
409.828, 40421.941
410.310, 40533.770
410.792, 40642.270
411.274, 40673.289
411.756, 40647.961
412.238, 40640.949
412.720, 40670.270
413.203, 40719.789
413.685, 40777.359
414.167, 40839.922
414.649, 40892.672
415.131, 40915.012
415.613, 40927.980
416.095, 40957.809
416.577, 41009.219
417.060, 41065.602
417.542, 41126.570
418.024, 41182.270
418.506, 41218.879
418.988, 41197.109
419.470, 41181.988
419.952, 41219.801
420.434, 41308.398
420.916, 41378.738
421.398, 41410.262
421.881, 41414.449
422.363, 41400.320
422.845, 41335.648
423.327, 41294.211
423.809, 41294.441
424.291, 41328.328
424.773, 41368.480
425.255, 41434.148
425.738, 41487.012
426.220, 41513.551
426.702, 41508.141
427.184, 41491.121
427.666, 41442.391
428.148, 41397.551
428.630, 41408.930
429.112, 41499.039
429.595, 41579.012
430.077, 41620.359
430.559, 41629.109
431.041, 41665.488
431.523, 41738.461
432.005, 41807.199
432.487, 41833.711
432.969, 41819.930
433.451, 41811.520
433.934, 41812.719
434.416, 41826.180
434.898, 41861.059
435.380, 41915.980
435.862, 41974.391
436.344, 42035.809
436.826, 42092.770
437.308, 42128.371
437.790, 42141.379
438.273, 42142.852
438.755, 42119.840
439.237, 42095.129
439.719, 42109.090
440.201, 42215.160
440.683, 42330.109
441.165, 42391.309
441.647, 42406.262
442.129, 42415.270
442.612, 42423.020
443.094, 42440.211
443.576, 42477.500
444.058, 42550.648
444.540, 42613.352
445.022, 42651.410
445.504, 42671.781
445.987, 42686.148
446.469, 42703.859
446.951, 42709.410
447.433, 42684.828
447.915, 42623.059
448.397, 42613.879
448.879, 42686.059
449.361, 42786.309
449.843, 42872.059
450.326, 42940.730
450.808, 43003.859
451.290, 43063.441
451.772, 43117.578
452.254, 43150.488
452.736, 43151.898
453.218, 43171.871
453.700, 43250.590
454.182, 43383.629
454.665, 43482.461
455.147, 43539.480
455.629, 43579.719
456.111, 43626.539
456.593, 43680.730
457.075, 43749.129
457.557, 43838.629
458.039, 43940.160
458.522, 44036.289
459.004, 44129.641
459.486, 44228.059
459.968, 44366.129
460.450, 44502.691
460.932, 44573.250
461.414, 44539.762
461.896, 44519.859
462.379, 44626.879
462.861, 44795.230
463.343, 44907.930
463.825, 44892.480
464.307, 44837.340
464.789, 44771.590
465.271, 44695.961
465.753, 44628.660
466.235, 44580.988
466.717, 44538.320
467.200, 44489.359
467.682, 44428.289
468.164, 44367.762
468.646, 44301.090
469.128, 44235.289
469.610, 44192.102
470.092, 44175.051
470.574, 44173.250
471.057, 44190.289
471.539, 44230.211
472.021, 44226.648
472.503, 44160.930
472.985, 44093.199
473.467, 44103.469
473.949, 44191.148
474.431, 44258.289
474.914, 44280.609
475.396, 44271.250
475.878, 44250.570
476.360, 44220.648
476.842, 44197.891
477.324, 44206.719
477.806, 44228.000
478.288, 44225.070
478.770, 44192.930
479.253, 44157.238
479.735, 44125.500
480.217, 44108.781
480.699, 44124.090
481.181, 44218.371
481.663, 44310.719
482.145, 44339.480
482.627, 44317.949
483.109, 44330.262
483.592, 44428.898
484.074, 44550.539
484.556, 44658.629
485.038, 44750.781
485.520, 44821.359
486.002, 44845.609
486.484, 44852.609
486.966, 44887.371
487.448, 44991.930
487.931, 45053.910
488.413, 45036.930
488.895, 44947.969
489.377, 44876.629
489.859, 44822.879
490.341, 44793.379
490.823, 44803.629
491.306, 44856.930
491.788, 44898.730
492.270, 44926.129
492.752, 44939.961
493.234, 44934.109
493.716, 44911.910
494.198, 44894.250
494.680, 44890.680
495.162, 44896.770
495.645, 44907.141
496.127, 44920.852
496.609, 44932.379
497.091, 44928.629
497.573, 44923.039
498.055, 44931.859
498.537, 44959.891
499.019, 44999.859
499.501, 45063.891
499.984, 45135.789
500.466, 45186.660
500.948, 45189.359
501.430, 45186.879
501.912, 45195.320
502.394, 45216.949
502.876, 45237.820
503.358, 45246.141
503.841, 45262.211
504.323, 45300.711
504.805, 45382.160
505.287, 45442.879
505.769, 45468.660
506.251, 45477.238
506.733, 45511.262
507.215, 45579.328
507.698, 45634.500
508.180, 45654.199
508.662, 45644.422
509.144, 45643.711
509.626, 45652.039
510.108, 45671.801
510.590, 45718.969
511.072, 45781.520
511.554, 45817.621
512.036, 45814.828
512.519, 45798.559
513.001, 45787.891
513.483, 45786.031
513.965, 45799.969
514.447, 45835.621
514.929, 45886.969
515.411, 45964.359
515.893, 46066.020
516.375, 46136.660
516.858, 46122.020
517.340, 46086.211
517.822, 46075.379
518.304, 46106.609
518.786, 46147.520
519.268, 46209.488
519.750, 46275.070
520.232, 46310.941
520.715, 46283.898
521.197, 46281.102
521.679, 46333.270
522.161, 46438.770
522.643, 46530.980
523.125, 46614.660
523.607, 46672.141
524.089, 46670.922
524.571, 46615.391
525.054, 46605.961
525.536, 46663.480
526.018, 46742.941
526.500, 46775.551
526.982, 46770.648
527.464, 46765.941
527.946, 46786.891
528.429, 46811.250
528.911, 46801.379
529.393, 46762.961
529.875, 46741.840
530.357, 46784.020
530.839, 46845.250
531.321, 46885.352
531.803, 46886.359
532.286, 46896.699
532.768, 46960.012
533.250, 47034.102
533.732, 47059.859
534.214, 46980.020
534.696, 46907.699
535.178, 46855.500
535.660, 46825.449
536.142, 46834.000
536.625, 46900.250
537.107, 46974.121
537.589, 47033.711
538.071, 47079.641
538.553, 47102.102
539.035, 47093.660
539.517, 47082.090
539.999, 47104.852
540.481, 47158.461
540.964, 47215.641
541.446, 47272.230
541.928, 47322.621
542.410, 47357.551
542.892, 47376.719
543.374, 47380.379
543.856, 47329.121
544.338, 47284.641
544.820, 47323.191
545.303, 47458.641
545.785, 47575.672
546.267, 47588.211
546.749, 47570.871
547.231, 47594.359
547.713, 47756.750
548.195, 47863.859
548.677, 47840.398
549.159, 47744.199
549.642, 47722.281
550.124, 47835.441
550.606, 47932.320
551.088, 47964.199
551.570, 47930.441
552.052, 47906.031
552.534, 47890.172
553.016, 47886.422
553.499, 47900.289
553.981, 47930.738
554.463, 47971.371
554.945, 48027.941
555.427, 48072.789
555.909, 48043.770
556.391, 47966.828
556.873, 47924.539
557.356, 47973.770
557.838, 48061.250
558.320, 48156.680
558.802, 48252.531
559.284, 48307.000
559.766, 48258.371
560.248, 48189.988
560.730, 48156.180
561.213, 48169.551
561.695, 48202.680
562.177, 48261.230
562.659, 48332.328
563.141, 48401.320
563.623, 48465.039
564.105, 48531.891
564.587, 48606.078
565.069, 48681.570
565.552, 48735.930
566.034, 48762.840
566.516, 48788.359
566.998, 48826.410
567.480, 48873.988
567.962, 48919.109
568.444, 48962.980
568.926, 48986.199
569.408, 48944.410
569.891, 48871.211
570.373, 48843.449
570.855, 48887.051
571.337, 48949.711
571.819, 48995.391
572.301, 49027.879
572.783, 49055.051
573.265, 49072.629
573.747, 49092.191
574.230, 49117.160
574.712, 49147.820
575.194, 49184.430
575.676, 49247.480
576.158, 49298.441
576.640, 49315.871
577.122, 49283.859
577.604, 49281.359
578.086, 49336.391
578.569, 49385.480
579.051, 49342.629
579.533, 49195.980
580.015, 49078.230
580.497, 49010.551
580.979, 48990.398
581.461, 49026.461
581.943, 49113.691
582.426, 49211.320
582.908, 49301.770
583.390, 49389.691
583.872, 49492.430
584.354, 49606.988
584.836, 49692.441
585.318, 49711.691
585.800, 49695.770
586.282, 49662.449
586.765, 49588.590
587.247, 49560.281
587.729, 49637.980
588.211, 49760.328
588.693, 49843.648
589.175, 49860.359
589.657, 49873.609
590.140, 49884.449
590.622, 49899.102
591.104, 49950.559
591.586, 50054.379
592.068, 50139.988
592.550, 50160.891
593.032, 50127.379
593.514, 50127.211
593.996, 50162.160
594.479, 50209.879
594.961, 50264.270
595.443, 50314.910
595.925, 50338.219
596.407, 50324.340
596.889, 50298.461
597.371, 50255.230
597.853, 50218.648
598.335, 50227.609
598.818, 50360.809
599.300, 50476.109
599.782, 50509.141
600.264, 50473.320
600.746, 50461.500
601.228, 50487.820
601.710, 50530.148
602.192, 50585.430
602.674, 50657.551
603.157, 50703.219
603.639, 50707.770
604.121, 50717.781
604.603, 50795.762
605.085, 50935.801
605.567, 51014.371
606.049, 50997.930
606.531, 50962.621
607.013, 51028.352
607.496, 51162.238
607.978, 51272.301
608.460, 51300.422
608.942, 51302.121
609.424, 51318.180
609.906, 51345.512
610.388, 51372.410
610.870, 51383.988
611.353, 51401.480
611.835, 51438.512
612.317, 51501.738
612.799, 51557.711
613.281, 51601.512
613.763, 51641.141
614.245, 51680.969
614.727, 51719.320
615.209, 51765.641
615.692, 51818.840
616.174, 51884.379
616.656, 51987.980
617.138, 52126.629
617.620, 52225.430
618.102, 52233.480
618.584, 52217.199
619.067, 52294.449
619.549, 52448.789
620.031, 52605.980
620.513, 52699.051
620.995, 52792.500
621.477, 52948.730
621.959, 53174.371
622.441, 53385.281
622.923, 53539.691
623.406, 53675.250
623.888, 53817.711
624.370, 53969.809
624.852, 54126.039
625.334, 54279.109
625.816, 54439.930
626.298, 54627.422
626.780, 54848.910
627.263, 55058.379
627.745, 55241.680
628.227, 55412.371
628.709, 55621.398
629.191, 55859.172
629.673, 56051.910
630.155, 56182.762
630.637, 56234.820
631.119, 56187.559
