##NAMES=Tychite
##RRUFFID=R050218
##IDEAL CHEMISTRY=Na_6_Mg_2_(CO_3_)_4_(S^6+^O_4_)
##LOCALITY=Searles Lake, Trona, San Bernardino County, California, USA
##OWNER=RRUFF
##SOURCE=Marcus Origlieri
##DESCRIPTION=Colorless octahedral crystals
##STATUS=The identification of this mineral is confirmed by single-crystal X-ray diffraction and chemical analysis.
##URL=rruff.info/R050218
##MEASURED CHEMISTRY=Na_6.00_Mg_2.00_(CO_3_)_4_(S_1.00_O_4_) ; C not measured but estimated by difference and stoichiometry
92.29974, 0.0000000E+00
92.78186, 0.0000000E+00
93.26398, 0.0000000E+00
93.74609, 62.59252
94.22821, 60.29810
94.71033, 61.15965
95.19244, 64.77073
95.67456, 69.49074
96.15668, 74.89346
96.63879, 80.87637
97.12091, 87.09605
97.60303, 93.54331
98.08514, 100.3617
98.56726, 107.3592
99.04938, 114.5164
99.53149, 122.9475
100.0136, 133.4368
100.4957, 145.9653
100.9778, 158.9798
101.4600, 172.0377
101.9421, 185.6717
102.4242, 201.0978
102.9063, 218.7292
103.3884, 237.3941
103.8705, 256.0039
104.3527, 274.4221
104.8348, 293.8690
105.3169, 314.9472
105.7990, 337.3726
106.2811, 360.2911
106.7632, 383.7922
107.2454, 407.5072
107.7275, 430.7339
108.2096, 453.4008
108.6917, 476.0950
109.1738, 499.0085
109.6559, 522.4115
110.1381, 545.5585
110.6202, 567.1505
111.1023, 589.1462
111.5844, 613.6265
112.0665, 641.6271
112.5486, 671.4858
113.0308, 702.6738
113.5129, 735.0145
113.9950, 770.1969
114.4771, 809.6248
114.9592, 851.6833
115.4413, 894.5306
115.9235, 939.1376
116.4056, 983.2162
116.8877, 1024.765
117.3698, 1062.900
117.8519, 1101.483
118.3340, 1143.043
118.8162, 1186.231
119.2983, 1227.555
119.7804, 1267.429
120.2625, 1304.468
120.7446, 1337.065
121.2267, 1363.545
121.7089, 1387.875
122.1910, 1412.061
122.6731, 1436.040
123.1552, 1459.535
123.6373, 1482.301
124.1194, 1504.410
124.6016, 1526.273
125.0837, 1546.766
125.5658, 1567.570
126.0479, 1590.530
126.5300, 1615.565
127.0121, 1641.316
127.4943, 1666.715
127.9764, 1691.869
128.4585, 1717.692
128.9406, 1742.096
129.4227, 1767.851
129.9048, 1800.494
130.3869, 1840.378
130.8691, 1883.668
131.3512, 1927.149
131.8333, 1970.737
132.3154, 2014.120
132.7975, 2057.166
133.2796, 2099.945
133.7618, 2139.833
134.2439, 2171.346
134.7260, 2192.332
135.2081, 2214.984
135.6902, 2244.626
136.1723, 2273.652
136.6545, 2297.550
137.1366, 2316.340
137.6187, 2337.756
138.1008, 2362.698
138.5829, 2389.808
139.0650, 2416.035
139.5472, 2440.429
140.0293, 2467.936
140.5114, 2501.490
140.9935, 2541.837
141.4756, 2585.475
141.9577, 2632.635
142.4399, 2683.395
142.9220, 2738.576
143.4041, 2803.630
143.8862, 2864.312
144.3683, 2915.936
144.8504, 2968.149
145.3326, 2988.200
145.8147, 2969.218
146.2968, 2913.970
146.7789, 2844.131
147.2610, 2750.093
147.7431, 2650.603
148.2253, 2556.794
148.7074, 2464.685
149.1895, 2384.447
149.6716, 2319.231
150.1537, 2268.879
150.6358, 2226.674
151.1180, 2194.814
151.6001, 2169.911
152.0822, 2149.570
152.5643, 2137.431
153.0464, 2125.872
153.5285, 2112.881
154.0107, 2097.883
154.4928, 2087.126
154.9749, 2083.838
155.4570, 2083.683
155.9391, 2082.337
156.4212, 2076.910
156.9034, 2072.446
157.3855, 2071.183
157.8676, 2074.266
158.3497, 2075.042
158.8318, 2069.989
159.3139, 2062.528
159.7961, 2056.984
160.2782, 2057.539
160.7603, 2057.641
161.2424, 2053.409
161.7245, 2042.487
162.2066, 2034.828
162.6888, 2036.175
163.1709, 2042.614
163.6530, 2047.814
164.1351, 2048.380
164.6172, 2047.756
165.0993, 2048.398
165.5815, 2051.680
166.0636, 2053.129
166.5457, 2047.166
167.0278, 2037.706
167.5099, 2032.904
167.9920, 2041.363
168.4742, 2053.331
168.9563, 2060.618
169.4384, 2059.984
169.9205, 2058.869
170.4026, 2062.868
170.8847, 2070.516
171.3669, 2077.790
171.8490, 2083.147
172.3311, 2086.750
172.8132, 2088.232
173.2953, 2086.031
173.7774, 2084.468
174.2596, 2088.333
174.7417, 2096.463
175.2238, 2104.493
175.7059, 2109.713
176.1880, 2112.995
176.6701, 2115.381
177.1523, 2116.663
177.6344, 2117.725
178.1165, 2120.180
178.5986, 2123.681
179.0807, 2126.079
179.5628, 2125.272
180.0450, 2122.322
180.5271, 2119.151
181.0092, 2115.344
181.4913, 2112.463
181.9734, 2113.908
182.4555, 2119.370
182.9377, 2124.770
183.4198, 2126.390
183.9019, 2125.370
184.3840, 2125.046
184.8661, 2126.544
185.3482, 2129.017
185.8304, 2130.356
186.3125, 2130.548
186.7946, 2131.853
187.2767, 2137.033
187.7588, 2145.338
188.2409, 2153.040
188.7231, 2158.823
189.2052, 2163.566
189.6873, 2169.743
190.1694, 2177.484
190.6515, 2185.461
191.1336, 2191.980
191.6158, 2197.281
192.0979, 2203.665
192.5800, 2212.135
193.0621, 2222.117
193.5442, 2231.734
194.0263, 2241.054
194.5085, 2250.242
194.9906, 2259.723
195.4727, 2269.477
195.9548, 2278.077
196.4369, 2284.240
196.9190, 2288.838
197.4012, 2296.281
197.8833, 2306.776
198.3654, 2319.240
198.8475, 2332.563
199.3296, 2346.848
199.8117, 2361.138
200.2939, 2374.718
200.7760, 2387.861
201.2581, 2403.334
201.7402, 2421.281
202.2223, 2440.931
202.7044, 2461.779
203.1866, 2483.754
203.6687, 2506.005
204.1508, 2528.407
204.6329, 2550.930
205.1150, 2573.580
205.5971, 2597.163
206.0793, 2619.140
206.5614, 2635.349
207.0435, 2644.067
207.5256, 2655.040
208.0077, 2672.667
208.4898, 2696.668
208.9720, 2713.395
209.4541, 2722.131
209.9362, 2724.798
210.4183, 2723.224
210.9004, 2717.021
211.3825, 2707.948
211.8647, 2696.412
212.3468, 2682.427
212.8289, 2664.723
213.3110, 2640.893
213.7931, 2616.769
214.2752, 2600.181
214.7574, 2593.207
215.2395, 2587.235
215.7216, 2579.610
216.2037, 2570.256
216.6858, 2564.045
217.1679, 2561.424
217.6500, 2561.399
218.1322, 2563.337
218.6143, 2568.503
219.0964, 2572.410
219.5785, 2573.649
220.0606, 2572.103
220.5427, 2570.333
221.0249, 2567.859
221.5070, 2565.669
221.9891, 2565.500
222.4712, 2569.377
222.9533, 2570.524
223.4354, 2566.505
223.9176, 2556.866
224.3997, 2549.431
224.8818, 2545.370
225.3639, 2542.195
225.8460, 2536.892
226.3281, 2528.117
226.8103, 2520.213
227.2924, 2514.567
227.7745, 2511.255
228.2566, 2507.081
228.7387, 2500.642
229.2208, 2494.815
229.7030, 2493.208
230.1851, 2498.640
230.6672, 2502.596
231.1493, 2502.700
231.6314, 2498.737
232.1135, 2496.854
232.5957, 2497.845
233.0778, 2500.060
233.5599, 2501.970
234.0420, 2503.631
234.5241, 2504.786
235.0062, 2504.690
235.4884, 2503.327
235.9705, 2504.796
236.4526, 2509.500
236.9347, 2516.645
237.4168, 2526.027
237.8989, 2539.930
238.3811, 2551.389
238.8632, 2557.740
239.3453, 2559.094
239.8274, 2564.885
240.3095, 2576.178
240.7916, 2590.692
241.2738, 2606.885
241.7559, 2625.999
242.2380, 2644.159
242.7201, 2660.073
243.2022, 2674.050
243.6843, 2690.082
244.1665, 2709.405
244.6486, 2729.559
245.1307, 2749.034
245.6128, 2769.186
246.0949, 2785.993
246.5770, 2798.553
247.0592, 2807.161
247.5413, 2814.777
248.0234, 2823.089
248.5055, 2828.191
248.9876, 2827.046
249.4697, 2817.837
249.9519, 2806.401
250.4340, 2793.801
250.9161, 2779.521
251.3982, 2759.947
251.8803, 2732.358
252.3624, 2703.409
252.8446, 2677.275
253.3267, 2653.580
253.8088, 2633.285
254.2909, 2617.548
254.7730, 2605.219
255.2551, 2591.805
255.7373, 2576.923
256.2194, 2561.685
256.7015, 2546.731
257.1836, 2531.607
257.6657, 2517.868
258.1478, 2505.809
258.6299, 2495.208
259.1121, 2485.072
259.5942, 2475.522
260.0763, 2466.206
260.5584, 2456.921
261.0405, 2448.120
261.5226, 2438.204
262.0048, 2426.828
262.4869, 2414.501
262.9690, 2401.429
263.4511, 2385.941
263.9332, 2373.490
264.4153, 2367.484
264.8975, 2370.294
265.3796, 2369.719
265.8617, 2364.659
266.3438, 2357.166
266.8259, 2350.874
267.3080, 2346.118
267.7902, 2341.745
268.2723, 2336.677
268.7544, 2330.117
269.2365, 2328.830
269.7186, 2334.919
270.2007, 2343.596
270.6829, 2347.247
271.1650, 2344.778
271.6471, 2341.186
272.1292, 2337.509
272.6113, 2333.670
273.0934, 2333.160
273.5756, 2337.411
274.0577, 2342.436
274.5398, 2342.379
275.0219, 2335.810
275.5040, 2331.281
275.9861, 2332.033
276.4683, 2337.523
276.9504, 2340.316
277.4325, 2339.616
277.9146, 2338.269
278.3967, 2339.624
278.8788, 2344.010
279.3610, 2347.760
279.8431, 2349.760
280.3252, 2350.374
280.8073, 2351.480
281.2894, 2353.087
281.7715, 2355.180
282.2537, 2357.741
282.7358, 2360.772
283.2179, 2364.418
283.7000, 2369.034
284.1821, 2374.104
284.6642, 2377.810
285.1464, 2380.052
285.6285, 2381.931
286.1106, 2384.097
286.5927, 2386.555
287.0748, 2389.559
287.5569, 2393.452
288.0391, 2397.527
288.5212, 2399.471
289.0033, 2399.257
289.4854, 2400.131
289.9675, 2404.768
290.4496, 2412.613
290.9318, 2420.469
291.4139, 2428.395
291.8960, 2435.570
292.3781, 2440.176
292.8602, 2442.434
293.3423, 2444.242
293.8245, 2445.648
294.3066, 2447.330
294.7887, 2451.961
295.2708, 2460.034
295.7529, 2469.225
296.2350, 2477.195
296.7172, 2483.890
297.1993, 2489.261
297.6814, 2492.506
298.1635, 2494.593
298.6456, 2497.842
299.1277, 2502.407
299.6099, 2506.658
300.0920, 2508.822
300.5741, 2509.317
301.0562, 2509.063
301.5383, 2507.128
302.0204, 2505.368
302.5026, 2507.915
302.9847, 2514.547
303.4668, 2519.608
303.9489, 2518.202
304.4310, 2512.137
304.9131, 2504.324
305.3953, 2494.395
305.8774, 2484.508
306.3595, 2477.635
306.8416, 2473.292
307.3237, 2468.743
307.8058, 2461.945
308.2880, 2454.066
308.7701, 2446.445
309.2522, 2439.088
309.7343, 2432.513
310.2164, 2427.152
310.6985, 2422.886
311.1807, 2419.502
311.6628, 2416.787
312.1449, 2414.943
312.6270, 2414.430
313.1091, 2415.639
313.5912, 2416.921
314.0734, 2417.114
314.5555, 2416.690
315.0376, 2416.531
315.5197, 2416.510
316.0018, 2417.156
316.4839, 2419.315
316.9661, 2423.341
317.4482, 2426.247
317.9303, 2425.895
318.4124, 2423.979
318.8945, 2422.479
319.3766, 2421.897
319.8588, 2422.017
320.3409, 2423.835
320.8230, 2427.308
321.3051, 2428.322
321.7872, 2423.559
322.2693, 2417.060
322.7515, 2412.009
323.2336, 2408.973
323.7157, 2407.562
324.1978, 2407.752
324.6799, 2409.521
325.1620, 2412.746
325.6442, 2420.998
326.1263, 2428.077
326.6084, 2430.544
327.0905, 2420.758
327.5726, 2416.394
328.0547, 2422.536
328.5369, 2435.042
329.0190, 2443.169
329.5011, 2443.848
329.9832, 2442.876
330.4653, 2441.901
330.9474, 2440.587
331.4296, 2440.342
331.9117, 2443.189
332.3938, 2446.263
332.8759, 2444.960
333.3580, 2433.870
333.8401, 2426.766
334.3223, 2428.899
334.8044, 2441.589
335.2865, 2448.046
335.7686, 2445.067
336.2507, 2439.377
336.7328, 2437.636
337.2150, 2441.307
337.6971, 2444.941
338.1792, 2447.750
338.6613, 2449.761
339.1434, 2451.020
339.6255, 2450.850
340.1076, 2451.480
340.5898, 2455.426
341.0719, 2463.451
341.5540, 2468.346
342.0361, 2468.791
342.5182, 2466.286
343.0003, 2463.642
343.4825, 2460.639
343.9646, 2459.168
344.4467, 2461.169
344.9288, 2466.264
345.4109, 2469.983
345.8930, 2472.206
346.3752, 2472.876
346.8573, 2470.677
347.3394, 2465.943
347.8215, 2463.101
348.3036, 2465.591
348.7857, 2471.089
349.2679, 2471.999
349.7500, 2468.119
350.2321, 2464.216
350.7142, 2465.296
351.1963, 2470.101
351.6784, 2475.260
352.1606, 2480.755
352.6427, 2485.028
353.1248, 2484.864
353.6069, 2480.915
354.0890, 2477.308
354.5711, 2477.394
355.0533, 2479.437
355.5354, 2480.949
356.0175, 2481.292
356.4996, 2481.512
356.9817, 2483.046
357.4638, 2485.227
357.9460, 2486.439
358.4281, 2483.960
358.9102, 2481.401
359.3923, 2482.394
359.8744, 2487.685
360.3565, 2492.427
360.8387, 2492.044
361.3208, 2490.002
361.8029, 2490.594
362.2850, 2499.531
362.7671, 2507.509
363.2492, 2509.319
363.7314, 2505.403
364.2135, 2502.469
364.6956, 2503.086
365.1777, 2505.279
365.6598, 2507.728
366.1419, 2511.331
366.6241, 2513.787
367.1062, 2514.861
367.5883, 2514.534
368.0704, 2512.668
368.5525, 2504.177
369.0346, 2498.502
369.5168, 2500.316
369.9989, 2515.647
370.4810, 2524.654
370.9631, 2523.831
371.4452, 2518.261
371.9273, 2514.721
372.4095, 2514.223
372.8916, 2514.325
373.3737, 2514.516
373.8558, 2514.785
374.3379, 2515.578
374.8200, 2517.157
375.3022, 2518.919
375.7843, 2520.532
376.2664, 2522.330
376.7485, 2522.625
377.2306, 2520.207
377.7127, 2516.557
378.1949, 2517.045
378.6770, 2522.382
379.1591, 2528.903
379.6412, 2534.840
380.1233, 2540.231
380.6054, 2544.955
381.0876, 2549.311
381.5697, 2552.152
382.0518, 2550.357
382.5339, 2544.292
383.0160, 2540.137
383.4981, 2541.512
383.9803, 2546.479
384.4624, 2548.936
384.9445, 2548.799
385.4266, 2549.025
385.9087, 2553.794
386.3908, 2561.077
386.8730, 2565.434
387.3551, 2564.587
387.8372, 2561.766
388.3193, 2561.174
388.8014, 2562.220
389.2835, 2562.405
389.7657, 2558.648
390.2478, 2553.986
390.7299, 2551.821
391.2120, 2552.828
391.6941, 2555.229
392.1762, 2558.881
392.6584, 2562.905
393.1405, 2565.974
393.6226, 2566.652
394.1047, 2566.966
394.5868, 2568.289
395.0689, 2570.583
395.5511, 2571.884
396.0332, 2570.175
396.5153, 2567.902
396.9974, 2566.934
397.4795, 2568.291
397.9616, 2570.224
398.4438, 2573.336
398.9259, 2576.957
399.4080, 2578.963
399.8901, 2577.144
400.3722, 2575.462
400.8543, 2575.314
401.3365, 2576.948
401.8186, 2579.516
402.3007, 2584.820
402.7828, 2589.937
403.2649, 2590.837
403.7470, 2584.332
404.2292, 2579.662
404.7113, 2579.187
405.1934, 2582.515
405.6755, 2585.297
406.1576, 2587.437
406.6397, 2589.229
407.1219, 2590.964
407.6040, 2592.723
408.0861, 2593.874
408.5682, 2594.321
409.0503, 2594.266
409.5324, 2593.587
410.0146, 2592.259
410.4967, 2592.208
410.9788, 2594.416
411.4609, 2598.667
411.9430, 2605.065
412.4251, 2614.008
412.9073, 2621.821
413.3894, 2623.844
413.8715, 2621.735
414.3536, 2620.529
414.8357, 2622.396
415.3178, 2624.908
415.8000, 2624.683
416.2821, 2622.166
416.7642, 2619.582
417.2463, 2617.785
417.7284, 2616.898
418.2105, 2617.326
418.6927, 2619.440
419.1748, 2621.700
419.6569, 2624.264
420.1390, 2626.255
420.6211, 2626.270
421.1032, 2621.432
421.5854, 2616.802
422.0675, 2614.969
422.5496, 2615.890
423.0317, 2616.632
423.5138, 2613.671
423.9959, 2612.035
424.4781, 2615.136
424.9602, 2631.055
425.4423, 2641.657
425.9244, 2643.455
426.4065, 2639.322
426.8886, 2635.509
427.3708, 2630.526
427.8529, 2627.698
428.3350, 2628.836
428.8171, 2634.883
429.2992, 2638.063
429.7813, 2637.018
430.2635, 2634.928
430.7456, 2635.085
431.2277, 2638.092
431.7098, 2640.686
432.1919, 2641.871
432.6740, 2642.493
433.1562, 2645.957
433.6383, 2652.672
434.1204, 2658.475
434.6025, 2659.790
435.0846, 2657.538
435.5667, 2657.694
436.0489, 2660.837
436.5310, 2664.833
437.0131, 2667.008
437.4952, 2667.822
437.9773, 2668.886
438.4594, 2671.863
438.9415, 2674.615
439.4236, 2672.854
439.9058, 2667.404
440.3879, 2663.842
440.8700, 2668.666
441.3521, 2675.956
441.8342, 2678.905
442.3163, 2674.875
442.7985, 2670.799
443.2806, 2670.111
443.7627, 2672.104
444.2448, 2675.633
444.7269, 2681.563
445.2090, 2687.706
445.6912, 2693.609
446.1733, 2699.208
446.6554, 2703.297
447.1375, 2704.754
447.6196, 2705.124
448.1017, 2705.335
448.5839, 2703.492
449.0660, 2704.151
449.5481, 2708.576
450.0302, 2715.211
450.5123, 2720.845
450.9944, 2725.573
451.4766, 2729.031
451.9587, 2730.628
452.4408, 2730.243
452.9229, 2731.198
453.4050, 2733.347
453.8871, 2737.196
454.3693, 2744.510
454.8514, 2755.621
455.3335, 2763.034
455.8156, 2764.563
456.2977, 2763.396
456.7798, 2765.851
457.2620, 2771.774
457.7441, 2778.909
458.2262, 2786.545
458.7083, 2794.454
459.1904, 2802.308
459.6725, 2810.055
460.1547, 2817.941
460.6368, 2827.118
461.1189, 2836.420
461.6010, 2843.802
462.0831, 2848.471
462.5652, 2851.343
463.0474, 2852.951
463.5295, 2853.252
464.0116, 2852.050
464.4937, 2848.834
464.9758, 2844.448
465.4579, 2839.461
465.9401, 2834.065
466.4222, 2827.415
466.9043, 2818.050
467.3864, 2807.969
467.8685, 2799.051
468.3506, 2792.842
468.8328, 2786.183
469.3149, 2777.994
469.7970, 2769.063
470.2791, 2762.352
470.7612, 2759.162
471.2433, 2756.300
471.7255, 2751.869
472.2076, 2745.021
472.6897, 2742.577
473.1718, 2745.980
473.6539, 2750.845
474.1360, 2751.514
474.6182, 2747.728
475.1003, 2745.333
475.5824, 2745.742
476.0645, 2748.165
476.5466, 2750.806
477.0287, 2753.694
477.5109, 2757.346
477.9930, 2764.185
478.4751, 2771.509
478.9572, 2773.436
479.4393, 2769.272
479.9214, 2763.364
480.4036, 2758.195
480.8857, 2754.138
481.3678, 2751.803
481.8499, 2751.551
482.3320, 2752.965
482.8141, 2757.881
483.2963, 2764.685
483.7784, 2768.190
484.2605, 2762.456
484.7426, 2756.195
485.2247, 2754.266
485.7068, 2758.514
486.1890, 2761.366
486.6711, 2759.988
487.1532, 2757.824
487.6353, 2758.230
488.1174, 2764.542
488.5995, 2767.992
489.0817, 2766.231
489.5638, 2761.159
490.0459, 2758.981
490.5280, 2760.012
491.0101, 2763.079
491.4922, 2768.464
491.9744, 2776.233
492.4565, 2781.688
492.9386, 2784.717
493.4207, 2785.948
493.9028, 2785.198
494.3849, 2782.825
494.8671, 2781.582
495.3492, 2782.637
495.8313, 2784.030
496.3134, 2782.517
496.7955, 2778.725
497.2776, 2774.892
497.7598, 2771.717
498.2419, 2769.564
498.7240, 2769.304
499.2061, 2771.000
499.6882, 2772.756
500.1703, 2773.774
500.6525, 2774.224
501.1346, 2774.087
501.6167, 2771.619
502.0988, 2771.219
502.5809, 2775.409
503.0630, 2782.377
503.5452, 2788.339
504.0273, 2792.583
504.5094, 2795.728
504.9915, 2797.752
505.4736, 2798.590
505.9557, 2798.553
506.4379, 2797.009
506.9200, 2795.341
507.4021, 2794.708
507.8842, 2795.530
508.3663, 2795.382
508.8484, 2793.895
509.3306, 2791.880
509.8127, 2790.725
510.2948, 2790.465
510.7769, 2790.349
511.2590, 2790.288
511.7411, 2790.198
512.2233, 2789.673
512.7054, 2788.795
513.1875, 2788.119
513.6696, 2787.384
514.1517, 2787.339
514.6339, 2789.553
515.1160, 2794.775
515.5981, 2799.480
516.0802, 2799.823
516.5623, 2798.568
517.0444, 2799.428
517.5266, 2806.808
518.0087, 2813.180
518.4908, 2815.502
518.9729, 2814.393
519.4550, 2812.904
519.9371, 2809.946
520.4193, 2808.129
520.9014, 2808.568
521.3835, 2811.708
521.8656, 2815.329
522.3477, 2820.357
522.8298, 2824.854
523.3120, 2826.524
523.7941, 2824.535
524.2762, 2823.683
524.7583, 2825.223
525.2404, 2827.664
525.7225, 2827.025
526.2047, 2823.355
526.6868, 2820.226
527.1689, 2819.814
527.6510, 2821.158
528.1331, 2821.521
528.6152, 2820.962
529.0974, 2820.960
529.5795, 2823.649
530.0616, 2827.311
530.5437, 2829.278
531.0258, 2828.470
531.5079, 2827.650
531.9901, 2828.842
532.4722, 2831.060
532.9543, 2832.747
533.4364, 2833.708
533.9185, 2833.747
534.4006, 2831.869
534.8828, 2828.450
535.3649, 2826.942
535.8470, 2828.522
536.3291, 2831.191
536.8112, 2834.008
537.2933, 2836.512
537.7755, 2841.456
538.2576, 2851.121
538.7397, 2859.908
539.2218, 2860.043
539.7039, 2850.443
540.1860, 2843.161
540.6682, 2840.363
541.1503, 2841.208
541.6324, 2845.580
542.1145, 2853.001
542.5966, 2858.838
543.0787, 2859.712
543.5609, 2857.879
544.0430, 2857.051
544.5251, 2857.213
545.0072, 2856.942
545.4893, 2854.174
545.9714, 2851.014
546.4536, 2849.838
546.9357, 2851.888
547.4178, 2853.956
547.8999, 2853.591
548.3820, 2852.782
548.8641, 2854.268
549.3463, 2862.851
549.8284, 2868.940
550.3105, 2869.348
550.7926, 2865.285
551.2747, 2863.164
551.7568, 2863.716
552.2390, 2864.920
552.7211, 2865.971
553.2032, 2866.845
553.6853, 2867.589
554.1674, 2868.030
554.6495, 2868.882
555.1317, 2871.656
555.6138, 2875.887
556.0959, 2878.215
556.5780, 2877.793
557.0601, 2876.042
557.5422, 2874.389
558.0244, 2872.961
558.5065, 2872.066
558.9886, 2871.619
559.4707, 2871.981
559.9528, 2873.748
560.4349, 2876.738
560.9171, 2879.847
561.3992, 2881.823
561.8813, 2884.261
562.3634, 2888.687
562.8455, 2896.717
563.3276, 2901.877
563.8098, 2900.716
564.2919, 2897.745
564.7740, 2897.054
565.2561, 2900.441
565.7382, 2902.295
566.2203, 2901.624
566.7025, 2899.341
567.1846, 2897.070
567.6667, 2894.385
568.1488, 2894.996
568.6309, 2903.296
569.1130, 2915.636
569.5952, 2916.414
570.0773, 2905.851
570.5594, 2895.671
571.0415, 2896.226
571.5236, 2902.342
572.0057, 2905.250
572.4879, 2903.448
572.9700, 2901.494
573.4521, 2903.829
573.9342, 2907.478
574.4163, 2908.780
574.8984, 2902.405
575.3806, 2898.320
575.8627, 2900.678
576.3448, 2907.403
576.8269, 2912.751
577.3090, 2914.142
577.7911, 2916.629
578.2733, 2922.647
578.7554, 2931.969
579.2375, 2936.776
579.7196, 2936.179
580.2017, 2933.179
580.6838, 2928.507
581.1660, 2922.238
581.6481, 2919.948
582.1302, 2922.354
582.6123, 2926.933
583.0944, 2932.134
583.5765, 2937.164
584.0587, 2939.402
584.5408, 2936.816
585.0229, 2933.401
585.5050, 2933.183
585.9871, 2935.289
