##NAMES=Tychite
##RRUFFID=R060700
##IDEAL CHEMISTRY=Na_6_Mg_2_(CO_3_)_4_(S^6+^O_4_)
##LOCALITY=Borax Lake, Lake County, California
##OWNER=RRUFF
##SOURCE=Michael Scott
##DESCRIPTION=Colorless octahedra
##STATUS=The identification of this mineral is confirmed by single-crystal X-ray diffraction and chemical analysis.
##URL=rruff.info/R060700
##MEASURED CHEMISTRY=Na_6.00_(Mg_1.99_Ca_0.01_)_Î£=2.00_(CO_3_)_4_(S_1.00_O_4_) ; C not measured but estimated by difference and stoichiometry
137.438, 4255.536
137.920, 4303.200
138.402, 4389.966
138.884, 4507.839
139.366, 4648.560
139.848, 4812.587
140.331, 5011.778
140.813, 5249.519
141.295, 5534.760
141.777, 5883.843
142.259, 6333.984
142.741, 6824.601
143.223, 7326.100
143.705, 7835.989
144.188, 8299.462
144.670, 8670.715
145.152, 8949.650
145.634, 9154.148
146.116, 9276.740
146.598, 9329.991
147.080, 9314.237
147.562, 9222.303
148.044, 9105.083
148.527, 9000.349
149.009, 8906.589
149.491, 8824.609
149.973, 8768.562
150.455, 8720.209
150.937, 8643.792
151.419, 8525.557
151.901, 8409.555
152.383, 8340.521
152.866, 8307.309
153.348, 8275.768
153.830, 8246.253
154.312, 8208.583
154.794, 8131.162
155.276, 7991.591
155.758, 7851.520
156.240, 7760.629
156.723, 7710.866
157.205, 7677.077
157.687, 7646.180
158.169, 7621.554
158.651, 7616.381
159.133, 7639.389
159.615, 7671.883
160.097, 7694.938
160.579, 7712.570
161.062, 7742.390
161.544, 7797.326
162.026, 7874.285
162.508, 7959.217
162.990, 8058.341
163.472, 8155.759
163.954, 8244.393
164.436, 8323.441
164.919, 8392.348
165.401, 8442.641
165.883, 8477.069
166.365, 8527.179
166.847, 8612.034
167.329, 8694.111
167.811, 8750.618
168.293, 8784.518
168.775, 8812.282
169.258, 8844.943
169.740, 8882.488
170.222, 8921.453
170.704, 8963.361
171.186, 9005.319
171.668, 9049.484
172.150, 9093.943
172.632, 9131.814
173.115, 9162.553
173.597, 9187.048
174.079, 9182.803
174.561, 9106.642
175.043, 9039.584
175.525, 9027.959
176.007, 9063.579
176.489, 9103.469
176.971, 9107.593
177.454, 9072.472
177.936, 9043.993
178.418, 9034.797
178.900, 9021.864
179.382, 8992.774
179.864, 8949.717
180.346, 8904.479
180.828, 8866.289
181.311, 8835.156
181.793, 8810.550
182.275, 8792.424
182.757, 8781.724
183.239, 8780.445
183.721, 8787.718
184.203, 8800.353
184.685, 8813.945
185.167, 8827.132
185.650, 8853.028
186.132, 8923.066
186.614, 8979.098
187.096, 8980.310
187.578, 8942.002
188.060, 8918.879
188.542, 8973.261
189.024, 9118.071
189.507, 9208.222
189.989, 9174.448
190.471, 9142.930
190.953, 9157.682
191.435, 9214.541
191.917, 9285.257
192.399, 9344.927
192.881, 9391.481
193.363, 9452.675
193.846, 9545.852
194.328, 9639.646
194.810, 9723.165
195.292, 9798.377
195.774, 9872.939
196.256, 9952.136
196.738, 10036.240
197.220, 10127.370
197.702, 10213.510
198.185, 10319.530
198.667, 10461.410
199.149, 10631.690
199.631, 10809.180
200.113, 10977.660
200.595, 11137.430
201.077, 11307.690
201.559, 11493.520
202.042, 11687.730
202.524, 11896.400
203.006, 12112.440
203.488, 12320.310
203.970, 12507.400
204.452, 12675.140
204.934, 12846.070
205.416, 13045.570
205.898, 13219.990
206.380, 13345.980
206.863, 13437.980
207.345, 13523.990
207.827, 13626.650
208.309, 13739.430
208.791, 13804.920
209.273, 13800.750
209.755, 13767.350
210.238, 13710.990
210.720, 13632.470
211.202, 13528.760
211.684, 13395.700
212.166, 13239.830
212.648, 13093.190
213.130, 12950.210
213.612, 12827.730
214.094, 12728.010
214.577, 12650.550
215.059, 12595.530
215.541, 12565.000
216.023, 12554.030
216.505, 12544.370
216.987, 12527.060
217.469, 12526.180
217.951, 12557.600
218.434, 12601.820
218.916, 12637.200
219.398, 12653.790
219.880, 12657.770
220.362, 12665.940
220.844, 12689.170
221.326, 12697.130
221.808, 12684.610
222.290, 12657.740
222.773, 12622.690
223.255, 12581.540
223.737, 12531.900
224.219, 12466.680
224.701, 12373.310
225.183, 12290.480
225.665, 12229.110
226.147, 12174.540
226.629, 12114.400
227.112, 12045.350
227.594, 11974.740
228.076, 11910.950
228.558, 11850.240
229.040, 11808.600
229.522, 11800.790
230.004, 11802.100
230.486, 11798.520
230.969, 11787.040
231.451, 11772.070
231.933, 11757.330
232.415, 11741.440
232.897, 11731.990
233.379, 11735.000
233.861, 11740.730
234.343, 11745.030
234.825, 11747.410
235.307, 11749.330
235.790, 11742.710
236.272, 11723.010
236.754, 11744.620
237.236, 11845.360
237.718, 11958.660
238.200, 12054.110
238.682, 12134.370
239.165, 12219.360
239.647, 12324.670
240.129, 12450.000
240.611, 12580.850
241.093, 12726.650
241.575, 12867.230
242.057, 12985.710
242.539, 13092.020
243.021, 13208.450
243.503, 13352.200
243.986, 13517.500
244.468, 13683.510
244.950, 13864.310
245.432, 14019.560
245.914, 14131.740
246.396, 14209.880
246.878, 14271.030
247.361, 14333.320
247.843, 14375.620
248.325, 14343.850
248.807, 14216.220
249.289, 14072.650
249.771, 13950.500
250.253, 13832.170
250.735, 13692.310
251.217, 13516.800
251.699, 13329.230
252.182, 13160.560
252.664, 13013.670
253.146, 12869.560
253.628, 12716.980
254.110, 12566.430
254.592, 12428.560
255.074, 12306.570
255.556, 12194.150
256.039, 12090.760
256.521, 11995.630
257.003, 11894.660
257.485, 11784.690
257.967, 11664.810
258.449, 11532.260
258.931, 11384.730
259.413, 11240.310
259.896, 11111.510
260.378, 10994.930
260.860, 10877.970
261.342, 10754.410
261.824, 10633.790
262.306, 10524.360
262.788, 10425.680
263.270, 10336.460
263.752, 10255.440
264.234, 10183.160
264.717, 10122.980
265.199, 10077.740
265.681, 10033.900
266.163, 9974.546
266.645, 9902.007
267.127, 9837.805
267.609, 9785.845
268.091, 9744.281
268.574, 9715.300
269.056, 9698.871
269.538, 9681.071
270.020, 9648.813
270.502, 9604.278
270.984, 9572.764
271.466, 9559.396
271.948, 9554.820
272.431, 9558.552
272.913, 9567.790
273.395, 9569.434
273.877, 9551.906
274.359, 9522.839
274.841, 9518.014
275.323, 9559.376
275.805, 9595.964
276.287, 9609.663
276.770, 9607.385
277.252, 9601.247
277.734, 9596.073
278.216, 9590.853
278.698, 9582.171
279.180, 9546.142
279.662, 9543.418
280.144, 9611.789
280.626, 9701.178
281.109, 9755.636
281.591, 9760.552
282.073, 9742.591
282.555, 9739.240
283.037, 9753.063
283.519, 9778.171
284.001, 9825.300
284.483, 9874.369
284.966, 9913.089
285.448, 9940.213
285.930, 9960.933
286.412, 9978.588
286.894, 9991.683
287.376, 10015.040
287.858, 10064.840
288.340, 10108.350
288.823, 10128.150
289.305, 10132.040
289.787, 10138.200
290.269, 10159.130
290.751, 10192.750
291.233, 10225.140
291.715, 10247.870
292.197, 10281.240
292.679, 10338.490
293.161, 10404.700
293.644, 10463.000
294.126, 10505.830
294.608, 10537.160
295.090, 10563.430
295.572, 10581.210
296.054, 10602.740
296.536, 10624.920
297.018, 10654.580
297.501, 10703.330
297.983, 10772.340
298.465, 10839.170
298.947, 10873.600
299.429, 10872.890
299.911, 10881.780
300.393, 10914.300
300.875, 10949.150
301.358, 10980.500
301.840, 11004.930
302.322, 11009.230
302.804, 10982.820
303.286, 10929.130
303.768, 10856.440
304.250, 10755.230
304.732, 10655.740
305.214, 10584.450
305.697, 10529.700
306.179, 10467.290
306.661, 10379.130
307.143, 10285.720
307.625, 10214.180
308.107, 10165.510
308.589, 10121.040
309.071, 10075.500
309.553, 10025.830
310.036, 9966.553
310.518, 9888.080
311.000, 9814.657
311.482, 9760.674
311.964, 9722.836
312.446, 9695.012
312.928, 9679.112
313.410, 9663.924
313.892, 9624.743
314.375, 9552.515
314.857, 9492.232
315.339, 9455.712
315.821, 9434.883
316.303, 9423.403
316.785, 9419.656
317.267, 9418.649
317.750, 9415.357
318.232, 9409.513
318.714, 9402.587
319.196, 9386.892
319.678, 9377.069
320.160, 9388.911
320.642, 9415.225
321.124, 9432.842
321.606, 9424.479
322.089, 9393.332
322.571, 9369.319
323.053, 9348.886
323.535, 9339.679
324.017, 9348.394
324.499, 9367.152
324.981, 9388.516
325.463, 9409.213
325.945, 9426.239
326.428, 9430.099
326.910, 9404.600
327.392, 9401.552
327.874, 9448.586
328.356, 9498.975
328.838, 9518.680
329.320, 9505.708
329.802, 9484.305
330.284, 9481.991
330.767, 9500.221
331.249, 9500.783
331.731, 9465.966
332.213, 9433.994
332.695, 9424.723
333.177, 9431.805
333.659, 9440.164
334.141, 9444.344
334.624, 9443.531
335.106, 9435.563
335.588, 9420.036
336.070, 9399.284
336.552, 9363.247
337.034, 9327.091
337.516, 9313.338
337.998, 9334.187
338.480, 9357.456
338.963, 9354.479
339.445, 9330.741
339.927, 9313.254
340.409, 9310.985
340.891, 9316.447
341.373, 9322.161
341.855, 9329.841
342.337, 9326.314
342.819, 9291.160
343.302, 9250.798
343.784, 9243.213
344.266, 9272.361
344.748, 9303.505
345.230, 9302.810
345.712, 9268.504
346.194, 9259.771
346.677, 9295.395
347.159, 9335.230
347.641, 9364.667
348.123, 9383.866
348.605, 9394.921
349.087, 9398.355
349.569, 9396.847
350.051, 9399.098
350.533, 9412.972
351.016, 9420.067
351.498, 9410.190
351.980, 9398.931
352.462, 9403.198
352.944, 9425.188
353.426, 9450.434
353.908, 9460.321
354.390, 9451.721
354.872, 9443.641
355.355, 9436.586
355.837, 9429.763
356.319, 9423.307
356.801, 9416.923
357.283, 9410.343
357.765, 9404.581
358.247, 9397.817
358.729, 9380.850
359.211, 9345.045
359.694, 9322.361
360.176, 9335.482
360.658, 9364.251
361.140, 9391.771
361.622, 9416.841
362.104, 9431.229
362.586, 9422.584
363.069, 9394.448
363.551, 9368.585
364.033, 9349.809
364.515, 9335.981
364.997, 9322.783
365.479, 9309.790
365.961, 9307.365
366.443, 9329.854
366.925, 9357.925
367.408, 9367.374
367.890, 9357.519
368.372, 9346.648
368.854, 9348.013
369.336, 9360.464
369.818, 9371.613
370.300, 9380.747
370.782, 9389.376
371.264, 9398.266
371.747, 9406.827
372.229, 9413.221
372.711, 9416.709
373.193, 9420.263
373.675, 9429.797
374.157, 9449.590
374.639, 9467.101
375.121, 9483.813
375.603, 9497.383
376.086, 9506.111
376.568, 9510.199
377.050, 9511.278
377.532, 9510.906
378.014, 9508.858
378.496, 9501.690
378.978, 9482.004
379.460, 9468.558
379.943, 9471.024
380.425, 9481.182
380.907, 9489.767
381.389, 9494.693
381.871, 9493.251
382.353, 9477.537
382.835, 9447.234
383.317, 9425.804
383.799, 9420.392
384.282, 9425.159
384.764, 9440.147
385.246, 9465.147
385.728, 9472.552
386.210, 9435.494
386.692, 9380.931
387.174, 9347.474
387.656, 9338.702
388.138, 9340.608
388.621, 9345.636
389.103, 9353.195
389.585, 9358.539
390.067, 9358.471
390.549, 9359.834
391.031, 9369.533
391.513, 9381.364
391.996, 9381.804
392.478, 9365.698
392.960, 9345.956
393.442, 9346.016
393.924, 9379.137
394.406, 9402.017
394.888, 9409.701
395.370, 9412.531
395.852, 9419.291
396.335, 9427.205
396.817, 9423.922
397.299, 9394.908
397.781, 9348.517
398.263, 9334.852
398.745, 9324.595
399.227, 9334.234
399.709, 9339.045
400.191, 9339.285
400.674, 9321.267
401.156, 9326.825
401.638, 9322.936
402.120, 9318.658
402.602, 9322.332
403.084, 9312.548
403.566, 9318.287
404.048, 9325.509
404.530, 9318.614
405.013, 9300.617
405.495, 9286.614
405.977, 9284.961
406.459, 9286.112
406.941, 9279.677
407.423, 9266.954
407.905, 9256.673
408.387, 9253.096
408.870, 9255.994
409.352, 9265.260
409.834, 9292.384
410.316, 9308.734
410.798, 9304.668
411.280, 9291.512
411.762, 9277.854
412.244, 9266.355
412.727, 9258.737
413.209, 9257.681
413.691, 9263.998
414.173, 9266.226
414.655, 9249.592
415.137, 9244.376
415.619, 9267.778
416.101, 9305.012
416.583, 9333.422
417.065, 9342.354
417.548, 9341.588
418.030, 9347.432
418.512, 9361.244
418.994, 9370.444
419.476, 9372.085
419.958, 9368.073
420.440, 9356.440
420.922, 9338.492
421.405, 9328.714
421.887, 9343.301
422.369, 9365.774
422.851, 9367.498
423.333, 9347.425
423.815, 9334.518
424.297, 9352.371
424.779, 9389.053
425.262, 9396.666
425.744, 9351.119
426.226, 9313.423
426.708, 9296.719
427.190, 9297.671
427.672, 9319.831
428.154, 9361.347
428.636, 9401.094
429.118, 9414.175
429.601, 9397.017
430.083, 9374.863
430.565, 9340.323
431.047, 9308.676
431.529, 9279.116
432.011, 9256.863
432.493, 9251.396
432.975, 9268.550
433.457, 9296.989
433.940, 9302.804
434.422, 9271.498
434.904, 9260.798
435.386, 9279.584
435.868, 9291.212
436.350, 9296.066
436.832, 9273.864
437.314, 9286.602
437.797, 9285.336
438.279, 9283.497
438.761, 9301.151
439.243, 9282.885
439.725, 9300.230
440.207, 9300.756
440.689, 9326.995
441.171, 9343.874
441.654, 9343.776
442.136, 9347.902
442.618, 9362.109
443.100, 9382.127
443.582, 9393.619
444.064, 9398.772
444.546, 9399.354
445.028, 9429.623
445.510, 9452.688
445.992, 9468.931
446.475, 9457.930
446.957, 9482.112
447.439, 9492.193
447.921, 9501.695
448.403, 9530.828
448.885, 9523.789
449.367, 9552.610
449.849, 9567.118
450.332, 9588.177
450.814, 9595.047
451.296, 9606.301
451.778, 9631.744
452.260, 9633.547
452.742, 9655.656
453.224, 9679.456
453.706, 9686.345
454.189, 9697.640
454.671, 9734.145
455.153, 9792.835
455.635, 9861.704
456.117, 9937.983
456.599, 10015.170
457.081, 10079.400
457.563, 10120.680
458.045, 10169.010
458.527, 10222.880
459.010, 10285.100
459.492, 10365.440
459.974, 10457.270
460.456, 10541.280
460.938, 10603.660
461.420, 10646.420
461.902, 10678.740
462.384, 10708.020
462.867, 10710.620
463.349, 10665.640
463.831, 10603.630
464.313, 10552.990
464.795, 10516.620
465.277, 10465.870
465.759, 10368.340
466.241, 10242.210
466.724, 10136.010
467.206, 10055.030
467.688, 9979.559
468.170, 9892.712
468.652, 9802.622
469.134, 9736.094
469.616, 9705.325
470.098, 9680.670
470.580, 9653.689
471.063, 9626.241
471.545, 9602.038
472.027, 9581.392
472.509, 9557.865
472.991, 9522.796
473.473, 9473.817
473.955, 9441.150
474.437, 9448.111
474.919, 9445.972
475.402, 9411.678
475.884, 9366.429
476.366, 9339.608
476.848, 9341.479
477.330, 9354.146
477.812, 9359.071
478.294, 9356.248
478.776, 9343.012
479.259, 9313.362
479.741, 9283.737
480.223, 9269.669
480.705, 9266.363
481.187, 9260.667
481.669, 9249.712
482.151, 9236.013
482.633, 9215.867
483.116, 9194.581
483.598, 9185.325
484.080, 9193.012
484.562, 9210.836
485.044, 9230.330
485.526, 9254.739
486.008, 9268.242
486.490, 9262.439
486.972, 9255.670
487.454, 9255.874
487.937, 9260.796
488.419, 9266.558
488.901, 9271.830
489.383, 9273.004
489.865, 9260.069
490.347, 9230.027
490.829, 9210.407
491.311, 9209.327
491.794, 9215.967
492.276, 9223.238
492.758, 9230.801
493.240, 9237.058
493.722, 9245.818
494.204, 9249.769
494.686, 9236.575
495.168, 9211.287
495.651, 9194.734
496.133, 9196.067
496.615, 9206.385
497.097, 9211.556
497.579, 9214.485
498.061, 9203.194
498.543, 9160.786
499.025, 9120.997
499.507, 9102.420
499.990, 9101.229
500.472, 9107.299
500.954, 9116.414
501.436, 9124.152
501.918, 9120.034
502.400, 9101.745
502.882, 9083.660
503.364, 9065.459
503.846, 9051.424
504.329, 9046.258
504.811, 9048.474
505.293, 9049.325
505.775, 9038.876
506.257, 9030.708
506.739, 9041.191
507.221, 9066.866
507.703, 9094.514
508.185, 9120.202
508.668, 9139.091
509.150, 9141.040
509.632, 9114.457
510.114, 9100.569
510.596, 9114.159
511.078, 9125.536
511.560, 9112.563
512.042, 9085.529
512.525, 9069.742
513.007, 9079.585
513.489, 9101.807
513.971, 9111.013
514.453, 9105.358
514.935, 9100.335
515.417, 9099.181
515.899, 9098.604
516.381, 9095.134
516.864, 9089.657
517.346, 9086.306
517.828, 9089.541
518.310, 9092.672
518.792, 9091.034
519.274, 9084.698
519.756, 9072.632
520.239, 9053.865
520.721, 9033.808
521.203, 9019.649
521.685, 9008.773
522.167, 9013.978
522.649, 9054.143
523.131, 9088.303
523.613, 9104.037
524.095, 9101.191
524.578, 9076.175
525.060, 9025.260
525.542, 8972.545
526.024, 8953.713
526.506, 8968.053
526.988, 8991.826
527.470, 9034.100
527.952, 9063.228
528.434, 9033.269
528.917, 8966.438
529.399, 8935.872
529.881, 8985.157
530.363, 9037.952
530.845, 9055.243
531.327, 9048.606
531.809, 9036.079
532.291, 9022.828
532.773, 9006.695
533.256, 8983.682
533.738, 8952.521
534.220, 8933.405
534.702, 8931.690
535.184, 8936.325
535.666, 8949.537
536.148, 8965.151
536.630, 8976.976
537.112, 8983.362
537.595, 8984.446
538.077, 8975.831
538.559, 8961.803
539.041, 8958.297
539.523, 8967.987
540.005, 8976.580
540.487, 8973.059
540.969, 8961.990
541.452, 8961.229
541.934, 8984.381
542.416, 8995.357
542.898, 8978.143
543.380, 8951.708
543.862, 8929.965
544.344, 8916.600
544.826, 8915.052
545.308, 8931.097
545.791, 8957.438
546.273, 8960.695
546.755, 8930.324
547.237, 8906.157
547.719, 8903.098
548.201, 8906.154
548.683, 8901.766
549.166, 8890.521
549.648, 8886.979
550.130, 8909.650
550.612, 8934.655
551.094, 8931.481
551.576, 8905.296
552.058, 8881.382
552.540, 8870.190
553.022, 8868.196
553.505, 8869.940
553.987, 8877.285
554.469, 8883.032
554.951, 8887.037
555.433, 8889.861
555.915, 8888.358
556.397, 8886.676
556.879, 8895.083
557.362, 8919.655
557.844, 8941.327
558.326, 8927.865
558.808, 8884.461
559.290, 8861.877
559.772, 8871.697
560.254, 8888.818
560.736, 8896.697
561.218, 8895.604
561.701, 8890.228
562.183, 8872.364
562.665, 8860.102
563.147, 8862.238
563.629, 8871.310
564.111, 8878.987
564.593, 8883.850
565.075, 8890.006
565.557, 8903.732
566.040, 8921.037
566.522, 8911.760
567.004, 8857.658
567.486, 8818.906
567.968, 8829.210
568.450, 8850.639
568.932, 8850.028
569.414, 8826.287
569.896, 8808.677
570.379, 8814.759
570.861, 8830.098
571.343, 8842.186
571.825, 8849.896
572.307, 8850.436
572.789, 8842.010
573.271, 8829.788
573.753, 8823.283
574.235, 8827.439
574.718, 8822.003
575.200, 8793.385
575.682, 8770.328
576.164, 8761.568
576.646, 8765.995
577.128, 8783.538
577.610, 8815.842
578.093, 8847.957
578.575, 8864.946
579.057, 8868.956
579.539, 8865.110
580.021, 8852.208
580.503, 8845.399
580.985, 8858.758
581.467, 8886.503
581.949, 8899.241
582.432, 8879.811
582.914, 8871.168
583.396, 8887.050
583.878, 8909.930
584.360, 8929.518
584.842, 8942.187
585.324, 8942.040
585.806, 8921.042
586.289, 8891.946
586.771, 8891.229
587.253, 8924.164
587.735, 8939.578
588.217, 8912.273
588.699, 8881.464
589.181, 8893.783
589.663, 8941.725
590.145, 8973.674
590.628, 8972.737
591.110, 8963.167
591.592, 8951.955
592.074, 8942.622
592.556, 8943.184
593.038, 8954.521
593.520, 8963.809
594.002, 8953.379
594.484, 8924.853
594.967, 8925.333
595.449, 8976.696
595.931, 9014.016
596.413, 8997.908
596.895, 8967.701
597.377, 8962.269
597.859, 8985.854
598.341, 9005.406
598.823, 9002.073
599.306, 8990.759
599.788, 8985.946
600.270, 8987.505
600.752, 8990.624
601.234, 8992.925
601.716, 8999.230
602.198, 9021.865
602.680, 9073.591
603.162, 9092.228
603.645, 9040.381
604.127, 8996.364
604.609, 8987.644
605.091, 9002.309
605.573, 9025.170
606.055, 9053.931
606.537, 9078.371
607.019, 9087.154
607.502, 9087.391
607.984, 9090.280
608.466, 9097.346
608.948, 9115.856
609.430, 9154.781
609.912, 9200.383
610.394, 9210.558
610.876, 9140.854
611.359, 9112.845
611.841, 9158.176
612.323, 9210.448
612.805, 9233.080
613.287, 9234.571
613.769, 9239.193
614.251, 9257.255
614.733, 9281.395
615.216, 9302.120
615.698, 9321.813
616.180, 9349.955
616.662, 9388.329
617.144, 9429.811
617.626, 9466.851
618.108, 9502.503
618.590, 9555.203
619.072, 9627.068
619.555, 9713.152
620.037, 9820.081
620.519, 9935.835
621.001, 10048.120
621.483, 10160.270
621.965, 10288.430
622.447, 10443.900
622.929, 10613.270
623.411, 10772.250
623.894, 10923.710
624.376, 11092.010
624.858, 11282.770
625.340, 11494.480
625.822, 11735.380
626.304, 12002.070
626.786, 12239.840
627.268, 12441.910
627.750, 12627.600
628.233, 12806.970
628.715, 12967.080
629.197, 13126.430
629.679, 13263.720
630.161, 13302.920
630.643, 13185.730
631.125, 12945.860
631.607, 12627.380
632.089, 12233.400
632.572, 11825.870
633.054, 11412.970
633.536, 11011.960
634.018, 10633.080
634.500, 10278.630
634.982, 9979.683
635.464, 9750.688
635.946, 9557.637
636.429, 9400.770
636.911, 9269.725
637.393, 9153.959
637.875, 9052.699
638.357, 8973.598
638.839, 8928.814
639.321, 8904.830
639.803, 8870.484
640.286, 8825.609
640.768, 8785.934
641.250, 8759.110
641.732, 8731.306
642.214, 8683.301
642.696, 8613.373
643.178, 8564.202
643.660, 8549.991
644.143, 8538.608
644.625, 8518.262
645.107, 8497.491
645.589, 8485.776
646.071, 8484.396
646.553, 8489.608
647.035, 8504.434
647.517, 8519.494
647.999, 8509.638
648.482, 8474.985
648.964, 8438.434
649.446, 8401.520
649.928, 8377.924
650.410, 8391.192
650.892, 8445.074
651.374, 8463.019
651.856, 8408.222
652.338, 8365.403
652.821, 8360.022
