##NAMES=Tyrolite
##RRUFFID=R050571
##IDEAL CHEMISTRY=Ca_2_Cu^2+^_9_(As^5+^O_4_)_4_(CO_3_)(OH)_8_&#183;11H_2_O
##LOCALITY=Penamellera, Spain
##OWNER=RRUFF
##SOURCE=University of Arizona Mineral Museum
##DESCRIPTION=Pale blue foliated coating, tyrolite-2M polytype
##STATUS=The identification of this mineral is confirmed by single-crystal X-ray diffraction and chemical analysis.
##URL=rruff.info/R050571
##MEASURED CHEMISTRY=Ca_1.00_(Cu_4.95_Fe_0.03_Zn_0.02_)_Σ=5_(As_1.00_O_4_)_2_(CO_3_)(OH)_4_·6H_2_O
91.11523, 27.21272
91.59735, 26.04658
92.07947, 26.95387
92.56158, 29.34880
93.04370, 31.39078
93.52582, 31.71640
94.00793, 30.97159
94.49006, 30.50568
94.97218, 30.46237
95.45429, 30.71535
95.93641, 31.19787
96.41853, 31.90185
96.90064, 32.49814
97.38276, 32.78810
97.86488, 32.77571
98.34699, 32.45336
98.82911, 31.70794
99.31123, 30.71136
99.79334, 29.97177
100.2755, 29.45999
100.7576, 29.32993
101.2397, 29.89545
101.7218, 31.36863
102.2039, 32.55958
102.6861, 33.25416
103.1682, 33.45776
103.6503, 33.15050
104.1324, 32.05189
104.6145, 30.74969
105.0966, 29.82748
105.5788, 28.95117
106.0609, 29.09118
106.5430, 30.91469
107.0251, 35.43026
107.5072, 38.01057
107.9893, 37.31802
108.4715, 35.03263
108.9536, 34.16502
109.4357, 35.33772
109.9178, 37.37471
110.3999, 39.96345
110.8820, 43.23618
111.3642, 46.80178
111.8463, 50.96868
112.3284, 55.47230
112.8105, 59.61242
113.2926, 62.04407
113.7747, 65.00134
114.2569, 69.60273
114.7390, 77.35217
115.2211, 85.26036
115.7032, 92.11938
116.1853, 98.30785
116.6674, 105.7139
117.1496, 114.8268
117.6317, 125.6059
118.1138, 137.9118
118.5959, 151.5615
119.0780, 166.9521
119.5602, 184.5984
120.0423, 204.5747
120.5244, 225.3565
121.0065, 246.2363
121.4886, 267.4121
121.9707, 289.2391
122.4529, 312.6747
122.9350, 336.0952
123.4171, 358.1234
123.8992, 378.6777
124.3813, 398.1372
124.8634, 417.4565
125.3456, 435.9748
125.8277, 452.2574
126.3098, 462.7932
126.7919, 471.3265
127.2740, 483.3750
127.7561, 499.6556
128.2383, 518.3409
128.7204, 537.6981
129.2025, 557.7244
129.6846, 578.4067
130.1667, 599.8750
130.6488, 621.8059
131.1310, 644.5348
131.6131, 668.1132
132.0952, 692.4368
132.5773, 717.9117
133.0594, 744.6795
133.5415, 770.5707
134.0237, 793.9973
134.5058, 815.1992
134.9879, 836.3371
135.4700, 858.2196
135.9521, 880.1276
136.4343, 900.1068
136.9164, 917.8116
137.3985, 935.2645
137.8806, 954.9440
138.3627, 977.5853
138.8448, 998.2986
139.3270, 1016.251
139.8091, 1031.715
140.2912, 1046.129
140.7733, 1058.872
141.2554, 1071.896
141.7375, 1087.106
142.2197, 1105.192
142.7018, 1124.043
143.1839, 1143.122
143.6660, 1162.274
144.1481, 1182.953
144.6302, 1206.052
145.1124, 1229.773
145.5945, 1251.382
146.0766, 1270.019
146.5587, 1288.198
147.0408, 1306.336
147.5230, 1324.011
148.0051, 1342.681
148.4872, 1357.039
148.9693, 1364.119
149.4514, 1370.603
149.9335, 1377.474
150.4157, 1382.976
150.8978, 1386.524
151.3799, 1387.697
151.8620, 1388.235
152.3441, 1387.737
152.8262, 1386.712
153.3084, 1386.102
153.7905, 1388.577
154.2726, 1389.341
154.7547, 1386.373
155.2368, 1376.497
155.7189, 1368.087
156.2011, 1362.319
156.6832, 1358.591
157.1653, 1355.667
157.6474, 1352.352
158.1295, 1350.341
158.6116, 1350.580
159.0938, 1354.764
159.5759, 1358.942
160.0580, 1361.735
160.5401, 1363.612
161.0222, 1366.210
161.5044, 1370.358
161.9865, 1375.201
162.4686, 1380.207
162.9507, 1386.245
163.4328, 1391.302
163.9149, 1394.217
164.3971, 1395.359
164.8792, 1396.376
165.3613, 1399.499
165.8434, 1402.250
166.3255, 1402.355
166.8076, 1397.599
167.2898, 1391.387
167.7719, 1385.437
168.2540, 1379.698
168.7361, 1373.632
169.2182, 1366.729
169.7003, 1359.389
170.1825, 1352.088
170.6646, 1345.109
171.1467, 1338.156
171.6288, 1330.763
172.1109, 1323.000
172.5931, 1315.320
173.0752, 1307.349
173.5573, 1299.745
174.0394, 1293.569
174.5215, 1290.855
175.0036, 1288.975
175.4858, 1285.022
175.9679, 1278.897
176.4500, 1272.007
176.9321, 1265.050
177.4142, 1258.127
177.8963, 1251.593
178.3785, 1245.990
178.8606, 1240.636
179.3427, 1234.651
179.8248, 1227.955
180.3069, 1220.817
180.7890, 1213.170
181.2712, 1205.255
181.7533, 1197.925
182.2354, 1191.413
182.7175, 1185.796
183.1996, 1181.601
183.6818, 1178.902
184.1639, 1176.956
184.6460, 1174.617
185.1281, 1172.090
185.6102, 1170.358
186.0923, 1171.058
186.5745, 1173.067
187.0566, 1172.309
187.5387, 1168.100
188.0208, 1163.041
188.5029, 1160.524
188.9850, 1160.429
189.4672, 1161.053
189.9493, 1162.142
190.4314, 1163.439
190.9135, 1163.356
191.3956, 1161.515
191.8777, 1159.083
192.3599, 1158.069
192.8420, 1158.486
193.3241, 1158.516
193.8062, 1157.010
194.2883, 1154.080
194.7704, 1151.207
195.2526, 1148.403
195.7347, 1145.729
196.2168, 1143.493
196.6989, 1141.735
197.1810, 1139.625
197.6632, 1136.788
198.1453, 1133.189
198.6274, 1128.941
199.1095, 1124.171
199.5916, 1118.556
200.0737, 1111.240
200.5559, 1101.983
201.0380, 1092.467
201.5201, 1083.704
202.0022, 1075.704
202.4843, 1067.385
202.9664, 1058.460
203.4486, 1049.457
203.9307, 1041.632
204.4128, 1035.239
204.8949, 1029.333
205.3770, 1023.504
205.8591, 1017.763
206.3413, 1011.856
206.8234, 1005.459
207.3055, 999.0858
207.7876, 994.3605
208.2697, 991.8821
208.7519, 989.2785
209.2340, 984.9933
209.7161, 978.5140
210.1982, 972.9084
210.6803, 968.5260
211.1624, 965.0027
211.6446, 961.2355
212.1267, 956.9681
212.6088, 953.1923
213.0909, 950.5632
213.5730, 949.4527
214.0551, 948.1365
214.5373, 946.5498
215.0194, 944.7293
215.5015, 942.5207
215.9836, 939.4109
216.4657, 936.9760
216.9478, 936.2638
217.4300, 938.1036
217.9121, 938.9396
218.3942, 938.3958
218.8763, 936.8071
219.3584, 934.9304
219.8405, 932.1176
220.3227, 930.1786
220.8048, 930.4451
221.2869, 934.3651
221.7690, 936.0749
222.2511, 934.1765
222.7333, 930.2841
223.2154, 929.5010
223.6975, 933.7367
224.1796, 937.8705
224.6617, 939.1938
225.1438, 936.2756
225.6260, 934.4017
226.1081, 933.8619
226.5902, 934.4366
227.0723, 935.5176
227.5544, 937.2119
228.0365, 939.2969
228.5187, 941.7106
229.0008, 944.5793
229.4829, 947.4913
229.9650, 950.7429
230.4471, 953.9368
230.9292, 956.0440
231.4114, 956.7375
231.8935, 956.8085
232.3756, 956.3864
232.8577, 954.6316
233.3398, 954.3950
233.8220, 956.4167
234.3041, 959.7001
234.7862, 961.7552
235.2683, 962.1628
235.7504, 962.0079
236.2325, 961.6645
236.7147, 960.9890
237.1968, 960.5886
237.6789, 960.5277
238.1610, 960.7667
238.6431, 961.1573
239.1252, 961.5344
239.6074, 962.3918
240.0895, 964.0105
240.5716, 966.6791
241.0537, 969.2538
241.5358, 971.6317
242.0179, 973.9619
242.5001, 976.5490
242.9822, 979.4951
243.4643, 982.4938
243.9464, 985.5642
244.4285, 989.0323
244.9106, 991.2488
245.3928, 991.2585
245.8749, 990.5518
246.3570, 991.9276
246.8391, 996.7321
247.3212, 1001.253
247.8034, 1004.076
248.2855, 1004.580
248.7676, 1006.079
249.2497, 1008.942
249.7318, 1012.560
250.2139, 1016.099
250.6961, 1019.815
251.1782, 1023.034
251.6603, 1025.521
252.1424, 1027.176
252.6245, 1028.818
253.1066, 1030.472
253.5888, 1032.128
254.0709, 1033.856
254.5530, 1035.904
255.0351, 1037.469
255.5172, 1037.848
255.9993, 1036.716
256.4815, 1038.079
256.9636, 1043.230
257.4457, 1049.453
257.9278, 1053.518
258.4099, 1054.323
258.8921, 1055.544
259.3742, 1058.447
259.8563, 1063.059
260.3384, 1065.759
260.8205, 1065.639
261.3026, 1064.786
261.7848, 1065.404
262.2669, 1068.155
262.7490, 1070.527
263.2311, 1071.931
263.7132, 1072.436
264.1953, 1073.011
264.6775, 1073.763
265.1596, 1074.399
265.6417, 1074.846
266.1238, 1075.413
266.6059, 1074.625
267.0880, 1071.775
267.5702, 1067.245
268.0523, 1063.951
268.5344, 1062.270
269.0165, 1060.973
269.4986, 1059.008
269.9807, 1056.101
270.4629, 1053.643
270.9450, 1051.787
271.4271, 1050.509
271.9092, 1050.008
272.3913, 1050.657
272.8734, 1051.020
273.3556, 1049.884
273.8377, 1046.950
274.3198, 1044.621
274.8019, 1043.295
275.2840, 1042.550
275.7661, 1041.064
276.2483, 1038.617
276.7304, 1036.356
277.2125, 1034.910
277.6946, 1034.276
278.1768, 1034.546
278.6589, 1036.073
279.1410, 1038.065
279.6231, 1038.931
280.1052, 1038.610
280.5873, 1037.656
281.0695, 1036.105
281.5516, 1033.966
282.0337, 1032.303
282.5158, 1031.211
282.9979, 1030.454
283.4800, 1029.676
283.9622, 1028.866
284.4443, 1028.097
284.9264, 1027.209
285.4085, 1026.281
285.8906, 1026.093
286.3727, 1026.709
286.8549, 1027.785
287.3370, 1029.275
287.8191, 1031.116
288.3012, 1032.037
288.7833, 1030.888
289.2654, 1028.471
289.7476, 1027.932
290.2297, 1029.438
290.7118, 1031.557
291.1939, 1032.874
291.6760, 1033.493
292.1581, 1034.096
292.6403, 1035.139
293.1224, 1036.180
293.6045, 1035.744
294.0866, 1033.826
294.5687, 1032.308
295.0508, 1033.028
295.5330, 1035.536
296.0151, 1038.339
296.4972, 1041.373
296.9793, 1044.238
297.4614, 1045.891
297.9435, 1046.486
298.4257, 1047.196
298.9078, 1049.303
299.3899, 1052.108
299.8720, 1053.971
300.3541, 1054.404
300.8362, 1054.289
301.3184, 1054.512
301.8005, 1055.074
302.2826, 1055.956
302.7647, 1056.680
303.2469, 1057.865
303.7290, 1060.746
304.2111, 1065.767
304.6932, 1071.176
305.1753, 1075.985
305.6574, 1079.879
306.1396, 1081.919
306.6217, 1079.799
307.1038, 1076.565
307.5859, 1075.464
308.0680, 1076.816
308.5501, 1079.076
309.0323, 1081.169
309.5144, 1083.379
309.9965, 1086.146
310.4786, 1090.964
310.9607, 1095.506
311.4428, 1097.448
311.9250, 1096.864
312.4071, 1096.849
312.8892, 1100.364
313.3713, 1104.971
313.8534, 1108.120
314.3355, 1107.171
314.8177, 1106.168
315.2998, 1107.303
315.7819, 1110.248
316.2640, 1113.302
316.7461, 1115.863
317.2282, 1118.109
317.7104, 1120.187
318.1925, 1122.015
318.6746, 1123.826
319.1567, 1125.555
319.6388, 1127.312
320.1209, 1129.348
320.6031, 1132.504
321.0852, 1135.389
321.5673, 1137.182
322.0494, 1137.163
322.5315, 1137.506
323.0136, 1138.547
323.4958, 1140.261
323.9779, 1142.602
324.4600, 1146.410
324.9421, 1150.119
325.4242, 1153.013
325.9064, 1154.765
326.3885, 1157.176
326.8706, 1160.859
327.3527, 1165.084
327.8348, 1169.124
328.3170, 1171.823
328.7991, 1175.578
329.2812, 1181.439
329.7633, 1189.523
330.2454, 1195.621
330.7275, 1197.898
331.2097, 1199.557
331.6918, 1202.823
332.1739, 1208.492
332.6560, 1214.539
333.1381, 1221.260
333.6202, 1228.242
334.1024, 1232.968
334.5845, 1233.551
335.0666, 1234.580
335.5487, 1238.836
336.0308, 1247.934
336.5129, 1255.437
336.9951, 1260.886
337.4772, 1264.916
337.9593, 1269.020
338.4414, 1273.345
338.9235, 1277.474
339.4056, 1281.147
339.8878, 1284.271
340.3699, 1287.912
340.8520, 1291.833
341.3341, 1296.812
341.8162, 1304.443
342.2983, 1314.889
342.7805, 1325.477
343.2626, 1335.216
343.7447, 1344.373
344.2268, 1353.988
344.7089, 1364.204
345.1910, 1374.397
345.6732, 1383.198
346.1553, 1391.033
346.6374, 1400.693
347.1195, 1413.275
347.6016, 1427.509
348.0837, 1440.955
348.5659, 1453.778
349.0480, 1466.648
349.5301, 1479.959
350.0122, 1493.706
350.4944, 1507.156
350.9765, 1519.954
351.4586, 1533.352
351.9407, 1550.429
352.4228, 1569.678
352.9049, 1586.048
353.3871, 1594.601
353.8692, 1599.822
354.3513, 1607.861
354.8334, 1619.139
355.3155, 1630.335
355.7976, 1639.264
356.2798, 1646.318
356.7619, 1652.244
357.2440, 1657.208
357.7261, 1661.106
358.2082, 1664.150
358.6903, 1666.188
359.1725, 1666.298
359.6546, 1663.031
360.1367, 1658.066
360.6188, 1652.971
361.1009, 1648.931
361.5830, 1643.639
362.0652, 1634.983
362.5473, 1624.275
363.0294, 1614.740
363.5115, 1609.174
363.9936, 1603.738
364.4757, 1596.651
364.9579, 1587.497
365.4400, 1577.291
365.9221, 1564.757
366.4042, 1551.716
366.8863, 1540.467
367.3684, 1532.533
367.8506, 1525.228
368.3327, 1517.836
368.8148, 1510.321
369.2969, 1503.728
369.7790, 1498.534
370.2611, 1493.881
370.7433, 1489.098
371.2254, 1483.313
371.7075, 1478.785
372.1896, 1475.427
372.6717, 1473.408
373.1538, 1473.794
373.6360, 1478.107
374.1181, 1482.306
374.6002, 1484.182
375.0823, 1482.775
375.5645, 1482.379
376.0466, 1482.799
376.5287, 1484.434
377.0108, 1488.451
377.4929, 1495.329
377.9750, 1502.014
378.4572, 1507.654
378.9393, 1512.258
379.4214, 1515.192
379.9035, 1516.159
380.3856, 1516.656
380.8677, 1518.571
381.3499, 1521.710
381.8320, 1523.456
382.3141, 1523.016
382.7962, 1521.133
383.2783, 1519.451
383.7604, 1517.900
384.2426, 1515.547
384.7247, 1511.345
385.2068, 1505.909
385.6889, 1500.553
386.1710, 1495.551
386.6531, 1490.212
387.1353, 1484.039
387.6174, 1476.932
388.0995, 1468.611
388.5816, 1457.619
389.0637, 1446.079
389.5458, 1436.269
390.0280, 1428.118
390.5101, 1419.945
390.9922, 1410.330
391.4743, 1400.233
391.9564, 1390.580
392.4385, 1381.761
392.9207, 1373.406
393.4028, 1364.965
393.8849, 1356.823
394.3670, 1350.133
394.8491, 1347.495
395.3312, 1344.905
395.8134, 1339.743
396.2955, 1330.350
396.7776, 1322.076
397.2597, 1317.173
397.7418, 1313.785
398.2239, 1309.451
398.7061, 1302.141
399.1882, 1295.665
399.6703, 1291.493
400.1524, 1289.782
400.6346, 1286.549
401.1167, 1280.365
401.5988, 1273.944
402.0809, 1269.217
402.5630, 1267.472
403.0451, 1264.789
403.5273, 1260.339
404.0094, 1254.951
404.4915, 1251.042
404.9736, 1248.798
405.4557, 1247.527
405.9378, 1247.134
406.4200, 1247.717
406.9021, 1248.201
407.3842, 1248.900
407.8663, 1248.792
408.3484, 1245.850
408.8305, 1240.003
409.3127, 1235.396
409.7948, 1233.463
410.2769, 1233.421
410.7590, 1233.334
411.2411, 1233.222
411.7232, 1233.034
412.2054, 1233.293
412.6875, 1233.468
413.1696, 1231.794
413.6517, 1227.605
414.1338, 1222.829
414.6159, 1220.104
415.0981, 1218.667
415.5802, 1216.482
416.0623, 1212.501
416.5444, 1207.231
417.0265, 1200.932
417.5086, 1193.575
417.9908, 1186.294
418.4729, 1180.221
418.9550, 1174.460
419.4371, 1168.150
419.9192, 1160.459
420.4013, 1152.774
420.8835, 1146.242
421.3656, 1140.300
421.8477, 1133.100
422.3298, 1122.474
422.8119, 1111.906
423.2940, 1103.127
423.7762, 1097.206
424.2583, 1090.562
424.7404, 1081.798
425.2225, 1072.643
425.7047, 1064.832
426.1868, 1059.237
426.6689, 1053.969
427.1510, 1048.713
427.6331, 1043.510
428.1152, 1038.541
428.5974, 1033.688
429.0795, 1029.158
429.5616, 1024.991
430.0437, 1021.173
430.5258, 1017.899
431.0079, 1015.446
431.4901, 1013.221
431.9722, 1009.740
432.4543, 1004.769
432.9364, 1000.949
433.4185, 999.6642
433.9006, 1000.415
434.3828, 1001.180
434.8649, 1001.981
435.3470, 1002.567
435.8291, 1002.395
436.3112, 1001.794
436.7933, 1001.868
437.2755, 1002.997
437.7576, 1004.566
438.2397, 1005.728
438.7218, 1006.658
439.2039, 1007.912
439.6860, 1009.562
440.1682, 1011.845
440.6503, 1015.033
441.1324, 1019.172
441.6145, 1023.752
442.0966, 1029.062
442.5787, 1034.387
443.0609, 1038.950
443.5430, 1041.361
444.0251, 1044.145
444.5072, 1048.700
444.9893, 1054.442
445.4714, 1059.342
445.9536, 1061.635
446.4357, 1064.132
446.9178, 1068.285
447.3999, 1075.210
447.8820, 1081.048
448.3641, 1085.018
448.8463, 1088.342
449.3284, 1092.441
449.8105, 1097.902
450.2926, 1103.033
450.7747, 1107.408
451.2569, 1111.211
451.7390, 1115.451
452.2211, 1120.288
452.7032, 1125.216
453.1853, 1130.007
453.6674, 1134.697
454.1496, 1138.896
454.6317, 1142.536
455.1138, 1145.822
455.5959, 1149.123
456.0780, 1152.408
456.5602, 1155.119
457.0423, 1157.207
457.5244, 1158.525
458.0065, 1158.699
458.4886, 1157.780
458.9707, 1156.186
459.4529, 1154.534
459.9350, 1152.335
460.4171, 1148.705
460.8992, 1143.164
461.3813, 1137.348
461.8634, 1132.748
462.3456, 1128.676
462.8277, 1124.066
463.3098, 1117.441
463.7919, 1111.004
464.2740, 1106.315
464.7561, 1103.222
465.2383, 1099.288
465.7204, 1093.236
466.2025, 1086.450
466.6846, 1079.800
467.1667, 1073.263
467.6488, 1067.047
468.1310, 1060.763
468.6131, 1054.875
469.0952, 1050.085
469.5773, 1047.356
470.0594, 1044.182
470.5415, 1039.694
471.0237, 1033.985
471.5058, 1029.071
471.9879, 1025.133
472.4700, 1021.594
472.9521, 1017.903
473.4342, 1013.990
473.9164, 1011.241
474.3985, 1010.044
474.8806, 1009.467
475.3627, 1007.917
475.8448, 1005.475
476.3270, 1002.963
476.8091, 1000.628
477.2912, 998.5211
477.7733, 996.8372
478.2554, 995.5569
478.7375, 994.3848
479.2197, 993.1448
479.7018, 991.8536
480.1839, 990.4207
480.6660, 988.5832
481.1481, 987.3074
481.6302, 987.5361
482.1124, 988.7133
482.5945, 989.8974
483.0766, 990.9063
483.5587, 991.7029
484.0408, 991.9149
484.5229, 991.5916
485.0051, 992.1818
485.4872, 995.1431
485.9693, 998.2522
486.4514, 1000.067
486.9335, 998.7267
487.4156, 999.3666
487.8978, 1002.969
488.3799, 1008.032
488.8620, 1012.175
489.3441, 1014.727
489.8262, 1018.183
490.3083, 1023.769
490.7905, 1030.997
491.2726, 1035.700
491.7547, 1037.482
492.2368, 1038.871
492.7189, 1041.520
493.2010, 1045.368
493.6832, 1049.859
494.1653, 1055.023
494.6474, 1060.617
495.1295, 1065.983
495.6116, 1071.511
496.0938, 1078.551
496.5759, 1088.966
497.0580, 1100.038
497.5401, 1108.793
498.0222, 1115.522
498.5044, 1121.276
498.9865, 1125.221
499.4686, 1129.441
499.9507, 1136.252
500.4328, 1147.110
500.9149, 1156.145
501.3971, 1160.124
501.8792, 1161.779
502.3613, 1164.292
502.8434, 1169.469
503.3255, 1174.119
503.8076, 1178.323
504.2898, 1181.748
504.7719, 1182.665
505.2540, 1179.863
505.7361, 1176.315
506.2182, 1173.463
506.7003, 1171.729
507.1825, 1167.728
507.6646, 1160.902
508.1467, 1153.021
508.6288, 1146.080
509.1109, 1140.082
509.5930, 1133.747
510.0752, 1126.841
510.5573, 1119.470
511.0394, 1111.558
511.5215, 1103.231
512.0037, 1095.241
512.4858, 1088.295
512.9679, 1081.816
513.4500, 1075.073
513.9321, 1068.032
514.4142, 1060.658
514.8964, 1052.948
515.3785, 1044.830
515.8606, 1036.358
516.3427, 1027.638
516.8248, 1018.252
517.3069, 1007.242
517.7891, 995.5438
518.2712, 984.8544
518.7533, 976.4064
519.2354, 968.2406
519.7175, 959.9911
520.1996, 951.6247
520.6818, 943.1395
521.1639, 934.3436
521.6460, 925.6383
522.1281, 917.3622
522.6102, 909.5573
523.0923, 901.8840
523.5745, 894.3724
524.0566, 886.8774
524.5387, 879.0938
525.0208, 870.9885
525.5029, 863.0078
525.9850, 855.0238
526.4672, 847.4742
526.9493, 841.6717
527.4314, 837.3364
527.9135, 832.5211
528.3956, 825.0233
528.8777, 816.5940
529.3599, 809.9227
529.8420, 805.2728
530.3241, 800.8112
530.8062, 794.8860
531.2883, 788.5591
531.7704, 783.1845
532.2526, 779.7274
532.7347, 776.3358
533.2168, 772.0392
533.6989, 767.4023
534.1810, 763.6264
534.6631, 762.7125
535.1453, 760.8026
535.6274, 756.4248
536.1095, 749.4228
536.5916, 744.0173
537.0737, 740.5818
537.5558, 738.0800
538.0380, 735.9961
538.5201, 734.4232
539.0022, 732.4498
539.4843, 730.0031
539.9664, 727.2385
540.4485, 724.2850
540.9307, 721.1967
541.4128, 718.3754
541.8949, 716.1371
542.3770, 714.0839
542.8591, 711.3204
543.3412, 708.0394
543.8234, 705.0967
544.3055, 703.5070
544.7876, 702.2049
545.2697, 700.0682
545.7518, 696.9207
546.2339, 693.8707
546.7161, 691.8909
547.1982, 690.0511
547.6803, 687.4645
548.1624, 682.7634
548.6445, 678.8616
549.1266, 676.6537
549.6088, 675.4543
550.0909, 673.8590
550.5730, 671.4550
551.0551, 669.3846
551.5372, 668.1732
552.0193, 667.6774
552.5015, 666.3377
552.9836, 663.9608
553.4657, 661.4329
553.9478, 659.1315
554.4299, 657.0975
554.9120, 656.0034
555.3942, 656.0206
555.8763, 656.2326
556.3584, 655.7738
556.8405, 654.6858
557.3226, 653.0693
557.8047, 650.8459
558.2869, 648.2341
558.7690, 645.0633
559.2511, 641.6346
559.7332, 638.7496
560.2154, 637.0060
560.6975, 635.7113
561.1796, 634.5914
561.6617, 633.6361
562.1439, 632.6686
562.6260, 631.6215
563.1081, 630.5960
563.5902, 629.6613
564.0723, 629.0424
564.5544, 627.9703
565.0366, 626.0468
565.5187, 624.0399
566.0008, 623.1225
566.4829, 623.4911
566.9650, 623.7977
567.4471, 623.7973
567.9293, 623.4960
568.4114, 622.6689
568.8935, 621.3688
569.3756, 620.4711
569.8577, 621.2435
570.3398, 622.4803
570.8220, 621.7235
571.3041, 619.0061
571.7862, 616.2891
572.2683, 614.9975
572.7504, 614.3520
573.2325, 613.5204
573.7147, 612.1805
574.1968, 611.1123
574.6789, 610.6984
575.1610, 610.6993
575.6431, 610.8007
576.1252, 611.8198
576.6074, 611.9019
577.0895, 610.5245
577.5716, 608.0245
578.0537, 605.5118
578.5358, 602.6240
579.0179, 600.5921
579.5001, 600.1847
579.9822, 601.2701
580.4643, 601.6501
580.9464, 601.1992
581.4285, 600.8814
581.9106, 601.7205
582.3928, 603.3848
582.8749, 605.0137
583.3570, 606.6950
583.8391, 607.3827
584.3212, 605.0850
584.8033, 601.2562
585.2855, 598.3782
