##NAMES=Tyrolite
##RRUFFID=R060264
##IDEAL CHEMISTRY=Ca_2_Cu^2+^_9_(As^5+^O_4_)_4_(CO_3_)(OH)_8_&#183;11H_2_O
##LOCALITY=Lovelock mine, Bolivia, Cottonwood Canyon, Churchill County, Nevada, USA
##OWNER=RRUFF
##SOURCE=Michael Scott
##DESCRIPTION=Greenish-blue flat bladed crystals in radial aggregates
##STATUS=The identification of this mineral has been confirmed by single-crystal X-ray diffraction.
##URL=rruff.info/R060264
91.53320, 104.0008
92.01532, 100.5286
92.49744, 99.19778
92.97955, 103.6100
93.46167, 109.3725
93.94379, 110.2079
94.42590, 105.3081
94.90802, 98.31210
95.39014, 92.44071
95.87225, 87.37922
96.35437, 84.25856
96.83649, 85.35090
97.31860, 87.75344
97.80072, 88.20470
98.28284, 84.46815
98.76495, 77.60201
99.24707, 73.18930
99.72919, 72.83384
100.2113, 73.16288
100.6934, 73.70663
101.1755, 74.24529
101.6577, 74.55411
102.1398, 74.41759
102.6219, 73.75046
103.1040, 73.07645
103.5861, 73.12563
104.0682, 72.62193
104.5504, 70.00627
105.0325, 65.39169
105.5146, 61.02710
105.9967, 60.28367
106.4788, 64.99472
106.9609, 68.73808
107.4431, 71.46154
107.9252, 72.96761
108.4073, 72.66577
108.8894, 70.01855
109.3715, 66.26962
109.8536, 63.61681
110.3358, 62.13512
110.8179, 60.91827
111.3000, 59.18731
111.7821, 57.07075
112.2642, 55.95154
112.7463, 57.60038
113.2285, 59.75489
113.7106, 59.78708
114.1927, 56.68495
114.6748, 52.99783
115.1569, 52.87633
115.6390, 58.43758
116.1212, 62.06489
116.6033, 60.01308
117.0854, 55.77362
117.5675, 52.83539
118.0496, 53.05426
118.5317, 55.63775
119.0139, 56.76082
119.4960, 54.18223
119.9781, 52.44296
120.4602, 52.90062
120.9423, 54.76716
121.4244, 56.61047
121.9066, 57.32795
122.3887, 56.83580
122.8708, 56.33351
123.3529, 56.10622
123.8350, 55.63287
124.3171, 54.79819
124.7993, 53.53555
125.2814, 51.57347
125.7635, 48.19482
126.2456, 42.79329
126.7277, 40.27617
127.2098, 42.68760
127.6920, 47.13815
128.1741, 50.95031
128.6562, 53.68871
129.1383, 55.29321
129.6204, 55.12229
130.1025, 53.39738
130.5847, 51.71603
131.0668, 50.58489
131.5489, 49.97455
132.0310, 49.85217
132.5131, 50.56404
132.9952, 51.39407
133.4774, 51.92625
133.9595, 52.13820
134.4416, 51.73438
134.9237, 50.04259
135.4058, 46.74472
135.8879, 44.33854
136.3701, 43.70071
136.8522, 43.86076
137.3343, 44.39109
137.8164, 45.17906
138.2985, 46.29130
138.7806, 48.18752
139.2628, 52.74501
139.7449, 54.37389
140.2270, 50.53814
140.7091, 45.00842
141.1912, 41.14215
141.6733, 40.46745
142.1555, 42.12268
142.6376, 43.18872
143.1197, 43.14672
143.6018, 43.04356
144.0839, 43.15062
144.5660, 43.24554
145.0482, 42.88568
145.5303, 41.74070
146.0124, 39.98040
146.4945, 38.87583
146.9766, 38.60232
147.4587, 38.64045
147.9409, 38.88046
148.4230, 39.28495
148.9051, 39.75195
149.3872, 40.30204
149.8693, 40.84416
150.3514, 41.04144
150.8336, 41.02467
151.3157, 40.57762
151.7978, 39.00358
152.2799, 36.02745
152.7620, 33.78340
153.2441, 35.05195
153.7263, 38.14965
154.2084, 40.27880
154.6905, 39.53974
155.1726, 37.33548
155.6547, 37.11087
156.1368, 40.34581
156.6190, 42.85091
157.1011, 41.52738
157.5832, 37.93444
158.0653, 35.13686
158.5474, 35.83130
159.0295, 39.61354
159.5117, 40.98833
159.9938, 36.84055
160.4759, 33.23439
160.9580, 32.56493
161.4401, 34.32592
161.9222, 36.83504
162.4044, 38.62829
162.8865, 39.57914
163.3686, 40.59436
163.8507, 42.70195
164.3328, 44.02538
164.8149, 43.07436
165.2971, 40.16491
165.7792, 37.08564
166.2613, 35.98040
166.7434, 37.79806
167.2255, 38.98961
167.7076, 39.38508
168.1898, 39.38382
168.6719, 39.10950
169.1540, 38.63383
169.6361, 38.19488
170.1182, 38.14695
170.6003, 38.68697
171.0825, 39.15318
171.5646, 39.77819
172.0467, 40.21508
172.5288, 39.88425
173.0109, 38.53679
173.4930, 36.90313
173.9752, 36.33395
174.4573, 36.95811
174.9394, 37.34895
175.4215, 36.40579
175.9036, 34.93377
176.3857, 35.04301
176.8679, 38.10362
177.3500, 41.74896
177.8321, 42.67548
178.3142, 40.73158
178.7963, 38.49767
179.2784, 37.59176
179.7606, 37.83702
180.2427, 37.84729
180.7248, 37.08590
181.2069, 36.09490
181.6890, 35.36795
182.1711, 34.94503
182.6533, 34.59809
183.1354, 33.87770
183.6175, 32.62932
184.0996, 32.23554
184.5817, 33.71277
185.0638, 35.76039
185.5460, 37.99367
186.0281, 40.28205
186.5102, 42.06910
186.9923, 42.49249
187.4744, 41.16345
187.9565, 39.41752
188.4387, 36.27301
188.9208, 33.50392
189.4029, 32.76917
189.8850, 34.48370
190.3671, 37.31249
190.8492, 38.67804
191.3314, 37.29251
191.8135, 36.44618
192.2956, 37.10226
192.7777, 37.95082
193.2598, 37.42614
193.7419, 34.97598
194.2241, 31.82021
194.7062, 30.90720
195.1883, 36.33640
195.6704, 39.30652
196.1525, 37.36780
196.6346, 33.59907
197.1168, 31.87037
197.5989, 33.93181
198.0810, 38.22072
198.5631, 40.17594
199.0452, 38.02545
199.5273, 36.07549
200.0095, 34.73904
200.4916, 34.06801
200.9737, 34.49895
201.4558, 36.56076
201.9379, 39.16984
202.4200, 38.92336
202.9022, 34.16274
203.3843, 30.08257
203.8664, 29.17013
204.3485, 30.43927
204.8306, 31.06528
205.3127, 29.52647
205.7949, 26.98448
206.2770, 25.95620
206.7591, 26.66562
207.2412, 28.16099
207.7233, 30.41976
208.2054, 33.25115
208.6876, 35.38693
209.1697, 36.11354
209.6518, 35.95588
210.1339, 35.72993
210.6160, 35.36999
211.0981, 35.21315
211.5803, 35.76237
212.0624, 37.02006
212.5445, 37.91574
213.0266, 38.30272
213.5087, 37.92894
213.9908, 35.97610
214.4730, 31.94856
214.9551, 28.44731
215.4372, 29.26785
215.9193, 35.38796
216.4014, 39.74835
216.8836, 39.06458
217.3657, 36.53115
217.8478, 33.66764
218.3299, 30.82080
218.8120, 28.54420
219.2941, 27.64944
219.7763, 28.33292
220.2584, 29.81866
220.7405, 33.43753
221.2226, 36.87075
221.7047, 38.19099
222.1868, 36.93954
222.6690, 34.59754
223.1511, 33.47992
223.6332, 34.00555
224.1153, 34.88357
224.5974, 36.99590
225.0795, 38.73733
225.5617, 38.60851
226.0438, 36.29658
226.5259, 33.03926
227.0080, 30.93481
227.4901, 30.32731
227.9722, 30.43097
228.4544, 31.66288
228.9365, 33.20232
229.4186, 34.57935
229.9007, 35.60411
230.3828, 36.15747
230.8649, 35.95188
231.3471, 33.96885
231.8292, 32.88456
232.3113, 33.80246
232.7934, 34.90417
233.2755, 34.18666
233.7576, 31.25609
234.2398, 27.93260
234.7219, 27.35865
235.2040, 32.23183
235.6861, 35.10978
236.1682, 34.43909
236.6503, 32.66559
237.1325, 32.11784
237.6146, 33.38174
238.0967, 35.23137
238.5788, 35.82761
239.0609, 34.51644
239.5430, 33.33098
240.0252, 32.10320
240.5073, 31.14082
240.9894, 30.96919
241.4715, 31.70620
241.9536, 32.60481
242.4357, 32.62870
242.9179, 31.56784
243.4000, 30.52437
243.8821, 29.35389
244.3642, 28.36344
244.8463, 27.86526
245.3284, 27.91900
245.8106, 28.47607
246.2927, 29.71734
246.7748, 31.68800
247.2569, 33.20559
247.7390, 34.63261
248.2211, 35.28998
248.7033, 33.65534
249.1854, 29.17826
249.6675, 24.93328
250.1496, 24.58616
250.6317, 27.54507
251.1138, 30.12770
251.5960, 31.61868
252.0781, 32.32259
252.5602, 32.55170
253.0423, 32.29304
253.5244, 31.78164
254.0065, 30.95486
254.4887, 29.99104
254.9708, 29.45404
255.4529, 29.58975
255.9350, 30.19148
256.4171, 30.99698
256.8992, 32.00144
257.3813, 33.19671
257.8635, 35.39395
258.3456, 37.73226
258.8277, 38.52037
259.3098, 36.37339
259.7919, 32.94763
260.2740, 30.51400
260.7562, 29.16707
261.2383, 28.40789
261.7204, 27.85978
262.2025, 27.76462
262.6846, 28.71569
263.1667, 31.56539
263.6489, 34.70059
264.1310, 35.58678
264.6131, 33.71212
265.0952, 31.81312
265.5773, 31.58809
266.0594, 31.76903
266.5416, 30.94151
267.0237, 28.39514
267.5058, 25.62413
267.9879, 24.77633
268.4700, 26.23186
268.9521, 27.87130
269.4343, 29.73961
269.9164, 31.10089
270.3985, 30.98498
270.8806, 29.04486
271.3627, 26.76133
271.8448, 26.22940
272.3270, 27.90868
272.8091, 28.92446
273.2912, 27.07740
273.7733, 25.31887
274.2554, 25.91911
274.7375, 29.18873
275.2197, 32.94270
275.7018, 34.76723
276.1839, 34.42488
276.6660, 33.65752
277.1481, 31.83160
277.6302, 30.26144
278.1124, 29.84753
278.5945, 30.53655
279.0766, 31.42140
279.5587, 31.48203
280.0408, 30.57257
280.5229, 30.17699
281.0051, 31.57796
281.4872, 32.43766
281.9693, 31.07461
282.4514, 28.07758
282.9335, 25.55078
283.4156, 25.57393
283.8978, 28.21638
284.3799, 30.12510
284.8620, 31.10117
285.3441, 31.43632
285.8262, 30.86734
286.3083, 29.73118
286.7905, 28.65779
287.2726, 28.04650
287.7547, 27.89094
288.2368, 28.19134
288.7189, 29.53819
289.2010, 30.64887
289.6832, 30.81587
290.1653, 30.59550
290.6474, 31.03571
291.1295, 32.93662
291.6116, 35.60383
292.0938, 36.02021
292.5759, 31.87142
293.0580, 28.73291
293.5401, 28.57166
294.0222, 29.57200
294.5043, 29.55968
294.9865, 27.53144
295.4686, 24.45120
295.9507, 22.66492
296.4328, 22.75433
296.9149, 23.21669
297.3970, 24.09146
297.8792, 25.06600
298.3613, 25.83666
298.8434, 26.32309
299.3255, 26.71613
299.8076, 27.41007
300.2897, 28.80313
300.7719, 29.55932
301.2540, 28.94253
301.7361, 28.26267
302.2182, 28.63257
302.7003, 30.07443
303.1824, 31.49327
303.6646, 31.31511
304.1467, 28.70368
304.6288, 27.56907
305.1109, 29.34576
305.5930, 31.24759
306.0751, 31.96251
306.5573, 31.55700
307.0394, 30.84131
307.5215, 30.51313
308.0036, 30.59033
308.4857, 30.78368
308.9678, 31.29359
309.4500, 31.72647
309.9321, 32.33715
310.4142, 32.77447
310.8963, 32.17127
311.3784, 29.66104
311.8605, 25.73550
312.3427, 24.36125
312.8248, 28.93219
313.3069, 32.18151
313.7890, 31.77336
314.2711, 29.60628
314.7532, 28.33367
315.2354, 29.31564
315.7175, 31.56569
316.1996, 32.22449
316.6817, 30.43061
317.1638, 28.26047
317.6459, 24.38578
318.1281, 21.10254
318.6102, 21.23541
319.0923, 25.45427
319.5744, 30.99772
320.0565, 32.97648
320.5386, 29.02771
321.0208, 26.95926
321.5029, 28.52473
321.9850, 30.66402
322.4671, 31.57949
322.9492, 31.02817
323.4313, 29.76969
323.9135, 28.38001
324.3956, 26.57390
324.8777, 26.15909
325.3598, 29.02296
325.8419, 31.53109
326.3240, 32.23217
326.8062, 31.35035
327.2883, 29.85368
327.7704, 28.36697
328.2525, 26.91404
328.7346, 25.86393
329.2167, 25.43072
329.6989, 25.19987
330.1810, 25.24766
330.6631, 25.38889
331.1452, 25.20913
331.6273, 24.38366
332.1094, 23.43333
332.5916, 24.19960
333.0737, 28.46100
333.5558, 31.36392
334.0379, 31.40077
334.5200, 30.27711
335.0021, 29.79844
335.4843, 30.51679
335.9664, 31.18369
336.4485, 29.29241
336.9306, 23.22981
337.4127, 19.45857
337.8948, 19.52910
338.3770, 21.22647
338.8591, 24.31840
339.3412, 28.25029
339.8233, 31.21581
340.3055, 30.81192
340.7876, 26.56954
341.2697, 23.72947
341.7518, 23.30771
342.2339, 23.43345
342.7160, 23.47161
343.1982, 23.47092
343.6803, 23.74377
344.1624, 24.73508
344.6445, 26.13251
345.1266, 26.10798
345.6087, 22.95522
346.0909, 21.23727
346.5730, 23.83903
347.0551, 28.03119
347.5372, 30.12787
348.0193, 28.35345
348.5014, 24.86760
348.9836, 23.70777
349.4657, 25.57483
349.9478, 27.44031
350.4299, 29.12062
350.9120, 30.13149
351.3941, 29.87248
351.8763, 28.25915
352.3584, 26.09410
352.8405, 23.62021
353.3226, 20.76655
353.8047, 19.97278
354.2868, 23.06946
354.7690, 26.84146
355.2511, 29.73063
355.7332, 31.62730
356.2153, 32.39509
356.6974, 31.23128
357.1795, 28.75113
357.6617, 27.53782
358.1438, 28.30021
358.6259, 28.92027
359.1080, 27.59711
359.5901, 25.45534
360.0722, 24.35189
360.5544, 25.26063
361.0365, 27.12838
361.5186, 28.80305
362.0007, 30.37344
362.4828, 30.87365
362.9649, 28.53205
363.4471, 25.70047
363.9292, 25.46348
364.4113, 28.73582
364.8934, 31.86654
365.3755, 31.75088
365.8576, 28.91015
366.3398, 26.10634
366.8219, 23.67535
367.3040, 21.91589
367.7861, 21.18485
368.2682, 21.39679
368.7503, 21.97073
369.2325, 23.07465
369.7146, 24.28019
370.1967, 24.64644
370.6788, 23.93871
371.1609, 23.38101
371.6430, 24.19620
372.1252, 25.94972
372.6073, 27.15802
373.0894, 27.54384
373.5715, 27.38663
374.0536, 26.54216
374.5357, 25.17624
375.0179, 24.24855
375.5000, 24.18771
375.9821, 24.92726
376.4642, 26.41645
376.9463, 29.25860
377.4284, 31.37765
377.9106, 31.80003
378.3927, 31.03892
378.8748, 29.90034
379.3569, 28.57782
379.8390, 27.03398
380.3211, 24.91265
380.8033, 21.87295
381.2854, 20.54268
381.7675, 23.19116
382.2496, 26.13408
382.7317, 25.78508
383.2138, 22.37626
383.6960, 19.44645
384.1781, 19.84600
384.6602, 23.27147
385.1423, 25.11350
385.6244, 24.40194
386.1065, 23.52057
386.5887, 23.28063
387.0708, 23.39019
387.5529, 23.17818
388.0350, 22.32301
388.5171, 21.33767
388.9992, 21.38732
389.4814, 23.99624
389.9635, 25.27204
390.4456, 24.05478
390.9277, 22.29527
391.4098, 21.48613
391.8919, 21.86478
392.3741, 22.89112
392.8562, 24.12216
393.3383, 25.69761
393.8204, 26.40132
394.3025, 25.42269
394.7846, 24.47886
395.2668, 24.26979
395.7489, 24.50994
396.2310, 24.47721
396.7131, 23.68420
397.1952, 22.56907
397.6773, 22.79174
398.1595, 25.89363
398.6416, 27.75458
399.1237, 27.07571
399.6058, 25.56836
400.0879, 24.42658
400.5700, 24.02397
401.0522, 24.42197
401.5343, 26.31857
402.0164, 30.33783
402.4985, 31.99860
402.9806, 28.42751
403.4627, 24.96905
403.9449, 24.26766
404.4270, 25.58612
404.9091, 26.69689
405.3912, 26.07283
405.8733, 24.31833
406.3554, 23.33666
406.8376, 23.33161
407.3197, 23.58563
407.8018, 24.21667
408.2839, 24.77287
408.7660, 24.58937
409.2481, 23.35890
409.7303, 22.19664
410.2124, 22.13273
410.6945, 23.14457
411.1766, 25.09073
411.6587, 29.08470
412.1408, 32.48824
412.6230, 32.29950
413.1051, 29.02316
413.5872, 26.35532
414.0693, 26.34151
414.5514, 27.70411
415.0335, 28.69088
415.5157, 29.25222
415.9978, 28.80468
416.4799, 25.92013
416.9620, 21.92783
417.4441, 20.85353
417.9262, 25.00839
418.4084, 29.21975
418.8905, 30.60269
419.3726, 29.77536
419.8547, 28.04164
420.3368, 25.62255
420.8189, 23.21298
421.3011, 22.03758
421.7832, 22.35789
422.2653, 22.71270
422.7474, 23.28376
423.2295, 23.60308
423.7116, 22.67972
424.1938, 20.77610
424.6759, 19.89274
425.1580, 21.89279
425.6401, 26.52038
426.1222, 29.01804
426.6043, 27.67183
427.0865, 26.54041
427.5686, 27.02783
428.0507, 28.20664
428.5328, 28.56089
429.0149, 27.53392
429.4970, 26.06383
429.9792, 25.87164
430.4613, 27.86730
430.9434, 29.17001
431.4255, 29.97543
431.9076, 30.07040
432.3897, 28.80294
432.8719, 26.61768
433.3540, 24.83316
433.8361, 24.58758
434.3182, 25.62655
434.8003, 26.10668
435.2824, 25.83048
435.7646, 25.24603
436.2467, 24.11197
436.7288, 22.93694
437.2109, 22.35226
437.6930, 22.56100
438.1751, 23.00170
438.6573, 22.66821
439.1394, 21.42139
439.6215, 21.61134
440.1036, 25.69723
440.5857, 28.83685
441.0678, 26.88675
441.5500, 21.13418
442.0321, 16.54733
442.5142, 16.01567
442.9963, 18.06560
443.4784, 20.32162
443.9605, 22.85431
444.4427, 25.09049
444.9248, 27.10851
445.4069, 28.39032
445.8890, 28.03480
446.3711, 25.51614
446.8532, 22.72948
447.3354, 20.23018
447.8175, 18.27537
448.2996, 17.66850
448.7817, 18.72799
449.2638, 20.22056
449.7459, 20.60949
450.2281, 19.80676
450.7102, 20.34031
451.1923, 24.45310
451.6744, 28.01797
452.1565, 27.80322
452.6386, 24.75426
453.1208, 21.77662
453.6029, 20.25434
454.0850, 20.16714
454.5671, 21.49296
455.0492, 26.60441
455.5313, 29.87641
456.0135, 30.67079
456.4956, 29.99844
456.9777, 27.90178
457.4598, 24.87311
457.9419, 22.55730
458.4240, 22.71896
458.9062, 25.40762
459.3883, 27.04617
459.8704, 26.90538
460.3525, 26.45642
460.8346, 25.95786
461.3167, 25.35438
461.7989, 24.48414
462.2810, 23.27587
462.7631, 21.99932
463.2452, 20.87344
463.7273, 19.74123
464.2094, 19.73389
464.6916, 21.94242
465.1737, 24.45909
465.6558, 26.36810
466.1379, 27.65151
466.6200, 28.51413
467.1021, 29.46987
467.5843, 29.89206
468.0664, 27.80283
468.5485, 22.66452
469.0306, 18.93337
469.5127, 19.46622
469.9948, 22.13880
470.4770, 23.60016
470.9591, 23.57678
471.4412, 22.95797
471.9233, 21.47724
472.4054, 19.87203
472.8875, 19.89074
473.3697, 21.94462
473.8518, 23.98215
474.3339, 24.04401
474.8160, 22.11440
475.2981, 20.70596
475.7802, 19.88302
476.2624, 19.49787
476.7445, 19.66426
477.2266, 20.19034
477.7087, 20.72120
478.1908, 21.11827
478.6729, 21.51966
479.1551, 22.25082
479.6372, 23.94064
480.1193, 24.40702
480.6014, 22.56589
481.0835, 20.64485
481.5656, 19.58951
482.0478, 19.52415
482.5299, 20.50647
483.0120, 22.74589
483.4941, 25.72216
483.9762, 27.35301
484.4583, 27.10187
484.9405, 26.55944
485.4226, 25.71711
485.9047, 24.94500
486.3868, 24.57415
486.8689, 24.62920
487.3510, 24.84328
487.8332, 25.31906
488.3153, 25.84863
488.7974, 24.97556
489.2795, 21.62144
489.7616, 19.41610
490.2437, 22.65892
490.7259, 28.01414
491.2080, 30.05218
491.6901, 26.28478
492.1722, 22.07514
492.6543, 21.99263
493.1364, 24.58632
493.6186, 25.28683
494.1007, 22.56384
494.5828, 19.33417
495.0649, 19.18165
495.5470, 22.49207
496.0291, 24.64183
496.5113, 24.19917
496.9934, 23.76377
497.4755, 25.34804
497.9576, 28.15949
498.4397, 30.16477
498.9218, 30.37527
499.4040, 29.30280
499.8861, 28.00933
500.3682, 26.05863
500.8503, 24.73565
501.3324, 24.29972
501.8145, 24.18549
502.2967, 24.28729
502.7788, 24.42018
503.2609, 24.09495
503.7430, 22.74354
504.2251, 20.93872
504.7072, 21.12560
505.1894, 24.35450
505.6715, 27.17798
506.1536, 29.50099
506.6357, 30.57885
507.1178, 29.00397
507.5999, 24.81326
508.0821, 20.98014
508.5642, 20.20886
509.0463, 21.47710
509.5284, 21.52617
510.0105, 19.80967
510.4926, 18.50822
510.9748, 19.15151
511.4569, 21.15012
511.9390, 23.14656
512.4211, 25.57916
512.9032, 27.04501
513.3853, 26.10352
513.8674, 23.93082
514.3495, 22.40025
514.8317, 21.92330
515.3138, 22.43741
515.7959, 24.17521
516.2780, 27.32687
516.7601, 28.66150
517.2422, 27.06090
517.7244, 25.21606
518.2065, 24.24900
518.6886, 23.53135
519.1707, 21.45200
519.6528, 17.60023
520.1349, 14.27324
520.6171, 15.82878
521.0992, 24.45420
521.5813, 29.02445
522.0634, 25.94188
522.5455, 22.15917
523.0276, 19.59411
523.5098, 18.21610
523.9919, 17.72071
524.4740, 18.05550
524.9561, 18.95916
525.4382, 20.32651
525.9203, 22.16798
526.4025, 23.29299
526.8846, 22.88871
527.3667, 22.39118
527.8488, 23.92340
528.3309, 26.99358
528.8130, 28.20089
529.2952, 24.44021
529.7773, 20.01181
530.2594, 19.22772
530.7415, 21.46870
531.2236, 23.58929
531.7057, 24.24160
532.1879, 23.91729
532.6700, 23.49005
533.1521, 22.72174
533.6342, 22.43158
534.1163, 23.60141
534.5984, 24.43191
535.0806, 23.03454
535.5627, 20.20646
536.0448, 18.42295
536.5269, 19.29555
537.0090, 21.93011
537.4911, 23.64963
537.9733, 24.26132
538.4554, 24.37929
538.9375, 23.59792
539.4196, 22.76448
539.9017, 22.28768
540.3839, 22.22461
540.8660, 22.59643
541.3481, 23.90765
541.8302, 25.39160
542.3123, 24.85303
542.7944, 21.95563
543.2766, 20.05917
543.7587, 20.99551
544.2408, 23.21577
544.7229, 24.49921
545.2050, 24.79639
545.6871, 24.73340
546.1693, 24.51595
546.6514, 24.04473
547.1335, 22.90861
547.6156, 21.26603
548.0977, 20.22423
548.5798, 20.63170
549.0620, 21.84750
549.5441, 21.70848
550.0262, 18.16890
550.5083, 15.99522
550.9904, 15.87230
551.4725, 16.61680
551.9547, 17.68172
552.4368, 18.80636
552.9189, 19.60273
553.4010, 19.66996
553.8831, 19.30496
554.3652, 19.88011
554.8474, 22.08488
555.3295, 23.47855
555.8116, 22.27631
556.2937, 20.84043
556.7758, 21.07167
557.2579, 22.97956
557.7401, 24.86321
558.2222, 25.69783
558.7043, 25.87959
559.1864, 26.05462
559.6685, 26.23919
560.1506, 26.50325
560.6328, 27.21667
561.1149, 27.71044
561.5970, 25.99989
562.0791, 20.88726
562.5612, 17.79937
563.0433, 19.37966
563.5255, 22.13910
564.0076, 23.22870
564.4897, 22.66876
564.9718, 21.80683
565.4539, 21.44447
565.9360, 21.60145
566.4182, 22.48159
566.9003, 25.25974
567.3824, 26.50570
567.8645, 24.82775
568.3466, 22.72052
568.8287, 21.88993
569.3109, 22.10936
569.7930, 21.93610
570.2751, 19.90628
570.7572, 17.50742
571.2393, 18.59599
571.7214, 23.56791
572.2036, 27.11109
572.6857, 27.01203
573.1678, 25.30453
573.6499, 24.42084
574.1320, 24.33840
574.6141, 23.86756
575.0963, 22.34273
575.5784, 20.57366
576.0605, 18.96496
576.5426, 17.68704
577.0247, 17.52619
577.5068, 19.01932
577.9890, 20.62229
578.4711, 19.10234
578.9532, 11.65950
579.4353, 8.351036
579.9174, 12.07420
580.3995, 16.48255
580.8817, 18.95931
581.3638, 19.76783
581.8459, 19.69573
582.3280, 19.01718
582.8101, 18.41131
583.2922, 19.67699
583.7744, 23.11330
584.2565, 23.68360
584.7386, 18.93003
585.2207, 13.72294
585.7029, 11.26124
586.1850, 10.99318
586.6671, 11.72774
587.1492, 13.85969
587.6313, 15.99801
