##NAMES=Tyrolite
##RRUFFID=R060264
##IDEAL CHEMISTRY=Ca_2_Cu^2+^_9_(As^5+^O_4_)_4_(CO_3_)(OH)_8_&#183;11H_2_O
##LOCALITY=Lovelock mine, Bolivia, Cottonwood Canyon, Churchill County, Nevada, USA
##OWNER=RRUFF
##SOURCE=Michael Scott
##DESCRIPTION=Greenish-blue flat bladed crystals in radial aggregates
##STATUS=The identification of this mineral has been confirmed by single-crystal X-ray diffraction.
##URL=rruff.info/R060264
90.49219, 12.32530
90.97430, 11.91753
91.45642, 11.77294
91.93854, 12.21818
92.42065, 12.83072
92.90277, 12.95950
93.38489, 12.51779
93.86700, 11.81440
94.34912, 11.03986
94.83124, 10.24349
95.31335, 9.737103
95.79547, 9.887868
96.27759, 10.53778
96.75970, 11.06542
97.24182, 11.41576
97.72394, 11.56462
98.20605, 11.29884
98.68817, 10.54802
99.17029, 9.952875
99.65240, 10.18760
100.1345, 11.32923
100.6166, 12.18516
101.0988, 12.55960
101.5809, 12.45937
102.0630, 11.85839
102.5451, 10.51412
103.0272, 9.090958
103.5093, 8.340541
103.9915, 8.470672
104.4736, 8.765199
104.9557, 9.129719
105.4378, 9.650876
105.9199, 9.728306
106.4020, 9.146054
106.8842, 8.227191
107.3663, 7.528498
107.8484, 7.269971
108.3305, 6.981720
108.8126, 6.431603
109.2947, 4.836621
109.7769, 4.286552
110.2590, 5.572171
110.7411, 8.045086
111.2232, 9.655305
111.7053, 9.461808
112.1874, 9.038749
112.6696, 9.092255
113.1517, 11.12643
113.6338, 12.09320
114.1159, 10.75628
114.5980, 7.531755
115.0801, 5.368178
115.5623, 5.993519
116.0444, 7.458946
116.5265, 8.254759
117.0086, 7.051547
117.4907, 5.941871
117.9728, 5.903058
118.4550, 6.996217
118.9371, 7.937068
119.4192, 8.229793
119.9013, 8.026122
120.3834, 7.512679
120.8655, 6.271576
121.3477, 5.058014
121.8298, 4.530658
122.3119, 4.849763
122.7940, 5.217873
123.2761, 4.928454
123.7582, 4.251600
124.2404, 3.788809
124.7225, 3.974945
125.2046, 4.515547
125.6867, 5.055837
126.1688, 5.546962
126.6509, 6.104896
127.1331, 6.580764
127.6152, 7.179640
128.0973, 7.712355
128.5794, 8.229676
129.0615, 8.627038
129.5436, 8.574752
130.0258, 7.749063
130.5079, 6.717359
130.9900, 6.591022
131.4721, 7.370390
131.9542, 8.303211
132.4363, 8.468580
132.9185, 8.051661
133.4006, 8.408914
133.8827, 10.37996
134.3648, 13.31350
134.8469, 14.83034
135.3290, 14.71945
135.8112, 14.11647
136.2933, 14.13483
136.7754, 14.77121
137.2575, 16.02508
137.7396, 17.92461
138.2217, 20.43405
138.7039, 23.71880
139.1860, 28.15329
139.6681, 32.78096
140.1502, 36.02556
140.6323, 37.39974
141.1144, 38.91603
141.5966, 41.63133
142.0787, 46.09798
142.5608, 49.08976
143.0429, 50.01455
143.5250, 49.79765
144.0071, 50.58991
144.4893, 52.90931
144.9714, 55.38649
145.4535, 57.24427
145.9356, 57.51671
146.4177, 59.25182
146.8998, 63.55360
147.3820, 69.49147
147.8641, 73.25410
148.3462, 72.72208
148.8283, 71.96177
149.3104, 73.14571
149.7925, 77.58107
150.2747, 82.27565
150.7568, 87.25566
151.2389, 92.46212
151.7210, 97.13689
152.2031, 101.5830
152.6852, 105.2767
153.1674, 107.9364
153.6495, 107.6584
154.1316, 108.2928
154.6137, 110.9038
155.0958, 115.5465
155.5779, 119.4027
156.0601, 121.7299
156.5422, 123.3283
157.0243, 124.8517
157.5064, 126.3154
157.9885, 127.8098
158.4706, 129.3345
158.9528, 130.8797
159.4349, 132.5533
159.9170, 134.4402
160.3991, 136.4533
160.8812, 138.4915
161.3633, 140.7980
161.8455, 142.9056
162.3276, 144.2330
162.8097, 144.3294
163.2918, 145.5721
163.7739, 149.8211
164.2560, 155.5337
164.7382, 159.5547
165.2203, 161.6935
165.7024, 163.1444
166.1845, 164.3858
166.6666, 165.4664
167.1487, 166.4365
167.6309, 167.4128
168.1130, 168.3202
168.5951, 168.9798
169.0772, 169.1832
169.5593, 169.1872
170.0414, 169.2786
170.5236, 169.6808
171.0057, 169.7769
171.4878, 168.9169
171.9699, 167.3388
172.4520, 165.7822
172.9341, 165.0222
173.4163, 164.3734
173.8984, 162.8996
174.3805, 159.9004
174.8626, 156.8417
175.3447, 155.0191
175.8268, 154.2913
176.3090, 154.0424
176.7911, 154.3417
177.2732, 154.7611
177.7553, 154.4965
178.2374, 152.8190
178.7195, 150.9621
179.2017, 150.9203
179.6838, 152.4910
180.1659, 153.7571
180.6480, 152.5637
181.1301, 149.9375
181.6122, 148.2932
182.0944, 148.6661
182.5765, 150.1277
183.0586, 151.2279
183.5407, 151.9529
184.0228, 152.5206
184.5049, 153.1740
184.9871, 153.8427
185.4692, 154.2271
185.9513, 154.0809
186.4334, 153.6518
186.9155, 153.5429
187.3976, 153.7731
187.8798, 154.1030
188.3619, 154.5082
188.8440, 154.9106
189.3261, 154.7401
189.8082, 153.4515
190.2903, 151.4492
190.7725, 150.2133
191.2546, 149.7956
191.7367, 149.7799
192.2188, 149.9369
192.7009, 150.2344
193.1830, 149.9711
193.6652, 148.2699
194.1473, 145.5599
194.6294, 145.0033
195.1115, 147.0190
195.5936, 149.7742
196.0757, 150.8719
196.5579, 150.2744
197.0400, 149.2492
197.5221, 148.0880
198.0042, 146.8272
198.4863, 146.0640
198.9684, 145.9243
199.4506, 146.0140
199.9327, 145.6259
200.4148, 144.6692
200.8969, 144.0400
201.3790, 144.3781
201.8611, 145.7421
202.3433, 146.2399
202.8254, 145.7600
203.3075, 144.5898
203.7896, 142.9312
204.2717, 140.5420
204.7538, 138.8191
205.2360, 138.7403
205.7181, 140.5973
206.2002, 141.2826
206.6823, 140.4633
207.1644, 138.8768
207.6465, 137.8782
208.1287, 137.5968
208.6108, 137.4788
209.0929, 137.2772
209.5750, 136.9501
210.0571, 136.8285
210.5392, 137.0714
211.0214, 137.3834
211.5035, 137.0455
211.9856, 135.8119
212.4677, 134.6295
212.9498, 133.9655
213.4319, 133.9702
213.9140, 133.8834
214.3962, 133.6778
214.8783, 133.3875
215.3604, 133.0912
215.8425, 132.7809
216.3246, 132.4702
216.8067, 132.1416
217.2889, 131.7567
217.7710, 131.5071
218.2531, 131.4812
218.7352, 131.5444
219.2173, 131.2544
219.6994, 130.1847
220.1816, 129.5736
220.6637, 130.2542
221.1458, 133.1954
221.6279, 134.5196
222.1100, 133.4847
222.5921, 131.0862
223.0743, 129.9512
223.5564, 130.6193
224.0385, 131.6226
224.5206, 132.3465
225.0027, 132.8764
225.4848, 132.8584
225.9670, 131.8333
226.4491, 130.4082
226.9312, 130.3462
227.4133, 132.6083
227.8954, 134.6775
228.3775, 135.1613
228.8597, 132.9378
229.3418, 131.9675
229.8239, 132.8315
230.3060, 134.8233
230.7881, 135.9692
231.2702, 136.0154
231.7524, 135.6059
232.2345, 134.8708
232.7166, 133.1442
233.1987, 132.6920
233.6808, 134.1332
234.1629, 136.6871
234.6451, 138.2522
235.1272, 138.2666
235.6093, 138.1176
236.0914, 138.4484
236.5735, 139.6098
237.0556, 140.4663
237.5378, 140.9985
238.0199, 141.2394
238.5020, 141.2312
238.9841, 140.7931
239.4662, 140.3783
239.9483, 140.1338
240.4305, 139.9242
240.9126, 140.2424
241.3947, 141.3708
241.8768, 142.9358
242.3589, 144.0045
242.8410, 144.3485
243.3232, 144.5414
243.8053, 144.8596
244.2874, 145.5507
244.7695, 145.6887
245.2516, 144.7916
245.7337, 143.5287
246.2159, 143.5668
246.6980, 146.0203
247.1801, 148.0227
247.6622, 148.2980
248.1443, 145.9443
248.6264, 144.3732
249.1086, 143.5784
249.5907, 143.5523
250.0728, 144.4040
250.5549, 146.6984
251.0370, 148.9209
251.5191, 150.5086
252.0013, 151.3217
252.4834, 151.9237
252.9655, 152.3543
253.4476, 152.5426
253.9297, 152.1868
254.4118, 150.6283
254.8940, 149.7651
255.3761, 150.4939
255.8582, 153.4021
256.3403, 155.5701
256.8224, 156.8872
257.3046, 157.5568
257.7867, 157.7739
258.2688, 157.1898
258.7509, 156.8994
259.2330, 157.3209
259.7151, 158.5820
260.1973, 159.8681
260.6794, 161.2868
261.1615, 162.6058
261.6436, 163.3974
262.1257, 163.4682
262.6078, 163.4966
263.0900, 163.6573
263.5721, 163.9513
264.0542, 164.3933
264.5363, 165.0597
265.0184, 165.7828
265.5005, 166.3822
265.9827, 166.8527
266.4648, 167.1993
266.9469, 167.4622
267.4290, 167.6469
267.9111, 167.3927
268.3932, 166.4909
268.8754, 165.4744
269.3575, 165.0312
269.8396, 165.3648
270.3217, 165.4849
270.8038, 164.9952
271.2859, 163.9531
271.7681, 163.6965
272.2502, 164.5375
272.7323, 165.5193
273.2144, 165.4850
273.6965, 164.1723
274.1786, 163.3173
274.6608, 163.5146
275.1429, 164.5383
275.6250, 164.6558
276.1071, 163.6606
276.5892, 162.3578
277.0714, 161.5264
277.5535, 161.2251
278.0356, 160.8019
278.5177, 160.0800
278.9998, 159.1606
279.4819, 158.3984
279.9641, 157.7497
280.4462, 157.4177
280.9283, 157.7736
281.4104, 158.8502
281.8925, 159.4914
282.3746, 159.4263
282.8568, 158.8869
283.3389, 158.5122
283.8210, 158.3181
284.3031, 158.1588
284.7852, 157.9752
285.2673, 157.7608
285.7495, 157.3398
286.2316, 156.5753
286.7137, 155.7530
287.1958, 155.8157
287.6779, 156.8097
288.1600, 157.1788
288.6422, 155.2462
289.1243, 151.4561
289.6064, 149.2856
290.0885, 149.2496
290.5706, 150.2446
291.0527, 150.5060
291.5349, 150.0915
292.0170, 149.8314
292.4991, 150.4023
292.9812, 151.5356
293.4633, 152.2371
293.9454, 152.4384
294.4276, 152.3134
294.9097, 151.9066
295.3918, 151.2931
295.8739, 150.8790
296.3560, 150.9252
296.8381, 151.3053
297.3203, 151.8487
297.8024, 152.5880
298.2845, 153.1258
298.7666, 152.8235
299.2487, 151.9305
299.7308, 151.2058
300.2130, 151.0160
300.6951, 151.1651
301.1772, 151.4768
301.6593, 151.9506
302.1414, 152.2031
302.6235, 151.7113
303.1057, 150.7620
303.5878, 149.9351
304.0699, 149.3809
304.5520, 149.0712
305.0341, 148.9780
305.5162, 149.0993
305.9984, 149.4243
306.4805, 150.2347
306.9626, 151.1680
307.4447, 151.6681
307.9268, 151.3506
308.4089, 150.8731
308.8911, 150.9139
309.3732, 151.3315
309.8553, 151.5473
310.3374, 150.8057
310.8195, 149.8828
311.3016, 149.6268
311.7838, 150.4711
312.2659, 151.4539
312.7480, 152.0545
313.2301, 152.3177
313.7122, 152.3698
314.1943, 152.2592
314.6765, 151.9686
315.1586, 151.3719
315.6407, 150.2818
316.1228, 149.5001
316.6049, 149.6194
317.0870, 150.2781
317.5692, 150.8768
318.0513, 151.1417
318.5334, 151.3453
319.0155, 151.6845
319.4976, 152.2291
319.9797, 152.5113
320.4619, 152.2292
320.9440, 151.6505
321.4261, 151.0807
321.9082, 150.0864
322.3903, 149.5903
322.8724, 150.2183
323.3546, 152.0080
323.8367, 153.2148
324.3188, 152.8960
324.8009, 152.2098
325.2830, 152.0446
325.7651, 153.2959
326.2473, 154.2043
326.7294, 154.2489
327.2115, 153.5802
327.6936, 153.3887
328.1757, 154.0830
328.6578, 155.0253
329.1400, 155.9135
329.6221, 157.0231
330.1042, 157.6868
330.5863, 157.6980
331.0684, 157.2516
331.5505, 156.9269
332.0327, 156.8456
332.5148, 156.7348
332.9969, 156.4913
333.4790, 156.1103
333.9611, 155.6096
334.4432, 154.9291
334.9254, 154.1591
335.4075, 153.4665
335.8896, 152.8799
336.3717, 152.3047
336.8538, 151.7361
337.3359, 151.1792
337.8180, 150.5112
338.3001, 149.6760
338.7823, 148.8209
339.2644, 148.1554
339.7465, 147.7337
340.2286, 147.2058
340.7107, 146.2905
341.1928, 145.1532
341.6750, 145.2932
342.1571, 147.0660
342.6392, 148.7927
343.1213, 148.9555
343.6034, 147.5309
344.0855, 145.9679
344.5677, 144.3295
345.0498, 142.8788
345.5319, 142.3887
346.0140, 142.8794
346.4961, 143.7502
346.9782, 144.8434
347.4604, 146.0616
347.9425, 146.8769
348.4246, 147.2388
348.9067, 147.2272
349.3888, 146.6065
349.8709, 145.5531
350.3531, 145.0415
350.8352, 146.1640
351.3173, 148.0286
351.7994, 148.6481
352.2815, 147.8452
352.7636, 147.1329
353.2458, 148.4343
353.7279, 150.9131
354.2100, 152.7549
354.6921, 152.8531
355.1742, 152.2643
355.6563, 151.9155
356.1385, 151.8185
356.6206, 152.0701
357.1027, 153.0162
357.5848, 154.2437
358.0669, 155.2752
358.5490, 155.9178
359.0312, 156.4290
359.5133, 157.1189
359.9954, 157.8414
360.4775, 158.1580
360.9596, 157.2643
361.4417, 156.2795
361.9239, 156.0579
362.4060, 157.0300
362.8881, 157.8849
363.3702, 158.0637
363.8523, 157.8297
364.3344, 157.5866
364.8166, 157.6941
365.2987, 157.5907
365.7808, 156.7456
366.2629, 154.9325
366.7450, 154.1340
367.2271, 156.0205
367.7093, 158.3900
368.1914, 159.3071
368.6735, 156.7554
369.1556, 154.7912
369.6377, 154.2173
370.1198, 154.8593
370.6020, 155.2955
371.0841, 155.4479
371.5662, 155.4677
372.0483, 155.4195
372.5304, 155.2046
373.0125, 155.0791
373.4947, 154.8825
373.9768, 154.8352
374.4589, 155.6441
374.9410, 158.0073
375.4231, 159.7837
375.9052, 159.9457
376.3874, 158.2070
376.8695, 157.0903
377.3516, 156.6207
377.8337, 156.7137
378.3158, 157.3531
378.7979, 158.6041
379.2801, 159.9848
379.7622, 161.5753
380.2443, 163.1753
380.7264, 163.6605
381.2085, 162.8542
381.6906, 162.1637
382.1728, 163.2471
382.6549, 165.7335
383.1370, 167.0142
383.6191, 166.2487
384.1012, 164.8237
384.5833, 165.3961
385.0655, 167.6865
385.5476, 169.5724
386.0297, 169.3002
386.5118, 167.9390
386.9939, 167.4632
387.4760, 168.1005
387.9582, 169.1585
388.4403, 170.4385
388.9224, 171.6551
389.4045, 172.2179
389.8866, 170.9483
390.3687, 169.5773
390.8509, 169.8203
391.3330, 171.5497
391.8151, 173.2741
392.2972, 174.3763
392.7793, 174.9109
393.2614, 174.8631
393.7436, 173.6349
394.2257, 172.6765
394.7078, 172.7077
395.1899, 173.4906
395.6720, 174.4011
396.1541, 175.2616
396.6363, 176.1913
397.1184, 177.2978
397.6005, 178.7143
398.0826, 179.9259
398.5647, 180.8596
399.0468, 181.5481
399.5290, 182.0309
400.0111, 181.7490
400.4932, 181.8770
400.9753, 182.8353
401.4574, 184.6233
401.9395, 185.8576
402.4217, 185.9318
402.9038, 186.0981
403.3859, 187.3334
403.8680, 190.4528
404.3501, 192.6543
404.8322, 193.4451
405.3144, 193.3341
405.7965, 193.5360
406.2786, 193.9788
406.7607, 194.9734
407.2428, 196.9387
407.7249, 199.9334
408.2071, 202.1388
408.6892, 203.4853
409.1713, 204.2923
409.6534, 204.7231
410.1355, 204.8120
410.6176, 205.3013
411.0998, 206.5904
411.5819, 208.3078
412.0640, 209.3662
412.5461, 209.7947
413.0282, 210.5750
413.5103, 213.0154
413.9925, 216.2664
414.4746, 218.4403
414.9567, 218.9484
415.4388, 219.1662
415.9209, 220.7581
416.4030, 223.2073
416.8852, 225.2751
417.3673, 226.4647
417.8494, 226.9025
418.3315, 226.5388
418.8136, 225.3671
419.2957, 223.9793
419.7779, 222.0639
420.2600, 220.3738
420.7421, 219.6981
421.2242, 222.5149
421.7063, 224.0143
422.1884, 221.7788
422.6706, 216.7712
423.1527, 212.5440
423.6348, 210.2834
424.1169, 208.7326
424.5990, 207.4104
425.0811, 206.6039
425.5633, 205.3027
426.0454, 203.2544
426.5275, 200.8012
427.0096, 198.2716
427.4917, 195.0780
427.9738, 192.7699
428.4560, 192.0379
428.9381, 192.7694
429.4202, 192.4716
429.9023, 190.8206
430.3844, 188.7498
430.8665, 186.8946
431.3487, 185.2684
431.8308, 183.7074
432.3129, 182.0723
432.7950, 180.6556
433.2771, 180.1994
433.7592, 180.7333
434.2414, 181.5294
434.7235, 182.6074
435.2056, 183.7192
435.6877, 183.4245
436.1698, 181.5827
436.6519, 180.0664
437.1341, 181.6301
437.6162, 185.0339
438.0983, 186.9370
438.5804, 185.7378
439.0625, 183.6654
439.5446, 183.0467
440.0268, 183.6912
440.5089, 184.9016
440.9910, 187.2891
441.4731, 189.4660
441.9552, 189.8148
442.4373, 187.7326
442.9195, 186.2056
443.4016, 187.1602
443.8837, 189.3945
444.3658, 191.4471
444.8479, 193.0270
445.3300, 194.2202
445.8122, 194.8567
446.2943, 195.0163
446.7764, 195.4274
447.2585, 195.8789
447.7406, 196.8483
448.2227, 198.6785
448.7049, 202.1274
449.1870, 204.9304
449.6691, 206.8666
450.1512, 208.2533
450.6333, 209.4765
451.1154, 210.3137
451.5976, 211.5203
452.0797, 213.5170
452.5618, 216.2035
453.0439, 217.8796
453.5260, 218.3065
454.0081, 218.3738
454.4903, 218.5733
454.9724, 218.9093
455.4545, 220.0036
455.9366, 222.1316
456.4187, 224.6110
456.9008, 226.3515
457.3830, 227.3981
457.8651, 227.9397
458.3472, 228.0074
458.8293, 227.6698
459.3114, 226.7888
459.7935, 225.3860
460.2757, 224.3282
460.7578, 224.6367
461.2399, 225.6371
461.7220, 226.4525
462.2041, 227.0732
462.6862, 227.0919
463.1684, 225.6821
463.6505, 223.4466
464.1326, 221.8155
464.6147, 222.0837
465.0968, 222.4975
465.5789, 222.2441
466.0611, 221.2397
466.5432, 219.7285
467.0253, 217.1958
467.5074, 214.4812
467.9895, 212.2951
468.4716, 210.6071
468.9538, 209.5297
469.4359, 209.5238
469.9180, 210.1327
470.4001, 209.8447
470.8822, 208.2993
471.3643, 206.5020
471.8465, 204.8284
472.3286, 203.2930
472.8107, 201.7074
473.2928, 200.0229
473.7749, 198.4611
474.2570, 197.5513
474.7392, 197.2853
475.2213, 196.2146
475.7034, 193.6163
476.1855, 190.5313
476.6676, 189.4119
477.1497, 190.0578
477.6319, 190.6174
478.1140, 189.7838
478.5961, 188.2012
479.0782, 186.9214
479.5603, 186.0244
480.0424, 185.2557
480.5246, 184.3850
481.0067, 183.5178
481.4888, 182.8029
481.9709, 182.3385
482.4530, 181.9697
482.9352, 181.6690
483.4173, 181.4086
483.8994, 181.1024
484.3815, 180.7516
484.8636, 180.3210
485.3457, 179.6927
485.8279, 178.6776
486.3100, 178.1528
486.7921, 178.6606
487.2742, 179.4355
487.7563, 179.8153
488.2384, 179.6279
488.7206, 179.3106
489.2027, 178.7416
489.6848, 178.1047
490.1669, 178.1745
490.6490, 179.1984
491.1311, 180.1778
491.6133, 180.5086
492.0954, 180.2097
492.5775, 180.3954
493.0596, 181.1418
493.5417, 182.0540
494.0238, 182.7900
494.5060, 183.3448
494.9881, 183.5766
495.4702, 183.1699
495.9523, 182.8660
496.4344, 184.1529
496.9165, 186.5910
497.3987, 188.5231
497.8808, 188.5866
498.3629, 187.9833
498.8450, 187.6358
499.3271, 187.5913
499.8092, 188.3138
500.2914, 190.8962
500.7735, 193.9487
501.2556, 196.2188
501.7377, 196.9166
502.2198, 197.3392
502.7019, 197.6118
503.1841, 197.8047
503.6662, 198.1131
504.1483, 198.5557
504.6304, 199.1256
505.1125, 199.9058
505.5946, 200.9428
506.0768, 201.5613
506.5589, 201.4329
507.0410, 201.3731
507.5231, 202.2959
508.0052, 204.4906
508.4873, 205.7065
508.9695, 205.5406
509.4516, 204.5077
509.9337, 203.2835
510.4158, 201.8999
510.8979, 200.9707
511.3800, 200.8776
511.8622, 201.3789
512.3443, 202.0400
512.8264, 202.8432
513.3085, 203.5873
513.7906, 204.4811
514.2728, 205.0858
514.7549, 204.7333
515.2370, 203.0885
515.7191, 201.1200
516.2012, 199.1736
516.6833, 197.3591
517.1655, 195.8108
517.6476, 194.6086
518.1297, 193.6492
518.6118, 193.3326
519.0939, 193.5101
519.5760, 192.5720
520.0582, 189.1552
520.5403, 185.5898
521.0224, 182.9550
521.5045, 181.7212
521.9866, 179.9165
522.4688, 177.0778
522.9509, 174.1756
523.4330, 172.5322
523.9151, 172.4220
524.3972, 172.0600
524.8793, 171.0813
525.3615, 169.6089
525.8436, 167.7489
526.3257, 165.5036
526.8078, 163.5232
527.2899, 162.5155
527.7720, 161.9688
528.2542, 160.6524
528.7363, 158.5035
529.2184, 156.1772
529.7005, 153.8973
530.1826, 151.9085
530.6647, 150.6369
531.1469, 150.7061
531.6290, 150.6914
532.1111, 149.5790
532.5932, 147.8324
533.0753, 146.4018
533.5574, 145.8972
534.0396, 145.4187
534.5217, 144.6205
535.0038, 143.4754
535.4859, 142.3797
535.9680, 141.1692
536.4501, 140.1872
536.9323, 139.7218
537.4144, 140.1504
537.8965, 140.0076
538.3786, 139.1721
538.8607, 137.8943
539.3428, 136.3535
539.8250, 134.4738
540.3071, 133.2665
540.7892, 133.3047
541.2713, 133.9827
541.7534, 133.7839
542.2355, 132.7734
542.7177, 131.6340
543.1998, 130.6837
543.6819, 129.9111
544.1640, 129.3498
544.6461, 129.0086
545.1282, 128.6867
545.6104, 128.5503
546.0925, 128.2335
546.5746, 127.2818
547.0567, 124.9141
547.5388, 122.8138
548.0209, 121.6400
548.5031, 121.1447
548.9852, 120.7521
549.4673, 120.1351
549.9494, 119.8847
550.4315, 120.3079
550.9136, 121.4004
551.3958, 122.1614
551.8779, 122.7593
552.3600, 122.7413
552.8421, 121.4888
553.3242, 118.7648
553.8063, 117.0917
554.2885, 116.6586
554.7706, 117.0494
555.2527, 118.3182
555.7348, 120.1818
556.2169, 120.7337
556.6990, 118.7953
557.1812, 116.0519
557.6633, 114.8583
558.1454, 114.9378
558.6275, 115.2507
559.1096, 115.3486
559.5917, 115.3363
560.0739, 115.2868
560.5560, 115.2060
561.0381, 115.0935
561.5202, 114.7959
562.0023, 114.5621
562.4844, 114.6044
562.9666, 115.5254
563.4487, 115.8329
563.9308, 114.9742
564.4129, 113.6741
564.8950, 113.1183
565.3771, 113.8302
565.8593, 114.0874
566.3414, 113.3352
566.8235, 111.8557
567.3056, 110.8317
567.7877, 110.2716
568.2698, 110.1531
568.7520, 110.7608
569.2341, 111.8315
569.7162, 112.3271
570.1983, 112.1911
570.6804, 111.8404
571.1625, 111.6015
571.6447, 111.4238
572.1268, 111.2129
572.6089, 110.8976
573.0910, 110.6488
573.5731, 110.8481
574.0552, 111.1462
574.5374, 110.9360
575.0195, 108.9749
575.5016, 107.5337
575.9837, 107.8083
576.4658, 109.6168
576.9479, 110.4890
577.4301, 109.7914
577.9122, 108.8314
578.3943, 108.0872
578.8764, 107.5385
579.3585, 107.4024
579.8406, 107.7979
580.3228, 108.3400
580.8049, 108.6856
581.2870, 108.8333
581.7691, 108.7393
582.2512, 108.3369
582.7333, 107.8243
583.2155, 107.4284
583.6975, 107.1608
584.1796, 107.0446
584.6617, 107.2195
585.1439, 107.4584
585.6260, 107.4796
586.1081, 107.3485
586.5902, 107.3985
