##NAMES=Tyrolite
##RRUFFID=R050231
##IDEAL CHEMISTRY=Ca_2_Cu^2+^_9_(As^5+^O_4_)_4_(CO_3_)(OH)_8_&#183;11H_2_O
##LOCALITY=Tyrol, Austria
##OWNER=RRUFF
##SOURCE=Marcus Origlieri
##DESCRIPTION=Thin green scaly crystals
##STATUS=The identification of this mineral is confirmed by single-crystal X-ray diffraction and chemical analysis.
##URL=rruff.info/R050231
##MEASURED CHEMISTRY=(Ca_0.80_Fe^2+^_0.20_)_Σ=1_(Cu_4.86_Zn_0.11_[box]_0.03_)_Σ=5_((As_0.96_S_0.03_P_0.01_)_Σ=1_O4)_2_(CO_3_)(OH)_4_·6H_2_O
93.74609, 6.489495
94.22821, 6.213422
94.71033, 6.363668
95.19244, 6.861830
95.67456, 7.391143
96.15668, 7.791337
96.63879, 8.106168
97.12091, 8.471798
97.60303, 8.872824
98.08514, 9.388382
98.56726, 10.17952
99.04938, 11.25884
99.53149, 12.39153
100.0136, 13.38692
100.4957, 14.23198
100.9778, 15.33443
101.4600, 16.77752
101.9421, 18.44979
102.4242, 19.92836
102.9063, 21.09583
103.3884, 22.39826
103.8705, 24.20850
104.3527, 26.82436
104.8348, 29.11798
105.3169, 30.92877
105.7990, 32.28574
106.2811, 33.69144
106.7632, 35.15520
107.2454, 36.64688
107.7275, 38.13435
108.2096, 39.80622
108.6917, 41.23253
109.1738, 42.24409
109.6559, 42.74418
110.1381, 43.52039
110.6202, 44.59629
111.1023, 45.94895
111.5844, 47.55282
112.0665, 49.65231
112.5486, 51.79561
113.0308, 53.82386
113.5129, 55.61950
113.9950, 57.73065
114.4771, 60.37291
114.9592, 63.34113
115.4413, 66.36507
115.9235, 69.47836
116.4056, 72.54976
116.8877, 75.48427
117.3698, 78.33513
117.8519, 81.02713
118.3340, 83.57285
118.8162, 85.94762
119.2983, 88.08204
119.7804, 89.77738
120.2625, 91.33904
120.7446, 92.98497
121.2267, 94.77603
121.7089, 96.66891
122.1910, 98.85773
122.6731, 101.2194
123.1552, 103.2038
123.6373, 104.2831
124.1194, 104.8428
124.6016, 105.3709
125.0837, 106.0212
125.5658, 106.6888
126.0479, 107.1699
126.5300, 107.4840
127.0121, 107.9600
127.4943, 109.0181
127.9764, 110.4485
128.4585, 111.8015
128.9406, 112.8876
129.4227, 113.7837
129.9048, 114.5834
130.3869, 115.2791
130.8691, 115.9532
131.3512, 115.5308
131.8333, 117.0743
132.3154, 118.0207
132.7975, 118.4021
133.2796, 116.5260
133.7618, 117.5649
134.2439, 117.4356
134.7260, 117.2584
135.2081, 118.7076
135.6902, 117.1599
136.1723, 118.5833
136.6545, 118.8207
137.1366, 119.6009
137.6187, 119.2057
138.1008, 119.1735
138.5829, 120.3171
139.0650, 120.8097
139.5472, 120.2792
140.0293, 121.0939
140.5114, 119.5050
140.9935, 120.0253
141.4756, 121.4556
141.9577, 120.9842
142.4399, 121.8204
142.9220, 122.1586
143.4041, 120.2335
143.8862, 122.2445
144.3683, 122.5532
144.8504, 121.1141
145.3326, 122.9903
145.8147, 122.1531
146.2968, 122.8182
146.7789, 123.1122
147.2610, 122.7635
147.7431, 122.3196
148.2253, 122.1735
148.7074, 122.5621
149.1895, 122.9037
149.6716, 123.1501
150.1537, 123.3047
150.6358, 123.3068
151.1180, 122.8477
151.6001, 122.4042
152.0822, 122.3791
152.5643, 123.5879
153.0464, 124.3577
153.5285, 124.2568
154.0107, 123.1474
154.4928, 122.3142
154.9749, 122.0378
155.4570, 121.9792
155.9391, 121.8006
156.4212, 121.5267
156.9034, 121.0698
157.3855, 120.3094
157.8676, 119.1541
158.3497, 118.2036
158.8318, 117.5058
159.3139, 117.0813
159.7961, 116.9509
160.2782, 117.4588
160.7603, 117.9805
161.2424, 118.2324
161.7245, 118.1134
162.2066, 117.9998
162.6888, 118.1484
163.1709, 118.3675
163.6530, 118.3469
164.1351, 117.5688
164.6172, 116.7955
165.0993, 116.5385
165.5815, 117.0421
166.0636, 117.5423
166.5457, 117.6620
167.0278, 117.5099
167.5099, 117.3111
167.9920, 117.0802
168.4742, 116.8965
168.9563, 116.8770
169.4384, 117.1698
169.9205, 117.3301
170.4026, 116.9656
170.8847, 116.2175
171.3669, 115.4662
171.8490, 114.8581
172.3311, 114.3819
172.8132, 114.0488
173.2953, 113.9243
173.7774, 113.8239
174.2596, 113.6104
174.7417, 113.2883
175.2238, 112.8748
175.7059, 112.2503
176.1880, 111.5751
176.6701, 111.0941
177.1523, 110.9184
177.6344, 110.8706
178.1165, 110.8105
178.5986, 110.7242
179.0807, 110.5352
179.5628, 110.1591
180.0450, 109.6402
180.5271, 109.0700
181.0092, 108.4477
181.4913, 107.8012
181.9734, 107.1642
182.4555, 106.5389
182.9377, 105.9543
183.4198, 105.4652
183.9019, 105.0348
184.3840, 104.5586
184.8661, 103.9790
185.3482, 103.3605
185.8304, 102.8044
186.3125, 102.3132
186.7946, 101.8712
187.2767, 101.5259
187.7588, 101.2374
188.2409, 100.8356
188.7231, 100.2371
189.2052, 99.50894
189.6873, 98.75961
190.1694, 97.96923
190.6515, 97.30772
191.1336, 97.05708
191.6158, 97.15887
192.0979, 97.08643
192.5800, 96.63319
193.0621, 95.91013
193.5442, 95.30818
194.0263, 94.83485
194.5085, 94.40556
194.9906, 93.91264
195.4727, 93.36113
195.9548, 92.89700
196.4369, 92.58420
196.9190, 92.39709
197.4012, 92.22852
197.8833, 92.09367
198.3654, 91.92200
198.8475, 91.65840
199.3296, 91.30451
199.8117, 90.81443
200.2939, 90.09067
200.7760, 89.19415
201.2581, 88.59207
201.7402, 88.34080
202.2223, 88.24178
202.7044, 88.15224
203.1866, 88.10873
203.6687, 87.78409
204.1508, 86.94585
204.6329, 85.65174
205.1150, 84.82759
205.5971, 84.56811
206.0793, 84.57104
206.5614, 84.52988
207.0435, 84.45570
207.5256, 84.28111
208.0077, 83.97331
208.4898, 83.53391
208.9720, 83.03587
209.4541, 82.41814
209.9362, 81.84517
210.4183, 81.54847
210.9004, 81.61198
211.3825, 81.65551
211.8647, 81.57995
212.3468, 81.38383
212.8289, 81.17461
213.3110, 80.96844
213.7931, 80.72583
214.2752, 80.36573
214.7574, 79.80077
215.2395, 79.36997
215.7216, 79.16269
216.2037, 79.18482
216.6858, 79.34978
217.1679, 79.77947
217.6500, 80.19939
218.1322, 80.23875
218.6143, 79.72957
219.0964, 79.26779
219.5785, 79.03994
220.0606, 79.06001
220.5427, 78.92368
221.0249, 78.51708
221.5070, 78.08438
221.9891, 77.94348
222.4712, 78.24739
222.9533, 78.49438
223.4354, 78.57059
223.9176, 78.47341
224.3997, 78.24696
224.8818, 77.76012
225.3639, 77.28496
225.8460, 77.14034
226.3281, 77.49409
226.8103, 77.83529
227.2924, 78.06864
227.7745, 78.19888
228.2566, 78.18719
228.7387, 77.94954
229.2208, 77.65890
229.7030, 77.48760
230.1851, 77.41426
230.6672, 77.50993
231.1493, 77.87141
231.6314, 78.51699
232.1135, 78.87729
232.5957, 78.80297
233.0778, 78.60015
233.5599, 78.55403
234.0420, 78.66084
234.5241, 78.94810
235.0062, 79.56807
235.4884, 80.51954
235.9705, 80.88945
236.4526, 80.31989
236.9347, 79.54534
237.4168, 79.25118
237.8989, 79.65359
238.3811, 80.12383
238.8632, 80.63845
239.3453, 81.19413
239.8274, 81.38781
240.3095, 80.97081
240.7916, 80.47093
241.2738, 80.36858
241.7559, 80.95073
242.2380, 81.34361
242.7201, 81.30499
243.2022, 80.87688
243.6843, 80.81770
244.1665, 81.34518
244.6486, 81.98622
245.1307, 82.38139
245.6128, 82.46309
246.0949, 82.42866
246.5770, 82.21922
247.0592, 81.87472
247.5413, 81.78782
248.0234, 82.04516
248.5055, 82.45182
248.9876, 82.86300
249.4697, 83.22568
249.9519, 83.72231
250.4340, 84.44156
250.9161, 85.32637
251.3982, 86.05416
251.8803, 86.65494
252.3624, 87.04398
252.8446, 87.10276
253.3267, 86.58934
253.8088, 86.34097
254.2909, 86.53954
254.7730, 87.05244
255.2551, 87.29449
255.7373, 87.10412
256.2194, 86.90752
256.7015, 86.95101
257.1836, 87.32275
257.6657, 87.70968
258.1478, 88.14335
258.6299, 88.57113
259.1121, 88.81987
259.5942, 88.79507
260.0763, 88.76286
260.5584, 88.87957
261.0405, 89.24283
261.5226, 89.43969
262.0048, 89.40940
262.4869, 89.23538
262.9690, 89.13085
263.4511, 89.16181
263.9332, 89.11809
264.4153, 88.85597
264.8975, 88.25380
265.3796, 87.91703
265.8617, 87.91113
266.3438, 88.10986
266.8259, 88.31979
267.3080, 88.59885
267.7902, 88.72704
268.2723, 88.58887
268.7544, 88.14601
269.2365, 87.68857
269.7186, 87.18876
270.2007, 86.71071
270.6829, 86.39585
271.1650, 86.30950
271.6471, 86.15053
272.1292, 85.77540
272.6113, 85.17580
273.0934, 84.74667
273.5756, 84.53432
274.0577, 84.41639
274.5398, 84.24088
275.0219, 83.99651
275.5040, 83.74680
275.9861, 83.47911
276.4683, 83.20492
276.9504, 83.12227
277.4325, 83.29980
277.9146, 83.48949
278.3967, 83.38327
278.8788, 82.94398
279.3610, 82.57490
279.8431, 82.40014
280.3252, 82.37812
280.8073, 82.28685
281.2894, 82.12025
281.7715, 81.91078
282.2537, 81.65713
282.7358, 81.35685
283.2179, 81.12910
283.7000, 80.99261
284.1821, 80.94627
284.6642, 81.07244
285.1464, 81.40746
285.6285, 81.60081
286.1106, 81.27563
286.5927, 80.47681
287.0748, 79.83517
287.5569, 79.44067
288.0391, 79.24773
288.5212, 79.20884
289.0033, 79.32510
289.4854, 79.45911
289.9675, 79.57558
290.4496, 79.65376
290.9318, 79.52168
291.4139, 79.09766
291.8960, 78.61930
292.3781, 78.53609
292.8602, 78.81191
293.3423, 79.06300
293.8245, 78.98141
294.3066, 78.70448
294.7887, 78.71089
295.2708, 79.06361
295.7529, 79.52760
296.2350, 79.85677
296.7172, 80.05403
297.1993, 80.14365
297.6814, 80.04774
298.1635, 79.86742
298.6456, 79.81507
299.1277, 79.89481
299.6099, 80.06788
300.0920, 80.32137
300.5741, 80.63904
301.0562, 80.97089
301.5383, 81.35172
302.0204, 81.71121
302.5026, 81.93751
302.9847, 82.03495
303.4668, 82.05685
303.9489, 81.92643
304.4310, 81.76765
304.9131, 81.81076
305.3953, 82.23527
305.8774, 82.76767
306.3595, 83.15986
306.8416, 83.41407
307.3237, 83.54877
307.8058, 83.42799
308.2880, 83.24515
308.7701, 83.26682
309.2522, 83.66209
309.7343, 84.06127
310.2164, 84.10101
310.6985, 83.89652
311.1807, 83.77212
311.6628, 84.10628
312.1449, 84.48650
312.6270, 84.47800
313.1091, 83.89182
313.5912, 83.36368
314.0734, 83.29667
314.5555, 83.53752
315.0376, 83.80631
315.5197, 84.04178
316.0018, 84.22520
316.4839, 84.36115
316.9661, 84.46074
317.4482, 84.42434
317.9303, 84.04848
318.4124, 83.56539
318.8945, 83.24264
319.3766, 83.21973
319.8588, 83.33009
320.3409, 83.57555
320.8230, 83.95116
321.3051, 84.23744
321.7872, 84.37695
322.2693, 84.40161
322.7515, 84.33667
323.2336, 83.94314
323.7157, 83.72314
324.1978, 83.89127
324.6799, 84.37234
325.1620, 84.73174
325.6442, 84.81279
326.1263, 84.81939
326.6084, 84.84995
327.0905, 84.83607
327.5726, 84.94891
328.0547, 85.28326
328.5369, 85.75460
329.0190, 86.15061
329.5011, 86.43916
329.9832, 86.67704
330.4653, 86.88890
330.9474, 87.10313
331.4296, 87.21835
331.9117, 87.17610
332.3938, 87.06267
332.8759, 86.98447
333.3580, 86.83216
333.8401, 86.88602
334.3223, 87.27041
334.8044, 88.02463
335.2865, 88.70798
335.7686, 89.42757
336.2507, 89.94768
336.7328, 89.92049
337.2150, 88.98316
337.6971, 88.48653
338.1792, 88.77675
338.6613, 89.71350
339.1434, 90.43098
339.6255, 90.86285
340.1077, 91.23198
340.5898, 91.69043
341.0719, 92.23421
341.5540, 92.86285
342.0361, 93.64039
342.5182, 94.42777
343.0003, 94.81667
343.4825, 94.74520
343.9646, 94.69845
344.4467, 94.92681
344.9288, 95.41453
345.4109, 96.03625
345.8930, 96.80218
346.3752, 97.64165
346.8573, 98.44884
347.3394, 99.23284
347.8215, 100.0196
348.3036, 100.8887
348.7857, 101.7610
349.2679, 102.3262
349.7500, 102.5665
350.2321, 102.8347
350.7142, 103.4979
351.1963, 104.4582
351.6784, 105.4688
352.1606, 106.5435
352.6427, 107.5285
353.1248, 108.1339
353.6069, 108.4192
354.0890, 108.7243
354.5711, 109.3415
355.0533, 110.1056
355.5354, 110.7893
356.0175, 111.3342
356.4996, 111.8259
356.9817, 112.3229
357.4638, 112.8293
357.9460, 113.3545
358.4281, 114.0814
358.9102, 114.7183
359.3923, 114.9669
359.8744, 114.7671
360.3565, 114.5018
360.8387, 114.3357
361.3208, 114.2449
361.8029, 114.2017
362.2850, 114.2690
362.7671, 114.3127
363.2492, 114.2768
363.7314, 114.1608
364.2135, 113.9913
364.6956, 113.7839
365.1777, 113.5226
365.6598, 113.1982
366.1419, 112.8740
366.6241, 112.4058
367.1062, 111.5865
367.5883, 110.5822
368.0704, 109.8913
368.5525, 109.9135
369.0346, 109.9726
369.5168, 109.8101
369.9989, 109.3344
370.4810, 108.8326
370.9631, 108.2791
371.4452, 107.7083
371.9273, 107.1549
372.4095, 106.5375
372.8916, 106.0689
373.3737, 105.8348
373.8558, 105.8439
374.3379, 105.7632
374.8200, 105.4930
375.3022, 105.2662
375.7843, 105.3157
376.2664, 105.7547
376.7485, 106.1009
377.2306, 106.3097
377.7127, 106.3782
378.1949, 106.2476
378.6770, 105.8701
379.1591, 105.4920
379.6412, 105.2166
380.1233, 105.0406
380.6054, 105.1030
381.0876, 105.4662
381.5697, 105.9208
382.0518, 106.2018
382.5339, 106.3073
383.0160, 106.2507
383.4981, 105.9929
383.9803, 105.5821
384.4624, 105.1080
384.9445, 104.5655
385.4266, 104.1295
385.9087, 104.0934
386.3908, 104.2892
386.8730, 104.2661
387.3551, 103.8346
387.8372, 103.2541
388.3193, 102.8163
388.8014, 102.5012
389.2835, 102.2227
389.7657, 101.9523
390.2478, 101.6800
390.7299, 101.4274
391.2120, 101.2263
391.6941, 100.9115
392.1762, 100.2472
392.6584, 99.41765
393.1405, 98.70431
393.6226, 98.22285
394.1047, 97.88100
394.5868, 97.69810
395.0689, 97.66456
395.5511, 97.56908
396.0332, 97.25745
396.5153, 96.89641
396.9974, 96.61314
397.4795, 96.47210
397.9616, 96.36529
398.4438, 96.28950
398.9259, 96.23694
399.4080, 96.18243
399.8901, 96.25413
400.3722, 96.20744
400.8543, 95.91285
401.3365, 95.21398
401.8186, 94.72771
402.3007, 94.59473
402.7828, 94.58766
403.2649, 94.40975
403.7470, 93.90366
404.2292, 93.52565
404.7113, 93.39620
405.1934, 93.49406
405.6755, 93.59739
406.1576, 93.71888
406.6397, 93.81666
407.1219, 93.83829
407.6040, 93.76731
408.0861, 93.77840
408.5682, 93.91924
409.0503, 94.10873
409.5324, 94.13667
410.0146, 93.99647
410.4967, 93.98815
410.9788, 94.39992
411.4609, 95.08968
411.9430, 95.45200
412.4251, 95.46809
412.9073, 95.30312
413.3894, 95.01442
413.8715, 94.66430
414.3536, 94.44802
414.8357, 94.45274
415.3178, 94.57446
415.8000, 94.70280
416.2821, 94.83776
416.7642, 94.97798
417.2463, 95.42589
417.7284, 95.73128
418.2105, 95.27662
418.6927, 93.77415
419.1748, 92.33904
419.6569, 91.70940
420.1390, 91.56532
420.6211, 91.42713
421.1032, 91.17266
421.5854, 90.83678
422.0675, 90.42580
422.5496, 89.93938
423.0317, 89.41479
423.5138, 88.76879
423.9959, 88.14424
424.4781, 87.62692
424.9602, 87.42632
425.4423, 87.08997
425.9244, 86.43819
426.4065, 85.63747
426.8886, 85.06104
427.3708, 84.84326
427.8529, 84.67598
428.3350, 84.47216
428.8171, 84.22756
429.2992, 83.97814
429.7813, 83.72937
430.2635, 83.47027
430.7456, 83.16447
431.2277, 82.77880
431.7098, 82.49886
432.1919, 82.37709
432.6740, 81.57308
433.1562, 82.44906
433.6383, 82.88597
434.1204, 82.90833
434.6025, 81.22194
435.0846, 81.78225
435.5667, 81.46677
436.0489, 81.13219
436.5310, 82.05890
437.0131, 80.71134
437.4952, 81.65343
437.9773, 81.70608
438.4594, 82.19138
438.9416, 81.79538
439.4236, 81.69454
439.9058, 82.51042
440.3879, 82.84598
440.8700, 82.41669
441.3521, 83.03368
441.8342, 81.83021
442.3163, 82.25717
442.7985, 83.39758
443.2806, 83.10125
443.7627, 83.82241
444.2448, 84.18029
444.7269, 82.82494
445.2090, 84.49713
445.6912, 83.93985
446.1733, 84.44947
446.6554, 84.93527
447.1375, 85.29088
447.6196, 85.62557
448.1017, 86.00953
448.5839, 86.66120
449.0660, 87.06211
449.5481, 87.02193
450.0302, 86.77406
450.5123, 86.81418
450.9944, 87.20061
451.4766, 87.78265
451.9587, 88.63065
452.4408, 89.78275
452.9229, 90.37385
453.4050, 90.23209
453.8871, 89.95634
454.3693, 90.17378
454.8514, 90.91844
455.3335, 91.41757
455.8156, 91.49218
456.2977, 91.35247
456.7798, 91.42368
457.2620, 91.69305
457.7441, 91.98423
458.2262, 92.24310
458.7083, 92.44995
459.1904, 92.58189
459.6725, 92.63882
460.1547, 92.57871
460.6368, 92.20194
461.1189, 91.71714
461.6010, 91.48379
462.0831, 91.74400
462.5652, 92.09324
463.0474, 92.32461
463.5295, 92.42085
464.0116, 92.32442
464.4937, 91.79307
464.9758, 91.23128
465.4579, 90.87331
465.9401, 90.76572
466.4222, 90.73038
466.9043, 90.93137
467.3864, 91.08741
467.8685, 90.93362
468.3506, 90.00194
468.8328, 89.28573
469.3149, 88.98648
469.7970, 88.98814
470.2791, 88.83303
470.7612, 88.39011
471.2433, 87.99288
471.7255, 87.82201
472.2076, 87.94385
472.6897, 87.83176
473.1718, 87.39436
473.6539, 86.89693
474.1360, 86.66680
474.6182, 86.71523
475.1003, 86.76900
475.5824, 86.79765
476.0645, 86.76196
476.5466, 86.51733
477.0287, 86.07974
477.5109, 85.67246
477.9930, 85.48743
478.4751, 85.41565
478.9572, 85.19969
479.4393, 84.80404
479.9214, 84.48701
480.4036, 84.59856
480.8857, 84.24068
481.3678, 84.72256
481.8499, 84.95403
482.3320, 84.94853
482.8141, 83.99636
483.2963, 84.26660
483.7784, 84.04697
484.2605, 83.80724
484.7426, 84.24956
485.2247, 83.43507
485.7068, 83.86658
486.1890, 83.80068
486.6711, 83.96244
487.1532, 83.63128
487.6353, 83.45236
488.1174, 84.36596
488.5995, 84.89216
489.0817, 84.98331
489.5638, 84.81557
490.0459, 84.99557
490.5280, 85.61892
491.0101, 86.35767
491.4922, 87.17352
491.9744, 88.07627
492.4565, 88.47679
492.9386, 88.29025
493.4207, 87.96581
493.9028, 87.97887
494.3849, 88.28685
494.8671, 88.60952
495.3492, 88.86075
495.8313, 89.15022
496.3134, 89.79843
496.7955, 90.67492
497.2776, 91.29760
497.7598, 91.07795
498.2419, 90.65109
498.7240, 90.75614
499.2061, 91.42785
499.6882, 92.06233
500.1703, 92.15140
500.6525, 92.11288
501.1346, 92.35906
501.6167, 93.30184
502.0988, 94.06472
502.5809, 94.31181
503.0630, 94.21920
503.5452, 94.14468
504.0273, 94.13184
504.5094, 94.14329
504.9915, 94.18409
505.4736, 94.25517
505.9557, 94.28601
506.4379, 94.34288
506.9200, 94.26498
507.4021, 93.90030
507.8842, 93.16395
508.3663, 92.51397
508.8484, 91.98979
509.3306, 91.53988
509.8127, 91.08767
510.2948, 90.63681
510.7769, 90.18459
511.2590, 89.72654
511.7411, 89.27438
512.2233, 88.90401
512.7054, 88.60182
513.1875, 88.22022
513.6696, 87.60795
514.1517, 86.86757
514.6339, 86.12470
515.1160, 85.38339
515.5981, 84.69327
516.0802, 84.13737
516.5623, 83.62926
517.0444, 83.05373
517.5266, 82.29153
518.0087, 81.53476
518.4908, 80.85326
518.9729, 80.23405
519.4550, 79.61482
519.9371, 79.08824
520.4193, 78.46769
520.9014, 77.64299
521.3835, 76.51086
521.8656, 75.62032
522.3477, 75.10941
522.8298, 74.68811
523.3120, 74.03034
523.7941, 73.05920
524.2762, 72.28214
524.7583, 71.83346
525.2404, 71.54749
525.7225, 71.04771
526.2047, 70.33455
526.6868, 69.57738
527.1689, 68.75593
527.6510, 67.96697
528.1331, 67.53931
528.6152, 67.45928
529.0974, 67.34972
529.5795, 66.83659
530.0616, 66.13215
530.5437, 65.57287
531.0258, 65.29813
531.5079, 64.93960
531.9901, 64.07540
532.4722, 63.01029
532.9543, 62.22831
533.4364, 62.16526
533.9185, 62.11273
534.4006, 61.78114
534.8828, 61.20891
535.3649, 60.78898
535.8470, 60.74728
536.3291, 60.68354
536.8112, 60.42348
537.2933, 59.90676
537.7755, 59.43214
538.2576, 59.01418
538.7397, 58.62229
539.2218, 58.23695
539.7039, 57.86686
540.1860, 57.45189
540.6682, 56.95821
541.1503, 56.45275
541.6324, 56.10181
542.1145, 55.88902
542.5966, 55.63542
543.0787, 55.19258
543.5609, 54.67198
544.0430, 54.25771
544.5251, 53.94965
545.0072, 53.67225
545.4893, 53.38343
545.9714, 53.09695
546.4536, 52.81669
546.9357, 52.51796
547.4178, 52.29389
547.8999, 52.24153
548.3820, 52.26941
548.8641, 52.25120
549.3463, 52.25520
549.8284, 52.10439
550.3105, 51.65332
550.7926, 50.98254
551.2747, 50.53656
551.7568, 50.40411
552.2390, 50.33800
552.7211, 50.22878
553.2032, 50.06850
553.6853, 49.98965
554.1674, 50.03564
554.6495, 50.02875
555.1317, 49.71988
555.6138, 49.16264
556.0959, 48.71779
556.5780, 48.46683
557.0601, 48.30592
557.5422, 48.06009
558.0244, 47.78292
558.5065, 47.62946
558.9886, 47.81717
559.4707, 48.05507
559.9528, 48.10213
560.4349, 47.97541
560.9171, 47.78962
561.3992, 47.45857
561.8813, 47.18383
562.3634, 47.12848
562.8455, 47.40847
563.3276, 47.58103
563.8098, 47.58643
564.2919, 47.46119
564.7740, 47.21347
565.2561, 46.70336
565.7382, 46.35546
566.2203, 46.25455
566.7025, 46.31060
567.1846, 46.32949
567.6667, 46.32267
568.1488, 46.19541
568.6309, 45.79937
569.1130, 45.27388
569.5952, 45.24446
570.0773, 45.70338
570.5594, 46.08402
571.0415, 45.84254
571.5236, 45.28765
572.0057, 44.93859
572.4879, 44.88109
572.9700, 44.86916
573.4521, 44.66850
573.9342, 44.43053
574.4163, 44.34209
574.8984, 44.62931
575.3806, 44.87711
575.8627, 44.97883
576.3448, 44.95634
576.8269, 44.87095
577.3090, 44.62414
577.7911, 44.43494
578.2733, 44.36140
578.7554, 44.40294
579.2375, 44.50423
579.7196, 44.71458
580.2017, 44.86623
580.6838, 44.82859
581.1660, 44.60462
581.6481, 44.32726
582.1302, 43.98277
582.6123, 43.67928
583.0944, 43.56392
583.5765, 43.59654
584.0587, 43.68725
584.5408, 43.88678
585.0229, 44.00331
585.5050, 43.74364
585.9871, 43.24629
586.4692, 42.85308
586.9514, 42.65836
587.4335, 42.65118
587.9155, 42.94476
