##NAMES=Uchucchacuaite
##RRUFFID=R070760
##IDEAL CHEMISTRY=Ag^1+^Mn^2+^Pb^2+^_3_Sb^3+^_5_S^2-^_12_
##LOCALITY=Inakuraishi mine, Shakotan peninsula, Shiribeshi Province, Hokkaido Island, Japan
##OWNER=RRUFF
##SOURCE=Michael Scott
##DESCRIPTION=Steel gray metallic massive associated with rhodochrosite
##STATUS=The identification of this mineral is confirmed by single-crystal X-ray diffraction and chemical analysis.
##URL=rruff.info/R070760
##MEASURED CHEMISTRY=Ag_1.00_(Mn_0.82_Sb_0.11_Ag_0.04_Bi_0.02_)_Î£=0.99_Pb_2.98_Sb_5.00_S_12.00_
127.4942, 20034.34
127.9763, 20036.71
128.4584, 20078.31
128.9406, 20088.34
129.4227, 20020.76
129.9048, 19944.30
130.3869, 19921.23
130.8690, 19979.13
131.3511, 20095.49
131.8333, 20190.95
132.3154, 20229.10
132.7975, 20285.00
133.2796, 20365.35
133.7617, 20469.68
134.2438, 20599.96
134.7260, 20761.85
135.2081, 20951.98
135.6902, 21109.80
136.1723, 21209.78
136.6544, 21307.96
137.1365, 21444.19
137.6187, 21613.15
138.1008, 21763.47
138.5829, 21838.96
139.0650, 21841.45
139.5471, 21894.38
140.0292, 22039.75
140.5114, 22222.69
140.9935, 22383.07
141.4756, 22509.12
141.9577, 22629.00
142.4398, 22773.17
142.9219, 22936.49
143.4041, 23104.69
143.8862, 23280.44
144.3683, 23457.67
144.8504, 23617.25
145.3325, 23752.01
145.8146, 23870.53
146.2968, 23988.04
146.7789, 24103.42
147.2610, 24198.90
147.7431, 24253.23
148.2252, 24263.21
148.7073, 24269.65
149.1895, 24308.72
149.6716, 24326.93
150.1537, 24287.73
150.6358, 24183.72
151.1179, 24041.96
151.6000, 23910.18
152.0821, 23818.57
152.5643, 23665.55
153.0464, 23414.56
153.5285, 23120.85
154.0106, 22831.68
154.4927, 22566.05
154.9748, 22311.22
155.4570, 22027.07
155.9391, 21672.51
156.4212, 21329.13
156.9033, 21013.57
157.3854, 20712.50
157.8675, 20404.39
158.3497, 20075.39
158.8318, 19728.45
159.3139, 19413.61
159.7960, 19137.12
160.2781, 18880.17
160.7602, 18640.69
161.2424, 18416.84
161.7245, 18205.92
162.2066, 18006.93
162.6887, 17820.47
163.1708, 17638.01
163.6529, 17449.74
164.1351, 17271.10
164.6172, 17113.66
165.0993, 16977.50
165.5814, 16857.60
166.0635, 16749.95
166.5456, 16655.10
167.0278, 16576.93
167.5099, 16514.02
167.9920, 16468.89
168.4741, 16449.82
168.9562, 16462.66
169.4383, 16483.44
169.9205, 16492.64
170.4026, 16491.62
170.8847, 16475.02
171.3668, 16418.66
171.8489, 16342.90
172.3310, 16307.71
172.8132, 16330.29
173.2953, 16388.68
173.7774, 16468.44
174.2595, 16567.58
174.7416, 16658.48
175.2237, 16716.28
175.7059, 16742.34
176.1880, 16775.76
176.6701, 16831.09
177.1522, 16889.86
177.6343, 16935.05
178.1164, 16966.09
178.5986, 17003.17
179.0807, 17060.97
179.5628, 17133.39
180.0449, 17255.75
180.5270, 17528.40
181.0091, 17791.03
181.4913, 17915.06
181.9734, 17870.17
182.4555, 17768.90
182.9376, 17812.73
183.4197, 18108.11
183.9018, 18340.20
184.3840, 18446.62
184.8661, 18501.88
185.3482, 18559.29
185.8303, 18641.10
186.3124, 18748.93
186.7945, 18891.33
187.2767, 19117.37
187.7588, 19316.81
188.2409, 19477.18
188.7230, 19609.22
189.2051, 19721.16
189.6872, 19817.59
190.1694, 19902.33
190.6515, 19996.53
191.1336, 20122.69
191.6157, 20233.02
192.0978, 20324.44
192.5799, 20393.31
193.0621, 20434.39
193.5442, 20444.44
194.0263, 20424.22
194.5084, 20376.53
194.9905, 20313.19
195.4726, 20219.02
195.9548, 20065.58
196.4369, 19871.22
196.9190, 19691.66
197.4011, 19568.70
197.8832, 19497.31
198.3653, 19394.54
198.8475, 19230.65
199.3296, 19064.83
199.8117, 18918.08
200.2938, 18794.34
200.7759, 18710.13
201.2580, 18684.40
201.7402, 18716.80
202.2223, 18756.13
202.7044, 18793.19
203.1865, 18841.80
203.6686, 18913.22
204.1507, 19008.53
204.6329, 19123.79
205.1150, 19252.98
205.5971, 19400.09
206.0792, 19581.82
206.5613, 19798.59
207.0434, 20052.65
207.5256, 20355.11
208.0077, 20713.99
208.4898, 21090.85
208.9719, 21456.72
209.4540, 21815.79
209.9361, 22178.25
210.4183, 22539.07
210.9004, 22906.57
211.3825, 23303.73
211.8646, 23744.37
212.3467, 24189.53
212.8288, 24600.39
213.3110, 24991.01
213.7931, 25400.65
214.2752, 25860.78
214.7573, 26358.76
215.2394, 26833.72
215.7215, 27286.99
216.2037, 27711.84
216.6858, 28098.97
217.1679, 28459.62
217.6500, 28822.62
218.1321, 29221.21
218.6142, 29649.35
219.0964, 30037.42
219.5785, 30366.60
220.0606, 30671.35
220.5427, 30976.12
221.0248, 31274.24
221.5069, 31543.07
221.9891, 31753.14
222.4712, 31901.18
222.9533, 32064.92
223.4354, 32281.89
223.9175, 32480.84
224.3996, 32629.68
224.8818, 32733.29
225.3639, 32816.43
225.8460, 32894.25
226.3281, 32961.52
226.8102, 33057.16
227.2923, 33224.04
227.7745, 33383.17
228.2566, 33500.77
228.7387, 33577.72
229.2208, 33634.95
229.7029, 33690.78
230.1850, 33744.29
230.6672, 33801.25
231.1493, 33889.35
231.6314, 33958.17
232.1135, 33998.88
232.5956, 34002.34
233.0777, 33949.93
233.5599, 33815.78
234.0420, 33579.02
234.5241, 33332.63
235.0062, 33081.21
235.4883, 32818.23
235.9704, 32548.64
236.4526, 32268.67
236.9347, 31964.56
237.4168, 31617.24
237.8989, 31202.74
238.3810, 30823.24
238.8631, 30494.40
239.3453, 30183.20
239.8274, 29868.39
240.3095, 29548.57
240.7916, 29243.79
241.2737, 28977.11
241.7558, 28762.66
242.2380, 28544.79
242.7201, 28296.42
243.2022, 28065.34
243.6843, 27875.72
244.1664, 27733.44
244.6485, 27632.48
245.1307, 27567.13
245.6128, 27543.83
246.0949, 27546.11
246.5770, 27599.28
247.0591, 27657.85
247.5412, 27676.68
248.0234, 27655.61
248.5055, 27641.41
248.9876, 27685.62
249.4697, 27800.45
249.9518, 27952.03
250.4339, 28149.72
250.9161, 28374.99
251.3982, 28614.99
251.8803, 28866.63
252.3624, 29138.97
252.8445, 29436.65
253.3266, 29759.71
253.8088, 30126.48
254.2909, 30534.28
254.7730, 30983.82
255.2551, 31476.94
255.7372, 32012.64
256.2193, 32589.50
256.7014, 33208.76
257.1836, 33878.02
257.6657, 34567.08
258.1478, 35290.27
258.6299, 36021.26
259.1120, 36748.91
259.5941, 37469.59
260.0763, 38165.63
260.5584, 38820.61
261.0405, 39428.68
261.5226, 40003.25
262.0047, 40560.34
262.4868, 41071.27
262.9690, 41509.85
263.4511, 41874.21
263.9332, 42181.64
264.4153, 42439.08
264.8974, 42641.92
265.3795, 42826.48
265.8617, 43003.11
266.3438, 43156.42
266.8259, 43278.19
267.3080, 43366.92
267.7901, 43412.83
268.2722, 43399.77
268.7544, 43324.92
269.2365, 43248.45
269.7186, 43203.73
270.2007, 43135.33
270.6828, 42968.70
271.1649, 42706.93
271.6471, 42469.31
272.1292, 42340.70
272.6113, 42325.46
273.0934, 42347.36
273.5755, 42379.04
274.0576, 42467.29
274.5398, 42659.43
275.0219, 42951.18
275.5040, 43287.94
275.9861, 43629.59
276.4682, 43990.15
276.9503, 44401.07
277.4325, 44968.13
277.9146, 45503.16
278.3967, 45875.14
278.8788, 46093.18
279.3609, 46236.20
279.8430, 46351.30
280.3252, 46419.52
280.8073, 46403.61
281.2894, 46235.29
281.7715, 46046.57
282.2536, 45893.61
282.7357, 45780.75
283.2179, 45736.61
283.7000, 45782.69
284.1821, 45910.70
284.6642, 46069.79
285.1463, 46236.09
285.6284, 46459.60
286.1106, 46803.62
286.5927, 47240.62
287.0748, 47656.72
287.5569, 48012.36
288.0390, 48305.92
288.5211, 48553.14
289.0033, 48784.89
289.4854, 48926.34
289.9675, 48953.65
290.4496, 48864.46
290.9317, 48665.02
291.4138, 48382.95
291.8960, 47949.32
292.3781, 47230.38
292.8602, 46204.37
293.3423, 45020.20
293.8244, 43697.16
294.3065, 42259.07
294.7887, 40748.73
295.2708, 39168.96
295.7529, 37545.05
296.2350, 35932.57
296.7171, 34317.54
297.1992, 32745.46
297.6814, 31213.00
298.1635, 29735.56
298.6456, 28333.46
299.1277, 27004.62
299.6098, 25771.94
300.0919, 24678.94
300.5741, 23726.81
301.0562, 22837.31
301.5383, 22002.28
302.0204, 21222.83
302.5025, 20510.64
302.9846, 19869.15
303.4668, 19283.43
303.9489, 18731.51
304.4310, 18213.50
304.9131, 17754.95
305.3952, 17369.19
305.8773, 17039.64
306.3595, 16751.49
306.8416, 16501.66
307.3237, 16293.20
307.8058, 16131.51
308.2879, 16020.82
308.7701, 15940.37
309.2522, 15893.50
309.7343, 15873.92
310.2164, 15881.48
310.6985, 15914.55
311.1806, 15964.37
311.6628, 16033.06
312.1449, 16116.15
312.6270, 16165.19
313.1091, 16160.97
313.5912, 16141.31
314.0733, 16136.28
314.5555, 16138.10
315.0376, 16107.43
315.5197, 16010.96
316.0018, 15864.23
316.4839, 15759.97
316.9660, 15716.07
317.4482, 15687.23
317.9303, 15652.56
318.4124, 15619.70
318.8945, 15607.07
319.3766, 15624.21
319.8587, 15666.42
320.3409, 15719.69
320.8230, 15773.68
321.3051, 15849.71
321.7872, 15969.40
322.2693, 16109.94
322.7514, 16236.91
323.2336, 16337.27
323.7157, 16421.75
324.1978, 16512.89
324.6799, 16617.78
325.1620, 16716.09
325.6441, 16811.26
326.1263, 16896.05
326.6084, 16955.10
327.0905, 16985.92
327.5726, 17014.92
328.0547, 17082.22
328.5368, 17216.84
329.0190, 17315.17
329.5011, 17336.89
329.9832, 17352.60
330.4653, 17405.64
330.9474, 17504.09
331.4295, 17637.50
331.9117, 17789.05
332.3938, 17944.42
332.8759, 18214.47
333.3580, 18599.59
333.8401, 19073.12
334.3222, 19640.80
334.8044, 20287.56
335.2865, 20982.15
335.7686, 21695.82
336.2507, 22429.64
336.7328, 23266.14
337.2149, 24216.88
337.6971, 25248.29
338.1792, 26325.49
338.6613, 27486.63
339.1434, 28789.89
339.6255, 30278.71
340.1076, 31931.21
340.5898, 33666.42
341.0719, 35524.20
341.5540, 37423.73
342.0361, 39461.21
342.5182, 41484.86
343.0003, 43385.22
343.4825, 45115.43
343.9646, 46595.03
344.4467, 47696.91
344.9288, 48534.13
345.4109, 48689.88
345.8930, 48130.89
346.3752, 47032.19
346.8573, 45421.72
347.3394, 43352.32
347.8215, 40981.10
348.3036, 38470.87
348.7857, 35753.78
349.2679, 33135.27
349.7500, 30573.06
350.2321, 28124.87
350.7142, 25800.45
351.1963, 23608.55
351.6784, 21578.11
352.1606, 19743.24
352.6427, 18105.69
353.1248, 16627.23
353.6069, 15344.86
354.0890, 14207.76
354.5711, 13198.41
355.0533, 12303.18
355.5354, 11494.01
356.0175, 10765.05
356.4996, 10109.55
356.9817, 9514.070
357.4638, 8974.791
357.9460, 8501.651
358.4281, 8125.999
358.9102, 7804.087
359.3923, 7489.391
359.8744, 7164.249
360.3565, 6848.165
360.8387, 6567.476
361.3208, 6321.835
361.8029, 6105.429
362.2850, 5932.965
362.7671, 5779.465
363.2492, 5620.210
363.7314, 5450.583
364.2135, 5292.272
364.6956, 5152.371
365.1777, 5034.404
365.6598, 4961.796
366.1419, 4963.515
366.6241, 4977.597
367.1062, 4949.376
367.5883, 4881.474
368.0704, 4773.049
368.5525, 4595.178
369.0346, 4385.061
369.5168, 4204.698
369.9989, 4061.692
370.4810, 3942.646
370.9631, 3843.747
371.4452, 3761.275
371.9273, 3674.300
372.4095, 3565.255
372.8916, 3461.514
373.3737, 3389.045
373.8558, 3345.324
374.3379, 3307.087
374.8200, 3262.118
375.3022, 3211.065
375.7843, 3157.408
376.2664, 3095.180
376.7485, 3037.088
377.2306, 2988.654
377.7127, 2947.352
378.1949, 2909.682
378.6770, 2874.692
379.1591, 2840.543
379.6412, 2803.916
380.1233, 2762.284
380.6054, 2722.621
381.0876, 2686.721
381.5697, 2652.133
382.0518, 2614.047
382.5339, 2572.597
383.0160, 2536.981
383.4981, 2519.985
383.9803, 2529.283
384.4624, 2523.805
384.9445, 2495.233
385.4266, 2462.379
385.9087, 2432.141
386.3908, 2405.369
386.8730, 2381.734
387.3551, 2361.146
387.8372, 2343.275
388.3193, 2324.936
388.8014, 2303.407
389.2835, 2284.701
389.7657, 2271.938
390.2478, 2261.910
390.7299, 2250.377
391.2120, 2235.448
391.6941, 2219.124
392.1762, 2205.319
392.6584, 2194.650
393.1405, 2185.327
393.6226, 2181.984
394.1047, 2176.433
394.5868, 2161.011
395.0689, 2135.356
395.5511, 2108.389
396.0332, 2088.416
396.5153, 2075.540
396.9974, 2065.644
397.4795, 2061.603
397.9616, 2056.808
398.4438, 2047.475
398.9259, 2034.495
399.4080, 2020.444
399.8901, 2005.280
400.3722, 1990.375
400.8543, 1979.065
401.3365, 1971.991
401.8186, 1966.023
402.3007, 1959.309
402.7828, 1952.729
403.2649, 1948.434
403.7470, 1949.852
404.2292, 1948.531
404.7113, 1934.236
405.1934, 1909.627
405.6755, 1889.266
406.1576, 1878.717
406.6397, 1874.418
407.1219, 1870.942
407.6040, 1868.463
408.0861, 1865.776
408.5682, 1863.740
409.0503, 1860.805
409.5324, 1852.845
410.0146, 1839.140
410.4967, 1827.576
410.9788, 1826.806
411.4609, 1838.612
411.9430, 1847.731
412.4251, 1860.266
412.9073, 1864.863
413.3894, 1848.920
413.8715, 1818.719
414.3536, 1793.047
414.8357, 1783.901
415.3178, 1787.523
415.8000, 1786.008
416.2821, 1765.167
416.7642, 1756.519
417.2463, 1776.644
417.7284, 1804.213
418.2105, 1814.845
418.6927, 1801.719
419.1748, 1778.575
419.6569, 1766.376
420.1390, 1769.782
420.6211, 1771.591
421.1032, 1773.032
421.5854, 1771.910
422.0675, 1764.832
422.5496, 1753.633
423.0317, 1744.115
423.5138, 1740.957
423.9959, 1743.288
424.4781, 1746.389
424.9602, 1752.797
425.4423, 1755.325
425.9244, 1750.340
426.4065, 1740.770
426.8886, 1729.461
427.3708, 1716.526
427.8529, 1704.783
428.3350, 1697.688
428.8171, 1695.276
429.2992, 1696.753
429.7813, 1707.671
430.2635, 1716.644
430.7456, 1707.830
431.2277, 1679.879
431.7098, 1659.341
432.1919, 1664.964
432.6740, 1684.911
433.1562, 1699.356
433.6383, 1706.028
434.1204, 1704.235
434.6025, 1688.734
435.0846, 1661.377
435.5667, 1646.343
436.0489, 1655.838
436.5310, 1667.364
437.0131, 1667.083
437.4952, 1657.860
437.9773, 1648.323
438.4594, 1642.164
438.9416, 1639.833
439.4237, 1642.785
439.9058, 1658.055
440.3879, 1668.760
440.8700, 1673.365
441.3521, 1673.553
441.8343, 1669.923
442.3164, 1663.055
442.7985, 1654.399
443.2806, 1644.734
443.7627, 1633.064
444.2448, 1627.834
444.7270, 1633.607
445.2091, 1641.352
445.6912, 1652.357
446.1733, 1662.784
446.6554, 1665.584
447.1375, 1655.807
447.6197, 1638.972
448.1018, 1629.658
448.5839, 1631.912
449.0660, 1630.431
449.5481, 1612.942
450.0302, 1595.422
450.5124, 1591.688
450.9945, 1603.881
451.4766, 1618.938
451.9587, 1628.168
452.4408, 1631.830
452.9229, 1629.839
453.4051, 1619.534
453.8872, 1609.412
454.3693, 1608.668
454.8514, 1614.212
455.3335, 1617.081
455.8156, 1616.401
456.2978, 1611.426
456.7799, 1598.265
457.2620, 1578.759
457.7441, 1563.471
458.2262, 1557.900
458.7083, 1559.124
459.1904, 1559.589
459.6725, 1557.481
460.1547, 1558.059
460.6368, 1563.533
461.1189, 1571.440
461.6010, 1581.268
462.0831, 1592.048
462.5652, 1598.520
463.0474, 1593.990
463.5295, 1576.290
464.0116, 1566.685
464.4937, 1574.239
464.9758, 1579.763
465.4579, 1573.655
465.9401, 1562.059
466.4222, 1556.435
466.9043, 1563.086
467.3864, 1575.417
467.8685, 1577.944
468.3506, 1566.692
468.8328, 1556.940
469.3149, 1547.293
469.7970, 1542.980
470.2791, 1553.492
470.7612, 1576.902
471.2433, 1593.114
471.7255, 1581.003
472.2076, 1548.895
472.6897, 1527.133
473.1718, 1518.825
473.6539, 1515.532
474.1360, 1515.835
474.6182, 1516.857
475.1003, 1511.808
475.5824, 1493.445
476.0645, 1476.781
476.5466, 1474.927
477.0287, 1483.458
477.5109, 1489.225
477.9930, 1487.797
478.4751, 1481.711
478.9572, 1475.066
479.4393, 1469.114
479.9214, 1458.013
480.4036, 1432.058
480.8857, 1408.245
481.3678, 1401.555
481.8499, 1409.470
482.3320, 1417.542
482.8141, 1414.727
483.2963, 1403.650
483.7784, 1402.278
484.2605, 1426.923
484.7426, 1439.314
485.2247, 1426.613
485.7068, 1404.208
486.1890, 1386.461
486.6711, 1377.162
487.1532, 1370.920
487.6353, 1359.503
488.1174, 1342.312
488.5995, 1336.302
489.0817, 1352.488
489.5638, 1366.291
490.0459, 1359.645
490.5280, 1340.715
491.0101, 1328.984
491.4922, 1336.844
491.9744, 1350.148
492.4565, 1352.527
492.9386, 1344.486
493.4207, 1332.328
493.9028, 1316.045
494.3849, 1299.716
494.8671, 1291.357
495.3492, 1292.208
495.8313, 1292.953
496.3134, 1289.766
496.7955, 1286.455
497.2776, 1287.246
497.7598, 1292.214
498.2419, 1298.904
498.7240, 1306.148
499.2061, 1313.431
499.6882, 1313.984
500.1703, 1303.659
500.6525, 1291.542
501.1346, 1275.841
501.6167, 1260.598
502.0988, 1249.931
502.5809, 1245.123
503.0630, 1244.621
503.5452, 1248.079
504.0273, 1256.738
504.5094, 1260.099
504.9915, 1254.370
505.4736, 1247.165
505.9557, 1239.932
506.4379, 1234.151
506.9200, 1233.712
507.4021, 1245.191
507.8842, 1256.668
508.3663, 1247.092
508.8484, 1217.463
509.3306, 1196.925
509.8127, 1199.012
510.2948, 1210.788
510.7769, 1212.338
511.2590, 1202.617
511.7411, 1193.394
512.2233, 1189.745
512.7054, 1186.636
513.1875, 1175.938
513.6696, 1159.085
514.1517, 1148.422
514.6339, 1153.483
515.1160, 1171.549
515.5981, 1185.023
516.0802, 1190.493
516.5623, 1195.473
517.0444, 1202.549
517.5266, 1208.410
518.0087, 1209.473
518.4908, 1205.230
518.9729, 1198.255
519.4550, 1190.151
519.9371, 1180.784
520.4193, 1175.940
520.9014, 1177.784
521.3835, 1181.159
521.8656, 1185.552
522.3477, 1189.382
522.8298, 1189.439
523.3120, 1183.063
523.7941, 1176.686
524.2762, 1179.215
524.7583, 1188.294
525.2404, 1190.559
525.7225, 1180.751
526.2047, 1167.992
526.6868, 1164.377
527.1689, 1170.479
527.6510, 1170.631
528.1331, 1153.078
528.6152, 1138.238
529.0974, 1143.133
529.5795, 1162.110
530.0616, 1178.772
530.5437, 1184.860
531.0258, 1183.288
531.5079, 1181.329
531.9901, 1181.861
532.4722, 1176.405
532.9543, 1155.459
533.4364, 1137.079
533.9185, 1136.637
534.4006, 1150.235
534.8828, 1160.770
535.3649, 1154.992
535.8470, 1137.804
536.3291, 1122.849
536.8112, 1108.561
537.2933, 1102.735
537.7755, 1118.791
538.2576, 1138.475
538.7397, 1136.929
539.2218, 1108.615
539.7039, 1087.498
540.1860, 1098.789
540.6682, 1124.556
541.1503, 1136.753
541.6324, 1132.316
542.1145, 1123.010
542.5966, 1116.839
543.0787, 1113.448
543.5609, 1109.861
544.0430, 1105.366
544.5251, 1101.574
545.0072, 1099.533
545.4893, 1097.999
545.9714, 1096.512
546.4536, 1094.555
546.9357, 1090.112
547.4178, 1079.695
547.8999, 1062.925
548.3820, 1051.532
548.8641, 1047.243
549.3463, 1046.164
549.8284, 1050.918
550.3105, 1056.136
550.7926, 1053.218
551.2747, 1037.927
551.7568, 1021.405
552.2390, 1012.934
552.7211, 1011.690
553.2032, 1016.591
553.6853, 1029.605
554.1674, 1040.291
554.6495, 1037.067
555.1317, 1020.070
555.6138, 1008.626
556.0959, 1004.036
556.5780, 1004.004
557.0601, 1013.684
557.5422, 1025.740
558.0244, 1025.118
558.5065, 1006.852
558.9886, 984.2101
559.4707, 979.0687
559.9528, 998.5655
560.4349, 1007.026
560.9171, 994.0121
561.3992, 979.7468
561.8813, 968.6182
562.3634, 961.6163
562.8455, 960.8893
563.3276, 969.5522
563.8098, 978.3779
564.2919, 970.4072
564.7740, 947.2860
565.2561, 937.3432
565.7382, 951.5305
566.2203, 972.4589
566.7025, 982.6206
567.1846, 983.0162
567.6667, 979.8455
568.1488, 969.3147
568.6309, 959.7730
569.1130, 957.3069
569.5952, 960.0893
570.0773, 964.4586
570.5594, 969.0174
571.0415, 971.4974
571.5236, 967.4125
572.0057, 954.0354
572.4879, 941.2955
572.9700, 923.8674
573.4521, 912.2568
573.9342, 916.5409
574.4163, 929.6703
574.8984, 936.0148
575.3806, 926.1362
575.8627, 910.9964
576.3448, 910.3818
576.8269, 924.4276
577.3090, 928.3640
577.7911, 909.3888
578.2733, 889.1341
578.7554, 897.6367
579.2375, 930.6496
579.7196, 947.0669
580.2017, 926.2009
580.6838, 898.0619
581.1660, 879.4380
581.6481, 870.3007
582.1302, 870.0468
582.6123, 878.7971
583.0944, 890.0286
583.5765, 891.9531
584.0587, 880.5269
584.5408, 871.2138
585.0229, 863.9530
585.5050, 858.6889
585.9871, 857.0348
586.4692, 857.1303
586.9514, 854.8926
587.4335, 847.5677
587.9156, 840.0134
588.3977, 841.6038
588.8798, 851.8007
589.3619, 854.2183
589.8441, 841.1126
590.3262, 827.3460
590.8083, 830.7556
591.2904, 848.6502
591.7725, 861.0756
592.2546, 868.4933
592.7368, 866.6523
593.2189, 844.9576
593.7010, 813.4540
594.1831, 792.9191
594.6652, 790.5810
595.1473, 796.5687
595.6295, 796.4127
596.1116, 787.8632
596.5937, 783.9667
597.0758, 789.1055
597.5579, 794.5272
598.0400, 798.3826
598.5222, 800.4966
599.0043, 800.4889
599.4864, 797.8934
599.9685, 794.8627
600.4506, 793.1650
600.9327, 792.8890
601.4149, 795.2582
601.8970, 801.4092
602.3791, 806.6208
602.8612, 806.7977
603.3433, 802.1737
603.8254, 797.2172
604.3076, 793.5622
604.7897, 787.6766
605.2718, 773.2472
605.7539, 758.2011
606.2360, 754.7906
606.7181, 764.6270
607.2003, 776.4623
607.6824, 777.4101
608.1645, 767.8258
608.6466, 765.4514
609.1287, 777.4013
609.6108, 784.6448
610.0930, 776.9135
610.5751, 763.8549
611.0572, 755.1113
611.5393, 752.3986
612.0214, 753.3292
612.5035, 759.0908
612.9857, 766.5699
613.4678, 770.4900
613.9499, 770.3640
614.4320, 766.3914
614.9141, 757.5635
615.3962, 745.8360
615.8784, 738.1752
616.3605, 740.8760
616.8426, 738.8959
617.3247, 725.0500
617.8068, 711.3418
618.2889, 709.0830
618.7711, 716.2043
619.2532, 721.6414
619.7353, 717.1088
620.2174, 706.6213
620.6995, 700.5134
