##NAMES=Uchucchacuaite
##RRUFFID=R100213
##IDEAL CHEMISTRY=Ag^1+^Mn^2+^Pb^2+^_3_Sb^3+^_5_S^2-^_12_
##LOCALITY=Uchuc-Chacua, Lima, Peru
##OWNER=RRUFF
##SOURCE=Mark N. Feinglos
##DESCRIPTION=Bright silver metallic massive, associated with quartz
##STATUS=The identification of this mineral is confirmed by single-crystal X-ray diffraction and chemical analysis.
##URL=rruff.info/R100213
##MEASURED CHEMISTRY=Ag_0.99_(Mn_0.92_Pb_0.03_Sb_0.02_Bi_0.01_)_Î£=0.98_Pb_3.00_Sb_5.00_S_12.00_ ; (Note: bright phase is galena, PbS)
160.9945, 1332.802
161.4766, 1333.469
161.9587, 1336.779
162.4408, 1339.500
162.9229, 1341.568
163.4050, 1343.109
163.8871, 1344.154
164.3693, 1344.731
164.8514, 1344.941
165.3335, 1344.959
165.8156, 1342.796
166.2977, 1343.232
166.7798, 1349.165
167.2620, 1357.609
167.7441, 1363.817
168.2262, 1365.482
168.7083, 1364.270
169.1904, 1364.773
169.6725, 1367.241
170.1547, 1370.418
170.6368, 1374.415
171.1189, 1378.881
171.6010, 1382.505
172.0831, 1384.303
172.5652, 1385.174
173.0474, 1386.946
173.5295, 1389.580
174.0116, 1393.150
174.4937, 1398.827
174.9758, 1406.617
175.4579, 1412.093
175.9401, 1410.730
176.4222, 1407.273
176.9043, 1406.975
177.3864, 1411.361
177.8685, 1417.713
178.3506, 1422.480
178.8328, 1425.028
179.3149, 1428.319
179.7970, 1434.054
180.2791, 1440.656
180.7612, 1446.866
181.2433, 1452.287
181.7255, 1457.022
182.2076, 1461.005
182.6897, 1462.784
183.1718, 1466.646
183.6539, 1475.486
184.1360, 1485.668
184.6181, 1492.986
185.1003, 1495.248
185.5824, 1494.313
186.0645, 1496.781
186.5466, 1505.718
187.0287, 1514.676
187.5108, 1522.873
187.9930, 1530.538
188.4751, 1538.012
188.9572, 1545.441
189.4393, 1552.840
189.9214, 1560.203
190.4035, 1566.859
190.8857, 1574.214
191.3678, 1582.508
191.8499, 1591.660
192.3320, 1601.736
192.8141, 1612.935
193.2962, 1624.976
193.7784, 1635.758
194.2605, 1644.401
194.7426, 1653.040
195.2247, 1662.036
195.7068, 1671.558
196.1889, 1682.074
196.6711, 1693.960
197.1532, 1707.096
197.6353, 1720.491
198.1174, 1732.969
198.5995, 1746.744
199.0816, 1763.973
199.5638, 1784.199
200.0459, 1804.020
200.5280, 1821.133
201.0101, 1836.620
201.4922, 1853.333
201.9743, 1871.473
202.4565, 1890.873
202.9386, 1912.043
203.4207, 1935.100
203.9028, 1957.507
204.3849, 1975.857
204.8670, 1993.446
205.3492, 2015.268
205.8313, 2044.219
206.3134, 2075.135
206.7955, 2101.319
207.2776, 2121.973
207.7597, 2141.579
208.2419, 2161.417
208.7240, 2181.569
209.2061, 2201.874
209.6882, 2222.020
210.1703, 2242.839
210.6524, 2266.229
211.1346, 2293.260
211.6167, 2319.722
212.0988, 2344.670
212.5809, 2368.201
213.0630, 2390.412
213.5451, 2411.155
214.0273, 2430.780
214.5094, 2450.156
214.9915, 2470.346
215.4736, 2488.102
215.9557, 2502.011
216.4378, 2514.052
216.9200, 2526.446
217.4021, 2540.138
217.8842, 2554.271
218.3663, 2566.104
218.8484, 2573.068
219.3305, 2581.378
219.8127, 2593.218
220.2948, 2606.111
220.7769, 2617.827
221.2590, 2627.355
221.7411, 2634.642
222.2232, 2639.433
222.7054, 2636.789
223.1875, 2637.615
223.6696, 2645.786
224.1517, 2656.596
224.6338, 2664.563
225.1159, 2667.270
225.5980, 2666.200
226.0802, 2665.608
226.5623, 2666.693
227.0444, 2666.809
227.5265, 2665.420
228.0086, 2663.049
228.4907, 2660.320
228.9729, 2657.489
229.4550, 2654.526
229.9371, 2651.460
230.4192, 2649.866
230.9013, 2645.813
231.3834, 2636.466
231.8656, 2624.783
232.3477, 2615.683
232.8298, 2611.406
233.3119, 2609.062
233.7940, 2601.648
234.2761, 2586.817
234.7583, 2573.887
235.2404, 2565.972
235.7225, 2561.348
236.2046, 2557.159
236.6867, 2552.589
237.1688, 2547.734
237.6510, 2542.969
238.1331, 2538.710
238.6152, 2532.926
239.0973, 2523.136
239.5794, 2511.417
240.0615, 2502.273
240.5437, 2497.002
241.0258, 2494.429
241.5079, 2493.240
241.9900, 2493.335
242.4721, 2494.147
242.9542, 2495.528
243.4364, 2497.464
243.9185, 2499.768
244.4006, 2502.086
244.8827, 2505.464
245.3648, 2511.083
245.8469, 2518.691
246.3290, 2526.905
246.8112, 2535.044
247.2933, 2543.239
247.7754, 2552.280
248.2575, 2562.884
248.7396, 2573.221
249.2217, 2581.152
249.7039, 2587.446
250.1860, 2594.749
250.6681, 2604.153
251.1502, 2615.612
251.6323, 2629.631
252.1144, 2648.021
252.5966, 2665.910
253.0787, 2679.439
253.5608, 2690.285
254.0429, 2702.477
254.5250, 2719.312
255.0071, 2739.253
255.4893, 2756.175
255.9714, 2767.883
256.4535, 2779.956
256.9356, 2795.405
257.4177, 2812.744
257.8998, 2829.781
258.3820, 2845.516
258.8641, 2859.909
259.3462, 2872.765
259.8283, 2883.793
260.3104, 2893.538
260.7925, 2902.629
261.2747, 2910.769
261.7568, 2917.470
262.2389, 2922.448
262.7210, 2926.009
263.2031, 2929.026
263.6852, 2931.149
264.1674, 2933.299
264.6495, 2935.261
265.1316, 2937.521
265.6137, 2940.434
266.0958, 2944.114
266.5779, 2948.819
267.0601, 2955.566
267.5422, 2966.797
268.0243, 2975.530
268.5064, 2980.990
268.9885, 2983.896
269.4706, 2984.522
269.9528, 2983.020
270.4349, 2979.999
270.9170, 2976.269
271.3991, 2970.297
271.8812, 2966.866
272.3633, 2967.470
272.8455, 2969.512
273.3276, 2972.087
273.8097, 2974.550
274.2918, 2975.269
274.7739, 2971.581
275.2560, 2961.812
275.7382, 2950.784
276.2202, 2939.051
276.7024, 2925.946
277.1845, 2910.628
277.6666, 2893.156
278.1487, 2874.612
278.6308, 2856.301
279.1129, 2838.595
279.5951, 2819.844
280.0772, 2799.101
280.5593, 2778.256
281.0414, 2758.553
281.5235, 2739.806
282.0056, 2720.860
282.4878, 2700.652
282.9699, 2678.940
283.4520, 2656.781
283.9341, 2635.112
284.4162, 2612.129
284.8983, 2587.504
285.3805, 2560.992
285.8626, 2532.258
286.3447, 2500.982
286.8268, 2467.304
287.3089, 2431.145
287.7910, 2392.499
288.2732, 2351.776
288.7553, 2309.011
289.2374, 2264.365
289.7195, 2218.586
290.2016, 2172.145
290.6837, 2124.935
291.1659, 2074.820
291.6480, 2017.709
292.1301, 1962.813
292.6122, 1912.380
293.0943, 1864.862
293.5764, 1818.153
294.0586, 1771.061
294.5407, 1724.127
295.0228, 1678.601
295.5049, 1631.424
295.9870, 1589.707
296.4691, 1556.705
296.9513, 1528.009
297.4334, 1499.262
297.9155, 1469.134
298.3976, 1438.171
298.8797, 1407.086
299.3618, 1373.059
299.8440, 1345.026
300.3261, 1325.861
300.8082, 1310.919
301.2903, 1296.557
301.7724, 1282.090
302.2545, 1268.566
302.7367, 1257.275
303.2188, 1248.981
303.7009, 1240.322
304.1830, 1230.016
304.6651, 1220.354
305.1472, 1212.964
305.6294, 1207.727
306.1115, 1203.315
306.5936, 1198.574
307.0757, 1193.429
307.5578, 1189.424
308.0399, 1186.327
308.5221, 1184.338
309.0042, 1184.799
309.4863, 1186.584
309.9684, 1186.812
310.4505, 1183.475
310.9326, 1177.155
311.4148, 1171.993
311.8969, 1167.653
312.3790, 1164.611
312.8611, 1163.354
313.3432, 1163.421
313.8253, 1164.071
314.3075, 1164.971
314.7896, 1166.285
315.2717, 1168.504
315.7538, 1172.797
316.2359, 1176.324
316.7180, 1177.523
317.2001, 1178.438
317.6823, 1181.097
318.1644, 1186.128
318.6465, 1193.224
319.1286, 1201.984
319.6107, 1212.634
320.0928, 1224.762
320.5750, 1237.623
321.0571, 1252.432
321.5392, 1270.571
322.0213, 1291.902
322.5034, 1315.113
322.9855, 1338.918
323.4677, 1363.696
323.9498, 1387.336
324.4319, 1409.010
324.9140, 1430.538
325.3961, 1454.111
325.8782, 1478.584
326.3604, 1500.814
326.8425, 1518.516
327.3246, 1531.954
327.8067, 1544.340
328.2888, 1555.382
328.7709, 1565.922
329.2531, 1576.215
329.7352, 1586.120
330.2173, 1595.342
330.6994, 1603.732
331.1815, 1611.467
331.6636, 1619.064
332.1458, 1623.913
332.6279, 1632.033
333.1100, 1645.129
333.5921, 1660.768
334.0742, 1676.683
334.5563, 1692.127
335.0385, 1708.042
335.5206, 1725.708
336.0027, 1745.993
336.4848, 1766.079
336.9669, 1788.102
337.4490, 1808.486
337.9312, 1825.057
338.4133, 1837.736
338.8954, 1847.416
339.3775, 1854.853
339.8596, 1860.022
340.3417, 1863.273
340.8239, 1868.245
341.3060, 1867.947
341.7881, 1861.031
342.2702, 1846.853
342.7523, 1824.836
343.2344, 1794.796
343.7166, 1756.595
344.1987, 1709.727
344.6808, 1649.028
345.1629, 1584.373
345.6450, 1514.552
346.1271, 1442.410
346.6093, 1370.453
347.0914, 1300.164
347.5735, 1231.205
348.0556, 1164.094
348.5377, 1096.684
349.0198, 1035.103
349.5020, 979.4373
349.9841, 928.5031
350.4662, 882.5355
350.9483, 841.3049
351.4304, 803.7744
351.9125, 769.1746
352.3947, 737.5933
352.8768, 708.8038
353.3589, 684.5619
353.8410, 661.3914
354.3231, 637.4734
354.8052, 613.7443
355.2874, 592.2958
355.7695, 574.8299
356.2516, 560.7132
356.7337, 545.7891
357.2158, 527.4952
357.6979, 512.0865
358.1800, 502.2569
358.6621, 494.9818
359.1443, 486.8679
359.6264, 476.5722
360.1085, 465.6883
360.5906, 457.0975
361.0727, 451.6004
361.5548, 446.3696
362.0370, 442.1239
362.5191, 437.3033
363.0012, 430.3551
363.4833, 421.4241
363.9654, 412.5701
364.4475, 405.8434
364.9297, 401.3411
365.4118, 397.3994
365.8939, 395.2663
366.3760, 392.2746
366.8581, 386.7296
367.3402, 379.6027
367.8224, 372.8640
368.3045, 367.6659
368.7866, 363.6899
369.2687, 360.2600
369.7508, 358.1159
370.2329, 354.8325
370.7151, 348.0623
371.1972, 340.5653
371.6793, 335.2156
372.1614, 333.0429
372.6435, 331.8946
373.1256, 329.0771
373.6078, 324.4564
374.0899, 320.2006
374.5720, 316.8846
375.0541, 313.9908
375.5362, 311.3763
376.0183, 308.9353
376.5005, 306.0929
376.9826, 301.6087
377.4647, 296.2851
377.9468, 293.5033
378.4289, 294.7072
378.9110, 295.6869
379.3932, 292.5840
379.8753, 287.3204
380.3574, 283.6470
380.8395, 283.8725
381.3216, 285.1383
381.8037, 283.5543
382.2859, 279.0484
382.7680, 275.1377
383.2501, 273.6062
383.7322, 273.4395
384.2143, 272.8779
384.6964, 271.7990
385.1786, 270.6636
385.6607, 270.0504
386.1428, 269.5999
386.6249, 268.1192
387.1070, 265.0316
387.5891, 261.7345
388.0713, 260.0215
388.5534, 259.7327
389.0355, 259.3752
389.5176, 259.1695
389.9997, 258.4354
390.4818, 255.8641
390.9640, 251.5621
391.4461, 247.9541
391.9282, 246.7189
392.4103, 247.6087
392.8924, 248.7622
393.3745, 251.3137
393.8567, 252.8776
394.3388, 251.8866
394.8209, 249.3131
395.3030, 246.9508
395.7851, 245.4172
396.2672, 244.5532
396.7494, 244.1984
397.2315, 245.0211
397.7136, 244.6720
398.1957, 241.0909
398.6778, 237.6054
399.1599, 237.6691
399.6420, 241.1638
400.1241, 244.8649
400.6063, 245.9215
401.0884, 244.2655
401.5705, 242.3188
402.0526, 239.1058
402.5347, 236.7110
403.0168, 236.2360
403.4990, 236.9103
403.9811, 237.4766
404.4632, 237.3292
404.9453, 236.8016
405.4274, 236.7710
405.9095, 238.1786
406.3917, 238.4377
406.8738, 236.7336
407.3559, 234.5253
407.8380, 232.7810
408.3201, 231.6432
408.8022, 230.7218
409.2844, 229.6110
409.7665, 228.2937
410.2486, 227.0910
410.7307, 225.1900
411.2128, 224.3721
411.6949, 226.1800
412.1771, 229.1986
412.6592, 231.1600
413.1413, 230.8802
413.6234, 229.1696
414.1055, 227.6026
414.5876, 226.0229
415.0698, 225.0542
415.5519, 225.9297
416.0340, 226.7424
416.5161, 225.4802
416.9982, 222.1239
417.4803, 219.6378
417.9625, 221.5173
418.4446, 226.9386
418.9267, 230.1316
419.4088, 229.9671
419.8909, 228.8262
420.3730, 228.0650
420.8552, 227.5178
421.3373, 226.8492
421.8194, 225.8559
422.3015, 224.7875
422.7836, 224.0354
423.2657, 223.5939
423.7479, 222.8523
424.2300, 221.1931
424.7121, 219.4607
425.1942, 218.9199
425.6763, 219.6934
426.1584, 220.9371
426.6406, 223.1016
427.1227, 225.2765
427.6048, 225.4026
428.0869, 222.9825
428.5690, 220.6695
429.0511, 221.1742
429.5333, 224.5110
430.0154, 226.5020
430.4975, 227.0472
430.9796, 226.3250
431.4617, 223.0243
431.9438, 218.4697
432.4260, 216.2493
432.9081, 218.2915
433.3902, 222.7237
433.8723, 225.0975
434.3544, 223.4381
434.8365, 222.9385
435.3187, 224.9237
435.8008, 227.3598
436.2829, 228.7740
436.7650, 228.8982
437.2471, 227.9500
437.7292, 225.9650
438.2114, 222.8865
438.6935, 220.7490
439.1756, 220.4457
439.6577, 220.1040
440.1398, 218.5121
440.6219, 216.8919
441.1040, 217.4053
441.5862, 220.9433
442.0683, 225.4057
442.5504, 226.5947
443.0325, 223.0335
443.5146, 220.7526
443.9967, 221.7682
444.4789, 222.9310
444.9610, 222.3783
445.4431, 220.4012
445.9252, 218.5618
446.4073, 217.9167
446.8894, 218.3115
447.3716, 219.4908
447.8537, 222.2511
448.3358, 223.7840
448.8179, 221.3123
449.3000, 217.6286
449.7821, 215.8662
450.2643, 216.9335
450.7464, 218.6618
451.2285, 219.1943
451.7106, 218.7629
452.1927, 218.5398
452.6748, 218.8431
453.1570, 219.2224
453.6391, 219.1034
454.1212, 218.6134
454.6033, 218.3675
455.0854, 219.0932
455.5675, 219.6914
456.0497, 218.8640
456.5318, 216.8416
457.0139, 215.0341
457.4960, 214.0741
457.9781, 213.8935
458.4602, 214.4152
458.9424, 215.8713
459.4245, 217.3975
459.9066, 219.9482
460.3887, 221.8750
460.8708, 220.7764
461.3529, 216.6614
461.8351, 212.2988
462.3172, 210.2547
462.7993, 210.6046
463.2814, 211.3652
463.7635, 213.3230
464.2456, 214.7615
464.7278, 215.4312
465.2099, 215.2676
465.6920, 213.7181
466.1741, 210.6425
466.6562, 207.5890
467.1383, 207.5875
467.6205, 212.2311
468.1026, 214.9556
468.5847, 214.0263
469.0668, 212.4858
469.5489, 211.5165
470.0310, 211.0608
470.5132, 210.6608
470.9953, 210.1326
471.4774, 209.3804
471.9595, 207.9540
472.4416, 205.5211
472.9237, 203.6667
473.4059, 203.4803
473.8880, 203.8344
474.3701, 203.6208
474.8522, 202.6945
475.3343, 202.0111
475.8164, 202.3268
476.2986, 203.3328
476.7807, 204.6501
477.2628, 206.5070
477.7449, 207.0832
478.2270, 203.7390
478.7091, 197.8469
479.1913, 195.2097
479.6734, 199.3960
480.1555, 203.2436
480.6376, 201.7365
481.1197, 197.3584
481.6018, 195.7263
482.0839, 198.7931
482.5660, 203.4970
483.0482, 205.7079
483.5303, 204.8882
484.0124, 202.9937
484.4945, 197.9325
484.9766, 193.8235
485.4587, 193.5441
485.9409, 196.0195
486.4230, 198.5517
486.9051, 199.6827
487.3872, 199.5552
487.8693, 198.4177
488.3514, 195.0686
488.8336, 192.9882
489.3157, 193.2112
489.7978, 193.9571
490.2799, 194.3315
490.7620, 194.1309
491.2441, 193.2646
491.7263, 191.2808
492.2084, 188.5945
492.6905, 187.3208
493.1726, 187.9221
493.6547, 188.8341
494.1368, 189.7056
494.6190, 190.4221
495.1011, 190.6774
495.5832, 190.3180
496.0653, 190.2951
496.5474, 192.1028
497.0295, 194.8451
497.5117, 195.3983
497.9938, 192.8326
498.4759, 190.0534
498.9580, 189.4764
499.4401, 190.7817
499.9222, 191.9889
500.4044, 193.7558
500.8865, 194.6065
501.3686, 192.8374
501.8507, 189.7250
502.3328, 188.0013
502.8149, 188.6287
503.2971, 190.3186
503.7792, 191.2914
504.2613, 191.3709
504.7434, 191.3173
505.2255, 191.5534
505.7076, 191.2639
506.1898, 188.9283
506.6719, 185.8909
507.1540, 185.1969
507.6361, 188.5610
508.1182, 193.8665
508.6003, 196.1202
509.0825, 194.3306
509.5646, 192.1421
510.0467, 188.8762
510.5288, 186.1792
511.0109, 185.2894
511.4930, 185.8641
511.9752, 186.5289
512.4573, 186.6526
512.9394, 186.1508
513.4215, 184.4373
513.9036, 181.1720
514.3857, 178.8287
514.8679, 178.6857
515.3500, 179.7441
515.8321, 180.7730
516.3142, 181.7745
516.7963, 182.5020
517.2784, 183.0113
517.7606, 183.1122
518.2427, 182.2077
518.7248, 180.3301
519.2069, 178.7934
519.6890, 178.4960
520.1711, 179.2375
520.6533, 180.0544
521.1354, 181.3544
521.6175, 182.1895
522.0996, 182.1911
522.5817, 181.7761
523.0638, 181.0777
523.5460, 180.2814
524.0281, 180.0806
524.5102, 181.3999
524.9923, 184.1466
525.4744, 184.8779
525.9565, 180.7376
526.4387, 178.3322
526.9208, 180.9106
527.4029, 184.7883
527.8850, 185.7798
528.3671, 182.9254
528.8492, 179.1468
529.3314, 177.0603
529.8135, 176.6331
530.2956, 178.0485
530.7777, 182.7708
531.2598, 186.3042
531.7419, 184.0341
532.2241, 179.1097
532.7062, 176.8105
533.1883, 179.4144
533.6704, 182.0778
534.1525, 180.8428
534.6346, 177.2611
535.1168, 175.0952
535.5989, 175.2655
536.0810, 176.1467
536.5631, 176.2057
537.0452, 175.3956
537.5273, 174.3672
538.0095, 172.1180
538.4916, 170.7787
538.9737, 172.0584
539.4558, 174.4332
539.9379, 175.5719
540.4200, 174.7457
540.9022, 173.0393
541.3843, 171.8963
541.8664, 171.3767
542.3485, 171.1006
542.8306, 172.0212
543.3127, 172.1167
543.7948, 169.9322
544.2769, 166.7579
544.7590, 164.5559
545.2411, 164.0715
545.7233, 164.4694
546.2054, 164.6849
546.6875, 164.7731
547.1696, 165.7208
547.6517, 168.2237
548.1339, 170.5644
548.6160, 171.0816
549.0981, 170.2605
549.5802, 169.3192
550.0623, 168.3256
550.5444, 167.4372
551.0266, 166.3491
551.5087, 165.4725
551.9908, 166.2134
552.4729, 169.0792
552.9550, 171.9875
553.4371, 172.2592
553.9193, 169.3854
554.4014, 166.8557
554.8835, 163.9340
555.3656, 162.1055
555.8477, 162.5830
556.3298, 164.2641
556.8120, 165.7527
557.2941, 166.5023
557.7762, 166.4124
558.2583, 164.9577
558.7404, 161.8470
559.2225, 159.8529
559.7047, 159.1467
560.1868, 159.5511
560.6689, 162.0754
561.1510, 165.2533
561.6331, 166.5003
562.1152, 164.6791
562.5974, 161.7613
563.0795, 158.8107
563.5616, 156.1734
564.0437, 155.4782
564.5258, 157.3951
565.0079, 159.6304
565.4901, 159.8940
565.9722, 158.3154
566.4543, 157.9343
566.9364, 160.2861
567.4185, 162.0742
567.9006, 162.1045
568.3828, 160.7873
568.8649, 158.1217
569.3470, 154.3704
569.8291, 151.2048
570.3112, 150.8566
570.7933, 153.5608
571.2755, 154.8042
571.7576, 153.5295
572.2397, 152.0505
572.7218, 150.4089
573.2039, 149.1127
573.6860, 148.9283
574.1682, 150.0100
574.6503, 151.2198
575.1324, 151.4146
575.6145, 150.8089
576.0966, 150.4008
576.5787, 150.3374
577.0609, 150.1152
577.5430, 149.2535
578.0251, 148.0766
578.5072, 147.4074
578.9893, 147.5581
579.4714, 147.5482
579.9536, 146.9565
580.4357, 146.0257
580.9178, 144.6902
581.3999, 143.1378
581.8820, 142.3850
582.3641, 143.2982
582.8463, 145.5977
583.3284, 147.7277
583.8105, 151.2936
584.2926, 152.2099
584.7747, 147.8094
585.2568, 142.5878
585.7390, 139.9412
586.2211, 139.9355
586.7032, 140.6688
587.1853, 140.9854
587.6674, 140.9277
588.1495, 140.2394
588.6317, 138.6016
589.1138, 138.5211
589.5959, 142.3892
590.0780, 146.6455
590.5601, 146.6458
591.0422, 142.4782
591.5244, 139.0078
592.0065, 137.9022
592.4886, 137.9764
592.9707, 138.4916
593.4528, 139.3045
593.9349, 140.2682
594.4171, 141.3628
594.8992, 142.1923
595.3813, 141.9405
595.8634, 139.8472
596.3455, 138.9484
596.8276, 140.9294
597.3098, 142.1692
597.7919, 140.3088
598.2740, 136.8798
598.7561, 134.7584
599.2382, 135.1671
599.7203, 136.1703
600.2025, 134.3533
600.6846, 129.8613
601.1667, 128.9476
601.6488, 134.2189
602.1309, 139.1219
602.6130, 137.8026
603.0952, 133.0797
603.5773, 130.6695
604.0594, 132.2906
604.5415, 134.3985
605.0236, 135.7006
605.5057, 136.1427
605.9879, 135.0334
606.4700, 132.5047
606.9521, 130.7625
607.4342, 131.9251
607.9163, 135.3936
608.3984, 136.5865
608.8806, 133.2823
609.3627, 130.6702
609.8448, 129.4005
610.3269, 128.7961
610.8090, 128.4259
611.2911, 128.2048
611.7733, 128.1898
612.2554, 128.5583
612.7375, 129.0349
613.2196, 128.9730
613.7017, 128.3451
614.1838, 127.3823
614.6660, 125.8023
615.1481, 124.3363
615.6302, 124.2748
616.1123, 125.4872
616.5944, 125.5406
617.0765, 122.4274
617.5587, 119.4352
618.0408, 118.8597
618.5229, 120.0994
619.0050, 121.8908
619.4871, 123.7681
619.9692, 125.4931
620.4514, 126.7880
620.9335, 127.6944
621.4156, 127.8716
621.8977, 126.6288
622.3798, 125.4465
622.8619, 124.5995
623.3441, 124.0636
623.8262, 123.9900
624.3083, 124.3863
624.7904, 124.5178
625.2725, 123.3105
625.7546, 121.4075
626.2367, 120.8650
626.7188, 121.9258
627.2009, 122.5767
627.6830, 121.4160
628.1652, 119.4693
628.6473, 119.3828
629.1294, 122.0695
629.6115, 123.3673
630.0936, 121.2842
630.5757, 118.8003
631.0579, 118.6410
631.5400, 119.9256
632.0221, 119.5831
632.5042, 115.9904
632.9863, 111.4516
633.4684, 110.5188
633.9506, 113.9716
634.4327, 117.2347
634.9148, 120.6043
635.3969, 123.0309
635.8790, 124.1108
636.3611, 123.9786
636.8433, 122.6876
637.3254, 119.9345
637.8075, 117.0661
638.2896, 114.6512
638.7717, 112.9271
639.2538, 112.7736
639.7360, 114.2388
640.2181, 115.3906
640.7002, 114.7408
641.1823, 112.8191
641.6644, 111.7797
642.1465, 112.5255
642.6287, 112.9467
643.1108, 112.9598
643.5929, 112.6964
644.0750, 111.9970
644.5571, 111.0960
645.0392, 110.6668
645.5214, 111.2495
646.0035, 111.9382
646.4856, 110.8444
646.9677, 107.9785
647.4498, 105.9426
647.9319, 105.2259
648.4141, 105.3493
648.8962, 106.0013
649.3783, 107.2010
649.8604, 109.0770
650.3425, 113.4319
650.8246, 116.0221
651.3068, 113.3662
651.7889, 108.9651
652.2710, 107.4797
652.7531, 109.2127
653.2352, 111.1102
653.7173, 110.7834
654.1995, 108.7228
654.6816, 106.8473
