##NAMES=Ulexite
##RRUFFID=R050062
##IDEAL CHEMISTRY=NaCaB_5_O_6_(OH)_6_&#183;5H_2_O
##LOCALITY=California, USA
##OWNER=RRUFF
##SOURCE=Rock Currier
##DESCRIPTION=Compact parallel fibrous group
##STATUS=The identification of this mineral has been confirmed by X-ray diffraction and chemical analysis
##URL=rruff.info/R050062
##MEASURED CHEMISTRY=(Na_0.60_Ca_0.20_[box]_20_)_Σ=1_Ca_1.00_B_5.00_O_6_(OH)_6_·5H_2_O ; B not measured but assumed by stoichiometry and charge balance.
167.7847, 11818.55
168.2668, 11892.72
168.7490, 11966.40
169.2311, 12041.80
169.7132, 12112.10
170.1953, 12182.81
170.6774, 12245.91
171.1595, 12285.93
171.6417, 12289.00
172.1238, 12267.29
172.6059, 12252.68
173.0880, 12253.08
173.5701, 12243.97
174.0522, 12197.40
174.5344, 12138.39
175.0165, 12106.11
175.4986, 12128.11
175.9807, 12183.66
176.4628, 12214.20
176.9449, 12205.67
177.4271, 12197.23
177.9092, 12193.09
178.3913, 12200.42
178.8734, 12232.97
179.3555, 12306.02
179.8376, 12401.16
180.3197, 12461.04
180.8019, 12459.55
181.2840, 12468.52
181.7661, 12510.18
182.2482, 12573.59
182.7303, 12646.80
183.2124, 12725.89
183.6946, 12808.29
184.1767, 12888.91
184.6588, 12976.21
185.1409, 13044.04
185.6230, 13078.48
186.1051, 13095.56
186.5873, 13113.27
187.0694, 13139.85
187.5515, 13171.99
188.0336, 13201.11
188.5157, 13223.13
188.9978, 13249.02
189.4800, 13282.49
189.9621, 13319.53
190.4442, 13356.04
190.9263, 13389.81
191.4084, 13423.04
191.8905, 13461.85
192.3727, 13512.62
192.8548, 13557.68
193.3369, 13601.35
193.8190, 13635.94
194.3011, 13650.01
194.7832, 13638.69
195.2654, 13615.56
195.7475, 13612.86
196.2296, 13653.23
196.7117, 13670.52
197.1938, 13648.70
197.6759, 13608.65
198.1581, 13567.52
198.6402, 13531.15
199.1223, 13495.35
199.6044, 13451.82
200.0865, 13395.77
200.5686, 13341.04
201.0508, 13291.39
201.5329, 13241.65
202.0150, 13186.68
202.4971, 13125.30
202.9792, 13063.60
203.4613, 13010.71
203.9435, 12966.99
204.4256, 12932.60
204.9077, 12905.42
205.3898, 12887.00
205.8719, 12880.52
206.3540, 12885.68
206.8362, 12897.05
207.3183, 12906.37
207.8004, 12908.63
208.2825, 12922.14
208.7646, 12954.67
209.2467, 12991.01
209.7289, 13025.63
210.2110, 13056.02
210.6931, 13079.45
211.1752, 13089.06
211.6573, 13075.72
212.1395, 13082.75
212.6216, 13128.95
213.1037, 13177.85
213.5858, 13215.74
214.0679, 13240.05
214.5500, 13252.59
215.0322, 13254.27
215.5143, 13244.19
215.9964, 13228.74
216.4785, 13206.52
216.9606, 13180.25
217.4427, 13148.66
217.9249, 13113.36
218.4070, 13077.51
218.8891, 13043.09
219.3712, 13010.00
219.8533, 12982.60
220.3354, 12969.27
220.8176, 12953.69
221.2997, 12932.98
221.7818, 12906.56
222.2639, 12871.00
222.7460, 12819.85
223.2281, 12757.39
223.7103, 12734.12
224.1924, 12791.04
224.6745, 12845.42
225.1566, 12882.51
225.6387, 12905.87
226.1208, 12921.08
226.6030, 12930.15
227.0851, 12935.90
227.5672, 12950.65
228.0493, 12985.31
228.5314, 13014.53
229.0135, 13038.16
229.4957, 13052.93
229.9778, 13053.70
230.4599, 13037.83
230.9420, 13011.01
231.4241, 12988.15
231.9062, 12979.10
232.3884, 12956.04
232.8705, 12903.56
233.3526, 12844.34
233.8347, 12796.65
234.3168, 12766.81
234.7989, 12749.82
235.2811, 12739.56
235.7632, 12742.85
236.2453, 12736.20
236.7274, 12712.19
237.2095, 12682.71
237.6916, 12650.25
238.1738, 12617.56
238.6559, 12593.83
239.1380, 12595.50
239.6201, 12633.92
240.1022, 12655.52
240.5843, 12641.62
241.0665, 12624.32
241.5486, 12623.82
242.0307, 12637.46
242.5128, 12644.67
242.9949, 12619.38
243.4770, 12557.03
243.9592, 12516.98
244.4413, 12514.81
244.9234, 12521.97
245.4055, 12531.79
245.8876, 12542.64
246.3697, 12552.80
246.8519, 12559.80
247.3340, 12564.64
247.8161, 12576.51
248.2982, 12601.24
248.7803, 12625.58
249.2624, 12645.06
249.7446, 12661.18
250.2267, 12676.42
250.7088, 12692.25
251.1909, 12708.04
251.6730, 12720.64
252.1551, 12724.86
252.6373, 12737.06
253.1194, 12761.13
253.6015, 12795.20
254.0836, 12839.70
254.5657, 12896.42
255.0478, 12957.25
255.5300, 13011.73
256.0121, 13061.25
256.4942, 13098.33
256.9763, 13110.71
257.4584, 13115.26
257.9406, 13121.88
258.4227, 13132.42
258.9048, 13148.88
259.3869, 13177.96
259.8690, 13220.69
260.3511, 13252.80
260.8333, 13263.86
261.3154, 13267.65
261.7975, 13278.64
262.2796, 13295.91
262.7617, 13301.00
263.2438, 13273.66
263.7260, 13219.77
264.2081, 13175.10
264.6902, 13148.76
265.1723, 13123.62
265.6544, 13082.53
266.1365, 13031.01
266.6187, 12988.37
267.1008, 12971.35
267.5829, 12967.98
268.0650, 12951.26
268.5471, 12916.65
269.0292, 12881.56
269.5114, 12857.87
269.9935, 12842.04
270.4756, 12829.23
270.9577, 12819.80
271.4398, 12811.58
271.9219, 12803.70
272.4041, 12796.26
272.8862, 12783.68
273.3683, 12758.22
273.8504, 12728.22
274.3325, 12709.58
274.8146, 12706.65
275.2968, 12708.52
275.7789, 12708.19
276.2610, 12706.57
276.7431, 12707.09
277.2252, 12710.18
277.7073, 12717.25
278.1895, 12730.06
278.6716, 12747.83
279.1537, 12771.95
279.6358, 12804.24
280.1179, 12842.95
280.6000, 12888.09
281.0822, 12941.43
281.5643, 12990.94
282.0464, 13019.31
282.5285, 13024.31
283.0106, 13035.01
283.4927, 13055.18
283.9749, 13082.06
284.4570, 13115.24
284.9391, 13154.06
285.4212, 13193.42
285.9033, 13228.00
286.3854, 13258.17
286.8676, 13297.02
287.3497, 13358.89
287.8318, 13414.83
288.3139, 13441.94
288.7960, 13450.90
289.2781, 13474.54
289.7603, 13534.95
290.2424, 13617.35
290.7245, 13657.25
291.2066, 13598.45
291.6887, 13569.49
292.1708, 13606.74
292.6530, 13678.18
293.1351, 13749.98
293.6172, 13809.67
294.0993, 13853.58
294.5814, 13872.12
295.0635, 13832.61
295.5457, 13831.38
296.0278, 13902.66
296.5099, 13984.48
296.9920, 14030.88
297.4741, 14038.82
297.9562, 14035.62
298.4384, 14049.76
298.9205, 14084.48
299.4026, 14114.44
299.8847, 14149.26
300.3668, 14170.01
300.8489, 14165.33
301.3311, 14141.29
301.8131, 14111.39
302.2953, 14084.95
302.7774, 14059.38
303.2595, 14019.59
303.7416, 13944.43
304.2237, 13887.01
304.7058, 13868.90
305.1880, 13867.39
305.6701, 13861.36
306.1522, 13843.33
306.6343, 13811.62
307.1164, 13756.23
307.5985, 13665.21
308.0807, 13596.11
308.5628, 13575.87
309.0449, 13569.70
309.5270, 13557.98
310.0091, 13539.08
310.4912, 13524.80
310.9734, 13529.78
311.4555, 13551.65
311.9376, 13562.42
312.4197, 13548.45
312.9018, 13540.57
313.3839, 13569.47
313.8661, 13619.92
314.3482, 13651.03
314.8303, 13629.33
315.3124, 13583.70
315.7945, 13568.19
316.2766, 13588.12
316.7588, 13606.96
317.2409, 13600.71
317.7230, 13582.35
318.2051, 13574.04
318.6872, 13583.34
319.1693, 13594.33
319.6515, 13595.68
320.1336, 13588.71
320.6157, 13579.10
321.0978, 13568.41
321.5799, 13556.48
322.0620, 13541.78
322.5442, 13523.44
323.0263, 13508.22
323.5084, 13493.87
323.9905, 13485.40
324.4726, 13492.83
324.9547, 13517.78
325.4369, 13545.84
325.9190, 13565.29
326.4011, 13575.27
326.8832, 13572.43
327.3653, 13533.85
327.8474, 13503.81
328.3296, 13517.51
328.8117, 13562.33
329.2938, 13597.94
329.7759, 13600.04
330.2580, 13576.23
330.7401, 13560.86
331.2223, 13554.28
331.7044, 13555.80
332.1865, 13575.66
332.6686, 13598.90
333.1507, 13609.51
333.6328, 13602.66
334.1150, 13584.64
334.5971, 13563.07
335.0792, 13533.15
335.5613, 13513.41
336.0434, 13508.11
336.5255, 13507.90
337.0077, 13510.81
337.4898, 13515.03
337.9719, 13518.08
338.4540, 13519.23
338.9361, 13517.63
339.4182, 13502.33
339.9004, 13447.14
340.3825, 13418.80
340.8646, 13454.99
341.3467, 13519.20
341.8288, 13565.52
342.3109, 13576.05
342.7931, 13567.23
343.2752, 13562.64
343.7573, 13563.38
344.2394, 13560.27
344.7215, 13549.16
345.2036, 13534.73
345.6858, 13520.26
346.1679, 13505.96
346.6500, 13491.63
347.1321, 13474.21
347.6142, 13456.71
348.0963, 13450.83
348.5785, 13463.02
349.0606, 13470.21
349.5427, 13447.51
350.0248, 13404.31
350.5069, 13367.95
350.9890, 13340.08
351.4712, 13323.12
351.9533, 13322.75
352.4354, 13336.51
352.9175, 13352.69
353.3996, 13367.41
353.8817, 13379.29
354.3639, 13384.30
354.8460, 13383.13
355.3281, 13375.88
355.8102, 13355.19
356.2923, 13331.72
356.7744, 13318.93
357.2566, 13319.39
357.7387, 13325.88
358.2208, 13329.38
358.7029, 13326.95
359.1850, 13339.52
359.6671, 13378.87
360.1493, 13419.05
360.6314, 13459.88
361.1135, 13491.99
361.5956, 13493.56
362.0777, 13448.29
362.5598, 13374.68
363.0420, 13341.30
363.5241, 13373.92
364.0062, 13407.67
364.4883, 13446.91
364.9704, 13476.52
365.4525, 13475.66
365.9347, 13443.33
366.4168, 13409.48
366.8989, 13413.63
367.3810, 13459.11
367.8631, 13486.56
368.3452, 13483.41
368.8274, 13473.52
369.3095, 13470.16
369.7916, 13470.13
370.2737, 13464.34
370.7558, 13441.22
371.2379, 13415.89
371.7201, 13418.84
372.2022, 13453.42
372.6843, 13484.25
373.1664, 13498.23
373.6485, 13498.14
374.1306, 13490.02
374.6128, 13473.86
375.0949, 13450.38
375.5770, 13416.99
376.0591, 13377.18
376.5412, 13332.28
377.0233, 13280.10
377.5055, 13243.56
377.9876, 13258.00
378.4697, 13330.78
378.9518, 13351.04
379.4339, 13261.94
379.9160, 13169.91
380.3982, 13142.60
380.8803, 13165.84
381.3624, 13194.54
381.8445, 13205.65
382.3266, 13200.80
382.8087, 13184.30
383.2909, 13130.18
383.7730, 13099.49
384.2551, 13113.62
384.7372, 13138.26
385.2193, 13144.85
385.7014, 13129.50
386.1836, 13107.63
386.6657, 13096.60
387.1478, 13097.60
387.6299, 13086.43
388.1120, 13037.34
388.5941, 13006.69
389.0763, 13030.58
389.5584, 13080.02
390.0405, 13108.04
390.5226, 13091.93
391.0047, 13054.58
391.4868, 13035.35
391.9690, 13037.90
392.4511, 13023.56
392.9332, 12971.72
393.4153, 12907.94
393.8974, 12851.32
394.3795, 12802.40
394.8617, 12772.27
395.3438, 12777.29
395.8259, 12800.79
396.3080, 12817.13
396.7901, 12824.17
397.2722, 12822.87
397.7544, 12812.31
398.2365, 12793.42
398.7186, 12773.40
399.2007, 12753.90
399.6828, 12731.71
400.1649, 12692.61
400.6471, 12653.01
401.1292, 12647.40
401.6113, 12687.36
402.0934, 12739.67
402.5755, 12754.04
403.0576, 12712.67
403.5398, 12686.39
404.0219, 12686.44
404.5040, 12688.71
404.9861, 12678.63
405.4682, 12660.19
405.9503, 12645.63
406.4325, 12642.76
406.9146, 12649.33
407.3967, 12657.09
407.8788, 12663.35
408.3609, 12676.67
408.8430, 12711.57
409.3252, 12745.25
409.8073, 12758.70
410.2894, 12749.43
410.7715, 12730.45
411.2536, 12702.51
411.7357, 12671.29
412.2179, 12671.19
412.7000, 12714.72
413.1821, 12764.63
413.6642, 12796.06
414.1463, 12815.45
414.6284, 12833.15
415.1106, 12846.72
415.5927, 12864.58
416.0748, 12901.93
416.5569, 12949.76
417.0390, 12978.43
417.5211, 12976.25
418.0033, 12956.56
418.4854, 12936.36
418.9675, 12911.72
419.4496, 12902.10
419.9317, 12917.07
420.4138, 12940.15
420.8960, 12969.07
421.3781, 12997.34
421.8602, 13007.36
422.3423, 12985.10
422.8244, 12941.52
423.3065, 12925.55
423.7887, 12967.27
424.2708, 12989.60
424.7529, 12968.77
425.2350, 12937.86
425.7171, 12921.18
426.1992, 12923.32
426.6814, 12937.38
427.1635, 12962.32
427.6456, 12996.61
428.1277, 13015.90
428.6098, 13005.52
429.0919, 13008.60
429.5741, 13057.02
430.0562, 13130.12
430.5383, 13200.39
431.0204, 13266.03
431.5025, 13317.61
431.9846, 13333.08
432.4668, 13325.55
432.9489, 13347.63
433.4310, 13419.74
433.9131, 13500.92
434.3952, 13540.60
434.8773, 13533.63
435.3595, 13534.68
435.8416, 13545.86
436.3237, 13566.38
436.8058, 13606.99
437.2879, 13656.72
437.7701, 13687.28
438.2522, 13682.90
438.7343, 13658.68
439.2164, 13656.97
439.6985, 13726.68
440.1806, 13728.53
440.6628, 13609.82
441.1449, 13472.48
441.6270, 13376.36
442.1091, 13323.83
442.5912, 13290.14
443.0733, 13264.13
443.5555, 13240.01
444.0376, 13191.30
444.5197, 13106.74
445.0018, 13029.08
445.4839, 12983.33
445.9660, 12947.55
446.4482, 12897.27
446.9303, 12826.99
447.4124, 12764.05
447.8945, 12734.00
448.3766, 12721.38
448.8587, 12691.08
449.3409, 12637.03
449.8230, 12583.64
450.3051, 12548.71
450.7872, 12531.75
451.2693, 12521.18
451.7514, 12530.65
452.2336, 12530.26
452.7157, 12504.33
453.1978, 12464.76
453.6799, 12424.61
454.1620, 12388.75
454.6441, 12362.13
455.1263, 12352.79
455.6084, 12364.43
456.0905, 12372.37
456.5726, 12371.08
457.0547, 12371.60
457.5368, 12379.58
458.0190, 12391.04
458.5011, 12398.72
458.9832, 12398.92
459.4653, 12397.55
459.9474, 12406.28
460.4295, 12425.39
460.9117, 12432.25
461.3938, 12412.95
461.8759, 12393.36
462.3580, 12401.86
462.8401, 12432.50
463.3222, 12453.74
463.8044, 12444.09
464.2865, 12431.73
464.7686, 12443.63
465.2507, 12475.38
465.7328, 12507.49
466.2149, 12531.10
466.6971, 12552.31
467.1792, 12583.86
467.6613, 12641.39
468.1434, 12674.90
468.6255, 12657.25
469.1076, 12639.59
469.5898, 12655.44
470.0719, 12699.71
470.5540, 12750.66
471.0361, 12796.20
471.5182, 12835.45
472.0003, 12864.97
472.4825, 12879.11
472.9646, 12898.42
473.4467, 12928.95
473.9288, 12964.96
474.4109, 13006.08
474.8930, 13050.92
475.3752, 13091.81
475.8573, 13123.83
476.3394, 13149.26
476.8215, 13170.40
477.3036, 13187.23
477.7857, 13205.91
478.2679, 13230.01
478.7500, 13257.49
479.2321, 13285.27
479.7142, 13319.01
480.1963, 13339.43
480.6784, 13329.95
481.1606, 13314.25
481.6427, 13315.98
482.1248, 13334.65
482.6069, 13354.82
483.0890, 13366.32
483.5711, 13368.26
484.0533, 13355.13
484.5354, 13318.85
485.0175, 13279.93
485.4996, 13230.10
485.9817, 13186.89
486.4638, 13172.80
486.9460, 13185.62
487.4281, 13192.14
487.9102, 13160.01
488.3923, 13101.91
488.8744, 13057.33
489.3565, 13028.89
489.8387, 13001.23
490.3208, 12969.74
490.8029, 12932.39
491.2850, 12883.31
491.7671, 12812.64
492.2492, 12758.41
492.7314, 12745.99
493.2135, 12750.13
493.6956, 12745.36
494.1777, 12728.01
494.6598, 12701.76
495.1419, 12668.23
495.6241, 12628.95
496.1062, 12592.68
496.5883, 12557.40
497.0704, 12528.78
497.5525, 12513.83
498.0346, 12500.87
498.5168, 12478.23
498.9989, 12446.05
499.4810, 12415.73
499.9631, 12396.20
500.4452, 12386.01
500.9273, 12381.86
501.4095, 12385.89
501.8916, 12386.63
502.3737, 12377.05
502.8558, 12362.33
503.3379, 12350.20
503.8200, 12340.48
504.3022, 12334.89
504.7843, 12339.17
505.2664, 12345.03
505.7485, 12339.92
506.2306, 12324.85
506.7127, 12314.74
507.1949, 12321.27
507.6770, 12338.22
508.1591, 12337.97
508.6412, 12299.59
509.1233, 12274.50
509.6054, 12266.22
510.0876, 12270.80
510.5697, 12292.61
511.0518, 12326.50
511.5339, 12355.19
512.0161, 12365.76
512.4982, 12362.53
512.9803, 12353.18
513.4624, 12334.82
513.9445, 12329.68
514.4266, 12355.83
514.9088, 12390.15
515.3909, 12397.32
515.8730, 12374.03
516.3551, 12366.89
516.8372, 12393.94
517.3193, 12440.29
517.8015, 12501.96
518.2836, 12572.32
518.7657, 12632.12
519.2478, 12670.39
519.7299, 12694.23
520.2120, 12720.35
520.6942, 12751.37
521.1763, 12779.80
521.6584, 12795.77
522.1405, 12818.48
522.6226, 12862.33
523.1047, 12921.63
523.5869, 12979.00
524.0690, 13023.45
524.5511, 13066.29
525.0332, 13131.87
525.5153, 13219.97
525.9974, 13291.03
526.4796, 13330.15
526.9617, 13358.64
527.4438, 13408.09
527.9259, 13473.95
528.4080, 13503.31
528.8901, 13470.60
529.3723, 13417.32
529.8544, 13358.58
530.3365, 13298.73
530.8186, 13247.66
531.3007, 13208.05
531.7828, 13167.75
532.2650, 13109.84
532.7471, 13032.05
533.2292, 12948.92
533.7113, 12846.75
534.1934, 12754.87
534.6755, 12683.20
535.1577, 12626.56
535.6398, 12579.88
536.1219, 12542.62
536.6040, 12504.47
537.0861, 12445.73
537.5682, 12378.07
538.0504, 12346.93
538.5325, 12362.56
539.0146, 12376.98
539.4967, 12352.19
539.9788, 12298.51
540.4609, 12268.40
540.9431, 12286.67
541.4252, 12291.46
541.9073, 12258.72
542.3894, 12214.50
542.8715, 12181.93
543.3536, 12163.90
543.8358, 12152.32
544.3179, 12140.88
544.8000, 12130.51
545.2821, 12124.62
545.7642, 12121.90
546.2463, 12127.42
546.7285, 12150.15
547.2106, 12176.05
547.6927, 12197.57
548.1748, 12213.56
548.6569, 12219.01
549.1390, 12195.21
549.6211, 12171.27
550.1032, 12192.87
550.5853, 12246.83
551.0674, 12268.17
551.5496, 12226.63
552.0317, 12164.31
552.5138, 12151.61
552.9959, 12210.57
553.4780, 12244.62
553.9601, 12238.26
554.4423, 12227.50
554.9244, 12227.61
555.4065, 12232.59
555.8886, 12230.54
556.3707, 12216.89
556.8528, 12200.65
557.3350, 12192.11
557.8171, 12190.70
558.2992, 12194.86
558.7813, 12209.51
559.2634, 12212.71
559.7455, 12177.84
560.2277, 12121.94
560.7098, 12099.32
561.1919, 12125.19
561.6740, 12158.19
562.1561, 12200.81
562.6382, 12234.87
563.1204, 12229.78
563.6025, 12191.49
564.0846, 12163.55
564.5667, 12180.11
565.0488, 12227.28
565.5309, 12250.04
566.0131, 12240.82
566.4952, 12226.21
566.9773, 12190.23
567.4594, 12167.20
567.9415, 12185.05
568.4236, 12237.72
568.9058, 12293.43
569.3879, 12340.94
569.8700, 12384.06
570.3521, 12425.22
570.8342, 12465.37
571.3163, 12509.21
571.7985, 12558.71
572.2806, 12606.03
572.7627, 12638.46
573.2448, 12651.96
573.7269, 12690.51
574.2090, 12776.27
574.6912, 12859.85
575.1733, 12917.82
575.6554, 12973.02
576.1375, 13055.93
576.6196, 13171.51
577.1017, 13291.84
577.5839, 13387.80
578.0660, 13468.40
578.5481, 13557.28
579.0302, 13651.63
579.5123, 13784.82
579.9944, 13990.57
580.4766, 14227.51
580.9587, 14411.67
581.4408, 14534.15
581.9229, 14656.24
582.4050, 14779.54
582.8871, 14909.58
583.3693, 15050.57
583.8514, 15200.56
584.3335, 15356.01
584.8156, 15514.21
585.2977, 15681.61
585.7798, 15870.32
586.2620, 16080.92
586.7441, 16305.31
587.2262, 16564.80
587.7083, 16805.49
588.1904, 16990.41
588.6725, 17138.78
589.1547, 17278.12
589.6368, 17411.14
590.1189, 17539.57
590.6010, 17693.67
591.0831, 17828.00
591.5652, 17870.99
592.0474, 17827.78
592.5295, 17767.37
593.0116, 17737.28
593.4937, 17716.67
593.9758, 17640.58
594.4579, 17501.56
594.9401, 17325.64
595.4222, 17102.19
595.9043, 16853.38
596.3864, 16575.59
596.8685, 16281.77
597.3506, 16002.87
597.8328, 15756.34
598.3149, 15518.77
598.7970, 15272.05
599.2791, 15016.64
599.7612, 14744.41
600.2433, 14452.58
600.7255, 14176.64
601.2076, 13944.98
601.6897, 13755.68
602.1718, 13593.31
602.6539, 13481.74
603.1360, 13365.53
603.6182, 13230.97
604.1003, 13097.97
604.5824, 12984.80
605.0645, 12888.10
605.5466, 12789.42
606.0287, 12674.36
606.5109, 12555.88
606.9930, 12447.45
607.4751, 12350.34
607.9572, 12280.82
608.4393, 12248.15
608.9214, 12222.23
609.4036, 12172.55
609.8857, 12098.87
610.3678, 12029.40
610.8499, 11960.32
611.3320, 11900.09
611.8141, 11851.39
612.2963, 11811.90
612.7784, 11783.45
613.2605, 11763.57
613.7426, 11742.39
614.2247, 11710.83
614.7068, 11674.07
615.1890, 11645.66
615.6711, 11625.96
616.1532, 11606.22
616.6353, 11583.64
617.1174, 11560.90
617.5995, 11541.58
618.0817, 11525.71
618.5638, 11508.12
619.0459, 11488.51
619.5280, 11467.30
620.0101, 11438.87
620.4922, 11411.76
620.9744, 11399.19
621.4565, 11401.84
621.9386, 11406.13
622.4207, 11400.15
622.9028, 11385.91
623.3849, 11369.23
623.8671, 11348.32
624.3492, 11336.83
624.8313, 11346.96
625.3134, 11359.05
625.7955, 11346.77
626.2776, 11311.72
626.7598, 11279.47
627.2419, 11253.79
627.7240, 11231.49
628.2061, 11211.00
628.6882, 11193.09
629.1703, 11182.20
629.6525, 11177.67
630.1346, 11168.86
630.6167, 11144.63
631.0988, 11107.25
631.5809, 11066.10
632.0630, 11016.25
632.5452, 10982.28
633.0273, 10979.90
633.5094, 10988.64
633.9915, 10985.65
634.4736, 10971.62
634.9557, 10958.59
635.4379, 10949.03
635.9200, 10941.02
636.4021, 10934.28
636.8842, 10928.13
637.3663, 10925.80
637.8484, 10925.95
638.3306, 10913.63
638.8127, 10867.10
639.2948, 10796.38
639.7769, 10768.66
640.2590, 10796.98
640.7411, 10822.03
641.2233, 10828.80
641.7054, 10823.44
642.1875, 10809.88
642.6696, 10788.85
643.1517, 10770.05
643.6339, 10758.59
644.1160, 10746.48
644.5981, 10724.39
645.0802, 10700.71
645.5623, 10689.95
646.0444, 10694.13
646.5266, 10702.01
647.0087, 10702.71
647.4908, 10698.67
647.9729, 10703.67
648.4550, 10722.19
648.9371, 10730.82
649.4193, 10715.32
649.9014, 10696.91
650.3835, 10704.40
650.8656, 10731.76
651.3477, 10734.14
651.8298, 10676.88
652.3120, 10623.95
652.7941, 10607.80
653.2762, 10612.49
653.7583, 10621.55
654.2404, 10629.26
654.7225, 10629.01
655.2047, 10612.82
655.6868, 10588.14
656.1689, 10583.98
656.6510, 10606.01
657.1331, 10612.39
657.6152, 10587.33
658.0974, 10554.48
658.5795, 10528.84
659.0616, 10511.92
659.5437, 10513.47
660.0258, 10551.78
660.5079, 10586.95
660.9901, 10606.06
661.4722, 10614.98
661.9543, 10620.35
662.4364, 10622.22
