##NAMES=Ulexite
##RRUFFID=R050062
##IDEAL CHEMISTRY=NaCaB_5_O_6_(OH)_6_&#183;5H_2_O
##LOCALITY=California, USA
##OWNER=RRUFF
##SOURCE=Rock Currier
##DESCRIPTION=Compact parallel fibrous group
##STATUS=The identification of this mineral has been confirmed by X-ray diffraction and chemical analysis
##URL=rruff.info/R050062
##MEASURED CHEMISTRY=(Na_0.60_Ca_0.20_[box]_20_)_Σ=1_Ca_1.00_B_5.00_O_6_(OH)_6_·5H_2_O ; B not measured but assumed by stoichiometry and charge balance.
163.1611, 28769.95
163.6432, 29103.88
164.1253, 29442.62
164.6075, 29771.09
165.0896, 30088.95
165.5717, 30389.34
166.0538, 30677.99
166.5359, 30945.09
167.0180, 31177.76
167.5002, 31361.53
167.9823, 31516.86
168.4644, 31659.85
168.9465, 31792.76
169.4286, 31905.75
169.9107, 31998.61
170.3929, 32066.10
170.8750, 32099.47
171.3571, 32072.96
171.8392, 32018.75
172.3213, 31969.74
172.8034, 31930.83
173.2856, 31896.20
173.7677, 31852.44
174.2498, 31805.93
174.7319, 31779.04
175.2140, 31797.14
175.6961, 31840.50
176.1783, 31875.79
176.6604, 31887.58
177.1425, 31905.78
177.6246, 31966.03
178.1067, 32065.59
178.5888, 32191.22
179.0710, 32345.51
179.5531, 32517.09
180.0352, 32676.51
180.5173, 32805.95
180.9994, 32929.46
181.4815, 33084.00
181.9637, 33270.35
182.4458, 33469.44
182.9279, 33685.34
183.4100, 33907.02
183.8921, 34096.04
184.3742, 34233.46
184.8564, 34335.10
185.3385, 34434.87
185.8206, 34534.60
186.3027, 34620.64
186.7848, 34665.27
187.2669, 34675.71
187.7491, 34708.66
188.2312, 34792.07
188.7133, 34913.26
189.1954, 35033.06
189.6775, 35152.98
190.1596, 35261.11
190.6418, 35339.43
191.1239, 35388.18
191.6060, 35432.79
192.0881, 35480.74
192.5702, 35532.31
193.0524, 35597.41
193.5345, 35684.27
194.0166, 35763.03
194.4987, 35788.91
194.9808, 35760.96
195.4629, 35693.90
195.9451, 35585.50
196.4272, 35435.23
196.9093, 35291.24
197.3914, 35164.94
197.8735, 35029.32
198.3556, 34814.40
198.8378, 34505.91
199.3199, 34213.61
199.8020, 34006.39
200.2841, 33891.92
200.7662, 33773.09
201.2483, 33639.32
201.7305, 33502.88
202.2126, 33395.64
202.6947, 33321.84
203.1768, 33261.38
203.6589, 33194.13
204.1410, 33113.52
204.6232, 33079.96
205.1053, 33108.66
205.5874, 33183.55
206.0695, 33251.26
206.5516, 33307.77
207.0337, 33367.59
207.5159, 33442.23
207.9980, 33532.86
208.4801, 33623.82
208.9622, 33705.01
209.4443, 33785.17
209.9264, 33915.13
210.4086, 34115.42
210.8907, 34325.00
211.3728, 34494.28
211.8549, 34616.07
212.3370, 34728.81
212.8191, 34847.85
213.3013, 34966.07
213.7834, 35026.15
214.2655, 35008.86
214.7476, 34964.20
215.2297, 34945.55
215.7118, 34985.42
216.1940, 34956.66
216.6761, 34816.75
217.1582, 34571.72
217.6403, 34369.66
218.1224, 34230.02
218.6045, 34110.41
219.0867, 33965.39
219.5688, 33773.32
220.0509, 33608.96
220.5330, 33488.61
221.0151, 33410.76
221.4972, 33375.50
221.9794, 33402.16
222.4615, 33449.44
222.9436, 33469.71
223.4257, 33439.60
223.9078, 33430.97
224.3899, 33461.66
224.8721, 33534.26
225.3542, 33618.50
225.8363, 33721.37
226.3184, 33829.91
226.8005, 33932.14
227.2827, 34031.12
227.7648, 34116.58
228.2469, 34186.75
228.7290, 34241.79
229.2111, 34279.77
229.6932, 34303.34
230.1754, 34307.31
230.6575, 34282.98
231.1396, 34220.77
231.6217, 34147.20
232.1038, 34069.50
232.5859, 33988.96
233.0681, 33895.76
233.5502, 33780.29
234.0323, 33659.48
234.5144, 33555.84
234.9965, 33472.24
235.4786, 33403.04
235.9608, 33354.21
236.4429, 33338.70
236.9250, 33283.64
237.4071, 33165.98
237.8892, 33023.41
238.3713, 32914.18
238.8535, 32842.89
239.3356, 32797.73
239.8177, 32780.57
240.2998, 32802.03
240.7819, 32810.10
241.2640, 32799.87
241.7462, 32779.21
242.2283, 32760.50
242.7104, 32740.40
243.1925, 32727.22
243.6746, 32715.93
244.1567, 32688.52
244.6389, 32733.38
245.1210, 32895.08
245.6031, 33102.20
246.0852, 33220.60
246.5673, 33196.43
247.0494, 33175.24
247.5316, 33209.82
248.0137, 33317.02
248.4958, 33425.31
248.9779, 33539.86
249.4600, 33652.04
249.9421, 33739.98
250.4243, 33787.70
250.9064, 33840.80
251.3885, 33915.41
251.8706, 34014.78
252.3527, 34126.96
252.8348, 34253.25
253.3170, 34391.12
253.7991, 34539.02
254.2812, 34707.41
254.7633, 34862.70
255.2454, 34989.85
255.7275, 35079.21
256.2097, 35172.17
256.6918, 35269.92
257.1739, 35369.39
257.6560, 35469.57
258.1381, 35581.15
258.6202, 35671.50
259.1024, 35723.68
259.5845, 35724.94
260.0666, 35740.61
260.5487, 35780.00
261.0308, 35826.68
261.5129, 35854.52
261.9951, 35866.02
262.4772, 35851.73
262.9593, 35799.49
263.4414, 35695.26
263.9235, 35620.25
264.4056, 35584.12
264.8878, 35567.38
265.3699, 35535.26
265.8520, 35484.30
266.3341, 35427.08
266.8162, 35368.23
267.2983, 35309.29
267.7805, 35238.39
268.2626, 35145.58
268.7447, 35052.61
269.2268, 35002.97
269.7089, 35009.04
270.1910, 35014.06
270.6732, 34993.75
271.1553, 34944.83
271.6374, 34898.29
272.1195, 34844.91
272.6016, 34807.42
273.0837, 34833.51
273.5659, 34935.50
274.0480, 35037.96
274.5301, 35110.63
275.0122, 35151.89
275.4943, 35201.14
275.9764, 35261.25
276.4586, 35323.93
276.9407, 35374.36
277.4228, 35409.89
277.9049, 35450.21
278.3870, 35496.77
278.8691, 35550.52
279.3513, 35639.34
279.8334, 35770.61
280.3155, 35917.87
280.7976, 36048.67
281.2798, 36161.62
281.7619, 36264.36
282.2440, 36347.52
282.7261, 36417.70
283.2082, 36531.57
283.6903, 36696.29
284.1725, 36878.37
284.6546, 37032.60
285.1367, 37159.23
285.6188, 37300.15
286.1009, 37481.79
286.5830, 37690.68
287.0652, 37863.60
287.5473, 37994.13
288.0294, 38117.64
288.5115, 38273.59
288.9936, 38459.48
289.4757, 38648.29
289.9579, 38839.69
290.4400, 39026.25
290.9221, 39187.59
291.4042, 39322.04
291.8863, 39451.88
292.3684, 39589.91
292.8506, 39739.29
293.3327, 39917.90
293.8148, 40157.64
294.2969, 40416.08
294.7790, 40611.73
295.2611, 40745.16
295.7433, 40852.65
296.2254, 40957.09
296.7075, 41061.87
297.1896, 41174.25
297.6717, 41311.89
298.1538, 41447.72
298.6360, 41546.12
299.1181, 41607.64
299.6002, 41628.43
300.0823, 41593.20
300.5644, 41516.82
301.0465, 41427.11
301.5287, 41331.78
302.0108, 41225.67
302.4929, 41102.11
302.9750, 40961.79
303.4571, 40815.63
303.9392, 40676.45
304.4214, 40533.30
304.9035, 40359.41
305.3856, 40119.96
305.8677, 39900.83
306.3498, 39799.84
306.8319, 39791.75
307.3141, 39785.69
307.7962, 39715.64
308.2783, 39628.01
308.7604, 39566.70
309.2425, 39543.78
309.7246, 39544.21
310.2068, 39577.28
310.6889, 39628.66
311.1710, 39661.59
311.6531, 39626.95
312.1352, 39586.28
312.6173, 39588.53
313.0995, 39652.89
313.5816, 39726.83
314.0637, 39790.07
314.5458, 39845.88
315.0279, 39900.95
315.5100, 39972.73
315.9922, 40033.27
316.4743, 40058.49
316.9564, 40032.00
317.4385, 39861.52
317.9206, 40016.73
318.4027, 40109.58
318.8849, 40143.44
319.3670, 39941.59
319.8491, 40044.10
320.3312, 40024.64
320.8133, 40000.18
321.2954, 40145.53
321.7776, 39977.96
322.2597, 40120.62
322.7418, 40139.44
323.2239, 40214.93
323.7060, 40167.70
324.1881, 40158.38
324.6703, 40265.54
325.1524, 40325.86
325.6345, 40402.21
326.1166, 40472.84
326.5987, 40520.55
327.0808, 40504.52
327.5630, 40513.84
328.0451, 40575.68
328.5272, 40686.08
329.0093, 40759.32
329.4914, 40784.22
329.9735, 40780.80
330.4557, 40755.74
330.9378, 40664.83
331.4199, 40629.76
331.9020, 40666.39
332.3841, 40766.93
332.8662, 40907.17
333.3484, 41142.34
333.8305, 41331.29
334.3126, 41378.46
334.7947, 41216.86
335.2768, 41121.25
335.7589, 41121.61
336.2411, 41186.44
336.7232, 41237.72
337.2053, 41270.14
337.6874, 41303.41
338.1695, 41346.18
338.6516, 41398.20
339.1338, 41460.27
339.6159, 41534.94
340.0980, 41614.77
340.5801, 41686.43
341.0622, 41750.53
341.5443, 41808.65
342.0265, 41871.08
342.5086, 41933.30
342.9907, 41953.00
343.4728, 41924.95
343.9549, 41874.13
344.4370, 41819.92
344.9192, 41764.77
345.4013, 41731.64
345.8834, 41739.59
346.3655, 41772.82
346.8476, 41793.88
347.3297, 41802.89
347.8119, 41796.28
348.2940, 41765.68
348.7761, 41715.78
349.2582, 41660.32
349.7403, 41595.35
350.2225, 41533.25
350.7046, 41490.22
351.1867, 41465.38
351.6688, 41454.91
352.1509, 41457.59
352.6331, 41472.38
353.1152, 41499.34
353.5973, 41543.37
354.0794, 41590.42
354.5615, 41626.51
355.0436, 41655.00
355.5258, 41686.14
356.0079, 41715.66
356.4900, 41755.76
356.9721, 41819.43
357.4542, 41913.23
357.9363, 42015.20
358.4185, 42110.79
358.9006, 42206.45
359.3827, 42313.32
359.8648, 42453.25
360.3469, 42591.64
360.8290, 42717.67
361.3112, 42833.91
361.7933, 42912.94
362.2754, 42913.24
362.7575, 42885.03
363.2396, 42882.88
363.7217, 42933.31
364.2039, 42996.79
364.6860, 43071.82
365.1681, 43158.47
365.6502, 43227.13
366.1323, 43275.90
366.6144, 43305.45
367.0966, 43315.66
367.5787, 43251.14
368.0608, 43236.39
368.5429, 43316.89
369.0250, 43465.54
369.5071, 43539.41
369.9893, 43489.80
370.4714, 43422.15
370.9535, 43387.68
371.4356, 43405.48
371.9177, 43414.67
372.3998, 43417.14
372.8820, 43409.20
373.3641, 43378.04
373.8462, 43311.55
374.3283, 43253.96
374.8104, 43234.01
375.2925, 43258.59
375.7747, 43227.66
376.2568, 43121.51
376.7389, 42998.41
377.2210, 42945.63
377.7031, 42968.48
378.1852, 42985.35
378.6674, 42969.45
379.1495, 42927.72
379.6316, 42883.55
380.1137, 42835.77
380.5958, 42799.40
381.0779, 42793.05
381.5601, 42812.25
382.0422, 42836.52
382.5243, 42865.68
383.0064, 42892.51
383.4885, 42896.41
383.9706, 42881.67
384.4528, 42879.42
384.9349, 42926.23
385.4170, 42995.54
385.8991, 43044.60
386.3812, 43066.06
386.8633, 43071.41
387.3455, 43073.68
387.8276, 43068.37
388.3097, 43044.97
388.7918, 42986.47
389.2739, 42915.30
389.7560, 42846.08
390.2382, 42779.36
390.7203, 42721.45
391.2024, 42685.78
391.6845, 42657.57
392.1666, 42619.30
392.6487, 42550.48
393.1309, 42484.54
393.6130, 42442.47
394.0951, 42421.13
394.5772, 42384.56
395.0593, 42304.97
395.5414, 42219.01
396.0236, 42150.31
396.5057, 42106.38
396.9878, 42074.57
397.4699, 42049.27
397.9520, 42035.03
398.4341, 42047.24
398.9163, 42127.79
399.3984, 42191.16
399.8805, 42200.69
400.3626, 42129.04
400.8447, 42083.28
401.3268, 42059.60
401.8090, 42064.75
402.2911, 42118.14
402.7732, 42247.33
403.2553, 42350.04
403.7374, 42388.16
404.2195, 42366.79
404.7017, 42382.85
405.1838, 42446.39
405.6659, 42520.74
406.1480, 42560.71
406.6301, 42565.29
407.1122, 42618.68
407.5944, 42756.17
408.0765, 42930.71
408.5586, 43019.43
409.0407, 43024.26
409.5228, 43020.63
410.0049, 43054.47
410.4871, 43118.04
410.9692, 43190.36
411.4513, 43269.07
411.9334, 43358.66
412.4155, 43480.73
412.8976, 43622.19
413.3798, 43740.77
413.8619, 43785.69
414.3440, 43818.65
414.8261, 43916.42
415.3082, 44080.65
415.7903, 44238.67
416.2725, 44351.46
416.7546, 44429.75
417.2367, 44487.25
417.7188, 44516.63
418.2009, 44536.98
418.6830, 44554.97
419.1652, 44570.41
419.6473, 44581.94
420.1294, 44563.66
420.6115, 44560.15
421.0937, 44603.95
421.5758, 44739.77
422.0579, 44833.55
422.5400, 44825.61
423.0221, 44774.27
423.5042, 44775.44
423.9864, 44875.01
424.4685, 44978.47
424.9506, 45056.38
425.4327, 45101.73
425.9148, 45201.85
426.3969, 45377.00
426.8791, 45583.63
427.3612, 45791.08
427.8433, 46013.13
428.3254, 46185.36
428.8075, 46274.64
429.2896, 46316.63
429.7718, 46432.58
430.2539, 46630.27
430.7360, 46859.26
431.2181, 47101.03
431.7002, 47353.32
432.1823, 47577.84
432.6645, 47766.82
433.1466, 47948.52
433.6287, 48174.94
434.1108, 48432.71
434.5929, 48655.52
435.0750, 48801.59
435.5572, 48899.56
436.0393, 49004.74
436.5214, 49115.47
437.0035, 49196.99
437.4856, 49221.02
437.9677, 49198.68
438.4499, 49145.14
438.9320, 49066.50
439.4141, 48953.78
439.8962, 48785.31
440.3783, 48576.93
440.8604, 48364.43
441.3426, 48169.03
441.8247, 47972.80
442.3068, 47762.41
442.7889, 47531.26
443.2710, 47311.06
443.7531, 47115.15
444.2353, 46933.15
444.7174, 46750.17
445.1995, 46530.89
445.6816, 46349.91
446.1637, 46239.02
446.6458, 46190.57
447.1280, 46111.93
447.6101, 45979.91
448.0922, 45842.79
448.5743, 45726.38
449.0564, 45629.59
449.5385, 45554.14
450.0207, 45501.97
450.5028, 45469.42
450.9849, 45453.22
451.4670, 45456.17
451.9491, 45461.63
452.4312, 45458.31
452.9134, 45450.12
453.3955, 45476.80
453.8776, 45543.86
454.3597, 45605.97
454.8418, 45610.88
455.3239, 45570.42
455.8061, 45532.34
456.2882, 45504.70
456.7703, 45487.79
457.2524, 45469.62
457.7345, 45457.99
458.2166, 45485.36
458.6988, 45619.49
459.1809, 45778.43
459.6630, 45862.38
460.1451, 45852.79
460.6272, 45837.49
461.1093, 45867.00
461.5915, 45924.71
462.0736, 45989.61
462.5557, 46025.55
463.0378, 46096.07
463.5199, 46260.09
464.0020, 46498.40
464.4842, 46674.16
464.9663, 46673.32
465.4484, 46664.30
465.9305, 46739.68
466.4126, 46974.84
466.8947, 47168.52
467.3769, 47292.88
467.8590, 47387.31
468.3411, 47520.69
468.8232, 47715.59
469.3053, 47903.09
469.7874, 48061.61
470.2696, 48193.59
470.7517, 48344.06
471.2338, 48513.87
471.7159, 48698.07
472.1980, 48887.48
472.6801, 49083.37
473.1623, 49305.95
473.6444, 49566.70
474.1265, 49841.42
474.6086, 50109.36
475.0907, 50363.78
475.5728, 50561.25
476.0550, 50625.05
476.5371, 50636.27
477.0192, 50734.69
477.5013, 50926.23
477.9834, 51127.83
478.4655, 51284.31
478.9477, 51410.18
479.4298, 51522.31
479.9119, 51625.71
480.3940, 51718.67
480.8761, 51799.50
481.3582, 51868.72
481.8404, 51926.64
482.3225, 51999.28
482.8046, 52039.15
483.2867, 52020.27
483.7688, 51926.82
484.2509, 51821.95
484.7331, 51698.17
485.2152, 51572.20
485.6973, 51458.18
486.1794, 51370.33
486.6615, 51269.42
487.1436, 51146.45
487.6258, 51005.59
488.1079, 50860.88
488.5900, 50704.34
489.0721, 50568.52
489.5542, 50483.08
490.0363, 50448.23
490.5185, 50386.96
491.0006, 50294.99
491.4827, 50186.04
491.9648, 50068.50
492.4470, 49946.40
492.9291, 49843.86
493.4112, 49769.19
493.8933, 49720.72
494.3754, 49713.76
494.8575, 49740.86
495.3397, 49755.56
495.8218, 49729.77
496.3039, 49674.23
496.7860, 49590.77
497.2681, 49464.76
497.7502, 49365.88
498.2324, 49352.18
498.7145, 49381.28
499.1966, 49395.27
499.6787, 49353.98
500.1608, 49318.41
500.6429, 49310.82
501.1251, 49329.65
501.6072, 49343.78
502.0893, 49333.66
502.5714, 49333.95
503.0535, 49366.03
503.5356, 49460.91
504.0178, 49510.51
504.4999, 49496.44
504.9820, 49453.24
505.4641, 49426.95
505.9462, 49414.97
506.4283, 49437.22
506.9105, 49520.24
507.3926, 49637.11
507.8747, 49661.63
508.3568, 49588.36
508.8389, 49523.96
509.3210, 49560.25
509.8032, 49666.17
510.2853, 49757.67
510.7674, 49823.68
511.2495, 49877.66
511.7316, 49911.84
512.2137, 49945.54
512.6959, 50017.05
513.1780, 50170.57
513.6601, 50344.21
514.1422, 50503.60
514.6243, 50649.02
515.1064, 50786.23
515.5886, 50896.22
516.0707, 51014.13
516.5528, 51162.74
517.0349, 51364.87
517.5170, 51558.47
517.9991, 51721.67
518.4813, 51878.20
518.9634, 52056.81
519.4455, 52260.34
519.9276, 52482.16
520.4097, 52729.91
520.8918, 52994.55
521.3740, 53248.38
521.8561, 53494.75
522.3382, 53719.12
522.8203, 53901.59
523.3024, 54044.04
523.7845, 54204.34
524.2667, 54387.32
524.7488, 54585.96
525.2309, 54818.39
525.7130, 55069.08
526.1951, 55280.36
526.6772, 55439.24
527.1594, 55545.64
527.6415, 55596.09
528.1236, 55592.11
528.6057, 55540.00
529.0878, 55433.82
529.5699, 55286.98
530.0521, 55109.08
530.5342, 54898.14
531.0163, 54664.13
531.4984, 54367.48
531.9805, 54065.32
532.4626, 53816.97
532.9448, 53697.62
533.4269, 53551.65
533.9090, 53347.63
534.3911, 53102.91
534.8732, 52892.19
535.3553, 52718.25
535.8375, 52568.91
536.3196, 52443.93
536.8017, 52342.54
537.2838, 52242.73
537.7659, 52138.15
538.2480, 52053.14
538.7302, 52022.25
539.2123, 52038.48
539.6944, 52060.32
540.1765, 52090.06
540.6586, 52100.79
541.1407, 52020.71
541.6229, 51880.39
542.1050, 51788.20
542.5871, 51851.45
543.0692, 51956.59
543.5513, 51983.92
544.0334, 51928.11
544.5156, 51916.13
544.9977, 52073.75
545.4798, 52261.56
545.9619, 52364.73
546.4440, 52280.73
546.9261, 52232.14
547.4083, 52252.72
547.8904, 52327.58
548.3725, 52434.46
548.8546, 52622.43
549.3367, 52760.92
549.8188, 52799.66
550.3010, 52750.40
550.7831, 52757.47
551.2652, 52836.43
551.7473, 52920.09
552.2294, 52948.97
552.7115, 52931.13
553.1937, 52952.72
553.6758, 53027.63
554.1579, 53112.62
554.6400, 53168.95
555.1221, 53193.49
555.6042, 53172.70
556.0864, 53046.00
556.5685, 52928.32
557.0506, 52960.90
557.5327, 53105.58
558.0148, 53220.19
558.4969, 53192.79
558.9791, 53146.18
559.4612, 53158.01
559.9433, 53247.09
560.4254, 53337.89
560.9075, 53410.42
561.3896, 53482.45
561.8718, 53571.46
562.3539, 53696.34
562.8360, 53804.55
563.3181, 53879.46
563.8002, 53940.36
564.2823, 54041.38
564.7645, 54192.19
565.2466, 54335.31
565.7287, 54438.98
566.2108, 54514.95
566.6929, 54620.86
567.1750, 54756.66
567.6572, 54904.78
568.1393, 55034.30
568.6214, 55166.13
569.1035, 55339.80
569.5856, 55566.61
570.0677, 55820.95
570.5499, 56111.65
571.0320, 56412.34
571.5141, 56683.32
571.9962, 56838.05
572.4783, 57031.92
572.9604, 57348.04
573.4426, 57763.13
573.9247, 58163.42
574.4068, 58488.50
574.8889, 58831.43
575.3710, 59227.58
575.8531, 59679.51
576.3353, 60141.81
576.8174, 60600.84
577.2995, 61083.91
577.7816, 61629.13
578.2637, 62238.91
578.7458, 62855.76
579.2280, 63461.80
579.7101, 64088.96
580.1922, 64796.04
580.6743, 65577.13
581.1564, 66398.73
581.6385, 67285.73
582.1207, 68184.46
582.6028, 68975.77
583.0849, 69673.73
583.5670, 70441.60
584.0491, 71445.41
584.5313, 72511.20
585.0134, 73502.93
585.4955, 74377.87
585.9776, 75242.59
586.4597, 76141.38
586.9418, 77031.93
587.4240, 77856.55
587.9061, 78613.45
588.3882, 79317.63
588.8703, 79980.72
589.3524, 80589.41
589.8345, 81110.33
590.3167, 81548.95
590.7988, 81882.31
591.2809, 82115.34
591.7630, 82235.21
592.2451, 82148.85
592.7272, 81854.11
593.2094, 81404.96
593.6915, 80857.49
594.1736, 80185.27
594.6557, 79311.56
595.1378, 78216.69
595.6199, 77024.84
596.1021, 75773.79
596.5842, 74503.77
597.0663, 73267.15
597.5485, 72105.19
598.0306, 70971.99
598.5127, 69822.33
598.9948, 68683.51
599.4769, 67659.38
599.9590, 66796.61
600.4412, 65980.35
600.9233, 65180.34
601.4054, 64390.53
601.8875, 63649.71
602.3696, 62961.45
602.8517, 62326.18
603.3339, 61775.27
603.8160, 61298.77
604.2981, 60822.63
604.7802, 60335.87
605.2623, 59872.70
605.7444, 59484.76
606.2266, 59158.80
606.7087, 58878.09
607.1908, 58646.97
607.6729, 58439.20
608.1550, 58231.89
608.6371, 58029.46
609.1193, 57838.99
609.6014, 57662.43
610.0835, 57500.77
610.5656, 57355.55
611.0477, 57225.42
611.5298, 57123.93
612.0120, 57081.25
612.4941, 57038.02
612.9762, 56952.21
613.4583, 56808.95
613.9404, 56675.41
614.4225, 56550.33
614.9047, 56443.69
615.3868, 56375.97
615.8689, 56343.76
616.3510, 56308.09
616.8331, 56251.89
617.3152, 56193.88
617.7974, 56172.11
618.2795, 56176.37
618.7616, 56165.77
619.2437, 56083.88
619.7258, 56003.97
620.2079, 56000.35
620.6901, 56075.44
621.1722, 56111.23
621.6543, 56036.13
622.1364, 55929.66
622.6185, 55842.50
623.1006, 55780.58
623.5828, 55731.95
624.0649, 55709.16
624.5470, 55688.14
625.0291, 55626.46
625.5112, 55505.59
625.9933, 55453.32
626.4755, 55519.08
626.9576, 55630.59
627.4397, 55632.97
627.9218, 55537.02
628.4039, 55425.06
628.8860, 55324.90
629.3682, 55238.38
629.8503, 55170.23
630.3324, 55119.45
630.8145, 55081.26
631.2966, 55056.68
631.7787, 55041.48
632.2609, 55039.11
632.7430, 55059.93
633.2251, 55053.68
633.7072, 54981.38
634.1893, 54896.09
634.6714, 54841.84
635.1536, 54833.04
635.6357, 54823.56
636.1178, 54809.43
636.5999, 54794.02
637.0820, 54779.96
637.5641, 54766.79
638.0463, 54771.20
638.5284, 54808.97
639.0105, 54858.58
639.4926, 54872.83
639.9747, 54857.32
640.4568, 54844.32
640.9390, 54861.30
641.4211, 54884.57
641.9032, 54889.64
642.3853, 54874.82
642.8674, 54863.22
643.3495, 54866.13
643.8317, 54874.13
644.3138, 54878.53
644.7959, 54857.87
645.2780, 54878.44
645.7601, 54978.24
646.2422, 55085.88
646.7244, 55105.45
647.2065, 55013.51
647.6886, 54954.84
648.1707, 54958.87
648.6528, 55003.18
649.1349, 55055.49
649.6171, 55112.66
650.0992, 55154.63
650.5813, 55157.61
651.0634, 55149.15
651.5455, 55169.20
652.0276, 55211.50
652.5098, 55241.45
652.9919, 55216.41
653.4740, 55192.11
653.9561, 55216.74
654.4382, 55311.10
654.9203, 55353.07
655.4025, 55263.86
655.8846, 55169.88
656.3667, 55163.73
656.8488, 55290.69
657.3309, 55361.00
657.8130, 55345.16
