##NAMES=Ullmannite
##RRUFFID=R050247
##IDEAL CHEMISTRY=NiSbS
##LOCALITY=Salchendorf, Siegerland, North Rhine-Westphalia, Germany
##OWNER=RRUFF
##SOURCE=Marcus Origlieri
##DESCRIPTION=Steel gray massive
##STATUS=The identification of this mineral has been confirmed by X-ray diffraction and chemical analysis
##URL=rruff.info/R050247
##MEASURED CHEMISTRY=Ni_1.00_(Sb_0.78_As_0.22_)S_1.00_
109.956, 4097.643
110.439, 4075.874
110.921, 4069.597
111.403, 4080.751
111.885, 4117.731
112.367, 4171.678
112.849, 4199.749
113.331, 4173.173
113.813, 4146.093
114.296, 4150.947
114.778, 4187.319
115.260, 4242.891
115.742, 4316.361
116.224, 4403.852
116.706, 4491.279
117.188, 4589.620
117.670, 4680.708
118.152, 4750.477
118.635, 4801.078
119.117, 4818.149
119.599, 4768.042
120.081, 4676.136
120.563, 4585.063
121.045, 4503.954
121.527, 4432.907
122.009, 4372.314
122.492, 4322.656
122.974, 4283.374
123.456, 4247.638
123.938, 4220.165
124.420, 4213.514
124.902, 4237.298
125.384, 4287.863
125.866, 4350.134
126.349, 4423.050
126.831, 4511.638
127.313, 4616.816
127.795, 4736.755
128.277, 4869.131
128.759, 5008.849
129.241, 5156.813
129.723, 5324.901
130.205, 5530.487
130.688, 5740.097
131.170, 5940.583
131.652, 6132.766
132.134, 6325.833
132.616, 6541.262
133.098, 6789.866
133.580, 6978.085
134.062, 7087.536
134.544, 7148.250
135.027, 7170.395
135.509, 7153.596
135.991, 7090.179
136.473, 6969.250
136.955, 6781.006
137.437, 6561.630
137.919, 6281.104
138.401, 5996.573
138.884, 5728.278
139.366, 5483.346
139.848, 5265.298
140.330, 5079.171
140.812, 4921.999
141.294, 4808.557
141.776, 4750.465
142.258, 4717.714
142.740, 4693.717
143.223, 4674.104
143.705, 4662.930
144.187, 4666.458
144.669, 4690.508
145.151, 4720.941
145.633, 4760.531
146.115, 4804.038
146.597, 4847.212
147.079, 4888.962
147.562, 4931.367
148.044, 4978.359
148.526, 5040.016
149.008, 5089.545
149.490, 5128.634
149.972, 5155.442
150.454, 5164.810
150.936, 5155.375
151.419, 5136.277
151.901, 5124.309
152.383, 5126.564
152.865, 5124.775
153.347, 5124.519
153.829, 5117.495
154.311, 5092.290
154.793, 5044.573
155.275, 4981.915
155.758, 4917.706
156.240, 4847.490
156.722, 4783.629
157.204, 4725.474
157.686, 4675.323
158.168, 4638.313
158.650, 4617.185
159.133, 4605.775
159.615, 4590.588
160.097, 4567.271
160.579, 4549.714
161.061, 4546.565
161.543, 4550.759
162.025, 4550.272
162.507, 4541.048
162.989, 4524.202
163.471, 4500.972
163.954, 4470.735
164.436, 4437.891
164.918, 4405.827
165.400, 4372.190
165.882, 4329.842
166.364, 4272.846
166.846, 4211.761
167.328, 4168.718
167.811, 4146.937
168.293, 4129.171
168.775, 4107.504
169.257, 4084.280
169.739, 4066.640
170.221, 4059.366
170.703, 4056.096
171.185, 4046.446
171.667, 4030.589
172.150, 4009.992
172.632, 3978.545
173.114, 3941.456
173.596, 3919.003
174.078, 3924.258
174.560, 3940.063
175.042, 3939.556
175.524, 3919.723
176.007, 3897.545
176.489, 3882.516
176.971, 3873.185
177.453, 3862.390
177.935, 3845.792
178.417, 3829.341
178.899, 3816.199
179.381, 3803.192
179.863, 3807.894
180.346, 3857.273
180.828, 3940.880
181.310, 4000.052
181.792, 4010.508
182.274, 3995.622
182.756, 3981.390
183.238, 3965.613
183.720, 3965.170
184.202, 3995.060
184.685, 4052.027
185.167, 4116.736
185.649, 4190.263
186.131, 4263.638
186.613, 4326.018
187.095, 4376.040
187.577, 4426.958
188.059, 4491.008
188.542, 4565.627
189.024, 4634.228
189.506, 4698.625
189.988, 4747.499
190.470, 4773.136
190.952, 4775.420
191.434, 4762.393
191.916, 4741.467
192.398, 4711.192
192.881, 4659.192
193.363, 4572.709
193.845, 4474.289
194.327, 4382.734
194.809, 4298.355
195.291, 4221.483
195.773, 4150.167
196.255, 4085.528
196.738, 4036.371
197.220, 4012.383
197.702, 3995.222
198.184, 3968.379
198.666, 3933.157
199.148, 3900.487
199.630, 3881.100
200.112, 3872.053
200.594, 3854.615
201.077, 3818.963
201.559, 3784.977
202.041, 3767.341
202.523, 3764.069
203.005, 3764.579
203.487, 3767.757
203.969, 3770.908
204.451, 3759.155
204.934, 3720.615
205.416, 3682.295
205.898, 3666.420
206.380, 3667.038
206.862, 3663.552
207.344, 3640.253
207.826, 3602.562
208.308, 3572.029
208.790, 3552.119
209.273, 3535.157
209.755, 3518.706
210.237, 3501.398
210.719, 3479.563
211.201, 3448.484
211.683, 3411.322
212.165, 3378.329
212.647, 3351.509
213.130, 3324.756
213.612, 3292.625
214.094, 3258.157
214.576, 3227.469
215.058, 3207.080
215.540, 3191.287
216.022, 3166.109
216.504, 3128.073
216.986, 3089.462
217.469, 3056.085
217.951, 3026.598
218.433, 3000.249
218.915, 2978.233
219.397, 2958.143
219.879, 2934.508
220.361, 2905.249
220.843, 2879.954
221.326, 2869.412
221.808, 2864.424
222.290, 2853.490
222.772, 2831.163
223.254, 2804.193
223.736, 2779.813
224.218, 2757.216
224.700, 2741.784
225.182, 2742.836
225.665, 2749.857
226.147, 2751.029
226.629, 2742.123
227.111, 2730.415
227.593, 2724.810
228.075, 2725.769
228.557, 2723.797
229.039, 2710.819
229.521, 2695.697
230.004, 2688.370
230.486, 2690.927
230.968, 2697.920
231.450, 2707.994
231.932, 2720.643
232.414, 2725.971
232.896, 2717.292
233.378, 2702.643
233.861, 2690.156
234.343, 2679.590
234.825, 2674.324
235.307, 2680.294
235.789, 2694.925
236.271, 2705.054
236.753, 2706.653
237.235, 2703.695
237.717, 2700.454
238.200, 2696.945
238.682, 2693.403
239.164, 2687.221
239.646, 2681.021
240.128, 2683.654
240.610, 2700.537
241.092, 2718.487
241.574, 2724.793
242.057, 2720.842
242.539, 2710.859
243.021, 2686.002
243.503, 2658.726
243.985, 2655.884
244.467, 2686.090
244.949, 2716.086
245.431, 2707.081
245.913, 2669.462
246.396, 2647.619
246.878, 2666.031
247.360, 2697.023
247.842, 2708.685
248.324, 2698.599
248.806, 2682.410
249.288, 2668.249
249.770, 2657.053
250.253, 2651.207
250.735, 2655.977
251.217, 2662.369
251.699, 2662.456
252.181, 2656.931
252.663, 2653.241
253.145, 2657.306
253.627, 2665.892
254.109, 2666.837
254.592, 2651.572
255.074, 2638.482
255.556, 2637.605
256.038, 2646.337
256.520, 2657.256
257.002, 2667.693
257.484, 2677.357
257.966, 2685.262
258.448, 2690.336
258.931, 2695.958
259.413, 2707.414
259.895, 2719.251
260.377, 2719.761
260.859, 2703.637
261.341, 2682.408
261.823, 2677.140
262.306, 2692.996
262.788, 2711.416
263.270, 2737.082
263.752, 2761.305
264.234, 2773.338
264.716, 2771.212
265.198, 2762.993
265.680, 2758.496
266.162, 2759.728
266.645, 2757.702
267.127, 2747.188
267.609, 2737.502
268.091, 2738.602
268.573, 2748.835
269.055, 2755.548
269.537, 2746.472
270.019, 2719.643
270.501, 2698.894
270.984, 2688.568
271.466, 2678.794
271.948, 2664.288
272.430, 2646.969
272.912, 2631.559
273.394, 2621.163
273.876, 2615.555
274.358, 2613.344
274.841, 2623.963
275.323, 2627.265
275.805, 2613.866
276.287, 2592.775
276.769, 2576.292
277.251, 2570.210
277.733, 2570.931
278.215, 2568.637
278.697, 2556.377
279.180, 2552.406
279.662, 2565.224
280.144, 2581.890
280.626, 2589.780
281.108, 2585.981
281.590, 2579.305
282.072, 2583.511
282.554, 2603.809
283.036, 2620.100
283.519, 2630.073
284.001, 2637.294
284.483, 2641.562
284.965, 2644.060
285.447, 2648.483
285.929, 2659.102
286.411, 2676.278
286.893, 2692.372
287.375, 2709.636
287.858, 2722.958
288.340, 2730.654
288.822, 2732.932
289.304, 2730.124
289.786, 2720.542
290.268, 2706.672
290.750, 2697.123
291.233, 2693.686
291.715, 2691.160
292.197, 2692.065
292.679, 2691.203
293.161, 2679.425
293.643, 2648.800
294.125, 2615.680
294.607, 2608.805
295.089, 2632.840
295.572, 2642.443
296.054, 2608.668
296.536, 2560.221
297.018, 2527.782
297.500, 2515.895
297.982, 2510.511
298.464, 2501.042
298.946, 2488.966
299.428, 2483.515
299.911, 2491.708
300.393, 2499.289
300.875, 2485.567
301.357, 2451.286
301.839, 2424.820
302.321, 2425.435
302.803, 2437.063
303.285, 2434.492
303.767, 2413.815
304.250, 2386.036
304.732, 2358.855
305.214, 2332.538
305.696, 2309.671
306.178, 2289.365
306.660, 2273.413
307.142, 2263.872
307.624, 2260.299
308.107, 2262.431
308.589, 2273.772
309.071, 2289.123
309.553, 2280.356
310.035, 2219.867
310.517, 2172.088
310.999, 2166.116
311.481, 2181.831
311.964, 2186.724
312.446, 2168.003
312.928, 2136.808
313.410, 2114.982
313.892, 2106.569
314.374, 2102.364
314.856, 2111.123
315.338, 2118.316
315.820, 2109.864
316.302, 2085.169
316.785, 2055.943
317.267, 2034.220
317.749, 2020.475
318.231, 2012.946
318.713, 2020.608
319.195, 2025.336
319.677, 2018.588
320.159, 2003.218
320.642, 1987.058
321.124, 1975.531
321.606, 1967.212
322.088, 1953.638
322.570, 1926.643
323.052, 1907.094
323.534, 1902.531
324.016, 1905.698
324.499, 1909.360
324.981, 1911.029
325.463, 1911.268
325.945, 1912.254
326.427, 1915.423
326.909, 1911.389
327.391, 1888.735
327.873, 1865.195
328.355, 1852.574
328.838, 1851.592
329.320, 1855.709
329.802, 1862.692
330.284, 1871.368
330.766, 1876.797
331.248, 1878.663
331.730, 1876.834
332.212, 1866.866
332.694, 1852.663
333.177, 1845.369
333.659, 1853.062
334.141, 1866.772
334.623, 1877.441
335.105, 1884.978
335.587, 1889.013
336.069, 1888.636
336.551, 1884.672
337.034, 1880.170
337.516, 1875.148
337.998, 1869.631
338.480, 1861.875
338.962, 1853.816
339.444, 1849.742
339.926, 1851.309
340.408, 1855.730
340.891, 1858.146
341.373, 1855.123
341.855, 1846.890
342.337, 1855.656
342.819, 1860.296
343.301, 1861.031
343.783, 1846.166
344.265, 1851.446
344.747, 1848.652
345.230, 1845.527
345.712, 1849.197
346.194, 1850.286
346.676, 1852.060
347.158, 1836.234
347.640, 1812.848
348.122, 1800.617
348.604, 1809.304
349.086, 1829.121
349.569, 1835.346
350.051, 1819.042
350.533, 1806.925
351.015, 1804.557
351.497, 1805.320
351.979, 1803.935
352.461, 1799.858
352.943, 1797.197
353.426, 1803.290
353.908, 1817.970
354.390, 1821.146
354.872, 1803.022
355.354, 1784.934
355.836, 1779.610
356.318, 1783.471
356.800, 1788.059
357.283, 1792.369
357.765, 1793.535
358.247, 1784.394
358.729, 1763.735
359.211, 1746.166
359.693, 1740.091
360.175, 1740.663
360.657, 1738.100
361.139, 1730.116
361.621, 1723.754
362.104, 1722.908
362.586, 1726.364
363.068, 1733.104
363.550, 1743.872
364.032, 1752.400
364.514, 1749.450
364.996, 1731.932
365.478, 1718.865
365.961, 1712.080
366.443, 1709.275
366.925, 1710.875
367.407, 1715.510
367.889, 1719.214
368.371, 1719.410
368.853, 1716.134
369.335, 1709.581
369.818, 1692.064
370.300, 1680.417
370.782, 1680.119
371.264, 1685.732
371.746, 1690.952
372.228, 1693.743
372.710, 1696.584
373.192, 1703.853
373.674, 1717.405
374.157, 1729.274
374.639, 1742.893
375.121, 1751.422
375.603, 1748.686
376.085, 1737.259
376.567, 1725.943
377.049, 1720.801
377.531, 1720.286
378.013, 1718.086
378.496, 1711.569
378.978, 1710.390
379.460, 1725.751
379.942, 1746.808
380.424, 1760.822
380.906, 1764.492
381.388, 1763.487
381.870, 1761.652
382.353, 1758.917
382.835, 1754.502
383.317, 1747.299
383.799, 1740.295
384.281, 1738.751
384.763, 1742.968
385.245, 1743.429
385.727, 1735.071
386.210, 1724.637
386.692, 1718.051
387.174, 1715.376
387.656, 1713.926
388.138, 1712.163
388.620, 1709.950
389.102, 1706.234
389.584, 1701.546
390.066, 1694.857
390.548, 1679.716
391.031, 1665.188
391.513, 1663.741
391.995, 1678.441
392.477, 1699.297
392.959, 1713.190
393.441, 1721.022
393.923, 1718.604
394.405, 1691.626
394.888, 1667.521
395.370, 1658.310
395.852, 1661.214
396.334, 1667.679
396.816, 1674.156
397.298, 1679.264
397.780, 1679.173
398.262, 1673.180
398.745, 1664.335
399.227, 1647.454
399.709, 1631.676
400.191, 1628.548
400.673, 1641.645
401.155, 1654.108
401.637, 1651.994
402.119, 1640.905
402.601, 1637.171
403.084, 1645.367
403.566, 1652.745
404.048, 1644.257
404.530, 1620.499
405.012, 1607.474
405.494, 1613.072
405.976, 1623.689
406.458, 1637.026
406.940, 1649.209
407.423, 1649.218
407.905, 1630.493
408.387, 1602.422
408.869, 1588.436
409.351, 1601.515
409.833, 1610.242
410.315, 1612.004
410.797, 1611.574
411.280, 1610.646
411.762, 1610.497
412.244, 1614.046
412.726, 1625.810
413.208, 1644.643
413.690, 1653.394
414.172, 1645.337
414.654, 1637.369
415.137, 1636.537
415.619, 1638.385
416.101, 1636.429
416.583, 1627.732
417.065, 1619.510
417.547, 1621.734
418.029, 1633.048
418.511, 1639.273
418.993, 1635.442
419.475, 1629.109
419.958, 1628.503
420.440, 1632.874
420.922, 1636.676
421.404, 1640.430
421.886, 1641.768
422.368, 1637.126
422.850, 1627.530
423.332, 1617.749
423.815, 1609.716
424.297, 1604.381
424.779, 1604.817
425.261, 1616.555
425.743, 1626.640
426.225, 1637.155
426.707, 1643.966
427.189, 1641.377
427.672, 1629.930
428.154, 1616.843
428.636, 1608.555
429.118, 1605.091
429.600, 1606.064
430.082, 1618.395
430.564, 1625.791
431.046, 1620.625
431.528, 1609.158
432.011, 1599.551
432.493, 1594.712
432.975, 1591.510
433.457, 1586.604
433.939, 1580.061
434.421, 1572.188
434.903, 1561.372
435.385, 1551.892
435.867, 1548.442
436.350, 1550.169
436.832, 1552.917
437.314, 1558.659
437.796, 1562.712
438.278, 1559.937
438.760, 1551.311
439.242, 1540.698
439.724, 1528.769
440.207, 1518.861
440.689, 1520.041
441.171, 1543.538
441.653, 1561.291
442.135, 1573.238
442.617, 1578.805
443.099, 1574.056
443.581, 1561.216
444.064, 1549.687
444.546, 1548.317
445.028, 1555.525
445.510, 1555.919
445.992, 1542.182
446.474, 1533.875
446.956, 1541.694
447.438, 1554.217
447.920, 1559.214
448.402, 1553.608
448.885, 1544.439
449.367, 1536.622
449.849, 1530.358
450.331, 1527.282
450.813, 1529.015
451.295, 1529.752
451.777, 1521.060
452.259, 1506.309
452.742, 1501.841
453.224, 1523.155
453.706, 1541.400
454.188, 1533.416
454.670, 1510.782
455.152, 1500.240
455.634, 1511.907
456.116, 1532.590
456.599, 1541.368
457.081, 1533.334
457.563, 1526.714
458.045, 1518.896
458.527, 1514.700
459.009, 1521.229
459.491, 1532.979
459.973, 1536.865
460.455, 1523.821
460.938, 1503.223
461.420, 1498.204
461.902, 1513.097
462.384, 1525.383
462.866, 1529.716
463.348, 1529.558
463.830, 1525.743
464.312, 1518.838
464.794, 1514.852
465.277, 1520.979
465.759, 1529.679
466.241, 1527.477
466.723, 1514.562
467.205, 1505.972
467.687, 1511.893
468.169, 1526.801
468.651, 1532.796
469.134, 1523.479
469.616, 1517.100
470.098, 1520.096
470.580, 1524.734
471.062, 1523.410
471.544, 1515.759
472.026, 1506.682
472.508, 1500.459
472.991, 1496.761
473.473, 1491.906
473.955, 1485.021
474.437, 1478.256
474.919, 1468.655
475.401, 1461.242
475.883, 1463.807
476.365, 1478.060
476.847, 1489.971
477.329, 1483.032
477.812, 1463.396
478.294, 1454.271
478.776, 1459.314
479.258, 1468.966
479.740, 1479.025
480.222, 1488.274
480.704, 1492.119
481.186, 1487.607
481.669, 1481.140
482.151, 1472.239
482.633, 1463.999
483.115, 1462.592
483.597, 1469.123
484.079, 1476.958
484.561, 1478.103
485.043, 1471.589
485.526, 1467.461
486.008, 1466.948
486.490, 1467.671
486.972, 1471.002
487.454, 1474.541
487.936, 1474.590
488.418, 1469.689
488.900, 1463.602
489.382, 1460.556
489.865, 1460.410
490.347, 1462.359
490.829, 1468.706
491.311, 1472.271
491.793, 1461.627
492.275, 1442.527
492.757, 1434.246
493.239, 1449.814
493.721, 1466.930
494.204, 1472.573
494.686, 1470.361
495.168, 1467.714
495.650, 1466.996
496.132, 1465.889
496.614, 1461.185
497.096, 1452.134
497.578, 1442.911
498.060, 1429.318
498.543, 1420.027
499.025, 1420.224
499.507, 1426.082
499.989, 1432.212
500.471, 1436.681
500.953, 1438.608
501.435, 1434.886
501.918, 1425.608
502.400, 1421.638
502.882, 1427.489
503.364, 1433.918
503.846, 1432.092
504.328, 1424.387
504.810, 1418.427
505.292, 1416.976
505.774, 1416.383
506.257, 1416.407
506.739, 1415.349
507.221, 1408.103
507.703, 1392.990
508.185, 1376.113
508.667, 1365.328
509.149, 1360.902
509.631, 1361.781
510.113, 1378.639
510.596, 1388.973
511.078, 1376.335
511.560, 1354.943
512.042, 1349.488
512.524, 1370.558
513.006, 1396.799
513.488, 1396.546
513.970, 1371.555
514.453, 1360.045
514.935, 1373.415
515.417, 1387.757
515.899, 1379.297
516.381, 1355.601
516.863, 1341.321
517.345, 1345.542
517.827, 1353.894
518.309, 1361.688
518.792, 1367.860
519.274, 1369.884
519.756, 1367.209
520.238, 1362.567
520.720, 1359.187
521.202, 1357.279
521.684, 1354.381
522.166, 1348.467
522.648, 1343.840
523.131, 1341.506
523.613, 1341.044
524.095, 1343.304
524.577, 1348.639
525.059, 1351.388
525.541, 1342.640
526.023, 1325.738
526.505, 1316.336
526.987, 1317.028
527.470, 1321.301
527.952, 1326.278
528.434, 1331.246
528.916, 1333.785
529.398, 1333.470
529.880, 1331.338
530.362, 1326.277
530.844, 1320.356
531.327, 1315.375
531.809, 1311.931
532.291, 1310.525
532.773, 1311.796
533.255, 1315.540
533.737, 1320.268
534.219, 1330.483
534.701, 1333.650
535.183, 1322.460
535.666, 1306.265
536.148, 1291.270
536.630, 1278.582
537.112, 1271.312
537.594, 1274.980
538.076, 1283.975
538.558, 1286.789
539.041, 1283.273
539.523, 1285.071
540.005, 1300.624
540.487, 1322.626
540.969, 1332.422
541.451, 1321.360
541.933, 1314.189
542.415, 1313.244
542.897, 1315.509
543.380, 1323.014
543.862, 1332.092
544.344, 1332.449
544.826, 1315.902
545.308, 1293.058
545.790, 1290.697
546.272, 1313.210
546.754, 1328.161
547.237, 1326.426
547.719, 1318.482
548.201, 1311.864
548.683, 1306.663
549.165, 1303.458
549.647, 1306.007
550.129, 1307.348
550.611, 1299.646
551.093, 1287.000
551.576, 1279.792
552.058, 1281.475
552.540, 1285.835
553.022, 1283.811
553.504, 1273.277
553.986, 1270.127
554.468, 1282.232
554.950, 1293.427
555.432, 1301.275
555.915, 1305.152
556.397, 1303.500
556.879, 1295.697
557.361, 1286.862
557.843, 1282.882
558.325, 1281.680
558.807, 1274.305
559.289, 1258.653
559.771, 1249.306
560.254, 1260.235
560.736, 1283.548
561.218, 1287.183
561.700, 1251.598
562.182, 1229.804
562.664, 1239.175
563.146, 1258.997
563.628, 1275.043
564.110, 1284.571
564.593, 1287.656
565.075, 1283.432
565.557, 1274.588
566.039, 1269.550
566.521, 1269.610
567.003, 1267.340
567.485, 1259.080
567.968, 1249.903
568.450, 1244.633
568.932, 1242.784
569.414, 1240.600
569.896, 1233.354
570.378, 1228.756
570.860, 1236.898
571.342, 1251.771
571.824, 1258.254
572.307, 1251.424
572.789, 1240.617
573.271, 1238.130
573.753, 1244.994
574.235, 1252.085
574.717, 1265.000
575.199, 1270.826
575.681, 1258.740
576.164, 1241.317
576.646, 1234.455
577.128, 1241.998
577.610, 1252.648
578.092, 1259.599
578.574, 1263.066
579.056, 1262.726
579.538, 1258.632
580.020, 1253.383
580.503, 1247.646
580.985, 1242.703
581.467, 1242.236
581.949, 1250.559
582.431, 1256.479
582.913, 1261.698
583.395, 1262.953
583.877, 1253.529
584.359, 1238.583
584.842, 1231.497
585.324, 1240.923
585.806, 1255.821
586.288, 1256.530
586.770, 1243.791
587.252, 1237.035
587.734, 1241.100
588.216, 1248.240
588.698, 1253.180
589.181, 1255.709
589.663, 1255.438
590.145, 1249.682
590.627, 1244.343
591.109, 1241.246
591.591, 1239.688
592.073, 1239.999
592.555, 1241.485
593.038, 1240.425
593.520, 1231.599
594.002, 1218.672
594.484, 1222.466
594.966, 1251.252
595.448, 1267.929
595.930, 1253.007
596.412, 1229.338
596.894, 1218.580
597.377, 1220.557
597.859, 1227.038
598.341, 1243.263
598.823, 1256.268
599.305, 1252.949
599.787, 1239.318
600.269, 1228.428
600.752, 1224.795
601.234, 1225.588
601.716, 1227.743
602.198, 1231.546
602.680, 1232.761
603.162, 1228.691
603.644, 1226.167
604.126, 1228.427
604.608, 1232.796
605.091, 1236.351
605.573, 1238.641
606.055, 1240.845
606.537, 1244.424
607.019, 1247.809
607.501, 1249.407
607.983, 1248.964
608.465, 1245.407
608.947, 1237.899
609.430, 1228.568
609.912, 1221.532
610.394, 1216.657
610.876, 1214.462
611.358, 1219.780
611.840, 1222.709
612.322, 1216.006
612.804, 1205.514
613.286, 1201.682
613.769, 1208.750
614.251, 1216.496
614.733, 1214.577
615.215, 1207.696
615.697, 1206.645
616.179, 1212.408
616.661, 1218.772
617.143, 1222.234
617.625, 1222.870
618.108, 1220.636
618.590, 1211.507
619.072, 1206.225
619.554, 1204.075
620.036, 1206.131
620.518, 1218.843
621.000, 1235.685
621.482, 1240.341
621.965, 1221.733
622.447, 1201.780
622.929, 1209.913
623.411, 1237.636
623.893, 1254.853
624.375, 1256.695
624.857, 1249.055
625.339, 1233.636
625.821, 1213.041
626.304, 1202.235
626.786, 1211.265
627.268, 1216.552
627.750, 1216.063
628.232, 1212.396
628.714, 1204.300
629.196, 1194.533
629.679, 1190.626
630.161, 1198.846
630.643, 1209.984
631.125, 1210.458
631.607, 1201.962
632.089, 1194.062
632.571, 1188.502
633.053, 1184.574
633.535, 1181.924
634.018, 1180.453
634.500, 1179.025
