##NAMES=Ulrichite
##RRUFFID=R070748
##IDEAL CHEMISTRY=CaCu^2+^(U^6+^O_2_)(P^5+^O_4_)_2_&#183;4H_2_O
##LOCALITY=Lake Boga Quarry, Lake Boga, Victoria, Australia
##OWNER=RRUFF
##SOURCE=Royal Ontario Museum
##DESCRIPTION=Radiating aggregates of light green acicular crystals associated with quartz
##STATUS=The identification of this mineral has been confirmed by single-crystal X-ray diffraction.
##URL=rruff.info/R070748
127.4942, 705.8170
127.9763, 711.4848
128.4584, 735.2885
128.9406, 753.0367
129.4227, 758.8386
129.9048, 760.7340
130.3869, 766.5317
130.8690, 779.6343
131.3511, 796.6459
131.8333, 805.3463
132.3154, 793.0365
132.7975, 785.7761
133.2796, 790.0704
133.7617, 801.2661
134.2438, 811.6660
134.7260, 816.4799
135.2081, 815.8434
135.6902, 813.7281
136.1723, 808.2455
136.6544, 803.2964
137.1365, 799.8867
137.6187, 798.3351
138.1008, 800.2635
138.5829, 809.7444
139.0650, 826.1487
139.5471, 832.1404
140.0292, 818.3006
140.5114, 797.4164
140.9935, 782.7702
141.4756, 776.2777
141.9577, 775.0194
142.4398, 777.8013
142.9219, 783.8351
143.4041, 790.4882
143.8862, 795.5973
144.3683, 800.2570
144.8504, 809.5616
145.3325, 831.1454
145.8146, 848.8171
146.2968, 849.6315
146.7789, 834.1107
147.2610, 813.3531
147.7431, 796.1240
148.2252, 782.6754
148.7073, 768.8997
149.1895, 753.7224
149.6716, 738.1781
150.1537, 721.9740
150.6358, 705.1649
151.1179, 689.5767
151.6000, 678.7421
152.0821, 675.7509
152.5643, 670.8740
153.0464, 660.3582
153.5285, 648.9609
154.0106, 641.2192
154.4927, 639.0677
154.9748, 640.4417
155.4570, 638.8929
155.9391, 628.9565
156.4212, 622.2615
156.9033, 622.9237
157.3854, 626.9341
157.8675, 628.0602
158.3497, 622.1227
158.8318, 610.3104
159.3139, 606.5280
159.7960, 618.3284
160.2781, 629.2105
160.7602, 632.6168
161.2424, 630.4674
161.7245, 629.4808
162.2066, 635.6732
162.6887, 649.2093
163.1708, 654.4568
163.6529, 642.5288
164.1351, 630.0208
164.6172, 629.0241
165.0993, 640.0508
165.5814, 653.9186
166.0635, 663.5743
166.5456, 668.7571
167.0278, 668.4613
167.5099, 656.8638
167.9920, 641.9025
168.4741, 633.1119
168.9562, 632.1379
169.4383, 636.0953
169.9205, 645.4608
170.4026, 658.9927
170.8847, 668.2375
171.3668, 666.6428
171.8489, 657.9509
172.3310, 653.0837
172.8132, 654.9868
173.2953, 659.5795
173.7774, 662.3443
174.2595, 663.5389
174.7416, 666.5344
175.2237, 676.2764
175.7059, 692.4817
176.1880, 702.3478
176.6701, 696.4613
177.1522, 689.1719
177.6343, 690.3083
178.1164, 700.6373
178.5986, 713.2483
179.0807, 718.8162
179.5628, 714.0158
180.0449, 716.4455
180.5270, 738.2011
181.0091, 761.7835
181.4913, 775.5502
181.9734, 776.4668
182.4555, 771.3781
182.9376, 772.3549
183.4197, 785.0190
183.9018, 792.4443
184.3840, 788.4719
184.8661, 781.6885
185.3482, 778.9925
185.8303, 783.2072
186.3124, 792.9156
186.7945, 804.8692
187.2767, 824.7092
187.7588, 839.3442
188.2409, 841.1741
188.7230, 839.4655
189.2051, 846.5027
189.6872, 869.1398
190.1694, 902.5867
190.6515, 924.7496
191.1336, 925.4426
191.6157, 926.1205
192.0978, 925.3745
192.5799, 927.3644
193.0621, 941.2224
193.5442, 974.7666
194.0263, 1024.108
194.5084, 1050.390
194.9905, 1040.488
195.4726, 1027.012
195.9548, 1019.959
196.4369, 1018.844
196.9190, 1020.095
197.4011, 1021.097
197.8832, 1022.410
198.3653, 1028.375
198.8475, 1044.467
199.3296, 1060.051
199.8117, 1068.674
200.2938, 1070.545
200.7759, 1069.826
201.2580, 1067.813
201.7402, 1065.570
202.2223, 1069.201
202.7044, 1086.800
203.1865, 1105.467
203.6686, 1111.396
204.1507, 1103.255
204.6329, 1095.103
205.1150, 1101.341
205.5971, 1117.394
206.0792, 1126.510
206.5613, 1118.201
207.0434, 1104.033
207.5256, 1100.598
208.0077, 1110.890
208.4898, 1123.751
208.9719, 1129.935
209.4540, 1131.796
209.9361, 1134.471
210.4183, 1142.818
210.9004, 1152.927
211.3825, 1154.494
211.8646, 1142.065
212.3467, 1131.362
212.8288, 1136.905
213.3110, 1152.873
213.7931, 1164.795
214.2752, 1161.829
214.7573, 1147.737
215.2394, 1137.991
215.7215, 1132.912
216.2037, 1133.035
216.6858, 1141.399
217.1679, 1155.041
217.6500, 1165.464
218.1321, 1167.933
218.6142, 1162.543
219.0964, 1149.289
219.5785, 1119.062
220.0606, 1090.480
220.5427, 1076.619
221.0248, 1072.907
221.5069, 1064.513
221.9891, 1033.839
222.4712, 979.1372
222.9533, 941.6513
223.4354, 935.5255
223.9175, 935.8757
224.3996, 938.0453
224.8818, 939.4402
225.3639, 935.7242
225.8460, 921.0672
226.3281, 893.4171
226.8102, 869.5192
227.2923, 852.3229
227.7745, 836.5689
228.2566, 819.1659
228.7387, 800.9633
229.2208, 785.8284
229.7029, 779.8273
230.1850, 787.3562
230.6672, 783.6335
231.1493, 754.7090
231.6314, 727.0654
232.1135, 714.6047
232.5956, 716.6812
233.0777, 723.0551
233.5599, 722.5564
234.0420, 713.1565
234.5241, 703.9653
235.0062, 694.3381
235.4883, 685.3560
235.9704, 678.5251
236.4526, 673.4397
236.9347, 667.8710
237.4168, 658.9610
237.8989, 644.7897
238.3810, 633.6542
238.8631, 627.5821
239.3453, 622.4182
239.8274, 616.8403
240.3095, 610.1199
240.7916, 600.7954
241.2737, 586.0436
241.7558, 560.6019
242.2380, 547.3449
242.7201, 557.2969
243.2022, 569.4135
243.6843, 570.4150
244.1664, 558.6379
244.6485, 540.5822
245.1307, 522.8658
245.6128, 503.6503
246.0949, 492.4022
246.5770, 493.8322
247.0591, 499.0151
247.5412, 503.5690
248.0234, 506.1667
248.5055, 504.9261
248.9876, 496.6425
249.4697, 477.0991
249.9518, 466.1940
250.4339, 471.1103
250.9161, 479.2725
251.3982, 481.8102
251.8803, 477.4433
252.3624, 469.5634
252.8445, 461.7370
253.3266, 454.1447
253.8088, 445.6322
254.2909, 433.3518
254.7730, 422.0638
255.2551, 415.2883
255.7372, 413.5455
256.2193, 415.9149
256.7014, 423.0383
257.1836, 437.1051
257.6657, 441.6874
258.1478, 426.8350
258.6299, 408.9080
259.1120, 402.0202
259.5941, 407.5085
260.0763, 416.2217
260.5584, 419.3011
261.0405, 415.6025
261.5226, 413.9651
262.0047, 417.9154
262.4868, 421.7314
262.9690, 419.2200
263.4511, 410.1431
263.9332, 401.4277
264.4153, 383.0680
264.8974, 402.9744
265.3795, 413.8914
265.8617, 416.3019
266.3438, 384.7286
266.8259, 397.0385
267.3080, 391.7619
267.7901, 385.7643
268.2722, 404.2505
268.7544, 377.6200
269.2365, 395.7179
269.7186, 395.9611
270.2007, 404.3760
270.6828, 395.0959
271.1649, 391.2812
271.6471, 405.1670
272.1292, 409.2519
272.6113, 397.9348
273.0934, 406.8691
273.5755, 379.6206
274.0576, 393.6743
274.5398, 389.8452
275.0219, 376.9897
275.5040, 367.8727
275.9861, 374.2166
276.4682, 392.4901
276.9503, 398.4629
277.4325, 376.5644
277.9146, 354.8888
278.3967, 357.1680
278.8788, 380.5819
279.3609, 400.7036
279.8430, 401.1366
280.3252, 386.1533
280.8073, 377.3961
281.2894, 379.7616
281.7715, 383.6888
282.2536, 383.7191
282.7357, 380.2222
283.2179, 374.9259
283.7000, 367.4056
284.1821, 359.4714
284.6642, 356.2273
285.1463, 361.6285
285.6284, 366.5574
286.1106, 364.9663
286.5927, 358.2787
287.0748, 352.3239
287.5569, 349.9722
288.0390, 349.7988
288.5211, 347.7355
289.0033, 341.3322
289.4854, 337.4586
289.9675, 342.3863
290.4496, 352.9748
290.9317, 359.6440
291.4138, 358.6402
291.8960, 351.6352
292.3781, 341.1085
292.8602, 324.2216
293.3423, 311.3274
293.8244, 309.5042
294.3065, 314.6665
294.7887, 317.5419
295.2708, 315.0271
295.7529, 309.2939
296.2350, 303.1615
296.7171, 295.6702
297.1992, 291.3045
297.6814, 296.3251
298.1635, 304.5001
298.6456, 303.1275
299.1277, 287.1268
299.6098, 267.2184
300.0919, 258.5190
300.5741, 261.0083
301.0562, 267.1540
301.5383, 282.9662
302.0204, 298.7852
302.5025, 297.4234
302.9846, 273.9278
303.4668, 248.2137
303.9489, 246.0617
304.4310, 269.2191
304.9131, 282.4907
305.3952, 274.0051
305.8773, 257.3853
306.3595, 245.3426
306.8416, 239.4992
307.3237, 237.9196
307.8058, 239.7516
308.2879, 245.1960
308.7701, 249.9488
309.2522, 255.8445
309.7343, 259.5914
310.2164, 256.8177
310.6985, 248.0189
311.1806, 239.9491
311.6628, 238.4370
312.1449, 242.9551
312.6270, 243.0209
313.1091, 232.5622
313.5912, 223.2333
314.0733, 223.9751
314.5555, 232.6215
315.0376, 238.9559
315.5197, 235.6197
316.0018, 225.0660
316.4839, 221.8030
316.9660, 232.5539
317.4482, 242.1810
317.9303, 245.3561
318.4124, 243.1241
318.8945, 237.0933
319.3766, 227.1405
319.8587, 215.6143
320.3409, 211.0410
320.8230, 220.4890
321.3051, 226.1571
321.7872, 220.6073
322.2693, 209.8955
322.7514, 203.5402
323.2336, 205.3265
323.7157, 211.1591
324.1978, 212.7033
324.6799, 205.9056
325.1620, 202.0023
325.6441, 202.7852
326.1263, 206.3722
326.6084, 212.0404
327.0905, 219.3639
327.5726, 225.7497
328.0547, 227.2164
328.5368, 219.9568
329.0190, 217.4254
329.5011, 225.5641
329.9832, 233.9798
330.4653, 233.8476
330.9474, 224.9967
331.4295, 214.8109
331.9117, 211.2891
332.3938, 216.4937
332.8759, 216.5652
333.3580, 205.6094
333.8401, 195.9056
334.3222, 194.2607
334.8044, 199.3924
335.2865, 206.0162
335.7686, 210.2764
336.2507, 212.1916
336.7328, 212.7117
337.2149, 209.8186
337.6971, 207.7627
338.1792, 206.7209
338.6613, 207.3957
339.1434, 211.6026
339.6255, 220.8197
340.1076, 232.9891
340.5898, 239.2200
341.0719, 233.5543
341.5540, 229.0430
342.0361, 226.2399
342.5182, 225.6328
343.0003, 228.4641
343.4825, 235.1510
343.9646, 243.3680
344.4467, 248.2198
344.9288, 247.1449
345.4109, 247.5854
345.8930, 250.3131
346.3752, 254.2651
346.8573, 259.5387
347.3394, 262.9464
347.8215, 269.9314
348.3036, 275.2817
348.7857, 279.0855
349.2679, 276.7111
349.7500, 282.3146
350.2321, 284.7206
350.7142, 286.9957
351.1963, 293.7221
351.6784, 292.2458
352.1606, 298.9024
352.6427, 302.3119
353.1248, 308.1279
353.6069, 308.0259
354.0890, 308.7842
354.5711, 314.3949
355.0533, 322.9518
355.5354, 330.7115
356.0175, 335.7206
356.4996, 338.3570
356.9817, 340.0872
357.4638, 342.2868
357.9460, 340.2409
358.4281, 331.1407
358.9102, 317.4913
359.3923, 301.1545
359.8744, 281.7726
360.3565, 262.2541
360.8387, 245.6697
361.3208, 231.7073
361.8029, 223.0405
362.2850, 223.1853
362.7671, 227.6220
363.2492, 233.5898
363.7314, 241.5779
364.2135, 245.4829
364.6956, 236.9285
365.1777, 218.8114
365.6598, 207.5553
366.1419, 209.6446
366.6241, 215.2904
367.1062, 213.2340
367.5883, 204.1651
368.0704, 197.5238
368.5525, 199.7687
369.0346, 206.1877
369.5168, 208.3605
369.9989, 204.8195
370.4810, 200.2331
370.9631, 198.3723
371.4452, 198.8656
371.9273, 199.5302
372.4095, 200.3757
372.8916, 201.0930
373.3737, 201.8465
373.8558, 202.4740
374.3379, 201.9359
374.8200, 199.8218
375.3022, 195.8821
375.7843, 189.4997
376.2664, 178.0605
376.7485, 167.4267
377.2306, 157.0455
377.7127, 149.1801
378.1949, 150.3714
378.6770, 164.2221
379.1591, 183.0962
379.6412, 190.5620
380.1233, 178.2488
380.6054, 170.0064
381.0876, 170.7511
381.5697, 174.3202
382.0518, 175.0213
382.5339, 171.7596
383.0160, 166.6580
383.4981, 161.9393
383.9803, 157.1978
384.4624, 154.7922
384.9445, 157.1498
385.4266, 159.1803
385.9087, 156.6598
386.3908, 151.3956
386.8730, 149.0903
387.3551, 154.4971
387.8372, 166.5534
388.3193, 173.5703
388.8014, 170.3506
389.2835, 167.6961
389.7657, 168.0598
390.2478, 169.7986
390.7299, 170.6752
391.2120, 169.7030
391.6941, 167.7496
392.1762, 166.1014
392.6584, 163.4953
393.1405, 164.5185
393.6226, 176.9408
394.1047, 188.0105
394.5868, 186.4933
395.0689, 171.7351
395.5511, 155.7383
396.0332, 152.5362
396.5153, 162.2765
396.9974, 164.8605
397.4795, 152.6488
397.9616, 140.6229
398.4438, 138.0600
398.9259, 142.6548
399.4080, 147.3593
399.8901, 146.9891
400.3722, 144.6667
400.8543, 149.4420
401.3365, 164.3120
401.8186, 174.3788
402.3007, 166.3204
402.7828, 149.6522
403.2649, 138.5007
403.7470, 136.2812
404.2292, 138.2643
404.7113, 141.7929
405.1934, 146.5734
405.6755, 151.6180
406.1576, 158.0384
406.6397, 162.4965
407.1219, 157.3059
407.6040, 139.5404
408.0861, 128.0233
408.5682, 133.0603
409.0503, 146.0177
409.5324, 155.4905
410.0146, 159.4091
410.4967, 161.4702
410.9788, 166.2659
411.4609, 174.6254
411.9430, 174.4884
412.4251, 153.3206
412.9073, 135.3890
413.3894, 138.1837
413.8715, 156.4309
414.3536, 172.6632
414.8357, 176.0483
415.3178, 169.2515
415.8000, 164.8542
416.2821, 163.9615
416.7642, 164.2461
417.2463, 165.4685
417.7284, 167.7795
418.2105, 172.5644
418.6927, 179.8792
419.1748, 186.4378
419.6569, 186.1976
420.1390, 174.6799
420.6211, 168.7745
421.1032, 173.7432
421.5854, 179.3906
422.0675, 180.0043
422.5496, 176.5440
423.0317, 174.0462
423.5138, 177.2616
423.9959, 184.8093
424.4781, 187.7588
424.9602, 183.1289
425.4423, 178.8367
425.9244, 177.3629
426.4065, 178.0717
426.8886, 180.4319
427.3708, 184.5410
427.8529, 189.4364
428.3350, 195.4345
428.8171, 202.6747
429.2992, 204.2355
429.7813, 193.8463
430.2635, 180.9590
430.7456, 176.2790
431.2277, 180.1342
431.7098, 185.7438
432.1919, 191.4557
432.6740, 196.3809
433.1562, 198.0275
433.6383, 195.6116
434.1204, 193.7788
434.6025, 197.5281
435.0846, 206.2059
435.5667, 210.7737
436.0489, 206.7016
436.5310, 202.3350
437.0131, 204.0739
437.4952, 209.7358
437.9773, 211.7440
438.4594, 205.5725
438.9416, 195.7063
439.4237, 194.4758
439.9058, 212.3576
440.3879, 224.1961
440.8700, 225.7662
441.3521, 222.6363
441.8343, 218.3421
442.3164, 214.2480
442.7985, 212.0337
443.2806, 213.9509
443.7627, 220.7321
444.2448, 226.3733
444.7270, 231.7207
445.2091, 235.0046
445.6912, 234.7373
446.1733, 232.0330
446.6554, 228.5675
447.1375, 224.9081
447.6197, 221.8591
448.1018, 222.1736
448.5839, 228.0242
449.0660, 231.1395
449.5481, 225.9751
450.0302, 219.3769
450.5124, 216.7899
450.9945, 219.0776
451.4766, 222.1164
451.9587, 222.9296
452.4408, 221.7644
452.9229, 219.4654
453.4051, 215.4719
453.8872, 211.7650
454.3693, 209.4781
454.8514, 208.6632
455.3335, 210.2007
455.8156, 219.3466
456.2978, 227.1074
456.7799, 221.7625
457.2620, 206.0803
457.7441, 196.6745
458.2262, 202.9445
458.7083, 218.6258
459.1904, 226.9174
459.6725, 225.0665
460.1547, 222.4937
460.6368, 220.0014
461.1189, 217.9916
461.6010, 217.1684
462.0831, 217.5414
462.5652, 218.3148
463.0474, 219.0000
463.5295, 219.9919
464.0116, 217.3123
464.4937, 205.0274
464.9758, 195.6391
465.4579, 195.2027
465.9401, 199.9946
466.4222, 203.3899
466.9043, 193.6784
467.3864, 202.9444
467.8685, 207.7156
468.3506, 208.2337
468.8328, 191.7595
469.3149, 197.2272
469.7970, 193.9017
470.2791, 190.2156
470.7612, 198.7714
471.2433, 184.7690
471.7255, 193.1305
472.2076, 192.5648
472.6897, 196.0850
473.1718, 190.7576
473.6539, 188.1631
474.1360, 194.4188
474.6182, 195.7738
475.1003, 189.4279
475.5824, 186.7378
476.0645, 189.3605
476.5466, 191.5833
477.0287, 193.4554
477.5109, 195.1950
477.9930, 196.9297
478.4751, 198.3438
478.9572, 198.8936
479.4393, 198.3754
479.9214, 197.5799
480.4036, 194.1675
480.8857, 192.3389
481.3678, 197.9614
481.8499, 208.8409
482.3320, 215.7072
482.8141, 211.2654
483.2963, 197.6188
483.7784, 188.6985
484.2605, 186.5247
484.7426, 186.8668
485.2247, 191.0166
485.7068, 196.3083
486.1890, 200.5671
486.6711, 203.1289
487.1532, 204.1553
487.6353, 202.9093
488.1174, 199.1968
488.5995, 198.4277
489.0817, 204.3635
489.5638, 208.4956
490.0459, 205.0693
490.5280, 196.5480
491.0101, 188.5075
491.4922, 182.1747
491.9744, 178.2044
492.4565, 178.2860
492.9386, 182.1419
493.4207, 185.9544
493.9028, 188.5263
494.3849, 190.0209
494.8671, 190.3870
495.3492, 189.2430
495.8313, 188.8679
496.3134, 190.8419
496.7955, 193.1935
497.2776, 194.6931
497.7598, 194.8743
498.2419, 191.8414
498.7240, 182.9512
499.2061, 169.2230
499.6882, 164.1408
500.1703, 177.1243
500.6525, 187.4785
501.1346, 189.9481
501.6167, 188.9771
502.0988, 189.9956
502.5809, 194.5042
503.0630, 199.4914
503.5452, 201.0470
504.0273, 198.7920
504.5094, 195.6378
504.9915, 190.5114
505.4736, 185.8340
505.9557, 182.2314
506.4379, 179.9331
506.9200, 179.5361
507.4021, 182.2949
507.8842, 185.8263
508.3663, 184.8817
508.8484, 179.8003
509.3306, 174.0255
509.8127, 184.3174
510.2948, 190.1146
510.7769, 191.6586
511.2590, 176.2106
511.7411, 182.7043
512.2233, 180.4047
512.7054, 177.7446
513.1875, 187.3264
513.6696, 174.3499
514.1517, 183.7376
514.6339, 179.4590
515.1160, 167.7027
515.5981, 161.5586
516.0802, 165.0274
516.5623, 169.3803
517.0444, 176.4286
517.5266, 182.5176
518.0087, 182.7460
518.4908, 176.8729
518.9729, 170.7280
519.4550, 172.0343
519.9371, 181.1091
520.4193, 184.0988
520.9014, 175.7350
521.3835, 169.0570
521.8656, 173.1788
522.3477, 181.6503
522.8298, 183.4608
523.3120, 172.7767
523.7941, 160.5122
524.2762, 157.2185
524.7583, 161.8322
525.2404, 170.1322
525.7225, 183.1031
526.2047, 194.2098
526.6868, 193.8619
527.1689, 181.5215
527.6510, 172.6731
528.1331, 172.2968
528.6152, 172.6778
529.0974, 167.8597
529.5795, 159.5005
530.0616, 152.6395
530.5437, 149.8276
531.0258, 150.0725
531.5079, 150.8520
531.9901, 150.7557
532.4722, 153.9804
532.9543, 164.9192
533.4364, 175.1449
533.9185, 179.8504
534.4006, 178.9950
534.8828, 174.1226
535.3649, 163.9642
535.8470, 151.9603
536.3291, 150.5844
536.8112, 163.0617
537.2933, 173.9460
537.7755, 177.6397
538.2576, 176.5214
538.7397, 172.3793
539.2218, 164.7229
539.7039, 158.3302
540.1860, 155.9546
540.6682, 156.1826
541.1503, 157.2170
541.6324, 158.7994
542.1145, 160.6728
542.5966, 163.1324
543.0787, 165.7666
543.5609, 164.8724
544.0430, 155.0242
544.5251, 148.8906
545.0072, 150.8828
545.4893, 156.8173
545.9714, 163.9464
546.4536, 170.7825
546.9357, 174.1640
547.4178, 168.8664
547.8999, 154.3742
548.3820, 147.2603
548.8641, 152.9023
549.3463, 158.3710
549.8284, 157.6444
550.3105, 154.3304
550.7926, 153.7744
551.2747, 158.1582
551.7568, 162.8313
552.2390, 163.7657
552.7211, 161.4208
553.2032, 156.6388
553.6853, 148.5444
554.1674, 142.0115
554.6495, 142.3034
555.1317, 149.4284
555.6138, 155.1728
556.0959, 158.3376
556.5780, 161.2185
557.0601, 166.3665
557.5422, 171.6079
558.0244, 171.6190
558.5065, 164.7214
558.9886, 157.2287
559.4707, 151.6886
559.9528, 162.1132
560.4349, 168.0431
560.9171, 169.7198
561.3992, 154.4046
561.8813, 161.0309
562.3634, 158.8641
562.8455, 156.3366
563.3276, 166.0511
563.8098, 153.2074
564.2919, 162.7278
564.7740, 163.3208
565.2561, 167.9996
565.7382, 163.8310
566.2203, 162.3950
566.7025, 169.8094
567.1846, 172.3233
567.6667, 167.1362
568.1488, 172.0747
568.6309, 158.9219
569.1130, 161.6445
569.5952, 171.2167
570.0773, 166.4744
570.5594, 171.5747
571.0415, 172.9264
571.5236, 157.2423
572.0057, 171.1852
572.4879, 172.3154
572.9700, 160.2897
573.4521, 173.2175
573.9342, 163.0055
574.4163, 161.0529
574.8984, 165.3162
575.3806, 163.0998
575.8627, 170.1837
576.3448, 165.5929
576.8269, 151.3637
577.3090, 144.0113
577.7911, 150.1382
578.2733, 160.1830
578.7554, 164.9923
579.2375, 165.0527
579.7196, 162.4470
580.2017, 152.1716
580.6838, 144.2374
581.1660, 149.0158
581.6481, 161.6256
582.1302, 168.6926
582.6123, 164.4530
583.0944, 155.5675
583.5765, 154.0632
584.0587, 164.1495
584.5408, 169.6072
585.0229, 168.9608
585.5050, 165.4731
585.9871, 157.3055
586.4692, 147.7220
586.9514, 134.4217
587.4335, 145.3039
587.9156, 151.6915
588.3977, 153.8259
588.8798, 138.9684
589.3619, 146.0523
589.8441, 144.3433
590.3262, 142.2735
590.8083, 152.4456
591.2904, 140.0595
591.7725, 150.0375
592.2546, 151.0881
592.7368, 156.2248
593.2189, 152.5137
593.7010, 151.5354
594.1831, 147.3508
594.6652, 154.2037
595.1473, 164.7875
595.6295, 168.5792
596.1116, 164.7877
596.5937, 158.0091
597.0758, 140.1703
597.5579, 128.0016
598.0400, 130.9478
598.5222, 141.8158
599.0043, 149.4406
599.4864, 149.5513
599.9685, 147.1627
600.4506, 148.0141
600.9327, 151.1431
601.4149, 151.2854
601.8970, 146.8922
602.3791, 142.1940
602.8612, 140.7315
603.3433, 142.3001
603.8254, 143.6101
604.3076, 144.3588
604.7897, 145.2084
605.2718, 145.7930
605.7539, 146.8670
606.2360, 150.6886
606.7181, 157.1134
607.2003, 161.6744
607.6824, 158.6817
608.1645, 148.3770
608.6466, 142.3964
609.1287, 142.6372
609.6108, 144.1300
610.0930, 147.2247
610.5751, 149.6270
611.0572, 148.2714
611.5393, 142.4051
612.0214, 136.2472
612.5035, 132.0454
612.9857, 129.6062
613.4678, 128.0226
613.9499, 127.2931
614.4320, 130.4615
614.9141, 141.3812
615.3962, 156.1322
615.8784, 160.5236
616.3605, 140.9378
616.8426, 129.9624
617.3247, 135.8093
617.8068, 145.4490
618.2889, 148.6341
618.7711, 145.9211
619.2532, 144.2710
619.7353, 149.2715
620.2174, 157.4655
620.6995, 158.7859
621.1816, 151.7934
621.6638, 146.5288
622.1459, 146.8141
622.6280, 148.5635
623.1101, 147.4165
623.5922, 143.5735
