##NAMES=Umangite
##RRUFFID=R070019
##IDEAL CHEMISTRY=Cu_3_Se_2_
##LOCALITY=Ato Bay, Beaverlodge Lake, Saskatchewan, Canada
##OWNER=RRUFF
##SOURCE=Mark Mauthner
##DESCRIPTION=Metallic dark blue to black blebs underneath green glassy material
##STATUS=The identification of this mineral has been confirmed by X-ray diffraction and chemical analysis
##URL=rruff.info/R070019
##MEASURED CHEMISTRY=Cu_3.00_Se_2.00_
161.3254, 1446.660
161.8075, 1458.015
162.2896, 1474.175
162.7718, 1487.615
163.2539, 1497.495
163.7360, 1506.201
164.2181, 1513.907
164.7002, 1521.144
165.1823, 1529.098
165.6645, 1538.406
166.1466, 1549.267
166.6287, 1562.934
167.1108, 1584.355
167.5929, 1603.637
168.0750, 1613.033
168.5572, 1615.018
169.0393, 1619.992
169.5214, 1635.947
170.0035, 1661.616
170.4856, 1682.216
170.9677, 1697.240
171.4499, 1708.315
171.9320, 1713.366
172.4141, 1713.927
172.8962, 1717.644
173.3783, 1731.449
173.8604, 1752.547
174.3426, 1763.831
174.8247, 1749.735
175.3068, 1739.910
175.7889, 1758.710
176.2710, 1801.441
176.7531, 1838.105
177.2353, 1848.358
177.7174, 1838.038
178.1995, 1837.415
178.6816, 1854.312
179.1637, 1873.668
179.6458, 1885.979
180.1280, 1892.011
180.6101, 1897.598
181.0922, 1906.166
181.5743, 1916.554
182.0564, 1924.725
182.5385, 1926.474
183.0207, 1930.651
183.5028, 1945.861
183.9849, 1970.693
184.4670, 1993.541
184.9491, 2008.779
185.4312, 2017.552
185.9134, 2023.967
186.3955, 2024.614
186.8776, 2018.390
187.3597, 2033.001
187.8418, 2043.331
188.3239, 2049.610
188.8061, 2039.708
189.2882, 2050.701
189.7703, 2053.319
190.2524, 2055.595
190.7345, 2069.529
191.2166, 2068.148
191.6988, 2071.905
192.1809, 2077.115
192.6630, 2084.871
193.1451, 2092.912
193.6272, 2098.356
194.1093, 2101.394
194.5915, 2101.123
195.0736, 2095.004
195.5557, 2083.908
196.0378, 2074.802
196.5199, 2071.798
197.0020, 2070.328
197.4842, 2064.069
197.9663, 2052.045
198.4484, 2039.551
198.9305, 2031.798
199.4126, 2027.645
199.8947, 2019.286
200.3769, 2002.289
200.8590, 1982.476
201.3411, 1964.990
201.8232, 1941.672
202.3053, 1943.531
202.7874, 1941.110
203.2696, 1934.637
203.7517, 1911.983
204.2338, 1910.225
204.7159, 1900.093
205.1980, 1889.617
205.6801, 1890.800
206.1623, 1870.498
206.6444, 1871.496
207.1265, 1863.992
207.6086, 1860.380
208.0907, 1848.341
208.5728, 1838.905
209.0550, 1840.079
209.5371, 1837.256
210.0192, 1833.382
210.5013, 1829.773
210.9834, 1826.316
211.4656, 1822.912
211.9477, 1820.382
212.4298, 1816.287
212.9119, 1807.550
213.3940, 1795.472
213.8761, 1784.683
214.3583, 1777.685
214.8404, 1773.441
215.3225, 1768.766
215.8046, 1762.087
216.2867, 1749.835
216.7688, 1758.686
217.2510, 1763.257
217.7331, 1763.777
218.2152, 1748.115
218.6973, 1753.349
219.1794, 1750.208
219.6615, 1746.725
220.1437, 1754.900
220.6258, 1741.591
221.1079, 1749.581
221.5900, 1749.069
222.0721, 1752.449
222.5542, 1744.616
223.0364, 1744.422
223.5185, 1747.403
224.0006, 1749.408
224.4827, 1747.199
224.9648, 1742.900
225.4469, 1739.126
225.9291, 1736.183
226.4112, 1734.226
226.8933, 1733.270
227.3754, 1733.278
227.8575, 1735.016
228.3396, 1741.775
228.8218, 1748.849
229.3039, 1749.307
229.7860, 1739.928
230.2681, 1730.146
230.7502, 1729.661
231.2323, 1737.903
231.7145, 1743.871
232.1966, 1742.584
232.6787, 1738.271
233.1608, 1735.318
233.6429, 1733.374
234.1250, 1735.364
234.6072, 1747.659
235.0893, 1767.368
235.5714, 1778.503
236.0535, 1773.789
236.5356, 1763.001
237.0177, 1756.292
237.4999, 1753.532
237.9820, 1754.322
238.4641, 1757.267
238.9462, 1763.560
239.4283, 1777.996
239.9104, 1804.706
240.3926, 1832.819
240.8747, 1851.221
241.3568, 1861.332
241.8389, 1870.175
242.3210, 1878.519
242.8031, 1887.680
243.2853, 1899.561
243.7674, 1914.142
244.2495, 1932.331
244.7316, 1958.982
245.2137, 1990.868
245.6958, 2017.018
246.1780, 2029.504
246.6601, 2038.188
247.1422, 2054.061
247.6243, 2077.786
248.1064, 2104.117
248.5885, 2129.697
249.0707, 2155.335
249.5528, 2182.973
250.0349, 2216.115
250.5170, 2248.560
250.9991, 2274.223
251.4812, 2293.973
251.9634, 2314.341
252.4455, 2337.797
252.9276, 2364.708
253.4097, 2394.774
253.8918, 2428.353
254.3739, 2464.207
254.8561, 2503.438
255.3382, 2544.587
255.8203, 2583.450
256.3024, 2617.484
256.7845, 2649.755
257.2667, 2688.691
257.7488, 2739.753
258.2309, 2779.939
258.7130, 2801.182
259.1951, 2807.711
259.6772, 2804.093
260.1594, 2790.780
260.6415, 2772.985
261.1236, 2759.834
261.6057, 2755.253
262.0878, 2734.597
262.5699, 2690.241
263.0521, 2631.294
263.5342, 2565.553
264.0163, 2494.087
264.4984, 2416.399
264.9805, 2328.765
265.4626, 2229.312
265.9448, 2144.668
266.4269, 2077.447
266.9090, 2021.583
267.3911, 1976.796
267.8732, 1940.993
268.3553, 1907.619
268.8375, 1872.173
269.3196, 1834.912
269.8017, 1802.574
270.2838, 1774.357
270.7659, 1750.662
271.2480, 1734.026
271.7302, 1721.634
272.2123, 1708.131
272.6944, 1690.460
273.1765, 1671.003
273.6586, 1657.104
274.1407, 1651.593
274.6229, 1648.527
275.1050, 1650.041
275.5871, 1652.784
276.0692, 1651.976
276.5513, 1646.370
277.0334, 1640.487
277.5156, 1642.691
277.9977, 1662.939
278.4798, 1670.668
278.9619, 1658.207
279.4440, 1640.563
279.9261, 1624.968
280.4083, 1613.716
280.8904, 1608.078
281.3725, 1610.276
281.8546, 1621.928
282.3367, 1630.940
282.8188, 1639.102
283.3010, 1643.120
283.7831, 1638.094
284.2652, 1627.717
284.7473, 1620.944
285.2294, 1625.310
285.7115, 1638.218
286.1937, 1639.127
286.6758, 1613.292
287.1579, 1594.037
287.6400, 1590.172
288.1221, 1595.813
288.6042, 1605.157
289.0864, 1616.086
289.5685, 1625.785
290.0506, 1627.603
290.5327, 1618.333
291.0148, 1608.954
291.4969, 1599.586
291.9791, 1592.032
292.4612, 1587.377
292.9433, 1585.920
293.4254, 1587.953
293.9075, 1595.554
294.3896, 1609.462
294.8718, 1619.666
295.3539, 1623.492
295.8360, 1624.580
296.3181, 1624.468
296.8002, 1623.399
297.2823, 1621.826
297.7645, 1620.631
298.2466, 1619.293
298.7287, 1615.550
299.2108, 1608.987
299.6929, 1600.726
300.1750, 1588.792
300.6572, 1575.986
301.1393, 1567.282
301.6214, 1563.500
302.1035, 1565.511
302.5856, 1578.249
303.0677, 1602.906
303.5499, 1621.559
304.0320, 1623.354
304.5141, 1615.446
304.9962, 1609.593
305.4783, 1607.093
305.9604, 1604.978
306.4426, 1599.720
306.9247, 1592.963
307.4068, 1591.561
307.8889, 1599.691
308.3710, 1609.660
308.8531, 1608.501
309.3353, 1595.627
309.8174, 1586.823
310.2995, 1590.260
310.7816, 1598.310
311.2637, 1601.447
311.7458, 1598.307
312.2280, 1593.156
312.7101, 1589.242
313.1922, 1586.730
313.6743, 1585.917
314.1564, 1589.234
314.6385, 1592.007
315.1207, 1590.350
315.6028, 1585.647
316.0849, 1582.394
316.5670, 1583.191
317.0491, 1587.337
317.5313, 1592.022
318.0134, 1600.444
318.4955, 1605.388
318.9776, 1605.038
319.4597, 1600.977
319.9418, 1593.504
320.4240, 1583.075
320.9061, 1573.202
321.3882, 1569.969
321.8703, 1577.781
322.3524, 1582.104
322.8345, 1579.498
323.3167, 1576.794
323.7988, 1578.919
324.2809, 1585.247
324.7630, 1591.507
325.2451, 1594.015
325.7272, 1592.810
326.2094, 1590.881
326.6915, 1587.346
327.1736, 1584.047
327.6557, 1581.635
328.1378, 1579.689
328.6199, 1577.170
329.1021, 1573.301
329.5842, 1569.759
330.0663, 1570.247
330.5484, 1575.327
331.0305, 1582.923
331.5126, 1597.794
331.9948, 1611.588
332.4769, 1617.040
332.9590, 1613.201
333.4411, 1606.721
333.9232, 1603.652
334.4053, 1603.672
334.8875, 1602.775
335.3696, 1599.796
335.8517, 1596.920
336.3338, 1596.796
336.8159, 1598.287
337.2980, 1597.537
337.7802, 1589.804
338.2623, 1580.197
338.7444, 1576.120
339.2265, 1577.717
339.7086, 1584.333
340.1907, 1600.730
340.6729, 1620.142
341.1550, 1626.759
341.6371, 1613.618
342.1192, 1598.269
342.6013, 1589.548
343.0834, 1586.226
343.5656, 1586.016
344.0477, 1588.808
344.5298, 1592.309
345.0119, 1592.677
345.4940, 1589.079
345.9761, 1585.958
346.4583, 1581.425
346.9404, 1579.109
347.4225, 1583.492
347.9046, 1594.203
348.3867, 1606.470
348.8688, 1617.097
349.3510, 1626.113
349.8331, 1628.011
350.3152, 1614.999
350.7973, 1604.631
351.2794, 1603.435
351.7615, 1607.776
352.2437, 1612.261
352.7258, 1614.437
353.2079, 1614.619
353.6900, 1613.416
354.1721, 1610.587
354.6542, 1606.693
355.1364, 1598.986
355.6185, 1592.482
356.1006, 1591.584
356.5827, 1595.943
357.0648, 1600.975
357.5469, 1602.186
358.0291, 1599.654
358.5112, 1598.142
358.9933, 1598.495
359.4754, 1598.756
359.9575, 1596.819
360.4396, 1594.538
360.9218, 1595.703
361.4039, 1603.743
361.8860, 1612.434
362.3681, 1609.696
362.8502, 1593.960
363.3323, 1584.060
363.8145, 1590.418
364.2966, 1602.116
364.7787, 1605.648
365.2608, 1599.641
365.7430, 1596.092
366.2251, 1605.786
366.7072, 1621.678
367.1893, 1629.328
367.6714, 1626.341
368.1535, 1616.784
368.6357, 1600.061
369.1178, 1577.826
369.5999, 1567.477
370.0820, 1580.852
370.5641, 1596.382
371.0462, 1601.159
371.5284, 1597.184
372.0105, 1590.225
372.4926, 1582.184
372.9747, 1575.445
373.4568, 1576.245
373.9389, 1590.838
374.4211, 1603.896
374.9032, 1616.241
375.3853, 1625.962
375.8674, 1631.465
376.3495, 1632.514
376.8316, 1629.645
377.3138, 1622.482
377.7959, 1610.381
378.2780, 1603.322
378.7601, 1608.276
379.2422, 1611.113
379.7243, 1606.474
380.2065, 1597.913
380.6886, 1590.639
381.1707, 1586.831
381.6528, 1586.200
382.1349, 1589.293
382.6170, 1597.888
383.0992, 1603.108
383.5813, 1596.273
384.0634, 1590.692
384.5455, 1599.134
385.0276, 1620.540
385.5097, 1636.938
385.9919, 1630.134
386.4740, 1609.668
386.9561, 1603.548
387.4382, 1616.670
387.9203, 1631.384
388.4024, 1637.083
388.8846, 1635.726
389.3667, 1631.719
389.8488, 1621.155
390.3309, 1613.577
390.8130, 1618.212
391.2951, 1630.840
391.7773, 1640.259
392.2594, 1642.892
392.7415, 1640.200
393.2236, 1633.469
393.7057, 1619.836
394.1878, 1611.250
394.6700, 1611.370
395.1521, 1614.168
395.6342, 1616.256
396.1163, 1617.086
396.5984, 1616.783
397.0805, 1615.415
397.5627, 1613.008
398.0448, 1609.699
398.5269, 1601.698
399.0090, 1597.852
399.4911, 1603.110
399.9732, 1610.769
400.4554, 1614.117
400.9375, 1611.509
401.4196, 1606.394
401.9017, 1602.141
402.3838, 1598.594
402.8659, 1597.882
403.3481, 1602.607
403.8302, 1607.217
404.3123, 1609.352
404.7944, 1609.301
405.2765, 1607.855
405.7586, 1605.723
406.2408, 1601.939
406.7229, 1592.311
407.2050, 1576.800
407.6871, 1569.063
408.1692, 1577.982
408.6513, 1593.888
409.1335, 1602.078
409.6156, 1601.713
410.0977, 1599.778
410.5798, 1595.901
411.0619, 1593.078
411.5440, 1596.196
412.0262, 1605.440
412.5083, 1615.884
412.9904, 1624.671
413.4725, 1631.487
413.9546, 1631.274
414.4367, 1616.355
414.9189, 1604.807
415.4010, 1603.563
415.8831, 1607.485
416.3652, 1609.701
416.8473, 1607.988
417.3294, 1604.984
417.8116, 1604.320
418.2937, 1606.117
418.7758, 1609.876
419.2579, 1619.003
419.7400, 1626.857
420.2221, 1630.106
420.7043, 1630.115
421.1864, 1630.710
421.6685, 1635.357
422.1506, 1639.460
422.6327, 1630.639
423.1148, 1605.490
423.5970, 1588.293
424.0791, 1591.172
424.5612, 1602.096
425.0433, 1608.962
425.5254, 1611.268
426.0075, 1612.883
426.4897, 1616.084
426.9718, 1619.606
427.4539, 1621.348
427.9360, 1621.099
428.4181, 1619.873
428.9002, 1617.495
429.3824, 1614.768
429.8645, 1616.109
430.3466, 1626.039
430.8287, 1634.070
431.3108, 1637.692
431.7929, 1637.668
432.2751, 1634.165
432.7572, 1627.515
433.2393, 1619.720
433.7214, 1612.659
434.2035, 1605.475
434.6856, 1604.071
435.1678, 1616.343
435.6499, 1626.108
436.1320, 1625.661
436.6141, 1619.849
437.0962, 1617.738
437.5783, 1624.030
438.0605, 1632.413
438.5426, 1631.038
439.0247, 1618.355
439.5068, 1608.345
439.9889, 1603.544
440.4710, 1602.618
440.9532, 1606.919
441.4353, 1615.039
441.9174, 1618.386
442.3995, 1607.522
442.8816, 1593.169
443.3637, 1589.454
443.8459, 1596.115
444.3280, 1605.463
444.8101, 1614.276
445.2922, 1622.785
445.7743, 1632.028
446.2564, 1644.968
446.7386, 1652.466
447.2207, 1650.862
447.7028, 1644.609
448.1849, 1636.160
448.6670, 1626.793
449.1491, 1618.966
449.6313, 1614.844
450.1134, 1614.190
450.5955, 1614.073
451.0776, 1614.711
451.5597, 1615.639
452.0418, 1616.179
452.5240, 1617.282
453.0061, 1620.617
453.4882, 1626.359
453.9703, 1631.617
454.4524, 1633.365
454.9345, 1631.847
455.4167, 1629.394
455.8988, 1626.042
456.3809, 1621.937
456.8630, 1615.966
457.3451, 1609.458
457.8272, 1604.996
458.3094, 1603.583
458.7915, 1603.525
459.2736, 1604.226
459.7557, 1605.370
460.2378, 1605.964
460.7199, 1605.641
461.2021, 1605.583
461.6842, 1607.471
462.1663, 1611.943
462.6484, 1614.351
463.1305, 1611.188
463.6126, 1609.720
464.0948, 1615.064
464.5769, 1623.988
465.0590, 1631.107
465.5411, 1633.989
466.0232, 1633.238
466.5053, 1628.989
466.9875, 1619.316
467.4696, 1613.081
467.9517, 1612.265
468.4338, 1613.935
468.9159, 1619.321
469.3980, 1626.231
469.8802, 1628.796
470.3623, 1621.606
470.8444, 1611.564
471.3265, 1609.642
471.8086, 1615.490
472.2907, 1620.017
472.7729, 1618.848
473.2550, 1616.862
473.7371, 1624.112
474.2192, 1642.215
474.7013, 1651.229
475.1834, 1641.085
475.6656, 1625.652
476.1477, 1613.064
476.6298, 1604.767
477.1119, 1602.750
477.5940, 1608.610
478.0761, 1619.468
478.5583, 1627.475
479.0404, 1632.988
479.5225, 1634.606
480.0046, 1628.141
480.4867, 1621.760
480.9688, 1621.056
481.4510, 1625.399
481.9331, 1630.448
482.4152, 1633.581
482.8973, 1635.201
483.3794, 1636.532
483.8615, 1637.820
484.3437, 1637.237
484.8258, 1632.034
485.3079, 1626.353
485.7900, 1625.814
486.2721, 1630.946
486.7542, 1635.527
487.2364, 1635.894
487.7185, 1635.353
488.2006, 1638.663
488.6827, 1645.324
489.1649, 1650.138
489.6470, 1649.812
490.1291, 1645.679
490.6112, 1642.164
491.0933, 1639.485
491.5754, 1637.188
492.0576, 1636.655
492.5397, 1635.461
493.0218, 1629.337
493.5039, 1620.216
493.9860, 1616.147
494.4681, 1625.539
494.9503, 1642.683
495.4324, 1644.989
495.9145, 1626.199
496.3966, 1613.573
496.8787, 1620.008
497.3608, 1633.430
497.8430, 1644.543
498.3251, 1652.834
498.8072, 1654.584
499.2893, 1639.965
499.7714, 1622.223
500.2535, 1620.592
500.7357, 1634.608
501.2178, 1651.064
501.6999, 1664.315
502.1820, 1672.602
502.6641, 1670.628
503.1462, 1647.396
503.6284, 1630.633
504.1105, 1620.413
504.5926, 1617.110
505.0747, 1625.566
505.5568, 1641.861
506.0389, 1654.258
506.5211, 1653.987
507.0032, 1645.080
507.4853, 1639.379
507.9674, 1636.580
508.4495, 1638.171
508.9316, 1648.047
509.4138, 1659.788
509.8959, 1668.935
510.3780, 1675.254
510.8601, 1678.816
511.3422, 1679.410
511.8243, 1677.420
512.3065, 1672.189
512.7886, 1664.299
513.2707, 1656.534
513.7528, 1649.550
514.2349, 1645.064
514.7170, 1646.906
515.1992, 1659.527
515.6813, 1669.149
516.1634, 1677.050
516.6455, 1680.818
517.1276, 1676.831
517.6097, 1667.627
518.0919, 1658.633
518.5740, 1652.622
519.0561, 1649.303
519.5382, 1649.147
520.0203, 1653.073
520.5024, 1653.825
520.9846, 1645.556
521.4667, 1639.275
521.9488, 1646.256
522.4309, 1662.700
522.9130, 1673.531
523.3951, 1669.911
523.8773, 1662.547
524.3594, 1660.204
524.8415, 1661.327
525.3236, 1661.735
525.8057, 1660.121
526.2878, 1656.546
526.7700, 1650.163
527.2521, 1638.857
527.7342, 1636.225
528.2163, 1652.335
528.6984, 1664.847
529.1805, 1663.327
529.6627, 1654.431
530.1448, 1647.759
530.6269, 1646.691
531.1090, 1647.558
531.5911, 1644.054
532.0732, 1636.886
532.5554, 1639.444
533.0375, 1657.836
533.5196, 1674.062
534.0017, 1672.423
534.4838, 1661.287
534.9659, 1659.090
535.4481, 1674.585
535.9302, 1685.699
536.4123, 1679.598
536.8944, 1664.166
537.3765, 1647.633
537.8586, 1632.423
538.3408, 1622.242
538.8229, 1621.025
539.3050, 1627.483
539.7871, 1630.918
540.2692, 1627.433
540.7513, 1626.852
541.2335, 1635.061
541.7156, 1643.156
542.1977, 1641.633
542.6798, 1631.396
543.1619, 1623.648
543.6440, 1627.931
544.1262, 1639.341
544.6083, 1649.025
545.0904, 1657.040
545.5725, 1659.474
546.0546, 1652.322
546.5367, 1641.991
547.0189, 1639.497
547.5010, 1646.160
547.9831, 1652.472
548.4652, 1661.529
548.9473, 1666.257
549.4294, 1657.868
549.9116, 1642.038
550.3937, 1631.922
550.8758, 1633.751
551.3579, 1640.064
551.8400, 1635.044
552.3221, 1614.001
552.8043, 1609.245
553.2864, 1637.661
553.7685, 1662.954
554.2506, 1661.790
554.7327, 1646.020
555.2148, 1638.741
555.6970, 1649.868
556.1791, 1660.888
556.6612, 1654.162
557.1433, 1638.414
557.6254, 1632.307
558.1075, 1638.999
558.5897, 1650.469
559.0718, 1661.489
559.5539, 1671.324
560.0360, 1672.992
560.5181, 1654.010
561.0002, 1642.703
561.4824, 1648.673
561.9645, 1658.309
562.4466, 1660.346
562.9287, 1654.211
563.4108, 1645.849
563.8929, 1638.512
564.3751, 1632.665
564.8572, 1628.960
565.3393, 1627.260
565.8214, 1630.553
566.3035, 1642.255
566.7856, 1656.238
567.2678, 1664.288
567.7499, 1666.490
568.2320, 1667.441
568.7141, 1667.846
569.1962, 1667.026
569.6783, 1664.638
570.1605, 1660.724
570.6426, 1653.993
571.1247, 1644.343
571.6068, 1636.330
572.0889, 1637.188
572.5710, 1647.750
573.0532, 1656.815
573.5353, 1665.657
574.0174, 1670.761
574.4995, 1670.069
574.9816, 1665.290
575.4637, 1656.018
575.9459, 1640.194
576.4280, 1632.259
576.9101, 1650.571
577.3922, 1676.742
577.8743, 1681.455
578.3564, 1665.039
578.8386, 1649.439
579.3207, 1647.775
579.8028, 1654.792
580.2849, 1655.732
580.7670, 1644.510
581.2491, 1638.421
581.7313, 1639.839
582.2134, 1643.511
582.6955, 1646.580
583.1776, 1649.739
583.6597, 1655.652
584.1418, 1666.499
584.6240, 1677.248
585.1061, 1682.641
585.5882, 1682.776
586.0703, 1676.074
586.5524, 1660.696
587.0345, 1647.090
587.5167, 1643.769
587.9988, 1649.994
588.4809, 1659.271
588.9630, 1682.164
589.4451, 1693.862
589.9272, 1679.008
590.4094, 1658.513
590.8915, 1653.663
591.3736, 1663.530
591.8557, 1671.266
592.3378, 1663.765
592.8199, 1647.063
593.3021, 1635.588
593.7842, 1629.271
594.2663, 1629.941
594.7484, 1643.793
595.2305, 1657.222
595.7126, 1651.884
596.1948, 1631.417
596.6769, 1620.549
597.1590, 1632.005
597.6411, 1643.976
598.1232, 1642.701
598.6053, 1635.887
599.0875, 1636.877
599.5696, 1647.973
600.0517, 1659.084
600.5338, 1659.523
601.0159, 1650.631
601.4980, 1645.148
601.9802, 1643.771
602.4623, 1644.192
602.9444, 1648.353
603.4265, 1652.200
603.9086, 1651.881
604.3907, 1647.398
604.8729, 1642.398
605.3550, 1636.150
605.8371, 1631.697
606.3192, 1631.209
606.8013, 1634.769
607.2834, 1644.303
607.7656, 1660.383
608.2477, 1676.079
608.7298, 1682.128
609.2119, 1677.922
609.6940, 1671.793
610.1761, 1658.413
610.6583, 1650.838
611.1404, 1656.272
611.6225, 1666.458
612.1046, 1674.725
612.5867, 1679.794
613.0688, 1678.961
613.5510, 1666.764
614.0331, 1650.037
614.5152, 1634.410
614.9973, 1621.664
615.4794, 1622.467
615.9615, 1643.045
616.4437, 1668.078
616.9258, 1672.401
617.4079, 1649.572
617.8900, 1634.938
618.3721, 1634.806
618.8542, 1635.593
619.3364, 1633.368
619.8185, 1629.973
620.3006, 1627.382
620.7827, 1626.114
621.2648, 1627.177
621.7469, 1633.623
622.2291, 1642.115
622.7112, 1646.261
623.1933, 1645.897
623.6754, 1642.731
624.1575, 1636.934
624.6396, 1630.332
625.1218, 1625.755
625.6039, 1622.330
626.0860, 1624.150
626.5681, 1640.599
627.0502, 1651.332
627.5323, 1642.544
628.0145, 1625.832
628.4966, 1618.109
628.9787, 1624.088
629.4608, 1633.245
629.9429, 1637.323
630.4250, 1637.359
630.9072, 1635.390
631.3893, 1631.499
631.8714, 1628.146
632.3535, 1626.391
632.8356, 1625.990
633.3177, 1626.847
633.7999, 1630.295
634.2820, 1630.800
634.7641, 1625.847
635.2462, 1620.831
635.7283, 1615.770
636.2104, 1612.985
636.6926, 1617.454
637.1747, 1630.252
637.6568, 1642.131
638.1389, 1642.263
638.6210, 1634.651
639.1031, 1630.474
639.5853, 1630.128
640.0674, 1633.243
640.5495, 1640.769
641.0316, 1649.902
641.5137, 1655.962
641.9958, 1658.770
642.4780, 1658.644
642.9601, 1654.194
643.4422, 1648.445
643.9243, 1639.906
644.4064, 1632.014
644.8885, 1629.952
645.3707, 1634.897
645.8528, 1642.042
646.3349, 1650.728
646.8170, 1657.634
647.2991, 1650.106
647.7813, 1627.800
648.2634, 1608.931
648.7455, 1600.266
649.2276, 1600.920
649.7097, 1611.237
650.1918, 1635.410
650.6740, 1651.285
651.1561, 1658.309
651.6382, 1658.126
652.1203, 1643.681
652.6024, 1626.126
653.0845, 1621.682
653.5667, 1632.631
654.0488, 1641.866
654.5309, 1630.766
655.0130, 1609.297
655.4951, 1599.628
655.9772, 1601.463
656.4594, 1606.692
656.9415, 1613.406
657.4236, 1619.167
657.9057, 1620.598
