##NAMES=Umohoite
##RRUFFID=R061135
##IDEAL CHEMISTRY=(U^6+^O_2_)Mo^6+^O_4_&#183;2H_2_O
##LOCALITY=Kyzulsai Mo-U deposit, south Kazakhstan
##OWNER=RRUFF
##SOURCE=Michael Scott
##DESCRIPTION=Patches of dark green platy crystals
##STATUS=The identification of this mineral has been confirmed by single-crystal X-ray diffraction.
##URL=rruff.info/R061135
195.9820, 4980.821
196.4641, 4944.363
196.9462, 4914.845
197.4284, 4910.354
197.9105, 4931.783
198.3926, 4948.847
198.8747, 4959.123
199.3568, 4962.929
199.8389, 4959.214
200.3211, 4946.184
200.8032, 4933.036
201.2853, 4927.419
201.7674, 4930.517
202.2495, 4930.710
202.7316, 4925.768
203.2138, 4916.875
203.6959, 4907.756
204.1780, 4896.782
204.6601, 4890.074
205.1422, 4895.254
205.6243, 4915.653
206.1065, 4930.872
206.5886, 4935.964
207.0707, 4932.171
207.5528, 4930.630
208.0349, 4931.923
208.5170, 4934.345
208.9992, 4937.602
209.4813, 4943.741
209.9634, 4942.829
210.4455, 4928.188
210.9276, 4900.434
211.4097, 4890.732
211.8919, 4905.417
212.3740, 4929.173
212.8561, 4945.113
213.3382, 4951.308
213.8203, 4954.871
214.3024, 4956.552
214.7846, 4955.888
215.2667, 4958.666
215.7488, 4964.568
216.2309, 4974.255
216.7130, 4990.252
217.1951, 5017.179
217.6773, 5039.960
218.1594, 5052.826
218.6415, 5053.349
219.1236, 5057.428
219.6057, 5064.588
220.0878, 5075.741
220.5700, 5093.674
221.0521, 5124.124
221.5342, 5150.444
222.0163, 5165.773
222.4984, 5165.697
222.9805, 5169.915
223.4627, 5177.849
223.9448, 5190.356
224.4269, 5209.949
224.9090, 5241.803
225.3911, 5272.084
225.8732, 5294.102
226.3554, 5300.907
226.8375, 5319.339
227.3196, 5356.769
227.8017, 5402.738
228.2838, 5431.360
228.7659, 5431.201
229.2481, 5431.041
229.7302, 5444.407
230.2123, 5479.917
230.6944, 5508.598
231.1765, 5525.404
231.6587, 5535.738
232.1408, 5557.428
232.6229, 5604.253
233.1050, 5642.695
233.5871, 5652.101
234.0692, 5605.624
234.5514, 5588.915
235.0335, 5617.625
235.5156, 5677.487
235.9977, 5718.843
236.4798, 5734.460
236.9619, 5741.817
237.4441, 5749.525
237.9262, 5756.709
238.4083, 5766.313
238.8904, 5780.170
239.3725, 5796.785
239.8546, 5808.994
240.3368, 5814.493
240.8189, 5818.543
241.3010, 5824.720
241.7831, 5836.349
242.2652, 5842.705
242.7473, 5838.774
243.2295, 5827.814
243.7116, 5830.524
244.1937, 5858.184
244.6758, 5885.027
245.1579, 5892.066
245.6400, 5862.418
246.1222, 5794.739
246.6043, 5874.290
247.0864, 5924.613
247.5685, 5947.278
248.0506, 5859.452
248.5327, 5914.304
249.0149, 5911.979
249.4970, 5907.307
249.9791, 5982.239
250.4612, 5910.484
250.9433, 5984.154
251.4254, 5999.773
251.9076, 6041.963
252.3897, 6026.619
252.8718, 6029.044
253.3539, 6089.020
253.8360, 6117.130
254.3181, 6095.163
254.8003, 6139.042
255.2824, 6065.276
255.7645, 6094.743
256.2466, 6168.750
256.7287, 6149.675
257.2108, 6194.604
257.6930, 6215.159
258.1751, 6124.934
258.6572, 6227.361
259.1393, 6246.474
259.6214, 6180.038
260.1035, 6275.864
260.5857, 6221.225
261.0678, 6220.292
261.5499, 6259.776
262.0320, 6257.126
262.5141, 6320.907
262.9962, 6320.689
263.4784, 6314.757
263.9605, 6333.776
264.4426, 6345.518
264.9247, 6361.943
265.4068, 6370.161
265.8889, 6366.686
266.3711, 6353.928
266.8532, 6349.085
267.3353, 6352.293
267.8174, 6363.331
268.2995, 6385.222
268.7816, 6422.021
269.2638, 6452.137
269.7459, 6471.921
270.2280, 6481.960
270.7101, 6484.282
271.1922, 6476.057
271.6743, 6466.637
272.1565, 6466.196
272.6386, 6477.836
273.1207, 6478.869
273.6028, 6459.065
274.0849, 6426.272
274.5670, 6420.666
275.0492, 6448.434
275.5313, 6485.522
276.0134, 6514.469
276.4955, 6535.434
276.9776, 6546.962
277.4597, 6545.567
277.9419, 6535.392
278.4240, 6532.636
278.9061, 6538.270
279.3882, 6547.264
279.8703, 6558.164
280.3524, 6571.254
280.8346, 6575.584
281.3167, 6565.768
281.7988, 6548.164
282.2809, 6542.884
282.7630, 6551.092
283.2451, 6563.603
283.7273, 6576.638
284.2094, 6589.654
284.6915, 6591.978
285.1736, 6575.995
285.6557, 6553.688
286.1378, 6562.569
286.6200, 6605.072
287.1021, 6641.200
287.5842, 6632.028
288.0663, 6584.725
288.5484, 6550.023
289.0305, 6536.809
289.5127, 6539.212
289.9948, 6552.856
290.4769, 6577.429
290.9590, 6591.887
291.4411, 6569.894
291.9232, 6522.152
292.4054, 6494.598
292.8875, 6498.934
293.3696, 6517.009
293.8517, 6522.747
294.3338, 6516.338
294.8159, 6498.625
295.2981, 6454.815
295.7802, 6399.634
296.2623, 6378.190
296.7444, 6406.499
297.2265, 6447.259
297.7086, 6446.789
298.1908, 6411.832
298.6729, 6377.109
299.1550, 6368.716
299.6371, 6374.315
300.1192, 6370.218
300.6013, 6351.686
301.0835, 6328.573
301.5656, 6311.223
302.0477, 6298.328
302.5298, 6286.166
303.0119, 6272.383
303.4940, 6258.047
303.9762, 6241.995
304.4583, 6221.822
304.9404, 6209.754
305.4225, 6228.615
305.9046, 6265.009
306.3867, 6288.132
306.8689, 6269.235
307.3510, 6235.914
307.8331, 6215.717
308.3152, 6212.329
308.7973, 6213.250
309.2794, 6208.797
309.7616, 6202.740
310.2437, 6201.556
310.7258, 6217.229
311.2079, 6232.685
311.6900, 6230.849
312.1721, 6207.782
312.6543, 6193.991
313.1364, 6220.246
313.6185, 6262.414
314.1006, 6287.770
314.5827, 6266.727
315.0648, 6239.779
315.5470, 6229.157
316.0291, 6236.873
316.5112, 6242.490
316.9933, 6231.894
317.4754, 6217.396
317.9576, 6211.706
318.4397, 6232.042
318.9218, 6249.021
319.4039, 6248.468
319.8860, 6230.357
320.3681, 6219.021
320.8503, 6220.184
321.3324, 6230.767
321.8145, 6248.346
322.2966, 6288.961
322.7787, 6319.147
323.2608, 6325.848
323.7430, 6311.569
324.2251, 6305.389
324.7072, 6320.112
325.1893, 6337.966
325.6714, 6348.214
326.1535, 6336.235
326.6357, 6332.708
327.1178, 6340.313
327.5999, 6358.486
328.0820, 6383.553
328.5641, 6422.288
329.0462, 6461.857
329.5284, 6495.985
330.0105, 6519.617
330.4926, 6545.696
330.9747, 6574.838
331.4568, 6606.623
331.9389, 6640.247
332.4211, 6677.524
332.9032, 6713.655
333.3853, 6746.190
333.8674, 6772.471
334.3495, 6802.283
334.8316, 6834.695
335.3138, 6871.574
335.7959, 6916.726
336.2780, 6971.757
336.7601, 7030.868
337.2422, 7094.306
337.7243, 7164.862
338.2065, 7217.921
338.6886, 7245.840
339.1707, 7268.898
339.6528, 7315.670
340.1349, 7388.924
340.6170, 7475.181
341.0992, 7584.524
341.5813, 7710.345
342.0634, 7782.554
342.5455, 7791.223
343.0276, 7779.511
343.5097, 7791.351
343.9919, 7826.694
344.4740, 7874.651
344.9561, 7936.706
345.4382, 8007.928
345.9203, 8071.147
346.4024, 8126.576
346.8846, 8179.475
347.3667, 8232.519
347.8488, 8286.918
348.3309, 8345.984
348.8130, 8410.864
349.2951, 8479.482
349.7773, 8549.654
350.2594, 8620.676
350.7415, 8686.128
351.2236, 8732.258
351.7057, 8771.895
352.1878, 8830.332
352.6700, 8917.690
353.1521, 9013.143
353.6342, 9094.017
354.1163, 9164.044
354.5984, 9235.173
355.0806, 9320.922
355.5627, 9407.802
356.0448, 9477.854
356.5269, 9523.011
357.0090, 9574.661
357.4911, 9664.262
357.9733, 9774.078
358.4554, 9872.396
358.9375, 9946.068
359.4196, 10003.69
359.9017, 10048.44
360.3839, 10079.45
360.8660, 10104.53
361.3481, 10123.09
361.8302, 10138.63
362.3123, 10155.10
362.7944, 10162.47
363.2766, 10181.51
363.7587, 10228.80
364.2408, 10304.06
364.7229, 10361.58
365.2050, 10384.47
365.6871, 10390.85
366.1693, 10394.08
366.6514, 10394.08
367.1335, 10392.66
367.6156, 10385.75
368.0977, 10375.52
368.5798, 10377.04
369.0620, 10406.27
369.5441, 10432.70
370.0262, 10442.56
370.5083, 10436.82
370.9904, 10411.22
371.4725, 10353.63
371.9547, 10278.84
372.4368, 10227.26
372.9189, 10212.87
373.4010, 10195.89
373.8831, 10161.34
374.3652, 10108.36
374.8474, 10040.46
375.3295, 9946.601
375.8116, 9852.043
376.2937, 9801.130
376.7758, 9805.418
377.2579, 9792.826
377.7401, 9733.482
378.2222, 9633.836
378.7043, 9550.438
379.1864, 9485.579
379.6685, 9430.132
380.1506, 9379.724
380.6328, 9333.412
381.1149, 9280.185
381.5970, 9212.855
382.0791, 9139.951
382.5612, 9079.594
383.0433, 9031.045
383.5255, 8989.214
384.0076, 8958.837
384.4897, 8931.734
384.9718, 8884.171
385.4539, 8805.476
385.9360, 8721.182
386.4182, 8658.339
386.9003, 8613.658
387.3824, 8575.042
387.8645, 8546.060
388.3466, 8514.150
388.8287, 8459.910
389.3109, 8377.194
389.7930, 8299.518
390.2751, 8252.603
390.7572, 8225.684
391.2393, 8202.235
391.7214, 8179.623
392.2036, 8155.210
392.6857, 8128.238
393.1678, 8098.657
393.6499, 8063.805
394.1320, 8025.070
394.6141, 7979.423
395.0963, 7924.697
395.5784, 7834.009
396.0605, 7762.334
396.5426, 7734.631
397.0247, 7741.758
397.5068, 7733.034
397.9890, 7689.552
398.4711, 7639.699
398.9532, 7596.226
399.4353, 7557.379
399.9174, 7528.329
400.3995, 7515.853
400.8817, 7511.443
401.3638, 7498.060
401.8459, 7474.058
402.3280, 7443.563
402.8101, 7405.077
403.2922, 7355.977
403.7744, 7318.923
404.2565, 7297.172
404.7386, 7282.617
405.2207, 7265.708
405.7028, 7246.131
406.1849, 7226.333
406.6671, 7207.852
407.1492, 7189.442
407.6313, 7163.663
408.1134, 7128.978
408.5955, 7096.710
409.0776, 7077.782
409.5598, 7070.081
410.0419, 7061.215
410.5240, 7050.258
411.0061, 7035.209
411.4882, 7008.596
411.9703, 6973.146
412.4525, 6942.691
412.9346, 6930.339
413.4167, 6926.762
413.8988, 6919.556
414.3809, 6908.287
414.8630, 6889.447
415.3452, 6853.903
415.8273, 6809.427
416.3094, 6770.102
416.7915, 6739.681
417.2736, 6717.897
417.7557, 6709.345
418.2379, 6712.805
418.7200, 6712.966
419.2021, 6707.375
419.6842, 6692.932
420.1663, 6666.533
420.6484, 6611.839
421.1306, 6564.622
421.6127, 6537.627
422.0948, 6525.794
422.5769, 6513.122
423.0590, 6498.074
423.5411, 6481.048
424.0233, 6462.741
424.5054, 6445.478
424.9875, 6421.247
425.4696, 6381.668
425.9517, 6339.680
426.4338, 6313.832
426.9160, 6318.391
427.3981, 6313.235
427.8802, 6285.180
428.3623, 6235.496
428.8444, 6198.991
429.3265, 6178.809
429.8087, 6165.022
430.2908, 6151.162
430.7729, 6137.719
431.2550, 6119.578
431.7371, 6095.727
432.2192, 6067.011
432.7014, 6032.754
433.1835, 5993.035
433.6656, 5958.359
434.1477, 5934.122
434.6298, 5920.043
435.1119, 5921.330
435.5941, 5941.860
436.0762, 5955.650
436.5583, 5925.860
437.0404, 5867.276
437.5225, 5815.810
438.0046, 5791.343
438.4868, 5777.318
438.9689, 5757.604
439.4510, 5732.779
439.9331, 5709.142
440.4152, 5691.674
440.8973, 5676.358
441.3795, 5659.153
441.8616, 5637.001
442.3437, 5616.419
442.8258, 5601.146
443.3079, 5589.494
443.7900, 5577.895
444.2722, 5562.264
444.7543, 5549.368
445.2364, 5544.150
445.7185, 5551.098
446.2006, 5549.056
446.6827, 5524.081
447.1649, 5495.989
447.6470, 5484.881
448.1291, 5508.318
448.6112, 5519.729
449.0933, 5506.685
449.5754, 5474.585
450.0576, 5456.843
450.5397, 5457.903
451.0218, 5464.205
451.5039, 5470.249
451.9860, 5477.260
452.4681, 5472.443
452.9503, 5451.760
453.4324, 5425.395
453.9145, 5409.451
454.3966, 5403.779
454.8787, 5401.721
455.3608, 5398.309
455.8430, 5396.778
456.3251, 5410.150
456.8072, 5438.514
457.2893, 5465.564
457.7714, 5478.016
458.2535, 5478.690
458.7357, 5471.348
459.2178, 5451.828
459.6999, 5433.114
460.1820, 5429.193
460.6641, 5435.722
461.1462, 5439.663
461.6284, 5433.588
462.1105, 5423.311
462.5926, 5412.343
463.0747, 5400.837
463.5568, 5389.423
464.0389, 5373.909
464.5211, 5360.371
465.0032, 5355.683
465.4853, 5389.939
465.9674, 5402.054
466.4495, 5364.034
466.9316, 5282.930
467.4138, 5231.274
467.8959, 5228.627
468.3780, 5234.549
468.8601, 5227.607
469.3422, 5196.053
469.8243, 5184.635
470.3065, 5204.397
470.7886, 5233.392
471.2707, 5230.416
471.7528, 5188.418
472.2349, 5150.802
472.7170, 5133.907
473.1992, 5132.979
473.6813, 5123.882
474.1634, 5106.221
474.6455, 5084.457
475.1276, 5059.477
475.6097, 5033.038
476.0919, 5012.523
476.5740, 5000.978
477.0561, 4991.403
477.5382, 4975.574
478.0203, 4954.729
478.5024, 4932.600
478.9846, 4915.314
479.4667, 4894.885
479.9488, 4858.413
480.4309, 4804.170
480.9130, 4761.769
481.3951, 4762.970
481.8773, 4776.296
482.3594, 4772.029
482.8415, 4719.689
483.3236, 4673.813
483.8057, 4653.271
484.2878, 4650.719
484.7700, 4639.464
485.2521, 4605.185
485.7342, 4572.772
486.2163, 4552.193
486.6984, 4548.313
487.1805, 4536.425
487.6627, 4511.233
488.1448, 4483.745
488.6269, 4468.942
489.1090, 4473.021
489.5911, 4463.133
490.0732, 4424.702
490.5554, 4371.345
491.0375, 4354.833
491.5196, 4378.701
492.0017, 4400.623
492.4838, 4388.167
492.9659, 4351.123
493.4481, 4325.375
493.9302, 4315.168
494.4123, 4309.328
494.8944, 4295.706
495.3765, 4277.200
495.8586, 4260.162
496.3408, 4249.859
496.8229, 4239.629
497.3050, 4220.829
497.7871, 4195.743
498.2692, 4175.766
498.7513, 4173.648
499.2335, 4174.380
499.7156, 4166.153
500.1977, 4141.262
500.6798, 4122.221
501.1619, 4120.759
501.6440, 4126.428
502.1262, 4124.417
502.6083, 4101.153
503.0904, 4084.626
503.5725, 4083.113
504.0546, 4095.123
504.5367, 4098.597
505.0189, 4091.715
505.5010, 4079.447
505.9831, 4061.781
506.4652, 4036.273
506.9473, 4023.553
507.4294, 4027.544
507.9116, 4039.079
508.3937, 4046.039
508.8758, 4048.371
509.3579, 4045.965
509.8400, 4037.695
510.3221, 4025.191
510.8043, 4009.039
511.2864, 3989.998
511.7685, 3975.786
512.2506, 3977.615
512.7327, 3985.501
513.2148, 3984.640
513.6970, 3968.157
514.1791, 3955.914
514.6612, 3971.798
515.1433, 3997.902
515.6254, 4005.764
516.1075, 3962.855
516.5897, 3922.482
517.0718, 3905.040
517.5539, 3910.624
518.0360, 3917.166
518.5181, 3919.632
519.0002, 3924.624
519.4824, 3937.155
519.9645, 3970.559
520.4466, 3981.518
520.9287, 3960.141
521.4108, 3924.783
521.8929, 3904.681
522.3751, 3902.305
522.8572, 3904.308
523.3393, 3907.424
523.8214, 3911.760
524.3035, 3919.702
524.7856, 3931.585
525.2678, 3939.156
525.7499, 3934.142
526.2320, 3920.136
526.7141, 3903.904
527.1962, 3885.036
527.6783, 3871.263
528.1605, 3876.184
528.6426, 3890.888
529.1247, 3899.200
529.6068, 3883.391
530.0889, 3868.918
530.5710, 3875.898
531.0532, 3900.148
531.5353, 3914.946
532.0174, 3900.416
532.4995, 3882.270
532.9816, 3875.432
533.4637, 3889.554
533.9459, 3895.966
534.4280, 3888.536
534.9101, 3876.281
535.3922, 3869.667
535.8743, 3870.005
536.3564, 3873.583
536.8386, 3882.869
537.3207, 3894.284
537.8028, 3888.141
538.2849, 3860.159
538.7670, 3840.796
539.2491, 3856.726
539.7313, 3899.076
540.2134, 3924.909
540.6955, 3932.137
541.1776, 3927.103
541.6597, 3906.148
542.1418, 3878.690
542.6240, 3865.622
543.1061, 3882.346
543.5882, 3903.619
544.0703, 3908.746
544.5524, 3902.083
545.0345, 3896.131
545.5167, 3899.274
545.9988, 3902.160
546.4809, 3897.508
546.9630, 3882.481
547.4451, 3875.842
547.9272, 3882.745
548.4094, 3897.679
548.8915, 3917.811
549.3736, 3955.928
549.8557, 3974.473
550.3378, 3962.470
550.8199, 3934.407
551.3021, 3924.565
551.7842, 3937.524
552.2663, 3946.720
552.7484, 3938.765
553.2305, 3918.412
553.7126, 3910.769
554.1948, 3916.390
554.6769, 3924.244
555.1590, 3919.089
555.6411, 3910.373
556.1232, 3921.691
556.6053, 3962.759
557.0875, 4003.043
557.5696, 4013.435
558.0517, 4005.036
558.5338, 3997.363
559.0159, 4000.514
559.4980, 4003.499
559.9802, 3999.327
560.4623, 3989.343
560.9444, 3984.424
561.4265, 3991.832
561.9086, 4000.513
562.3907, 4004.822
562.8729, 4002.455
563.3550, 4003.340
563.8371, 4009.368
564.3192, 4016.597
564.8013, 4019.667
565.2834, 4017.005
565.7656, 4019.280
566.2477, 4030.168
566.7298, 4045.321
567.2119, 4056.947
567.6940, 4064.895
568.1761, 4066.399
568.6583, 4052.007
569.1404, 4032.882
569.6225, 4031.865
570.1046, 4049.296
570.5867, 4066.017
571.0688, 4062.761
571.5510, 4053.860
572.0331, 4035.165
572.5152, 4062.382
572.9973, 4079.856
573.4794, 4088.110
573.9615, 4059.535
574.4437, 4078.520
574.9258, 4078.443
575.4079, 4077.586
575.8900, 4103.263
576.3721, 4080.044
576.8542, 4105.300
577.3364, 4111.208
577.8185, 4125.970
578.3006, 4121.555
578.7827, 4123.062
579.2648, 4143.754
579.7469, 4153.823
580.2291, 4147.202
580.7112, 4162.526
581.1933, 4138.638
581.6754, 4160.114
582.1575, 4197.380
582.6396, 4234.218
583.1218, 4230.094
583.6039, 4198.291
584.0860, 4176.350
584.5681, 4190.452
585.0502, 4214.039
585.5323, 4231.594
586.0145, 4242.014
586.4966, 4251.072
586.9787, 4263.380
587.4608, 4272.611
587.9429, 4273.760
588.4250, 4257.563
588.9072, 4251.371
589.3893, 4256.951
589.8714, 4271.108
590.3535, 4292.780
590.8356, 4325.695
591.3177, 4346.869
591.7999, 4347.081
592.2820, 4334.895
592.7641, 4334.899
593.2462, 4346.578
593.7283, 4357.623
594.2104, 4362.442
594.6926, 4361.263
595.1747, 4348.382
595.6568, 4323.516
596.1389, 4310.083
596.6210, 4340.320
597.1031, 4383.058
597.5853, 4403.945
598.0674, 4377.831
598.5495, 4362.335
599.0316, 4389.933
599.5137, 4435.242
599.9958, 4454.606
600.4780, 4419.678
600.9601, 4392.340
601.4423, 4382.584
601.9244, 4389.271
602.4065, 4409.120
602.8886, 4448.455
603.3707, 4481.578
603.8528, 4490.264
604.3350, 4477.272
604.8171, 4475.130
605.2992, 4485.334
605.7813, 4496.955
606.2634, 4496.955
606.7455, 4491.046
607.2277, 4491.589
607.7098, 4503.104
608.1919, 4517.485
608.6740, 4527.712
609.1561, 4536.456
609.6382, 4548.102
610.1204, 4567.278
610.6025, 4586.773
611.0846, 4603.782
611.5667, 4618.684
612.0488, 4634.769
612.5309, 4662.161
613.0131, 4678.986
613.4952, 4670.402
613.9773, 4629.541
614.4594, 4618.434
614.9415, 4644.410
615.4236, 4680.941
615.9058, 4702.109
616.3879, 4709.298
616.8700, 4715.583
617.3521, 4723.129
617.8342, 4730.223
618.3163, 4730.924
618.7985, 4729.261
619.2806, 4735.128
619.7627, 4761.813
620.2448, 4790.004
620.7269, 4804.489
621.2090, 4808.087
621.6912, 4814.534
622.1733, 4835.188
622.6554, 4853.830
623.1375, 4858.792
623.6196, 4843.304
624.1017, 4849.627
624.5839, 4894.258
625.0660, 4941.424
625.5481, 4960.629
626.0302, 4945.097
626.5123, 4943.788
626.9944, 4963.790
627.4766, 4991.865
627.9587, 5007.705
628.4408, 5013.286
628.9229, 5019.807
629.4050, 5030.275
629.8871, 5044.382
630.3693, 5063.169
630.8514, 5085.561
631.3335, 5107.972
631.8156, 5131.258
632.2977, 5151.977
632.7798, 5164.493
633.2620, 5168.187
633.7441, 5179.908
634.2262, 5212.548
634.7083, 5246.780
635.1904, 5270.499
635.6725, 5276.967
636.1547, 5292.491
636.6368, 5322.591
637.1189, 5353.479
637.6010, 5364.067
638.0831, 5353.881
638.5652, 5353.693
639.0474, 5369.500
639.5295, 5399.034
640.0116, 5449.142
640.4937, 5511.827
640.9758, 5559.740
641.4579, 5559.751
641.9401, 5553.172
642.4222, 5578.171
642.9043, 5630.965
643.3864, 5680.227
643.8685, 5719.792
644.3506, 5747.847
644.8328, 5759.204
645.3149, 5743.231
645.7970, 5750.479
646.2791, 5793.420
646.7612, 5846.159
647.2433, 5885.471
647.7255, 5907.709
648.2076, 5940.097
648.6897, 5987.983
649.1718, 6039.083
649.6539, 6068.448
650.1360, 6081.418
650.6182, 6105.145
651.1003, 6152.177
651.5824, 6210.244
652.0645, 6271.092
652.5466, 6331.106
653.0287, 6378.369
653.5109, 6391.409
653.9930, 6404.548
654.4751, 6441.049
654.9572, 6501.918
655.4393, 6550.723
655.9214, 6566.545
656.4036, 6583.269
656.8857, 6616.769
657.3678, 6669.518
657.8499, 6728.087
658.3320, 6793.554
658.8141, 6861.825
659.2963, 6933.532
659.7784, 7007.132
660.2605, 7059.472
660.7426, 7079.864
661.2247, 7099.425
661.7068, 7165.570
662.1890, 7260.167
662.6711, 7343.572
663.1532, 7384.548
663.6353, 7423.661
664.1174, 7487.009
664.5995, 7567.599
665.0817, 7642.491
665.5638, 7693.624
666.0459, 7751.347
666.5280, 7830.177
667.0101, 7930.032
667.4922, 8012.404
667.9744, 8072.021
668.4565, 8124.457
668.9386, 8172.616
669.4207, 8217.942
669.9028, 8293.277
670.3849, 8402.556
670.8671, 8521.258
671.3492, 8629.521
671.8313, 8726.116
672.3134, 8805.088
672.7955, 8861.328
673.2776, 8910.647
673.7598, 8943.726
674.2419, 8982.664
674.7240, 9058.999
675.2061, 9236.392
675.6882, 9388.872
676.1703, 9477.817
676.6525, 9524.964
677.1346, 9584.217
677.6167, 9655.264
678.0988, 9738.100
678.5809, 9835.689
679.0630, 9945.016
679.5452, 10052.49
680.0273, 10157.64
680.5094, 10264.57
680.9915, 10383.48
681.4736, 10502.62
681.9557, 10590.51
682.4379, 10645.90
682.9200, 10713.31
683.4021, 10841.29
683.8842, 10982.35
684.3663, 11096.15
684.8484, 11163.54
685.3306, 11229.37
685.8127, 11292.60
686.2948, 11362.77
686.7769, 11453.40
687.2590, 11578.85
687.7411, 11681.24
688.2233, 11744.74
688.7054, 11794.62
689.1875, 11886.26
689.6696, 12014.59
690.1517, 12124.24
690.6339, 12182.07
691.1160, 12221.89
691.5981, 12291.20
692.0802, 12382.80
692.5623, 12470.21
693.0444, 12532.44
693.5266, 12593.16
694.0087, 12669.15
