##NAMES=Umohoite
##RRUFFID=R061135
##IDEAL CHEMISTRY=(U^6+^O_2_)Mo^6+^O_4_&#183;2H_2_O
##LOCALITY=Kyzulsai Mo-U deposit, south Kazakhstan
##OWNER=RRUFF
##SOURCE=Michael Scott
##DESCRIPTION=Patches of dark green platy crystals
##STATUS=The identification of this mineral has been confirmed by single-crystal X-ray diffraction.
##URL=rruff.info/R061135
155.5403, 12648.00
156.0224, 12728.13
156.5045, 12802.90
156.9866, 12867.89
157.4687, 12924.28
157.9508, 12987.68
158.4330, 13081.36
158.9151, 13225.05
159.3972, 13362.67
159.8793, 13481.09
160.3614, 13601.23
160.8435, 13743.19
161.3257, 13911.87
161.8078, 14092.91
162.2899, 14267.46
162.7720, 14430.65
163.2541, 14595.89
163.7362, 14765.51
164.2184, 14936.04
164.7005, 15105.49
165.1826, 15274.07
165.6647, 15438.38
166.1468, 15595.07
166.6289, 15745.57
167.1111, 15884.05
167.5932, 16003.90
168.0753, 16113.94
168.5574, 16227.02
169.0395, 16348.00
169.5216, 16461.97
170.0038, 16544.36
170.4859, 16588.82
170.9680, 16636.72
171.4501, 16693.94
171.9322, 16758.20
172.4143, 16830.33
172.8965, 16912.09
173.3786, 16991.65
173.8607, 17049.38
174.3428, 17083.29
174.8249, 17125.63
175.3070, 17187.96
175.7892, 17261.05
176.2713, 17332.48
176.7534, 17399.68
177.2355, 17464.79
177.7176, 17529.27
178.1997, 17593.55
178.6819, 17655.83
179.1640, 17709.38
179.6461, 17762.46
180.1282, 17827.96
180.6103, 17908.90
181.0924, 17998.75
181.5745, 18098.75
182.0567, 18206.93
182.5388, 18298.19
183.0209, 18345.32
183.5030, 18376.33
183.9851, 18444.64
184.4672, 18567.57
184.9494, 18690.28
185.4315, 18745.65
185.9136, 18748.93
186.3957, 18759.67
186.8778, 18796.52
187.3599, 18851.73
187.8421, 18918.04
188.3242, 18999.55
188.8063, 19075.75
189.2884, 19129.18
189.7705, 19163.46
190.2526, 19180.27
190.7348, 19155.46
191.2169, 19120.69
191.6990, 19137.94
192.1811, 19225.24
192.6632, 19314.55
193.1453, 19344.04
193.6275, 19334.14
194.1096, 19325.98
194.5917, 19327.36
195.0738, 19339.86
195.5559, 19369.33
196.0380, 19420.03
196.5202, 19473.00
197.0023, 19521.91
197.4844, 19563.75
197.9665, 19588.89
198.4486, 19575.96
198.9307, 19553.49
199.4129, 19569.52
199.8950, 19632.49
200.3771, 19698.65
200.8592, 19756.80
201.3413, 19798.32
201.8234, 19802.21
202.3056, 19739.35
202.7877, 19654.80
203.2698, 19609.56
203.7519, 19608.98
204.2340, 19620.00
204.7161, 19633.57
205.1983, 19646.08
205.6804, 19651.52
206.1625, 19644.33
206.6446, 19634.99
207.1267, 19637.24
207.6088, 19652.51
208.0910, 19668.55
208.5731, 19687.34
209.0552, 19700.33
209.5373, 19692.79
210.0194, 19651.68
210.5015, 19611.31
210.9837, 19614.98
211.4658, 19665.68
211.9479, 19709.03
212.4300, 19711.82
212.9121, 19705.01
213.3942, 19723.31
213.8764, 19775.56
214.3585, 19836.16
214.8406, 19881.52
215.3227, 19912.09
215.8048, 19944.40
216.2869, 19988.21
216.7691, 20031.67
217.2512, 20057.92
217.7333, 20063.20
218.2154, 20076.95
218.6975, 20133.24
219.1796, 20227.21
219.6618, 20300.85
220.1439, 20330.88
220.6260, 20346.11
221.1081, 20370.96
221.5902, 20405.90
222.0723, 20450.62
222.5545, 20516.85
223.0366, 20596.91
223.5187, 20646.37
224.0008, 20634.04
224.4829, 20622.24
224.9650, 20674.95
225.4472, 20782.40
225.9293, 20876.70
226.4114, 20904.47
226.8935, 20888.94
227.3756, 20904.46
227.8577, 20968.16
228.3399, 21044.67
228.8220, 21104.99
229.3041, 21154.70
229.7862, 21213.52
230.2683, 21300.37
230.7504, 21400.12
231.2325, 21478.45
231.7147, 21527.41
232.1968, 21575.38
232.6789, 21639.84
233.1610, 21717.58
233.6431, 21806.11
234.1252, 21923.67
234.6074, 22042.93
235.0895, 22114.11
235.5716, 22127.99
236.0537, 22149.40
236.5358, 22226.29
237.0179, 22335.10
237.5001, 22437.64
237.9822, 22526.68
238.4643, 22606.99
238.9464, 22682.96
239.4285, 22754.79
239.9106, 22818.98
240.3928, 22870.70
240.8749, 22914.41
241.3570, 22957.25
241.8391, 22998.03
242.3212, 23041.75
242.8033, 23099.95
243.2855, 23168.71
243.7676, 23217.27
244.2497, 23221.70
244.7318, 23212.96
245.2139, 23241.46
245.6960, 23316.07
246.1782, 23390.55
246.6603, 23439.96
247.1424, 23470.23
247.6245, 23499.22
248.1066, 23532.68
248.5887, 23564.20
249.0709, 23583.21
249.5530, 23589.33
250.0351, 23598.61
250.5172, 23612.03
250.9993, 23633.27
251.4814, 23674.78
251.9636, 23743.49
252.4457, 23810.15
252.9278, 23838.92
253.4099, 23832.91
253.8920, 23830.34
254.3741, 23836.26
254.8563, 23849.97
255.3384, 23877.28
255.8205, 23918.78
256.3026, 23950.25
256.7847, 23942.32
257.2668, 23901.03
257.7490, 23896.66
258.2311, 23947.86
258.7132, 24023.03
259.1953, 24115.33
259.6774, 24218.40
260.1595, 24298.18
260.6417, 24328.14
261.1238, 24320.09
261.6059, 24334.29
262.0880, 24382.90
262.5701, 24437.81
263.0522, 24500.73
263.5344, 24561.61
264.0165, 24592.70
264.4986, 24575.34
264.9807, 24533.69
265.4628, 24532.99
265.9449, 24591.37
266.4271, 24652.46
266.9092, 24712.90
267.3913, 24767.96
267.8734, 24808.48
268.3555, 24831.50
268.8376, 24848.31
269.3198, 24877.49
269.8019, 24932.87
270.2840, 24968.53
270.7661, 24961.32
271.2482, 24949.19
271.7303, 24966.33
272.2125, 25015.58
272.6946, 25073.32
273.1767, 25116.46
273.6588, 25143.40
274.1409, 25160.49
274.6230, 25146.57
275.1052, 25143.44
275.5873, 25186.72
276.0694, 25261.64
276.5515, 25320.78
277.0336, 25326.74
277.5157, 25284.04
277.9979, 25267.07
278.4800, 25316.61
278.9621, 25346.11
279.4442, 25324.42
279.9263, 25273.80
280.4084, 25223.92
280.8906, 25188.90
281.3727, 25171.60
281.8548, 25182.00
282.3369, 25244.46
282.8190, 25300.29
283.3011, 25348.18
283.7833, 25386.16
284.2654, 25416.29
284.7475, 25437.88
285.2296, 25443.31
285.7117, 25415.63
286.1938, 25336.22
286.6760, 25274.96
287.1581, 25247.51
287.6402, 25226.08
288.1223, 25199.16
288.6044, 25164.78
289.0865, 25124.55
289.5687, 25076.43
290.0508, 25019.83
290.5329, 24977.67
291.0150, 24968.08
291.4971, 24953.38
291.9792, 24910.92
292.4614, 24853.82
292.9435, 24709.81
293.4256, 24812.14
293.9077, 24856.31
294.3898, 24845.46
294.8719, 24614.78
295.3541, 24667.96
295.8362, 24607.38
296.3183, 24542.14
296.8004, 24635.28
297.2825, 24436.56
297.7646, 24527.20
298.2468, 24502.32
298.7289, 24431.49
299.2110, 24415.29
299.6931, 24421.41
300.1752, 24437.46
300.6573, 24458.92
301.1395, 24486.42
301.6216, 24495.71
302.1037, 24461.38
302.5858, 24393.59
303.0679, 24329.83
303.5500, 24274.86
304.0321, 24227.08
304.5143, 24186.25
304.9964, 24151.49
305.4785, 24120.82
305.9606, 24090.71
306.4427, 24065.81
306.9248, 24061.83
307.4070, 24081.16
307.8891, 24082.63
308.3712, 24027.19
308.8533, 23929.63
309.3354, 23859.71
309.8175, 23844.07
310.2997, 23832.36
310.7818, 23791.60
311.2639, 23730.16
311.7460, 23673.65
312.2281, 23632.07
312.7102, 23603.56
313.1924, 23587.14
313.6745, 23595.28
314.1566, 23588.14
314.6387, 23554.51
315.1208, 23502.78
315.6029, 23435.04
316.0851, 23352.88
316.5672, 23277.00
317.0493, 23233.04
317.5314, 23230.85
318.0135, 23229.25
318.4956, 23230.80
318.9778, 23230.73
319.4599, 23223.63
319.9420, 23211.73
320.4241, 23204.55
320.9062, 23211.52
321.3883, 23230.11
321.8705, 23224.12
322.3526, 23150.35
322.8347, 23100.13
323.3168, 23104.06
323.7989, 23136.55
324.2810, 23165.88
324.7632, 23178.21
325.2453, 23178.52
325.7274, 23176.37
326.2095, 23170.03
326.6916, 23164.93
327.1737, 23161.44
327.6559, 23159.23
328.1380, 23154.61
328.6201, 23149.06
329.1022, 23151.79
329.5843, 23174.91
330.0664, 23219.20
330.5486, 23262.60
331.0307, 23315.48
331.5128, 23353.49
331.9949, 23354.01
332.4770, 23332.95
332.9591, 23323.16
333.4413, 23340.14
333.9234, 23379.47
334.4055, 23439.95
334.8876, 23530.66
335.3697, 23604.54
335.8518, 23622.30
336.3340, 23620.70
336.8161, 23642.27
337.2982, 23697.50
337.7803, 23760.82
338.2624, 23813.13
338.7445, 23856.95
339.2267, 23905.36
339.7088, 23964.45
340.1909, 24023.96
340.6730, 24062.86
341.1551, 24081.71
341.6372, 24124.17
342.1194, 24226.48
342.6015, 24345.48
343.0836, 24424.92
343.5657, 24461.86
344.0478, 24501.19
344.5299, 24580.50
345.0121, 24694.71
345.4942, 24785.58
345.9763, 24813.89
346.4584, 24862.12
346.9405, 24988.49
347.4226, 25155.37
347.9048, 25289.25
348.3869, 25357.91
348.8690, 25383.26
349.3511, 25411.18
349.8332, 25438.04
350.3153, 25474.37
350.7975, 25513.21
351.2796, 25565.93
351.7617, 25658.01
352.2438, 25781.49
352.7259, 25887.60
353.2080, 25919.43
353.6902, 25869.00
354.1723, 25868.13
354.6544, 25989.59
355.1365, 26089.23
355.6186, 26114.52
356.1007, 26096.77
356.5829, 26088.25
357.0650, 26115.69
357.5471, 26164.97
358.0292, 26205.94
358.5113, 26235.36
358.9934, 26265.84
359.4756, 26304.11
359.9577, 26342.22
360.4398, 26377.83
360.9219, 26409.92
361.4040, 26429.68
361.8861, 26423.35
362.3683, 26396.34
362.8504, 26380.84
363.3325, 26390.86
363.8146, 26258.46
364.2967, 26396.08
364.7788, 26475.54
365.2610, 26499.98
365.7431, 26304.59
366.2252, 26393.07
366.7073, 26367.78
367.1894, 26337.83
367.6715, 26466.26
368.1537, 26302.84
368.6358, 26428.76
369.1179, 26439.18
369.6000, 26502.46
370.0821, 26451.28
370.5642, 26435.45
371.0464, 26534.12
371.5285, 26569.39
372.0106, 26505.03
372.4927, 26571.67
372.9748, 26494.03
373.4569, 26490.03
373.9391, 26472.43
374.4212, 26412.63
374.9033, 26370.11
375.3854, 26390.29
375.8675, 26444.96
376.3496, 26472.23
376.8318, 26435.81
377.3139, 26361.19
377.7960, 26325.70
378.2781, 26362.70
378.7602, 26379.99
379.2423, 26371.78
379.7245, 26341.64
380.2066, 26277.38
380.6887, 26184.72
381.1708, 26103.49
381.6529, 26088.51
382.1350, 26137.33
382.6172, 26134.81
383.0993, 26041.86
383.5814, 25955.44
384.0635, 25932.24
384.5456, 25947.11
385.0277, 25954.63
385.5099, 25936.18
385.9920, 25907.12
386.4741, 25884.20
386.9562, 25867.34
387.4383, 25857.78
387.9204, 25863.09
388.4026, 25868.10
388.8847, 25848.29
389.3668, 25800.51
389.8489, 25754.39
390.3310, 25719.78
390.8131, 25692.49
391.2953, 25670.67
391.7774, 25653.38
392.2595, 25632.73
392.7416, 25601.65
393.2237, 25560.46
393.7058, 25521.07
394.1880, 25485.58
394.6701, 25449.48
395.1522, 25403.20
395.6343, 25357.54
396.1164, 25335.00
396.5985, 25221.05
397.0807, 25323.02
397.5628, 25366.85
398.0449, 25355.65
398.5270, 25124.61
399.0091, 25177.45
399.4912, 25116.52
399.9734, 25050.92
400.4555, 25143.71
400.9376, 24944.64
401.4197, 25034.92
401.9018, 25009.70
402.3839, 25037.34
402.8660, 24950.51
403.3481, 24899.04
403.8303, 24962.06
404.3124, 24961.69
404.7945, 24861.69
405.2766, 24892.68
405.7587, 24689.62
406.2408, 24691.95
406.7230, 24782.89
407.2051, 24688.64
407.6872, 24669.84
408.1693, 24669.81
408.6514, 24660.21
409.1335, 24642.35
409.6157, 24623.88
410.0978, 24606.17
410.5799, 24587.74
411.0620, 24569.27
411.5441, 24549.48
412.0262, 24521.21
412.5084, 24478.68
412.9905, 24435.58
413.4726, 24423.34
413.9547, 24485.66
414.4368, 24504.62
414.9189, 24437.03
415.4011, 24358.75
415.8832, 24324.82
416.3653, 24335.96
416.8474, 24363.51
417.3295, 24389.62
417.8116, 24410.84
418.2938, 24389.62
418.7759, 24273.25
419.2580, 24195.06
419.7401, 24217.65
420.2222, 24272.86
420.7043, 24287.61
421.1865, 24241.99
421.6686, 24179.93
422.1507, 24152.56
422.6328, 24155.62
423.1149, 24135.37
423.5970, 24075.42
424.0792, 24008.60
424.5613, 23967.40
425.0434, 23940.81
425.5255, 23896.54
426.0076, 23805.69
426.4897, 23710.61
426.9719, 23650.55
427.4540, 23618.65
427.9361, 23586.29
428.4182, 23542.92
428.9003, 23490.65
429.3824, 23432.65
429.8646, 23367.55
430.3467, 23300.08
430.8288, 23214.74
431.3109, 23139.37
431.7930, 23105.02
432.2751, 23103.49
432.7573, 23096.92
433.2394, 23056.33
433.7215, 22988.93
434.2036, 22939.03
434.6857, 22933.76
435.1678, 22904.22
435.6500, 22821.61
436.1321, 22724.48
436.6142, 22643.21
437.0963, 22584.52
437.5784, 22541.61
438.0605, 22513.61
438.5427, 22498.23
439.0248, 22476.26
439.5069, 22450.05
439.9890, 22410.60
440.4711, 22340.14
440.9532, 22254.64
441.4354, 22183.50
441.9175, 22143.82
442.3996, 22100.99
442.8817, 22011.66
443.3638, 21897.99
443.8459, 21827.26
444.3281, 21822.98
444.8102, 21846.39
445.2923, 21853.83
445.7744, 21843.62
446.2565, 21818.62
446.7386, 21770.99
447.2208, 21716.45
447.7029, 21658.59
448.1850, 21600.85
448.6671, 21546.59
449.1492, 21497.26
449.6313, 21455.70
450.1135, 21432.00
450.5956, 21442.30
451.0777, 21432.90
451.5598, 21375.69
452.0419, 21319.83
452.5240, 21299.64
453.0062, 21308.20
453.4883, 21311.79
453.9704, 21287.15
454.4525, 21243.43
454.9346, 21200.85
455.4167, 21158.81
455.8989, 21121.61
456.3810, 21093.84
456.8631, 21069.82
457.3452, 21037.15
457.8273, 20990.46
458.3094, 20961.63
458.7916, 20987.12
459.2737, 21026.06
459.7558, 21014.63
460.2379, 20950.26
460.7200, 20891.61
461.2021, 20882.22
461.6843, 20916.62
462.1664, 20952.98
462.6485, 21012.04
463.1306, 21046.66
463.6127, 21031.12
464.0948, 20998.31
464.5770, 20978.50
465.0591, 20978.87
465.5412, 20991.91
466.0233, 21015.21
466.5054, 21048.46
466.9875, 21058.35
467.4697, 21033.15
467.9518, 21001.86
468.4339, 20965.72
468.9160, 20934.47
469.3981, 20921.67
469.8802, 20932.07
470.3624, 20955.70
470.8445, 21001.12
471.3266, 21054.76
471.8087, 21062.10
472.2908, 21006.10
472.7729, 20934.70
473.2551, 20891.24
473.7372, 20874.75
474.2193, 20845.97
474.7014, 20785.54
475.1835, 20733.36
475.6656, 20719.30
476.1478, 20721.68
476.6299, 20696.00
477.1120, 20629.19
477.5941, 20560.92
478.0762, 20555.80
478.5583, 20638.70
479.0405, 20673.84
479.5226, 20636.46
480.0047, 20573.71
480.4868, 20480.15
480.9689, 20375.29
481.4510, 20289.07
481.9332, 20233.93
482.4153, 20198.77
482.8974, 20175.77
483.3795, 20164.05
483.8616, 20138.28
484.3438, 20091.56
484.8259, 20033.43
485.3080, 19971.14
485.7901, 19904.99
486.2722, 19833.87
486.7543, 19745.95
487.2365, 19663.46
487.7186, 19600.28
488.2007, 19554.12
488.6828, 19520.95
489.1649, 19499.75
489.6470, 19483.03
490.1292, 19459.72
490.6113, 19431.09
491.0934, 19390.64
491.5755, 19342.15
492.0576, 19279.64
492.5397, 19185.96
493.0219, 19078.76
493.5040, 18989.83
493.9861, 18935.39
494.4682, 18901.69
494.9503, 18867.53
495.4324, 18832.35
495.9146, 18804.83
496.3967, 18790.13
496.8788, 18778.94
497.3609, 18771.17
497.8430, 18762.67
498.3251, 18733.48
498.8073, 18652.26
499.2894, 18570.91
499.7715, 18540.01
500.2536, 18543.71
500.7357, 18530.95
501.2178, 18481.25
501.6999, 18424.78
502.1820, 18411.39
502.6642, 18466.74
503.1463, 18474.19
503.6284, 18393.45
504.1105, 18312.67
504.5926, 18269.43
505.0747, 18253.28
505.5569, 18242.56
506.0390, 18228.26
506.5211, 18210.02
507.0032, 18180.80
507.4853, 18138.33
507.9674, 18126.49
508.4496, 18183.28
508.9317, 18226.00
509.4138, 18169.59
509.8959, 18049.94
510.3780, 17972.26
510.8601, 17994.53
511.3423, 18032.38
511.8244, 18023.18
512.3065, 17981.41
512.7886, 17941.28
513.2708, 17913.06
513.7529, 17891.04
514.2350, 17869.24
514.7171, 17848.24
515.1992, 17823.41
515.6813, 17776.16
516.1635, 17746.11
516.6456, 17759.09
517.1277, 17792.50
517.6098, 17816.31
518.0919, 17820.28
518.5740, 17812.99
519.0562, 17806.28
519.5383, 17799.66
520.0204, 17778.07
520.5025, 17733.02
520.9846, 17688.14
521.4667, 17650.52
521.9489, 17624.84
522.4310, 17625.89
522.9131, 17676.69
523.3952, 17715.97
523.8773, 17694.27
524.3594, 17646.02
524.8416, 17630.82
525.3237, 17658.39
525.8058, 17694.46
526.2879, 17710.34
526.7700, 17706.19
527.2521, 17685.38
527.7343, 17604.26
528.2164, 17561.96
528.6985, 17604.83
529.1806, 17670.98
529.6627, 17704.14
530.1448, 17695.19
530.6270, 17671.12
531.1091, 17650.01
531.5912, 17632.09
532.0733, 17617.19
532.5554, 17604.83
533.0375, 17599.83
533.5197, 17613.21
534.0018, 17629.17
534.4839, 17614.59
534.9660, 17557.43
535.4481, 17517.45
535.9302, 17516.95
536.4124, 17535.74
536.8945, 17559.99
537.3766, 17586.81
537.8587, 17616.92
538.3408, 17652.24
538.8229, 17683.91
539.3051, 17684.74
539.7872, 17639.28
540.2693, 17598.47
540.7514, 17567.88
541.2335, 17541.54
541.7156, 17507.97
542.1978, 17475.31
542.6799, 17468.38
543.1620, 17510.69
543.6441, 17567.57
544.1262, 17592.20
544.6083, 17590.52
545.0905, 17605.39
545.5726, 17655.95
546.0547, 17700.08
546.5368, 17681.36
547.0189, 17589.24
547.5010, 17542.10
547.9832, 17577.56
548.4653, 17614.47
548.9474, 17618.59
549.4295, 17605.82
549.9116, 17602.74
550.3937, 17615.99
550.8758, 17626.82
551.3579, 17602.58
551.8400, 17544.79
552.3221, 17536.97
552.8043, 17607.66
553.2864, 17671.42
553.7685, 17678.03
554.2506, 17659.20
554.7327, 17652.79
555.2148, 17666.50
555.6970, 17676.74
556.1791, 17668.59
556.6612, 17652.25
557.1433, 17636.83
557.6254, 17624.90
558.1075, 17625.12
558.5897, 17644.54
559.0718, 17676.38
559.5539, 17699.43
560.0360, 17710.57
560.5181, 17718.04
561.0002, 17723.69
561.4824, 17724.89
561.9645, 17709.93
562.4466, 17688.78
562.9287, 17690.62
563.4108, 17740.59
563.8929, 17801.39
564.3751, 17813.58
564.8572, 17782.80
565.3393, 17759.72
565.8214, 17757.04
566.3035, 17762.79
566.7856, 17765.27
567.2678, 17764.57
567.7499, 17769.41
568.2320, 17787.70
568.7141, 17802.28
569.1962, 17809.43
569.6783, 17808.30
570.1605, 17790.87
570.6426, 17759.33
571.1247, 17736.88
571.6068, 17751.72
572.0889, 17797.94
572.5710, 17825.45
573.0532, 17829.02
573.5353, 17828.01
574.0174, 17825.99
574.4995, 17824.87
574.9816, 17830.37
575.4637, 17843.82
575.9459, 17844.57
576.4280, 17797.44
576.9101, 17674.94
577.3922, 17820.35
577.8743, 17907.61
578.3564, 17939.83
578.8386, 17752.23
579.3207, 17848.49
579.8028, 17831.00
580.2849, 17808.84
580.7670, 17945.06
581.2491, 17789.42
581.7313, 17923.14
582.2134, 17941.35
582.6955, 18012.42
583.1776, 17969.02
583.6597, 17960.98
584.1418, 18067.45
584.6240, 17924.02
585.1061, 17883.77
585.5882, 17883.43
586.0703, 17930.81
586.5524, 17965.67
587.0345, 17942.78
587.5167, 17880.80
587.9988, 17848.11
588.4809, 17868.77
588.9630, 17885.27
589.4451, 17888.57
589.9272, 17893.99
590.4094, 17922.71
590.8915, 17963.10
591.3736, 17978.48
591.8557, 17942.99
592.3378, 17890.75
592.8199, 17887.16
593.3021, 17929.46
593.7842, 17937.60
594.2663, 17880.56
594.7484, 17827.04
595.2305, 17839.66
595.7126, 17911.44
596.1948, 17974.66
596.6769, 18046.18
597.1590, 18086.82
597.6411, 18054.05
598.1232, 18002.35
598.6053, 17998.34
599.0875, 18044.29
599.5696, 18091.02
600.0517, 18099.09
600.5338, 18078.34
601.0159, 18061.08
601.4980, 18045.77
601.9802, 18041.83
602.4623, 18058.86
602.9444, 18080.57
603.4265, 18086.16
603.9086, 18079.67
604.3907, 18091.41
604.8729, 18154.41
605.3550, 18211.30
605.8371, 18225.42
606.3192, 18208.99
606.8013, 18175.42
607.2834, 18131.68
607.7656, 18100.66
608.2477, 18111.43
608.7298, 18159.73
609.2119, 18176.04
609.6940, 18137.15
610.1761, 18111.57
610.6583, 18125.82
611.1404, 18155.55
611.6225, 18185.13
612.1046, 18212.88
612.5867, 18236.07
613.0688, 18257.98
613.5510, 18271.41
614.0331, 18261.44
614.5152, 18236.89
614.9973, 18225.17
615.4794, 18235.55
615.9615, 18253.20
616.4437, 18257.89
616.9258, 18247.64
617.4079, 18251.13
617.8900, 18282.99
618.3721, 18308.53
618.8542, 18313.21
619.3364, 18311.53
619.8185, 18321.03
620.3006, 18343.22
620.7827, 18358.69
621.2648, 18349.82
621.7469, 18331.28
622.2291, 18321.11
622.7112, 18319.18
623.1933, 18319.48
623.6754, 18318.57
624.1575, 18327.98
624.6396, 18370.62
625.1218, 18461.07
625.6039, 18502.16
626.0860, 18428.68
626.5681, 18380.91
627.0502, 18419.00
627.5323, 18487.61
628.0145, 18518.79
628.4966, 18501.05
628.9787, 18484.27
629.4608, 18511.30
629.9429, 18558.33
630.4250, 18584.26
630.9072, 18590.35
631.3893, 18596.58
631.8714, 18611.40
632.3535, 18629.60
632.8356, 18644.63
633.3177, 18659.35
633.7999, 18657.64
634.2820, 18622.16
634.7641, 18591.23
635.2462, 18574.39
635.7283, 18569.08
636.2104, 18572.71
636.6926, 18584.47
637.1747, 18601.44
637.6568, 18623.48
638.1389, 18648.51
638.6210, 18668.46
639.1031, 18684.87
639.5853, 18717.77
640.0674, 18779.35
640.5495, 18848.13
641.0316, 18892.15
641.5137, 18907.79
641.9958, 18914.59
642.4780, 18897.31
642.9601, 18889.66
643.4422, 18912.93
643.9243, 18945.29
644.4064, 18956.31
644.8885, 18941.41
645.3707, 18931.05
645.8528, 18959.85
646.3349, 19003.39
646.8170, 19002.88
647.2991, 18965.14
647.7813, 18972.20
648.2634, 19065.28
648.7455, 19174.92
649.2276, 19196.20
649.7097, 19107.19
650.1918, 19067.54
650.6740, 19109.47
651.1561, 19160.95
651.6382, 19221.61
652.1203, 19273.00
652.6024, 19286.51
653.0845, 19262.38
653.5667, 19246.13
