##NAMES=Uralborite
##RRUFFID=R061140
##IDEAL CHEMISTRY=CaB_2_O_2_(OH)_4_
##LOCALITY=Fuka mine, Bicchu-cho, Okayama Prefecture, Japan
##OWNER=RRUFF
##SOURCE=Michael Scott
##DESCRIPTION=Colorless massive
##STATUS=The identification of this mineral has been confirmed by single-crystal X-ray diffraction.
##URL=rruff.info/R061140
139.0925, 3662.339
139.5746, 3738.832
140.0568, 3828.774
140.5389, 3932.518
141.0210, 4049.513
141.5031, 4183.459
141.9852, 4337.312
142.4673, 4496.583
142.9495, 4667.413
143.4316, 4854.534
143.9137, 4992.996
144.3958, 5082.315
144.8779, 5124.475
145.3600, 5118.522
145.8422, 5029.943
146.3243, 4939.911
146.8064, 4864.243
147.2885, 4795.197
147.7706, 4761.517
148.2527, 4768.479
148.7349, 4809.970
149.2170, 4874.305
149.6991, 4971.281
150.1812, 5082.945
150.6633, 5204.408
151.1455, 5346.547
151.6276, 5483.735
152.1097, 5603.956
152.5918, 5715.931
153.0739, 5849.071
153.5560, 6041.881
154.0382, 6230.825
154.5203, 6387.658
155.0024, 6515.397
155.4845, 6601.325
155.9666, 6653.309
156.4487, 6667.331
156.9309, 6613.872
157.4130, 6454.107
157.8951, 6239.080
158.3772, 6007.325
158.8593, 5726.448
159.3414, 5468.363
159.8236, 5259.789
160.3057, 5100.121
160.7878, 4965.447
161.2699, 4838.771
161.7520, 4734.464
162.2341, 4667.252
162.7163, 4666.783
163.1984, 4686.875
163.6805, 4701.008
164.1626, 4704.012
164.6447, 4719.203
165.1268, 4781.399
165.6090, 4863.330
166.0911, 4915.968
166.5732, 4913.614
167.0553, 4875.855
167.5374, 4815.214
168.0195, 4729.648
168.5017, 4631.682
168.9838, 4516.915
169.4659, 4393.091
169.9480, 4284.250
170.4301, 4202.338
170.9122, 4141.891
171.3944, 4097.912
171.8765, 4073.438
172.3586, 4059.289
172.8407, 4047.219
173.3228, 4037.970
173.8049, 4035.624
174.2871, 4042.300
174.7692, 4057.711
175.2513, 4081.659
175.7334, 4114.434
176.2155, 4155.060
176.6976, 4205.375
177.1798, 4264.472
177.6619, 4324.567
178.1440, 4374.133
178.6261, 4418.601
179.1082, 4472.040
179.5903, 4546.411
180.0725, 4629.747
180.5546, 4702.931
181.0367, 4765.049
181.5188, 4820.815
182.0009, 4865.413
182.4830, 4903.670
182.9652, 4959.284
183.4473, 5050.778
183.9294, 5167.269
184.4115, 5273.101
184.8936, 5366.147
185.3757, 5461.276
185.8579, 5591.327
186.3400, 5750.894
186.8221, 5892.063
187.3042, 5997.357
187.7863, 6065.988
188.2684, 6090.724
188.7506, 6064.954
189.2327, 6009.657
189.7148, 5943.361
190.1969, 5865.993
190.6790, 5818.610
191.1611, 5831.075
191.6433, 5898.777
192.1254, 5979.677
192.6075, 6066.977
193.0896, 6169.170
193.5717, 6308.594
194.0538, 6490.056
194.5360, 6683.981
195.0181, 6889.232
195.5002, 7105.356
195.9823, 7273.790
196.4644, 7389.658
196.9465, 7452.794
197.4287, 7458.663
197.9108, 7402.018
198.3929, 7311.164
198.8750, 7198.933
199.3571, 7060.866
199.8392, 6936.022
200.3214, 6825.322
200.8035, 6733.370
201.2856, 6688.961
201.7677, 6701.653
202.2498, 6734.893
202.7319, 6767.913
203.2141, 6808.288
203.6962, 6803.522
204.1783, 6742.427
204.6604, 6626.199
205.1425, 6459.105
205.6246, 6226.412
206.1068, 5972.063
206.5889, 5734.927
207.0710, 5513.557
207.5531, 5324.044
208.0352, 5171.889
208.5173, 5056.785
208.9995, 4967.553
209.4816, 4903.265
209.9637, 4864.943
210.4458, 4856.950
210.9279, 4885.320
211.4100, 4926.381
211.8922, 4976.117
212.3743, 5035.121
212.8564, 5091.630
213.3385, 5145.198
213.8206, 5196.955
214.3027, 5249.530
214.7849, 5306.674
215.2670, 5354.957
215.7491, 5388.107
216.2312, 5402.655
216.7133, 5418.255
217.1954, 5433.440
217.6776, 5450.759
218.1597, 5474.857
218.6418, 5506.264
219.1239, 5543.949
219.6060, 5592.632
220.0882, 5661.927
220.5703, 5705.270
221.0524, 5710.992
221.5345, 5696.413
222.0166, 5700.775
222.4987, 5736.411
222.9809, 5769.842
223.4630, 5788.120
223.9451, 5790.373
224.4272, 5778.316
224.9093, 5742.013
225.3914, 5694.376
225.8736, 5668.805
226.3557, 5672.878
226.8378, 5687.874
227.3199, 5707.631
227.8020, 5738.323
228.2841, 5759.531
228.7663, 5772.878
229.2484, 5776.107
229.7305, 5761.309
230.2126, 5723.660
230.6947, 5674.692
231.1768, 5617.874
231.6590, 5543.776
232.1411, 5482.835
232.6232, 5438.992
233.1053, 5409.108
233.5874, 5378.705
234.0695, 5340.703
234.5517, 5311.441
235.0338, 5301.667
235.5159, 5319.649
235.9980, 5339.774
236.4801, 5362.426
236.9622, 5386.446
237.4444, 5407.764
237.9265, 5433.034
238.4086, 5447.299
238.8907, 5439.102
239.3728, 5393.673
239.8549, 5355.947
240.3371, 5326.577
240.8192, 5306.803
241.3013, 5305.364
241.7834, 5336.922
242.2655, 5369.163
242.7477, 5378.934
243.2298, 5347.676
243.7119, 5331.962
244.1940, 5342.098
244.6761, 5374.034
245.1582, 5399.360
245.6404, 5415.332
246.1225, 5427.983
246.6046, 5442.103
247.0867, 5461.128
247.5688, 5474.206
248.0509, 5482.627
248.5331, 5485.134
249.0152, 5471.487
249.4973, 5440.979
249.9794, 5395.182
250.4615, 5331.460
250.9436, 5235.468
251.4258, 5153.557
251.9079, 5092.932
252.3900, 5051.781
252.8721, 5012.592
253.3542, 4974.445
253.8363, 4940.044
254.3185, 4913.268
254.8006, 4901.525
255.2827, 4879.849
255.7648, 4838.725
256.2469, 4781.619
256.7290, 4746.949
257.2112, 4745.860
257.6933, 4751.065
258.1754, 4738.507
258.6575, 4693.789
259.1396, 4668.229
259.6217, 4675.123
260.1039, 4709.594
260.5860, 4726.922
261.0681, 4719.325
261.5502, 4707.027
262.0323, 4706.001
262.5144, 4720.193
262.9966, 4734.029
263.4787, 4743.653
263.9608, 4750.583
264.4429, 4764.058
264.9250, 4783.541
265.4071, 4810.718
265.8893, 4848.373
266.3714, 4898.396
266.8535, 4951.321
267.3356, 5004.121
267.8177, 5057.814
268.2998, 5118.453
268.7820, 5184.912
269.2641, 5259.688
269.7462, 5350.770
270.2283, 5464.896
270.7104, 5562.597
271.1925, 5633.664
271.6747, 5683.834
272.1568, 5747.231
272.6389, 5835.409
273.1210, 5907.822
273.6031, 5927.474
274.0852, 5886.690
274.5674, 5844.406
275.0495, 5810.796
275.5316, 5782.146
276.0137, 5743.907
276.4958, 5696.965
276.9779, 5637.518
277.4601, 5557.454
277.9422, 5454.941
278.4243, 5355.965
278.9064, 5263.149
279.3885, 5177.280
279.8706, 5096.636
280.3528, 5020.247
280.8349, 4954.262
281.3170, 4903.962
281.7991, 4869.371
282.2812, 4845.220
282.7633, 4833.952
283.2455, 4829.898
283.7276, 4817.804
284.2097, 4797.052
284.6918, 4774.403
285.1739, 4753.708
285.6560, 4734.993
286.1382, 4718.095
286.6203, 4702.052
287.1024, 4689.005
287.5845, 4686.242
288.0666, 4693.922
288.5487, 4701.057
289.0309, 4695.834
289.5130, 4681.812
289.9951, 4678.364
290.4772, 4688.526
290.9593, 4709.429
291.4414, 4740.458
291.9236, 4780.783
292.4057, 4816.232
292.8878, 4832.960
293.3699, 4836.843
293.8520, 4847.271
294.3341, 4866.522
294.8163, 4892.879
295.2984, 4925.677
295.7805, 4963.993
296.2626, 5003.446
296.7447, 5039.819
297.2268, 5075.266
297.7090, 5114.695
298.1911, 5158.779
298.6732, 5205.316
299.1553, 5247.139
299.6374, 5287.232
300.1195, 5335.199
300.6017, 5403.288
301.0838, 5480.403
301.5659, 5547.260
302.0480, 5601.858
302.5301, 5651.729
303.0122, 5706.263
303.4944, 5762.105
303.9765, 5811.905
304.4586, 5843.189
304.9407, 5869.970
305.4228, 5910.196
305.9049, 5966.022
306.3871, 6023.619
306.8692, 6069.327
307.3513, 6108.617
307.8334, 6151.434
308.3155, 6197.305
308.7976, 6251.667
309.2798, 6316.505
309.7619, 6391.364
310.2440, 6482.981
310.7261, 6614.809
311.2082, 6760.589
311.6903, 6885.946
312.1725, 6949.090
312.6546, 7011.621
313.1367, 7116.635
313.6188, 7263.689
314.1009, 7410.694
314.5830, 7537.880
315.0652, 7652.257
315.5473, 7762.778
316.0294, 7873.186
316.5115, 7978.784
316.9936, 8075.525
317.4757, 8164.023
317.9579, 8256.492
318.4400, 8355.285
318.9221, 8461.305
319.4042, 8574.032
319.8863, 8690.343
320.3684, 8817.573
320.8506, 8967.605
321.3327, 9134.614
321.8148, 9286.334
322.2969, 9410.719
322.7790, 9521.605
323.2611, 9625.608
323.7433, 9721.678
324.2254, 9814.512
324.7075, 9904.410
325.1896, 9991.410
325.6717, 10075.66
326.1538, 10180.19
326.6360, 10264.04
327.1181, 10311.10
327.6002, 10329.32
328.0823, 10296.24
328.5644, 10200.63
329.0465, 10054.34
329.5287, 9885.188
330.0108, 9698.003
330.4929, 9482.167
330.9750, 9226.080
331.4571, 8912.563
331.9392, 8611.360
332.4214, 8320.096
332.9035, 8044.936
333.3856, 7799.804
333.8677, 7599.996
334.3498, 7406.308
334.8319, 7199.837
335.3141, 6974.344
335.7962, 6794.501
336.2783, 6669.708
336.7604, 6576.836
337.2425, 6484.891
337.7246, 6389.601
338.2068, 6309.469
338.6889, 6250.596
339.1710, 6212.286
339.6531, 6178.402
340.1352, 6148.981
340.6173, 6124.147
341.0995, 6101.041
341.5816, 6078.883
342.0637, 6074.263
342.5458, 6097.257
343.0279, 6138.491
343.5100, 6161.731
343.9922, 6164.906
344.4743, 6168.749
344.9564, 6191.296
345.4385, 6230.669
345.9206, 6270.162
346.4027, 6303.270
346.8849, 6339.974
347.3670, 6402.808
347.8491, 6489.757
348.3312, 6579.088
348.8133, 6651.594
349.2954, 6714.460
349.7776, 6789.547
350.2597, 6883.787
350.7418, 6978.483
351.2239, 7044.075
351.7060, 7088.655
352.1881, 7136.909
352.6703, 7200.870
353.1524, 7276.826
353.6345, 7366.780
354.1166, 7473.814
354.5988, 7573.333
355.0809, 7639.421
355.5630, 7683.119
356.0451, 7723.799
356.5272, 7774.954
357.0093, 7823.052
357.4915, 7853.259
357.9736, 7864.791
358.4557, 7878.833
358.9378, 7911.552
359.4199, 7951.630
359.9020, 7986.917
360.3842, 8007.326
360.8663, 8027.735
361.3484, 8052.757
361.8305, 8082.623
362.3126, 8118.534
362.7947, 8173.087
363.2769, 8226.546
363.7590, 8265.527
364.2411, 8266.303
364.7232, 8277.427
365.2053, 8313.452
365.6874, 8367.864
366.1696, 8418.116
366.6517, 8461.587
367.1338, 8500.122
367.6159, 8535.532
368.0980, 8574.158
368.5801, 8598.681
369.0623, 8611.306
369.5444, 8609.530
370.0265, 8588.618
370.5086, 8548.840
370.9907, 8489.874
371.4728, 8414.363
371.9550, 8324.442
372.4371, 8200.229
372.9192, 8027.190
373.4013, 7832.618
373.8834, 7649.016
374.3655, 7472.618
374.8477, 7314.262
375.3298, 7183.580
375.8119, 7076.736
376.2940, 6963.136
376.7761, 6838.032
377.2582, 6722.171
377.7404, 6634.933
378.2225, 6576.096
378.7046, 6536.760
379.1867, 6516.938
379.6688, 6514.193
380.1509, 6526.317
380.6331, 6553.570
381.1152, 6583.806
381.5973, 6609.699
382.0794, 6631.887
382.5615, 6649.950
383.0436, 6661.735
383.5258, 6676.272
384.0079, 6708.148
384.4900, 6754.645
384.9721, 6804.062
385.4542, 6864.040
385.9363, 6918.897
386.4185, 6938.997
386.9006, 6920.627
387.3827, 6896.480
387.8648, 6897.804
388.3469, 6911.652
388.8290, 6916.269
389.3112, 6902.590
389.7933, 6876.767
390.2754, 6835.256
390.7575, 6780.824
391.2396, 6736.923
391.7217, 6723.210
392.2039, 6721.858
392.6860, 6718.132
393.1681, 6714.018
393.6502, 6699.411
394.1323, 6662.086
394.6144, 6609.977
395.0966, 6567.456
395.5787, 6547.326
396.0608, 6533.336
396.5429, 6518.898
397.0250, 6505.645
397.5071, 6486.821
397.9893, 6457.229
398.4714, 6422.574
398.9535, 6391.909
399.4356, 6357.515
399.9177, 6336.097
400.3998, 6335.672
400.8820, 6359.599
401.3641, 6373.839
401.8462, 6372.974
402.3283, 6367.948
402.8104, 6368.564
403.2925, 6375.782
403.7747, 6384.951
404.2568, 6390.743
404.7389, 6398.259
405.2210, 6433.584
405.7031, 6502.229
406.1852, 6580.126
406.6674, 6654.088
407.1495, 6722.900
407.6316, 6787.348
408.1137, 6846.894
408.5958, 6903.156
409.0779, 6955.605
409.5601, 7004.467
410.0422, 7061.118
410.5243, 7132.085
411.0064, 7214.438
411.4885, 7303.523
411.9706, 7399.415
412.4528, 7504.344
412.9349, 7626.527
413.4170, 7761.005
413.8991, 7893.205
414.3812, 8006.753
414.8633, 8127.644
415.3455, 8288.758
415.8276, 8486.208
416.3097, 8686.936
416.7918, 8882.107
417.2739, 9067.021
417.7560, 9234.976
418.2382, 9367.285
418.7203, 9517.590
419.2024, 9725.626
419.6845, 9971.908
420.1666, 10216.00
420.6487, 10445.47
421.1309, 10671.55
421.6130, 10904.30
422.0951, 11147.23
422.5772, 11378.43
423.0593, 11603.04
423.5414, 11809.85
424.0236, 11989.48
424.5057, 12121.43
424.9878, 12248.91
425.4699, 12393.42
425.9520, 12548.40
426.4341, 12643.69
426.9163, 12679.28
427.3984, 12655.15
427.8805, 12564.97
428.3626, 12394.25
428.8447, 12205.79
429.3268, 12001.31
429.8090, 11783.59
430.2911, 11554.11
430.7732, 11309.66
431.2553, 11071.85
431.7374, 10847.81
432.2195, 10637.78
432.7017, 10445.25
433.1838, 10271.12
433.6659, 10110.54
434.1480, 9949.146
434.6301, 9792.115
435.1122, 9666.825
435.5944, 9586.960
436.0765, 9535.682
436.5586, 9478.421
437.0407, 9420.190
437.5228, 9395.761
438.0049, 9463.443
438.4871, 9565.681
438.9692, 9630.226
439.4513, 9641.040
439.9334, 9624.876
440.4155, 9582.207
440.8976, 9527.304
441.3798, 9486.248
441.8619, 9488.369
442.3440, 9492.173
442.8261, 9474.972
443.3082, 9434.441
443.7903, 9393.552
444.2725, 9366.844
444.7546, 9337.983
445.2367, 9293.977
445.7188, 9240.551
446.2009, 9162.567
446.6830, 9045.744
447.1652, 8900.143
447.6473, 8766.744
448.1294, 8647.327
448.6115, 8536.119
449.0936, 8430.389
449.5757, 8325.805
450.0579, 8240.296
450.5400, 8176.128
451.0221, 8129.481
451.5042, 8097.751
451.9863, 8083.860
452.4684, 8070.067
452.9506, 8050.996
453.4327, 8028.290
453.9148, 8006.110
454.3969, 7984.141
454.8790, 7970.063
455.3611, 7973.890
455.8433, 7991.737
456.3254, 8010.063
456.8075, 8028.403
457.2896, 8041.837
457.7717, 8037.606
458.2538, 8021.430
458.7360, 8011.956
459.2181, 8033.237
459.7002, 8057.715
460.1823, 8054.552
460.6644, 8021.780
461.1465, 7981.835
461.6287, 7948.868
462.1108, 7915.553
462.5929, 7873.740
463.0750, 7824.256
463.5571, 7761.856
464.0392, 7677.175
464.5214, 7576.030
465.0035, 7481.526
465.4856, 7399.229
465.9677, 7324.003
466.4498, 7253.626
466.9319, 7186.990
467.4141, 7127.439
467.8962, 7071.288
468.3783, 7024.338
468.8604, 6995.953
469.3425, 6995.101
469.8246, 6993.742
470.3068, 6984.295
470.7889, 6969.279
471.2710, 6966.248
471.7531, 6977.711
472.2352, 6993.163
472.7173, 7006.741
473.1995, 7018.398
473.6816, 7024.550
474.1637, 7022.133
474.6458, 7021.295
475.1279, 7041.909
475.6100, 7079.870
476.0922, 7113.310
476.5743, 7122.679
477.0564, 7125.328
477.5385, 7152.036
478.0206, 7201.539
478.5027, 7252.738
478.9849, 7284.676
479.4670, 7311.765
479.9491, 7351.919
480.4312, 7415.750
480.9133, 7482.399
481.3954, 7538.732
481.8776, 7590.026
482.3597, 7648.851
482.8418, 7736.728
483.3239, 7817.759
483.8060, 7872.469
484.2881, 7895.242
484.7703, 7923.703
485.2524, 7960.989
485.7345, 8005.753
486.2166, 8057.686
486.6987, 8124.578
487.1808, 8185.512
487.6630, 8235.817
488.1451, 8279.160
488.6272, 8328.196
489.1093, 8386.500
489.5914, 8438.599
490.0735, 8469.176
490.5557, 8478.672
491.0378, 8520.519
491.5199, 8601.156
492.0020, 8690.160
492.4841, 8759.794
492.9662, 8809.723
493.4484, 8838.965
493.9305, 8835.789
494.4126, 8824.936
494.8947, 8846.846
495.3768, 8895.666
495.8589, 8942.683
496.3411, 8975.734
496.8232, 8995.767
497.3053, 8998.350
497.7874, 8979.163
498.2695, 8968.441
498.7516, 8995.311
499.2338, 9035.313
499.7159, 9060.652
500.1980, 9049.771
500.6801, 9037.257
501.1622, 9030.739
501.6443, 9030.130
502.1265, 9032.967
502.6086, 9044.004
503.0907, 9053.942
503.5728, 9059.354
504.0549, 9060.154
504.5370, 9055.099
505.0192, 9036.486
505.5013, 9020.271
505.9834, 9031.828
506.4655, 9079.661
506.9476, 9111.621
507.4297, 9108.782
507.9119, 9084.862
508.3940, 9084.719
508.8761, 9108.843
509.3582, 9143.645
509.8403, 9183.576
510.3224, 9226.721
510.8046, 9263.621
511.2867, 9290.886
511.7688, 9328.168
512.2509, 9405.543
512.7330, 9505.923
513.2151, 9596.371
513.6973, 9648.568
514.1794, 9701.508
514.6615, 9787.617
515.1436, 9898.866
515.6257, 9998.633
516.1078, 10050.35
516.5900, 10103.45
517.0721, 10189.79
517.5542, 10332.21
518.0363, 10455.53
518.5184, 10528.46
519.0005, 10588.98
519.4827, 10681.72
519.9648, 10839.30
520.4469, 10971.86
520.9290, 11059.45
521.4111, 11110.25
521.8932, 11170.09
522.3754, 11247.18
522.8575, 11306.07
523.3396, 11320.54
523.8217, 11292.92
524.3038, 11268.76
524.7859, 11251.93
525.2681, 11226.48
525.7502, 11179.81
526.2323, 11110.08
526.7144, 11009.54
527.1965, 10868.11
527.6786, 10705.57
528.1608, 10536.04
528.6429, 10364.65
529.1250, 10198.00
529.6071, 10034.42
530.0892, 9883.400
530.5714, 9754.930
531.0535, 9654.184
531.5356, 9556.886
532.0177, 9440.712
532.4998, 9331.105
532.9819, 9255.628
533.4641, 9263.880
533.9462, 9247.764
534.4283, 9179.995
534.9104, 9081.228
535.3925, 9017.870
535.8746, 9004.351
536.3568, 8997.929
536.8389, 8981.813
537.3210, 8955.707
537.8031, 8937.500
538.2852, 8930.460
538.7673, 8919.223
539.2495, 8880.541
539.7316, 8819.658
540.2137, 8778.536
540.6958, 8772.299
541.1779, 8773.310
541.6600, 8740.761
542.1422, 8682.268
542.6243, 8622.952
543.1064, 8578.127
543.5885, 8535.854
544.0706, 8483.329
544.5527, 8421.066
545.0349, 8361.091
545.5170, 8312.668
545.9991, 8266.076
546.4812, 8211.526
546.9633, 8125.357
547.4454, 8067.820
547.9276, 8062.699
548.4097, 8087.917
548.8918, 8107.691
549.3739, 8116.902
549.8560, 8128.255
550.3381, 8139.898
550.8203, 8154.212
551.3024, 8198.129
551.7845, 8280.384
552.2666, 8364.136
552.7487, 8414.976
553.2308, 8438.188
553.7130, 8492.511
554.1951, 8584.123
554.6772, 8695.250
555.1593, 8812.430
555.6414, 8933.150
556.1235, 9047.391
556.6057, 9146.341
557.0878, 9245.024
557.5699, 9354.180
558.0520, 9473.868
558.5341, 9607.723
559.0162, 9775.391
559.4984, 9944.444
559.9805, 10093.92
560.4626, 10219.19
560.9447, 10338.23
561.4268, 10442.56
561.9089, 10549.31
562.3911, 10673.00
562.8732, 10838.50
563.3553, 10980.73
563.8374, 11094.22
564.3195, 11181.71
564.8016, 11249.64
565.2838, 11296.68
565.7659, 11328.82
566.2480, 11359.46
566.7301, 11377.30
567.2122, 11320.31
567.6943, 11186.78
568.1765, 11018.88
568.6586, 10822.84
569.1407, 10621.36
569.6228, 10470.15
570.1049, 10388.95
570.5870, 10313.66
571.0692, 10175.19
571.5513, 10012.50
572.0334, 9880.525
572.5155, 9808.934
572.9976, 9764.233
573.4797, 9740.522
573.9619, 9735.005
574.4440, 9736.875
574.9261, 9737.909
575.4082, 9752.543
575.8903, 9788.928
576.3724, 9853.257
576.8546, 9905.856
577.3367, 9934.954
577.8188, 9969.650
578.3009, 10042.78
578.7830, 10158.64
579.2651, 10266.86
579.7473, 10360.06
580.2294, 10443.93
580.7115, 10537.08
581.1936, 10634.02
581.6757, 10702.64
582.1578, 10735.05
582.6400, 10727.71
583.1221, 10672.02
583.6042, 10570.36
584.0863, 10437.30
584.5684, 10275.10
585.0505, 10089.96
585.5327, 9876.556
586.0148, 9619.832
586.4969, 9387.414
586.9790, 9200.528
587.4611, 9046.313
587.9432, 8908.155
588.4254, 8782.480
588.9075, 8676.215
589.3896, 8591.960
589.8717, 8527.097
590.3538, 8472.545
590.8359, 8425.653
591.3181, 8399.377
591.8002, 8408.278
592.2823, 8444.124
592.7644, 8453.524
593.2465, 8435.531
593.7286, 8417.121
594.2108, 8413.745
594.6929, 8427.338
595.1750, 8466.977
595.6571, 8540.772
596.1392, 8613.353
596.6213, 8650.186
597.1035, 8671.109
597.5856, 8704.793
598.0677, 8768.594
598.5498, 8839.030
599.0319, 8910.911
599.5140, 8984.067
599.9962, 9055.011
600.4783, 9119.487
600.9604, 9186.817
601.4426, 9255.755
601.9247, 9323.653
602.4068, 9428.959
602.8889, 9584.146
603.3710, 9740.773
603.8531, 9848.485
604.3353, 9910.504
604.8174, 9997.558
605.2995, 10118.48
605.7816, 10259.20
606.2637, 10403.25
606.7458, 10550.95
607.2280, 10710.98
607.7101, 10880.92
608.1922, 11068.14
608.6743, 11276.51
609.1564, 11506.55
609.6385, 11753.56
610.1207, 12018.53
610.6028, 12297.86
611.0849, 12581.41
611.5670, 12864.90
612.0491, 13199.90
612.5313, 13616.82
613.0134, 14056.29
613.4955, 14470.00
613.9776, 14837.39
614.4597, 15250.84
614.9418, 15718.06
615.4240, 16212.08
615.9061, 16702.77
616.3882, 17188.04
616.8703, 17664.44
617.3524, 18118.33
617.8345, 18579.27
618.3167, 19074.01
618.7988, 19604.43
619.2809, 20170.86
619.7630, 20801.50
620.2451, 21448.73
620.7272, 22070.34
621.2094, 22663.80
621.6915, 23248.13
622.1736, 23813.29
622.6557, 24376.67
623.1378, 24953.27
623.6199, 25588.91
624.1021, 26148.14
624.5842, 26618.23
625.0663, 27023.22
625.5484, 27400.50
626.0305, 27771.94
626.5126, 28018.30
626.9948, 28127.41
627.4769, 28090.10
627.9590, 27874.13
628.4411, 27485.91
628.9232, 26981.97
629.4053, 26378.47
629.8875, 25683.73
630.3696, 24869.26
630.8517, 23946.44
631.3338, 23016.29
631.8159, 22105.08
632.2980, 21232.95
632.7802, 20401.00
633.2623, 19599.39
633.7444, 18867.86
634.2265, 18254.17
634.7086, 17685.86
635.1907, 17087.90
635.6729, 16418.43
636.1550, 15806.01
636.6371, 15269.06
637.1192, 14793.74
637.6013, 14361.59
