##NAMES=Uralolite
##RRUFFID=R070749
##IDEAL CHEMISTRY=Ca_2_Be_4_(PO_4_)_3_(OH)_3_&#183;5H_2_O
##LOCALITY=Spodumene prospect (Brandrücken exploration adit), Brandrücken, Moschkogel Mt. - Weinebene area, Koralpe Mts, Carinthia, Austria
##OWNER=RRUFF
##SOURCE=Michael Scott
##DESCRIPTION=Radiating aggregates of gray-white matted fibers associated with quartz
##STATUS=The identification of this mineral has been confirmed by single-crystal X-ray diffraction.
##URL=rruff.info/R070749
104.8347, 32831.06
105.3168, 32841.56
105.7990, 32791.47
106.2811, 32752.37
106.7632, 32764.84
107.2453, 32829.71
107.7274, 32912.30
108.2095, 32958.81
108.6917, 32931.67
109.1738, 32929.49
109.6559, 32979.08
110.1380, 33039.49
110.6201, 33066.80
111.1022, 33041.33
111.5844, 32984.55
112.0665, 32976.11
112.5486, 33068.56
113.0307, 33145.94
113.5128, 33167.74
113.9949, 33154.04
114.4771, 33154.42
114.9592, 33204.03
115.4413, 33297.20
115.9234, 33370.92
116.4055, 33411.54
116.8876, 33443.25
117.3698, 33484.98
117.8519, 33538.18
118.3340, 33588.41
118.8161, 33620.34
119.2982, 33638.50
119.7803, 33653.89
120.2624, 33679.51
120.7446, 33704.32
121.2267, 33694.55
121.7088, 33617.16
122.1909, 33552.00
122.6730, 33560.88
123.1551, 33632.91
123.6373, 33714.23
124.1194, 33757.74
124.6015, 33759.07
125.0836, 33784.46
125.5657, 33872.90
126.0478, 33967.68
126.5300, 34048.65
127.0121, 34110.39
127.4942, 34149.51
127.9763, 34163.54
128.4584, 34160.24
128.9406, 34108.51
129.4227, 33983.53
129.9048, 33830.36
130.3869, 33682.96
130.8690, 33557.15
131.3511, 33448.66
131.8333, 33345.13
132.3154, 33230.12
132.7975, 33138.93
133.2796, 33098.21
133.7617, 33082.89
134.2438, 33050.20
134.7260, 32970.00
135.2081, 32846.14
135.6902, 32750.18
136.1723, 32681.87
136.6544, 32634.80
137.1365, 32614.79
137.6187, 32618.46
138.1008, 32626.04
138.5829, 32621.77
139.0650, 32605.29
139.5471, 32588.56
140.0292, 32572.37
140.5114, 32556.21
140.9935, 32538.33
141.4756, 32517.73
141.9577, 32498.91
142.4398, 32482.61
142.9219, 32469.22
143.4041, 32468.34
143.8862, 32495.59
144.3683, 32540.35
144.8504, 32565.04
145.3325, 32548.00
145.8146, 32527.32
146.2968, 32539.97
146.7789, 32583.96
147.2610, 32622.58
147.7431, 32610.01
148.2252, 32537.53
148.7073, 32504.91
149.1895, 32578.04
149.6716, 32668.54
150.1537, 32729.82
150.6358, 32751.46
151.1179, 32754.53
151.6000, 32773.63
152.0821, 32825.73
152.5643, 32856.20
153.0464, 32840.66
153.5285, 32813.81
154.0106, 32807.56
154.4927, 32835.69
154.9748, 32885.66
155.4570, 32918.84
155.9391, 32922.56
156.4212, 32921.91
156.9033, 32911.22
157.3854, 32899.30
157.8675, 32898.04
158.3497, 32915.01
158.8318, 32948.69
159.3139, 32981.79
159.7960, 33052.79
160.2781, 33085.76
160.7602, 33030.55
161.2424, 32911.36
161.7245, 32797.84
162.2066, 32745.89
162.6887, 32758.34
163.1708, 32742.11
163.6529, 32674.08
164.1351, 32598.22
164.6172, 32548.71
165.0993, 32526.43
165.5814, 32500.17
166.0635, 32431.04
166.5456, 32320.40
167.0278, 32245.47
167.5099, 32240.25
167.9920, 32264.89
168.4741, 32270.55
168.9562, 32248.24
169.4383, 32216.03
169.9205, 32186.30
170.4026, 32159.30
170.8847, 32145.37
171.3668, 32161.92
171.8489, 32196.03
172.3310, 32209.53
172.8132, 32191.22
173.2953, 32156.70
173.7774, 32121.65
174.2595, 32085.79
174.7416, 32045.41
175.2237, 31983.58
175.7059, 31901.59
176.1880, 31861.44
176.6701, 31913.75
177.1522, 31981.27
177.6343, 32019.55
178.1164, 32023.67
178.5986, 32006.29
179.0807, 31972.78
179.5628, 31913.53
180.0449, 31878.40
180.5270, 31892.60
181.0091, 31920.96
181.4913, 31948.89
181.9734, 31971.31
182.4555, 31981.89
182.9376, 31963.97
183.4197, 31886.79
183.9018, 31843.92
184.3840, 31866.74
184.8661, 31910.49
185.3482, 31938.26
185.8303, 31935.03
186.3124, 31910.01
186.7945, 31886.09
187.2767, 31850.71
187.7588, 31834.58
188.2409, 31859.05
188.7230, 31897.52
189.2051, 31916.18
189.6872, 31896.87
190.1694, 31850.29
190.6515, 31826.49
191.1336, 31850.60
191.6157, 31869.57
192.0978, 31857.54
192.5799, 31835.06
193.0621, 31843.50
193.5442, 31912.85
194.0263, 32032.84
194.5084, 32101.75
194.9905, 32086.95
195.4726, 32067.56
195.9548, 32069.91
196.4369, 32091.17
196.9190, 32120.38
197.4011, 32154.04
197.8832, 32189.35
198.3653, 32203.26
198.8475, 32180.52
199.3296, 32151.77
199.8117, 32140.17
200.2938, 32143.60
200.7759, 32134.37
201.2580, 32081.15
201.7402, 31992.32
202.2223, 31942.98
202.7044, 31974.35
203.1865, 32022.02
203.6686, 32026.08
204.1507, 31981.78
204.6329, 31927.35
205.1150, 31895.40
205.5971, 31878.55
206.0792, 31849.88
206.5613, 31776.20
207.0434, 31698.90
207.5256, 31688.26
208.0077, 31766.33
208.4898, 31840.26
208.9719, 31820.28
209.4540, 31737.88
209.9361, 31659.72
210.4183, 31601.42
210.9004, 31564.51
211.3825, 31559.50
211.8646, 31604.01
212.3467, 31645.29
212.8288, 31647.94
213.3110, 31620.45
213.7931, 31580.53
214.2752, 31512.18
214.7573, 31432.61
215.2394, 31425.45
215.7215, 31552.22
216.2037, 31669.03
216.6858, 31686.63
217.1679, 31628.81
217.6500, 31564.41
218.1321, 31536.72
218.6142, 31543.86
219.0964, 31562.31
219.5785, 31607.12
220.0606, 31647.41
220.5427, 31666.74
221.0248, 31669.04
221.5069, 31668.32
221.9891, 31681.73
222.4712, 31711.04
222.9533, 31714.00
223.4354, 31656.04
223.9175, 31600.38
224.3996, 31576.63
224.8818, 31579.15
225.3639, 31581.80
225.8460, 31554.36
226.3281, 31488.56
226.8102, 31450.21
227.2923, 31463.26
227.7745, 31484.10
228.2566, 31499.67
228.7387, 31507.70
229.2208, 31510.50
229.7029, 31511.06
230.1850, 31511.00
230.6672, 31500.43
231.1493, 31466.42
231.6314, 31433.53
232.1135, 31405.79
232.5956, 31387.79
233.0777, 31389.86
233.5599, 31429.54
234.0420, 31528.10
234.5241, 31586.14
235.0062, 31585.73
235.4883, 31567.83
235.9704, 31549.61
236.4526, 31534.71
236.9347, 31520.22
237.4168, 31501.95
237.8989, 31475.67
238.3810, 31460.53
238.8631, 31466.40
239.3453, 31473.59
239.8274, 31473.04
240.3095, 31462.46
240.7916, 31441.64
241.2737, 31408.39
241.7558, 31353.83
242.2380, 31314.91
242.7201, 31290.90
243.2022, 31280.20
243.6843, 31292.39
244.1664, 31323.60
244.6485, 31348.23
245.1307, 31333.09
245.6128, 31255.51
246.0949, 31212.10
246.5770, 31228.36
247.0591, 31257.21
247.5412, 31266.74
248.0234, 31252.53
248.5055, 31227.44
248.9876, 31204.49
249.4697, 31182.09
249.9518, 31170.86
250.4339, 31168.09
250.9161, 31177.48
251.3982, 31209.54
251.8803, 31262.66
252.3624, 31316.38
252.8445, 31348.17
253.3266, 31352.58
253.8088, 31348.84
254.2909, 31313.59
254.7730, 31285.59
255.2551, 31309.92
255.7372, 31388.12
256.2193, 31463.66
256.7014, 31474.04
257.1836, 31399.80
257.6657, 31350.00
258.1478, 31345.24
258.6299, 31351.77
259.1120, 31338.47
259.5941, 31302.87
260.0763, 31269.63
260.5584, 31263.23
261.0405, 31288.73
261.5226, 31316.46
262.0047, 31346.60
262.4868, 31378.55
262.9690, 31414.07
263.4511, 31452.87
263.9332, 31487.21
264.4153, 31503.53
264.8974, 31501.01
265.3795, 31531.78
265.8617, 31650.19
266.3438, 31766.98
266.8259, 31793.47
267.3080, 31727.18
267.7901, 31653.33
268.2722, 31647.85
268.7544, 31709.99
269.2365, 31735.67
269.7186, 31692.29
270.2007, 31632.51
270.6828, 31589.85
271.1649, 31566.95
271.6471, 31568.49
272.1292, 31609.61
272.6113, 31684.40
273.0934, 31725.39
273.5755, 31708.04
274.0576, 31674.41
274.5398, 31655.33
275.0219, 31650.85
275.5040, 31644.40
275.9861, 31621.45
276.4682, 31586.50
276.9503, 31568.41
277.4325, 31570.59
277.9146, 31586.90
278.3967, 31624.39
278.8788, 31679.01
279.3609, 31718.06
279.8430, 31714.51
280.3252, 31679.50
280.8073, 31664.97
281.2894, 31681.46
281.7715, 31707.84
282.2536, 31734.40
282.7357, 31760.69
283.2179, 31786.90
283.7000, 31821.69
284.1821, 31850.30
284.6642, 31835.14
285.1463, 31753.85
285.6284, 31659.20
286.1106, 31568.92
286.5927, 31486.19
287.0748, 31427.20
287.5569, 31403.46
288.0390, 31405.20
288.5211, 31407.98
289.0033, 31425.19
289.4854, 31421.24
289.9675, 31350.28
290.4496, 31239.66
290.9317, 31184.32
291.4138, 31243.68
291.8960, 31347.29
292.3781, 31341.95
292.8602, 31186.39
293.3423, 31052.64
293.8244, 31034.58
294.3065, 31088.49
294.7887, 31110.71
295.2708, 31060.74
295.7529, 30980.93
296.2350, 30946.40
296.7171, 30960.81
297.1992, 30982.17
297.6814, 31003.70
298.1635, 31022.33
298.6456, 31033.28
299.1277, 31035.45
299.6098, 31028.51
300.0919, 31008.37
300.5741, 30974.15
301.0562, 30940.62
301.5383, 30904.24
302.0204, 30872.79
302.5025, 30858.70
302.9846, 30865.02
303.4668, 30881.95
303.9489, 30899.54
304.4310, 30917.47
304.9131, 30940.91
305.3952, 30990.55
305.8773, 31035.38
306.3595, 31034.92
306.8416, 30984.32
307.3237, 30926.84
307.8058, 30904.24
308.2879, 30918.42
308.7701, 30920.09
309.2522, 30897.40
309.7343, 30868.81
310.2164, 30845.48
310.6985, 30828.90
311.1806, 30820.88
311.6628, 30822.71
312.1449, 30835.40
312.6270, 30857.33
313.1091, 30897.94
313.5912, 30938.62
314.0733, 30982.09
314.5555, 31020.54
315.0376, 31021.84
315.5197, 30957.36
316.0018, 30841.09
316.4839, 30757.79
316.9660, 30704.56
317.4482, 30680.29
317.9303, 30702.56
318.4124, 30754.06
318.8945, 30795.04
319.3766, 30805.31
319.8587, 30793.42
320.3409, 30786.76
320.8230, 30798.44
321.3051, 30797.40
321.7872, 30761.20
322.2693, 30712.15
322.7514, 30691.19
323.2336, 30716.16
323.7157, 30755.04
324.1978, 30740.51
324.6799, 30624.51
325.1620, 30540.36
325.6441, 30517.07
326.1263, 30521.16
326.6084, 30519.10
327.0905, 30502.27
327.5726, 30482.79
328.0547, 30480.00
328.5368, 30514.68
329.0190, 30509.45
329.5011, 30413.79
329.9832, 30316.09
330.4653, 30293.75
330.9474, 30347.19
331.4295, 30407.91
331.9117, 30403.02
332.3938, 30316.20
332.8759, 30254.10
333.3580, 30205.66
333.8401, 30186.25
334.3222, 30229.61
334.8044, 30313.73
335.2865, 30376.85
335.7686, 30368.63
336.2507, 30290.36
336.7328, 30223.31
337.2149, 30154.90
337.6971, 30110.80
338.1792, 30115.62
338.6613, 30147.21
339.1434, 30168.45
339.6255, 30157.71
340.1076, 30122.26
340.5898, 30093.20
341.0719, 30077.02
341.5540, 30059.72
342.0361, 30045.44
342.5182, 30027.10
343.0003, 29990.04
343.4825, 29929.08
343.9646, 29865.65
344.4467, 29847.15
344.9288, 29909.72
345.4109, 29947.72
345.8930, 29945.29
346.3752, 29926.03
346.8573, 29906.54
347.3394, 29890.31
347.8215, 29869.57
348.3036, 29825.15
348.7857, 29738.92
349.2679, 29701.02
349.7500, 29768.64
350.2321, 29839.14
350.7142, 29868.94
351.1963, 29857.79
351.6784, 29825.21
352.1606, 29775.06
352.6427, 29709.07
353.1248, 29689.48
353.6069, 29767.84
354.0890, 29830.92
354.5711, 29816.75
355.0533, 29756.50
355.5354, 29715.59
356.0175, 29742.80
356.4996, 29807.23
356.9817, 29812.22
357.4638, 29723.12
357.9460, 29652.80
358.4281, 29663.73
358.9102, 29710.32
359.3923, 29744.18
359.8744, 29750.84
360.3565, 29737.38
360.8387, 29707.58
361.3208, 29658.86
361.8029, 29616.23
362.2850, 29597.80
362.7671, 29582.16
363.2492, 29545.68
363.7314, 29483.28
364.2135, 29421.25
364.6956, 29373.91
365.1777, 29342.12
365.6598, 29331.90
366.1419, 29353.26
366.6241, 29384.70
367.1062, 29414.32
367.5883, 29441.60
368.0704, 29437.76
368.5525, 29356.58
369.0346, 29246.42
369.5168, 29199.09
369.9989, 29233.50
370.4810, 29278.33
370.9631, 29266.98
371.4452, 29210.73
371.9273, 29175.75
372.4095, 29179.15
372.8916, 29199.90
373.3737, 29224.83
373.8558, 29252.80
374.3379, 29283.11
374.8200, 29323.24
375.3022, 29361.71
375.7843, 29354.20
376.2664, 29253.71
376.7485, 29166.36
377.2306, 29135.43
377.7127, 29143.87
378.1949, 29163.04
378.6770, 29183.15
379.1591, 29201.05
379.6412, 29209.44
380.1233, 29202.73
380.6054, 29196.83
381.0876, 29197.55
381.5697, 29196.87
382.0518, 29183.68
382.5339, 29157.35
383.0160, 29131.19
383.4981, 29122.46
383.9803, 29138.87
384.4624, 29139.23
384.9445, 29129.84
385.4266, 29102.05
385.9087, 29034.80
386.3908, 28943.19
386.8730, 28866.42
387.3551, 28833.63
387.8372, 28841.20
388.3193, 28850.12
388.8014, 28867.73
389.2835, 28877.83
389.7657, 28870.60
390.2478, 28856.63
390.7299, 28851.32
391.2120, 28861.70
391.6941, 28876.76
392.1762, 28871.83
392.6584, 28835.57
393.1405, 28806.84
393.6226, 28799.33
394.1047, 28794.54
394.5868, 28780.82
395.0689, 28756.14
395.5511, 28724.95
396.0332, 28687.12
396.5153, 28642.67
396.9974, 28609.57
397.4795, 28585.20
397.9616, 28579.06
398.4438, 28601.77
398.9259, 28646.06
399.4080, 28691.78
399.8901, 28740.74
400.3722, 28780.66
400.8543, 28776.00
401.3365, 28715.03
401.8186, 28656.53
402.3007, 28637.28
402.7828, 28639.64
403.2649, 28637.88
403.7470, 28624.73
404.2292, 28611.58
404.7113, 28608.06
405.1934, 28612.92
405.6755, 28620.22
406.1576, 28629.13
406.6397, 28637.50
407.1219, 28642.75
407.6040, 28645.80
408.0861, 28642.33
408.5682, 28629.12
409.0503, 28609.02
409.5324, 28583.94
410.0146, 28554.20
410.4967, 28525.47
410.9788, 28505.34
411.4609, 28495.78
411.9430, 28473.01
412.4251, 28413.38
412.9073, 28362.53
413.3894, 28358.73
413.8715, 28387.54
414.3536, 28403.18
414.8357, 28376.77
415.3178, 28316.93
415.8000, 28263.10
416.2821, 28224.74
416.7642, 28181.25
417.2463, 28113.48
417.7284, 28047.95
418.2105, 28020.31
418.6927, 28039.02
419.1748, 28071.89
419.6569, 28066.02
420.1390, 27998.58
420.6211, 27955.65
421.1032, 27952.47
421.5854, 27958.93
422.0675, 27974.41
422.5496, 27989.00
423.0317, 27977.08
423.5138, 27903.05
423.9959, 27784.34
424.4781, 27733.65
424.9602, 27788.22
425.4423, 27849.99
425.9244, 27886.42
426.4065, 27905.84
426.8886, 27917.57
427.3708, 27923.40
427.8529, 27925.88
428.3350, 27935.46
428.8171, 27952.97
429.2992, 27939.24
429.7813, 27856.95
430.2635, 27763.64
430.7456, 27726.47
431.2277, 27748.13
431.7098, 27774.83
432.1919, 27781.88
432.6740, 27776.82
433.1562, 27772.13
433.6383, 27769.17
434.1204, 27769.63
434.6025, 27780.08
435.0846, 27797.86
435.5667, 27795.49
436.0489, 27747.22
436.5310, 27701.41
437.0131, 27688.04
437.4952, 27700.67
437.9773, 27718.55
438.4594, 27731.70
438.9416, 27743.36
439.4237, 27762.79
439.9058, 27812.50
440.3879, 27838.05
440.8700, 27821.16
441.3521, 27788.43
441.8343, 27761.33
442.3164, 27744.79
442.7985, 27733.91
443.2806, 27720.67
443.7627, 27700.70
444.2448, 27710.06
444.7270, 27785.88
445.2091, 27853.72
445.6912, 27887.67
446.1733, 27896.41
446.6554, 27896.05
447.1375, 27892.55
447.6197, 27892.26
448.1018, 27916.87
448.5839, 27982.40
449.0660, 28027.52
449.5481, 28027.46
450.0302, 28006.34
450.5124, 27976.07
450.9945, 27939.02
451.4766, 27904.26
451.9587, 27878.72
452.4408, 27861.66
452.9229, 27852.14
453.4051, 27855.38
453.8872, 27854.47
454.3693, 27834.38
454.8514, 27798.98
455.3335, 27756.21
455.8156, 27687.22
456.2978, 27626.90
456.7799, 27621.40
457.2620, 27659.48
457.7441, 27674.77
458.2262, 27630.36
458.7083, 27549.78
459.1904, 27497.90
459.6725, 27498.97
460.1547, 27478.00
460.6368, 27393.12
461.1189, 27294.85
461.6010, 27247.81
462.0831, 27258.47
462.5652, 27269.44
463.0474, 27213.68
463.5295, 27076.35
464.0116, 27002.84
464.4937, 27058.75
464.9758, 27104.70
465.4579, 27090.15
465.9401, 27036.66
466.4222, 26982.66
466.9043, 26947.44
467.3864, 26924.31
467.8685, 26901.95
468.3506, 26886.73
468.8328, 26853.72
469.3149, 26777.93
469.7970, 26698.20
470.2791, 26638.80
470.7612, 26601.47
471.2433, 26571.50
471.7255, 26547.64
472.2076, 26523.58
472.6897, 26467.08
473.1718, 26360.14
473.6539, 26270.89
474.1360, 26262.10
474.6182, 26300.91
475.1003, 26319.17
475.5824, 26289.46
476.0645, 26259.34
476.5466, 26265.70
477.0287, 26298.72
477.5109, 26330.57
477.9930, 26353.15
478.4751, 26366.11
478.9572, 26368.96
479.4393, 26362.54
479.9214, 26341.75
480.4036, 26297.69
480.8857, 26246.00
481.3678, 26191.72
481.8499, 26138.78
482.3320, 26095.02
482.8141, 26065.43
483.2963, 26050.17
483.7784, 26052.05
484.2605, 26107.71
484.7426, 26130.16
485.2247, 26074.02
485.7068, 25999.28
486.1890, 25967.07
486.6711, 25991.48
487.1532, 26034.98
487.6353, 26058.35
488.1174, 26061.13
488.5995, 26052.65
489.0817, 26028.58
489.5638, 25999.32
490.0459, 25963.28
490.5280, 25927.13
491.0101, 25907.12
491.4922, 25922.24
491.9744, 25943.58
492.4565, 25936.28
492.9386, 25901.74
493.4207, 25858.41
493.9028, 25809.14
494.3849, 25759.42
494.8671, 25719.15
495.3492, 25688.46
495.8313, 25661.68
496.3134, 25643.46
496.7955, 25624.57
497.2776, 25591.33
497.7598, 25545.01
498.2419, 25502.74
498.7240, 25479.13
499.2061, 25472.60
499.6882, 25461.65
500.1703, 25455.80
500.6525, 25434.02
501.1346, 25378.76
501.6167, 25312.47
502.0988, 25255.16
502.5809, 25214.36
503.0630, 25193.20
503.5452, 25203.66
504.0273, 25253.13
504.5094, 25281.28
504.9915, 25274.18
505.4736, 25259.12
505.9557, 25254.14
506.4379, 25251.48
506.9200, 25230.29
507.4021, 25165.23
507.8842, 25097.94
508.3663, 25101.20
508.8484, 25171.69
509.3306, 25211.53
509.8127, 25177.10
510.2948, 25107.55
510.7769, 25057.37
511.2590, 25024.80
511.7411, 25011.92
512.2233, 25056.08
512.7054, 25096.64
513.1875, 25051.53
513.6696, 24930.01
514.1517, 24827.91
514.6339, 24814.52
515.1160, 24876.34
515.5981, 24927.05
516.0802, 24977.44
516.5623, 25002.47
517.0444, 24987.19
517.5266, 24952.64
518.0087, 24917.38
518.4908, 24885.80
518.9729, 24853.23
519.4550, 24812.47
519.9371, 24763.14
520.4193, 24721.62
520.9014, 24688.84
521.3835, 24663.44
521.8656, 24644.77
522.3477, 24632.12
522.8298, 24624.47
523.3120, 24621.23
523.7941, 24623.40
524.2762, 24640.97
524.7583, 24668.03
525.2404, 24672.74
525.7225, 24644.61
526.2047, 24597.83
526.6868, 24541.00
527.1689, 24472.86
527.6510, 24426.57
528.1331, 24417.27
528.6152, 24419.85
529.0974, 24420.85
529.5795, 24420.01
530.0616, 24419.85
530.5437, 24421.65
531.0258, 24424.86
531.5079, 24428.75
531.9901, 24438.87
532.4722, 24439.13
532.9543, 24422.94
533.4364, 24403.62
533.9185, 24396.61
534.4006, 24395.89
534.8828, 24376.83
535.3649, 24311.43
535.8470, 24220.97
536.3291, 24172.87
536.8112, 24172.25
537.2933, 24195.47
537.7755, 24260.63
538.2576, 24329.02
538.7397, 24353.15
539.2218, 24325.22
539.7039, 24287.07
540.1860, 24259.19
540.6682, 24233.91
541.1503, 24195.45
541.6324, 24142.63
542.1145, 24095.56
542.5966, 24069.94
543.0787, 24063.26
543.5609, 24054.94
544.0430, 24025.88
544.5251, 24018.96
545.0072, 24076.28
545.4893, 24142.50
545.9714, 24145.38
546.4536, 24076.05
546.9357, 23999.13
547.4178, 23992.77
547.8999, 24060.57
548.3820, 24091.83
548.8641, 24062.54
549.3463, 24030.51
549.8284, 24021.29
550.3105, 24021.20
550.7926, 24012.06
551.2747, 23988.84
551.7568, 23955.24
552.2390, 23893.74
552.7211, 23820.35
553.2032, 23812.71
553.6853, 23900.22
554.1674, 23998.53
554.6495, 24028.48
555.1317, 23989.34
555.6138, 23953.54
556.0959, 23909.73
556.5780, 23882.31
557.0601, 23897.70
557.5422, 23933.67
558.0244, 23949.19
558.5065, 23930.03
558.9886, 23900.30
559.4707, 23901.84
559.9528, 23953.14
560.4349, 23962.42
560.9171, 23881.29
561.3992, 23804.86
561.8813, 23765.61
562.3634, 23754.59
562.8455, 23753.65
563.3276, 23758.01
563.8098, 23761.22
564.2919, 23751.38
564.7740, 23729.65
565.2561, 23715.31
565.7382, 23714.49
566.2203, 23718.87
566.7025, 23723.17
567.1846, 23726.86
567.6667, 23720.21
568.1488, 23678.83
568.6309, 23647.54
569.1130, 23671.92
569.5952, 23728.77
570.0773, 23756.04
570.5594, 23727.20
571.0415, 23677.36
571.5236, 23673.32
572.0057, 23746.24
572.4879, 23780.48
572.9700, 23746.88
573.4521, 23705.96
573.9342, 23679.02
574.4163, 23665.21
574.8984, 23656.50
575.3806, 23647.11
575.8627, 23645.99
576.3448, 23676.45
576.8269, 23738.76
577.3090, 23779.17
577.7911, 23780.54
578.2733, 23763.08
578.7554, 23737.40
579.2375, 23705.67
579.7196, 23696.69
580.2017, 23728.45
580.6838, 23773.22
581.1660, 23825.85
581.6481, 23875.93
582.1302, 23895.94
582.6123, 23873.39
583.0944, 23833.13
583.5765, 23819.44
584.0587, 23845.31
584.5408, 23860.95
585.0229, 23862.23
585.5050, 23858.09
585.9871, 23847.17
586.4692, 23834.22
586.9514, 23827.92
587.4335, 23833.21
587.9156, 23843.67
588.3977, 23852.24
588.8798, 23858.78
589.3619, 23855.39
589.8441, 23830.76
590.3262, 23813.56
590.8083, 23847.20
591.2904, 23922.51
591.7725, 23966.76
592.2546, 23952.19
592.7368, 23921.63
593.2189, 23895.41
593.7010, 23872.01
594.1831, 23844.53
594.6652, 23810.78
595.1473, 23780.92
595.6295, 23770.86
596.1116, 23784.43
596.5937, 23798.92
597.0758, 23815.26
597.5579, 23831.36
598.0400, 23848.32
598.5222, 23864.03
599.0043, 23877.72
599.4864, 23890.82
