##NAMES=Uralborite
##RRUFFID=R061140
##IDEAL CHEMISTRY=CaB_2_O_2_(OH)_4_
##LOCALITY=Fuka mine, Bicchu-cho, Okayama Prefecture, Japan
##OWNER=RRUFF
##SOURCE=Michael Scott
##DESCRIPTION=Colorless massive
##STATUS=The identification of this mineral has been confirmed by single-crystal X-ray diffraction.
##URL=rruff.info/R061140
128.5417, 679.4305
129.0238, 719.7502
129.5060, 765.1843
129.9881, 811.4955
130.4702, 870.6406
130.9523, 921.5782
131.4344, 949.8945
131.9165, 955.6374
132.3987, 947.9807
132.8808, 930.8658
133.3629, 904.4925
133.8450, 880.5865
134.3271, 865.2897
134.8092, 849.1599
135.2914, 820.0023
135.7735, 776.3538
136.2556, 735.1289
136.7377, 711.6541
137.2198, 703.5770
137.7019, 700.5007
138.1841, 699.1591
138.6662, 702.5457
139.1483, 715.0934
139.6304, 737.7727
140.1125, 766.7279
140.5946, 801.8710
141.0768, 841.2435
141.5589, 881.1207
142.0410, 916.3444
142.5231, 951.9664
143.0052, 1001.987
143.4873, 1075.674
143.9695, 1143.064
144.4516, 1184.966
144.9337, 1205.368
145.4158, 1211.288
145.8979, 1197.485
146.3800, 1170.960
146.8622, 1153.259
147.3443, 1146.968
147.8264, 1147.182
148.3085, 1153.356
148.7906, 1163.132
149.2727, 1170.375
149.7549, 1169.343
150.2370, 1161.738
150.7191, 1157.962
151.2012, 1159.669
151.6833, 1163.654
152.1654, 1167.705
152.6476, 1172.344
153.1297, 1178.987
153.6118, 1190.916
154.0939, 1207.495
154.5760, 1217.697
155.0581, 1220.179
155.5403, 1216.694
156.0224, 1207.754
156.5045, 1193.748
156.9866, 1175.461
157.4687, 1152.910
157.9508, 1125.942
158.4330, 1097.762
158.9151, 1062.819
159.3972, 1032.100
159.8793, 1009.898
160.3614, 995.2269
160.8435, 984.9032
161.3257, 976.3716
161.8078, 969.6050
162.2899, 965.5323
162.7720, 962.8426
163.2541, 964.3694
163.7362, 971.8687
164.2184, 984.7774
164.7005, 1001.747
165.1826, 1023.563
165.6647, 1051.800
166.1468, 1068.694
166.6289, 1074.915
167.1111, 1069.241
167.5932, 1045.653
168.0753, 1008.250
168.5574, 967.5486
169.0395, 932.2016
169.5216, 902.9200
170.0038, 875.0358
170.4859, 846.6469
170.9680, 821.2665
171.4501, 798.5651
171.9322, 779.6727
172.4143, 767.0500
172.8965, 763.4365
173.3786, 769.8339
173.8607, 777.3597
174.3428, 790.9074
174.8249, 801.0403
175.3070, 801.1638
175.7892, 793.6348
176.2713, 786.3772
176.7534, 786.4258
177.2355, 794.6797
177.7176, 802.5503
178.1997, 809.9514
178.6819, 817.1787
179.1640, 823.5419
179.6461, 829.6580
180.1282, 837.4302
180.6103, 848.9166
181.0924, 864.7541
181.5745, 876.1283
182.0567, 876.7172
182.5388, 879.7562
183.0209, 891.4546
183.5030, 910.8583
183.9851, 933.4264
184.4672, 955.3933
184.9494, 976.5865
185.4315, 1001.709
185.9136, 1037.091
186.3957, 1069.408
186.8778, 1094.727
187.3599, 1112.401
187.8421, 1121.564
188.3242, 1120.107
188.8063, 1108.121
189.2884, 1104.397
189.7705, 1112.694
190.2526, 1123.472
190.7348, 1131.318
191.2169, 1138.119
191.6990, 1149.694
192.1811, 1170.161
192.6632, 1199.199
193.1453, 1231.310
193.6275, 1265.389
194.1096, 1302.963
194.5917, 1352.462
195.0738, 1406.889
195.5559, 1448.640
196.0380, 1466.159
196.5202, 1461.899
197.0023, 1455.841
197.4844, 1450.770
197.9665, 1441.544
198.4486, 1422.771
198.9307, 1398.192
199.4129, 1375.990
199.8950, 1360.082
200.3771, 1350.433
200.8592, 1347.551
201.3413, 1357.337
201.8234, 1365.587
202.3056, 1372.140
202.7877, 1374.080
203.2698, 1364.318
203.7519, 1338.144
204.2340, 1300.247
204.7161, 1267.352
205.1983, 1250.409
205.6804, 1223.594
206.1625, 1173.417
206.6446, 1110.111
207.1267, 1050.680
207.6088, 1001.742
208.0910, 962.1066
208.5731, 929.9084
209.0552, 906.6172
209.5373, 886.6825
210.0194, 865.6240
210.5015, 848.2071
210.9837, 843.8445
211.4658, 856.8904
211.9479, 878.4712
212.4300, 890.9187
212.9121, 889.1920
213.3942, 890.5294
213.8764, 899.2928
214.3585, 911.8993
214.8406, 924.5751
215.3227, 936.4635
215.8048, 946.6152
216.2869, 952.9650
216.7691, 953.3039
217.2512, 956.5184
217.7333, 966.5339
218.2154, 978.3535
218.6975, 984.8791
219.1796, 984.6539
219.6618, 985.5253
220.1439, 998.6859
220.6260, 1030.052
221.1081, 1050.958
221.5902, 1052.922
222.0723, 1048.677
222.5545, 1051.212
223.0366, 1061.639
223.5187, 1068.956
224.0008, 1060.538
224.4829, 1032.366
224.9650, 1011.987
225.4472, 1002.342
225.9293, 997.8796
226.4114, 996.8886
226.8935, 998.3542
227.3756, 998.5044
227.8577, 993.3074
228.3399, 982.5734
228.8220, 978.2393
229.3041, 989.1983
229.7862, 998.0172
230.2683, 992.2288
230.7504, 974.9639
231.2325, 959.8505
231.7147, 957.1010
232.1968, 965.1997
232.6789, 964.5571
233.1610, 946.7949
233.6431, 930.8481
234.1252, 923.2044
234.6074, 922.7115
235.0895, 926.8432
235.5716, 935.0037
236.0537, 945.5912
236.5358, 951.3212
237.0179, 946.3484
237.5001, 944.0842
237.9822, 952.1183
238.4643, 963.7708
238.9464, 967.3347
239.4285, 957.3115
239.9106, 939.6587
240.3928, 929.5862
240.8749, 930.1198
241.3570, 934.2626
241.8391, 947.2782
242.3212, 961.3323
242.8033, 966.7348
243.2855, 960.5554
243.7676, 948.3739
244.2497, 938.9518
244.7318, 930.0973
245.2139, 929.4377
245.6960, 942.7678
246.1782, 960.3911
246.6603, 975.6677
247.1424, 986.9728
247.6245, 995.2473
248.1066, 1002.006
248.5887, 1008.730
249.0709, 1007.405
249.5530, 993.9360
250.0351, 977.0827
250.5172, 960.2650
250.9993, 944.5267
251.4814, 930.9562
251.9636, 920.6886
252.4457, 914.0221
252.9278, 907.6306
253.4099, 907.0991
253.8920, 901.3850
254.3741, 881.4976
254.8563, 852.9691
255.3384, 828.4088
255.8205, 816.7748
256.3026, 816.5294
256.7847, 812.6094
257.2668, 798.1123
257.7490, 787.3898
258.2311, 782.8250
258.7132, 783.4451
259.1953, 788.5100
259.6774, 797.8682
260.1595, 809.6307
260.6417, 818.5240
261.1238, 826.1201
261.6059, 827.7225
262.0880, 815.7167
262.5701, 801.7480
263.0522, 797.8768
263.5344, 807.5509
264.0165, 823.2939
264.4986, 832.1636
264.9807, 830.4875
265.4628, 830.4839
265.9449, 825.6047
266.4271, 827.5341
266.9092, 848.3765
267.3913, 887.0600
267.8734, 928.3658
268.3555, 953.6794
268.8376, 958.9355
269.3198, 971.7263
269.8019, 996.6262
270.2840, 1025.783
270.7661, 1061.822
271.2482, 1100.680
271.7303, 1132.653
272.2125, 1150.007
272.6946, 1153.628
273.1767, 1152.475
273.6588, 1147.246
274.1409, 1135.412
274.6230, 1113.662
275.1052, 1086.079
275.5873, 1058.893
276.0694, 1035.500
276.5515, 1014.233
277.0336, 990.5421
277.5157, 962.8516
277.9979, 937.0910
278.4800, 916.2026
278.9621, 897.8088
279.4442, 879.7964
279.9263, 861.6853
280.4084, 843.6906
280.8906, 825.2856
281.3727, 806.2008
281.8548, 790.1688
282.3369, 778.0943
282.8190, 769.9339
283.3011, 766.8996
283.7833, 769.2405
284.2654, 770.9778
284.7475, 766.4074
285.2296, 757.0765
285.7117, 751.3412
286.1938, 752.6615
286.6760, 754.2335
287.1581, 748.1373
287.6402, 736.0749
288.1223, 727.3803
288.6044, 728.0771
289.0865, 733.7259
289.5687, 737.8159
290.0508, 740.1838
290.5329, 739.3639
291.0150, 730.3688
291.4971, 717.0003
291.9792, 711.6555
292.4614, 720.4819
292.9435, 734.4017
293.4256, 748.3530
293.9077, 761.8980
294.3898, 771.0562
294.8719, 771.8387
295.3541, 768.2062
295.8362, 771.4689
296.3183, 783.5673
296.8004, 798.4005
297.2825, 814.9200
297.7646, 832.3751
298.2468, 849.2263
298.7289, 864.8226
299.2110, 880.3637
299.6931, 898.4678
300.1752, 920.9599
300.6573, 940.4943
301.1395, 954.3779
301.6216, 966.2271
302.1037, 977.9407
302.5858, 990.3597
303.0679, 1006.722
303.5500, 1031.601
304.0322, 1067.517
304.5143, 1093.152
304.9964, 1101.423
305.4785, 1107.729
305.9606, 1119.410
306.4427, 1135.309
306.9248, 1150.371
307.4070, 1160.878
307.8891, 1168.109
308.3712, 1180.193
308.8533, 1198.469
309.3354, 1220.494
309.8175, 1246.902
310.2997, 1276.585
310.7818, 1310.040
311.2639, 1347.167
311.7460, 1384.224
312.2281, 1413.678
312.7102, 1430.247
313.1924, 1450.433
313.6745, 1481.636
314.1566, 1511.193
314.6387, 1529.839
315.1208, 1537.454
315.6029, 1541.136
316.0851, 1547.806
316.5672, 1557.661
317.0493, 1566.108
317.5314, 1574.694
318.0135, 1579.741
318.4956, 1580.211
318.9778, 1576.251
319.4599, 1567.643
319.9420, 1552.462
320.4241, 1534.118
320.9062, 1522.917
321.3883, 1522.636
321.8705, 1518.715
322.3526, 1501.062
322.8347, 1478.750
323.3168, 1459.977
323.7989, 1446.286
324.2810, 1437.723
324.7632, 1437.345
325.2453, 1444.364
325.7274, 1446.485
326.2095, 1436.991
326.6916, 1425.888
327.1737, 1427.675
327.6559, 1442.181
328.1380, 1447.351
328.6201, 1430.184
329.1022, 1398.394
329.5843, 1363.836
330.0664, 1327.546
330.5486, 1290.749
331.0307, 1254.127
331.5128, 1217.710
331.9949, 1182.319
332.4770, 1149.914
332.9591, 1116.774
333.4413, 1076.597
333.9234, 1032.515
334.4055, 997.1992
334.8876, 978.6633
335.3697, 970.8260
335.8518, 953.7775
336.3340, 916.7044
336.8161, 887.9777
337.2982, 876.9391
337.7803, 874.6431
338.2624, 872.1078
338.7445, 866.7047
339.2267, 858.4858
339.7088, 846.5012
340.1909, 826.7563
340.6730, 817.7375
341.1551, 827.2383
341.6372, 838.5080
342.1194, 842.3220
342.6015, 840.1973
343.0836, 838.5632
343.5657, 841.8369
344.0478, 849.7012
344.5299, 860.3099
345.0121, 879.7637
345.4942, 893.4011
345.9763, 890.8146
346.4584, 884.7666
346.9405, 890.7020
347.4226, 914.1375
347.9048, 944.0255
348.3869, 963.4526
348.8690, 970.2310
349.3511, 977.6495
349.8332, 985.8538
350.3153, 996.7429
350.7975, 1013.487
351.2796, 1034.965
351.7617, 1054.793
352.2438, 1066.335
352.7259, 1072.653
353.2080, 1084.861
353.6902, 1104.935
354.1723, 1125.893
354.6544, 1143.478
355.1365, 1158.881
355.6186, 1173.964
356.1007, 1189.236
356.5829, 1204.049
357.0650, 1219.322
357.5471, 1234.192
358.0292, 1243.612
358.5113, 1245.136
358.9934, 1240.946
359.4756, 1232.397
359.9577, 1216.572
360.4398, 1209.107
360.9219, 1220.077
361.4040, 1238.462
361.8861, 1252.564
362.3683, 1260.499
362.8504, 1263.926
363.3325, 1263.006
363.8146, 1257.220
364.2967, 1259.602
364.7788, 1278.426
365.2610, 1295.415
365.7431, 1301.112
366.2252, 1300.143
366.7073, 1301.541
367.1894, 1309.747
367.6715, 1322.231
368.1537, 1332.843
368.6358, 1344.511
369.1179, 1348.728
369.6000, 1343.861
370.0821, 1333.422
370.5642, 1319.309
371.0464, 1302.068
371.5285, 1281.843
372.0106, 1258.483
372.4927, 1231.957
372.9748, 1204.370
373.4569, 1177.154
373.9391, 1146.769
374.4212, 1108.413
374.9033, 1067.229
375.3854, 1031.310
375.8675, 1005.411
376.3496, 983.5475
376.8318, 954.3912
377.3139, 917.0834
377.7960, 889.4611
378.2781, 879.8579
378.7602, 880.4988
379.2423, 882.7961
379.7245, 886.9968
380.2066, 888.5544
380.6887, 881.1704
381.1708, 871.0593
381.6529, 870.0257
382.1350, 880.0089
382.6172, 891.2930
383.0993, 894.4191
383.5814, 890.9045
384.0635, 897.9177
384.5456, 929.7689
385.0277, 957.2004
385.5099, 963.5717
385.9920, 955.9742
386.4741, 948.9710
386.9562, 948.5572
387.4383, 951.5067
387.9204, 951.4778
388.4026, 945.7886
388.8847, 942.0157
389.3668, 941.0655
389.8489, 941.1390
390.3310, 943.2758
390.8131, 945.8842
391.2953, 943.4241
391.7774, 929.2093
392.2595, 905.5403
392.7416, 896.9507
393.2237, 917.1712
393.7058, 932.4968
394.1880, 930.5566
394.6701, 921.4700
395.1522, 916.9626
395.6343, 920.9395
396.1164, 926.7261
396.5985, 927.2147
397.0807, 922.4070
397.5628, 912.0194
398.0449, 889.6122
398.5270, 870.1473
399.0091, 867.9195
399.4912, 879.5449
399.9734, 889.2708
400.4555, 889.8779
400.9376, 886.2837
401.4197, 882.0525
401.9018, 877.6516
402.3839, 879.4709
402.8660, 892.5614
403.3481, 913.0320
403.8303, 929.3251
404.3124, 939.7813
404.7945, 950.2383
405.2766, 963.7128
405.7587, 977.2595
406.2408, 986.6168
406.7230, 991.2427
407.2051, 995.1323
407.6872, 1002.471
408.1693, 1013.615
408.6514, 1024.914
409.1335, 1034.568
409.6157, 1046.310
410.0978, 1061.059
410.5799, 1078.750
411.0620, 1098.944
411.5441, 1121.491
412.0262, 1146.683
412.5084, 1175.447
412.9905, 1208.601
413.4726, 1242.565
413.9547, 1280.174
414.4368, 1315.566
414.9189, 1342.839
415.4011, 1363.704
415.8832, 1387.383
416.3653, 1421.426
416.8474, 1461.759
417.3295, 1496.696
417.8116, 1523.874
418.2938, 1560.754
418.7759, 1621.926
419.2580, 1696.556
419.7401, 1762.507
420.2222, 1818.198
420.7043, 1868.314
421.1865, 1909.281
421.6686, 1947.743
422.1507, 1995.782
422.6328, 2056.017
423.1149, 2121.733
423.5970, 2187.489
424.0792, 2254.040
424.5613, 2311.548
425.0434, 2364.972
425.5255, 2405.709
426.0076, 2425.572
426.4897, 2431.352
426.9719, 2435.650
427.4540, 2444.079
427.9361, 2450.054
428.4182, 2440.209
428.9003, 2410.956
429.3824, 2374.968
429.8646, 2328.571
430.3467, 2279.384
430.8288, 2228.833
431.3109, 2178.620
431.7930, 2132.674
432.2751, 2095.198
432.7573, 2062.700
433.2394, 2024.902
433.7215, 1979.779
434.2036, 1940.162
434.6857, 1911.383
435.1678, 1891.474
435.6500, 1876.770
436.1321, 1867.338
436.6142, 1862.854
437.0963, 1867.074
437.5784, 1874.797
438.0605, 1874.169
438.5427, 1863.718
439.0248, 1861.222
439.5069, 1884.818
439.9890, 1932.496
440.4711, 1961.625
440.9532, 1965.505
441.4354, 1962.172
441.9175, 1952.605
442.3996, 1940.348
442.8817, 1930.688
443.3638, 1924.950
443.8459, 1918.472
444.3281, 1904.576
444.8102, 1881.892
445.2923, 1858.398
445.7744, 1842.034
446.2565, 1816.239
446.7386, 1768.605
447.2208, 1708.447
447.7029, 1653.146
448.1850, 1611.708
448.6671, 1576.290
449.1492, 1535.552
449.6313, 1489.296
450.1135, 1442.898
450.5956, 1396.380
451.0777, 1352.047
451.5598, 1310.153
452.0419, 1270.823
452.5240, 1241.385
453.0062, 1229.266
453.4883, 1224.241
453.9704, 1218.392
454.4525, 1211.013
454.9346, 1200.582
455.4167, 1185.028
455.8989, 1168.306
456.3810, 1161.485
456.8631, 1175.434
457.3452, 1184.145
457.8273, 1186.016
458.3094, 1183.462
458.7916, 1176.647
459.2737, 1166.797
459.7558, 1157.254
460.2379, 1151.114
460.7200, 1147.431
461.2021, 1140.447
461.6843, 1129.231
462.1664, 1116.428
462.6485, 1102.022
463.1306, 1086.936
463.6127, 1073.583
464.0948, 1062.364
464.5770, 1046.508
465.0591, 1017.023
465.5412, 979.3943
466.0233, 947.5164
466.5054, 922.7086
466.9875, 903.9789
467.4697, 892.7659
467.9518, 887.4460
468.4339, 879.4554
468.9160, 867.2373
469.3981, 854.3892
469.8802, 839.5440
470.3624, 825.7864
470.8445, 818.6259
471.3266, 818.8311
471.8087, 820.7543
472.2908, 817.6335
472.7729, 808.5938
473.2551, 805.0673
473.7372, 808.8995
474.2193, 816.7128
474.7014, 832.9954
475.1835, 850.8566
475.6656, 861.3176
476.1478, 861.2216
476.6299, 856.4662
477.1120, 850.6512
477.5941, 844.3478
478.0762, 850.9641
478.5583, 879.6677
479.0405, 907.4459
479.5226, 914.0280
480.0047, 906.1241
480.4868, 899.0883
480.9689, 893.1881
481.4510, 891.8660
481.9332, 899.5300
482.4153, 913.2493
482.8974, 927.0089
483.3795, 938.9147
483.8616, 949.2164
484.3438, 957.5981
484.8259, 962.7830
485.3080, 972.6057
485.7901, 993.4520
486.2722, 1011.356
486.7543, 1018.688
487.2365, 1020.085
487.7186, 1023.085
488.2007, 1030.855
488.6828, 1041.774
489.1649, 1054.208
489.6470, 1068.559
490.1292, 1080.340
490.6113, 1087.184
491.0934, 1093.837
491.5755, 1104.386
492.0576, 1117.198
492.5397, 1127.881
493.0219, 1134.704
493.5040, 1139.335
493.9861, 1143.302
494.4682, 1146.321
494.9503, 1146.596
495.4324, 1143.067
495.9146, 1139.507
496.3967, 1141.751
496.8788, 1152.392
497.3609, 1155.695
497.8430, 1141.256
498.3251, 1130.715
498.8073, 1137.696
499.2894, 1154.474
499.7715, 1167.400
500.2536, 1170.662
500.7357, 1168.030
501.2178, 1165.196
501.6999, 1162.185
502.1820, 1158.757
502.6642, 1154.522
503.1463, 1150.309
503.6284, 1145.389
504.1105, 1140.910
504.5926, 1139.703
505.0747, 1144.151
505.5569, 1149.984
506.0390, 1154.174
506.5211, 1156.536
507.0032, 1155.189
507.4853, 1148.852
507.9674, 1143.050
508.4496, 1144.262
508.9317, 1153.431
509.4138, 1163.241
509.8959, 1173.747
510.3780, 1184.810
510.8601, 1197.800
511.3423, 1210.899
511.8244, 1220.422
512.3065, 1225.322
512.7886, 1230.101
513.2708, 1241.632
513.7529, 1260.824
514.2350, 1278.196
514.7171, 1289.885
515.1992, 1305.236
515.6813, 1331.130
516.1635, 1362.873
516.6456, 1391.965
517.1277, 1414.891
517.6098, 1438.643
518.0919, 1471.902
518.5740, 1509.795
519.0562, 1539.056
519.5383, 1556.649
520.0204, 1574.175
520.5025, 1603.483
520.9846, 1644.025
521.4667, 1674.656
521.9489, 1693.479
522.4310, 1706.222
522.9131, 1711.241
523.3952, 1712.385
523.8773, 1714.189
524.3594, 1717.312
524.8416, 1718.490
525.3237, 1715.184
525.8058, 1707.214
526.2879, 1692.846
526.7700, 1672.535
527.2521, 1644.448
527.7343, 1599.446
528.2164, 1549.960
528.6985, 1511.202
529.1806, 1486.671
529.6627, 1461.215
530.1448, 1424.610
530.6270, 1384.084
531.1091, 1349.132
531.5912, 1320.554
532.0733, 1294.115
532.5554, 1266.625
533.0375, 1240.120
533.5197, 1222.463
534.0018, 1226.661
534.4839, 1220.645
534.9660, 1196.175
535.4481, 1167.702
535.9302, 1142.795
536.4124, 1122.964
536.8945, 1108.433
537.3766, 1100.142
537.8587, 1096.173
538.3408, 1093.336
538.8229, 1091.910
539.3051, 1087.776
539.7872, 1077.534
540.2693, 1066.918
540.7514, 1064.490
541.2335, 1069.639
541.7156, 1070.091
542.1978, 1059.018
542.6799, 1046.457
543.1620, 1041.016
543.6441, 1039.304
544.1262, 1031.564
544.6083, 1014.021
545.0905, 995.2129
545.5726, 989.2124
546.0547, 999.8528
546.5368, 1005.288
547.0189, 1001.618
547.5010, 996.8954
547.9832, 990.1379
548.4653, 985.1882
548.9474, 988.9362
549.4295, 1004.667
549.9116, 1021.353
550.3937, 1026.757
550.8759, 1025.219
551.3579, 1029.879
551.8400, 1042.513
552.3221, 1059.728
552.8043, 1080.157
553.2864, 1102.934
553.7685, 1123.503
554.2506, 1138.291
554.7327, 1155.888
555.2148, 1179.242
555.6970, 1204.725
556.1791, 1231.691
556.6612, 1258.186
557.1433, 1278.563
557.6254, 1287.543
558.1075, 1288.740
558.5897, 1293.565
559.0718, 1301.867
559.5539, 1314.545
560.0360, 1334.866
560.5181, 1357.046
561.0002, 1373.816
561.4824, 1386.129
561.9645, 1404.386
562.4466, 1441.844
562.9287, 1477.916
563.4108, 1493.076
563.8929, 1493.412
564.3751, 1495.162
564.8572, 1504.113
565.3393, 1516.245
565.8214, 1527.387
566.3035, 1539.966
566.7856, 1537.128
567.2678, 1510.875
567.7499, 1477.220
568.2320, 1432.590
568.7141, 1386.403
569.1962, 1351.592
569.6783, 1331.945
570.1605, 1314.407
570.6426, 1285.408
571.1247, 1250.494
571.6068, 1226.296
572.0889, 1214.472
572.5710, 1201.448
573.0532, 1177.502
573.5353, 1148.124
574.0174, 1129.177
574.4995, 1126.537
574.9816, 1122.868
575.4637, 1111.037
575.9459, 1102.805
576.4280, 1110.651
576.9101, 1129.280
577.3922, 1142.333
577.8743, 1139.476
578.3564, 1131.597
578.8386, 1140.202
579.3207, 1166.318
579.8028, 1194.206
580.2849, 1226.791
580.7670, 1252.196
581.2491, 1257.107
581.7313, 1246.796
582.2134, 1235.632
582.6955, 1226.437
583.1776, 1215.385
583.6597, 1202.289
584.1418, 1185.590
584.6240, 1161.121
585.1061, 1129.361
585.5882, 1097.913
586.0703, 1073.874
586.5524, 1055.806
587.0345, 1034.597
587.5167, 1007.408
587.9988, 983.2625
588.4809, 961.5933
588.9630, 945.5787
589.4451, 940.4031
589.9272, 944.5403
590.4094, 947.3997
590.8915, 941.4346
591.3736, 934.1827
591.8557, 933.6689
592.3378, 938.4090
592.8199, 943.8546
593.3021, 948.6167
593.7842, 952.3997
594.2663, 954.2912
594.7484, 953.6465
595.2305, 957.3821
595.7126, 966.9390
596.1948, 979.4487
596.6769, 997.2794
597.1590, 1016.101
597.6411, 1031.090
598.1232, 1041.550
598.6053, 1051.252
599.0875, 1059.050
599.5696, 1069.406
600.0517, 1096.751
600.5338, 1140.633
601.0159, 1174.263
601.4980, 1182.979
601.9802, 1181.301
602.4623, 1193.527
602.9444, 1224.667
603.4265, 1254.288
603.9086, 1279.767
604.3907, 1306.396
604.8729, 1339.104
605.3550, 1373.790
605.8371, 1401.342
606.3192, 1419.170
606.8013, 1440.565
607.2834, 1481.839
607.7656, 1540.288
608.2477, 1599.043
608.7298, 1656.151
609.2119, 1721.321
609.6940, 1801.549
610.1761, 1891.540
610.6583, 1979.371
611.1404, 2063.170
611.6225, 2151.882
612.1046, 2246.794
612.5867, 2346.907
613.0688, 2452.826
613.5510, 2563.583
614.0331, 2678.084
614.5152, 2796.084
614.9973, 2916.161
615.4794, 3037.013
615.9615, 3159.303
616.4437, 3281.121
616.9258, 3399.704
617.4079, 3525.428
617.8900, 3669.312
618.3721, 3823.591
618.8542, 3971.499
619.3364, 4109.573
619.8185, 4248.180
620.3006, 4387.858
620.7827, 4531.423
621.2648, 4682.834
621.7469, 4839.335
622.2291, 4991.130
622.7112, 5132.503
623.1933, 5271.862
623.6754, 5430.736
624.1575, 5613.806
624.6396, 5779.571
625.1218, 5936.609
625.6039, 6057.730
626.0860, 6121.849
626.5681, 6141.242
627.0502, 6133.663
