##NAMES=Uraninite
##RRUFFID=R070747
##IDEAL CHEMISTRY=U^4+^O_2_
##LOCALITY=Topsham, Sagadahoc County, Maine, USA
##OWNER=RRUFF
##SOURCE=Michael Scott
##DESCRIPTION=Elongated dodecahedral gray-black submetallic crystals
##STATUS=The identification of this mineral has been confirmed by X-ray diffraction.
##URL=rruff.info/R070747
202.2223, 1411.756
202.7044, 1414.418
203.1865, 1409.984
203.6686, 1399.843
204.1507, 1383.628
204.6329, 1370.450
205.1150, 1372.099
205.5971, 1383.677
206.0792, 1387.223
206.5613, 1371.269
207.0434, 1348.533
207.5256, 1335.721
208.0077, 1334.540
208.4898, 1340.145
208.9719, 1355.450
209.4540, 1375.491
209.9361, 1387.411
210.4183, 1381.833
210.9004, 1365.458
211.3825, 1352.033
211.8646, 1341.373
212.3467, 1335.627
212.8288, 1338.545
213.3110, 1347.295
213.7931, 1355.022
214.2752, 1357.115
214.7573, 1354.968
215.2394, 1354.515
215.7215, 1357.253
216.2037, 1359.840
216.6858, 1360.407
217.1679, 1359.340
217.6500, 1357.767
218.1321, 1357.662
218.6142, 1358.610
219.0964, 1354.638
219.5785, 1339.705
220.0606, 1326.187
220.5427, 1315.929
221.0248, 1324.098
221.5069, 1328.490
221.9891, 1329.308
222.4712, 1315.847
222.9533, 1320.825
223.4354, 1318.413
223.9175, 1315.698
224.3996, 1323.270
224.8818, 1311.887
225.3639, 1319.296
225.8460, 1319.203
226.3281, 1322.544
226.8102, 1318.450
227.2923, 1316.653
227.7745, 1303.724
228.2566, 1294.664
228.7387, 1289.795
229.2208, 1287.522
229.7029, 1286.443
230.1850, 1286.649
230.6672, 1287.693
231.1493, 1289.180
231.6314, 1291.752
232.1135, 1297.631
232.5956, 1305.748
233.0777, 1311.835
233.5599, 1310.492
234.0420, 1298.556
234.5241, 1290.701
235.0062, 1284.375
235.4883, 1283.252
235.9704, 1294.801
236.4526, 1316.393
236.9347, 1335.111
237.4168, 1334.750
237.8989, 1306.744
238.3810, 1287.481
238.8631, 1280.140
239.3453, 1277.317
239.8274, 1274.114
240.3095, 1270.352
240.7916, 1270.204
241.2737, 1280.145
241.7558, 1308.757
242.2380, 1319.043
242.7201, 1298.593
243.2022, 1271.949
243.6843, 1252.935
244.1664, 1244.064
244.6485, 1241.077
245.1307, 1239.500
245.6128, 1240.196
246.0949, 1239.447
246.5770, 1234.831
247.0591, 1230.583
247.5412, 1230.210
248.0234, 1233.926
248.5055, 1238.890
248.9876, 1241.605
249.4697, 1240.466
249.9518, 1243.315
250.4339, 1255.753
250.9161, 1268.174
251.3982, 1272.769
251.8803, 1268.798
252.3624, 1261.585
252.8445, 1256.799
253.3266, 1255.217
253.8088, 1253.448
254.2909, 1250.848
254.7730, 1248.492
255.2551, 1246.481
255.7372, 1245.040
256.2193, 1246.163
256.7014, 1253.471
257.1836, 1269.615
257.6657, 1275.385
258.1478, 1262.872
258.6299, 1245.088
259.1120, 1231.094
259.5941, 1222.232
260.0763, 1217.497
260.5584, 1216.645
261.0405, 1220.455
261.5226, 1223.241
262.0047, 1227.314
262.4868, 1228.800
262.9690, 1220.173
263.4511, 1201.669
263.9332, 1188.434
264.4153, 1197.843
264.8974, 1231.911
265.3795, 1250.551
265.8617, 1236.497
266.3438, 1217.810
266.8259, 1222.063
267.3080, 1250.077
267.7901, 1275.518
268.2722, 1273.894
268.7544, 1245.174
269.2365, 1228.139
269.7186, 1232.938
270.2007, 1243.261
270.6828, 1247.463
271.1649, 1244.899
271.6471, 1238.411
272.1292, 1228.243
272.6113, 1215.287
273.0934, 1207.613
273.5755, 1209.018
274.0576, 1213.004
274.5398, 1216.198
275.0219, 1218.232
275.5040, 1217.033
275.9861, 1209.803
276.4682, 1197.680
276.9503, 1189.461
277.4325, 1182.496
277.9146, 1181.498
278.3967, 1194.790
278.8788, 1220.219
279.3609, 1240.700
279.8430, 1245.054
280.3252, 1235.445
280.8073, 1225.944
281.2894, 1214.555
281.7715, 1204.995
282.2536, 1199.562
282.7357, 1198.029
283.2179, 1199.605
283.7000, 1205.326
284.1821, 1213.158
284.6642, 1216.871
285.1463, 1212.990
285.6284, 1209.516
286.1106, 1213.509
286.5927, 1222.555
287.0748, 1225.913
287.5569, 1216.095
288.0390, 1199.707
288.5211, 1193.633
289.0033, 1202.957
289.4854, 1212.378
289.9675, 1214.907
290.4496, 1211.837
290.9317, 1206.708
291.4138, 1200.177
291.8960, 1193.271
292.3781, 1187.608
292.8602, 1182.036
293.3423, 1179.897
293.8244, 1186.289
294.3065, 1197.067
294.7887, 1202.646
295.2708, 1199.606
295.7529, 1190.811
296.2350, 1178.631
296.7171, 1160.156
297.1992, 1150.233
297.6814, 1162.750
298.1635, 1185.155
298.6456, 1192.885
299.1277, 1176.834
299.6098, 1154.558
300.0919, 1152.831
300.5741, 1173.021
301.0562, 1190.902
301.5383, 1202.780
302.0204, 1208.595
302.5025, 1205.063
302.9846, 1190.475
303.4668, 1176.412
303.9489, 1179.690
304.4310, 1201.852
304.9131, 1212.010
305.3952, 1193.495
305.8773, 1167.845
306.3595, 1158.597
306.8416, 1168.677
307.3237, 1183.508
307.8058, 1190.024
308.2879, 1187.739
308.7701, 1186.885
309.2522, 1188.706
309.7343, 1191.482
310.2164, 1194.157
310.6985, 1196.600
311.1806, 1199.215
311.6628, 1204.101
312.1449, 1209.946
312.6270, 1204.785
313.1091, 1173.154
313.5912, 1144.741
314.0733, 1139.876
314.5555, 1154.649
315.0376, 1170.742
315.5197, 1177.115
316.0018, 1175.378
316.4839, 1175.664
316.9660, 1178.980
317.4482, 1182.870
317.9303, 1190.000
318.4124, 1197.163
318.8945, 1195.008
319.3766, 1177.039
319.8587, 1150.314
320.3409, 1139.395
320.8230, 1156.049
321.3051, 1169.665
321.7872, 1173.271
322.2693, 1170.122
322.7514, 1163.574
323.2336, 1154.473
323.7157, 1145.705
324.1978, 1143.065
324.6799, 1147.713
325.1620, 1156.750
325.6441, 1178.439
326.1263, 1200.375
326.6084, 1207.463
327.0905, 1196.313
327.5726, 1178.778
328.0547, 1171.335
328.5368, 1180.549
329.0190, 1183.943
329.5011, 1176.269
329.9832, 1166.822
330.4653, 1162.545
330.9474, 1163.982
331.4295, 1166.917
331.9117, 1166.874
332.3938, 1162.892
332.8759, 1161.468
333.3580, 1167.125
333.8401, 1170.755
334.3222, 1164.165
334.8044, 1150.857
335.2865, 1142.660
335.7686, 1150.183
336.2507, 1172.989
336.7328, 1181.939
337.2149, 1160.970
337.6971, 1144.047
338.1792, 1141.835
338.6613, 1149.481
339.1434, 1158.110
339.6255, 1162.780
340.1076, 1164.265
340.5898, 1165.938
341.0719, 1168.051
341.5540, 1170.041
342.0361, 1172.531
342.5182, 1174.589
343.0003, 1175.015
343.4825, 1173.356
343.9646, 1170.509
344.4467, 1168.378
344.9288, 1168.073
345.4109, 1166.255
345.8930, 1162.709
346.3752, 1157.896
346.8573, 1150.205
347.3394, 1140.193
347.8215, 1132.489
348.3036, 1135.744
348.7857, 1155.610
349.2679, 1163.818
349.7500, 1142.897
350.2321, 1124.212
350.7142, 1125.335
351.1963, 1143.496
351.6784, 1162.958
352.1606, 1170.015
352.6427, 1165.047
353.1248, 1160.599
353.6069, 1154.956
354.0890, 1152.256
354.5711, 1155.698
355.0533, 1162.939
355.5354, 1169.887
356.0175, 1175.804
356.4996, 1178.853
356.9817, 1171.814
357.4638, 1148.504
357.9460, 1129.021
358.4281, 1122.763
358.9102, 1123.911
359.3923, 1126.660
359.8744, 1129.443
360.3565, 1132.524
360.8387, 1136.455
361.3208, 1141.383
361.8029, 1145.906
362.2850, 1148.753
362.7671, 1151.567
363.2492, 1157.066
363.7314, 1166.233
364.2135, 1172.682
364.6956, 1167.885
365.1777, 1154.723
365.6598, 1149.757
366.1419, 1159.861
366.6241, 1174.361
367.1062, 1183.456
367.5883, 1187.473
368.0704, 1187.165
368.5525, 1177.370
369.0346, 1164.930
369.5168, 1164.520
369.9989, 1180.093
370.4810, 1193.814
370.9631, 1186.751
371.4452, 1163.090
371.9273, 1147.411
372.4095, 1148.182
372.8916, 1153.956
373.3737, 1154.400
373.8558, 1150.216
374.3379, 1150.344
374.8200, 1163.016
375.3022, 1183.001
375.7843, 1188.291
376.2664, 1165.502
376.7485, 1145.177
377.2306, 1140.814
377.7127, 1146.386
378.1949, 1150.766
378.6770, 1149.658
379.1591, 1144.766
379.6412, 1139.237
380.1233, 1130.092
380.6054, 1125.955
381.0876, 1131.963
381.5697, 1140.700
382.0518, 1143.704
382.5339, 1139.980
383.0160, 1136.650
383.4981, 1142.923
383.9803, 1163.069
384.4624, 1174.267
384.9445, 1172.135
385.4266, 1166.837
385.9087, 1161.726
386.3908, 1157.627
386.8730, 1155.024
387.3551, 1154.333
387.8372, 1155.430
388.3193, 1156.977
388.8014, 1159.730
389.2835, 1162.072
389.7657, 1163.286
390.2478, 1164.074
390.7299, 1165.757
391.2120, 1168.971
391.6941, 1172.124
392.1762, 1171.497
392.6584, 1164.940
393.1405, 1159.871
393.6226, 1157.037
394.1047, 1156.078
394.5868, 1157.430
395.0689, 1160.926
395.5511, 1164.909
396.0332, 1168.277
396.5153, 1171.029
396.9974, 1171.532
397.4795, 1167.370
397.9616, 1163.698
398.4438, 1163.755
398.9259, 1166.667
399.4080, 1169.757
399.8901, 1170.505
400.3722, 1170.819
400.8543, 1176.755
401.3365, 1190.787
401.8186, 1200.592
402.3007, 1193.157
402.7828, 1178.969
403.2649, 1174.902
403.7470, 1189.522
404.2292, 1205.307
404.7113, 1206.147
405.1934, 1194.575
405.6755, 1184.323
406.1576, 1180.412
406.6397, 1179.836
407.1219, 1177.399
407.6040, 1172.506
408.0861, 1168.943
408.5682, 1165.669
409.0503, 1165.267
409.5324, 1173.386
410.0146, 1190.993
410.4967, 1209.742
410.9788, 1222.066
411.4609, 1227.231
411.9430, 1226.719
412.4251, 1214.579
412.9073, 1202.440
413.3894, 1195.650
413.8715, 1194.287
414.3536, 1198.220
414.8357, 1208.422
415.3178, 1222.165
415.8000, 1226.604
416.2821, 1209.825
416.7642, 1197.941
417.2463, 1194.811
417.7284, 1197.184
418.2105, 1203.042
418.6927, 1211.292
419.1748, 1219.075
419.6569, 1221.107
420.1390, 1213.408
420.6211, 1210.990
421.1032, 1220.025
421.5854, 1228.622
422.0675, 1229.588
422.5496, 1224.422
423.0317, 1220.083
423.5138, 1222.728
423.9959, 1230.816
424.4781, 1234.264
424.9602, 1228.968
425.4423, 1226.007
425.9244, 1232.212
426.4065, 1241.976
426.8886, 1247.532
427.3708, 1244.951
427.8529, 1240.885
428.3350, 1246.551
428.8171, 1262.349
429.2992, 1268.999
429.7813, 1254.369
430.2635, 1234.540
430.7456, 1227.887
431.2277, 1234.970
431.7098, 1244.384
432.1919, 1253.606
432.6740, 1260.827
433.1562, 1261.935
433.6383, 1255.918
434.1204, 1247.533
434.6025, 1239.431
435.0846, 1232.044
435.5667, 1228.552
436.0489, 1232.517
436.5310, 1237.222
437.0131, 1238.690
437.4952, 1237.643
437.9773, 1235.558
438.4594, 1232.434
438.9416, 1230.765
439.4237, 1237.635
439.9058, 1267.566
440.3879, 1285.568
440.8700, 1281.760
441.3521, 1270.255
441.8343, 1262.652
442.3164, 1261.496
442.7985, 1264.143
443.2806, 1268.108
443.7627, 1273.717
444.2448, 1278.189
444.7270, 1285.480
445.2091, 1287.517
445.6912, 1276.012
446.1733, 1257.971
446.6554, 1246.589
447.1375, 1249.942
447.6197, 1261.835
448.1018, 1266.226
448.5839, 1259.596
449.0660, 1255.244
449.5481, 1261.845
450.0302, 1268.757
450.5124, 1265.229
450.9945, 1249.730
451.4766, 1236.755
451.9587, 1241.678
452.4408, 1260.100
452.9229, 1271.470
453.4051, 1272.703
453.8872, 1268.498
454.3693, 1257.881
454.8514, 1244.040
455.3335, 1237.818
455.8156, 1248.028
456.2978, 1261.924
456.7799, 1269.125
457.2620, 1270.084
457.7441, 1267.268
458.2262, 1260.602
458.7083, 1252.497
459.1904, 1249.860
459.6725, 1254.903
460.1547, 1260.137
460.6368, 1265.665
461.1189, 1270.031
461.6010, 1271.690
462.0831, 1270.356
462.5652, 1266.307
463.0474, 1258.982
463.5295, 1247.259
464.0116, 1242.278
464.4937, 1250.514
464.9758, 1258.169
465.4579, 1258.883
465.9401, 1256.413
466.4222, 1258.824
466.9043, 1270.794
467.3864, 1285.373
467.8685, 1285.914
468.3506, 1267.474
468.8328, 1249.004
469.3149, 1232.014
469.7970, 1217.350
470.2791, 1203.098
470.7612, 1190.261
471.2433, 1186.125
471.7255, 1205.114
472.2076, 1238.215
472.6897, 1249.410
473.1718, 1230.018
473.6539, 1210.198
474.1360, 1213.750
474.6182, 1230.368
475.1003, 1238.603
475.5824, 1230.287
476.0645, 1219.294
476.5466, 1214.546
477.0287, 1214.778
477.5109, 1216.469
477.9930, 1218.629
478.4751, 1221.060
478.9572, 1223.612
479.4393, 1226.778
479.9214, 1228.400
480.4036, 1224.796
480.8857, 1222.386
481.3678, 1229.368
481.8499, 1242.950
482.3320, 1250.456
482.8141, 1241.402
483.2963, 1219.604
483.7784, 1210.778
484.2605, 1229.204
484.7426, 1242.026
485.2247, 1244.506
485.7068, 1239.925
486.1890, 1228.910
486.6711, 1212.532
487.1532, 1197.417
487.6353, 1191.376
488.1174, 1194.707
488.5995, 1201.501
489.0817, 1216.754
489.5638, 1228.173
490.0459, 1228.706
490.5280, 1220.857
491.0101, 1210.124
491.4922, 1195.715
491.9744, 1182.328
492.4565, 1175.936
492.9386, 1176.210
493.4207, 1179.058
493.9028, 1184.195
494.3849, 1189.608
494.8671, 1190.668
495.3492, 1185.612
495.8313, 1184.595
496.3134, 1196.432
496.7955, 1209.483
497.2776, 1211.135
497.7598, 1200.995
498.2419, 1186.545
498.7240, 1172.695
499.2061, 1159.908
499.6882, 1153.951
500.1703, 1158.536
500.6525, 1165.579
501.1346, 1178.368
501.6167, 1190.877
502.0988, 1195.963
502.5809, 1191.733
503.0630, 1183.104
503.5452, 1176.528
504.0273, 1172.709
504.5094, 1165.559
504.9915, 1147.431
505.4736, 1134.986
505.9557, 1139.512
506.4379, 1155.132
506.9200, 1168.916
507.4021, 1176.375
507.8842, 1178.232
508.3663, 1172.123
508.8484, 1158.510
509.3306, 1151.274
509.8127, 1158.337
510.2948, 1170.304
510.7769, 1171.916
511.2590, 1161.827
511.7411, 1153.869
512.2233, 1150.960
512.7054, 1152.161
513.1875, 1158.999
513.6696, 1170.233
514.1517, 1178.895
514.6339, 1179.548
515.1160, 1173.818
515.5981, 1172.109
516.0802, 1181.812
516.5623, 1186.379
517.0444, 1177.908
517.5266, 1167.188
518.0087, 1166.963
518.4908, 1178.595
518.9729, 1190.438
519.4550, 1187.335
519.9371, 1168.694
520.4193, 1159.891
520.9014, 1167.205
521.3835, 1175.363
521.8656, 1178.733
522.3477, 1178.234
522.8298, 1174.607
523.3120, 1166.662
523.7941, 1159.005
524.2762, 1156.562
524.7583, 1158.585
525.2404, 1161.615
525.7225, 1165.495
526.2047, 1168.325
526.6868, 1167.414
527.1689, 1162.641
527.6510, 1157.746
528.1331, 1150.893
528.6152, 1145.924
529.0974, 1146.582
529.5795, 1151.277
530.0616, 1155.699
530.5437, 1157.705
531.0258, 1157.854
531.5079, 1157.566
531.9901, 1157.647
532.4722, 1155.691
532.9543, 1143.939
533.4364, 1136.797
533.9185, 1151.409
534.4006, 1180.829
534.8828, 1197.941
535.3649, 1176.080
535.8470, 1131.901
536.3291, 1121.521
536.8112, 1154.598
537.2933, 1184.825
537.7755, 1196.171
538.2576, 1194.684
538.7397, 1184.570
539.2218, 1164.309
539.7039, 1148.082
540.1860, 1145.092
540.6682, 1149.707
541.1503, 1152.091
541.6324, 1151.332
542.1145, 1156.544
542.5966, 1177.947
543.0787, 1211.675
543.5609, 1223.852
544.0430, 1191.605
544.5251, 1169.395
545.0072, 1174.717
545.4893, 1191.728
545.9714, 1204.555
546.4536, 1209.121
546.9357, 1209.503
547.4178, 1210.051
547.8999, 1210.850
548.3820, 1208.720
548.8641, 1197.821
549.3463, 1192.663
549.8284, 1204.527
550.3105, 1222.448
550.7926, 1230.406
551.2747, 1221.960
551.7568, 1210.420
552.2390, 1210.183
552.7211, 1217.631
553.2032, 1216.222
553.6853, 1200.211
554.1674, 1185.026
554.6495, 1186.352
555.1317, 1204.173
555.6138, 1218.144
556.0959, 1231.331
556.5780, 1237.048
557.0601, 1226.258
557.5422, 1207.241
558.0244, 1194.166
558.5065, 1192.116
558.9886, 1195.721
559.4707, 1196.824
559.9528, 1194.096
560.4349, 1194.198
560.9171, 1199.762
561.3992, 1205.700
561.8813, 1212.574
562.3634, 1218.185
562.8455, 1217.870
563.3276, 1207.848
563.8098, 1196.432
564.2919, 1196.066
564.7740, 1206.003
565.2561, 1214.012
565.7382, 1216.949
566.2203, 1218.021
566.7025, 1221.243
567.1846, 1226.232
567.6667, 1228.304
568.1488, 1223.899
568.6309, 1219.015
569.1130, 1218.194
569.5952, 1219.967
570.0773, 1220.464
570.5594, 1218.068
571.0415, 1214.091
571.5236, 1210.527
572.0057, 1205.995
572.4879, 1205.724
572.9700, 1217.343
573.4521, 1225.453
573.9342, 1218.746
574.4163, 1203.841
574.8984, 1195.421
575.3806, 1201.679
575.8627, 1214.792
576.3448, 1223.966
576.8269, 1229.173
577.3090, 1229.650
577.7911, 1221.203
578.2733, 1213.948
578.7554, 1222.578
579.2375, 1244.818
579.7196, 1259.276
580.2017, 1256.053
580.6838, 1249.123
581.1660, 1249.343
581.6481, 1253.646
582.1302, 1252.657
582.6123, 1242.323
583.0944, 1228.075
583.5765, 1219.537
584.0587, 1219.292
584.5408, 1217.520
585.0229, 1211.343
585.5050, 1206.597
585.9871, 1204.483
586.4692, 1205.797
586.9514, 1213.134
587.4335, 1229.738
587.9156, 1246.185
588.3977, 1248.686
588.8798, 1237.558
589.3619, 1214.297
589.8441, 1222.425
590.3262, 1226.776
590.8083, 1227.553
591.2904, 1214.052
591.7725, 1218.988
592.2546, 1216.535
592.7368, 1213.780
593.2189, 1221.311
593.7010, 1209.887
594.1831, 1217.255
594.6652, 1217.121
595.1473, 1220.421
595.6295, 1216.287
596.1116, 1214.448
596.5937, 1220.047
597.0758, 1221.528
597.5579, 1197.057
598.0400, 1193.843
598.5222, 1199.087
599.0043, 1210.527
599.4864, 1228.782
599.9685, 1245.279
600.4506, 1247.586
600.9327, 1239.194
601.4149, 1239.389
601.8970, 1254.095
602.3791, 1266.345
602.8612, 1259.235
603.3433, 1235.157
603.8254, 1221.069
604.3076, 1224.288
604.7897, 1228.773
605.2718, 1227.849
605.7539, 1225.564
606.2360, 1228.304
606.7181, 1236.915
607.2003, 1245.916
607.6824, 1249.847
608.1645, 1248.729
608.6466, 1242.822
609.1287, 1226.697
609.6108, 1214.849
610.0930, 1215.466
610.5751, 1220.594
611.0572, 1221.478
611.5393, 1216.343
612.0214, 1210.991
612.5035, 1208.954
612.9857, 1209.363
613.4678, 1210.424
613.9499, 1212.021
614.4320, 1216.389
614.9141, 1226.956
615.3962, 1239.803
615.8784, 1240.669
616.3605, 1208.881
616.8426, 1194.016
617.3247, 1215.231
617.8068, 1240.945
618.2889, 1245.006
618.7711, 1229.868
619.2532, 1214.636
619.7353, 1212.161
620.2174, 1219.105
620.6995, 1228.407
621.1816, 1241.308
621.6638, 1249.175
622.1459, 1248.702
622.6280, 1243.228
623.1101, 1233.736
623.5922, 1220.773
624.0743, 1214.231
624.5565, 1225.891
625.0386, 1237.011
625.5207, 1226.968
626.0028, 1204.519
626.4849, 1195.088
626.9670, 1208.969
627.4492, 1231.889
627.9313, 1240.494
628.4134, 1230.287
628.8955, 1224.031
629.3776, 1225.199
629.8597, 1226.924
630.3419, 1227.332
630.8240, 1226.848
631.3061, 1226.504
631.7882, 1226.799
632.2703, 1226.263
632.7524, 1222.991
633.2346, 1217.698
633.7167, 1212.661
634.1988, 1208.159
634.6809, 1203.799
635.1630, 1197.953
635.6451, 1191.895
636.1273, 1194.057
636.6094, 1216.301
637.0915, 1229.919
637.5736, 1225.726
638.0557, 1213.814
638.5378, 1200.797
639.0200, 1189.081
639.5021, 1181.231
639.9842, 1179.229
640.4663, 1182.568
640.9484, 1191.850
641.4305, 1210.284
641.9127, 1219.934
642.3948, 1208.189
642.8769, 1192.492
643.3590, 1194.243
643.8411, 1212.776
644.3232, 1224.005
644.8054, 1213.686
645.2875, 1200.059
645.7696, 1198.908
646.2517, 1206.185
646.7338, 1211.644
647.2159, 1211.291
647.6981, 1204.556
648.1802, 1188.308
648.6623, 1158.328
649.1444, 1140.995
649.6265, 1142.586
650.1086, 1150.185
650.5908, 1164.961
651.0729, 1180.879
651.5550, 1189.496
652.0371, 1188.221
652.5192, 1182.849
653.0013, 1175.138
653.4835, 1167.202
653.9656, 1165.260
654.4477, 1169.838
654.9298, 1171.846
655.4119, 1163.979
655.8940, 1150.143
656.3762, 1145.243
656.8583, 1160.970
657.3404, 1169.731
657.8225, 1164.785
658.3046, 1158.365
658.7867, 1160.226
659.2689, 1168.295
659.7510, 1173.683
660.2331, 1170.797
660.7152, 1163.782
661.1973, 1157.638
661.6794, 1152.549
662.1616, 1157.027
662.6437, 1177.400
663.1258, 1197.266
663.6079, 1197.916
664.0900, 1180.533
664.5721, 1173.049
665.0543, 1188.298
665.5364, 1199.302
666.0185, 1194.784
666.5006, 1181.174
666.9827, 1162.644
667.4648, 1142.360
667.9470, 1129.182
668.4291, 1134.002
668.9112, 1152.992
669.3933, 1162.704
669.8754, 1161.370
670.3575, 1156.441
670.8397, 1147.090
671.3218, 1137.711
671.8039, 1132.840
672.2860, 1132.582
672.7681, 1135.214
673.2502, 1145.143
673.7324, 1153.526
674.2145, 1151.583
674.6966, 1142.643
675.1787, 1133.769
675.6608, 1127.819
676.1429, 1126.831
676.6251, 1136.597
677.1072, 1160.305
677.5893, 1168.037
678.0714, 1146.262
678.5535, 1128.472
679.0356, 1133.088
679.5178, 1146.249
679.9999, 1149.391
680.4820, 1138.111
680.9641, 1127.093
681.4462, 1125.148
681.9283, 1127.898
682.4105, 1130.980
682.8926, 1133.485
683.3747, 1132.633
683.8568, 1126.359
684.3389, 1118.137
684.8210, 1116.681
685.3032, 1126.661
685.7853, 1132.275
686.2674, 1127.552
686.7495, 1124.444
687.2316, 1131.854
687.7137, 1143.528
688.1959, 1147.156
688.6780, 1137.659
689.1601, 1124.032
689.6422, 1110.516
690.1243, 1099.135
690.6064, 1095.436
691.0886, 1099.939
691.5707, 1107.019
692.0528, 1112.903
692.5349, 1118.109
693.0170, 1124.906
693.4991, 1139.061
693.9813, 1145.116
694.4634, 1136.465
694.9455, 1125.790
695.4276, 1119.983
695.9097, 1118.609
696.3918, 1119.350
696.8740, 1122.539
697.3561, 1124.180
697.8382, 1117.505
698.3203, 1105.178
698.8024, 1096.131
699.2845, 1091.897
699.7667, 1093.530
700.2488, 1104.043
700.7309, 1121.337
