##NAMES=Uranophane-beta
##RRUFFID=R060962
##IDEAL CHEMISTRY=Ca(U^6+^O_2_)_2_(SiO_3_OH)_2_&#183;5H_2_O
##LOCALITY=Teofilo Otoni, Minas Gerais, Brazil
##OWNER=RRUFF
##SOURCE=Michael Scott
##DESCRIPTION=Yellow elongated prismatic crystals in aggregates with muscovite on albite
##STATUS=The identification of this mineral has been confirmed by single-crystal X-ray diffraction.
##URL=rruff.info/R060962
123.9386, 1355.435
124.4208, 1494.950
124.9029, 1657.952
125.3850, 1842.461
125.8671, 2039.188
126.3492, 2257.392
126.8313, 2478.426
127.3135, 2689.218
127.7956, 2892.743
128.2777, 3096.335
128.7598, 3301.608
129.2419, 3510.450
129.7240, 3732.428
130.2061, 3990.570
130.6883, 4240.501
131.1704, 4469.841
131.6525, 4674.898
132.1346, 4845.312
132.6167, 4978.110
133.0988, 5077.233
133.5810, 5110.902
134.0631, 5037.537
134.5452, 4925.530
135.0273, 4790.210
135.5094, 4638.808
135.9915, 4482.542
136.4737, 4328.055
136.9558, 4165.305
137.4379, 4041.375
137.9200, 3968.452
138.4021, 3921.922
138.8842, 3885.571
139.3664, 3858.378
139.8485, 3853.125
140.3306, 3888.234
140.8127, 3971.876
141.2948, 4084.881
141.7769, 4234.159
142.2591, 4401.737
142.7412, 4575.217
143.2233, 4751.052
143.7054, 4934.103
144.1875, 5131.877
144.6696, 5356.994
145.1517, 5576.665
145.6339, 5794.244
146.1160, 6004.591
146.5981, 6203.839
147.0802, 6390.778
147.5623, 6566.062
148.0444, 6733.030
148.5266, 6908.758
149.0087, 7046.303
149.4908, 7138.174
149.9729, 7196.887
150.4550, 7234.020
150.9371, 7254.179
151.4193, 7254.452
151.9014, 7227.536
152.3835, 7151.810
152.8656, 7077.827
153.3477, 7012.494
153.8298, 6948.829
154.3120, 6877.994
154.7941, 6796.493
155.2762, 6707.761
155.7583, 6620.278
156.2404, 6524.451
156.7225, 6443.169
157.2047, 6381.588
157.6868, 6336.237
158.1689, 6302.072
158.6510, 6277.058
159.1331, 6262.145
159.6152, 6262.067
160.0974, 6278.199
160.5795, 6302.416
161.0616, 6329.585
161.5437, 6363.701
162.0258, 6415.074
162.5079, 6491.170
162.9901, 6580.472
163.4722, 6655.019
163.9543, 6708.901
164.4364, 6762.491
164.9185, 6822.482
165.4007, 6886.875
165.8828, 6951.567
166.3649, 7017.061
166.8470, 7079.155
167.3291, 7128.748
167.8112, 7161.331
168.2933, 7193.270
168.7755, 7237.891
169.2576, 7288.232
169.7397, 7321.786
170.2218, 7324.447
170.7039, 7312.054
171.1860, 7318.507
171.6682, 7352.372
172.1503, 7382.879
172.6324, 7393.202
173.1145, 7387.358
173.5966, 7379.657
174.0787, 7374.231
174.5609, 7371.059
175.0430, 7371.413
175.5251, 7379.382
176.0072, 7380.220
176.4893, 7363.453
176.9714, 7331.703
177.4536, 7294.920
177.9357, 7251.021
178.4178, 7209.457
178.8999, 7185.728
179.3820, 7185.402
179.8641, 7184.102
180.3463, 7165.731
180.8284, 7132.542
181.3105, 7097.212
181.7926, 7061.777
182.2747, 7028.052
182.7568, 6997.227
183.2390, 6968.667
183.7211, 6944.674
184.2032, 6932.936
184.6853, 6930.250
185.1674, 6913.208
185.6495, 6862.731
186.1317, 6806.464
186.6138, 6778.599
187.0959, 6783.216
187.5780, 6794.739
188.0601, 6799.769
188.5422, 6798.166
189.0244, 6788.847
189.5065, 6771.633
189.9886, 6745.332
190.4707, 6707.980
190.9528, 6658.302
191.4349, 6610.177
191.9170, 6577.130
192.3992, 6556.586
192.8813, 6526.944
193.3634, 6471.828
193.8455, 6418.978
194.3276, 6397.840
194.8097, 6409.946
195.2919, 6422.838
195.7740, 6413.450
196.2561, 6384.668
196.7382, 6355.156
197.2203, 6324.667
197.7024, 6299.415
198.1846, 6285.352
198.6667, 6282.221
199.1488, 6280.701
199.6309, 6259.486
200.1130, 6227.728
200.5951, 6251.376
201.0773, 6394.272
201.5594, 6526.910
202.0415, 6533.983
202.5236, 6426.469
203.0057, 6312.792
203.4878, 6258.295
203.9700, 6253.876
204.4521, 6255.135
204.9342, 6258.479
205.4163, 6264.948
205.8984, 6277.035
206.3805, 6293.357
206.8627, 6306.850
207.3448, 6313.133
207.8269, 6313.212
208.3090, 6309.679
208.7911, 6298.341
209.2732, 6290.692
209.7554, 6298.414
210.2375, 6316.980
210.7196, 6331.365
211.2017, 6326.941
211.6838, 6311.953
212.1659, 6312.201
212.6480, 6333.204
213.1302, 6361.351
213.6123, 6387.654
214.0944, 6413.504
214.5765, 6442.108
215.0586, 6475.409
215.5407, 6512.538
216.0229, 6553.219
216.5050, 6600.022
216.9871, 6643.893
217.4692, 6669.988
217.9513, 6689.697
218.4334, 6725.081
218.9156, 6789.876
219.3977, 6873.108
219.8798, 6957.636
220.3619, 7045.428
220.8440, 7127.906
221.3261, 7195.436
221.8083, 7255.876
222.2904, 7320.048
222.7725, 7393.438
223.2546, 7470.566
223.7367, 7541.987
224.2188, 7606.582
224.7010, 7674.076
225.1831, 7753.578
225.6652, 7837.510
226.1473, 7915.364
226.6294, 7983.865
227.1115, 8047.661
227.5937, 8110.575
228.0758, 8172.337
228.5579, 8235.399
229.0400, 8307.372
229.5221, 8377.093
230.0042, 8427.674
230.4864, 8450.556
230.9685, 8469.782
231.4506, 8510.698
231.9327, 8571.544
232.4148, 8621.603
232.8969, 8644.187
233.3791, 8654.500
233.8612, 8675.535
234.3433, 8712.099
234.8254, 8742.354
235.3075, 8750.021
235.7896, 8737.797
236.2717, 8720.438
236.7539, 8702.355
237.2360, 8679.434
237.7181, 8647.843
238.2002, 8608.006
238.6823, 8560.438
239.1644, 8503.152
239.6466, 8438.228
240.1287, 8369.359
240.6108, 8291.673
241.0929, 8221.277
241.5750, 8180.756
242.0571, 8167.835
242.5393, 8153.854
243.0214, 8127.677
243.5035, 8094.180
243.9856, 8060.111
244.4677, 8025.306
244.9498, 7994.823
245.4320, 7976.739
245.9141, 7969.011
246.3962, 7959.786
246.8783, 7936.297
247.3604, 7915.147
247.8425, 7917.275
248.3247, 7944.982
248.8068, 7983.958
249.2889, 8025.277
249.7710, 8069.000
250.2531, 8115.513
250.7352, 8162.803
251.2174, 8214.295
251.6995, 8273.817
252.1816, 8340.641
252.6637, 8408.970
253.1458, 8472.794
253.6279, 8535.419
254.1101, 8610.227
254.5922, 8705.745
255.0743, 8804.250
255.5564, 8887.133
256.0385, 8963.556
256.5206, 9064.682
257.0027, 9208.895
257.4849, 9384.908
257.9670, 9556.508
258.4491, 9720.632
258.9312, 9885.725
259.4133, 10056.84
259.8954, 10230.57
260.3776, 10399.47
260.8597, 10561.55
261.3418, 10718.60
261.8239, 10878.18
262.3060, 11049.47
262.7881, 11203.16
263.2703, 11325.97
263.7524, 11433.54
264.2345, 11547.17
264.7166, 11671.69
265.1987, 11787.87
265.6808, 11866.58
266.1630, 11881.84
266.6451, 11932.26
267.1272, 12046.87
267.6093, 12174.23
268.0914, 12279.95
268.5735, 12360.46
269.0557, 12428.75
269.5378, 12496.78
270.0199, 12564.68
270.5020, 12633.43
270.9841, 12713.75
271.4662, 12784.69
271.9484, 12842.23
272.4305, 12883.53
272.9126, 12903.12
273.3947, 12896.69
273.8768, 12865.16
274.3589, 12820.05
274.8411, 12757.78
275.3232, 12685.10
275.8053, 12604.86
276.2874, 12514.22
276.7695, 12409.27
277.2516, 12287.76
277.7338, 12150.08
278.2159, 11999.10
278.6980, 11838.05
279.1801, 11655.72
279.6622, 11428.75
280.1443, 11194.02
280.6265, 10987.08
281.1086, 10818.44
281.5907, 10670.76
282.0728, 10518.02
282.5549, 10355.80
283.0370, 10201.00
283.5192, 10044.50
284.0013, 9903.551
284.4834, 9791.117
284.9655, 9706.906
285.4476, 9636.835
285.9297, 9569.541
286.4119, 9505.061
286.8940, 9441.570
287.3761, 9372.333
287.8582, 9311.927
288.3403, 9265.730
288.8224, 9233.151
289.3046, 9210.712
289.7867, 9193.570
290.2688, 9185.300
290.7509, 9202.724
291.2330, 9258.930
291.7151, 9315.494
292.1972, 9355.118
292.6794, 9384.051
293.1615, 9408.191
293.6436, 9422.660
294.1257, 9443.288
294.6078, 9495.688
295.0899, 9582.750
295.5721, 9678.358
296.0542, 9774.957
296.5363, 9873.397
297.0184, 9973.543
297.5005, 10076.41
297.9826, 10178.42
298.4648, 10271.28
298.9469, 10358.76
299.4290, 10464.50
299.9111, 10601.96
300.3932, 10749.80
300.8753, 10880.72
301.3575, 10993.94
301.8396, 11107.15
302.3217, 11226.38
302.8038, 11348.77
303.2859, 11473.10
303.7680, 11600.36
304.2502, 11719.44
304.7323, 11822.54
305.2144, 11908.62
305.6965, 11972.24
306.1786, 12008.45
306.6607, 12026.01
307.1429, 12029.49
307.6250, 12019.71
308.1071, 11999.77
308.5892, 11974.05
309.0713, 11939.51
309.5534, 11873.70
310.0356, 11781.02
310.5177, 11659.51
310.9998, 11496.87
311.4819, 11306.83
311.9640, 11108.86
312.4461, 10908.70
312.9283, 10710.52
313.4104, 10521.92
313.8925, 10354.38
314.3746, 10180.95
314.8567, 9992.676
315.3388, 9803.729
315.8210, 9623.611
316.3031, 9454.982
316.7852, 9297.523
317.2673, 9151.340
317.7494, 9016.405
318.2315, 8890.747
318.7137, 8770.690
319.1958, 8662.986
319.6779, 8573.247
320.1600, 8498.604
320.6421, 8430.457
321.1242, 8360.650
321.6064, 8292.985
322.0885, 8256.714
322.5706, 8282.763
323.0527, 8293.958
323.5348, 8249.283
324.0169, 8188.050
324.4991, 8159.801
324.9812, 8185.913
325.4633, 8237.325
325.9454, 8270.977
326.4275, 8284.784
326.9096, 8290.104
327.3918, 8275.863
327.8739, 8263.720
328.3560, 8271.496
328.8381, 8300.595
329.3202, 8334.454
329.8023, 8366.333
330.2845, 8394.049
330.7666, 8406.045
331.2487, 8395.141
331.7308, 8379.744
332.2129, 8374.489
332.6950, 8377.169
333.1772, 8381.270
333.6593, 8390.836
334.1414, 8397.584
334.6235, 8387.200
335.1056, 8359.671
335.5877, 8333.040
336.0698, 8302.627
336.5519, 8288.141
337.0341, 8348.700
337.5162, 8589.745
337.9983, 8766.884
338.4804, 8730.028
338.9625, 8556.726
339.4446, 8398.907
339.9268, 8308.770
340.4089, 8265.332
340.8910, 8235.065
341.3731, 8223.436
341.8552, 8214.019
342.3373, 8205.968
342.8195, 8200.059
343.3016, 8199.176
343.7837, 8202.236
344.2658, 8203.906
344.7479, 8200.564
345.2300, 8192.979
345.7122, 8166.759
346.1943, 8100.288
346.6764, 8039.203
347.1585, 8000.258
347.6406, 7975.800
348.1227, 7954.065
348.6049, 7929.663
349.0870, 7899.363
349.5691, 7851.522
350.0512, 7772.458
350.5333, 7703.638
351.0154, 7658.115
351.4976, 7619.307
351.9797, 7573.369
352.4618, 7518.272
352.9439, 7463.749
353.4260, 7422.584
353.9081, 7394.579
354.3903, 7360.528
354.8724, 7317.523
355.3545, 7269.847
355.8366, 7217.107
356.3187, 7162.122
356.8008, 7112.471
357.2830, 7078.029
357.7651, 7047.902
358.2472, 7000.035
358.7293, 6932.223
359.2114, 6870.050
359.6935, 6824.852
360.1757, 6795.093
360.6578, 6776.017
361.1399, 6773.128
361.6220, 6769.992
362.1041, 6756.685
362.5862, 6736.884
363.0684, 6716.963
363.5505, 6697.895
364.0326, 6683.830
364.5147, 6680.908
364.9968, 6691.106
365.4789, 6705.846
365.9611, 6731.347
366.4432, 6756.153
366.9253, 6767.896
367.4074, 6769.249
367.8895, 6774.608
368.3716, 6794.561
368.8538, 6828.290
369.3359, 6866.236
369.8180, 6909.698
370.3001, 6955.870
370.7822, 7005.208
371.2643, 7056.603
371.7465, 7109.245
372.2286, 7162.668
372.7107, 7217.155
373.1928, 7273.323
373.6749, 7332.062
374.1570, 7390.359
374.6392, 7441.948
375.1213, 7498.214
375.6034, 7562.847
376.0855, 7637.115
376.5676, 7724.052
377.0497, 7834.546
377.5319, 7958.688
378.0140, 8055.343
378.4961, 8112.780
378.9782, 8173.151
379.4603, 8271.982
379.9424, 8382.101
380.4246, 8464.778
380.9066, 8497.844
381.3888, 8533.731
381.8709, 8625.759
382.3530, 8761.066
382.8351, 8884.129
383.3172, 8980.778
383.7993, 9057.607
384.2815, 9114.097
384.7636, 9147.118
385.2457, 9199.540
385.7278, 9299.502
386.2099, 9408.327
386.6920, 9489.117
387.1742, 9541.851
387.6563, 9590.386
388.1384, 9654.479
388.6205, 9729.414
389.1026, 9773.628
389.5847, 9759.957
390.0669, 9750.250
390.5490, 9768.146
391.0311, 9791.242
391.5132, 9790.604
391.9953, 9757.156
392.4774, 9706.443
392.9596, 9662.032
393.4417, 9627.480
393.9238, 9587.122
394.4059, 9538.438
394.8880, 9485.587
395.3701, 9434.714
395.8523, 9381.545
396.3344, 9314.517
396.8165, 9224.102
397.2986, 9116.293
397.7807, 9008.242
398.2628, 8900.916
398.7450, 8789.748
399.2271, 8669.130
399.7092, 8545.291
400.1913, 8425.288
400.6734, 8310.526
401.1555, 8199.417
401.6377, 8088.873
402.1198, 7981.776
402.6019, 7884.916
403.0840, 7801.833
403.5661, 7722.676
404.0482, 7637.652
404.5304, 7546.489
405.0125, 7460.997
405.4946, 7386.116
405.9767, 7313.631
406.4588, 7242.353
406.9409, 7169.932
407.4231, 7090.030
407.9052, 6998.344
408.3873, 6899.984
408.8694, 6808.142
409.3515, 6721.831
409.8336, 6644.688
410.3158, 6570.747
410.7979, 6509.887
411.2800, 6488.413
411.7621, 6496.191
412.2442, 6479.034
412.7263, 6374.676
413.2085, 6189.195
413.6906, 6053.433
414.1727, 5993.069
414.6548, 5944.631
415.1369, 5892.248
415.6190, 5833.772
416.1012, 5763.695
416.5833, 5676.956
417.0654, 5590.821
417.5475, 5529.687
418.0296, 5490.261
418.5117, 5439.921
418.9939, 5366.044
419.4760, 5287.682
419.9581, 5228.352
420.4402, 5185.922
420.9223, 5141.760
421.4044, 5087.534
421.8866, 5032.456
422.3687, 4982.303
422.8508, 4938.437
423.3329, 4907.504
423.8150, 4897.220
424.2971, 4897.832
424.7793, 4874.014
425.2614, 4796.531
425.7435, 4732.888
426.2256, 4691.911
426.7077, 4663.821
427.1898, 4643.452
427.6719, 4627.875
428.1541, 4610.689
428.6362, 4583.777
429.1183, 4546.812
429.6004, 4519.362
430.0825, 4508.856
430.5646, 4498.528
431.0468, 4484.053
431.5289, 4466.193
432.0110, 4445.036
432.4931, 4419.667
432.9752, 4395.379
433.4573, 4380.046
433.9395, 4373.058
434.4216, 4364.005
434.9037, 4350.034
435.3858, 4334.383
435.8679, 4319.601
436.3500, 4305.705
436.8322, 4293.689
437.3143, 4286.697
437.7964, 4279.570
438.2785, 4265.921
438.7606, 4247.232
439.2427, 4230.574
439.7249, 4219.464
440.2070, 4213.199
440.6891, 4209.830
441.1712, 4210.727
441.6533, 4212.643
442.1354, 4219.583
442.6176, 4224.597
443.0997, 4218.861
443.5818, 4203.967
444.0639, 4191.488
444.5460, 4192.556
445.0281, 4205.571
445.5103, 4212.939
445.9924, 4210.071
446.4745, 4208.882
446.9566, 4209.883
447.4387, 4215.496
447.9208, 4232.249
448.4030, 4263.040
448.8851, 4289.131
449.3672, 4285.836
449.8493, 4260.764
450.3314, 4251.896
450.8135, 4269.022
451.2957, 4290.303
451.7778, 4294.999
452.2599, 4286.782
452.7420, 4286.583
453.2241, 4302.152
453.7062, 4320.727
454.1884, 4335.452
454.6705, 4347.702
455.1526, 4360.660
455.6347, 4375.499
456.1168, 4391.868
456.5989, 4409.108
457.0811, 4426.824
457.5632, 4446.683
458.0453, 4472.477
458.5274, 4496.287
459.0095, 4510.663
459.4916, 4519.813
459.9738, 4534.045
460.4559, 4559.871
460.9380, 4593.066
461.4201, 4622.937
461.9022, 4648.050
462.3843, 4676.242
462.8665, 4712.226
463.3486, 4749.990
463.8307, 4780.327
464.3128, 4803.927
464.7949, 4840.174
465.2770, 4906.924
465.7592, 4987.771
466.2413, 5061.616
466.7234, 5127.205
467.2055, 5183.258
467.6876, 5226.016
468.1697, 5261.145
468.6519, 5308.766
469.1340, 5378.021
469.6161, 5443.804
470.0982, 5501.020
470.5803, 5554.443
471.0624, 5611.444
471.5445, 5671.309
472.0266, 5724.662
472.5088, 5763.040
472.9909, 5787.205
473.4730, 5807.327
473.9551, 5820.958
474.4372, 5834.248
474.9193, 5850.884
475.4015, 5866.968
475.8836, 5880.832
476.3657, 5892.223
476.8478, 5893.178
477.3299, 5875.584
477.8120, 5841.788
478.2942, 5800.647
478.7763, 5753.438
479.2584, 5697.537
479.7405, 5630.832
480.2226, 5552.932
480.7047, 5467.354
481.1869, 5365.060
481.6690, 5265.992
482.1511, 5177.401
482.6332, 5097.195
483.1153, 5023.220
483.5974, 4954.919
484.0796, 4889.889
484.5617, 4826.118
485.0438, 4763.638
485.5259, 4700.754
486.0080, 4627.495
486.4901, 4565.054
486.9723, 4521.776
487.4544, 4491.999
487.9365, 4469.910
488.4186, 4454.190
488.9007, 4437.624
489.3828, 4406.685
489.8650, 4363.344
490.3471, 4336.865
490.8292, 4339.861
491.3113, 4343.078
491.7934, 4316.127
492.2755, 4268.150
492.7577, 4230.878
493.2398, 4215.354
493.7219, 4205.117
494.2040, 4192.039
494.6861, 4176.905
495.1682, 4159.145
495.6504, 4138.509
496.1325, 4123.093
496.6146, 4125.546
497.0967, 4151.848
497.5788, 4169.467
498.0609, 4163.519
498.5431, 4165.305
499.0252, 4193.993
499.5073, 4235.629
499.9894, 4266.479
500.4715, 4276.140
500.9536, 4277.756
501.4358, 4288.377
501.9179, 4307.960
502.4000, 4331.637
502.8821, 4359.877
503.3642, 4390.169
503.8463, 4418.013
504.3285, 4445.735
504.8106, 4483.235
505.2927, 4547.544
505.7748, 4607.526
506.2569, 4637.721
506.7390, 4648.701
507.2212, 4667.584
507.7033, 4703.653
508.1854, 4734.770
508.6675, 4729.097
509.1496, 4677.773
509.6317, 4630.708
510.1139, 4588.716
510.5960, 4550.025
511.0781, 4511.688
511.5602, 4476.820
512.0423, 4450.792
512.5244, 4436.014
513.0065, 4427.052
513.4886, 4414.766
513.9708, 4399.796
514.4529, 4398.735
514.9350, 4421.168
515.4171, 4442.977
515.8992, 4434.494
516.3813, 4407.935
516.8635, 4405.648
517.3456, 4457.728
517.8277, 4509.670
518.3098, 4532.771
518.7919, 4536.358
519.2740, 4531.223
519.7562, 4521.414
520.2383, 4520.373
520.7204, 4546.421
521.2025, 4603.224
521.6846, 4649.120
522.1667, 4670.426
522.6489, 4695.172
523.1310, 4730.508
523.6131, 4772.614
524.0952, 4815.102
524.5773, 4855.818
525.0594, 4903.488
525.5416, 4970.325
526.0237, 5052.320
526.5058, 5130.064
526.9879, 5200.998
527.4700, 5271.826
527.9521, 5343.396
528.4343, 5419.447
528.9164, 5513.546
529.3985, 5643.915
529.8806, 5767.186
530.3627, 5853.777
530.8448, 5934.268
531.3270, 6049.000
531.8091, 6200.522
532.2912, 6357.600
532.7733, 6491.326
533.2554, 6604.355
533.7375, 6728.704
534.2197, 6876.278
534.7018, 7013.744
535.1839, 7125.958
535.6660, 7229.430
536.1481, 7343.245
536.6302, 7468.098
537.1124, 7579.202
537.5945, 7656.099
538.0766, 7709.988
538.5587, 7768.292
539.0408, 7830.618
539.5229, 7855.756
540.0051, 7816.989
540.4872, 7732.584
540.9693, 7647.977
541.4514, 7570.316
541.9335, 7478.776
542.4156, 7371.376
542.8978, 7251.627
543.3799, 7115.233
543.8620, 6968.339
544.3441, 6823.562
544.8262, 6689.170
545.3083, 6561.661
545.7905, 6435.749
546.2726, 6313.386
546.7547, 6179.473
547.2368, 6020.614
547.7189, 5860.502
548.2010, 5715.903
548.6832, 5586.372
549.1653, 5467.634
549.6474, 5363.814
550.1295, 5264.928
550.6116, 5161.323
551.0938, 5056.727
551.5759, 4959.227
552.0580, 4872.083
552.5401, 4790.289
553.0222, 4708.294
553.5043, 4624.746
553.9865, 4547.901
554.4686, 4483.420
554.9507, 4419.729
555.4328, 4355.194
555.9149, 4289.525
556.3970, 4220.305
556.8792, 4146.643
557.3613, 4080.015
557.8434, 4040.038
558.3255, 4016.142
558.8076, 3969.208
559.2897, 3892.754
559.7719, 3820.188
560.2540, 3771.933
560.7361, 3743.756
561.2182, 3720.071
561.7003, 3713.575
562.1824, 3690.447
562.6646, 3629.777
563.1467, 3561.745
563.6288, 3509.939
564.1109, 3475.702
564.5930, 3450.609
565.0751, 3430.856
565.5573, 3411.941
566.0394, 3377.746
566.5215, 3322.490
567.0036, 3279.761
567.4857, 3266.800
567.9678, 3258.458
568.4500, 3227.843
568.9321, 3179.459
569.4142, 3144.470
569.8963, 3142.673
570.3784, 3147.041
570.8605, 3138.005
571.3427, 3119.773
571.8248, 3102.831
572.3069, 3090.581
572.7890, 3078.611
573.2711, 3060.785
573.7532, 3036.260
574.2354, 3014.345
574.7175, 2995.815
575.1996, 2979.249
575.6817, 2964.470
576.1638, 2951.438
576.6459, 2939.778
577.1281, 2929.442
577.6102, 2921.578
578.0923, 2919.447
578.5744, 2919.781
579.0565, 2916.244
579.5386, 2908.375
580.0208, 2895.586
580.5029, 2874.926
580.9850, 2852.284
581.4671, 2843.709
581.9492, 2864.713
582.4313, 2873.910
582.9134, 2867.467
583.3955, 2852.744
583.8776, 2828.742
584.3597, 2800.592
584.8419, 2778.760
585.3240, 2768.825
585.8061, 2765.531
586.2882, 2761.200
586.7703, 2755.884
587.2524, 2750.066
587.7346, 2742.416
588.2167, 2738.031
588.6988, 2745.245
589.1809, 2760.729
589.6630, 2764.084
590.1451, 2742.686
590.6273, 2723.926
591.1094, 2715.693
591.5915, 2715.241
592.0736, 2723.570
592.5557, 2738.090
593.0378, 2748.098
593.5200, 2744.434
594.0021, 2729.325
594.4842, 2711.005
594.9663, 2686.893
595.4484, 2668.797
595.9305, 2662.126
596.4127, 2660.894
596.8948, 2658.224
597.3769, 2654.531
597.8590, 2656.380
598.3411, 2672.398
598.8232, 2688.396
599.3054, 2693.564
599.7875, 2690.786
600.2696, 2686.030
600.7517, 2681.406
601.2338, 2677.885
601.7159, 2677.177
602.1981, 2679.597
602.6802, 2679.408
603.1623, 2674.565
603.6444, 2670.237
604.1265, 2668.529
604.6086, 2667.864
605.0908, 2665.203
605.5729, 2659.901
606.0550, 2659.596
606.5371, 2676.035
607.0192, 2695.286
607.5013, 2695.342
607.9835, 2679.493
608.4656, 2670.704
608.9477, 2680.752
609.4298, 2698.309
609.9119, 2701.257
610.3940, 2682.265
610.8762, 2671.801
611.3583, 2679.342
611.8404, 2685.515
612.3225, 2684.146
612.8046, 2676.879
613.2867, 2663.382
613.7689, 2641.605
614.2510, 2628.877
614.7331, 2651.520
615.2152, 2690.385
615.6973, 2699.706
616.1794, 2676.465
616.6616, 2657.526
617.1437, 2666.364
617.6258, 2692.504
618.1079, 2706.436
618.5900, 2700.255
619.0721, 2695.258
619.5543, 2691.445
620.0364, 2688.723
620.5185, 2686.342
