##NAMES=Uranophane-alpha
##RRUFFID=R070584
##IDEAL CHEMISTRY=Ca(U^6+^O_2_)_2_(SiO_3_OH)_2_&#183;5H_2_O
##LOCALITY=Wolsendorf, Schwandorf, Upper Palatinate, Bavaria, Germany
##OWNER=RRUFF
##SOURCE=James Shigley
##DESCRIPTION=Sprays and aggregates of pale yellow fibers
##STATUS=The identification of this mineral has been confirmed by single-crystal X-ray diffraction.
##URL=rruff.info/R070584
155.0661, 12600.16
155.5482, 12515.54
156.0303, 12470.92
156.5124, 12463.46
156.9945, 12471.46
157.4766, 12489.71
157.9588, 12517.60
158.4409, 12526.46
158.9230, 12496.06
159.4051, 12454.57
159.8872, 12416.51
160.3694, 12384.27
160.8515, 12357.27
161.3336, 12336.38
161.8157, 12324.46
162.2978, 12309.56
162.7799, 12281.99
163.2621, 12255.31
163.7442, 12241.64
164.2263, 12245.21
164.7084, 12256.95
165.1905, 12256.65
165.6726, 12235.06
166.1548, 12214.93
166.6369, 12201.80
167.1190, 12190.75
167.6011, 12175.20
168.0832, 12151.28
168.5653, 12122.17
169.0475, 12103.03
169.5296, 12106.69
170.0117, 12107.42
170.4938, 12098.24
170.9759, 12083.41
171.4580, 12071.01
171.9402, 12066.79
172.4223, 12070.50
172.9044, 12069.50
173.3865, 12065.79
173.8686, 12056.82
174.3507, 12035.81
174.8329, 12006.53
175.3150, 11982.37
175.7971, 11974.93
176.2792, 11986.34
176.7613, 11995.46
177.2434, 12000.46
177.7256, 12004.75
178.2077, 12008.04
178.6898, 12010.76
179.1719, 12019.66
179.6540, 12043.81
180.1361, 12084.02
180.6183, 12122.89
181.1004, 12171.62
181.5825, 12212.89
182.0646, 12218.74
182.5467, 12178.38
183.0288, 12128.19
183.5110, 12107.43
183.9931, 12111.81
184.4752, 12133.34
184.9573, 12184.84
185.4394, 12251.48
185.9215, 12297.51
186.4037, 12311.96
186.8858, 12308.91
187.3679, 12298.64
187.8500, 12281.44
188.3321, 12272.36
188.8142, 12283.06
189.2964, 12311.66
189.7785, 12343.67
190.2606, 12379.95
190.7427, 12415.03
191.2248, 12444.69
191.7069, 12468.66
192.1891, 12489.29
192.6712, 12506.26
193.1533, 12518.50
193.6354, 12537.08
194.1175, 12575.25
194.5996, 12614.42
195.0818, 12644.88
195.5639, 12664.44
196.0460, 12674.18
196.5281, 12668.48
197.0102, 12632.93
197.4923, 12626.61
197.9745, 12692.28
198.4566, 12770.19
198.9387, 12816.54
199.4208, 12816.66
199.9029, 12787.43
200.3850, 12759.74
200.8672, 12728.97
201.3493, 12709.55
201.8314, 12706.99
202.3135, 12712.83
202.7956, 12722.51
203.2777, 12734.35
203.7599, 12743.31
204.2420, 12734.48
204.7241, 12699.75
205.2062, 12654.98
205.6883, 12585.41
206.1704, 12512.57
206.6526, 12463.54
207.1347, 12454.08
207.6168, 12474.87
208.0989, 12481.47
208.5810, 12457.46
209.0631, 12436.00
209.5453, 12431.33
210.0274, 12431.11
210.5095, 12414.41
210.9916, 12367.26
211.4737, 12293.60
211.9559, 12230.44
212.4380, 12183.27
212.9201, 12139.12
213.4022, 12090.28
213.8843, 12041.47
214.3664, 12006.82
214.8486, 11999.25
215.3307, 12015.87
215.8128, 11996.28
216.2949, 11911.65
216.7770, 11827.71
217.2591, 11770.32
217.7413, 11736.81
218.2234, 11713.14
218.7055, 11691.14
219.1876, 11670.37
219.6697, 11642.79
220.1518, 11599.84
220.6340, 11558.34
221.1161, 11531.81
221.5982, 11517.99
222.0803, 11499.42
222.5624, 11460.51
223.0445, 11401.70
223.5267, 11354.20
224.0088, 11322.88
224.4909, 11299.00
224.9730, 11279.48
225.4551, 11263.67
225.9372, 11244.78
226.4194, 11215.79
226.9015, 11177.56
227.3836, 11144.23
227.8657, 11121.41
228.3478, 11100.88
228.8299, 11073.59
229.3121, 11038.55
229.7942, 11004.35
230.2763, 10978.84
230.7584, 10960.65
231.2405, 10943.14
231.7226, 10926.40
232.2048, 10909.23
232.6869, 10888.34
233.1690, 10862.33
233.6511, 10839.97
234.1332, 10834.41
234.6153, 10839.50
235.0975, 10836.82
235.5796, 10811.79
236.0617, 10779.67
236.5438, 10769.54
237.0259, 10791.11
237.5080, 10804.82
237.9902, 10762.60
238.4723, 10686.52
238.9544, 10628.80
239.4365, 10616.81
239.9186, 10632.27
240.4007, 10642.56
240.8829, 10646.10
241.3650, 10645.25
241.8471, 10636.75
242.3292, 10624.76
242.8113, 10619.57
243.2934, 10639.48
243.7756, 10667.98
244.2577, 10660.72
244.7398, 10600.46
245.2219, 10539.04
245.7040, 10508.83
246.1861, 10501.66
246.6683, 10502.57
247.1504, 10514.13
247.6325, 10528.76
248.1146, 10521.23
248.5967, 10480.32
249.0788, 10437.71
249.5610, 10409.09
250.0431, 10392.19
250.5252, 10382.88
251.0073, 10381.91
251.4894, 10387.08
251.9715, 10392.46
252.4537, 10403.14
252.9358, 10404.64
253.4179, 10381.27
253.9000, 10344.92
254.3821, 10319.23
254.8642, 10323.54
255.3464, 10348.87
255.8285, 10358.99
256.3106, 10340.23
256.7927, 10327.92
257.2748, 10349.44
257.7570, 10387.18
258.2391, 10407.63
258.7212, 10384.65
259.2033, 10330.05
259.6854, 10290.96
260.1675, 10272.21
260.6497, 10262.89
261.1318, 10259.66
261.6139, 10260.90
262.0960, 10264.36
262.5781, 10270.19
263.0602, 10276.95
263.5424, 10278.41
264.0245, 10272.23
264.5066, 10263.87
264.9887, 10248.41
265.4708, 10233.39
265.9529, 10232.56
266.4351, 10259.29
266.9172, 10303.01
267.3993, 10321.17
267.8814, 10292.08
268.3635, 10271.69
268.8456, 10288.90
269.3278, 10323.13
269.8099, 10344.13
270.2920, 10333.13
270.7741, 10300.63
271.2562, 10282.71
271.7383, 10290.50
272.2205, 10295.02
272.7026, 10282.17
273.1847, 10262.76
273.6668, 10251.63
274.1489, 10257.94
274.6310, 10274.31
275.1132, 10277.87
275.5953, 10256.18
276.0774, 10243.82
276.5595, 10252.58
277.0416, 10273.13
277.5237, 10297.38
278.0059, 10323.48
278.4880, 10346.09
278.9701, 10351.27
279.4522, 10331.53
279.9343, 10307.49
280.4164, 10279.16
280.8986, 10251.99
281.3807, 10230.56
281.8628, 10216.54
282.3449, 10210.67
282.8270, 10217.52
283.3091, 10247.98
283.7913, 10266.68
284.2734, 10253.93
284.7555, 10233.85
285.2376, 10231.85
285.7197, 10257.71
286.2018, 10290.45
286.6840, 10289.64
287.1661, 10238.18
287.6482, 10196.81
288.1303, 10173.44
288.6124, 10164.92
289.0945, 10175.00
289.5767, 10204.46
290.0588, 10237.46
290.5409, 10251.55
291.0230, 10243.80
291.5051, 10225.90
291.9872, 10180.74
292.4694, 10138.88
292.9515, 10125.57
293.4336, 10144.50
293.9157, 10171.58
294.3978, 10175.65
294.8799, 10150.86
295.3621, 10131.10
295.8442, 10116.73
296.3263, 10111.51
296.8084, 10127.59
297.2905, 10162.30
297.7726, 10189.21
298.2548, 10173.48
298.7369, 10108.03
299.2190, 10059.63
299.7011, 10045.10
300.1832, 10040.55
300.6653, 10035.29
301.1475, 10029.18
301.6296, 10027.50
302.1117, 10043.69
302.5938, 10078.51
303.0759, 10083.01
303.5580, 10026.59
304.0402, 9968.344
304.5223, 9936.081
305.0044, 9926.401
305.4865, 9923.111
305.9686, 9914.515
306.4507, 9901.631
306.9329, 9894.958
307.4150, 9899.441
307.8971, 9903.852
308.3792, 9908.594
308.8613, 9909.600
309.3434, 9897.240
309.8256, 9856.797
310.3077, 9799.535
310.7898, 9767.836
311.2719, 9771.714
311.7540, 9784.260
312.2361, 9803.478
312.7183, 9820.557
313.2004, 9818.874
313.6825, 9781.295
314.1646, 9728.796
314.6467, 9708.358
315.1288, 9731.846
315.6110, 9755.107
316.0931, 9766.820
316.5752, 9765.091
317.0573, 9741.227
317.5394, 9681.903
318.0215, 9618.553
318.5037, 9603.001
318.9858, 9645.106
319.4679, 9677.528
319.9500, 9669.409
320.4321, 9640.299
320.9142, 9603.547
321.3964, 9557.851
321.8785, 9518.480
322.3606, 9506.490
322.8427, 9522.038
323.3248, 9530.972
323.8069, 9516.268
324.2891, 9495.786
324.7712, 9490.536
325.2533, 9503.965
325.7354, 9515.426
326.2175, 9508.801
326.6996, 9486.725
327.1818, 9463.026
327.6639, 9437.355
328.1460, 9415.637
328.6281, 9403.891
329.1102, 9401.894
329.5923, 9403.005
330.0745, 9407.604
330.5566, 9412.823
331.0387, 9409.697
331.5208, 9393.619
332.0029, 9377.351
332.4850, 9377.330
332.9672, 9390.014
333.4493, 9397.538
333.9314, 9388.334
334.4135, 9373.501
334.8957, 9373.674
335.3778, 9393.207
335.8599, 9402.896
336.3420, 9365.323
336.8241, 9293.171
337.3062, 9254.343
337.7884, 9290.612
338.2705, 9338.960
338.7526, 9337.065
339.2347, 9288.038
339.7168, 9247.156
340.1989, 9252.802
340.6811, 9295.143
341.1632, 9321.244
341.6453, 9323.382
342.1274, 9317.515
342.6095, 9309.406
343.0916, 9299.299
343.5738, 9287.057
344.0559, 9271.336
344.5380, 9254.846
345.0201, 9247.115
345.5022, 9255.181
345.9843, 9258.636
346.4665, 9251.470
346.9486, 9236.622
347.4307, 9214.827
347.9128, 9185.439
348.3949, 9158.670
348.8770, 9154.505
349.3592, 9190.197
349.8413, 9212.777
350.3234, 9218.001
350.8055, 9209.860
351.2876, 9182.757
351.7697, 9138.991
352.2519, 9102.284
352.7340, 9103.676
353.2161, 9158.800
353.6982, 9193.253
354.1803, 9196.333
354.6624, 9190.856
355.1446, 9186.856
355.6267, 9185.922
356.1088, 9187.443
356.5909, 9191.650
357.0730, 9198.741
357.5551, 9199.207
358.0373, 9179.642
358.5194, 9167.864
359.0015, 9179.244
359.4836, 9203.345
359.9657, 9221.513
360.4478, 9222.906
360.9300, 9210.537
361.4121, 9196.538
361.8942, 9168.854
362.3763, 9157.219
362.8584, 9175.714
363.3405, 9206.399
363.8227, 9231.178
364.3048, 9243.315
364.7869, 9247.837
365.2690, 9252.637
365.7511, 9256.066
366.2332, 9264.343
366.7154, 9283.407
367.1975, 9303.387
367.6796, 9320.554
368.1617, 9333.368
368.6438, 9338.315
369.1259, 9325.710
369.6081, 9293.120
370.0902, 9278.201
370.5723, 9299.516
371.0544, 9322.489
371.5365, 9325.329
372.0186, 9314.020
372.5008, 9309.682
372.9829, 9330.479
373.4650, 9369.530
373.9471, 9400.253
374.4292, 9421.915
374.9113, 9436.324
375.3935, 9438.087
375.8756, 9434.840
376.3577, 9440.104
376.8398, 9420.037
377.3219, 9483.010
377.8040, 9522.134
378.2862, 9538.694
378.7683, 9465.099
379.2504, 9507.918
379.7325, 9504.084
380.2146, 9498.336
380.6967, 9557.541
381.1789, 9497.060
381.6610, 9555.235
382.1431, 9566.044
382.6252, 9598.531
383.1073, 9584.075
383.5894, 9584.119
384.0716, 9631.122
384.5537, 9652.123
385.0358, 9632.264
385.5179, 9666.129
386.0000, 9604.006
386.4821, 9625.874
386.9643, 9641.225
387.4464, 9661.916
387.9285, 9676.915
388.4106, 9685.535
388.8927, 9697.741
389.3748, 9723.514
389.8570, 9744.182
390.3391, 9744.975
390.8212, 9729.860
391.3033, 9714.174
391.7854, 9707.531
392.2675, 9708.164
392.7497, 9705.124
393.2318, 9690.423
393.7139, 9681.872
394.1960, 9692.955
394.6781, 9708.610
395.1602, 9706.696
395.6424, 9679.018
396.1245, 9639.109
396.6066, 9612.170
397.0887, 9603.388
397.5708, 9599.737
398.0529, 9607.897
398.5351, 9615.471
399.0172, 9615.681
399.4993, 9607.080
399.9814, 9590.288
400.4635, 9564.148
400.9456, 9527.662
401.4278, 9494.389
401.9099, 9464.939
402.3920, 9438.530
402.8741, 9414.579
403.3562, 9393.431
403.8383, 9376.044
404.3205, 9364.420
404.8026, 9355.380
405.2847, 9338.196
405.7668, 9306.727
406.2489, 9282.611
406.7310, 9278.338
407.2132, 9282.679
407.6953, 9287.443
408.1774, 9292.060
408.6595, 9290.000
409.1416, 9270.051
409.6237, 9233.579
410.1059, 9204.053
410.5880, 9190.247
411.0701, 9181.402
411.5522, 9166.512
412.0343, 9145.786
412.5164, 9123.354
412.9986, 9100.007
413.4807, 9076.401
413.9628, 9052.707
414.4449, 9028.563
414.9270, 9008.492
415.4091, 8998.819
415.8913, 8997.960
416.3734, 8990.055
416.8555, 8965.207
417.3376, 8941.464
417.8197, 8935.895
418.3018, 8941.847
418.7840, 8936.786
419.2661, 8908.187
419.7482, 8863.010
420.2303, 8822.726
420.7124, 8786.052
421.1945, 8755.259
421.6767, 8727.839
422.1588, 8707.866
422.6409, 8707.184
423.1230, 8725.967
423.6051, 8741.850
424.0872, 8723.224
424.5694, 8655.015
425.0515, 8608.438
425.5336, 8590.553
426.0157, 8584.414
426.4978, 8588.342
426.9799, 8598.033
427.4621, 8606.681
427.9442, 8610.466
428.4263, 8608.666
428.9084, 8596.480
429.3905, 8565.163
429.8727, 8537.382
430.3548, 8519.514
430.8369, 8506.849
431.3190, 8494.775
431.8011, 8481.784
432.2833, 8468.894
432.7654, 8455.787
433.2475, 8441.980
433.7296, 8436.303
434.2117, 8449.069
434.6938, 8461.310
435.1760, 8455.827
435.6581, 8434.275
436.1402, 8413.998
436.6223, 8406.665
437.1044, 8405.771
437.5865, 8398.320
438.0687, 8382.729
438.5508, 8366.225
439.0329, 8353.091
439.5150, 8343.313
439.9971, 8335.763
440.4792, 8328.356
440.9614, 8325.315
441.4435, 8333.075
441.9256, 8347.308
442.4077, 8355.549
442.8898, 8351.994
443.3719, 8343.217
443.8541, 8342.754
444.3362, 8359.294
444.8183, 8366.195
445.3004, 8359.782
445.7825, 8344.742
446.2646, 8321.181
446.7468, 8291.306
447.2289, 8262.787
447.7110, 8242.772
448.1931, 8231.388
448.6752, 8222.884
449.1573, 8215.822
449.6395, 8213.343
450.1216, 8215.162
450.6037, 8222.392
451.0858, 8240.057
451.5679, 8271.869
452.0500, 8305.049
452.5322, 8310.995
453.0143, 8279.360
453.4964, 8254.613
453.9785, 8249.056
454.4606, 8250.370
454.9427, 8250.244
455.4249, 8248.600
455.9070, 8253.113
456.3891, 8276.848
456.8712, 8312.120
457.3533, 8329.939
457.8354, 8324.379
458.3176, 8313.059
458.7997, 8309.240
459.2818, 8308.559
459.7639, 8300.505
460.2460, 8276.350
460.7281, 8251.303
461.2103, 8237.436
461.6924, 8232.505
462.1745, 8227.937
462.6566, 8220.411
463.1387, 8211.407
463.6208, 8203.526
464.1030, 8195.746
464.5851, 8191.399
465.0672, 8194.531
465.5493, 8198.917
466.0314, 8198.068
466.5135, 8192.090
466.9957, 8185.708
467.4778, 8181.793
467.9599, 8180.372
468.4420, 8193.304
468.9241, 8256.132
469.4063, 8293.336
469.8884, 8267.183
470.3705, 8213.337
470.8526, 8179.046
471.3347, 8183.023
471.8168, 8207.493
472.2990, 8224.447
472.7811, 8233.364
473.2632, 8236.692
473.7453, 8227.963
474.2274, 8219.285
474.7095, 8216.390
475.1917, 8219.610
475.6738, 8227.982
476.1559, 8253.976
476.6380, 8282.328
477.1201, 8270.138
477.6022, 8208.793
478.0844, 8152.271
478.5665, 8129.803
479.0486, 8133.428
479.5307, 8143.957
480.0128, 8168.981
480.4949, 8186.287
480.9771, 8179.939
481.4592, 8158.670
481.9413, 8137.475
482.4234, 8120.026
482.9055, 8108.183
483.3876, 8105.493
483.8698, 8115.637
484.3519, 8119.137
484.8340, 8110.335
485.3161, 8100.501
485.7982, 8099.655
486.2803, 8102.825
486.7625, 8096.133
487.2446, 8070.369
487.7267, 8032.598
488.2088, 8006.345
488.6909, 7994.829
489.1730, 7990.000
489.6552, 7995.532
490.1373, 8003.083
490.6194, 8008.848
491.1015, 8011.208
491.5836, 8006.194
492.0657, 7983.966
492.5479, 7948.291
493.0300, 7929.137
493.5121, 7934.269
493.9942, 7941.771
494.4763, 7940.861
494.9584, 7933.141
495.4406, 7919.156
495.9227, 7891.709
496.4048, 7868.706
496.8869, 7870.277
497.3690, 7889.497
497.8511, 7900.312
498.3333, 7893.255
498.8154, 7878.931
499.2975, 7872.348
499.7796, 7875.261
500.2617, 7878.944
500.7438, 7886.076
501.2260, 7891.242
501.7081, 7887.487
502.1902, 7877.679
502.6723, 7872.473
503.1544, 7879.458
503.6365, 7895.004
504.1187, 7902.226
504.6008, 7891.913
505.0829, 7887.262
505.5650, 7908.433
506.0471, 7924.484
506.5292, 7899.121
507.0114, 7831.619
507.4935, 7766.515
507.9756, 7752.505
508.4577, 7784.637
508.9398, 7807.402
509.4219, 7820.411
509.9041, 7822.666
510.3862, 7799.259
510.8683, 7767.654
511.3504, 7760.889
511.8325, 7803.089
512.3146, 7844.928
512.7968, 7839.689
513.2789, 7800.225
513.7610, 7770.230
514.2431, 7763.136
514.7252, 7766.868
515.2073, 7765.837
515.6895, 7758.141
516.1716, 7754.716
516.6537, 7760.968
517.1358, 7767.044
517.6179, 7765.008
518.1000, 7757.534
518.5822, 7753.051
519.0643, 7756.603
519.5464, 7765.285
520.0285, 7770.033
520.5106, 7768.283
520.9927, 7767.391
521.4749, 7767.537
521.9570, 7769.025
522.4391, 7768.814
522.9212, 7768.699
523.4033, 7777.782
523.8854, 7813.988
524.3676, 7865.920
524.8497, 7884.313
525.3318, 7859.811
525.8139, 7833.422
526.2960, 7821.102
526.7781, 7821.644
527.2603, 7835.798
527.7424, 7871.422
528.2245, 7901.343
528.7066, 7908.277
529.1887, 7900.649
529.6708, 7886.049
530.1530, 7866.013
530.6351, 7864.235
531.1172, 7911.525
531.5993, 8013.810
532.0814, 8070.056
532.5635, 8046.192
533.0457, 8021.804
533.5278, 8025.421
534.0099, 8044.287
534.4920, 8058.291
534.9741, 8059.733
535.4562, 8054.931
535.9384, 8051.663
536.4205, 8048.104
536.9026, 8055.583
537.3847, 8086.906
537.8668, 8116.820
538.3489, 8129.329
538.8311, 8130.567
539.3132, 8138.302
539.7953, 8169.138
540.2774, 8200.275
540.7595, 8196.969
541.2416, 8162.205
541.7238, 8131.242
542.2059, 8116.440
542.6880, 8110.489
543.1701, 8101.792
543.6522, 8088.665
544.1343, 8082.235
544.6165, 8089.842
545.0986, 8100.152
545.5807, 8107.667
546.0628, 8110.330
546.5449, 8104.837
547.0270, 8089.187
547.5092, 8063.979
547.9913, 8028.741
548.4734, 7966.856
548.9555, 7925.335
549.4376, 7922.033
549.9197, 7927.023
550.4019, 7921.449
550.8840, 7903.510
551.3661, 7879.928
551.8482, 7854.022
552.3303, 7826.681
552.8124, 7799.962
553.2946, 7773.179
553.7767, 7749.549
554.2588, 7727.985
554.7409, 7712.486
555.2230, 7711.565
555.7051, 7732.946
556.1873, 7744.714
556.6694, 7732.045
557.1515, 7703.868
557.6336, 7664.111
558.1157, 7616.313
558.5978, 7580.257
559.0800, 7573.572
559.5621, 7593.202
560.0442, 7606.611
560.5263, 7618.542
561.0084, 7617.609
561.4905, 7588.124
561.9727, 7553.387
562.4548, 7537.021
562.9369, 7542.804
563.4190, 7554.854
563.9011, 7560.751
564.3832, 7560.126
564.8654, 7545.475
565.3475, 7505.474
565.8296, 7477.474
566.3117, 7501.224
566.7938, 7543.417
567.2759, 7551.726
567.7581, 7506.635
568.2402, 7458.553
568.7223, 7434.614
569.2044, 7426.800
569.6865, 7423.247
570.1686, 7421.480
570.6508, 7416.195
571.1329, 7400.071
571.6150, 7373.229
572.0971, 7364.513
572.5792, 7387.196
573.0613, 7410.786
573.5435, 7438.570
574.0256, 7459.245
574.5077, 7456.327
574.9898, 7427.241
575.4719, 7391.441
575.9540, 7370.561
576.4362, 7364.101
576.9183, 7357.037
577.4004, 7345.242
577.8825, 7340.350
578.3646, 7357.960
578.8467, 7384.258
579.3289, 7396.300
579.8110, 7383.344
580.2932, 7371.040
580.7753, 7378.943
581.2574, 7397.469
581.7395, 7406.332
582.2216, 7401.591
582.7037, 7399.527
583.1859, 7420.443
583.6680, 7464.666
584.1501, 7466.672
584.6322, 7378.461
585.1143, 7308.459
585.5964, 7286.054
586.0786, 7290.133
586.5607, 7298.358
587.0428, 7304.172
587.5249, 7310.822
588.0070, 7324.879
588.4891, 7345.089
588.9713, 7352.763
589.4534, 7341.763
589.9355, 7331.185
590.4176, 7331.839
590.8997, 7339.680
591.3818, 7349.619
591.8640, 7364.100
592.3461, 7373.698
592.8282, 7371.039
593.3103, 7361.503
593.7924, 7352.006
594.2745, 7344.104
594.7567, 7338.603
595.2388, 7335.626
595.7209, 7335.577
596.2030, 7344.015
596.6851, 7377.952
597.1672, 7399.298
597.6494, 7393.695
598.1315, 7379.375
598.6136, 7375.966
599.0957, 7385.284
599.5778, 7390.740
600.0599, 7369.733
600.5421, 7331.390
601.0242, 7317.236
601.5063, 7331.917
601.9884, 7349.655
602.4705, 7356.937
602.9526, 7360.040
603.4348, 7372.169
603.9169, 7397.160
604.3990, 7419.712
604.8811, 7438.877
605.3632, 7451.169
605.8453, 7449.080
606.3275, 7435.030
606.8096, 7422.143
607.2917, 7419.739
607.7738, 7425.147
608.2559, 7427.711
608.7380, 7427.831
609.2202, 7424.171
609.7023, 7409.571
610.1844, 7396.987
610.6665, 7396.123
611.1486, 7406.234
611.6307, 7419.279
612.1129, 7432.271
612.5950, 7444.207
613.0771, 7453.135
613.5592, 7459.116
614.0413, 7464.878
614.5234, 7472.386
615.0056, 7478.235
615.4877, 7474.828
615.9698, 7456.421
616.4519, 7451.048
616.9340, 7471.577
617.4161, 7494.478
617.8983, 7506.314
618.3804, 7509.947
618.8625, 7513.023
619.3446, 7519.065
619.8267, 7527.615
620.3088, 7540.550
620.7910, 7559.987
621.2731, 7567.298
621.7552, 7553.125
622.2373, 7536.718
622.7194, 7527.168
623.2015, 7524.524
623.6837, 7529.876
624.1658, 7549.566
624.6479, 7568.472
625.1300, 7574.655
625.6121, 7572.672
626.0942, 7572.717
626.5764, 7577.095
627.0585, 7579.354
627.5406, 7571.786
628.0227, 7554.069
628.5048, 7545.019
628.9869, 7553.146
629.4691, 7560.225
629.9512, 7565.104
630.4333, 7566.553
630.9154, 7559.220
631.3975, 7543.774
631.8796, 7535.355
632.3618, 7553.939
632.8439, 7589.000
633.3260, 7608.515
633.8081, 7610.434
634.2902, 7607.575
634.7723, 7603.643
635.2545, 7600.777
635.7366, 7605.438
636.2187, 7622.842
636.7008, 7632.194
637.1829, 7622.662
637.6650, 7610.111
638.1472, 7607.884
638.6293, 7613.420
639.1114, 7615.550
639.5935, 7607.507
640.0756, 7594.297
640.5577, 7589.161
641.0399, 7596.020
641.5220, 7589.279
642.0041, 7545.348
642.4862, 7511.108
642.9683, 7530.426
643.4504, 7585.639
643.9326, 7619.959
644.4147, 7601.574
644.8968, 7576.719
645.3789, 7576.098
645.8610, 7592.634
646.3431, 7615.826
646.8253, 7642.471
647.3074, 7663.116
647.7895, 7667.195
648.2716, 7654.654
648.7537, 7639.048
649.2358, 7609.750
649.7180, 7591.851
650.2001, 7593.071
650.6822, 7605.563
651.1643, 7626.962
651.6464, 7655.094
