##NAMES=Uranophane-alpha
##RRUFFID=R050380
##IDEAL CHEMISTRY=Ca(U^6+^O_2_)_2_(SiO_3_OH)_2_&#183;5H_2_O
##LOCALITY=Grafton County, New Hampshire, USA
##OWNER=RRUFF
##SOURCE=University of Arizona Mineral Museum
##DESCRIPTION=Orange massive coating
##STATUS=The identification of this mineral has been confirmed by X-ray diffraction and chemical analysis
##URL=rruff.info/R050380
##MEASURED CHEMISTRY=(Ca_0.97_Pb_0.03_)(U_1.00_O_2_)_2_(Si_1.00_O_3_OH)_2_Â·5H_2_O
91.87140, 0.0000000E+00
92.35352, 22.75781
92.83563, 21.61913
93.31775, 21.13456
93.79987, 21.41826
94.28198, 22.37159
94.76410, 23.74791
95.24622, 25.55258
95.72833, 27.69242
96.21045, 29.90333
96.69257, 32.18524
97.17468, 34.69245
97.65680, 37.47916
98.13892, 40.55754
98.62103, 44.09356
99.10315, 48.14881
99.58527, 52.68363
100.0674, 57.12545
100.5495, 61.26647
101.0316, 65.68913
101.5137, 70.95733
101.9958, 77.09245
102.4780, 84.11787
102.9601, 92.04489
103.4422, 100.9144
103.9243, 110.4077
104.4064, 120.7420
104.8885, 131.6114
105.3707, 142.7402
105.8528, 154.0875
106.3349, 165.6189
106.8170, 177.2679
107.2991, 189.2253
107.7813, 200.9405
108.2634, 212.3667
108.7455, 223.6005
109.2276, 234.5462
109.7097, 245.1935
110.1918, 255.6594
110.6740, 266.0085
111.1561, 275.9345
111.6382, 286.0897
112.1203, 296.0729
112.6024, 306.1664
113.0845, 317.5326
113.5667, 330.6616
114.0488, 344.9003
114.5309, 359.9679
115.0130, 376.2622
115.4951, 392.8042
115.9772, 409.2296
116.4594, 425.6918
116.9415, 442.7255
117.4236, 461.6254
117.9057, 480.8673
118.3878, 498.7437
118.8699, 514.3646
119.3521, 528.8564
119.8342, 542.9274
120.3163, 556.6043
120.7984, 570.0154
121.2805, 583.7036
121.7626, 597.1500
122.2448, 609.4678
122.7269, 619.8032
123.2090, 629.0204
123.6911, 637.9053
124.1732, 646.5295
124.6553, 654.8669
125.1375, 662.5748
125.6196, 669.8882
126.1017, 677.5502
126.5838, 686.2686
127.0659, 695.5972
127.5480, 704.7072
128.0302, 713.4086
128.5123, 722.1389
128.9944, 731.4586
129.4765, 741.3506
129.9586, 751.6559
130.4407, 762.1616
130.9229, 772.9550
131.4050, 784.5670
131.8871, 797.0850
132.3692, 810.1827
132.8513, 822.8863
133.3334, 833.8627
133.8156, 840.9420
134.2977, 845.3660
134.7798, 850.0582
135.2619, 854.5225
135.7440, 858.5650
136.2261, 862.3000
136.7083, 866.7756
137.1904, 872.2973
137.6725, 877.7414
138.1546, 882.0741
138.6367, 885.2802
139.1188, 887.7535
139.6010, 889.5164
140.0831, 890.5703
140.5652, 891.4647
141.0473, 891.9510
141.5294, 892.6084
142.0115, 894.3344
142.4937, 897.7131
142.9758, 900.7514
143.4579, 902.7739
143.9400, 903.4760
144.4221, 904.4380
144.9042, 905.4472
145.3864, 906.7757
145.8685, 908.9512
146.3506, 912.6848
146.8327, 916.2798
147.3148, 919.2654
147.7969, 921.6441
148.2791, 923.3538
148.7612, 923.8337
149.2433, 923.7073
149.7254, 924.4291
150.2075, 926.7177
150.6896, 929.2419
151.1718, 931.5188
151.6539, 933.4735
152.1360, 935.3337
152.6181, 937.3649
153.1002, 939.3571
153.5823, 940.6619
154.0645, 940.0579
154.5466, 939.6178
155.0287, 940.3072
155.5108, 943.3381
155.9929, 946.1456
156.4750, 948.4671
156.9572, 950.2875
157.4393, 951.4964
157.9214, 951.5801
158.4035, 951.3466
158.8856, 951.3021
159.3677, 951.6840
159.8499, 952.1415
160.3320, 952.3815
160.8141, 952.5109
161.2962, 953.1953
161.7783, 955.2546
162.2604, 957.7037
162.7426, 959.7305
163.2247, 960.8760
163.7068, 961.7518
164.1889, 962.6140
164.6710, 963.4507
165.1531, 964.1533
165.6353, 964.7878
166.1174, 965.2129
166.5995, 965.2750
167.0816, 964.4438
167.5637, 963.5682
168.0458, 963.1685
168.5280, 963.2496
169.0101, 963.5715
169.4922, 964.6840
169.9743, 965.8047
170.4564, 965.8301
170.9385, 962.9936
171.4207, 959.6545
171.9028, 957.9971
172.3849, 958.1635
172.8670, 958.8328
173.3491, 959.2502
173.8312, 959.4434
174.3134, 959.4619
174.7955, 959.2928
175.2776, 958.9830
175.7597, 958.3656
176.2418, 957.3409
176.7239, 956.7877
177.2061, 958.0486
177.6882, 960.5178
178.1703, 962.5157
178.6524, 962.6865
179.1345, 962.0239
179.6166, 962.1722
180.0988, 963.2660
180.5809, 964.9368
181.0630, 966.9313
181.5451, 969.2087
182.0272, 971.5223
182.5093, 973.6338
182.9915, 975.7141
183.4736, 978.1785
183.9557, 981.1212
184.4378, 984.2601
184.9199, 987.2848
185.4020, 990.1647
185.8842, 993.1212
186.3663, 996.3396
186.8484, 999.7366
187.3305, 1002.757
187.8126, 1005.230
188.2947, 1007.753
188.7769, 1011.369
189.2590, 1016.044
189.7411, 1021.005
190.2232, 1026.060
190.7053, 1031.133
191.1874, 1035.745
191.6696, 1039.745
192.1517, 1043.597
192.6338, 1048.418
193.1159, 1054.255
193.5980, 1059.852
194.0801, 1064.257
194.5623, 1067.547
195.0444, 1071.108
195.5265, 1075.016
196.0086, 1079.253
196.4907, 1083.915
196.9728, 1089.058
197.4550, 1094.114
197.9371, 1098.586
198.4192, 1102.458
198.9013, 1106.792
199.3834, 1111.858
199.8655, 1117.230
200.3477, 1121.928
200.8298, 1125.853
201.3119, 1129.507
201.7940, 1133.407
202.2761, 1137.660
202.7582, 1141.051
203.2404, 1143.468
203.7225, 1144.987
204.2046, 1145.573
204.6867, 1144.958
205.1688, 1144.360
205.6509, 1144.953
206.1331, 1147.185
206.6152, 1147.695
207.0973, 1145.957
207.5794, 1142.449
208.0615, 1138.486
208.5436, 1133.927
209.0258, 1129.268
209.5079, 1124.979
209.9900, 1121.292
210.4721, 1116.942
210.9542, 1111.757
211.4363, 1105.853
211.9185, 1099.446
212.4006, 1092.147
212.8827, 1085.110
213.3648, 1079.332
213.8469, 1075.165
214.3290, 1070.698
214.8112, 1065.747
215.2933, 1060.411
215.7754, 1054.851
216.2575, 1048.987
216.7396, 1043.010
217.2217, 1037.066
217.7039, 1031.195
218.1860, 1025.279
218.6681, 1019.342
219.1502, 1013.391
219.6323, 1007.503
220.1144, 1001.722
220.5966, 996.0390
221.0787, 990.4568
221.5608, 984.8638
222.0429, 979.7772
222.5250, 975.4501
223.0071, 971.6517
223.4893, 967.6561
223.9714, 963.2302
224.4535, 958.9449
224.9356, 955.0807
225.4177, 951.8238
225.8998, 948.6457
226.3820, 945.7084
226.8641, 942.7972
227.3462, 939.1393
227.8283, 934.0612
228.3104, 929.2536
228.7925, 925.7248
229.2747, 924.0908
229.7568, 922.2198
230.2389, 919.9405
230.7210, 917.3632
231.2031, 914.9781
231.6852, 913.1218
232.1674, 910.9551
232.6495, 907.9683
233.1316, 903.4962
233.6137, 899.6788
234.0958, 896.6030
234.5779, 894.2466
235.0601, 892.6593
235.5422, 892.1618
236.0243, 891.9532
236.5064, 891.8219
236.9885, 892.3730
237.4706, 891.5342
237.9528, 888.3708
238.4349, 884.0807
238.9170, 881.8381
239.3991, 882.9511
239.8812, 884.1511
240.3633, 883.9572
240.8455, 881.4918
241.3276, 879.8526
241.8097, 879.4976
242.2918, 879.8203
242.7739, 879.4246
243.2560, 877.6852
243.7382, 876.2027
244.2203, 875.7087
244.7024, 876.7873
245.1845, 877.2045
245.6666, 876.7664
246.1487, 875.7635
246.6309, 874.6360
247.1130, 872.9449
247.5951, 871.8514
248.0772, 871.9267
248.5593, 873.6201
249.0414, 874.8265
249.5236, 875.4498
250.0057, 875.6358
250.4878, 875.5215
250.9699, 874.6242
251.4520, 874.2883
251.9341, 875.1233
252.4163, 877.4896
252.8984, 879.2402
253.3805, 880.2458
253.8626, 880.7370
254.3447, 880.9180
254.8268, 880.3820
255.3090, 880.3917
255.7911, 881.5302
256.2732, 884.0284
256.7553, 885.7185
257.2374, 886.3397
257.7195, 886.4135
258.2017, 886.5256
258.6838, 886.5906
259.1659, 886.8975
259.6480, 887.5311
260.1301, 888.4914
260.6122, 889.6809
261.0944, 891.2105
261.5765, 892.8449
262.0586, 894.3542
262.5407, 895.7265
263.0228, 897.0242
263.5049, 898.2971
263.9871, 899.5490
264.4692, 900.4022
264.9513, 900.6074
265.4334, 900.8330
265.9155, 901.7521
266.3976, 903.5258
266.8798, 905.4180
267.3619, 907.4119
267.8440, 909.4511
268.3261, 910.8699
268.8082, 911.4550
269.2903, 911.8583
269.7725, 912.5819
270.2546, 913.6581
270.7367, 914.8302
271.2188, 916.0201
271.7009, 917.2659
272.1830, 918.8259
272.6652, 920.7808
273.1473, 922.7850
273.6294, 924.7299
274.1115, 926.6823
274.5936, 928.0106
275.0757, 928.4119
275.5579, 928.3215
276.0400, 929.1539
276.5221, 931.1693
277.0042, 933.0227
277.4863, 933.6790
277.9684, 933.0016
278.4506, 933.0723
278.9327, 934.3054
279.4148, 936.0125
279.8969, 936.8177
280.3790, 936.6986
280.8611, 935.8915
281.3433, 934.0395
281.8254, 931.1588
282.3075, 929.7399
282.7896, 930.2095
283.2717, 931.3680
283.7538, 931.3120
284.2360, 930.0128
284.7181, 928.3837
285.2002, 926.6600
285.6823, 924.8820
286.1644, 923.4828
286.6465, 922.5511
287.1287, 921.7051
287.6108, 920.4873
288.0929, 918.9013
288.5750, 917.0827
289.0571, 914.6908
289.5392, 912.0814
290.0214, 911.0103
290.5035, 911.6351
290.9856, 912.5132
291.4677, 912.0440
291.9498, 910.4218
292.4319, 908.8571
292.9141, 907.6920
293.3962, 906.8309
293.8783, 906.1755
294.3604, 905.7399
294.8425, 905.1594
295.3246, 903.9017
295.8068, 902.2034
296.2889, 900.8397
296.7710, 899.9417
297.2531, 899.5234
297.7352, 899.8242
298.2173, 900.7678
298.6995, 901.7170
299.1816, 902.1862
299.6637, 902.3175
300.1458, 902.4297
300.6279, 902.6361
301.1100, 902.6874
301.5922, 901.9664
302.0743, 900.6938
302.5564, 899.8005
303.0385, 900.2942
303.5206, 901.3305
304.0027, 901.6347
304.4849, 900.9168
304.9670, 899.9353
305.4491, 899.4951
305.9312, 899.3671
306.4133, 899.0040
306.8954, 898.1987
307.3776, 897.0123
307.8597, 895.3577
308.3418, 893.1777
308.8239, 891.1682
309.3060, 890.2802
309.7881, 889.8392
310.2703, 888.8044
310.7524, 886.2608
311.2345, 883.3365
311.7166, 880.8729
312.1987, 878.8688
312.6808, 876.8395
313.1630, 874.2327
313.6451, 871.5295
314.1272, 869.2308
314.6093, 868.2903
315.0914, 867.0540
315.5735, 864.2023
316.0557, 860.1107
316.5378, 856.8024
317.0199, 856.1990
317.5020, 856.0970
317.9841, 854.8099
318.4662, 851.1484
318.9484, 847.5242
319.4305, 844.7020
319.9126, 842.5181
320.3947, 840.5391
320.8768, 839.3918
321.3589, 837.8547
321.8411, 834.9868
322.3232, 829.5683
322.8053, 825.6192
323.2874, 824.9818
323.7695, 826.0810
324.2516, 826.4227
324.7338, 825.4255
325.2159, 823.7947
325.6980, 821.5261
326.1801, 818.3619
326.6622, 815.7084
327.1443, 813.6870
327.6265, 812.1909
328.1086, 811.1208
328.5907, 811.3380
329.0728, 811.0247
329.5549, 809.6674
330.0370, 807.2482
330.5192, 805.3173
331.0013, 804.2507
331.4834, 803.3450
331.9655, 802.0790
332.4476, 800.0654
332.9297, 798.3469
333.4119, 797.0511
333.8940, 796.1198
334.3761, 795.4034
334.8582, 795.2013
335.3403, 794.7501
335.8224, 793.5295
336.3046, 791.0605
336.7867, 789.2488
337.2688, 788.3177
337.7509, 787.8972
338.2330, 787.2377
338.7151, 786.3083
339.1973, 785.2569
339.6794, 784.1241
340.1615, 782.9249
340.6436, 781.6370
341.1257, 780.2371
341.6078, 778.8661
342.0900, 777.7244
342.5721, 776.8563
343.0542, 776.0320
343.5363, 775.1414
344.0184, 774.2693
344.5005, 773.8281
344.9827, 773.8750
345.4648, 773.9929
345.9469, 773.8309
346.4290, 773.3990
346.9111, 772.7626
347.3932, 771.7582
347.8754, 770.7579
348.3575, 770.4902
348.8396, 770.9163
349.3217, 771.7500
349.8038, 773.3120
350.2859, 775.0943
350.7681, 775.7343
351.2502, 774.8932
351.7323, 773.5557
352.2144, 772.7037
352.6965, 772.2594
353.1786, 772.0144
353.6608, 772.1266
354.1429, 772.2736
354.6250, 771.9123
355.1071, 771.0123
355.5892, 770.2850
356.0714, 770.4809
356.5535, 771.1770
357.0356, 771.7422
357.5177, 771.9244
357.9998, 771.9276
358.4819, 771.7033
358.9641, 771.3352
359.4462, 771.3021
359.9283, 772.2258
360.4104, 773.3847
360.8925, 774.1176
361.3746, 773.8820
361.8568, 773.8651
362.3389, 774.7070
362.8210, 776.1120
363.3031, 777.4354
363.7852, 778.5211
364.2673, 779.4310
364.7495, 780.1678
365.2316, 780.6923
365.7137, 781.1855
366.1958, 781.7698
366.6779, 782.3062
367.1600, 782.6357
367.6422, 782.0823
368.1243, 782.0049
368.6064, 782.9337
369.0885, 784.9447
369.5706, 786.4727
370.0527, 787.2603
370.5349, 787.7845
371.0170, 788.3793
371.4991, 789.2786
371.9812, 789.8177
372.4633, 789.5802
372.9454, 788.9728
373.4276, 789.5617
373.9097, 792.1701
374.3918, 794.5627
374.8739, 795.5009
375.3560, 794.5093
375.8381, 794.3070
376.3203, 795.0884
376.8024, 796.3998
377.2845, 797.4589
377.7666, 798.1114
378.2487, 799.3157
378.7308, 801.6025
379.2130, 804.7596
379.6951, 807.1803
380.1772, 808.8376
380.6593, 809.9760
381.1414, 810.7229
381.6235, 811.1044
382.1057, 811.3825
382.5878, 811.4921
383.0699, 811.6866
383.5520, 812.5678
384.0341, 814.0849
384.5162, 815.6243
384.9984, 816.8671
385.4805, 817.8561
385.9626, 818.6689
386.4447, 819.2960
386.9268, 819.8317
387.4089, 820.3838
387.8911, 820.9167
388.3732, 821.3409
388.8553, 821.6119
389.3374, 821.7538
389.8195, 821.7374
390.3016, 821.5718
390.7838, 821.4095
391.2659, 821.4338
391.7480, 821.4780
392.2301, 821.3552
392.7122, 820.8518
393.1943, 820.4161
393.6765, 820.5930
394.1586, 821.0655
394.6407, 820.9188
395.1228, 819.0429
395.6049, 817.1205
396.0870, 816.0558
396.5692, 816.2568
397.0513, 816.3649
397.5334, 816.4103
398.0155, 816.1291
398.4976, 815.1943
398.9797, 812.6050
399.4619, 810.3744
399.9440, 809.0071
400.4261, 808.4899
400.9082, 807.7599
401.3903, 806.7219
401.8724, 805.5375
402.3546, 804.3333
402.8367, 803.3057
403.3188, 801.7828
403.8009, 799.3957
404.2830, 796.6360
404.7651, 794.8575
405.2473, 794.4180
405.7294, 793.9983
406.2115, 793.0338
406.6936, 791.5191
407.1757, 790.0837
407.6578, 788.7465
408.1400, 787.4430
408.6221, 786.1818
409.1042, 784.9572
409.5863, 783.3467
410.0684, 781.0643
410.5505, 778.4650
411.0327, 776.2922
411.5148, 774.5287
411.9969, 772.9111
412.4790, 771.1220
412.9611, 769.3251
413.4432, 767.9201
413.9254, 766.9410
414.4075, 766.3891
414.8896, 766.8334
415.3717, 767.7351
415.8538, 767.8105
416.3359, 765.6916
416.8181, 762.9537
417.3002, 760.9960
417.7823, 759.8124
418.2644, 758.9033
418.7465, 758.2900
419.2286, 757.6231
419.7108, 756.5433
420.1929, 754.5173
420.6750, 752.6224
421.1571, 751.2466
421.6392, 750.2942
422.1213, 749.5643
422.6035, 749.3285
423.0856, 749.0256
423.5677, 748.3107
424.0498, 746.9185
424.5319, 746.0300
425.0140, 746.3857
425.4962, 746.9925
425.9783, 746.8206
426.4604, 745.0762
426.9425, 743.7568
427.4246, 743.3383
427.9067, 743.6566
428.3889, 743.5078
428.8710, 742.6100
429.3531, 741.7485
429.8352, 741.3986
430.3173, 741.6839
430.7994, 741.8140
431.2816, 741.6700
431.7637, 741.4973
432.2458, 741.8636
432.7279, 742.8163
433.2100, 743.3404
433.6921, 742.9230
434.1743, 741.8083
434.6564, 740.9324
435.1385, 740.2886
435.6206, 739.6347
436.1027, 738.5208
436.5848, 737.2270
437.0670, 736.6180
437.5491, 737.0587
438.0312, 737.7396
438.5133, 737.7650
438.9954, 737.2947
439.4775, 736.7566
439.9597, 736.1594
440.4418, 735.7452
440.9239, 735.9218
441.4060, 736.7188
441.8881, 737.2775
442.3702, 737.0662
442.8524, 736.3972
443.3345, 735.5397
443.8166, 733.6495
444.2987, 732.6472
444.7808, 733.7892
445.2629, 736.3449
445.7451, 738.2000
446.2272, 738.4702
446.7093, 738.3029
447.1914, 737.9932
447.6735, 737.3562
448.1556, 737.2383
448.6378, 737.9876
449.1199, 739.0177
449.6020, 739.7554
450.0841, 740.1246
450.5662, 740.3207
451.0483, 740.2697
451.5305, 740.0754
452.0126, 740.1873
452.4947, 740.6304
452.9768, 741.3044
453.4589, 742.1846
453.9410, 743.2791
454.4232, 744.5436
454.9053, 746.0885
455.3874, 747.4694
455.8695, 747.8602
456.3516, 747.4294
456.8337, 747.4703
457.3159, 748.7433
457.7980, 750.4460
458.2801, 750.9464
458.7622, 750.4120
459.2443, 750.0186
459.7264, 750.6160
460.2086, 751.8334
460.6907, 753.2981
461.1728, 755.0543
461.6549, 756.6279
462.1370, 757.5596
462.6191, 758.1025
463.1013, 758.5994
463.5834, 759.1348
464.0655, 759.6914
464.5476, 760.1853
465.0297, 760.6384
465.5118, 761.2952
465.9940, 762.6120
466.4761, 763.8355
466.9582, 764.4952
467.4403, 763.9686
467.9224, 763.9286
468.4045, 764.6102
468.8867, 765.6981
469.3688, 766.8310
469.8509, 768.3245
470.3330, 769.2248
470.8151, 769.0367
471.2972, 767.9378
471.7794, 767.9047
472.2615, 769.3288
472.7436, 770.7729
473.2257, 771.0744
473.7078, 770.2107
474.1899, 769.8878
474.6721, 770.4064
475.1542, 771.0114
475.6363, 770.4196
476.1184, 768.8025
476.6005, 767.2822
477.0826, 766.4637
477.5648, 765.9149
478.0469, 764.7564
478.5290, 763.0682
479.0111, 761.5777
479.4932, 761.0787
479.9753, 760.9453
480.4575, 760.3787
480.9396, 759.0930
481.4217, 757.8457
481.9038, 757.2421
482.3859, 756.9575
482.8680, 756.5233
483.3502, 755.5014
483.8323, 754.5693
484.3144, 754.2239
484.7965, 754.3834
485.2786, 753.8514
485.7607, 751.5290
486.2429, 749.1909
486.7250, 747.7333
487.2071, 747.5995
487.6892, 747.4235
488.1713, 747.1462
488.6534, 746.8798
489.1356, 746.8663
489.6177, 747.3387
490.0998, 747.4476
490.5819, 747.0920
491.0640, 746.2256
491.5461, 744.2517
492.0283, 740.9656
492.5104, 738.0899
492.9925, 737.1998
493.4746, 737.8776
493.9567, 737.9582
494.4388, 737.2045
494.9210, 736.2490
495.4031, 735.7570
495.8852, 735.6097
496.3673, 735.5084
496.8494, 735.2717
497.3315, 735.0715
497.8137, 735.1572
498.2958, 735.4406
498.7779, 735.5882
499.2600, 735.3882
499.7421, 735.0117
500.2242, 734.5781
500.7064, 734.1081
501.1885, 733.5616
501.6706, 732.7994
502.1527, 732.0330
502.6348, 731.4899
503.1169, 731.4911
503.5991, 731.3918
504.0812, 731.0426
504.5633, 730.5450
505.0454, 730.3088
505.5275, 730.6520
506.0096, 730.7142
506.4918, 730.0577
506.9739, 728.5956
507.4560, 727.3338
507.9381, 726.2438
508.4202, 725.4178
508.9023, 725.0126
509.3845, 725.0086
509.8666, 725.0598
510.3487, 725.0405
510.8308, 725.1656
511.3129, 726.0182
511.7950, 727.4283
512.2772, 728.5889
512.7593, 728.9487
513.2414, 728.8939
513.7235, 728.8489
514.2056, 728.8245
514.6877, 728.7906
515.1699, 728.6734
515.6520, 728.5583
516.1341, 728.5499
516.6162, 728.8067
517.0983, 728.8835
517.5804, 728.3065
518.0626, 727.5104
518.5447, 727.2131
519.0268, 727.9612
519.5089, 728.7493
519.9910, 729.2902
520.4731, 729.6130
520.9553, 730.2355
521.4374, 731.4638
521.9195, 732.5348
522.4016, 732.8622
522.8837, 732.1689
523.3658, 732.2791
523.8480, 733.3721
524.3301, 734.9504
524.8122, 736.6286
525.2943, 738.3610
525.7764, 739.2233
526.2585, 738.5333
526.7407, 737.3436
527.2228, 737.5433
527.7049, 739.0090
528.1870, 740.9754
528.6691, 743.4849
529.1512, 745.9971
529.6334, 747.7585
530.1155, 748.7034
530.5976, 749.6156
531.0797, 750.9886
531.5618, 752.5492
532.0439, 753.9990
532.5261, 755.0675
533.0082, 756.3038
533.4903, 758.1158
533.9724, 760.1693
534.4545, 761.7984
534.9366, 762.6302
535.4188, 763.3762
535.9009, 764.1100
536.3830, 764.8447
536.8651, 765.8992
537.3472, 767.3140
537.8293, 768.9928
538.3115, 771.1357
538.7936, 773.8536
539.2757, 775.2606
539.7578, 774.8845
540.2399, 774.2662
540.7220, 776.0516
541.2042, 779.6986
541.6863, 782.1757
542.1684, 782.1674
542.6505, 780.9965
543.1326, 780.3154
543.6147, 780.0587
544.0969, 779.9846
544.5790, 780.4246
545.0611, 780.6638
545.5432, 779.8888
546.0253, 777.9807
546.5074, 776.3023
546.9896, 776.0046
547.4717, 775.8633
547.9538, 774.8724
548.4359, 771.8564
548.9180, 769.3742
549.4001, 768.0521
549.8823, 767.2452
550.3644, 765.8517
550.8465, 763.5942
551.3286, 761.2452
551.8107, 758.9356
552.2928, 756.6774
552.7750, 754.6285
553.2571, 752.7905
553.7392, 751.1090
554.2213, 749.6591
554.7034, 748.3782
555.1855, 746.7937
555.6677, 744.8533
556.1498, 742.7981
556.6319, 740.6476
557.1140, 738.6068
557.5961, 737.1726
558.0782, 736.7229
558.5604, 736.5098
559.0425, 736.0910
559.5246, 735.4506
560.0067, 734.5518
560.4888, 733.0737
560.9709, 731.6184
561.4531, 730.7026
561.9352, 730.3284
562.4173, 729.2560
562.8994, 725.9352
563.3815, 723.0205
563.8636, 722.0108
564.3458, 724.0648
564.8279, 724.8926
565.3100, 724.1602
565.7921, 722.6458
566.2742, 721.3259
566.7563, 720.2295
567.2385, 718.9558
567.7206, 717.2725
568.2027, 715.5634
568.6848, 714.8814
569.1669, 715.0958
569.6490, 715.3074
570.1312, 714.9668
570.6133, 714.3604
571.0954, 713.9294
571.5775, 713.6608
572.0596, 713.3193
572.5417, 712.6788
573.0239, 711.9319
573.5060, 711.2142
573.9881, 710.4521
574.4702, 709.9764
574.9523, 710.1304
575.4344, 710.5371
575.9166, 710.7155
576.3987, 710.3671
576.8808, 710.1635
577.3629, 710.3427
577.8450, 710.6988
578.3271, 710.4919
578.8093, 709.5298
579.2914, 708.5511
579.7735, 707.7982
580.2556, 707.2756
580.7377, 707.0528
581.2198, 707.1412
581.7020, 707.3153
582.1841, 707.5647
582.6662, 707.7330
583.1483, 707.3351
583.6304, 706.2119
584.1125, 705.0701
584.5947, 704.7100
585.0768, 704.6994
585.5589, 704.3994
586.0410, 703.2509
586.5231, 702.1857
587.0052, 701.7843
