##NAMES=Uranophane-alpha
##RRUFFID=R050380
##IDEAL CHEMISTRY=Ca(U^6+^O_2_)_2_(SiO_3_OH)_2_&#183;5H_2_O
##LOCALITY=Grafton County, New Hampshire, USA
##OWNER=RRUFF
##SOURCE=University of Arizona Mineral Museum
##DESCRIPTION=Orange massive coating
##STATUS=The identification of this mineral has been confirmed by X-ray diffraction and chemical analysis
##URL=rruff.info/R050380
##MEASURED CHEMISTRY=(Ca_0.97_Pb_0.03_)(U_1.00_O_2_)_2_(Si_1.00_O_3_OH)_2_Â·5H_2_O
92.52344, 284.8571
93.00555, 284.1507
93.48767, 284.4925
93.96979, 291.3110
94.45190, 297.9693
94.93402, 303.5152
95.41614, 304.1707
95.89825, 301.4282
96.38037, 297.8419
96.86249, 293.5975
97.34460, 289.4108
97.82672, 285.6297
98.30884, 282.0429
98.79095, 278.5307
99.27307, 274.8221
99.75519, 271.0095
100.2373, 268.0613
100.7194, 266.0502
101.2015, 264.1152
101.6837, 262.0953
102.1658, 260.1281
102.6479, 258.0294
103.1300, 255.6772
103.6121, 254.0773
104.0942, 254.5832
104.5764, 256.2815
105.0585, 257.9176
105.5406, 258.9529
106.0227, 259.5809
106.5048, 260.4004
106.9869, 261.5144
107.4691, 262.5184
107.9512, 263.1364
108.4333, 263.4872
108.9154, 263.8702
109.3975, 264.5440
109.8796, 265.5428
110.3618, 266.5500
110.8439, 267.4026
111.3260, 268.3775
111.8081, 269.8301
112.2902, 271.6710
112.7723, 273.3823
113.2544, 274.1865
113.7366, 273.3299
114.2187, 272.9128
114.7008, 273.1618
115.1829, 273.6873
115.6650, 274.1736
116.1471, 274.5097
116.6293, 274.7294
117.1114, 274.8989
117.5935, 275.0159
118.0756, 275.0930
118.5577, 275.2093
119.0398, 275.2924
119.5220, 275.1284
120.0041, 274.5020
120.4862, 273.6659
120.9683, 273.1893
121.4504, 273.2006
121.9325, 273.3374
122.4147, 273.3843
122.8968, 273.3480
123.3789, 273.1228
123.8610, 272.6360
124.3431, 271.9214
124.8252, 270.9239
125.3074, 269.5231
125.7895, 267.9538
126.2716, 266.7069
126.7537, 265.8998
127.2358, 265.2556
127.7179, 264.7260
128.2001, 264.2608
128.6822, 263.8095
129.1643, 263.3692
129.6464, 262.9210
130.1285, 262.2392
130.6107, 261.0499
131.0928, 259.8683
131.5749, 258.7611
132.0570, 257.7611
132.5391, 256.8678
133.0212, 256.0609
133.5034, 255.2917
133.9855, 255.0626
134.4676, 255.8228
134.9497, 256.6472
135.4318, 257.0556
135.9139, 256.9923
136.3960, 256.6372
136.8782, 256.1002
137.3603, 255.2944
137.8424, 254.8892
138.3245, 255.1491
138.8066, 255.7422
139.2887, 256.3355
139.7709, 256.8823
140.2530, 257.3192
140.7351, 257.5556
141.2172, 257.6165
141.6993, 257.5387
142.1814, 257.2854
142.6636, 256.8922
143.1457, 256.4706
143.6278, 255.9624
144.1099, 255.5384
144.5920, 255.3313
145.0741, 255.3422
145.5563, 255.4491
146.0384, 255.5664
146.5205, 255.6969
147.0026, 255.8170
147.4847, 255.9198
147.9668, 256.0138
148.4490, 256.0908
148.9311, 256.1522
149.4132, 256.2254
149.8953, 256.3369
150.3774, 256.4369
150.8595, 256.6989
151.3417, 257.1750
151.8238, 257.7568
152.3059, 258.3806
152.7880, 259.0141
153.2701, 259.6445
153.7522, 260.2314
154.2344, 260.6569
154.7165, 261.1693
155.1986, 261.8544
155.6807, 262.6109
156.1628, 263.2542
156.6449, 263.6654
157.1271, 263.9848
157.6092, 264.8252
158.0913, 266.4716
158.5734, 268.2071
159.0555, 270.0424
159.5376, 271.8463
160.0198, 273.2311
160.5019, 273.8682
160.9840, 273.9691
161.4661, 274.3864
161.9482, 275.2489
162.4303, 276.2708
162.9125, 277.3322
163.3946, 278.4280
163.8767, 279.4318
164.3588, 280.2581
164.8409, 280.9289
165.3230, 281.5058
165.8052, 282.0603
166.2873, 282.4632
166.7694, 282.4727
167.2515, 281.9794
167.7336, 281.4643
168.2157, 281.5052
168.6979, 281.5775
169.1800, 280.9810
169.6621, 279.2620
170.1442, 276.7964
170.6263, 274.5586
171.1084, 272.3355
171.5906, 270.7794
172.0727, 270.3012
172.5548, 270.4576
173.0369, 270.6623
173.5190, 270.5858
174.0011, 270.2418
174.4833, 269.7394
174.9654, 268.3620
175.4475, 267.5704
175.9296, 267.8784
176.4117, 268.9999
176.8938, 270.4146
177.3760, 271.7577
177.8581, 273.0282
178.3402, 274.2617
178.8223, 275.3320
179.3044, 276.4879
179.7865, 277.7438
180.2687, 279.1454
180.7508, 280.7997
181.2329, 282.8214
181.7150, 285.2639
182.1971, 287.5636
182.6792, 289.2598
183.1614, 291.2003
183.6435, 293.8996
184.1256, 297.3616
184.6077, 301.2784
185.0898, 305.5085
185.5719, 310.0591
186.0541, 314.2458
186.5362, 317.7644
187.0183, 321.0720
187.5004, 324.5972
187.9825, 328.4046
188.4646, 332.1823
188.9468, 335.4774
189.4289, 338.4459
189.9110, 341.8625
190.3931, 346.0750
190.8752, 350.7803
191.3573, 355.6447
191.8395, 360.7585
192.3216, 365.7124
192.8037, 369.9044
193.2858, 373.6557
193.7679, 377.7538
194.2500, 382.8543
194.7322, 388.5948
195.2143, 393.8046
195.6964, 397.9957
196.1785, 402.3688
196.6606, 407.6933
197.1427, 413.6801
197.6249, 419.6511
198.1070, 425.1920
198.5891, 430.3328
199.0712, 435.3624
199.5533, 440.0439
200.0354, 444.8883
200.5176, 450.3279
200.9997, 456.0694
201.4818, 461.4786
201.9639, 466.0447
202.4460, 469.7624
202.9281, 473.0132
203.4103, 475.3922
203.8924, 477.6143
204.3745, 480.1794
204.8566, 482.8131
205.3387, 484.7780
205.8208, 485.4038
206.3030, 484.5827
206.7851, 483.3896
207.2672, 482.3456
207.7493, 480.5180
208.2314, 477.3246
208.7135, 472.9424
209.1957, 468.0013
209.6778, 463.0582
210.1599, 458.1641
210.6420, 452.8619
211.1241, 447.4025
211.6062, 441.4392
212.0884, 434.5965
212.5705, 427.0042
213.0526, 419.1648
213.5347, 411.4624
214.0168, 403.9202
214.4989, 396.4518
214.9811, 389.0162
215.4632, 381.6582
215.9453, 374.4869
216.4274, 367.4678
216.9095, 360.3596
217.3916, 352.8627
217.8737, 344.9600
218.3559, 337.5658
218.8380, 330.7846
219.3201, 324.3960
219.8022, 318.1992
220.2843, 312.1797
220.7664, 306.4081
221.2486, 301.0407
221.7307, 295.9754
222.2128, 290.9734
222.6949, 285.8654
223.1770, 280.8637
223.6591, 276.3090
224.1413, 272.2589
224.6234, 268.2766
225.1055, 264.0435
225.5876, 259.6707
226.0697, 255.3462
226.5518, 250.9130
227.0340, 246.6772
227.5161, 243.1835
227.9982, 240.5775
228.4803, 238.2111
228.9624, 235.8204
229.4445, 233.4242
229.9267, 231.0082
230.4088, 228.5673
230.8909, 226.1298
231.3730, 223.7747
231.8551, 221.5168
232.3372, 219.3203
232.8194, 217.1034
233.3015, 214.9352
233.7836, 212.8905
234.2657, 211.0011
234.7478, 209.2519
235.2299, 207.5703
235.7121, 205.7935
236.1942, 204.4407
236.6763, 203.8926
237.1584, 203.6794
237.6405, 203.3485
238.1227, 202.7198
238.6048, 201.8061
239.0869, 200.5816
239.5690, 198.6756
240.0511, 197.1183
240.5332, 196.1267
241.0154, 195.5042
241.4975, 195.1141
241.9796, 194.8994
242.4617, 194.8055
242.9438, 194.7091
243.4259, 194.6680
243.9081, 194.5210
244.3902, 194.0031
244.8723, 193.4987
245.3544, 193.4821
245.8365, 194.1225
246.3186, 195.0430
246.8008, 195.3665
247.2829, 194.5002
247.7650, 193.8577
248.2471, 193.5988
248.7292, 193.5241
249.2113, 193.4674
249.6935, 193.3671
250.1756, 193.2451
250.6577, 193.1453
251.1398, 193.0977
251.6219, 193.0266
252.1040, 192.8972
252.5862, 192.7632
253.0683, 192.7041
253.5504, 192.7348
254.0325, 192.7540
254.5146, 192.5732
254.9967, 191.8753
255.4789, 191.6065
255.9610, 191.9494
256.4431, 192.6086
256.9252, 193.4094
257.4073, 194.2940
257.8894, 195.1618
258.3716, 195.8733
258.8537, 196.3529
259.3358, 196.8561
259.8179, 197.4917
260.3000, 198.0895
260.7821, 198.3966
261.2643, 198.3949
261.7464, 198.4500
262.2285, 198.9641
262.7106, 200.0449
263.1927, 201.2561
263.6748, 202.7703
264.1570, 204.2951
264.6391, 205.5694
265.1212, 206.5690
265.6033, 207.4450
266.0854, 208.3393
266.5675, 209.2416
267.0497, 209.9521
267.5318, 210.2559
268.0139, 210.5079
268.4960, 210.8719
268.9781, 211.3803
269.4602, 212.2969
269.9424, 214.0618
270.4245, 216.4831
270.9066, 218.1880
271.3887, 218.4451
271.8708, 218.5122
272.3529, 219.3907
272.8351, 221.0396
273.3172, 222.7803
273.7993, 224.2758
274.2814, 225.5365
274.7635, 226.6899
275.2456, 227.6275
275.7278, 228.5759
276.2099, 229.8130
276.6920, 231.2811
277.1741, 232.4683
277.6562, 232.9569
278.1383, 233.1177
278.6205, 233.7908
279.1026, 235.3122
279.5847, 236.6329
280.0668, 236.8423
280.5489, 236.1317
281.0310, 235.6626
281.5132, 235.9881
281.9953, 236.5934
282.4774, 236.7629
282.9595, 236.4650
283.4416, 235.9436
283.9237, 235.3582
284.4059, 234.6766
284.8880, 233.6998
285.3701, 232.1900
285.8522, 230.6369
286.3343, 229.6263
286.8164, 229.1284
287.2986, 228.5536
287.7807, 227.5884
288.2628, 226.2979
288.7449, 224.7717
289.2270, 222.6638
289.7091, 220.9972
290.1913, 221.1648
290.6734, 222.6030
291.1555, 223.2156
291.6376, 221.3171
292.1197, 217.9715
292.6018, 215.7499
293.0840, 215.1150
293.5661, 214.8160
294.0482, 213.9749
294.5303, 212.8725
295.0124, 212.0280
295.4945, 211.8028
295.9767, 211.8752
296.4588, 211.6795
296.9409, 211.1773
297.4230, 210.5363
297.9051, 209.6031
298.3872, 208.6486
298.8694, 208.0384
299.3515, 207.9665
299.8336, 208.1210
300.3157, 208.0827
300.7978, 207.8132
301.2799, 207.5807
301.7621, 207.5155
302.2442, 207.5208
302.7263, 207.5321
303.2084, 207.5453
303.6905, 207.5170
304.1726, 207.4612
304.6548, 207.3869
305.1369, 207.0418
305.6190, 206.1832
306.1011, 205.1586
306.5832, 204.2189
307.0653, 203.3826
307.5475, 202.5871
308.0296, 201.8285
308.5117, 201.0972
308.9938, 200.2368
309.4759, 199.1633
309.9580, 198.0272
310.4402, 197.0608
310.9223, 196.1718
311.4044, 195.0022
311.8865, 193.0411
312.3686, 190.5508
312.8507, 188.7107
313.3329, 187.8641
313.8150, 187.1192
314.2971, 186.0440
314.7792, 184.7097
315.2613, 183.2197
315.7434, 181.5537
316.2256, 179.7963
316.7077, 178.1076
317.1898, 176.4489
317.6719, 174.9304
318.1540, 173.6496
318.6361, 172.5065
319.1183, 171.4315
319.6004, 170.4287
320.0825, 169.4023
320.5646, 168.1728
321.0467, 166.6930
321.5288, 165.3159
322.0110, 164.3749
322.4931, 163.4412
322.9752, 162.1408
323.4573, 160.4147
323.9394, 158.5806
324.4215, 156.8599
324.9037, 155.2637
325.3858, 153.9059
325.8679, 153.0423
326.3500, 152.1936
326.8321, 150.9555
327.3142, 149.3824
327.7964, 147.8653
328.2785, 146.6665
328.7606, 145.7454
329.2427, 144.9228
329.7248, 144.2978
330.2069, 143.5847
330.6891, 142.6218
331.1712, 141.4583
331.6533, 140.1757
332.1354, 138.7627
332.6175, 137.2783
333.0996, 135.8073
333.5818, 134.2969
334.0639, 132.9501
334.5460, 132.0136
335.0281, 131.2516
335.5102, 130.3990
335.9923, 129.3406
336.4745, 128.2699
336.9566, 127.4103
337.4387, 126.7741
337.9208, 126.2030
338.4029, 125.7937
338.8850, 125.3118
339.3671, 124.4587
339.8492, 123.1782
340.3314, 121.9482
340.8135, 121.1943
341.2956, 120.8333
341.7777, 120.3726
342.2598, 119.6641
342.7419, 118.9251
343.2241, 118.3205
343.7062, 117.8377
344.1883, 117.4438
344.6704, 117.2407
345.1525, 117.0968
345.6346, 116.6622
346.1168, 115.8161
346.5989, 115.0143
347.0810, 114.6404
347.5631, 114.5378
348.0452, 114.4591
348.5273, 114.2968
349.0095, 114.1730
349.4916, 114.2823
349.9737, 114.6312
350.4558, 114.9237
350.9379, 115.0796
351.4200, 115.0483
351.9022, 114.7368
352.3843, 114.0264
352.8664, 113.3576
353.3485, 112.9953
353.8306, 112.9125
354.3127, 113.0593
354.7949, 113.5530
355.2770, 114.0538
355.7591, 114.0579
356.2412, 113.5790
356.7233, 113.1870
357.2054, 113.0826
357.6876, 113.1918
358.1697, 113.4428
358.6518, 113.8467
359.1339, 114.2473
359.6160, 114.4649
360.0981, 114.5472
360.5803, 114.7466
361.0624, 115.2914
361.5445, 115.8149
362.0266, 115.9007
362.5087, 115.6122
362.9908, 115.4905
363.4730, 115.9096
363.9551, 116.6632
364.4372, 117.0883
364.9193, 116.9265
365.4014, 116.8898
365.8835, 117.3899
366.3657, 118.2082
366.8478, 118.9168
367.3299, 119.3737
367.8120, 119.6678
368.2941, 119.8962
368.7762, 120.0092
369.2584, 120.2725
369.7405, 120.8199
370.2226, 121.4758
370.7047, 122.0987
371.1868, 122.6659
371.6689, 123.1507
372.1511, 123.4966
372.6332, 123.6981
373.1153, 124.1164
373.5974, 124.8513
374.0795, 125.6840
374.5616, 126.6467
375.0438, 127.6315
375.5259, 128.3632
376.0080, 128.6518
376.4901, 128.6618
376.9722, 128.9775
377.4543, 129.8190
377.9365, 130.6723
378.4186, 131.5529
378.9007, 132.3898
379.3828, 133.0321
379.8649, 133.4575
380.3470, 133.8899
380.8292, 134.6657
381.3113, 135.9831
381.7934, 137.0592
382.2755, 137.7986
382.7576, 138.4166
383.2397, 138.9993
383.7219, 139.5677
384.2040, 140.1200
384.6861, 140.6543
385.1682, 141.1712
385.6503, 141.6580
386.1324, 141.9917
386.6146, 142.4353
387.0967, 143.2262
387.5788, 144.0859
388.0609, 144.6057
388.5430, 144.6125
389.0251, 144.3945
389.5073, 144.5744
389.9894, 145.4891
390.4715, 146.0897
390.9536, 146.0065
391.4357, 145.8772
391.9178, 146.2343
392.4000, 147.0359
392.8821, 147.7382
393.3642, 147.7176
393.8463, 146.9408
394.3284, 146.5667
394.8105, 147.0393
395.2927, 147.4106
395.7748, 147.3050
396.2569, 146.8948
396.7390, 146.4919
397.2211, 146.2677
397.7032, 146.1038
398.1854, 145.7101
398.6675, 144.9947
399.1496, 144.3258
399.6317, 143.9399
400.1138, 143.5550
400.5959, 142.8780
401.0781, 141.8700
401.5602, 140.9148
402.0423, 140.5187
402.5244, 140.6056
403.0065, 140.2947
403.4886, 139.3685
403.9708, 138.1798
404.4529, 136.7473
404.9350, 135.2446
405.4171, 134.1853
405.8992, 134.2304
406.3813, 134.6257
406.8635, 133.8528
407.3456, 131.7072
407.8277, 130.3394
408.3098, 131.5825
408.7919, 133.8885
409.2740, 134.5922
409.7562, 133.1288
410.2383, 131.1673
410.7204, 129.3843
411.2025, 127.8727
411.6846, 127.0439
412.1667, 127.2092
412.6489, 127.4777
413.1310, 126.7474
413.6131, 125.0681
414.0952, 123.0011
414.5773, 120.0732
415.0594, 117.1784
415.5416, 115.2332
416.0237, 114.2146
416.5058, 113.4586
416.9879, 112.5490
417.4700, 111.5425
417.9521, 110.7474
418.4343, 110.3756
418.9164, 109.9238
419.3985, 109.1793
419.8806, 108.2924
420.3627, 107.4570
420.8448, 106.7342
421.3270, 106.1487
421.8091, 105.7656
422.2912, 105.7421
422.7733, 105.4575
423.2554, 104.6345
423.7375, 103.8135
424.2197, 103.3883
424.7018, 103.2744
425.1839, 103.1034
425.6660, 102.5930
426.1481, 101.8153
426.6302, 101.2526
427.1124, 101.1793
427.5945, 100.9978
428.0766, 100.6044
428.5587, 100.0888
429.0408, 99.48489
429.5229, 98.82237
430.0051, 98.22034
430.4872, 97.88326
430.9693, 97.89809
431.4514, 97.82065
431.9335, 97.48222
432.4156, 97.19070
432.8978, 97.12882
433.3799, 97.21920
433.8620, 97.24125
434.3441, 97.01759
434.8262, 96.66466
435.3083, 96.54381
435.7905, 96.74366
436.2726, 96.93129
436.7547, 97.01302
437.2368, 97.01467
437.7189, 96.89733
438.2010, 96.63905
438.6832, 96.47086
439.1653, 96.71537
439.6474, 97.26685
440.1295, 97.52962
440.6116, 97.33004
441.0938, 96.98434
441.5759, 96.67095
442.0580, 96.41519
442.5401, 96.33601
443.0222, 96.67843
443.5043, 97.06667
443.9865, 97.03272
444.4686, 96.63101
444.9507, 96.36594
445.4328, 96.49022
445.9149, 96.88117
446.3970, 97.28103
446.8792, 97.72900
447.3613, 98.07999
447.8434, 98.25854
448.3255, 98.33544
448.8076, 98.37347
449.2897, 98.38977
449.7719, 98.42164
450.2540, 98.49376
450.7361, 98.60544
451.2182, 98.83942
451.7003, 99.27918
452.1824, 99.73000
452.6646, 100.1371
453.1467, 100.5061
453.6288, 100.8376
454.1109, 101.1325
454.5930, 101.4220
455.0751, 101.7729
455.5573, 102.2154
456.0394, 102.6625
456.5215, 103.2132
457.0036, 103.6841
457.4857, 103.8661
457.9678, 103.8480
458.4500, 103.9471
458.9321, 104.4455
459.4142, 105.2510
459.8963, 105.8088
460.3784, 105.9572
460.8605, 106.1395
461.3427, 106.5301
461.8248, 106.9792
462.3069, 107.3082
462.7890, 107.4735
463.2711, 107.6704
463.7532, 108.1876
464.2354, 108.9917
464.7175, 109.5316
465.1996, 109.6073
465.6817, 109.6291
466.1638, 109.8879
466.6459, 110.3194
467.1281, 110.7802
467.6102, 111.3338
468.0923, 111.7939
468.5744, 111.9067
469.0565, 111.7004
469.5386, 111.4356
470.0208, 111.1693
470.5029, 110.9536
470.9850, 110.9432
471.4671, 111.2052
471.9492, 111.2756
472.4313, 110.9003
472.9135, 110.3558
473.3956, 109.9218
473.8777, 109.6273
474.3598, 109.4046
474.8419, 109.2463
475.3240, 109.1183
475.8062, 108.6716
476.2883, 107.5439
476.7704, 106.5881
477.2525, 106.1486
477.7346, 105.8981
478.2167, 105.4293
478.6989, 104.6383
479.1810, 103.7435
479.6631, 103.0115
480.1452, 102.4754
480.6273, 101.9553
481.1094, 101.4852
481.5916, 100.9974
482.0737, 100.4504
482.5558, 99.87315
483.0379, 99.31054
483.5200, 98.77897
484.0021, 98.28336
484.4843, 97.82917
484.9664, 97.41152
485.4485, 97.05151
485.9306, 96.83731
486.4127, 96.61008
486.8948, 96.23042
487.3770, 95.72390
487.8591, 95.25998
488.3412, 94.98050
488.8233, 94.79569
489.3054, 94.53455
489.7875, 94.19348
490.2697, 93.81381
490.7518, 93.39443
491.2339, 92.96360
491.7160, 92.54773
492.1981, 92.10289
492.6802, 91.80727
493.1624, 91.91809
493.6445, 92.16066
494.1266, 92.09785
494.6087, 91.65945
495.0908, 91.08514
495.5729, 90.53191
496.0551, 90.00793
496.5372, 89.78467
497.0193, 90.16597
497.5014, 90.44723
497.9835, 90.31148
498.4656, 89.98100
498.9478, 89.81067
499.4299, 89.90669
499.9120, 90.04108
500.3941, 89.85745
500.8762, 89.23055
501.3583, 88.77891
501.8405, 88.49284
502.3226, 88.39405
502.8047, 88.68321
503.2868, 89.13889
503.7689, 89.34800
504.2510, 89.08089
504.7331, 88.59622
505.2152, 88.37679
505.6974, 88.46615
506.1795, 88.54842
506.6616, 88.56514
507.1437, 88.55038
507.6258, 88.53782
508.1079, 88.52195
508.5901, 88.46950
509.0722, 88.30045
509.5543, 88.11759
510.0364, 88.10067
510.5185, 88.24767
511.0006, 88.37518
511.4828, 88.40176
511.9649, 88.35210
512.4470, 88.27451
512.9291, 88.16415
513.4113, 88.04790
513.8934, 87.87871
514.3755, 87.73972
514.8576, 87.66817
515.3397, 87.69332
515.8218, 87.96157
516.3040, 88.64199
516.7861, 89.63358
517.2682, 90.19570
517.7503, 89.85435
518.2324, 89.66521
518.7145, 89.76453
519.1967, 90.03233
519.6788, 90.40618
520.1609, 90.84351
520.6430, 91.24397
521.1251, 91.46531
521.6072, 91.51990
522.0894, 91.80720
522.5715, 92.48605
523.0536, 93.15089
523.5357, 93.62321
524.0178, 94.02593
524.4999, 94.48128
524.9821, 95.01624
525.4642, 95.65626
525.9463, 96.54446
526.4284, 97.58603
526.9105, 98.33680
527.3926, 98.65805
527.8748, 98.90170
528.3569, 99.25127
528.8390, 99.74406
529.3211, 100.5203
529.8032, 101.9035
530.2853, 103.2187
530.7675, 103.9598
531.2496, 104.3925
531.7317, 105.0653
532.2138, 106.1437
532.6959, 107.3513
533.1780, 108.3561
533.6602, 109.1394
534.1423, 109.8284
534.6244, 110.1214
535.1065, 110.6646
535.5886, 111.9108
536.0707, 113.5008
536.5529, 114.8664
537.0350, 115.7769
537.5171, 116.4822
537.9992, 117.3556
538.4813, 118.4244
538.9634, 119.5133
539.4456, 120.6055
539.9277, 121.7272
540.4098, 122.9910
540.8919, 124.2714
541.3740, 125.3156
541.8561, 125.9908
542.3383, 126.4634
542.8204, 126.9865
543.3025, 127.5258
543.7846, 127.7303
544.2667, 127.4624
544.7488, 126.9383
545.2310, 126.4186
545.7131, 125.8857
546.1952, 125.0308
546.6773, 123.5418
547.1594, 121.9706
547.6415, 120.7468
548.1237, 119.7270
548.6058, 118.4559
549.0879, 116.7470
549.5700, 114.9109
550.0521, 113.5068
550.5342, 112.8541
551.0164, 111.6589
551.4985, 109.4150
551.9806, 107.2422
552.4627, 105.5622
552.9448, 104.3164
553.4269, 103.3823
553.9091, 102.7268
554.3912, 102.0931
554.8733, 100.9383
555.3554, 99.13855
555.8375, 97.63911
556.3196, 96.66825
556.8018, 95.91338
557.2839, 95.25037
557.7660, 94.62424
558.2481, 93.89124
558.7302, 92.97316
559.2123, 91.96310
559.6945, 90.82612
560.1766, 89.64503
560.6587, 88.85224
561.1408, 88.63836
561.6229, 88.66348
562.1050, 88.57755
562.5872, 88.39420
563.0693, 87.84075
563.5514, 86.39568
564.0335, 85.10342
564.5156, 84.55433
564.9977, 84.52917
565.4799, 84.64053
565.9620, 84.72827
566.4441, 84.76073
566.9262, 84.69167
567.4083, 84.52319
567.8904, 84.24122
568.3726, 83.61544
568.8547, 83.11617
569.3368, 83.06132
569.8189, 83.20032
570.3010, 83.07323
570.7831, 82.46054
571.2653, 81.79471
571.7474, 81.67699
572.2295, 82.02279
572.7116, 82.11659
573.1937, 81.78571
573.6758, 81.33550
574.1580, 81.00719
574.6401, 80.76861
575.1222, 80.49148
575.6043, 80.13918
576.0864, 79.77448
576.5685, 79.38418
577.0507, 79.01741
577.5328, 78.77046
578.0149, 78.66337
578.4970, 78.61649
578.9791, 78.54411
579.4612, 78.44363
579.9434, 78.38712
580.4255, 78.47339
580.9076, 78.48672
581.3897, 78.36272
581.8718, 78.15835
582.3539, 77.89844
582.8361, 77.60399
583.3182, 77.37193
583.8003, 77.34763
584.2824, 77.49285
584.7645, 77.49892
585.2466, 77.29449
585.7288, 77.15627
586.2108, 77.36478
586.6929, 77.65035
587.1750, 77.55988
587.6572, 76.94328
