##NAMES=Urusovite
##RRUFFID=R061114
##IDEAL CHEMISTRY=Cu^2+^AlO(As^5+^O_4_)
##LOCALITY=Tolbachik Volcano, Kamchatka Peninsula, Russia
##OWNER=RRUFF
##SOURCE=Michael Scott
##DESCRIPTION=Cluster of light green crystals embedded in epoxy, co-type material
##STATUS=The identification of this mineral has been confirmed by single-crystal X-ray diffraction.
##URL=rruff.info/R061114
##MEASURED CHEMISTRY=(Cu_1.04_Fe_0.01_Zn_0.01_)_Î£1.06_Al_0.99_O(As_0.98_V_0.01_O_4_)
121.5648, 7823.898
122.0469, 8335.603
122.5290, 8862.109
123.0111, 9402.392
123.4933, 9952.560
123.9754, 10536.02
124.4575, 11116.38
124.9396, 11488.48
125.4217, 11710.61
125.9038, 11882.48
126.3860, 11957.60
126.8681, 11942.59
127.3502, 11871.93
127.8323, 11735.00
128.3144, 11556.19
128.7965, 11414.38
129.2787, 11328.00
129.7608, 11294.44
130.2429, 11309.11
130.7250, 11366.39
131.2071, 11476.56
131.6892, 11693.11
132.1714, 12007.83
132.6535, 12273.46
133.1356, 12474.55
133.6177, 12600.01
134.0998, 12472.77
134.5819, 12039.02
135.0640, 11439.07
135.5462, 10927.63
136.0283, 10498.07
136.5104, 10171.82
136.9925, 9972.330
137.4746, 9908.035
137.9567, 9879.653
138.4389, 9878.529
138.9210, 9903.667
139.4031, 9954.743
139.8852, 10043.13
140.3673, 10136.50
140.8494, 10205.51
141.3316, 10235.98
141.8137, 10286.95
142.2958, 10374.11
142.7779, 10497.58
143.2600, 10620.68
143.7421, 10756.68
144.2243, 10880.92
144.7064, 10966.61
145.1885, 11036.36
145.6706, 11036.95
146.1527, 10951.88
146.6348, 10769.78
147.1170, 10541.71
147.5991, 10237.16
148.0812, 9892.509
148.5633, 9581.895
149.0454, 9296.379
149.5275, 9049.286
150.0097, 8849.080
150.4918, 8704.670
150.9739, 8590.193
151.4560, 8514.846
151.9381, 8471.256
152.4202, 8435.772
152.9024, 8408.305
153.3845, 8387.853
153.8666, 8373.618
154.3487, 8373.470
154.8308, 8371.473
155.3129, 8361.676
155.7950, 8346.063
156.2772, 8339.723
156.7593, 8353.466
157.2414, 8373.981
157.7235, 8391.360
158.2056, 8393.891
158.6877, 8402.145
159.1699, 8424.070
159.6520, 8460.278
160.1341, 8498.581
160.6162, 8533.248
161.0983, 8568.483
161.5804, 8609.146
162.0626, 8651.923
162.5447, 8703.830
163.0268, 8774.287
163.5089, 8868.895
163.9910, 8953.168
164.4731, 8987.434
164.9553, 9002.361
165.4374, 9049.219
165.9195, 9167.512
166.4016, 9315.309
166.8837, 9463.079
167.3658, 9603.270
167.8480, 9752.056
168.3301, 9919.203
168.8122, 10102.84
169.2943, 10298.28
169.7764, 10516.14
170.2585, 10739.33
170.7407, 10949.97
171.2228, 11144.65
171.7049, 11328.06
172.1870, 11497.38
172.6691, 11656.56
173.1512, 11820.10
173.6334, 11998.67
174.1155, 12190.05
174.5976, 12391.31
175.0797, 12618.51
175.5618, 12839.28
176.0439, 13044.21
176.5260, 13229.66
177.0082, 13324.07
177.4903, 13263.09
177.9724, 13067.55
178.4545, 12789.85
178.9366, 12404.24
179.4187, 11961.25
179.9009, 11539.50
180.3830, 11134.64
180.8651, 10760.08
181.3472, 10415.01
181.8293, 10102.54
182.3114, 9842.111
182.7936, 9656.649
183.2757, 9527.409
183.7578, 9399.288
184.2399, 9271.516
184.7220, 9151.031
185.2041, 9049.496
185.6863, 8964.972
186.1684, 8890.587
186.6505, 8817.768
187.1326, 8751.177
187.6147, 8709.374
188.0968, 8697.971
188.5790, 8698.159
189.0611, 8679.065
189.5432, 8641.255
190.0253, 8603.578
190.5074, 8575.661
190.9895, 8557.297
191.4717, 8544.523
191.9538, 8539.136
192.4359, 8535.939
192.9180, 8519.934
193.4001, 8489.348
193.8822, 8465.265
194.3644, 8466.097
194.8465, 8490.913
195.3286, 8508.565
195.8107, 8510.565
196.2928, 8505.868
196.7749, 8519.956
197.2570, 8553.497
197.7392, 8600.119
198.2213, 8660.393
198.7034, 8736.078
199.1855, 8800.239
199.6676, 8846.807
200.1497, 8879.269
200.6319, 8912.026
201.1140, 8945.239
201.5961, 8978.612
202.0782, 9009.416
202.5603, 9036.183
203.0424, 9072.849
203.5246, 9126.335
204.0067, 9193.972
204.4888, 9247.225
204.9709, 9280.807
205.4530, 9312.109
205.9352, 9361.218
206.4173, 9432.939
206.8994, 9503.815
207.3815, 9570.411
207.8636, 9633.059
208.3457, 9676.294
208.8279, 9701.418
209.3100, 9704.714
209.7921, 9678.992
210.2742, 9618.694
210.7563, 9544.140
211.2384, 9455.140
211.7206, 9347.755
212.2027, 9268.281
212.6848, 9223.427
213.1669, 9198.491
213.6490, 9172.631
214.1311, 9142.928
214.6133, 9118.906
215.0954, 9103.209
215.5775, 9096.097
216.0596, 9096.861
216.5417, 9104.928
217.0238, 9121.416
217.5059, 9151.439
217.9881, 9204.923
218.4702, 9251.712
218.9523, 9277.808
219.4344, 9273.579
219.9165, 9286.273
220.3986, 9322.942
220.8808, 9372.654
221.3629, 9416.249
221.8450, 9459.632
222.3271, 9486.817
222.8092, 9491.854
223.2913, 9473.422
223.7735, 9435.213
224.2556, 9373.200
224.7377, 9292.696
225.2198, 9206.530
225.7019, 9105.297
226.1840, 9011.806
226.6662, 8934.502
227.1483, 8874.201
227.6304, 8829.221
228.1125, 8800.666
228.5946, 8786.446
229.0767, 8781.852
229.5589, 8795.409
230.0410, 8806.111
230.5231, 8802.914
231.0052, 8777.988
231.4873, 8755.474
231.9694, 8731.913
232.4516, 8711.435
232.9337, 8711.253
233.4158, 8747.287
233.8979, 8782.086
234.3800, 8793.136
234.8621, 8763.710
235.3443, 8747.468
235.8264, 8754.830
236.3085, 8778.276
236.7906, 8782.793
237.2727, 8751.782
237.7548, 8723.540
238.2369, 8722.096
238.7191, 8767.087
239.2012, 8799.279
239.6833, 8812.086
240.1654, 8807.896
240.6475, 8797.678
241.1296, 8771.209
241.6118, 8750.688
242.0939, 8751.022
242.5760, 8783.396
243.0581, 8813.650
243.5402, 8841.998
244.0223, 8866.546
244.5045, 8876.208
244.9866, 8863.567
245.4687, 8845.863
245.9508, 8834.074
246.4329, 8830.272
246.9150, 8829.241
247.3972, 8830.391
247.8793, 8834.290
248.3614, 8844.063
248.8435, 8863.619
249.3256, 8884.664
249.8077, 8902.203
250.2899, 8918.771
250.7720, 8925.150
251.2541, 8911.009
251.7362, 8881.945
252.2183, 8884.975
252.7004, 8936.555
253.1826, 8997.154
253.6647, 9038.793
254.1468, 9054.962
254.6289, 9065.058
255.1110, 9065.576
255.5931, 9059.704
256.0753, 9074.569
256.5574, 9120.225
257.0395, 9172.388
257.5216, 9212.608
258.0037, 9236.890
258.4858, 9260.646
258.9680, 9283.626
259.4501, 9307.354
259.9322, 9340.473
260.4143, 9383.918
260.8964, 9435.619
261.3785, 9493.698
261.8607, 9559.350
262.3428, 9629.990
262.8249, 9706.615
263.3070, 9788.191
263.7891, 9873.914
264.2712, 9964.186
264.7534, 10054.75
265.2355, 10138.37
265.7176, 10210.19
266.1997, 10294.62
266.6818, 10400.86
267.1639, 10523.21
267.6461, 10630.08
268.1282, 10715.62
268.6103, 10797.64
269.0924, 10889.31
269.5745, 10990.86
270.0566, 11099.73
270.5387, 11221.41
271.0208, 11350.11
271.5030, 11463.54
271.9851, 11563.19
272.4672, 11643.12
272.9493, 11701.55
273.4314, 11740.13
273.9135, 11744.47
274.3957, 11707.67
274.8778, 11636.46
275.3599, 11552.22
275.8420, 11451.51
276.3241, 11349.76
276.8062, 11256.82
277.2884, 11172.88
277.7705, 11096.06
278.2526, 11023.98
278.7347, 10960.60
279.2168, 10920.91
279.6989, 10907.96
280.1811, 10903.25
280.6632, 10894.40
281.1453, 10881.45
281.6274, 10873.11
282.1095, 10876.91
282.5916, 10879.79
283.0738, 10846.25
283.5559, 10773.91
284.0380, 10685.32
284.5201, 10588.81
285.0022, 10485.20
285.4843, 10394.20
285.9665, 10317.82
286.4486, 10255.02
286.9307, 10203.72
287.4128, 10164.15
287.8949, 10136.37
288.3770, 10127.24
288.8592, 10132.81
289.3413, 10129.79
289.8234, 10113.82
290.3055, 10092.00
290.7876, 10071.18
291.2697, 10052.12
291.7519, 10048.04
292.2340, 10075.47
292.7161, 10126.08
293.1982, 10169.91
293.6803, 10204.11
294.1624, 10232.57
294.6446, 10255.09
295.1267, 10273.85
295.6088, 10301.68
296.0909, 10354.33
296.5730, 10420.47
297.0551, 10471.82
297.5373, 10501.03
298.0194, 10533.57
298.5015, 10618.37
298.9836, 10737.94
299.4657, 10830.69
299.9478, 10842.96
300.4300, 10812.57
300.9121, 10796.57
301.3942, 10799.41
301.8763, 10812.76
302.3584, 10830.65
302.8405, 10852.80
303.3227, 10877.97
303.8048, 10900.27
304.2869, 10927.75
304.7690, 10969.92
305.2511, 11027.12
305.7332, 11098.57
306.2154, 11190.96
306.6975, 11296.75
307.1796, 11404.54
307.6617, 11516.59
308.1438, 11622.40
308.6259, 11719.06
309.1081, 11806.16
309.5901, 11873.98
310.0723, 11931.74
310.5544, 11963.25
311.0365, 11947.51
311.5186, 11843.47
312.0007, 11714.68
312.4828, 11583.29
312.9650, 11452.30
313.4471, 11365.20
313.9292, 11367.18
314.4113, 11416.57
314.8934, 11471.67
315.3755, 11492.38
315.8577, 11540.44
316.3398, 11649.31
316.8219, 11813.46
317.3040, 11992.55
317.7861, 12168.94
318.2682, 12355.32
318.7504, 12560.48
319.2325, 12802.11
319.7146, 13049.38
320.1967, 13285.68
320.6788, 13517.49
321.1609, 13767.80
321.6431, 14050.83
322.1252, 14348.46
322.6073, 14651.23
323.0894, 14964.15
323.5715, 15273.63
324.0536, 15580.04
324.5358, 15880.41
325.0179, 16174.87
325.5000, 16448.62
325.9821, 16727.67
326.4642, 17026.22
326.9464, 17363.83
327.4285, 17688.12
327.9106, 18013.67
328.3927, 18322.76
328.8748, 18587.72
329.3569, 18800.57
329.8391, 18975.34
330.3212, 19120.28
330.8033, 19249.01
331.2854, 19309.16
331.7675, 19302.78
332.2496, 19226.59
332.7318, 19074.29
333.2139, 18828.31
333.6960, 18533.38
334.1781, 18192.67
334.6602, 17799.87
335.1423, 17398.65
335.6245, 16981.63
336.1066, 16557.06
336.5887, 16142.15
337.0708, 15728.20
337.5529, 15333.65
338.0350, 14964.20
338.5172, 14617.48
338.9993, 14304.41
339.4814, 14022.50
339.9635, 13773.40
340.4456, 13560.46
340.9277, 13383.25
341.4099, 13231.03
341.8920, 13101.07
342.3741, 12994.04
342.8562, 12911.70
343.3383, 12856.73
343.8204, 12811.46
344.3026, 12754.67
344.7847, 12690.75
345.2668, 12657.93
345.7489, 12669.17
346.2310, 12703.10
346.7131, 12715.54
347.1953, 12707.83
347.6774, 12706.61
348.1595, 12739.16
348.6416, 12791.44
349.1237, 12823.50
349.6058, 12827.40
350.0880, 12821.87
350.5700, 12829.75
351.0522, 12848.38
351.5343, 12867.06
352.0164, 12901.21
352.4985, 12924.95
352.9806, 12894.43
353.4627, 12803.72
353.9449, 12692.13
354.4270, 12585.08
354.9091, 12482.55
355.3912, 12382.67
355.8733, 12286.44
356.3554, 12192.61
356.8376, 12096.67
357.3197, 11998.75
357.8018, 11907.86
358.2839, 11824.80
358.7660, 11753.06
359.2481, 11696.46
359.7303, 11658.21
360.2124, 11633.40
360.6945, 11622.01
361.1766, 11622.79
361.6587, 11628.48
362.1408, 11631.95
362.6230, 11641.65
363.1051, 11663.55
363.5872, 11704.61
364.0693, 11749.75
364.5514, 11795.90
365.0335, 11843.39
365.5157, 11892.64
365.9978, 11935.28
366.4799, 11986.56
366.9620, 12053.24
367.4441, 12138.13
367.9262, 12232.53
368.4084, 12355.54
368.8905, 12482.76
369.3726, 12575.81
369.8547, 12619.92
370.3368, 12646.83
370.8189, 12660.85
371.3011, 12659.35
371.7832, 12664.10
372.2653, 12687.25
372.7474, 12705.72
373.2295, 12694.24
373.7116, 12645.80
374.1938, 12584.45
374.6759, 12509.49
375.1580, 12424.13
375.6401, 12351.88
376.1222, 12295.05
376.6043, 12245.54
377.0865, 12192.04
377.5686, 12132.74
378.0507, 12094.96
378.5328, 12088.33
379.0149, 12100.09
379.4970, 12102.64
379.9792, 12096.29
380.4613, 12075.34
380.9434, 12044.46
381.4255, 11998.73
381.9076, 11906.98
382.3897, 11760.49
382.8719, 11589.05
383.3540, 11425.83
383.8361, 11271.17
384.3182, 11135.20
384.8003, 11026.86
385.2824, 10938.83
385.7646, 10858.77
386.2467, 10785.59
386.7288, 10723.11
387.2109, 10678.17
387.6930, 10645.39
388.1751, 10616.39
388.6573, 10584.12
389.1394, 10557.46
389.6215, 10544.00
390.1036, 10543.37
390.5857, 10552.54
391.0678, 10584.01
391.5499, 10617.63
392.0320, 10633.96
392.5142, 10619.42
392.9963, 10601.56
393.4784, 10582.78
393.9605, 10568.53
394.4426, 10572.24
394.9247, 10613.88
395.4069, 10662.09
395.8890, 10702.97
396.3711, 10733.66
396.8532, 10759.93
397.3353, 10783.58
397.8174, 10802.99
398.2996, 10816.35
398.7817, 10818.97
399.2638, 10820.23
399.7459, 10819.99
400.2280, 10817.66
400.7101, 10823.98
401.1923, 10847.13
401.6744, 10871.46
402.1565, 10884.14
402.6386, 10878.89
403.1207, 10876.36
403.6028, 10879.39
404.0850, 10886.80
404.5671, 10896.52
405.0492, 10913.18
405.5313, 10919.37
406.0134, 10901.91
406.4955, 10859.17
406.9777, 10815.19
407.4598, 10768.29
407.9419, 10725.20
408.4240, 10705.21
408.9061, 10707.58
409.3882, 10696.89
409.8704, 10647.98
410.3525, 10573.25
410.8346, 10514.32
411.3167, 10470.58
411.7988, 10444.70
412.2809, 10450.99
412.7631, 10478.18
413.2452, 10497.84
413.7273, 10498.42
414.2094, 10490.80
414.6915, 10489.02
415.1736, 10491.46
415.6558, 10488.84
416.1379, 10466.21
416.6200, 10440.25
417.1021, 10430.54
417.5842, 10446.74
418.0663, 10462.78
418.5485, 10460.08
419.0306, 10446.76
419.5127, 10437.71
419.9948, 10436.71
420.4769, 10442.33
420.9590, 10455.51
421.4412, 10477.11
421.9233, 10497.05
422.4054, 10502.90
422.8875, 10510.57
423.3696, 10534.63
423.8517, 10615.40
424.3339, 10668.01
424.8160, 10668.82
425.2981, 10626.65
425.7802, 10602.51
426.2623, 10600.44
426.7444, 10611.92
427.2266, 10636.14
427.7087, 10687.74
428.1908, 10715.69
428.6729, 10710.71
429.1550, 10690.44
429.6371, 10686.74
430.1193, 10702.18
430.6014, 10725.80
431.0835, 10755.20
431.5656, 10790.17
432.0477, 10827.51
432.5298, 10867.94
433.0119, 10908.07
433.4940, 10942.38
433.9762, 10972.17
434.4583, 11007.07
434.9404, 11050.60
435.4225, 11098.65
435.9046, 11138.87
436.3867, 11173.49
436.8689, 11221.33
437.3510, 11309.85
437.8331, 11413.97
438.3152, 11493.72
438.7973, 11539.45
439.2794, 11580.78
439.7616, 11640.49
440.2437, 11712.21
440.7258, 11785.88
441.2079, 11859.48
441.6900, 11931.58
442.1721, 11999.50
442.6543, 12063.32
443.1364, 12130.63
443.6185, 12215.11
444.1006, 12298.33
444.5827, 12366.16
445.0648, 12411.60
445.5470, 12448.13
446.0291, 12472.16
446.5112, 12488.23
446.9933, 12510.24
447.4754, 12550.86
447.9576, 12585.35
448.4397, 12607.56
448.9218, 12618.81
449.4039, 12612.75
449.8860, 12586.93
450.3681, 12546.72
450.8503, 12498.97
451.3324, 12445.88
451.8145, 12375.17
452.2966, 12280.75
452.7787, 12166.40
453.2608, 12050.04
453.7430, 11928.29
454.2251, 11818.44
454.7072, 11736.45
455.1893, 11678.01
455.6714, 11618.23
456.1535, 11554.45
456.6357, 11488.44
457.1178, 11418.56
457.5999, 11347.38
458.0820, 11281.84
458.5641, 11220.43
459.0462, 11169.75
459.5284, 11142.75
460.0105, 11139.39
460.4926, 11142.81
460.9747, 11148.85
461.4568, 11152.95
461.9389, 11149.88
462.4211, 11136.73
462.9032, 11118.46
463.3853, 11088.15
463.8674, 11053.51
464.3495, 11035.26
464.8316, 11049.15
465.3138, 11072.17
465.7959, 11097.70
466.2780, 11129.16
466.7601, 11147.70
467.2422, 11136.28
467.7243, 11119.65
468.2065, 11123.14
468.6886, 11166.06
469.1707, 11195.43
469.6528, 11197.28
470.1349, 11178.66
470.6170, 11178.29
471.0992, 11198.71
471.5813, 11231.91
472.0634, 11278.28
472.5455, 11339.34
473.0276, 11387.69
473.5097, 11421.47
473.9918, 11444.29
474.4739, 11454.92
474.9561, 11455.14
475.4382, 11463.04
475.9203, 11486.74
476.4024, 11521.37
476.8845, 11558.65
477.3666, 11598.45
477.8488, 11640.20
478.3309, 11691.79
478.8130, 11742.37
479.2951, 11773.23
479.7772, 11772.73
480.2593, 11772.93
480.7415, 11798.82
481.2236, 11840.03
481.7057, 11877.21
482.1878, 11891.45
482.6699, 11910.26
483.1520, 11946.67
483.6342, 12001.66
484.1163, 12063.56
484.5984, 12147.41
485.0805, 12227.39
485.5626, 12283.15
486.0447, 12285.81
486.5269, 12306.17
487.0090, 12344.82
487.4911, 12403.34
487.9732, 12487.53
488.4553, 12606.03
488.9374, 12733.35
489.4196, 12864.60
489.9017, 13000.52
490.3838, 13122.58
490.8659, 13227.72
491.3480, 13331.74
491.8301, 13452.63
492.3123, 13589.57
492.7944, 13722.50
493.2765, 13844.24
493.7586, 13966.45
494.2407, 14113.78
494.7228, 14282.71
495.2050, 14457.33
495.6871, 14643.99
496.1692, 14824.50
496.6513, 14967.13
497.1334, 15069.48
497.6155, 15166.95
498.0977, 15283.17
498.5798, 15408.64
499.0619, 15535.09
499.5440, 15664.93
500.0261, 15786.32
500.5082, 15903.75
500.9904, 16011.39
501.4725, 16090.80
501.9546, 16138.32
502.4367, 16157.15
502.9188, 16144.83
503.4009, 16094.73
503.8831, 16039.00
504.3652, 15980.74
504.8473, 15914.09
505.3294, 15837.11
505.8115, 15761.35
506.2936, 15636.37
506.7758, 15436.37
507.2579, 15191.00
507.7400, 14998.74
508.2221, 14864.17
508.7042, 14741.42
509.1863, 14613.21
509.6685, 14476.72
510.1506, 14309.76
510.6327, 14106.86
511.1148, 13911.04
511.5969, 13774.58
512.0790, 13677.76
512.5612, 13577.61
513.0433, 13452.05
513.5254, 13327.08
514.0075, 13226.12
514.4896, 13144.23
514.9717, 13066.82
515.4539, 12990.49
515.9360, 12912.91
516.4181, 12829.34
516.9002, 12734.91
517.3823, 12655.39
517.8644, 12606.87
518.3466, 12570.71
518.8287, 12527.83
519.3108, 12464.72
519.7929, 12413.79
520.2750, 12381.95
520.7571, 12364.43
521.2393, 12344.96
521.7214, 12324.42
522.2035, 12298.54
522.6856, 12264.02
523.1677, 12220.46
523.6498, 12174.18
524.1320, 12123.74
524.6141, 12073.07
525.0962, 12028.51
525.5783, 11988.31
526.0604, 11945.01
526.5425, 11895.40
527.0247, 11844.27
527.5068, 11799.64
527.9889, 11758.83
528.4710, 11712.38
528.9531, 11647.89
529.4352, 11580.65
529.9174, 11522.01
530.3995, 11472.80
530.8816, 11433.32
531.3637, 11409.56
531.8458, 11391.94
532.3279, 11371.78
532.8101, 11333.39
533.2922, 11309.29
533.7743, 11318.53
534.2564, 11344.55
534.7385, 11346.52
535.2206, 11306.97
535.7027, 11267.62
536.1848, 11238.37
536.6669, 11218.80
537.1490, 11214.45
537.6312, 11230.76
538.1133, 11248.32
538.5954, 11248.28
539.0775, 11231.34
539.5596, 11220.34
540.0417, 11219.68
540.5239, 11222.27
541.0060, 11213.92
541.4881, 11198.34
541.9702, 11190.45
542.4523, 11205.51
542.9344, 11226.88
543.4166, 11234.09
543.8987, 11228.58
544.3808, 11223.06
544.8629, 11222.21
545.3450, 11225.74
545.8271, 11234.39
546.3093, 11251.18
546.7914, 11264.94
547.2735, 11272.99
547.7556, 11276.15
548.2377, 11275.70
548.7198, 11274.09
549.2020, 11265.60
549.6841, 11245.15
550.1662, 11215.91
550.6483, 11198.13
551.1304, 11195.04
551.6125, 11196.41
552.0947, 11200.01
552.5768, 11206.56
553.0589, 11200.20
553.5410, 11178.15
554.0231, 11154.92
554.5052, 11147.08
554.9874, 11152.55
555.4695, 11163.28
555.9516, 11180.05
556.4337, 11196.67
556.9158, 11205.24
557.3979, 11207.12
557.8801, 11206.22
558.3622, 11199.50
558.8443, 11194.44
559.3264, 11198.92
559.8085, 11213.72
560.2906, 11223.13
560.7728, 11212.46
561.2549, 11199.98
561.7370, 11199.25
562.2191, 11226.58
562.7012, 11244.85
563.1833, 11250.49
563.6655, 11248.22
564.1476, 11245.06
564.6297, 11238.19
565.1118, 11238.22
565.5939, 11252.72
566.0760, 11276.68
566.5582, 11276.90
567.0403, 11251.09
567.5224, 11225.38
568.0045, 11223.52
568.4866, 11236.58
568.9688, 11233.25
569.4509, 11208.36
569.9330, 11184.55
570.4151, 11186.87
570.8972, 11203.93
571.3793, 11216.43
571.8615, 11207.28
572.3436, 11204.37
572.8257, 11230.30
573.3078, 11275.54
573.7899, 11313.45
574.2720, 11337.66
574.7542, 11350.71
575.2363, 11346.87
575.7184, 11321.42
576.2005, 11317.05
576.6826, 11354.13
577.1647, 11389.71
577.6469, 11386.74
578.1290, 11329.86
578.6111, 11300.75
579.0932, 11308.67
579.5753, 11339.78
580.0574, 11379.65
580.5396, 11426.58
581.0217, 11456.93
581.5038, 11453.76
581.9859, 11434.54
582.4680, 11426.73
582.9501, 11429.89
583.4323, 11441.76
583.9144, 11474.60
584.3965, 11507.51
584.8786, 11516.69
585.3607, 11495.94
585.8428, 11479.66
586.3250, 11487.09
586.8071, 11503.44
587.2892, 11515.14
587.7713, 11516.62
588.2534, 11517.58
588.7355, 11514.18
589.2177, 11511.80
589.6998, 11523.28
590.1819, 11554.34
590.6640, 11584.84
591.1461, 11607.38
591.6282, 11623.35
592.1104, 11647.00
592.5925, 11679.72
593.0746, 11705.56
593.5567, 11707.14
594.0388, 11692.21
594.5209, 11682.74
595.0031, 11680.57
595.4852, 11685.37
595.9673, 11704.90
596.4494, 11729.43
596.9315, 11743.35
597.4136, 11727.94
597.8958, 11718.41
598.3779, 11740.92
598.8600, 11782.22
599.3421, 11808.94
599.8242, 11795.76
600.3063, 11785.03
600.7885, 11789.25
601.2706, 11808.45
601.7527, 11836.09
602.2348, 11882.23
602.7169, 11920.35
603.1990, 11924.42
603.6812, 11888.43
604.1633, 11888.59
604.6454, 11933.25
605.1275, 11998.27
605.6096, 12059.40
606.0917, 12115.88
606.5739, 12161.97
607.0560, 12192.97
607.5381, 12217.68
608.0202, 12243.54
608.5023, 12271.04
608.9844, 12302.26
609.4666, 12333.70
609.9487, 12372.63
610.4308, 12424.34
610.9129, 12488.71
611.3950, 12557.02
611.8771, 12643.20
612.3593, 12719.86
612.8414, 12769.21
613.3235, 12774.93
613.8056, 12795.23
614.2877, 12829.27
614.7698, 12879.53
615.2520, 12956.91
615.7341, 13064.19
616.2162, 13159.20
616.6983, 13230.32
