##NAMES=Ushkovite
##RRUFFID=R060954
##IDEAL CHEMISTRY=MgFe^3+^_2_(P^5+^O_4_)_2_(OH)_2_&#183;8H_2_O
##LOCALITY=Linópolis, Minas Gerais, Brazil
##OWNER=RRUFF
##SOURCE=Bob Jenkins
##DESCRIPTION=Radial aggregate of pale brownish yellow bladed crystals, associated with radial aggregate of pale green atencioite, dark green rockbridgeite, and lefontite R140074
##STATUS=The identification of this mineral is confirmed by single-crystal X-ray diffraction and chemical analysis.
##URL=rruff.info/R060954
##MEASURED CHEMISTRY=Mg_1.03_Fe^3+^_2.08_(P_2.00_O_4_)_2_(OH)_2_·8H_2_O
229.5171, 44751.26
229.9992, 44744.14
230.4813, 44749.46
230.9634, 44803.41
231.4455, 44924.41
231.9276, 45011.26
232.4098, 45046.75
232.8919, 45059.58
233.3740, 45096.05
233.8561, 45177.18
234.3382, 45246.80
234.8203, 45281.28
235.3025, 45262.41
235.7846, 45283.49
236.2667, 45367.55
236.7488, 45479.60
237.2309, 45558.38
237.7130, 45590.37
238.1952, 45610.82
238.6773, 45627.27
239.1594, 45633.39
239.6415, 45660.49
240.1236, 45720.85
240.6057, 45797.05
241.0879, 45858.08
241.5700, 45897.48
242.0521, 45931.02
242.5342, 45957.83
243.0163, 45962.90
243.4984, 46010.48
243.9806, 46120.61
244.4627, 46261.59
244.9448, 46374.85
245.4269, 46449.58
245.9090, 46509.16
246.3911, 46559.24
246.8732, 46594.75
247.3554, 46629.24
247.8375, 46656.22
248.3196, 46683.31
248.8017, 46727.19
249.2838, 46793.34
249.7659, 46867.15
250.2481, 46952.74
250.7302, 47072.74
251.2123, 47134.57
251.6944, 47113.64
252.1765, 47051.47
252.6586, 47027.19
253.1408, 47058.80
253.6229, 47103.03
254.1050, 47147.51
254.5871, 47194.99
255.0692, 47235.21
255.5513, 47255.38
256.0334, 47277.00
256.5156, 47348.88
256.9977, 47505.11
257.4798, 47647.90
257.9619, 47728.91
258.4440, 47717.22
258.9261, 47762.14
259.4083, 47891.79
259.8904, 48056.68
260.3725, 48151.82
260.8546, 48133.40
261.3367, 48134.40
261.8188, 48216.41
262.3010, 48410.80
262.7831, 48550.81
263.2652, 48621.96
263.7473, 48650.09
264.2294, 48685.38
264.7115, 48737.49
265.1937, 48771.56
265.6758, 48771.30
266.1579, 48732.23
266.6400, 48683.60
267.1221, 48614.59
267.6042, 48549.07
268.0864, 48540.58
268.5685, 48616.96
269.0506, 48671.95
269.5327, 48656.45
270.0148, 48558.78
270.4969, 48494.22
270.9791, 48474.27
271.4612, 48474.29
271.9433, 48446.93
272.4254, 48378.30
272.9075, 48339.73
273.3896, 48367.68
273.8718, 48466.67
274.3539, 48554.69
274.8360, 48634.00
275.3181, 48699.74
275.8002, 48736.16
276.2823, 48734.48
276.7645, 48748.76
277.2466, 48806.18
277.7287, 48906.25
278.2108, 48984.27
278.6929, 49038.00
279.1750, 49073.51
279.6572, 49087.86
280.1393, 49075.86
280.6214, 49088.10
281.1035, 49153.57
281.5856, 49265.46
282.0677, 49349.85
282.5499, 49403.30
283.0320, 49438.63
283.5141, 49467.25
283.9962, 49489.13
284.4783, 49515.87
284.9604, 49561.00
285.4425, 49617.42
285.9247, 49633.62
286.4068, 49604.25
286.8889, 49565.69
287.3710, 49557.26
287.8531, 49577.79
288.3352, 49606.18
288.8174, 49640.38
289.2995, 49677.04
289.7816, 49706.76
290.2637, 49729.31
290.7458, 49739.38
291.2279, 49716.53
291.7101, 49668.79
292.1922, 49646.64
292.6743, 49673.63
293.1564, 49730.78
293.6385, 49780.21
294.1206, 49822.04
294.6028, 49851.08
295.0849, 49856.49
295.5670, 49845.43
296.0491, 49840.26
296.5312, 49848.36
297.0133, 49867.31
297.4955, 49898.62
297.9776, 49941.90
298.4597, 49981.62
298.9418, 49987.50
299.4239, 49981.35
299.9060, 50014.55
300.3882, 50113.00
300.8703, 50236.58
301.3524, 50321.04
301.8345, 50373.02
302.3166, 50441.33
302.7987, 50592.03
303.2809, 50771.11
303.7630, 50887.12
304.2451, 50888.13
304.7272, 50871.91
305.2093, 50963.43
305.6914, 51132.57
306.1736, 51260.48
306.6557, 51237.93
307.1378, 51152.91
307.6199, 51107.61
308.1020, 51125.34
308.5841, 51174.06
309.0663, 51251.91
309.5484, 51346.29
310.0305, 51418.71
310.5126, 51441.59
310.9947, 51441.42
311.4768, 51435.32
311.9590, 51421.29
312.4411, 51418.82
312.9232, 51455.56
313.4053, 51511.59
313.8874, 51548.75
314.3695, 51537.85
314.8517, 51513.54
315.3337, 51495.97
315.8159, 51487.76
316.2980, 51484.05
316.7801, 51468.79
317.2622, 51460.39
317.7443, 51484.07
318.2264, 51607.21
318.7086, 51714.91
319.1907, 51743.83
319.6728, 51681.43
320.1549, 51638.32
320.6370, 51650.56
321.1191, 51696.68
321.6013, 51754.61
322.0834, 51838.06
322.5655, 51911.93
323.0476, 51954.77
323.5297, 51964.56
324.0118, 51998.68
324.4940, 52092.79
324.9761, 52198.83
325.4582, 52279.95
325.9403, 52321.79
326.4224, 52348.80
326.9045, 52349.92
327.3867, 52328.43
327.8688, 52335.91
328.3509, 52401.03
328.8330, 52475.29
329.3151, 52533.02
329.7972, 52565.61
330.2794, 52594.13
330.7615, 52616.04
331.2436, 52634.84
331.7257, 52663.58
332.2078, 52707.57
332.6899, 52756.67
333.1721, 52809.81
333.6542, 52883.62
334.1363, 52924.73
334.6184, 52920.91
335.1005, 52890.67
335.5826, 52873.96
336.0648, 52868.68
336.5469, 52882.21
337.0290, 52922.05
337.5111, 52995.38
337.9932, 53055.43
338.4753, 53095.08
338.9575, 53127.24
339.4396, 53182.57
339.9217, 53273.55
340.4038, 53326.50
340.8859, 53290.58
341.3680, 53171.99
341.8502, 53150.84
342.3323, 53250.63
342.8144, 53381.87
343.2965, 53439.04
343.7786, 53422.98
344.2607, 53392.53
344.7429, 53350.19
345.2250, 53311.76
345.7071, 53350.48
346.1892, 53476.54
346.6713, 53597.74
347.1534, 53600.99
347.6355, 53515.98
348.1176, 53497.03
348.5998, 53600.27
349.0819, 53763.66
349.5640, 53878.49
350.0461, 53947.06
350.5282, 53998.88
351.0103, 54058.48
351.4925, 54114.73
351.9746, 54141.52
352.4567, 54121.01
352.9388, 54096.47
353.4209, 54119.03
353.9030, 54179.73
354.3852, 54248.75
354.8673, 54338.22
355.3494, 54415.70
355.8315, 54434.44
356.3136, 54380.11
356.7957, 54324.45
357.2779, 54324.21
357.7600, 54361.71
358.2421, 54403.32
358.7242, 54448.58
359.2063, 54483.64
359.6884, 54492.13
360.1706, 54471.20
360.6527, 54457.73
361.1348, 54449.68
361.6169, 54464.42
362.0990, 54520.46
362.5811, 54697.67
363.0633, 54843.66
363.5454, 54886.86
364.0275, 54834.01
364.5096, 54790.48
364.9917, 54793.67
365.4738, 54808.50
365.9560, 54812.00
366.4381, 54765.68
366.9202, 54749.71
367.4023, 54789.05
367.8844, 54870.92
368.3665, 54943.86
368.8487, 55004.18
369.3308, 55057.95
369.8129, 55105.93
370.2950, 55140.52
370.7771, 55185.14
371.2592, 55244.28
371.7414, 55311.50
372.2235, 55376.42
372.7056, 55437.39
373.1877, 55496.51
373.6698, 55551.61
374.1519, 55599.97
374.6341, 55655.11
375.1162, 55718.90
375.5983, 55782.82
376.0804, 55842.95
376.5625, 55905.14
377.0446, 55930.89
377.5267, 55895.96
378.0089, 55814.72
378.4910, 55784.27
378.9731, 55813.98
379.4552, 55857.15
379.9373, 55871.78
380.4194, 55860.93
380.9016, 55865.61
381.3837, 55898.77
381.8658, 55946.88
382.3479, 55972.24
382.8300, 55977.95
383.3121, 56005.10
383.7943, 56107.76
384.2764, 56250.88
384.7585, 56335.11
385.2406, 56338.09
385.7227, 56322.75
386.2048, 56364.57
386.6870, 56446.27
387.1691, 56523.22
387.6512, 56561.11
388.1333, 56584.93
388.6154, 56621.95
389.0975, 56671.93
389.5797, 56728.47
390.0618, 56786.72
390.5439, 56848.16
391.0260, 56914.20
391.5081, 57012.55
391.9902, 57093.77
392.4724, 57131.66
392.9545, 57130.63
393.4366, 57110.56
393.9187, 57057.88
394.4008, 57006.45
394.8829, 56979.62
395.3651, 56993.86
395.8472, 57016.51
396.3293, 57035.10
396.8114, 57056.53
397.2935, 57095.98
397.7756, 57206.70
398.2578, 57289.37
398.7399, 57290.05
399.2220, 57147.64
399.7041, 57095.20
400.1862, 57198.12
400.6683, 57358.44
401.1505, 57463.77
401.6326, 57486.69
402.1147, 57496.51
402.5968, 57501.30
403.0789, 57502.12
403.5610, 57519.32
404.0432, 57562.17
404.5253, 57608.20
405.0074, 57637.18
405.4895, 57642.49
405.9716, 57664.90
406.4537, 57715.86
406.9359, 57780.75
407.4180, 57816.79
407.9001, 57819.59
408.3822, 57824.18
408.8643, 57846.74
409.3464, 57886.71
409.8285, 57947.19
410.3106, 58032.76
410.7928, 58120.63
411.2749, 58187.44
411.7570, 58233.84
412.2391, 58260.29
412.7212, 58249.61
413.2033, 58226.73
413.6855, 58233.45
414.1676, 58268.97
414.6497, 58324.90
415.1318, 58412.17
415.6139, 58510.26
416.0960, 58586.38
416.5782, 58627.07
417.0603, 58649.93
417.5424, 58659.58
418.0245, 58659.80
418.5066, 58663.38
418.9887, 58664.74
419.4709, 58679.13
419.9530, 58727.67
420.4351, 58830.61
420.9172, 58903.99
421.3993, 58894.28
421.8814, 58846.09
422.3636, 58818.89
422.8457, 58849.25
423.3278, 58880.90
423.8099, 58905.70
424.2920, 58924.94
424.7741, 58919.95
425.2563, 58850.14
425.7384, 58785.82
426.2205, 58774.74
426.7026, 58849.62
427.1847, 58920.59
427.6668, 58982.33
428.1490, 59035.16
428.6311, 59078.46
429.1132, 59104.66
429.5953, 59136.05
430.0774, 59193.87
430.5595, 59286.28
431.0417, 59304.46
431.5238, 59218.83
432.0059, 59119.52
432.4880, 59145.23
432.9701, 59297.24
433.4522, 59427.18
433.9344, 59492.32
434.4165, 59503.41
434.8986, 59478.02
435.3807, 59416.68
435.8628, 59366.80
436.3449, 59378.59
436.8271, 59430.79
437.3092, 59469.00
437.7913, 59473.96
438.2734, 59483.83
438.7555, 59553.45
439.2376, 59662.34
439.7197, 59755.34
440.2018, 59787.86
440.6840, 59801.22
441.1661, 59833.90
441.6482, 59890.26
442.1303, 59933.08
442.6124, 59932.37
443.0945, 59911.41
443.5767, 59895.24
444.0588, 59868.36
444.5409, 59870.21
445.0230, 59935.82
445.5051, 60051.15
445.9872, 60133.52
446.4694, 60147.98
446.9515, 60145.53
447.4336, 60148.66
447.9157, 60155.21
448.3978, 60175.66
448.8799, 60221.41
449.3621, 60276.20
449.8442, 60314.60
450.3263, 60335.23
450.8084, 60340.11
451.2905, 60316.19
451.7726, 60266.74
452.2548, 60276.48
452.7369, 60360.36
453.2190, 60460.43
453.7011, 60532.84
454.1832, 60576.74
454.6653, 60597.82
455.1475, 60587.43
455.6296, 60570.28
456.1117, 60608.33
456.5938, 60694.28
457.0759, 60757.12
457.5580, 60740.64
458.0402, 60677.88
458.5223, 60620.58
459.0044, 60569.11
459.4865, 60553.57
459.9686, 60636.40
460.4507, 60765.64
460.9329, 60858.12
461.4150, 60844.92
461.8971, 60824.29
462.3792, 60874.69
462.8613, 60976.29
463.3434, 61052.65
463.8256, 61040.86
464.3077, 61013.71
464.7898, 61015.93
465.2719, 61064.38
465.7540, 61114.61
466.2361, 61152.50
466.7183, 61188.71
467.2004, 61237.36
467.6825, 61312.18
468.1646, 61383.76
468.6467, 61445.48
469.1288, 61497.18
469.6110, 61552.94
470.0930, 61618.29
470.5752, 61677.25
471.0573, 61718.09
471.5394, 61735.70
472.0215, 61749.97
472.5036, 61759.27
472.9857, 61767.95
473.4679, 61790.00
473.9500, 61826.50
474.4321, 61851.12
474.9142, 61847.36
475.3963, 61824.66
475.8784, 61817.03
476.3606, 61826.51
476.8427, 61836.73
477.3248, 61832.57
477.8069, 61820.92
478.2890, 61814.61
478.7711, 61819.96
479.2533, 61829.92
479.7354, 61832.62
480.2175, 61834.25
480.6996, 61850.23
481.1817, 61884.26
481.6638, 61936.32
482.1460, 62011.89
482.6281, 62111.90
483.1102, 62203.69
483.5923, 62250.62
484.0744, 62291.56
484.5565, 62361.92
485.0387, 62510.91
485.5208, 62633.91
486.0029, 62718.54
486.4850, 62765.83
486.9671, 62777.14
487.4492, 62732.39
487.9314, 62679.61
488.4135, 62637.18
488.8956, 62608.09
489.3777, 62587.74
489.8598, 62581.25
490.3419, 62581.26
490.8241, 62579.05
491.3062, 62575.75
491.7883, 62575.57
492.2704, 62577.45
492.7525, 62586.66
493.2346, 62629.93
493.7168, 62703.73
494.1989, 62753.96
494.6810, 62694.63
495.1631, 62594.56
495.6452, 62612.94
496.1273, 62776.93
496.6095, 62953.03
497.0916, 63021.42
497.5737, 63018.56
498.0558, 63001.17
498.5379, 62976.32
499.0201, 62957.08
499.5022, 62957.31
499.9843, 62972.96
500.4664, 62983.07
500.9485, 62951.91
501.4306, 62936.28
501.9127, 62971.58
502.3948, 63084.78
502.8770, 63191.39
503.3591, 63296.32
503.8412, 63385.25
504.3233, 63438.84
504.8054, 63427.18
505.2875, 63426.96
505.7697, 63448.97
506.2518, 63491.13
506.7339, 63550.97
507.2160, 63637.30
507.6981, 63710.10
508.1802, 63731.63
508.6624, 63705.01
509.1445, 63723.04
509.6266, 63801.19
510.1087, 63886.27
510.5908, 63907.97
511.0729, 63877.75
511.5551, 63835.96
512.0372, 63769.77
512.5193, 63725.82
513.0014, 63796.28
513.4835, 63957.56
513.9656, 64092.39
514.4478, 64084.93
514.9299, 64046.57
515.4120, 64081.87
515.8941, 64225.04
516.3762, 64354.29
516.8583, 64396.71
517.3405, 64403.97
517.8226, 64435.70
518.3047, 64538.11
518.7868, 64626.66
519.2689, 64684.85
519.7510, 64715.11
520.2332, 64725.08
520.7153, 64674.92
521.1974, 64659.04
521.6795, 64738.94
522.1616, 64951.51
522.6437, 65070.43
523.1259, 65069.00
523.6080, 65024.96
524.0901, 65038.85
524.5722, 65112.21
525.0543, 65164.40
525.5364, 65168.89
526.0186, 65149.83
526.5007, 65168.90
526.9828, 65217.97
527.4649, 65238.66
527.9470, 65154.29
528.4291, 65036.10
528.9113, 64977.71
529.3934, 64988.64
529.8755, 65037.34
530.3576, 65147.20
530.8397, 65265.80
531.3218, 65334.11
531.8040, 65284.36
532.2861, 65237.66
532.7682, 65246.45
533.2503, 65291.09
533.7324, 65312.19
534.2145, 65255.39
534.6967, 65221.72
535.1788, 65260.50
535.6609, 65392.12
536.1430, 65448.77
536.6251, 65389.83
537.1072, 65310.83
537.5894, 65297.88
538.0715, 65361.10
538.5536, 65432.97
539.0357, 65510.66
539.5178, 65583.79
539.9999, 65621.03
540.4821, 65624.34
540.9642, 65645.89
541.4463, 65727.14
541.9284, 65836.79
542.4105, 65907.66
542.8926, 65940.52
543.3748, 65972.30
543.8569, 66036.01
544.3390, 66110.14
544.8211, 66165.37
545.3032, 66180.54
545.7853, 66214.91
546.2675, 66345.99
546.7495, 66505.54
547.2316, 66587.14
547.7137, 66471.84
548.1959, 66372.52
548.6780, 66365.42
549.1601, 66444.65
549.6422, 66471.62
550.1243, 66403.54
550.6064, 66337.20
551.0886, 66324.83
551.5707, 66381.75
552.0528, 66429.19
552.5349, 66463.23
553.0170, 66494.77
553.4991, 66548.00
553.9813, 66621.26
554.4634, 66655.98
554.9455, 66618.49
555.4276, 66555.56
555.9097, 66567.17
556.3918, 66639.99
556.8740, 66704.45
557.3561, 66689.47
557.8382, 66661.99
558.3203, 66720.52
558.8024, 66877.16
559.2845, 66989.23
559.7667, 66906.48
560.2488, 66779.58
560.7309, 66748.87
561.2130, 66936.56
561.6951, 67097.94
562.1772, 67172.20
562.6594, 67190.80
563.1415, 67224.73
563.6236, 67282.45
564.1057, 67340.49
564.5878, 67388.78
565.0699, 67427.61
565.5521, 67493.59
566.0342, 67601.76
566.5163, 67692.15
566.9984, 67702.95
567.4805, 67642.17
567.9626, 67632.68
568.4448, 67688.22
568.9269, 67776.71
569.4090, 67883.80
569.8911, 67994.61
570.3732, 68068.73
570.8553, 68074.29
571.3375, 68055.30
571.8196, 68047.41
572.3017, 68048.59
572.7838, 68052.56
573.2659, 68055.07
573.7480, 68060.13
574.2302, 68070.24
574.7123, 68085.91
575.1944, 68103.76
575.6765, 68123.16
576.1586, 68145.86
576.6407, 68176.03
577.1229, 68237.08
577.6050, 68260.11
578.0871, 68225.30
578.5692, 68166.05
579.0513, 68147.73
579.5334, 68174.59
580.0156, 68220.45
580.4977, 68284.28
580.9798, 68357.96
581.4619, 68421.69
581.9440, 68474.50
582.4261, 68503.18
582.9083, 68472.08
583.3904, 68417.82
583.8725, 68395.05
584.3546, 68409.66
584.8367, 68447.19
585.3188, 68497.90
585.8010, 68565.11
586.2831, 68653.38
586.7652, 68818.78
587.2473, 68941.64
587.7294, 68960.11
588.2115, 68912.71
588.6937, 68909.16
589.1758, 68995.65
589.6579, 69072.86
590.1400, 69113.99
590.6221, 69119.62
591.1042, 69109.07
591.5864, 69071.64
592.0685, 69049.36
592.5506, 69086.13
593.0327, 69176.80
593.5148, 69237.73
593.9969, 69257.66
594.4791, 69269.98
594.9612, 69315.45
595.4433, 69385.19
595.9254, 69456.43
596.4075, 69516.65
596.8896, 69582.60
597.3718, 69690.26
597.8539, 69817.73
598.3360, 69901.35
598.8181, 69872.98
599.3002, 69831.01
599.7823, 69825.27
600.2645, 69862.47
600.7466, 69886.09
601.2287, 69860.17
601.7108, 69846.73
602.1929, 69885.56
602.6750, 69995.22
603.1572, 70101.95
603.6393, 70203.29
604.1214, 70304.23
604.6035, 70425.10
605.0856, 70565.67
605.5677, 70662.16
606.0499, 70678.47
606.5320, 70665.03
607.0141, 70722.02
607.4962, 70834.56
607.9783, 70939.14
608.4604, 70984.62
608.9425, 71013.24
609.4246, 71058.55
609.9067, 71122.69
610.3889, 71203.80
610.8710, 71343.59
611.3531, 71471.76
611.8352, 71534.13
612.3173, 71473.14
612.7994, 71444.25
613.2816, 71463.71
613.7637, 71513.84
614.2458, 71580.23
614.7279, 71680.55
615.2100, 71747.23
615.6921, 71762.70
616.1743, 71743.08
616.6564, 71715.81
617.1385, 71681.56
617.6206, 71687.66
618.1027, 71773.34
618.5848, 71911.81
619.0670, 72074.87
619.5491, 72257.05
620.0312, 72389.01
620.5133, 72365.98
620.9954, 72299.10
621.4775, 72304.05
621.9597, 72422.45
622.4418, 72531.39
622.9239, 72586.21
623.4060, 72609.76
623.8881, 72627.52
624.3702, 72647.55
624.8524, 72651.24
625.3345, 72624.46
625.8166, 72584.55
626.2987, 72580.02
626.7808, 72621.32
627.2629, 72656.00
627.7451, 72659.91
628.2272, 72643.87
628.7093, 72664.30
629.1914, 72720.81
629.6735, 72750.53
630.1556, 72684.79
630.6378, 72572.71
631.1199, 72482.98
631.6020, 72422.63
632.0841, 72388.06
632.5662, 72385.96
633.0483, 72405.06
633.5305, 72435.38
634.0126, 72494.72
634.4947, 72536.03
634.9768, 72545.09
635.4589, 72531.63
635.9410, 72510.23
636.4232, 72464.81
636.9053, 72440.04
637.3874, 72445.80
637.8695, 72477.68
638.3516, 72531.19
638.8337, 72611.02
639.3159, 72662.64
639.7980, 72626.23
640.2801, 72540.59
640.7622, 72534.11
641.2443, 72607.52
641.7264, 72678.91
642.2086, 72691.70
642.6907, 72666.30
643.1728, 72615.20
643.6549, 72523.44
644.1370, 72469.37
644.6191, 72495.30
645.1013, 72573.59
645.5834, 72671.88
646.0655, 72862.08
646.5476, 72966.96
647.0297, 72917.34
647.5118, 72790.55
647.9940, 72784.27
648.4761, 72928.79
648.9582, 73066.19
649.4403, 73137.46
649.9224, 73159.84
650.4045, 73205.15
650.8867, 73271.31
651.3688, 73333.75
651.8509, 73375.15
652.3330, 73403.26
652.8151, 73435.54
653.2972, 73474.55
653.7794, 73488.77
654.2615, 73428.02
654.7436, 73354.67
655.2257, 73325.65
655.7078, 73384.16
656.1899, 73428.42
656.6721, 73440.58
657.1542, 73434.98
657.6363, 73426.79
658.1184, 73416.02
658.6005, 73399.38
659.0826, 73370.73
659.5648, 73338.91
660.0469, 73340.29
660.5290, 73373.05
661.0111, 73370.18
661.4932, 73266.98
661.9753, 73130.86
662.4575, 73078.73
662.9396, 73103.95
663.4217, 73157.98
663.9038, 73239.63
664.3859, 73322.25
664.8680, 73382.96
665.3502, 73418.42
665.8323, 73453.89
666.3144, 73505.97
666.7965, 73551.30
667.2786, 73569.05
667.7607, 73517.70
668.2429, 73523.26
668.7250, 73601.50
669.2071, 73707.44
669.6892, 73781.41
670.1713, 73821.05
670.6534, 73860.51
671.1355, 73913.47
671.6176, 73953.30
672.0997, 73925.88
672.5818, 73849.98
673.0640, 73779.95
673.5461, 73753.03
674.0282, 73737.15
674.5103, 73721.42
674.9924, 73704.41
675.4745, 73670.14
675.9567, 73606.85
676.4388, 73538.61
676.9209, 73465.55
677.4030, 73384.86
677.8851, 73368.13
678.3672, 73434.08
678.8494, 73530.38
679.3315, 73620.88
679.8136, 73702.66
680.2957, 73804.20
680.7778, 73927.04
681.2599, 74040.07
681.7421, 74090.05
682.2242, 74102.58
682.7063, 74140.30
683.1884, 74230.73
683.6705, 74312.54
684.1526, 74324.07
684.6348, 74302.17
685.1169, 74303.92
685.5990, 74390.52
686.0811, 74454.76
686.5632, 74453.36
687.0453, 74415.09
687.5275, 74419.05
688.0096, 74493.14
688.4917, 74552.19
688.9738, 74558.38
689.4559, 74529.70
689.9380, 74563.83
690.4202, 74660.77
690.9023, 74763.73
691.3844, 74838.82
691.8665, 74890.50
692.3486, 74926.90
692.8307, 74947.48
693.3129, 74951.69
693.7950, 74898.79
694.2771, 74852.73
694.7592, 74875.57
695.2413, 75014.84
695.7234, 75114.79
696.2056, 75132.91
696.6877, 75114.87
697.1698, 75098.57
697.6519, 75091.87
698.1340, 75065.68
698.6161, 75014.52
699.0983, 74953.77
699.5804, 74898.49
700.0625, 74853.16
700.5446, 74843.41
701.0267, 74899.79
701.5089, 74962.38
701.9910, 74936.34
702.4731, 74856.48
702.9552, 74811.34
703.4373, 74881.73
703.9194, 74955.82
704.4016, 74964.91
704.8837, 74919.29
705.3658, 74919.67
705.8479, 75042.46
706.3300, 75119.54
706.8121, 75065.76
707.2943, 74882.25
707.7764, 74817.97
708.2585, 74891.19
708.7406, 74987.98
709.2227, 75030.31
709.7048, 75029.85
710.1870, 75010.92
710.6691, 74974.13
711.1512, 74948.44
711.6333, 74964.70
712.1154, 75000.48
712.5975, 75032.10
713.0797, 75056.81
713.5618, 75072.33
714.0439, 75051.83
714.5260, 75033.70
715.0081, 75061.54
715.4902, 75153.11
715.9724, 75251.21
716.4545, 75358.26
716.9366, 75457.91
717.4187, 75522.07
717.9008, 75550.88
718.3829, 75540.51
718.8651, 75466.84
719.3472, 75387.34
719.8293, 75383.21
720.3114, 75441.13
720.7935, 75522.58
721.2756, 75653.57
721.7578, 75762.21
