##NAMES=Ushkovite
##RRUFFID=R060954
##IDEAL CHEMISTRY=MgFe^3+^_2_(P^5+^O_4_)_2_(OH)_2_&#183;8H_2_O
##LOCALITY=Linópolis, Minas Gerais, Brazil
##OWNER=RRUFF
##SOURCE=Bob Jenkins
##DESCRIPTION=Radial aggregate of pale brownish yellow bladed crystals, associated with radial aggregate of pale green atencioite, dark green rockbridgeite, and lefontite R140074
##STATUS=The identification of this mineral is confirmed by single-crystal X-ray diffraction and chemical analysis.
##URL=rruff.info/R060954
##MEASURED CHEMISTRY=Mg_1.03_Fe^3+^_2.08_(P_2.00_O_4_)_2_(OH)_2_·8H_2_O
190.9528, 43435.43
191.4349, 43535.16
191.9170, 43663.16
192.3992, 43820.46
192.8813, 43966.00
193.3634, 44054.45
193.8455, 44079.08
194.3276, 44127.92
194.8097, 44240.17
195.2919, 44353.30
195.7740, 44410.49
196.2561, 44408.99
196.7382, 44392.20
197.2203, 44397.30
197.7024, 44425.24
198.1846, 44437.55
198.6667, 44432.33
199.1488, 44412.25
199.6309, 44375.89
200.1130, 44323.71
200.5951, 44263.50
201.0773, 44193.36
201.5594, 44116.94
202.0415, 44072.93
202.5236, 44100.05
203.0057, 44130.02
203.4878, 44102.33
203.9700, 44020.40
204.4521, 43945.22
204.9342, 43925.79
205.4163, 43955.05
205.8984, 43951.99
206.3805, 43883.03
206.8626, 43809.15
207.3448, 43769.96
207.8269, 43763.01
208.3090, 43766.99
208.7911, 43773.79
209.2732, 43779.34
209.7553, 43767.41
210.2375, 43696.55
210.7196, 43645.80
211.2017, 43682.75
211.6838, 43788.49
212.1659, 43875.95
212.6480, 43892.07
213.1302, 43852.57
213.6123, 43829.94
214.0944, 43813.43
214.5765, 43823.13
215.0586, 43881.71
215.5407, 43977.68
216.0229, 44078.05
216.5050, 44173.70
216.9871, 44255.80
217.4692, 44297.32
217.9513, 44281.43
218.4334, 44257.50
218.9156, 44243.98
219.3977, 44237.57
219.8798, 44227.86
220.3619, 44207.83
220.8440, 44186.60
221.3261, 44189.38
221.8083, 44229.01
222.2904, 44262.20
222.7725, 44270.82
223.2546, 44263.96
223.7367, 44261.03
224.2188, 44270.74
224.7010, 44280.55
225.1831, 44260.67
225.6652, 44197.67
226.1473, 44145.48
226.6294, 44117.21
227.1115, 44105.73
227.5937, 44100.81
228.0758, 44099.15
228.5579, 44104.39
229.0400, 44125.80
229.5221, 44171.21
230.0042, 44204.04
230.4863, 44204.55
230.9685, 44196.70
231.4506, 44210.10
231.9327, 44251.12
232.4148, 44299.85
232.8969, 44328.08
233.3790, 44324.28
233.8612, 44352.12
234.3433, 44444.25
234.8254, 44550.48
235.3075, 44627.75
235.7896, 44670.81
236.2717, 44700.03
236.7539, 44735.57
237.2360, 44779.24
237.7181, 44812.29
238.2002, 44835.30
238.6823, 44847.75
239.1644, 44831.91
239.6466, 44796.85
240.1287, 44791.95
240.6108, 44869.18
241.0929, 45031.78
241.5750, 45110.18
242.0571, 45039.57
242.5393, 44960.94
243.0214, 44942.66
243.5035, 44973.43
243.9856, 45007.43
244.4677, 45014.18
244.9498, 44997.86
245.4320, 44997.80
245.9141, 45035.70
246.3962, 45063.89
246.8783, 45040.28
247.3604, 45000.33
247.8425, 45012.54
248.3247, 45115.87
248.8068, 45285.52
249.2889, 45430.69
249.7710, 45531.64
250.2531, 45629.20
250.7352, 45717.49
251.2174, 45807.11
251.6995, 45903.40
252.1816, 46008.18
252.6637, 46134.53
253.1458, 46310.76
253.6279, 46578.84
254.1100, 46843.96
254.5922, 47105.03
255.0743, 47362.79
255.5564, 47622.71
256.0385, 47883.84
256.5206, 48134.86
257.0027, 48354.05
257.4849, 48517.60
257.9670, 48705.85
258.4491, 48938.10
258.9312, 49176.17
259.4133, 49406.12
259.8954, 49622.00
260.3776, 49816.24
260.8597, 49987.13
261.3418, 50141.24
261.8239, 50227.47
262.3060, 50200.60
262.7881, 50151.45
263.2703, 50135.29
263.7524, 50129.37
264.2345, 50065.62
264.7166, 49880.05
265.1987, 49580.59
265.6808, 49319.99
266.1630, 49152.70
266.6451, 48964.18
267.1272, 48711.67
267.6093, 48421.55
268.0914, 48132.83
268.5735, 47863.98
269.0557, 47617.46
269.5378, 47398.93
270.0199, 47214.36
270.5020, 47048.73
270.9841, 46903.33
271.4662, 46769.32
271.9484, 46634.14
272.4305, 46491.31
272.9126, 46354.59
273.3947, 46247.29
273.8768, 46176.32
274.3589, 46112.08
274.8411, 46052.86
275.3232, 45994.97
275.8053, 45929.52
276.2874, 45855.68
276.7695, 45795.38
277.2516, 45778.35
277.7338, 45806.12
278.2159, 45824.00
278.6980, 45818.68
279.1801, 45805.95
279.6622, 45798.27
280.1443, 45794.38
280.6265, 45784.11
281.1086, 45750.94
281.5907, 45703.59
282.0728, 45681.95
282.5549, 45700.39
283.0370, 45721.96
283.5192, 45711.77
284.0013, 45683.58
284.4834, 45673.03
284.9655, 45714.38
285.4476, 45773.57
285.9297, 45797.81
286.4118, 45784.29
286.8940, 45755.03
287.3761, 45730.99
287.8582, 45697.64
288.3403, 45621.39
288.8224, 45461.21
289.3045, 45300.99
289.7867, 45221.92
290.2688, 45212.66
290.7509, 45192.05
291.2330, 45121.60
291.7151, 45022.83
292.1972, 44939.87
292.6794, 44871.41
293.1615, 44819.44
293.6436, 44787.82
294.1257, 44772.74
294.6078, 44769.52
295.0899, 44778.81
295.5721, 44789.37
296.0542, 44779.59
296.5363, 44738.34
297.0184, 44721.57
297.5005, 44745.25
297.9826, 44789.97
298.4648, 44846.68
298.9469, 44910.58
299.4290, 44960.44
299.9111, 44969.43
300.3932, 44928.42
300.8753, 44929.78
301.3575, 44998.97
301.8396, 45081.05
302.3217, 45161.10
302.8038, 45231.90
303.2859, 45279.55
303.7680, 45292.59
304.2502, 45277.18
304.7323, 45275.35
305.2144, 45310.66
305.6965, 45332.88
306.1786, 45332.25
306.6607, 45315.29
307.1429, 45287.24
307.6250, 45250.67
308.1071, 45211.33
308.5892, 45182.27
309.0713, 45172.50
309.5534, 45156.41
310.0356, 45142.60
310.5177, 45116.69
310.9998, 45059.05
311.4819, 44972.00
311.9640, 44884.69
312.4461, 44831.75
312.9283, 44820.36
313.4104, 44799.61
313.8925, 44759.82
314.3746, 44720.30
314.8567, 44689.04
315.3388, 44664.55
315.8210, 44640.94
316.3031, 44613.41
316.7852, 44584.42
317.2673, 44560.95
317.7494, 44537.51
318.2315, 44532.06
318.7137, 44558.18
319.1958, 44602.52
319.6779, 44653.38
320.1600, 44713.07
320.6421, 44762.84
321.1242, 44766.80
321.6064, 44721.50
322.0885, 44696.96
322.5706, 44722.63
323.0527, 44773.30
323.5348, 44817.43
324.0169, 44852.32
324.4991, 44892.03
324.9812, 44963.04
325.4633, 45044.26
325.9454, 45071.82
326.4275, 45019.34
326.9096, 44955.67
327.3918, 44960.92
327.8739, 45027.91
328.3560, 45083.64
328.8381, 45130.59
329.3202, 45151.15
329.8023, 45111.72
330.2844, 45018.45
330.7665, 44932.97
331.2487, 44898.08
331.7308, 44908.04
332.2129, 44911.30
332.6950, 44913.99
333.1771, 44905.54
333.6592, 44882.35
334.1414, 44846.09
334.6235, 44796.12
335.1056, 44731.38
335.5877, 44661.97
336.0698, 44609.02
336.5519, 44592.90
337.0341, 44562.07
337.5162, 44504.84
337.9983, 44441.81
338.4804, 44382.73
338.9625, 44332.02
339.4446, 44296.76
339.9268, 44283.37
340.4089, 44291.38
340.8910, 44324.28
341.3731, 44430.68
341.8552, 44512.89
342.3373, 44539.62
342.8195, 44518.87
343.3016, 44464.59
343.7837, 44377.23
344.2658, 44274.67
344.7479, 44210.48
345.2300, 44191.30
345.7122, 44196.87
346.1943, 44250.29
346.6764, 44308.41
347.1585, 44327.42
347.6406, 44295.66
348.1227, 44252.40
348.6049, 44230.34
349.0870, 44229.69
349.5691, 44257.17
350.0512, 44334.49
350.5333, 44414.13
351.0154, 44453.91
351.4976, 44459.25
351.9797, 44462.25
352.4618, 44481.49
352.9439, 44504.63
353.4260, 44514.91
353.9081, 44511.82
354.3903, 44492.63
354.8724, 44453.88
355.3545, 44395.97
355.8366, 44328.74
356.3187, 44230.59
356.8008, 44146.80
357.2830, 44112.62
357.7651, 44109.55
358.2472, 44092.02
358.7293, 44040.61
359.2114, 43977.30
359.6935, 43945.09
360.1757, 43978.88
360.6578, 43972.38
361.1399, 43882.88
361.6220, 43778.87
362.1041, 43710.83
362.5862, 43685.14
363.0684, 43685.46
363.5505, 43699.16
364.0326, 43726.77
364.5147, 43753.65
364.9968, 43794.30
365.4789, 43818.21
365.9611, 43803.11
366.4432, 43769.36
366.9253, 43744.67
367.4074, 43741.63
367.8895, 43758.10
368.3716, 43792.69
368.8538, 43852.11
369.3359, 43910.09
369.8180, 43972.19
370.3001, 44023.65
370.7822, 44046.71
371.2643, 44042.41
371.7465, 44039.88
372.2286, 44071.51
372.7107, 44127.68
373.1928, 44158.43
373.6749, 44154.85
374.1570, 44138.23
374.6392, 44111.39
375.1213, 44082.62
375.6034, 44072.25
376.0855, 44113.13
376.5676, 44149.66
377.0497, 44110.07
377.5318, 44008.53
378.0139, 43942.93
378.4961, 43970.11
378.9782, 44037.68
379.4603, 44025.12
379.9424, 43906.73
380.4245, 43799.99
380.9066, 43739.97
381.3888, 43700.47
381.8709, 43652.77
382.3530, 43592.33
382.8351, 43528.16
383.3172, 43464.76
383.7993, 43398.58
384.2815, 43376.71
384.7636, 43461.20
385.2457, 43517.61
385.7278, 43475.55
386.2099, 43378.68
386.6920, 43302.09
387.1742, 43283.02
387.6563, 43303.37
388.1384, 43319.89
388.6205, 43322.13
389.1026, 43344.94
389.5847, 43426.60
390.0669, 43502.57
390.5490, 43513.63
391.0311, 43464.87
391.5132, 43428.80
391.9953, 43489.29
392.4774, 43623.89
392.9596, 43690.00
393.4417, 43655.71
393.9238, 43616.47
394.4059, 43634.53
394.8880, 43683.49
395.3701, 43721.53
395.8523, 43737.93
396.3344, 43741.37
396.8165, 43731.98
397.2986, 43713.47
397.7807, 43706.90
398.2628, 43723.91
398.7450, 43746.34
399.2271, 43743.38
399.7092, 43711.20
400.1913, 43677.70
400.6734, 43651.88
401.1555, 43623.24
401.6377, 43574.46
402.1198, 43510.13
402.6019, 43458.29
403.0840, 43443.57
403.5661, 43461.89
404.0482, 43464.56
404.5304, 43450.16
405.0125, 43422.71
405.4946, 43369.07
405.9767, 43309.69
406.4588, 43273.69
406.9409, 43268.59
407.4231, 43266.79
407.9052, 43221.74
408.3873, 43119.74
408.8694, 43049.31
409.3515, 43025.67
409.8336, 43025.06
410.3158, 43050.64
410.7979, 43090.46
411.2800, 43114.30
411.7621, 43088.60
412.2442, 43051.30
412.7263, 43088.99
413.2085, 43212.54
413.6906, 43288.54
414.1727, 43236.08
414.6548, 43121.92
415.1369, 43054.07
415.6190, 43035.79
416.1012, 43049.68
416.5833, 43112.04
417.0654, 43193.13
417.5475, 43251.67
418.0296, 43280.91
418.5117, 43289.23
418.9939, 43289.00
419.4760, 43280.75
419.9581, 43210.88
420.4402, 43001.00
420.9223, 42826.29
421.4044, 42772.07
421.8865, 42785.78
422.3687, 42783.78
422.8508, 42732.71
423.3329, 42658.07
423.8150, 42604.35
424.2971, 42575.34
424.7792, 42558.02
425.2614, 42577.99
425.7435, 42586.34
426.2256, 42559.71
426.7077, 42500.41
427.1898, 42419.46
427.6719, 42310.26
428.1541, 42193.09
428.6362, 42121.48
429.1183, 42102.86
429.6004, 42095.27
430.0825, 42090.57
430.5646, 42082.97
431.0468, 42065.82
431.5289, 42038.77
432.0110, 42002.44
432.4931, 41942.38
432.9752, 41877.82
433.4573, 41846.22
433.9395, 41853.80
434.4216, 41869.51
434.9037, 41865.18
435.3858, 41841.13
435.8679, 41834.52
436.3500, 41871.03
436.8322, 41894.23
437.3143, 41876.18
437.7964, 41835.49
438.2785, 41798.66
438.7606, 41775.85
439.2427, 41762.10
439.7249, 41749.57
440.2070, 41737.02
440.6891, 41729.41
441.1712, 41728.08
441.6533, 41730.09
442.1354, 41746.00
442.6176, 41764.03
443.0997, 41755.14
443.5818, 41692.23
444.0639, 41606.76
444.5460, 41560.71
445.0281, 41557.58
445.5103, 41557.82
445.9924, 41556.44
446.4745, 41544.21
446.9566, 41507.61
447.4387, 41443.61
447.9208, 41382.87
448.4030, 41334.53
448.8851, 41296.84
449.3672, 41270.78
449.8493, 41255.69
450.3314, 41247.90
450.8135, 41250.47
451.2957, 41257.27
451.7778, 41223.63
452.2599, 41086.45
452.7420, 40992.57
453.2241, 40988.33
453.7062, 41024.48
454.1884, 41065.84
454.6705, 41097.62
455.1526, 41099.18
455.6347, 41030.79
456.1168, 40887.36
456.5989, 40817.16
457.0811, 40866.98
457.5632, 40927.17
458.0453, 40967.32
458.5274, 40986.06
459.0095, 40975.07
459.4916, 40921.41
459.9738, 40869.35
460.4559, 40866.56
460.9380, 40906.14
461.4201, 40959.36
461.9022, 41031.83
462.3843, 41085.96
462.8665, 41070.69
463.3486, 40988.16
463.8307, 40920.06
464.3128, 40860.37
464.7949, 40829.97
465.2770, 40871.11
465.7591, 40951.42
466.2412, 40992.69
466.7234, 40958.92
467.2055, 40884.40
467.6876, 40836.35
468.1697, 40828.93
468.6518, 40819.36
469.1339, 40809.94
469.6161, 40796.26
470.0982, 40772.32
470.5803, 40741.58
471.0624, 40713.43
471.5445, 40694.39
472.0266, 40679.79
472.5088, 40662.57
472.9909, 40644.48
473.4730, 40607.96
473.9551, 40525.59
474.4372, 40441.03
474.9193, 40413.84
475.4015, 40448.62
475.8836, 40459.16
476.3657, 40390.40
476.8478, 40294.35
477.3299, 40234.80
477.8120, 40210.74
478.2942, 40177.88
478.7763, 40104.69
479.2584, 40008.88
479.7405, 39955.07
480.2226, 39977.02
480.7047, 39999.36
481.1869, 40031.46
481.6690, 40055.06
482.1511, 40051.00
482.6332, 40021.39
483.1153, 39987.11
483.5974, 39969.27
484.0796, 39961.41
484.5617, 39915.51
485.0438, 39790.95
485.5259, 39722.69
486.0080, 39824.79
486.4901, 39975.04
486.9723, 40056.76
487.4544, 40049.85
487.9365, 40017.42
488.4186, 39985.77
488.9007, 39956.66
489.3828, 39934.61
489.8650, 39919.89
490.3471, 39906.01
490.8292, 39886.74
491.3113, 39864.09
491.7934, 39852.82
492.2755, 39873.55
492.7577, 39877.66
493.2398, 39854.27
493.7219, 39811.83
494.2040, 39752.20
494.6861, 39679.78
495.1682, 39611.27
495.6504, 39564.20
496.1325, 39537.37
496.6146, 39507.86
497.0967, 39480.95
497.5788, 39442.16
498.0609, 39354.96
498.5431, 39268.71
499.0252, 39251.96
499.5073, 39327.41
499.9894, 39400.78
500.4715, 39405.45
500.9536, 39359.19
501.4358, 39287.58
501.9179, 39191.22
502.4000, 39120.84
502.8821, 39127.02
503.3642, 39195.10
503.8463, 39209.39
504.3285, 39110.51
504.8106, 39040.59
505.2927, 39053.21
505.7748, 39098.95
506.2569, 39124.15
506.7390, 39119.34
507.2212, 39110.08
507.7033, 39125.28
508.1854, 39162.68
508.6675, 39174.58
509.1496, 39144.25
509.6317, 39117.55
510.1138, 39122.39
510.5959, 39133.06
511.0781, 39115.41
511.5602, 39059.02
512.0423, 39009.91
512.5244, 39010.95
513.0065, 39038.29
513.4886, 39039.98
513.9708, 39009.39
514.4529, 38978.71
514.9350, 38973.73
515.4171, 38987.73
515.8992, 38980.19
516.3813, 38927.29
516.8635, 38886.40
517.3456, 38877.49
517.8277, 38877.10
518.3098, 38859.15
518.7919, 38822.95
519.2740, 38790.78
519.7562, 38784.91
520.2383, 38799.82
520.7204, 38802.00
521.2025, 38794.54
521.6846, 38766.65
522.1667, 38684.00
522.6489, 38595.88
523.1310, 38552.94
523.6131, 38562.66
524.0952, 38579.40
524.5773, 38582.57
525.0594, 38577.61
525.5416, 38575.60
526.0237, 38575.86
526.5058, 38562.53
526.9879, 38523.82
527.4700, 38468.13
527.9521, 38421.34
528.4343, 38381.71
528.9164, 38356.02
529.3985, 38351.83
529.8806, 38356.11
530.3627, 38368.03
530.8448, 38381.45
531.3270, 38379.70
531.8091, 38346.34
532.2912, 38298.04
532.7733, 38278.64
533.2554, 38292.88
533.7375, 38306.75
534.2197, 38322.21
534.7018, 38320.57
535.1839, 38269.95
535.6660, 38171.79
536.1481, 38097.07
536.6302, 38061.05
537.1124, 38058.25
537.5945, 38110.46
538.0766, 38193.70
538.5587, 38239.51
539.0408, 38217.40
539.5229, 38157.35
540.0051, 38114.11
540.4872, 38095.89
540.9693, 38069.75
541.4514, 38035.19
541.9335, 37993.60
542.4156, 37940.08
542.8978, 37881.73
543.3799, 37828.54
543.8620, 37783.09
544.3441, 37751.33
544.8262, 37757.24
545.3083, 37789.23
545.7905, 37775.47
546.2726, 37693.76
546.7547, 37601.04
547.2368, 37540.79
547.7189, 37514.31
548.2010, 37509.99
548.6832, 37575.14
549.1653, 37605.32
549.6474, 37526.56
550.1295, 37414.36
550.6116, 37367.80
551.0938, 37402.70
551.5759, 37454.26
552.0580, 37456.85
552.5401, 37414.66
553.0222, 37377.14
553.5043, 37337.49
553.9865, 37316.71
554.4686, 37351.99
554.9507, 37394.51
555.4328, 37388.65
555.9149, 37324.60
556.3970, 37268.83
556.8792, 37262.70
557.3613, 37277.65
557.8434, 37281.29
558.3255, 37271.59
558.8076, 37250.22
559.2897, 37214.42
559.7719, 37177.74
560.2540, 37178.10
560.7361, 37263.04
561.2182, 37296.86
561.7003, 37242.82
562.1824, 37178.06
562.6646, 37146.80
563.1467, 37138.27
563.6288, 37116.66
564.1109, 37060.83
564.5930, 36993.06
565.0751, 36940.51
565.5573, 36902.73
566.0394, 36882.29
566.5215, 36887.82
567.0036, 36885.99
567.4857, 36835.64
567.9678, 36738.85
568.4500, 36682.86
568.9321, 36711.60
569.4142, 36730.09
569.8963, 36701.75
570.3784, 36647.26
570.8605, 36591.74
571.3427, 36541.58
571.8248, 36487.91
572.3069, 36413.52
572.7890, 36325.68
573.2711, 36292.14
573.7532, 36332.50
574.2354, 36377.55
574.7175, 36414.27
575.1996, 36435.22
575.6817, 36427.77
576.1638, 36389.23
576.6459, 36347.91
577.1281, 36302.34
577.6101, 36267.79
578.0922, 36272.57
578.5743, 36304.86
579.0565, 36315.14
579.5386, 36277.10
580.0207, 36223.02
580.5028, 36220.00
580.9849, 36293.53
581.4670, 36346.30
581.9492, 36380.39
582.4313, 36389.43
582.9134, 36352.58
583.3955, 36292.41
583.8776, 36251.98
584.3597, 36251.52
584.8419, 36250.31
585.3240, 36198.31
585.8061, 36118.64
586.2882, 36074.55
586.7703, 36076.44
587.2524, 36095.34
587.7346, 36118.67
588.2167, 36138.69
588.6988, 36106.50
589.1809, 35906.25
589.6630, 35810.32
590.1451, 35943.05
590.6273, 36103.98
591.1094, 36133.59
591.5915, 36040.33
592.0736, 35931.18
592.5557, 35870.26
593.0378, 35838.56
593.5200, 35796.58
594.0021, 35744.98
594.4842, 35721.80
594.9663, 35749.29
595.4484, 35780.56
595.9305, 35755.20
596.4127, 35670.00
596.8948, 35631.03
597.3769, 35676.81
597.8590, 35726.77
598.3411, 35757.36
598.8232, 35771.46
599.3054, 35768.58
599.7875, 35751.87
600.2696, 35739.28
600.7517, 35756.70
601.2338, 35794.91
601.7159, 35790.16
602.1981, 35729.06
602.6802, 35676.24
603.1623, 35654.25
603.6444, 35654.46
604.1265, 35668.56
604.6086, 35698.82
605.0908, 35718.46
605.5729, 35706.10
606.0550, 35694.17
606.5371, 35722.40
607.0192, 35767.36
607.5013, 35768.99
607.9835, 35704.35
608.4656, 35618.39
608.9477, 35574.79
609.4298, 35576.20
609.9119, 35593.77
610.3940, 35644.05
610.8762, 35681.00
611.3583, 35670.93
611.8404, 35639.96
612.3225, 35626.10
612.8046, 35641.70
613.2867, 35635.03
613.7689, 35555.27
614.2510, 35459.76
614.7331, 35414.18
615.2152, 35415.48
615.6973, 35430.18
616.1794, 35441.45
616.6616, 35450.45
617.1437, 35461.41
617.6258, 35479.59
618.1079, 35480.77
618.5900, 35433.21
619.0721, 35405.49
619.5543, 35458.89
620.0364, 35544.57
620.5185, 35570.48
621.0006, 35497.15
621.4827, 35416.57
621.9648, 35380.54
622.4470, 35377.18
622.9291, 35399.07
623.4112, 35439.96
623.8933, 35471.28
624.3754, 35473.17
624.8575, 35454.78
625.3397, 35444.78
625.8218, 35452.27
626.3039, 35447.88
626.7860, 35431.99
627.2681, 35402.04
627.7502, 35336.66
628.2324, 35258.35
628.7145, 35219.96
629.1966, 35256.77
629.6787, 35298.88
630.1608, 35279.90
630.6429, 35229.16
631.1251, 35208.30
631.6072, 35224.97
632.0893, 35246.75
632.5714, 35250.68
633.0535, 35238.50
633.5356, 35215.36
634.0178, 35158.37
634.4999, 35133.55
634.9820, 35180.59
635.4641, 35227.60
635.9462, 35234.69
636.4283, 35207.00
636.9105, 35165.74
637.3926, 35110.49
637.8747, 35059.55
638.3568, 35028.40
638.8389, 35013.70
639.3210, 35012.63
639.8032, 35023.51
640.2853, 35029.78
640.7674, 35019.48
641.2495, 34992.14
641.7316, 34943.62
642.2137, 34847.49
642.6959, 34778.35
643.1780, 34774.94
643.6601, 34771.44
644.1422, 34713.86
644.6243, 34620.26
645.1064, 34555.55
645.5886, 34560.57
646.0707, 34579.55
646.5528, 34566.92
647.0349, 34529.92
647.5170, 34474.18
647.9991, 34403.11
648.4813, 34353.80
648.9634, 34360.41
649.4455, 34411.10
649.9276, 34436.52
650.4097, 34423.13
650.8918, 34409.91
651.3740, 34394.25
651.8561, 34385.36
652.3382, 34395.36
652.8203, 34417.21
653.3024, 34429.07
653.7845, 34423.62
654.2667, 34403.89
654.7488, 34361.73
655.2309, 34309.38
655.7130, 34271.31
656.1951, 34251.42
656.6772, 34241.54
657.1594, 34236.32
657.6415, 34234.56
658.1236, 34231.48
658.6057, 34227.90
659.0878, 34221.22
659.5699, 34213.48
660.0521, 34200.38
660.5342, 34175.52
661.0163, 34143.41
661.4984, 34118.80
661.9805, 34121.51
662.4626, 34107.19
662.9448, 34021.40
663.4269, 33911.34
663.9090, 33856.96
664.3911, 33862.91
664.8732, 33867.40
665.3553, 33823.94
665.8375, 33754.21
666.3196, 33728.12
666.8017, 33756.58
667.2838, 33793.02
667.7659, 33853.61
668.2480, 33894.94
668.7301, 33873.23
669.2122, 33813.75
669.6943, 33779.65
670.1765, 33792.03
670.6586, 33811.17
671.1407, 33837.01
671.6228, 33848.69
672.1049, 33794.14
672.5870, 33694.92
673.0692, 33656.31
673.5513, 33748.90
674.0334, 33891.13
674.5155, 33893.63
674.9976, 33737.13
675.4797, 33648.47
675.9619, 33671.04
676.4440, 33719.02
676.9261, 33754.13
677.4082, 33771.73
677.8903, 33758.64
678.3724, 33694.17
678.8546, 33645.68
679.3367, 33637.82
679.8188, 33645.32
680.3009, 33655.50
680.7830, 33663.31
681.2651, 33664.35
681.7473, 33656.76
682.2294, 33636.83
682.7115, 33586.98
683.1936, 33514.80
