##NAMES=Ussingite
##RRUFFID=R070562
##IDEAL CHEMISTRY=Na_2_AlSi_3_O_8_(OH)
##LOCALITY=Tareq Slope, Ilimaussaq, Narsaq, Kitaa Province, Greenland
##OWNER=RRUFF
##SOURCE=James Shigley
##DESCRIPTION=Pale purple massive
##STATUS=The identification of this mineral has been confirmed by X-ray diffraction and chemical analysis
##URL=rruff.info/R070562
##MEASURED CHEMISTRY=Na_2.00_Al_1.00_Si_3.00_O_8_((OH)_0.91_F_0.09_)_Î£=1_; OH by difference
135.6376, 5616.757
136.1197, 5627.872
136.6018, 5641.676
137.0839, 5664.861
137.5661, 5696.542
138.0482, 5754.855
138.5303, 5833.126
139.0124, 5935.150
139.4945, 6116.538
139.9767, 6386.032
140.4588, 6717.981
140.9409, 7076.006
141.4230, 7445.920
141.9051, 7874.958
142.3872, 8384.187
142.8694, 8972.999
143.3515, 9640.303
143.8336, 10429.07
144.3157, 11294.53
144.7978, 12029.05
145.2799, 12681.13
145.7621, 13063.30
146.2442, 12956.22
146.7263, 12141.03
147.2084, 11268.96
147.6905, 10366.83
148.1726, 9417.258
148.6548, 8655.905
149.1369, 8092.973
149.6190, 7689.496
150.1011, 7393.468
150.5832, 7223.347
151.0653, 7136.634
151.5475, 7125.149
152.0296, 7214.340
152.5117, 7328.182
152.9938, 7458.757
153.4759, 7611.351
153.9580, 7804.344
154.4402, 8045.419
154.9223, 8319.639
155.4044, 8618.441
155.8865, 8982.704
156.3686, 9332.397
156.8507, 9698.243
157.3329, 10077.08
157.8150, 10310.72
158.2971, 10394.22
158.7792, 10314.28
159.2613, 10058.55
159.7434, 9487.219
160.2256, 8858.460
160.7077, 8250.606
161.1898, 7649.961
161.6719, 7129.845
162.1540, 6721.784
162.6361, 6406.581
163.1183, 6148.994
163.6004, 5954.032
164.0825, 5801.403
164.5646, 5678.783
165.0467, 5602.555
165.5288, 5533.713
166.0110, 5454.293
166.4931, 5366.883
166.9752, 5284.848
167.4573, 5204.429
167.9394, 5136.013
168.4215, 5090.023
168.9037, 5064.869
169.3858, 5067.550
169.8679, 5105.646
170.3500, 5179.980
170.8321, 5276.305
171.3142, 5404.000
171.7964, 5546.654
172.2785, 5674.178
172.7606, 5815.468
173.2427, 5914.114
173.7248, 5915.111
174.2069, 5802.797
174.6891, 5617.023
175.1712, 5362.054
175.6533, 5054.128
176.1354, 4745.228
176.6175, 4452.316
177.0996, 4182.666
177.5818, 3945.698
178.0639, 3738.508
178.5460, 3565.923
179.0281, 3448.625
179.5102, 3384.021
179.9923, 3330.906
180.4745, 3252.122
180.9566, 3157.708
181.4387, 3071.197
181.9208, 3008.151
182.4029, 2958.337
182.8851, 2898.689
183.3672, 2825.711
183.8493, 2761.844
184.3314, 2742.522
184.8135, 2760.829
185.2956, 2780.537
185.7778, 2774.747
186.2599, 2754.420
186.7420, 2751.627
187.2241, 2771.994
187.7062, 2807.707
188.1883, 2849.065
188.6705, 2896.332
189.1526, 2942.234
189.6347, 2976.459
190.1168, 3002.378
190.5989, 3038.917
191.0810, 3091.712
191.5632, 3157.279
192.0453, 3227.866
192.5274, 3303.001
193.0095, 3383.838
193.4916, 3478.158
193.9737, 3584.108
194.4559, 3682.443
194.9380, 3766.590
195.4201, 3837.346
195.9022, 3905.079
196.3843, 3971.458
196.8664, 4030.669
197.3486, 4073.887
197.8307, 4100.776
198.3128, 4111.526
198.7949, 4102.380
199.2770, 4073.105
199.7591, 4043.674
200.2413, 4020.729
200.7234, 3992.826
201.2055, 3927.466
201.6876, 3818.505
202.1697, 3697.564
202.6518, 3578.596
203.1340, 3460.806
203.6161, 3358.838
204.0982, 3278.648
204.5803, 3216.346
205.0624, 3149.337
205.5445, 3074.619
206.0267, 3002.132
206.5088, 2942.555
206.9909, 2898.711
207.4730, 2853.888
207.9551, 2803.035
208.4372, 2746.116
208.9194, 2692.292
209.4015, 2642.146
209.8836, 2594.173
210.3657, 2543.209
210.8478, 2484.374
211.3299, 2437.673
211.8121, 2414.711
212.2942, 2422.181
212.7763, 2420.621
213.2584, 2406.696
213.7405, 2385.891
214.2226, 2369.933
214.7048, 2357.269
215.1869, 2352.588
215.6690, 2359.406
216.1511, 2380.054
216.6332, 2404.352
217.1153, 2433.323
217.5975, 2465.659
218.0796, 2492.811
218.5617, 2513.602
219.0438, 2531.676
219.5259, 2551.080
220.0080, 2576.443
220.4902, 2591.418
220.9723, 2594.392
221.4544, 2585.302
221.9365, 2558.103
222.4186, 2503.793
222.9008, 2441.900
223.3829, 2395.273
223.8650, 2369.804
224.3471, 2346.503
224.8292, 2320.781
225.3113, 2292.634
225.7935, 2262.485
226.2756, 2225.262
226.7577, 2190.253
227.2398, 2174.718
227.7219, 2187.203
228.2040, 2203.851
228.6862, 2216.124
229.1683, 2220.814
229.6504, 2228.946
230.1325, 2237.290
230.6146, 2249.766
231.0967, 2279.305
231.5789, 2336.699
232.0610, 2394.982
232.5431, 2438.030
233.0252, 2451.798
233.5073, 2481.237
233.9894, 2534.346
234.4716, 2606.107
234.9537, 2674.132
235.4358, 2743.645
235.9179, 2804.022
236.4000, 2848.130
236.8821, 2873.264
237.3643, 2887.582
237.8464, 2893.438
238.3285, 2890.523
238.8106, 2868.519
239.2927, 2821.121
239.7748, 2760.932
240.2570, 2697.847
240.7391, 2620.888
241.2212, 2560.964
241.7033, 2526.210
242.1854, 2518.876
242.6675, 2517.473
243.1497, 2520.418
243.6318, 2530.511
244.1139, 2550.752
244.5960, 2578.678
245.0781, 2620.961
245.5602, 2681.367
246.0424, 2765.009
246.5245, 2847.902
247.0066, 2921.992
247.4887, 2999.391
247.9708, 3103.330
248.4529, 3245.418
248.9351, 3395.591
249.4172, 3542.373
249.8993, 3682.331
250.3814, 3827.083
250.8635, 3971.943
251.3456, 4121.702
251.8278, 4289.368
252.3099, 4477.134
252.7920, 4676.487
253.2741, 4885.245
253.7562, 5112.331
254.2383, 5328.294
254.7205, 5518.115
255.2026, 5692.563
255.6847, 5895.026
256.1668, 6133.182
256.6489, 6388.847
257.1310, 6653.100
257.6132, 6926.036
258.0953, 7209.833
258.5774, 7500.939
259.0595, 7801.105
259.5416, 8104.647
260.0237, 8407.685
260.5059, 8714.974
260.9880, 9037.653
261.4701, 9393.314
261.9522, 9714.907
262.4343, 9988.336
262.9164, 10214.04
263.3986, 10409.93
263.8807, 10593.34
264.3628, 10727.14
264.8449, 10773.78
265.3270, 10736.28
265.8091, 10601.48
266.2913, 10345.49
266.7734, 9965.688
267.2555, 9577.634
267.7376, 9185.350
268.2197, 8784.498
268.7018, 8357.487
269.1840, 7895.481
269.6661, 7443.974
270.1482, 7019.140
270.6303, 6621.234
271.1124, 6249.621
271.5945, 5904.535
272.0767, 5587.306
272.5588, 5296.110
273.0409, 5033.659
273.5230, 4795.618
274.0051, 4574.569
274.4872, 4367.721
274.9694, 4204.796
275.4515, 4091.730
275.9336, 4012.393
276.4157, 3933.011
276.8978, 3850.793
277.3799, 3780.094
277.8621, 3728.509
278.3442, 3697.284
278.8263, 3675.498
279.3084, 3664.648
279.7905, 3660.801
280.2726, 3651.536
280.7548, 3633.232
281.2369, 3627.291
281.7190, 3651.259
282.2011, 3706.052
282.6832, 3759.743
283.1653, 3808.750
283.6475, 3854.319
284.1296, 3897.194
284.6117, 3936.587
285.0938, 3979.525
285.5760, 4030.932
286.0581, 4090.767
286.5402, 4156.544
287.0223, 4227.860
287.5044, 4304.328
287.9865, 4383.262
288.4687, 4464.421
288.9508, 4551.698
289.4329, 4651.904
289.9150, 4762.661
290.3971, 4870.573
290.8792, 4971.664
291.3614, 5068.932
291.8435, 5177.501
292.3256, 5298.391
292.8077, 5410.087
293.2898, 5490.027
293.7719, 5542.568
294.2541, 5586.738
294.7362, 5626.365
295.2183, 5661.075
295.7004, 5693.881
296.1825, 5724.918
296.6646, 5747.302
297.1468, 5755.519
297.6289, 5750.043
298.1110, 5731.398
298.5931, 5694.538
299.0752, 5647.769
299.5573, 5608.787
300.0395, 5578.087
300.5216, 5538.005
301.0037, 5471.911
301.4858, 5384.486
301.9679, 5287.137
302.4500, 5183.055
302.9322, 5072.581
303.4143, 4959.372
303.8964, 4842.590
304.3785, 4713.909
304.8606, 4569.603
305.3427, 4407.652
305.8249, 4220.299
306.3070, 3982.097
306.7891, 3728.599
307.2712, 3502.867
307.7533, 3302.406
308.2354, 3122.039
308.7176, 2964.900
309.1997, 2823.045
309.6818, 2686.907
310.1639, 2543.924
310.6460, 2408.022
311.1281, 2292.082
311.6103, 2195.025
312.0924, 2113.097
312.5745, 2050.576
313.0566, 1999.957
313.5387, 1951.387
314.0208, 1896.767
314.5030, 1845.880
314.9851, 1806.945
315.4672, 1781.418
315.9493, 1756.656
316.4314, 1718.806
316.9135, 1680.080
317.3957, 1655.757
317.8778, 1661.110
318.3599, 1674.801
318.8420, 1688.537
319.3241, 1702.005
319.8062, 1711.781
320.2884, 1714.374
320.7705, 1713.174
321.2526, 1712.522
321.7347, 1701.206
322.2168, 1701.291
322.6989, 1727.766
323.1811, 1788.230
323.6632, 1835.817
324.1453, 1845.701
324.6274, 1841.933
325.1095, 1853.731
325.5916, 1898.657
326.0738, 1948.015
326.5559, 1994.498
327.0380, 2037.650
327.5201, 2079.061
328.0022, 2116.424
328.4843, 2153.191
328.9665, 2194.135
329.4486, 2237.571
329.9307, 2287.223
330.4128, 2348.173
330.8949, 2428.062
331.3770, 2489.632
331.8592, 2531.378
332.3413, 2555.655
332.8234, 2565.196
333.3055, 2562.445
333.7876, 2541.041
334.2697, 2496.596
334.7519, 2424.696
335.2340, 2352.211
335.7161, 2278.566
336.1982, 2205.012
336.6803, 2132.012
337.1624, 2054.358
337.6446, 1988.295
338.1267, 1938.989
338.6088, 1907.272
339.0909, 1879.252
339.5730, 1854.264
340.0551, 1834.016
340.5373, 1821.992
341.0194, 1820.395
341.5015, 1817.223
341.9836, 1804.823
342.4657, 1784.644
342.9478, 1785.727
343.4300, 1812.294
343.9121, 1848.681
344.3942, 1877.238
344.8763, 1898.040
345.3584, 1915.540
345.8405, 1925.900
346.3227, 1933.562
346.8048, 1963.571
347.2869, 2019.139
347.7690, 2081.990
348.2511, 2134.464
348.7332, 2177.689
349.2154, 2221.134
349.6975, 2269.052
350.1796, 2319.334
350.6617, 2365.304
351.1438, 2407.095
351.6259, 2452.232
352.1081, 2508.693
352.5902, 2574.909
353.0723, 2645.437
353.5544, 2722.948
354.0365, 2800.698
354.5186, 2870.264
355.0008, 2931.717
355.4829, 2989.067
355.9650, 3039.739
356.4471, 3089.860
356.9292, 3149.989
357.4113, 3230.487
357.8935, 3316.416
358.3756, 3398.711
358.8577, 3477.375
359.3398, 3547.663
359.8219, 3606.048
360.3040, 3655.677
360.7862, 3700.457
361.2683, 3743.112
361.7504, 3779.187
362.2325, 3807.481
362.7146, 3827.781
363.1967, 3838.118
363.6789, 3842.538
364.1610, 3834.046
364.6431, 3807.212
365.1252, 3742.367
365.6073, 3678.235
366.0895, 3626.312
366.5716, 3583.951
367.0537, 3539.603
367.5358, 3489.642
368.0179, 3438.357
368.5001, 3388.192
368.9822, 3351.256
369.4643, 3301.303
369.9464, 3226.061
370.4285, 3134.109
370.9106, 3059.828
371.3928, 3023.582
371.8749, 2986.870
372.3570, 2934.069
372.8391, 2861.891
373.3212, 2778.622
373.8033, 2676.727
374.2855, 2565.743
374.7676, 2468.423
375.2497, 2388.480
375.7318, 2315.332
376.2139, 2241.616
376.6960, 2163.022
377.1782, 2098.481
377.6603, 2047.158
378.1424, 2009.950
378.6245, 1994.305
379.1066, 2005.809
379.5887, 2013.326
380.0709, 1996.347
380.5530, 1954.439
381.0351, 1937.524
381.5172, 1950.849
381.9993, 1930.991
382.4814, 2016.609
382.9636, 2077.040
383.4457, 2113.630
383.9278, 2054.983
384.4099, 2119.314
384.8920, 2134.360
385.3741, 2147.386
385.8563, 2229.029
386.3384, 2184.236
386.8205, 2264.784
387.3026, 2295.300
387.7847, 2348.714
388.2668, 2352.542
388.7490, 2388.965
389.2311, 2417.866
389.7132, 2449.935
390.1953, 2508.148
390.6774, 2579.123
391.1595, 2642.610
391.6417, 2683.022
392.1238, 2719.956
392.6059, 2767.390
393.0880, 2824.781
393.5701, 2882.939
394.0522, 2945.781
394.5344, 3003.150
395.0165, 3045.904
395.4986, 3070.518
395.9807, 3080.985
396.4628, 3079.719
396.9449, 3065.717
397.4271, 3034.499
397.9092, 2977.960
398.3913, 2908.334
398.8734, 2832.173
399.3555, 2742.106
399.8376, 2656.210
400.3198, 2571.855
400.8019, 2492.297
401.2840, 2427.733
401.7661, 2388.310
402.2482, 2354.124
402.7303, 2316.433
403.2125, 2266.006
403.6946, 2233.064
404.1767, 2223.918
404.6588, 2228.933
405.1409, 2227.298
405.6230, 2211.077
406.1052, 2206.407
406.5873, 2223.885
407.0694, 2265.308
407.5515, 2312.806
408.0336, 2365.589
408.5157, 2426.585
408.9979, 2504.393
409.4800, 2601.042
409.9621, 2688.767
410.4442, 2757.882
410.9263, 2809.950
411.4084, 2852.950
411.8906, 2885.655
412.3727, 2915.963
412.8548, 2946.877
413.3369, 2980.576
413.8190, 3025.283
414.3011, 3084.971
414.7833, 3156.247
415.2654, 3235.042
415.7475, 3320.920
416.2296, 3413.180
416.7117, 3506.491
417.1938, 3606.703
417.6760, 3724.644
418.1581, 3869.422
418.6402, 4023.908
419.1223, 4170.595
419.6044, 4314.401
420.0865, 4475.820
420.5687, 4682.042
421.0508, 4897.735
421.5329, 5093.103
422.0150, 5255.026
422.4971, 5417.977
422.9792, 5622.294
423.4614, 5834.058
423.9435, 5991.099
424.4256, 6079.383
424.9077, 6113.025
425.3898, 6094.395
425.8719, 6016.000
426.3541, 5907.949
426.8362, 5751.600
427.3183, 5574.701
427.8004, 5407.643
428.2825, 5256.534
428.7646, 5103.512
429.2468, 4944.041
429.7289, 4776.396
430.2110, 4613.837
430.6931, 4456.949
431.1752, 4304.237
431.6573, 4148.985
432.1395, 3985.045
432.6216, 3852.217
433.1037, 3765.341
433.5858, 3711.936
434.0679, 3643.932
434.5500, 3558.708
435.0322, 3480.418
435.5143, 3430.490
435.9964, 3404.726
436.4785, 3380.860
436.9606, 3353.161
437.4427, 3331.670
437.9249, 3339.275
438.4070, 3370.371
438.8891, 3394.777
439.3712, 3388.135
439.8533, 3366.995
440.3354, 3354.181
440.8176, 3352.444
441.2997, 3355.531
441.7818, 3363.879
442.2639, 3373.087
442.7460, 3375.340
443.2281, 3358.432
443.7103, 3340.904
444.1924, 3332.648
444.6745, 3334.254
445.1566, 3341.901
445.6387, 3358.662
446.1208, 3378.760
446.6030, 3396.878
447.0851, 3392.935
447.5672, 3407.460
448.0493, 3459.752
448.5315, 3544.775
449.0136, 3610.116
449.4957, 3627.833
449.9778, 3650.306
450.4599, 3705.968
450.9420, 3816.558
451.4242, 3915.216
451.9063, 3992.970
452.3884, 4062.664
452.8705, 4152.651
453.3526, 4265.852
453.8347, 4392.803
454.3169, 4531.619
454.7990, 4684.698
455.2811, 4830.714
455.7632, 4967.507
456.2453, 5109.028
456.7274, 5268.574
457.2096, 5447.507
457.6917, 5644.806
458.1738, 5862.828
458.6559, 6098.906
459.1380, 6359.207
459.6201, 6639.118
460.1023, 6925.705
460.5844, 7197.231
461.0665, 7467.544
461.5486, 7753.113
462.0307, 8059.499
462.5128, 8387.646
462.9950, 8740.589
463.4771, 9117.310
463.9592, 9497.566
464.4413, 9871.601
464.9234, 10250.58
465.4055, 10639.47
465.8877, 11038.70
466.3698, 11460.84
466.8519, 11912.67
467.3340, 12387.47
467.8161, 12865.27
468.2982, 13331.23
468.7804, 13809.58
469.2625, 14321.04
469.7446, 14869.99
470.2267, 15391.59
470.7088, 15887.39
471.1909, 16353.24
471.6731, 16797.14
472.1552, 17219.49
472.6373, 17615.03
473.1194, 17990.00
473.6015, 18336.66
474.0836, 18630.20
474.5658, 18875.15
475.0479, 19046.52
475.5300, 19122.13
476.0121, 19105.01
476.4942, 19027.58
476.9763, 18889.83
477.4585, 18698.52
477.9406, 18441.65
478.4227, 18129.84
478.9048, 17822.78
479.3869, 17537.77
479.8690, 17276.29
480.3512, 17041.21
480.8333, 16832.80
481.3154, 16647.16
481.7975, 16449.10
482.2796, 16282.57
482.7617, 16201.97
483.2439, 16228.27
483.7260, 16339.22
484.2081, 16539.28
484.6902, 16820.98
485.1723, 17149.94
485.6544, 17542.96
486.1366, 17957.00
486.6187, 18373.84
487.1008, 18815.10
487.5829, 19212.61
488.0650, 19640.66
488.5471, 20003.55
489.0293, 20142.42
489.5114, 20041.16
489.9935, 19741.82
490.4756, 19240.84
490.9577, 18546.36
491.4398, 17690.95
491.9220, 16636.85
492.4041, 15503.60
492.8862, 14363.88
493.3683, 13211.96
493.8504, 12135.93
494.3326, 11134.28
494.8147, 10226.09
495.2968, 9412.397
495.7789, 8697.663
496.2610, 8053.189
496.7431, 7460.396
497.2253, 6929.018
497.7074, 6468.752
498.1895, 6087.829
498.6716, 5757.134
499.1537, 5452.114
499.6358, 5174.966
500.1180, 4922.796
500.6001, 4698.089
501.0822, 4497.890
501.5643, 4324.959
502.0464, 4179.157
502.5285, 4051.200
503.0107, 3963.484
503.4928, 3877.866
503.9749, 3766.319
504.4570, 3584.463
504.9391, 3428.974
505.4212, 3309.239
505.9034, 3217.947
506.3855, 3133.719
506.8676, 3060.050
507.3497, 2987.588
507.8318, 2909.679
508.3139, 2823.712
508.7961, 2758.762
509.2782, 2719.335
509.7603, 2689.725
510.2424, 2651.116
510.7245, 2604.076
511.2066, 2554.195
511.6888, 2498.796
512.1709, 2444.879
512.6530, 2410.897
513.1351, 2395.439
513.6172, 2378.428
514.0994, 2337.753
514.5815, 2288.877
515.0636, 2255.790
515.5457, 2247.388
516.0278, 2239.989
516.5099, 2212.696
516.9921, 2175.325
517.4742, 2145.613
517.9563, 2143.516
518.4384, 2138.870
518.9205, 2112.159
519.4026, 2060.488
519.8848, 2025.693
520.3669, 2034.416
520.8490, 2050.521
521.3311, 2047.601
521.8132, 2008.516
522.2953, 1978.310
522.7775, 1961.654
523.2596, 1954.988
523.7417, 1950.019
524.2238, 1949.349
524.7059, 1942.301
525.1880, 1918.755
525.6702, 1879.324
526.1523, 1857.900
526.6344, 1857.717
527.1165, 1862.273
527.5986, 1850.811
528.0807, 1827.288
528.5629, 1808.342
529.0450, 1802.637
529.5271, 1800.464
530.0092, 1789.384
530.4913, 1770.617
530.9734, 1749.490
531.4556, 1727.121
531.9377, 1705.378
532.4198, 1686.706
532.9019, 1673.306
533.3840, 1657.528
533.8661, 1632.284
534.3483, 1604.180
534.8304, 1582.333
535.3125, 1571.192
535.7946, 1563.314
536.2767, 1559.730
536.7589, 1559.927
537.2410, 1551.276
537.7231, 1522.992
538.2052, 1499.818
538.6873, 1500.485
539.1694, 1532.352
539.6516, 1553.407
540.1337, 1559.805
540.6158, 1556.320
541.0979, 1548.129
541.5800, 1535.347
542.0621, 1527.008
542.5443, 1526.869
543.0264, 1533.733
543.5085, 1546.090
543.9906, 1563.998
544.4727, 1583.197
544.9548, 1598.819
545.4370, 1614.217
545.9191, 1634.250
546.4012, 1661.645
546.8833, 1691.014
547.3654, 1716.538
547.8475, 1741.796
548.3297, 1774.458
548.8118, 1831.266
549.2939, 1883.600
549.7760, 1913.319
550.2581, 1912.382
550.7402, 1935.356
551.2224, 1999.092
551.7045, 2073.536
552.1866, 2134.033
552.6687, 2171.164
553.1508, 2220.235
553.6329, 2289.561
554.1151, 2369.514
554.5972, 2436.549
555.0793, 2489.476
555.5614, 2542.554
556.0435, 2602.207
556.5256, 2667.810
557.0078, 2736.628
557.4899, 2808.849
557.9720, 2885.766
558.4541, 2975.269
558.9362, 3070.397
559.4183, 3157.067
559.9005, 3228.157
560.3826, 3295.525
560.8647, 3366.467
561.3468, 3440.358
561.8289, 3514.184
562.3110, 3588.292
562.7932, 3660.772
563.2753, 3734.147
563.7574, 3814.073
564.2395, 3871.649
564.7216, 3897.620
565.2037, 3907.376
565.6859, 3916.528
566.1680, 3937.538
566.6501, 3926.253
567.1322, 3870.219
567.6143, 3781.898
568.0964, 3697.934
568.5786, 3620.207
569.0607, 3535.844
569.5428, 3439.441
570.0249, 3331.827
570.5070, 3216.943
570.9891, 3095.461
571.4713, 2970.836
571.9534, 2844.344
572.4355, 2718.350
572.9176, 2599.556
573.3997, 2492.121
573.8818, 2389.899
574.3640, 2286.177
574.8461, 2184.188
575.3282, 2089.721
575.8103, 2007.124
576.2924, 1932.055
576.7745, 1862.484
577.2567, 1800.404
577.7388, 1739.840
578.2209, 1677.143
578.7030, 1618.392
579.1851, 1569.602
579.6672, 1536.843
580.1494, 1495.648
580.6315, 1437.970
581.1136, 1374.159
581.5957, 1335.013
582.0778, 1321.038
582.5599, 1310.503
583.0421, 1291.598
583.5242, 1267.818
584.0063, 1249.597
584.4884, 1237.159
584.9705, 1224.162
585.4526, 1204.847
585.9348, 1181.633
586.4169, 1156.899
586.8990, 1126.898
587.3811, 1102.945
587.8632, 1096.160
588.3453, 1099.325
588.8275, 1096.950
589.3096, 1076.857
589.7917, 1058.746
590.2738, 1052.781
590.7559, 1060.395
591.2380, 1053.313
591.7202, 1020.609
592.2023, 987.4703
592.6844, 973.9594
593.1665, 983.9438
593.6486, 990.3906
594.1307, 991.3345
594.6129, 987.6107
595.0950, 979.0662
595.5771, 966.2642
596.0592, 953.7333
596.5413, 944.7020
597.0234, 936.4727
597.5056, 921.4404
597.9877, 901.1440
598.4698, 889.1667
598.9519, 905.5199
599.4340, 927.6169
599.9161, 933.9161
600.3983, 913.9832
600.8804, 896.0586
601.3625, 889.6415
601.8446, 889.4976
602.3267, 888.3003
602.8088, 884.8345
603.2910, 881.3057
603.7731, 878.3328
604.2552, 875.6354
604.7373, 870.8840
605.2194, 862.5219
605.7015, 857.0858
606.1837, 860.9852
606.6658, 872.9511
607.1479, 877.3192
607.6300, 872.7576
608.1121, 866.0001
608.5942, 866.9942
609.0764, 871.3315
609.5585, 868.1387
610.0406, 847.9765
610.5227, 828.0896
611.0048, 821.9950
611.4869, 826.9357
611.9691, 835.2150
612.4512, 852.9382
612.9333, 865.2095
613.4154, 861.8651
613.8975, 838.7726
614.3796, 824.7592
614.8618, 827.5395
615.3439, 833.5950
615.8260, 832.6074
616.3081, 821.0866
616.7902, 814.3247
617.2723, 813.6681
617.7545, 817.7753
618.2366, 826.5413
618.7187, 839.7131
619.2008, 848.7054
619.6829, 849.0888
620.1650, 843.8224
620.6472, 836.2236
621.1293, 826.8097
621.6114, 819.5449
622.0935, 818.9643
622.5756, 820.6323
623.0577, 819.8788
623.5399, 814.6007
624.0220, 812.1266
624.5041, 820.4408
624.9862, 830.6403
625.4683, 832.1252
625.9504, 812.2144
626.4326, 799.8624
626.9147, 800.6187
627.3968, 810.6005
627.8789, 816.9149
628.3610, 818.7728
628.8431, 819.7674
629.3253, 822.0643
629.8074, 825.0999
630.2895, 822.7437
630.7716, 814.3826
631.2537, 810.4407
