##NAMES=Uvarovite
##RRUFFID=R060477
##IDEAL CHEMISTRY=Ca_3_Cr^3+^_2_(SiO_4_)_3_
##LOCALITY= Saranovskiy mine, Sarany, Ural Mountains, Russia
##OWNER=RRUFF
##SOURCE=Michael Scott
##DESCRIPTION=A druse of green dodecahedral crystals
##STATUS=The identification of this mineral is confirmed by single-crystal X-ray diffraction and chemical analysis.
##URL=rruff.info/R060477
##MEASURED CHEMISTRY=Ca_3.00_(Cr_1.15_Al_0.82_Ti_0.03_)_Σ=2_((Si_0.99_Al_0.01_)_Σ=1_O_4_)_3_
92.20605, 61.71059
92.68817, 61.98157
93.17029, 62.52252
93.65240, 62.61702
94.13452, 62.60030
94.61664, 62.40154
95.09875, 62.04853
95.58087, 61.63495
96.06299, 61.25445
96.54510, 60.87894
97.02722, 60.57388
97.50933, 60.50942
97.99145, 60.52631
98.47356, 60.37736
98.95568, 59.82543
99.43780, 58.76650
99.91991, 58.12328
100.4020, 58.18171
100.8841, 58.28038
101.3663, 58.19626
101.8484, 57.90882
102.3305, 57.47716
102.8126, 56.92073
103.2947, 56.17051
103.7768, 55.65784
104.2590, 55.55058
104.7411, 55.59066
105.2232, 55.53227
105.7053, 55.32740
106.1874, 54.99425
106.6695, 54.41289
107.1517, 53.58558
107.6338, 52.99845
108.1159, 53.02317
108.5980, 53.53407
109.0801, 53.87944
109.5622, 53.78277
110.0444, 53.56157
110.5265, 53.48399
111.0086, 53.57356
111.4907, 53.70307
111.9728, 53.74395
112.4549, 53.69452
112.9371, 53.55247
113.4192, 53.19526
113.9013, 52.82172
114.3834, 52.56923
114.8655, 52.49157
115.3476, 52.55657
115.8298, 52.68693
116.3119, 53.01085
116.7940, 53.24144
117.2761, 53.35142
117.7582, 53.35576
118.2403, 53.25567
118.7225, 53.04133
119.2046, 52.73075
119.6867, 52.54767
120.1688, 52.42910
120.6509, 52.46244
121.1330, 52.81177
121.6152, 53.38790
122.0973, 53.87606
122.5794, 54.01188
123.0615, 53.78141
123.5436, 53.60010
124.0257, 53.50003
124.5079, 53.42970
124.9900, 53.30516
125.4721, 53.09744
125.9542, 52.97418
126.4363, 53.30620
126.9184, 53.88555
127.4006, 54.16249
127.8827, 53.58567
128.3648, 52.50585
128.8469, 52.05841
129.3290, 52.69075
129.8111, 53.49789
130.2932, 54.00017
130.7754, 54.21242
131.2575, 54.21521
131.7396, 53.95301
132.2217, 53.36344
132.7038, 53.07936
133.1859, 53.52108
133.6681, 53.97683
134.1502, 54.07899
134.6323, 53.82452
135.1144, 53.50468
135.5965, 53.51536
136.0786, 54.04832
136.5608, 54.55250
137.0429, 55.18145
137.5250, 55.70138
138.0071, 55.89006
138.4892, 55.69390
138.9713, 55.26989
139.4535, 54.93752
139.9356, 54.57927
140.4177, 54.49464
140.8998, 54.93254
141.3819, 55.60136
141.8640, 56.10946
142.3462, 56.28168
142.8283, 56.20042
143.3104, 56.07737
143.7925, 55.86085
144.2746, 55.69560
144.7567, 55.65391
145.2388, 55.71873
145.7210, 55.80419
146.2031, 55.81421
146.6852, 55.87019
147.1673, 56.20422
147.6494, 57.01849
148.1315, 57.82498
148.6137, 58.08114
149.0958, 57.70271
149.5779, 57.37251
150.0600, 57.48573
150.5421, 57.79735
151.0242, 58.10126
151.5064, 58.32899
151.9885, 58.51259
152.4706, 58.71001
152.9527, 58.91908
153.4348, 59.15273
153.9169, 59.45482
154.3991, 59.76905
154.8812, 60.01950
155.3633, 60.14921
155.8454, 60.18707
156.3275, 60.31236
156.8096, 60.73122
157.2918, 61.01775
157.7739, 60.98043
158.2560, 60.75349
158.7381, 60.56943
159.2202, 60.60352
159.7023, 60.86163
160.1845, 61.12116
160.6666, 61.49873
161.1487, 61.77045
161.6308, 61.81087
162.1129, 61.65457
162.5950, 61.41624
163.0772, 61.16568
163.5593, 60.88678
164.0414, 60.89560
164.5235, 61.36092
165.0056, 61.95774
165.4877, 62.50911
165.9698, 62.98985
166.4520, 63.39258
166.9341, 63.68793
167.4162, 63.87413
167.8983, 64.06376
168.3804, 64.19085
168.8625, 64.35950
169.3447, 64.70015
169.8268, 65.23805
170.3089, 65.91515
170.7910, 66.68181
171.2731, 67.52790
171.7552, 68.48858
172.2374, 69.26201
172.7195, 70.13445
173.2016, 71.97606
173.6837, 75.16563
174.1658, 78.99340
174.6479, 82.95751
175.1301, 87.05181
175.6122, 91.30556
176.0943, 96.39885
176.5764, 102.2279
177.0585, 105.9452
177.5406, 107.0389
178.0228, 105.9478
178.5049, 102.2334
178.9870, 96.30891
179.4691, 89.64332
179.9512, 83.33315
180.4333, 77.20505
180.9155, 72.25513
181.3976, 68.96660
181.8797, 66.42596
182.3618, 64.51275
182.8439, 63.07335
183.3260, 61.81432
183.8082, 60.28840
184.2903, 58.04468
184.7724, 56.80306
185.2545, 57.09497
185.7366, 57.77254
186.2187, 58.18538
186.7009, 58.18177
187.1830, 57.94674
187.6651, 57.73685
188.1472, 57.55654
188.6293, 57.39832
189.1114, 57.28708
189.5936, 57.18431
190.0757, 57.05735
190.5578, 56.89793
191.0399, 56.71857
191.5220, 56.54514
192.0041, 56.40814
192.4863, 56.18952
192.9684, 55.76581
193.4505, 55.29036
193.9326, 54.97883
194.4147, 54.91131
194.8968, 54.94695
195.3790, 54.82896
195.8611, 54.53212
196.3432, 54.32253
196.8253, 54.28034
197.3074, 54.38200
197.7895, 54.61413
198.2717, 55.04781
198.7538, 55.47633
199.2359, 55.65619
199.7180, 55.59972
200.2001, 55.39469
200.6822, 54.94908
201.1644, 54.34255
201.6465, 53.97634
202.1286, 54.01124
202.6107, 54.25756
203.0928, 54.55336
203.5749, 54.89423
204.0571, 55.21027
204.5392, 55.47697
205.0213, 55.69433
205.5034, 55.77787
205.9855, 55.63803
206.4676, 55.40937
206.9497, 55.10714
207.4319, 54.75621
207.9140, 54.49326
208.3961, 54.51617
208.8782, 54.89011
209.3603, 55.13713
209.8424, 55.11131
210.3246, 55.01743
210.8067, 54.92699
211.2888, 54.85760
211.7709, 54.80912
212.2530, 54.79378
212.7351, 54.83988
213.2173, 54.82655
213.6994, 54.70113
214.1815, 54.56026
214.6636, 54.46639
215.1457, 54.42214
215.6278, 54.37417
216.1100, 54.22473
216.5921, 53.82039
217.0742, 53.72142
217.5563, 54.18355
218.0384, 54.69648
218.5205, 54.79787
219.0027, 54.48573
219.4848, 54.25304
219.9669, 54.82362
220.4490, 56.80406
220.9311, 58.05708
221.4132, 58.07677
221.8954, 57.80299
222.3775, 57.93799
222.8596, 58.59943
223.3417, 59.41607
223.8238, 59.91359
224.3059, 59.93850
224.7881, 60.01958
225.2702, 60.13683
225.7523, 60.32006
226.2344, 60.56457
226.7165, 60.87494
227.1986, 61.32452
227.6807, 62.03987
228.1629, 63.08792
228.6450, 64.07473
229.1271, 65.01553
229.6092, 65.86424
230.0913, 66.50903
230.5734, 66.92299
231.0556, 67.30363
231.5377, 67.83540
232.0198, 68.51461
232.5019, 69.38139
232.9840, 70.52039
233.4661, 71.81712
233.9483, 73.14056
234.4304, 74.47328
234.9125, 75.82925
235.3946, 77.10436
235.8767, 78.36433
236.3588, 80.03155
236.8410, 82.33041
237.3231, 85.05782
237.8052, 87.92298
238.2873, 90.90401
238.7694, 94.09060
239.2515, 97.96957
239.7337, 102.1614
240.2158, 105.7843
240.6979, 108.8843
241.1800, 111.1477
241.6621, 112.0074
242.1442, 111.4520
242.6264, 109.4341
243.1085, 105.2964
243.5906, 99.83964
244.0727, 94.19683
244.5548, 88.48112
245.0369, 83.03217
245.5191, 78.62908
246.0012, 75.48447
246.4833, 72.94754
246.9654, 70.87695
247.4475, 69.12282
247.9296, 67.48571
248.4117, 65.81184
248.8939, 64.27525
249.3760, 63.31086
249.8581, 63.19389
250.3402, 63.08794
250.8223, 62.59240
251.3044, 61.98039
251.7866, 61.55028
252.2687, 61.43115
252.7508, 61.55269
253.2329, 61.78875
253.7150, 62.24027
254.1971, 62.59344
254.6793, 62.82964
255.1614, 62.92468
255.6435, 62.79306
256.1256, 62.38524
256.6077, 61.88579
257.0898, 61.70290
257.5720, 62.02342
258.0541, 62.30842
258.5362, 62.37854
259.0183, 62.43245
259.5004, 62.68203
259.9825, 63.19311
260.4647, 63.79635
260.9468, 64.13178
261.4289, 63.89332
261.9110, 64.00502
262.3931, 64.76781
262.8752, 65.69614
263.3574, 66.38912
263.8395, 66.75362
264.3216, 67.00250
264.8037, 67.42970
265.2858, 67.85963
265.7679, 68.89274
266.2501, 70.68797
266.7322, 72.85377
267.2143, 75.09998
267.6964, 77.38071
268.1785, 79.87719
268.6606, 82.88078
269.1428, 86.68552
269.6249, 90.21354
270.1070, 93.92368
270.5891, 97.07620
271.0712, 99.33505
271.5533, 100.6010
272.0355, 100.8124
272.5176, 99.82167
272.9997, 97.38342
273.4818, 94.73551
273.9639, 91.78615
274.4460, 88.75854
274.9282, 85.63721
275.4103, 82.51175
275.8924, 79.61867
276.3745, 77.15933
276.8566, 75.13364
277.3387, 73.59103
277.8208, 72.69468
278.3029, 71.99393
278.7851, 71.35239
279.2672, 70.74200
279.7493, 70.14062
280.2314, 69.51375
280.7135, 68.87013
281.1956, 68.47771
281.6778, 68.27305
282.1599, 68.32210
282.6420, 69.01370
283.1241, 69.98502
283.6062, 70.40919
284.0883, 69.73088
284.5705, 68.18526
285.0526, 67.17745
285.5347, 67.23442
286.0168, 67.12391
286.4989, 66.40504
286.9810, 65.34719
287.4632, 64.43765
287.9453, 63.91802
288.4274, 63.62248
288.9095, 63.05868
289.3916, 61.90760
289.8737, 60.98052
290.3559, 60.45837
290.8380, 60.21914
291.3201, 60.13982
291.8022, 60.18388
292.2843, 60.29335
292.7664, 60.36426
293.2486, 60.36536
293.7307, 60.40322
294.2128, 60.51117
294.6949, 60.65052
295.1770, 60.79065
295.6591, 60.92440
296.1413, 61.02775
296.6234, 61.03233
297.1055, 60.85874
297.5876, 60.97166
298.0697, 61.69111
298.5518, 62.51346
299.0340, 63.00034
299.5161, 63.10332
299.9982, 63.04866
300.4803, 63.01841
300.9624, 63.01601
301.4445, 63.06775
301.9267, 63.33438
302.4088, 63.52439
302.8909, 63.35835
303.3730, 62.88535
303.8551, 62.45841
304.3372, 62.33112
304.8194, 62.47894
305.3015, 62.59007
305.7836, 62.70298
306.2657, 62.74730
306.7478, 62.58807
307.2299, 62.31475
307.7121, 62.20496
308.1942, 62.42587
308.6763, 62.88631
309.1584, 63.27043
309.6405, 63.56199
310.1227, 63.82140
310.6048, 64.00430
311.0869, 64.17425
311.5690, 64.49186
312.0511, 65.04800
312.5332, 65.66441
313.0154, 65.93594
313.4975, 65.71635
313.9796, 65.66056
314.4617, 65.98800
314.9438, 66.51531
315.4259, 67.01554
315.9081, 67.43243
316.3902, 67.82834
316.8723, 68.26721
317.3544, 68.74479
317.8365, 69.32798
318.3186, 70.10484
318.8007, 70.93931
319.2828, 71.79011
319.7650, 72.63549
320.2471, 73.26380
320.7292, 73.41211
321.2113, 73.07452
321.6934, 73.04345
322.1755, 73.54203
322.6577, 74.14209
323.1398, 74.61724
323.6219, 74.96583
324.1040, 75.25172
324.5861, 75.50979
325.0682, 75.73451
325.5504, 75.89574
326.0325, 75.84999
326.5146, 75.90749
326.9967, 76.16768
327.4788, 76.60913
327.9609, 77.21985
328.4431, 78.02014
328.9252, 78.92007
329.4073, 79.70524
329.8894, 80.30888
330.3715, 80.96043
330.8536, 81.88732
331.3358, 82.81312
331.8179, 83.31322
332.3000, 83.27172
332.7821, 83.04934
333.2642, 83.10664
333.7463, 83.50816
334.2285, 84.02323
334.7106, 84.64213
335.1927, 85.37088
335.6748, 86.30778
336.1569, 87.41826
336.6390, 88.40290
337.1212, 88.84860
337.6033, 88.73332
338.0854, 89.76830
338.5675, 93.58822
339.0496, 96.87023
339.5317, 97.61802
340.0139, 96.41055
340.4960, 95.02022
340.9781, 94.45604
341.4602, 94.58547
341.9423, 94.78828
342.4244, 95.05183
342.9066, 95.38911
343.3887, 95.82446
343.8708, 96.33003
344.3529, 96.79880
344.8350, 97.18119
345.3171, 97.67240
345.7993, 98.63661
346.2814, 100.1853
346.7635, 102.1218
347.2456, 104.6314
347.7277, 107.4039
348.2098, 110.2212
348.6920, 113.0124
349.1741, 115.7816
349.6562, 118.4150
350.1383, 120.7322
350.6204, 124.0184
351.1025, 129.1428
351.5847, 134.2662
352.0668, 138.2980
352.5489, 141.4596
353.0310, 144.5985
353.5131, 148.2747
353.9952, 152.4624
354.4774, 157.0268
354.9595, 162.2685
355.4416, 167.5196
355.9237, 172.4984
356.4058, 177.4470
356.8879, 182.6116
357.3701, 188.0944
357.8522, 194.0746
358.3343, 201.0598
358.8164, 209.6840
359.2985, 218.4271
359.7806, 226.5056
360.2627, 235.1721
360.7448, 245.4298
361.2270, 257.4481
361.7091, 270.5105
362.1912, 283.7751
362.6733, 296.9561
363.1554, 311.7169
363.6375, 328.4314
364.1197, 346.1984
364.6018, 364.5826
365.0839, 383.7984
365.5660, 404.2169
366.0481, 426.3885
366.5302, 449.9486
367.0124, 472.1730
367.4945, 494.1537
367.9766, 513.0020
368.4587, 529.3331
368.9408, 541.9238
369.4229, 549.7929
369.9051, 552.5265
370.3872, 549.5378
370.8693, 539.3773
371.3514, 521.0229
371.8335, 497.6759
372.3156, 466.0791
372.7978, 432.6669
373.2799, 400.3394
373.7620, 369.9608
374.2441, 341.1591
374.7262, 313.4066
375.2083, 286.6618
375.6905, 262.9485
376.1726, 243.0433
376.6547, 225.6385
377.1368, 210.3720
377.6189, 196.9495
378.1010, 185.0380
378.5832, 174.4385
379.0653, 165.1372
379.5474, 157.1677
380.0295, 150.8365
380.5116, 145.0597
380.9937, 139.2729
381.4759, 133.8933
381.9580, 129.4608
382.4401, 126.1730
382.9222, 123.4126
383.4043, 120.5232
383.8864, 117.5029
384.3686, 114.8517
384.8507, 112.8031
385.3328, 111.0540
385.8149, 109.3549
386.2970, 107.7054
386.7791, 106.0373
387.2613, 104.2219
387.7434, 102.3873
388.2255, 100.8495
388.7076, 99.68099
389.1897, 98.64764
389.6718, 97.55786
390.1540, 96.48546
390.6361, 95.59669
391.1182, 94.94839
391.6003, 94.47134
392.0824, 94.17677
392.5645, 94.03984
393.0467, 93.80788
393.5288, 93.24310
394.0109, 92.67058
394.4930, 92.73542
394.9751, 93.60622
395.4572, 94.38522
395.9394, 94.60361
396.4215, 94.53486
396.9036, 94.61055
397.3857, 94.91890
397.8678, 95.38095
398.3499, 95.91704
398.8321, 96.53186
399.3142, 97.29922
399.7963, 98.38355
400.2784, 99.49649
400.7605, 100.4605
401.2426, 101.2761
401.7247, 102.0208
402.2068, 102.7650
402.6890, 103.4503
403.1711, 103.7799
403.6532, 103.8960
404.1353, 103.5460
404.6174, 102.5481
405.0995, 101.1122
405.5817, 99.40391
406.0638, 97.49832
406.5459, 95.55895
407.0280, 93.80558
407.5101, 92.25271
407.9922, 90.91518
408.4744, 89.94442
408.9565, 89.03094
409.4386, 87.96352
409.9207, 86.79188
410.4028, 85.69151
410.8849, 84.76720
411.3671, 84.02574
411.8492, 83.48427
412.3313, 83.15115
412.8134, 83.03902
413.2955, 83.39709
413.7776, 83.85655
414.2598, 83.98619
414.7419, 83.65695
415.2240, 83.15029
415.7061, 82.88676
416.1882, 82.91920
416.6703, 83.00839
417.1525, 83.33025
417.6346, 83.54314
418.1167, 83.35661
418.5988, 82.89445
419.0809, 82.56591
419.5630, 82.70663
420.0452, 83.19877
420.5273, 83.54566
421.0094, 83.70908
421.4915, 83.80095
421.9736, 83.90221
422.4557, 83.94458
422.9379, 83.83108
423.4200, 83.52315
423.9021, 83.13375
424.3842, 82.77380
424.8663, 82.44218
425.3484, 82.07473
425.8306, 81.54016
426.3127, 81.12717
426.7948, 81.22736
427.2769, 81.74173
427.7590, 82.01028
428.2411, 81.66106
428.7233, 80.93803
429.2054, 80.13630
429.6875, 79.25121
430.1696, 78.49892
430.6517, 78.05869
431.1339, 77.84724
431.6160, 77.58894
432.0981, 77.35059
432.5802, 76.95769
433.0623, 76.16171
433.5444, 75.16798
434.0266, 74.40500
434.5087, 74.00967
434.9908, 73.83757
435.4729, 73.74815
435.9550, 73.80132
436.4371, 73.62899
436.9193, 73.13549
437.4014, 72.48073
437.8835, 71.70803
438.3656, 70.86204
438.8477, 70.03352
439.3298, 69.26974
439.8120, 68.58697
440.2941, 68.09422
440.7762, 67.99757
441.2583, 67.83638
441.7404, 67.56701
442.2225, 67.21105
442.7046, 66.79725
443.1867, 66.33258
443.6689, 65.78233
444.1510, 65.03764
444.6331, 63.95530
445.1152, 63.39253
445.5973, 64.01120
446.0794, 64.49769
446.5616, 64.41718
447.0437, 63.86469
447.5258, 63.02523
448.0079, 61.94942
448.4900, 60.80421
448.9721, 60.01913
449.4543, 59.68666
449.9364, 59.45275
450.4185, 59.33792
450.9006, 59.22149
451.3827, 58.97734
451.8648, 58.60641
452.3470, 58.28849
452.8291, 58.29081
453.3112, 58.49330
453.7933, 58.29337
454.2754, 57.47258
454.7575, 56.70091
455.2397, 56.46978
455.7218, 56.58411
456.2039, 56.76980
456.6860, 57.05950
457.1681, 57.27147
457.6502, 57.19814
458.1324, 56.89708
458.6145, 56.61883
459.0966, 56.42933
459.5787, 56.32587
460.0608, 56.29798
460.5429, 56.32858
461.0251, 56.51115
461.5072, 57.11562
461.9893, 57.70477
462.4714, 57.79364
462.9535, 57.43108
463.4356, 57.10724
463.9178, 57.18105
464.3999, 57.54042
464.8820, 57.56113
465.3641, 56.90962
465.8462, 56.36993
466.3283, 56.22725
466.8105, 56.15495
467.2926, 55.71738
467.7747, 54.85356
468.2568, 53.93263
468.7389, 53.32378
469.2210, 52.96011
469.7032, 53.34586
470.1853, 56.15976
470.6674, 57.96797
471.1495, 56.97801
471.6316, 54.44697
472.1137, 52.40175
472.5959, 51.79618
473.0780, 52.11333
473.5601, 52.49940
474.0422, 53.02843
474.5243, 53.30497
475.0064, 53.00343
475.4886, 52.62864
475.9707, 52.46956
476.4528, 52.52324
476.9349, 52.65436
477.4170, 52.87046
477.8991, 53.08845
478.3813, 53.04569
478.8634, 52.67487
479.3455, 52.45546
479.8276, 52.74129
480.3097, 53.28760
480.7918, 53.63518
481.2740, 53.69212
481.7561, 53.75857
482.2382, 54.02879
482.7203, 54.40164
483.2024, 54.64905
483.6845, 54.71774
484.1666, 54.84105
484.6487, 55.27489
485.1309, 56.03209
485.6130, 56.64222
486.0951, 57.06339
486.5772, 57.39155
487.0593, 57.52297
487.5414, 57.61821
488.0236, 57.99579
488.5057, 58.78247
488.9878, 59.76042
489.4699, 60.55646
489.9520, 61.19655
490.4341, 61.58104
490.9163, 61.57640
491.3984, 61.48521
491.8805, 61.38122
492.3626, 61.31890
492.8447, 61.39175
493.3268, 61.68077
493.8090, 62.09641
494.2911, 62.38861
494.7732, 62.56135
495.2553, 62.59871
495.7374, 62.28221
496.2195, 61.97821
496.7017, 62.04955
497.1838, 62.47758
497.6659, 62.77803
498.1480, 62.36821
498.6301, 61.58743
499.1122, 61.48234
499.5944, 62.23582
500.0765, 62.96091
500.5586, 63.04280
501.0407, 62.79484
501.5228, 62.89610
502.0049, 63.55811
502.4871, 64.18227
502.9692, 64.31964
503.4513, 64.25727
503.9334, 64.56419
504.4155, 65.36691
504.8976, 66.30007
505.3798, 67.01424
505.8619, 67.50034
506.3440, 67.96181
506.8261, 68.31695
507.3082, 68.74050
507.7903, 69.42650
508.2725, 70.18677
508.7546, 70.72310
509.2367, 70.92674
509.7188, 70.91740
510.2009, 70.84301
510.6830, 70.60947
511.1652, 70.63145
511.6473, 71.10545
512.1294, 71.64156
512.6115, 72.08355
513.0936, 72.47681
513.5757, 72.92999
514.0579, 73.49800
514.5400, 74.15701
515.0221, 74.83784
515.5042, 75.52199
515.9863, 76.39917
516.4684, 77.64428
516.9506, 78.97874
517.4327, 80.05322
517.9148, 80.93224
518.3969, 82.09969
518.8790, 83.93510
519.3611, 86.07541
519.8433, 88.08606
520.3254, 89.96410
520.8075, 91.76591
521.2896, 93.40084
521.7717, 95.11420
522.2538, 97.48139
522.7360, 100.5651
523.2181, 103.9675
523.7002, 107.4923
524.1823, 111.3852
524.6644, 115.7762
525.1465, 120.7005
525.6287, 126.3095
526.1108, 132.7351
526.5929, 139.8312
527.0750, 147.0233
527.5571, 154.3531
528.0392, 161.6430
528.5214, 169.1311
529.0035, 176.4369
529.4856, 183.5699
529.9677, 190.3206
530.4498, 195.9434
530.9319, 199.9201
531.4141, 202.2181
531.8962, 202.7165
532.3783, 201.5840
532.8604, 198.2196
533.3425, 191.3110
533.8246, 182.5093
534.3068, 173.1805
534.7889, 163.5085
535.2710, 153.4664
535.7531, 142.3633
536.2352, 130.9792
536.7173, 120.8444
537.1995, 112.1666
537.6816, 104.5785
538.1637, 97.91415
538.6458, 92.17162
539.1279, 87.21861
539.6100, 83.21136
540.0922, 79.70055
540.5743, 76.59364
541.0564, 73.88094
541.5385, 71.59764
542.0206, 69.72807
542.5027, 68.11057
542.9849, 66.58665
543.4670, 65.15298
543.9491, 63.95469
544.4312, 63.12621
544.9133, 62.39777
545.3954, 61.75672
545.8775, 61.17096
546.3596, 60.59447
546.8417, 60.01923
547.3239, 59.51610
547.8060, 59.20412
548.2881, 59.06337
548.7702, 58.85686
549.2523, 58.51054
549.7344, 58.23423
550.2166, 58.24986
550.6987, 58.39756
551.1808, 58.41254
551.6629, 58.17066
552.1450, 57.98112
552.6271, 58.08653
553.1093, 58.37377
553.5914, 58.58593
554.0735, 58.66901
554.5556, 58.81034
555.0377, 59.23083
555.5198, 59.92199
556.0020, 60.28254
556.4841, 60.05189
556.9662, 59.85832
557.4483, 59.85576
557.9304, 59.98560
558.4125, 60.22742
558.8947, 60.54930
559.3768, 60.80577
559.8589, 60.78241
560.3410, 60.46680
560.8231, 60.45126
561.3052, 61.03927
561.7874, 61.48516
562.2695, 61.48684
562.7516, 61.26855
563.2337, 61.05578
563.7158, 60.89842
564.1979, 60.83489
564.6801, 60.96289
565.1622, 61.21490
565.6443, 61.36956
566.1264, 61.40122
566.6085, 61.34235
567.0906, 61.12211
567.5728, 60.84242
568.0549, 60.87233
568.5370, 61.49498
569.0191, 61.98016
569.5012, 62.02945
569.9833, 61.83012
570.4655, 61.52869
570.9476, 61.19115
571.4297, 60.96385
571.9118, 60.98311
572.3939, 61.23769
572.8760, 61.59313
573.3582, 62.35091
573.8403, 62.78437
574.3224, 62.44123
574.8045, 61.97939
575.2866, 62.02252
575.7687, 62.62244
576.2509, 63.34021
576.7330, 63.92342
577.2151, 64.32391
577.6972, 64.23694
578.1793, 63.50338
578.6614, 62.97823
579.1436, 63.14732
579.6257, 63.67808
580.1078, 64.07439
580.5899, 64.31189
581.0720, 64.51651
581.5541, 64.73605
582.0363, 64.94681
582.5184, 65.05749
583.0005, 65.10525
583.4826, 65.34268
583.9647, 65.95910
584.4468, 66.77656
584.9290, 67.27011
585.4111, 67.13422
585.8932, 67.14579
586.3753, 67.42324
586.8574, 67.73524
587.3395, 67.87830
