##NAMES=Uvarovite
##RRUFFID=R061041
##IDEAL CHEMISTRY=Ca_3_Cr^3+^_2_(SiO_4_)_3_
##LOCALITY=Outokumpu, Finland
##OWNER=RRUFF
##SOURCE=Royal Ontario Museum
##DESCRIPTION=Emerald-green euhedral crystal
##STATUS=The identification of this mineral has been confirmed by X-ray diffraction and chemical analysis
##URL=rruff.info/R061041
##MEASURED CHEMISTRY=(Ca_2.93_Mg_0.05_Mn_0.01_[box]_0.01_)_Σ=3.00_(Cr_1.23_Al_0.72_Fe^3+^_0.03_Ti_0.02_)_Σ=2_(Si_1.00_O_4_)_3_
187.0960, 7648.675
187.5781, 7675.138
188.0602, 7694.046
188.5423, 7700.306
189.0245, 7691.178
189.5066, 7681.964
189.9887, 7668.920
190.4708, 7662.772
190.9529, 7676.825
191.4350, 7718.120
191.9172, 7767.408
192.3993, 7799.860
192.8814, 7812.830
193.3635, 7821.004
193.8456, 7825.111
194.3277, 7828.442
194.8099, 7831.937
195.2920, 7834.913
195.7741, 7843.028
196.2562, 7867.382
196.7383, 7912.911
197.2204, 7951.186
197.7026, 7965.257
198.1847, 7972.967
198.6668, 7989.059
199.1489, 8018.193
199.6310, 8047.241
200.1131, 8055.253
200.5953, 8036.135
201.0774, 8029.864
201.5595, 8062.995
202.0416, 8104.891
202.5237, 8134.568
203.0058, 8147.329
203.4880, 8153.209
203.9701, 8164.170
204.4522, 8181.472
204.9343, 8194.675
205.4164, 8192.384
205.8985, 8190.473
206.3807, 8202.826
206.8628, 8232.103
207.3449, 8262.172
207.8270, 8272.678
208.3091, 8260.990
208.7912, 8256.964
209.2734, 8274.092
209.7555, 8295.939
210.2376, 8313.930
210.7197, 8326.848
211.2018, 8332.599
211.6839, 8320.436
212.1661, 8288.838
212.6482, 8281.874
213.1303, 8329.422
213.6124, 8386.787
214.0945, 8427.029
214.5766, 8448.071
215.0588, 8457.438
215.5409, 8451.157
216.0230, 8430.273
216.5051, 8434.838
216.9872, 8487.500
217.4693, 8551.765
217.9515, 8608.689
218.4336, 8656.576
218.9157, 8692.621
219.3978, 8707.477
219.8799, 8704.241
220.3620, 8712.740
220.8442, 8741.960
221.3263, 8777.185
221.8084, 8811.596
222.2905, 8844.055
222.7726, 8869.604
223.2547, 8878.735
223.7369, 8876.166
224.2190, 8888.459
224.7011, 8928.322
225.1832, 8966.491
225.6653, 8982.344
226.1474, 8980.741
226.6296, 8977.074
227.1117, 8972.178
227.5938, 8971.011
228.0759, 8992.947
228.5580, 9050.679
229.0401, 9107.086
229.5223, 9133.532
230.0044, 9140.507
230.4865, 9150.525
230.9686, 9174.263
231.4507, 9207.201
231.9328, 9240.971
232.4150, 9275.756
232.8971, 9310.772
233.3792, 9342.781
233.8613, 9374.948
234.3434, 9413.791
234.8255, 9463.431
235.3077, 9519.373
235.7898, 9575.014
236.2719, 9629.637
236.7540, 9688.546
237.2361, 9758.638
237.7182, 9834.744
238.2004, 9910.210
238.6825, 9987.086
239.1646, 10058.99
239.6467, 10117.79
240.1288, 10163.61
240.6109, 10205.81
241.0931, 10263.51
241.5752, 10312.10
242.0573, 10310.77
242.5394, 10240.41
243.0215, 10146.18
243.5036, 10059.04
243.9858, 9977.691
244.4679, 9889.660
244.9500, 9781.325
245.4321, 9671.583
245.9142, 9592.064
246.3963, 9547.622
246.8785, 9520.106
247.3606, 9508.034
247.8427, 9506.517
248.3248, 9498.000
248.8069, 9472.108
249.2890, 9444.156
249.7712, 9441.522
250.2533, 9468.274
250.7354, 9493.938
251.2175, 9503.443
251.6996, 9505.082
252.1817, 9514.049
252.6639, 9534.486
253.1460, 9561.280
253.6281, 9590.506
254.1102, 9623.714
254.5923, 9648.074
255.0744, 9656.109
255.5566, 9656.505
256.0387, 9657.200
256.5208, 9659.565
257.0029, 9667.096
257.4850, 9684.900
257.9671, 9715.095
258.4492, 9742.040
258.9314, 9757.081
259.4135, 9774.502
259.8956, 9811.021
260.3777, 9865.205
260.8598, 9915.354
261.3419, 9942.884
261.8241, 9946.461
262.3062, 9956.764
262.7883, 9976.934
263.2704, 9999.965
263.7525, 10021.15
264.2346, 10042.06
264.7168, 10067.89
265.1989, 10101.71
265.6810, 10143.54
266.1631, 10192.91
266.6452, 10259.27
267.1273, 10321.88
267.6095, 10374.04
268.0916, 10419.15
268.5737, 10464.29
269.0558, 10513.24
269.5379, 10562.23
270.0201, 10598.30
270.5022, 10616.06
270.9843, 10625.63
271.4664, 10636.25
271.9485, 10634.85
272.4306, 10602.55
272.9128, 10534.20
273.3949, 10447.44
273.8770, 10374.81
274.3591, 10327.54
274.8412, 10273.99
275.3233, 10192.24
275.8055, 10119.84
276.2876, 10088.60
276.7697, 10099.87
277.2518, 10126.93
277.7339, 10138.37
278.2160, 10129.07
278.6982, 10124.85
279.1803, 10132.58
279.6624, 10139.08
280.1445, 10137.67
280.6266, 10129.65
281.1087, 10120.82
281.5909, 10116.08
282.0730, 10115.20
282.5551, 10112.80
283.0372, 10105.35
283.5193, 10100.82
284.0014, 10108.76
284.4836, 10120.48
284.9657, 10120.38
285.4478, 10097.42
285.9299, 10059.63
286.4120, 10030.20
286.8941, 10011.00
287.3763, 9996.673
287.8584, 9982.040
288.3405, 9972.356
288.8226, 9975.488
289.3047, 9996.145
289.7868, 10023.30
290.2690, 10040.17
290.7511, 10044.76
291.2332, 10057.85
291.7153, 10095.06
292.1974, 10137.22
292.6795, 10167.84
293.1617, 10185.04
293.6438, 10193.39
294.1259, 10189.56
294.6080, 10177.13
295.0901, 10176.52
295.5722, 10195.55
296.0544, 10221.78
296.5365, 10242.24
297.0186, 10257.30
297.5007, 10274.25
297.9828, 10296.68
298.4649, 10322.43
298.9471, 10347.97
299.4292, 10372.95
299.9113, 10398.36
300.3934, 10424.48
300.8755, 10451.68
301.3576, 10482.01
301.8398, 10524.73
302.3219, 10563.84
302.8040, 10579.93
303.2861, 10576.84
303.7682, 10581.95
304.2503, 10613.80
304.7325, 10667.15
305.2146, 10712.91
305.6967, 10750.08
306.1788, 10782.22
306.6609, 10804.70
307.1430, 10823.95
307.6252, 10855.98
308.1073, 10908.93
308.5894, 10967.40
309.0715, 10996.71
309.5536, 10966.98
310.0357, 10951.93
310.5179, 10960.01
311.0000, 10979.81
311.4821, 11004.02
311.9642, 11029.97
312.4463, 11054.33
312.9284, 11072.10
313.4106, 11080.00
313.8927, 11093.96
314.3748, 11112.28
314.8569, 11137.38
315.3390, 11172.07
315.8211, 11215.01
316.3033, 11264.18
316.7854, 11322.55
317.2675, 11386.86
317.7496, 11415.49
318.2317, 11359.43
318.7138, 11327.38
319.1960, 11355.87
319.6781, 11419.91
320.1602, 11487.34
320.6423, 11544.40
321.1244, 11593.97
321.6065, 11641.24
322.0887, 11685.68
322.5708, 11728.45
323.0529, 11755.90
323.5350, 11790.13
324.0171, 11854.37
324.4992, 11952.95
324.9814, 12054.37
325.4635, 12128.20
325.9456, 12176.92
326.4277, 12224.91
326.9098, 12274.92
327.3919, 12326.32
327.8741, 12378.96
328.3562, 12432.66
328.8383, 12486.39
329.3204, 12535.87
329.8025, 12586.49
330.2846, 12652.61
330.7668, 12737.63
331.2489, 12814.28
331.7310, 12854.30
332.2131, 12869.27
332.6952, 12905.27
333.1773, 12982.13
333.6595, 13065.91
334.1416, 13141.38
334.6237, 13207.13
335.1058, 13251.34
335.5879, 13261.11
336.0700, 13258.87
336.5522, 13308.54
337.0343, 13450.87
337.5164, 13564.88
337.9985, 13606.62
338.4806, 13620.18
338.9627, 13650.79
339.4449, 13710.24
339.9270, 13793.10
340.4091, 13897.44
340.8912, 14039.52
341.3733, 14140.68
341.8554, 14171.98
342.3376, 14194.99
342.8197, 14243.53
343.3018, 14311.81
343.7839, 14372.72
344.2660, 14402.83
344.7481, 14409.41
345.2303, 14453.81
345.7124, 14574.58
346.1945, 14683.26
346.6766, 14768.27
347.1587, 14831.19
347.6408, 14866.90
348.1230, 14872.11
348.6051, 14874.27
349.0872, 14926.97
349.5693, 15047.76
350.0514, 15136.65
350.5335, 15145.26
351.0157, 15139.04
351.4978, 15161.20
351.9799, 15212.40
352.4620, 15262.29
352.9441, 15280.06
353.4262, 15278.26
353.9084, 15304.86
354.3905, 15370.53
354.8726, 15445.85
355.3547, 15502.17
355.8368, 15550.95
356.3189, 15619.95
356.8011, 15729.96
357.2832, 15851.88
357.7653, 15956.47
358.2474, 16047.16
358.7295, 16146.52
359.2116, 16261.99
359.6938, 16396.74
360.1759, 16559.47
360.6580, 16734.44
361.1401, 16957.91
361.6222, 17258.25
362.1043, 17604.22
362.5865, 17955.70
363.0686, 18304.67
363.5507, 18665.48
364.0328, 19053.77
364.5149, 19473.46
364.9970, 19910.88
365.4792, 20402.26
365.9613, 20877.83
366.4434, 21289.65
366.9255, 21655.63
367.4076, 22028.08
367.8897, 22449.95
368.3719, 22895.02
368.8540, 23241.34
369.3361, 23486.13
369.8182, 23619.48
370.3003, 23687.48
370.7824, 23632.78
371.2646, 23384.56
371.7467, 22924.97
372.2288, 22331.21
372.7109, 21672.91
373.1930, 20947.64
373.6751, 20217.44
374.1573, 19458.59
374.6394, 18737.03
375.1215, 18089.31
375.6036, 17512.03
376.0857, 16982.21
376.5678, 16487.04
377.0500, 16034.71
377.5321, 15651.03
378.0142, 15339.45
378.4963, 15054.91
378.9784, 14770.89
379.4605, 14498.58
379.9427, 14263.38
380.4248, 14074.24
380.9069, 13907.82
381.3890, 13750.17
381.8711, 13606.52
382.3532, 13488.09
382.8354, 13398.58
383.3175, 13329.19
383.7996, 13270.11
384.2817, 13229.64
384.7638, 13173.04
385.2459, 13076.24
385.7281, 12983.80
386.2102, 12925.96
386.6923, 12899.06
387.1744, 12882.66
387.6565, 12862.12
388.1386, 12839.00
388.6208, 12824.74
389.1029, 12827.62
389.5850, 12828.62
390.0671, 12819.34
390.5492, 12809.36
391.0313, 12810.04
391.5135, 12824.48
391.9956, 12843.10
392.4777, 12851.94
392.9598, 12849.48
393.4419, 12854.14
393.9240, 12865.84
394.4062, 12888.04
394.8883, 12929.10
395.3704, 12982.99
395.8525, 13028.56
396.3346, 13049.41
396.8167, 13058.64
397.2989, 13079.34
397.7810, 13112.34
398.2631, 13137.02
398.7452, 13136.87
399.2273, 13124.45
399.7094, 13132.76
400.1916, 13180.27
400.6737, 13211.44
401.1558, 13183.72
401.6379, 13133.14
402.1200, 13124.25
402.6021, 13171.76
403.0843, 13224.90
403.5664, 13223.22
404.0485, 13154.27
404.5306, 13093.20
405.0127, 13028.26
405.4948, 12981.51
405.9770, 12979.02
406.4591, 13001.50
406.9412, 13008.10
407.4233, 12975.18
407.9054, 12918.35
408.3875, 12880.46
408.8697, 12858.40
409.3518, 12863.49
409.8339, 12924.28
410.3160, 12991.14
410.7981, 13021.92
411.2802, 13015.14
411.7624, 13010.03
412.2445, 13048.83
412.7266, 13119.67
413.2087, 13162.11
413.6908, 13163.86
414.1729, 13160.10
414.6551, 13171.60
415.1372, 13193.37
415.6193, 13218.36
416.1014, 13249.53
416.5835, 13277.79
417.0656, 13296.49
417.5478, 13306.76
418.0299, 13308.73
418.5120, 13299.51
418.9941, 13293.09
419.4762, 13315.34
419.9583, 13385.51
420.4405, 13423.18
420.9226, 13398.82
421.4047, 13363.12
421.8868, 13349.94
422.3689, 13358.17
422.8510, 13370.74
423.3332, 13375.90
423.8153, 13375.50
424.2974, 13379.38
424.7795, 13393.79
425.2616, 13402.88
425.7437, 13396.34
426.2259, 13388.83
426.7080, 13397.31
427.1901, 13423.95
427.6722, 13449.60
428.1543, 13452.64
428.6364, 13434.90
429.1186, 13420.36
429.6007, 13410.48
430.0828, 13403.76
430.5649, 13404.96
431.0470, 13408.26
431.5291, 13399.01
432.0113, 13352.52
432.4934, 13316.31
432.9755, 13354.53
433.4576, 13443.86
433.9397, 13484.08
434.4218, 13429.93
434.9040, 13339.25
435.3861, 13308.49
435.8682, 13364.28
436.3503, 13395.29
436.8324, 13368.87
437.3145, 13337.11
437.7967, 13341.73
438.2788, 13376.78
438.7609, 13409.29
439.2430, 13416.37
439.7251, 13403.92
440.2072, 13401.90
440.6894, 13423.33
441.1715, 13433.69
441.6536, 13417.38
442.1357, 13396.11
442.6178, 13392.68
443.0999, 13408.94
443.5821, 13420.64
444.0642, 13396.55
444.5463, 13344.64
445.0284, 13319.93
445.5105, 13335.60
445.9926, 13352.28
446.4748, 13341.86
446.9569, 13315.33
447.4390, 13292.06
447.9211, 13273.78
448.4032, 13261.56
448.8853, 13258.01
449.3675, 13261.07
449.8496, 13267.41
450.3317, 13276.73
450.8138, 13283.55
451.2959, 13278.35
451.7780, 13254.18
452.2602, 13249.78
452.7423, 13289.26
453.2244, 13323.93
453.7065, 13319.81
454.1886, 13293.10
454.6707, 13280.71
455.1529, 13303.02
455.6350, 13345.71
456.1171, 13376.62
456.5992, 13394.81
457.0813, 13403.17
457.5634, 13394.61
458.0455, 13381.41
458.5276, 13363.14
459.0098, 13343.84
459.4919, 13340.64
459.9740, 13374.21
460.4561, 13427.54
460.9382, 13470.03
461.4203, 13501.79
461.9025, 13519.44
462.3846, 13515.50
462.8667, 13500.02
463.3488, 13498.14
463.8309, 13518.54
464.3130, 13531.22
464.7952, 13518.99
465.2773, 13499.74
465.7594, 13491.80
466.2415, 13498.14
466.7236, 13515.82
467.2057, 13545.14
467.6879, 13584.66
468.1700, 13604.48
468.6521, 13580.30
469.1342, 13564.84
469.6163, 13569.60
470.0984, 13585.18
470.5806, 13604.64
471.0627, 13625.26
471.5448, 13641.19
472.0269, 13638.30
472.5090, 13619.79
472.9911, 13629.06
473.4733, 13685.92
473.9554, 13736.56
474.4375, 13737.13
474.9196, 13706.23
475.4017, 13676.62
475.8839, 13638.62
476.3660, 13623.87
476.8481, 13676.36
477.3302, 13765.13
477.8123, 13815.87
478.2944, 13806.38
478.7766, 13775.25
479.2587, 13770.10
479.7408, 13796.95
480.2229, 13819.89
480.7050, 13829.18
481.1871, 13845.62
481.6693, 13882.50
482.1514, 13930.91
482.6335, 13976.13
483.1156, 14011.46
483.5977, 14041.01
484.0798, 14068.29
484.5620, 14091.16
485.0441, 14127.74
485.5262, 14189.52
486.0083, 14254.80
486.4904, 14303.61
486.9725, 14342.09
487.4547, 14392.29
487.9368, 14474.76
488.4189, 14561.81
488.9010, 14622.52
489.3831, 14661.63
489.8652, 14700.65
490.3474, 14747.62
490.8295, 14797.96
491.3116, 14846.13
491.7937, 14894.24
492.2758, 14932.22
492.7579, 14948.22
493.2401, 14965.23
493.7222, 15000.10
494.2043, 15046.70
494.6864, 15087.87
495.1685, 15113.35
495.6506, 15132.86
496.1328, 15169.34
496.6149, 15227.44
497.0970, 15286.90
497.5791, 15350.17
498.0612, 15408.79
498.5433, 15457.04
499.0255, 15495.59
499.5076, 15527.81
499.9897, 15542.39
500.4718, 15559.62
500.9539, 15612.48
501.4360, 15695.12
501.9182, 15766.72
502.4003, 15808.31
502.8824, 15833.62
503.3645, 15866.47
503.8466, 15906.90
504.3287, 15955.90
504.8109, 16017.67
505.2930, 16084.45
505.7751, 16159.22
506.2572, 16234.88
506.7393, 16297.45
507.2214, 16337.58
507.7036, 16361.23
508.1857, 16379.09
508.6678, 16385.89
509.1499, 16406.68
509.6320, 16461.87
510.1141, 16518.28
510.5963, 16552.93
511.0784, 16567.77
511.5605, 16578.33
512.0426, 16589.41
512.5247, 16600.72
513.0068, 16612.80
513.4890, 16625.12
513.9711, 16634.71
514.4532, 16639.93
514.9353, 16643.03
515.4174, 16648.71
515.8995, 16661.95
516.3817, 16664.18
516.8638, 16639.66
517.3459, 16618.76
517.8280, 16618.86
518.3101, 16636.45
518.7922, 16661.77
519.2744, 16690.51
519.7565, 16719.91
520.2386, 16737.86
520.7207, 16737.12
521.2028, 16772.21
521.6849, 16877.45
522.1671, 16992.22
522.6492, 17057.13
523.1313, 17087.70
523.6134, 17153.35
524.0955, 17306.65
524.5776, 17477.24
525.0598, 17600.35
525.5419, 17692.15
526.0240, 17807.08
526.5061, 17966.60
526.9882, 18138.42
527.4703, 18274.40
527.9525, 18366.86
528.4346, 18456.64
528.9167, 18544.32
529.3988, 18629.23
529.8809, 18731.11
530.3630, 18824.59
530.8452, 18873.08
531.3273, 18861.65
531.8094, 18800.56
532.2915, 18709.26
532.7736, 18585.63
533.2557, 18380.47
533.7379, 18054.20
534.2200, 17715.77
534.7021, 17455.11
535.1842, 17249.76
535.6663, 17030.77
536.1484, 16761.65
536.6306, 16510.53
537.1127, 16312.30
537.5948, 16151.55
538.0769, 16009.66
538.5590, 15881.17
539.0411, 15768.01
539.5233, 15672.40
540.0054, 15594.94
540.4875, 15523.31
540.9696, 15465.41
541.4517, 15403.52
541.9338, 15320.58
542.4160, 15239.69
542.8981, 15187.14
543.3802, 15168.67
543.8623, 15158.65
544.3444, 15138.11
544.8265, 15111.71
545.3087, 15091.77
545.7908, 15079.44
546.2729, 15062.20
546.7550, 15026.89
547.2371, 14985.18
547.7192, 14976.43
548.2014, 15030.47
548.6835, 15061.84
549.1656, 15040.19
549.6477, 15008.20
550.1298, 14996.34
550.6119, 15005.85
551.0941, 15026.70
551.5762, 15054.68
552.0583, 15083.84
552.5404, 15095.60
553.0225, 15086.07
553.5046, 15076.97
553.9868, 15067.22
554.4689, 15065.98
554.9510, 15082.62
555.4331, 15115.33
555.9152, 15149.91
556.3973, 15185.54
556.8795, 15218.38
557.3616, 15244.86
557.8437, 15266.02
558.3258, 15284.76
558.8079, 15302.21
559.2900, 15316.83
559.7722, 15326.03
560.2543, 15328.13
560.7364, 15332.64
561.2185, 15339.00
561.7006, 15348.27
562.1827, 15365.80
562.6649, 15384.40
563.1470, 15394.05
563.6291, 15391.62
564.1112, 15382.41
564.5933, 15364.55
565.0754, 15343.80
565.5576, 15344.55
566.0397, 15372.18
566.5218, 15391.58
567.0039, 15375.13
567.4860, 15332.61
567.9681, 15307.39
568.4503, 15308.90
568.9324, 15311.91
569.4145, 15305.91
569.8966, 15305.75
570.3787, 15325.92
570.8608, 15364.88
571.3430, 15413.12
571.8251, 15468.07
572.3072, 15520.47
572.7893, 15538.58
573.2714, 15514.85
573.7535, 15503.55
574.2357, 15524.13
574.7178, 15555.08
575.1999, 15576.32
575.6820, 15588.61
576.1641, 15598.47
576.6462, 15601.06
577.1284, 15607.46
577.6105, 15623.03
578.0926, 15648.08
578.5747, 15688.35
579.0568, 15744.69
579.5389, 15797.54
580.0211, 15818.21
580.5032, 15802.61
580.9853, 15808.50
581.4674, 15860.47
581.9495, 15898.40
582.4316, 15878.06
582.9138, 15846.68
583.3959, 15868.78
583.8780, 15960.76
584.3601, 16045.87
584.8422, 16063.57
585.3243, 16049.35
585.8065, 16059.72
586.2886, 16096.80
586.7707, 16138.58
587.2528, 16174.60
587.7349, 16202.66
588.2170, 16214.72
588.6992, 16183.96
589.1813, 16187.94
589.6634, 16258.82
590.1455, 16330.20
590.6276, 16369.02
591.1097, 16380.37
591.5919, 16378.40
592.0740, 16364.62
592.5561, 16355.33
593.0382, 16382.25
593.5203, 16434.88
594.0024, 16455.91
594.4846, 16431.13
594.9667, 16394.26
595.4488, 16367.57
595.9309, 16351.94
596.4130, 16355.31
596.8951, 16397.73
597.3773, 16430.43
597.8594, 16429.43
598.3415, 16425.01
598.8236, 16453.68
599.3057, 16511.21
599.7878, 16557.30
600.2700, 16559.09
600.7521, 16532.35
601.2342, 16512.70
601.7163, 16499.41
602.1984, 16506.16
602.6805, 16548.94
603.1627, 16596.15
603.6448, 16609.85
604.1269, 16591.68
604.6090, 16571.77
605.0911, 16540.72
605.5732, 16521.66
606.0554, 16535.74
606.5375, 16565.05
607.0196, 16580.62
607.5017, 16576.02
607.9838, 16570.89
608.4659, 16588.78
608.9481, 16626.46
609.4302, 16652.95
609.9123, 16666.78
610.3944, 16673.34
610.8765, 16672.01
611.3586, 16665.74
611.8408, 16658.01
612.3229, 16648.72
612.8050, 16639.74
613.2871, 16625.62
613.7692, 16617.43
614.2513, 16626.46
614.7335, 16648.59
615.2156, 16675.15
615.6977, 16702.61
616.1798, 16725.98
616.6619, 16734.51
617.1440, 16725.32
617.6262, 16730.37
618.1083, 16758.47
618.5904, 16786.39
619.0725, 16807.43
619.5546, 16820.62
620.0367, 16823.81
620.5189, 16816.15
621.0010, 16800.70
621.4831, 16772.00
621.9652, 16740.52
622.4473, 16716.07
622.9294, 16699.76
623.4116, 16693.75
623.8937, 16699.99
624.3758, 16710.07
624.8579, 16705.57
625.3400, 16680.70
625.8221, 16664.33
626.3043, 16670.39
626.7864, 16668.44
627.2685, 16634.57
627.7506, 16587.25
628.2327, 16556.94
628.7148, 16551.18
629.1970, 16559.42
629.6791, 16587.88
630.1612, 16620.64
630.6433, 16636.79
631.1254, 16634.48
631.6075, 16617.00
632.0897, 16584.78
632.5718, 16544.31
633.0539, 16511.92
633.5360, 16486.21
634.0181, 16472.12
634.5002, 16467.77
634.9824, 16477.99
635.4645, 16525.10
635.9466, 16584.67
636.4287, 16603.21
636.9108, 16551.21
637.3929, 16496.66
637.8751, 16493.54
638.3572, 16512.60
638.8393, 16500.59
639.3214, 16456.64
639.8035, 16425.99
640.2856, 16441.32
640.7678, 16484.64
641.2499, 16500.33
641.7320, 16477.37
642.2141, 16455.23
642.6962, 16435.78
643.1783, 16419.07
643.6605, 16404.67
644.1426, 16393.30
644.6247, 16385.67
645.1068, 16379.48
645.5889, 16383.15
646.0710, 16421.59
646.5532, 16465.82
647.0353, 16459.88
647.5174, 16403.84
647.9995, 16349.58
648.4816, 16332.86
648.9637, 16344.95
649.4459, 16358.17
649.9280, 16370.45
650.4101, 16389.91
650.8922, 16435.46
651.3743, 16468.88
651.8564, 16457.45
652.3386, 16419.18
652.8207, 16397.51
653.3028, 16404.40
653.7849, 16426.99
654.2670, 16472.56
654.7491, 16521.51
655.2313, 16542.39
655.7134, 16534.79
656.1955, 16522.15
656.6776, 16519.70
657.1597, 16524.63
657.6418, 16529.75
658.1240, 16535.99
658.6061, 16539.33
659.0882, 16540.48
659.5703, 16537.33
660.0524, 16524.56
660.5345, 16507.40
661.0167, 16498.86
661.4988, 16507.24
661.9809, 16512.29
662.4630, 16502.24
662.9451, 16485.14
663.4272, 16466.71
663.9094, 16449.99
664.3915, 16442.21
664.8736, 16448.37
665.3557, 16462.33
665.8378, 16471.34
666.3199, 16475.61
666.8021, 16470.97
667.2842, 16443.79
667.7663, 16429.73
668.2484, 16460.87
668.7305, 16520.06
669.2126, 16573.70
669.6948, 16625.36
670.1769, 16657.22
670.6590, 16652.12
671.1411, 16633.25
671.6232, 16611.56
672.1053, 16594.87
672.5875, 16600.76
673.0696, 16639.68
673.5517, 16688.58
674.0338, 16705.62
674.5159, 16692.10
674.9980, 16696.88
675.4802, 16728.95
675.9623, 16762.69
676.4444, 16788.29
676.9265, 16803.16
677.4086, 16796.95
677.8907, 16753.53
678.3729, 16733.12
678.8550, 16766.71
679.3371, 16803.38
679.8192, 16806.18
680.3013, 16789.18
680.7834, 16782.69
681.2656, 16798.05
681.7477, 16824.33
682.2298, 16856.55
