##NAMES=Uvarovite
##RRUFFID=R061041
##IDEAL CHEMISTRY=Ca_3_Cr^3+^_2_(SiO_4_)_3_
##LOCALITY=Outokumpu, Finland
##OWNER=RRUFF
##SOURCE=Royal Ontario Museum
##DESCRIPTION=Emerald-green euhedral crystal
##STATUS=The identification of this mineral has been confirmed by X-ray diffraction and chemical analysis
##URL=rruff.info/R061041
##MEASURED CHEMISTRY=(Ca_2.93_Mg_0.05_Mn_0.01_[box]_0.01_)_Σ=3.00_(Cr_1.23_Al_0.72_Fe^3+^_0.03_Ti_0.02_)_Σ=2_(Si_1.00_O_4_)_3_
145.1458, 3457.895
145.6279, 3524.825
146.1101, 3576.958
146.5922, 3606.480
147.0743, 3614.335
147.5564, 3621.161
148.0385, 3626.740
148.5206, 3631.347
149.0028, 3634.965
149.4849, 3629.873
149.9670, 3632.669
150.4491, 3649.559
150.9312, 3685.316
151.4133, 3712.352
151.8955, 3723.086
152.3776, 3727.547
152.8597, 3737.865
153.3418, 3769.616
153.8239, 3794.616
154.3060, 3802.743
154.7882, 3782.370
155.2703, 3769.604
155.7524, 3770.014
156.2345, 3781.100
156.7166, 3797.653
157.1987, 3825.552
157.6808, 3853.610
158.1630, 3876.091
158.6451, 3887.307
159.1272, 3897.988
159.6093, 3908.031
160.0914, 3918.395
160.5735, 3933.972
161.0557, 3956.929
161.5378, 3985.249
162.0199, 4017.519
162.5020, 4062.737
162.9841, 4103.026
163.4662, 4127.354
163.9484, 4136.326
164.4305, 4147.436
164.9126, 4163.338
165.3947, 4187.681
165.8768, 4224.749
166.3589, 4287.172
166.8411, 4355.394
167.3232, 4415.275
167.8053, 4464.285
168.2874, 4519.385
168.7695, 4595.230
169.2516, 4684.789
169.7338, 4774.868
170.2159, 4865.836
170.6980, 4951.298
171.1801, 5023.032
171.6622, 5076.891
172.1443, 5127.985
172.6265, 5177.229
173.1086, 5231.153
173.5907, 5309.502
174.0728, 5441.830
174.5549, 5602.165
175.0370, 5757.056
175.5192, 5909.789
176.0013, 6038.310
176.4834, 6116.774
176.9655, 6147.230
177.4476, 6143.581
177.9297, 6120.345
178.4118, 6070.128
178.8940, 5976.586
179.3761, 5812.518
179.8582, 5616.969
180.3403, 5447.533
180.8224, 5302.750
181.3046, 5179.600
181.7867, 5078.871
182.2688, 4996.952
182.7509, 4923.337
183.2330, 4852.393
183.7151, 4787.138
184.1973, 4733.748
184.6794, 4694.039
185.1615, 4656.881
185.6436, 4599.977
186.1257, 4528.252
186.6078, 4479.152
187.0900, 4486.013
187.5721, 4532.737
188.0542, 4553.388
188.5363, 4541.294
189.0184, 4516.691
189.5005, 4509.894
189.9827, 4520.642
190.4648, 4533.486
190.9469, 4542.726
191.4290, 4547.819
191.9111, 4544.347
192.3932, 4529.956
192.8754, 4509.856
193.3575, 4494.126
193.8396, 4482.829
194.3217, 4474.034
194.8038, 4466.005
195.2859, 4458.851
195.7681, 4455.898
196.2502, 4459.208
196.7323, 4466.085
197.2144, 4467.271
197.6965, 4461.637
198.1786, 4456.273
198.6607, 4457.828
199.1429, 4466.879
199.6250, 4475.069
200.1071, 4479.559
200.5892, 4481.844
201.0713, 4490.972
201.5534, 4508.344
202.0356, 4527.971
202.5177, 4543.577
202.9998, 4554.450
203.4819, 4564.782
203.9640, 4576.439
204.4461, 4589.009
204.9283, 4594.972
205.4104, 4592.768
205.8925, 4586.563
206.3746, 4582.491
206.8567, 4557.918
207.3388, 4595.228
207.8210, 4619.044
208.3031, 4630.089
208.7852, 4590.117
209.2673, 4616.023
209.7494, 4615.528
210.2315, 4613.951
210.7137, 4649.130
211.1958, 4616.578
211.6779, 4651.173
212.1600, 4658.965
212.6421, 4679.023
213.1242, 4672.519
213.6064, 4674.219
214.0885, 4702.491
214.5706, 4716.050
215.0527, 4706.487
215.5348, 4727.325
216.0169, 4693.846
216.4991, 4708.032
216.9812, 4742.783
217.4633, 4706.868
217.9454, 4698.361
218.4275, 4693.036
218.9096, 4691.061
219.3917, 4692.494
219.8739, 4697.335
220.3560, 4706.218
220.8381, 4721.353
221.3202, 4740.565
221.8023, 4754.875
222.2844, 4760.298
222.7666, 4767.212
223.2487, 4781.435
223.7308, 4802.339
224.2129, 4833.646
224.6950, 4883.557
225.1771, 4946.843
225.6593, 4981.633
226.1414, 4968.189
226.6235, 4951.965
227.1056, 4968.009
227.5877, 5036.279
228.0698, 5093.955
228.5520, 5127.742
229.0341, 5140.049
229.5162, 5172.386
229.9983, 5230.123
230.4804, 5301.365
230.9625, 5379.104
231.4447, 5470.300
231.9268, 5553.398
232.4089, 5624.127
232.8910, 5682.068
233.3731, 5743.303
233.8552, 5808.623
234.3374, 5876.580
234.8195, 5945.300
235.3016, 6016.164
235.7837, 6085.076
236.2658, 6148.002
236.7479, 6203.552
237.2301, 6275.798
237.7122, 6374.105
238.1943, 6480.643
238.6764, 6575.636
239.1585, 6646.059
239.6406, 6728.200
240.1227, 6842.776
240.6049, 7002.459
241.0870, 7098.905
241.5691, 7129.403
242.0512, 7098.409
242.5333, 7005.054
243.0154, 6816.375
243.4976, 6620.777
243.9797, 6440.419
244.4618, 6280.787
244.9439, 6111.264
245.4260, 5914.341
245.9081, 5719.711
246.3903, 5570.586
246.8724, 5480.100
247.3545, 5413.087
247.8366, 5363.531
248.3187, 5337.038
248.8008, 5304.603
249.2830, 5260.925
249.7651, 5214.979
250.2472, 5181.352
250.7293, 5161.458
251.2114, 5151.697
251.6935, 5155.155
252.1757, 5179.708
252.6578, 5185.792
253.1399, 5166.755
253.6220, 5133.803
254.1041, 5104.529
254.5862, 5073.466
255.0684, 5055.958
255.5505, 5058.801
256.0326, 5087.244
256.5147, 5119.672
256.9968, 5162.060
257.4789, 5205.048
257.9611, 5226.414
258.4432, 5211.137
258.9253, 5203.280
259.4074, 5221.891
259.8895, 5275.755
260.3716, 5325.271
260.8538, 5365.887
261.3359, 5405.005
261.8180, 5457.275
262.3001, 5527.396
262.7822, 5601.385
263.2643, 5677.884
263.7465, 5762.166
264.2286, 5824.252
264.7107, 5852.548
265.1928, 5865.953
265.6749, 5905.460
266.1570, 5981.977
266.6392, 6058.890
267.1213, 6117.347
267.6034, 6148.014
268.0855, 6200.978
268.5676, 6284.502
269.0497, 6383.659
269.5318, 6468.020
270.0139, 6533.303
270.4961, 6594.921
270.9782, 6676.658
271.4603, 6796.906
271.9424, 6824.712
272.4245, 6735.388
272.9066, 6574.510
273.3888, 6430.904
273.8709, 6306.306
274.3530, 6193.352
274.8351, 6088.965
275.3172, 5992.496
275.7993, 5911.738
276.2815, 5851.620
276.7636, 5801.417
277.2457, 5735.377
277.7278, 5648.275
278.2099, 5571.936
278.6920, 5526.670
279.1742, 5513.826
279.6563, 5496.247
280.1384, 5469.563
280.6205, 5441.646
281.1026, 5430.736
281.5847, 5439.389
282.0669, 5442.650
282.5490, 5422.555
283.0311, 5380.206
283.5132, 5351.915
283.9953, 5342.951
284.4774, 5341.221
284.9596, 5326.291
285.4417, 5297.954
285.9238, 5264.314
286.4059, 5220.125
286.8880, 5169.259
287.3701, 5149.131
287.8523, 5167.306
288.3344, 5201.856
288.8165, 5223.908
289.2986, 5233.505
289.7807, 5228.421
290.2628, 5201.238
290.7450, 5156.456
291.2271, 5111.404
291.7092, 5063.005
292.1913, 5026.446
292.6734, 5031.396
293.1555, 5073.347
293.6377, 5115.416
294.1198, 5139.233
294.6019, 5149.763
295.0840, 5162.740
295.5661, 5180.860
296.0482, 5193.263
296.5304, 5176.248
297.0125, 5138.149
297.4946, 5113.208
297.9767, 5131.173
298.4588, 5171.288
298.9409, 5191.270
299.4231, 5186.913
299.9052, 5177.220
300.3873, 5182.180
300.8694, 5197.843
301.3515, 5213.679
301.8336, 5222.722
302.3158, 5229.288
302.7979, 5240.071
303.2800, 5255.630
303.7621, 5270.858
304.2442, 5279.141
304.7263, 5283.624
305.2085, 5291.421
305.6906, 5313.827
306.1727, 5336.558
306.6548, 5344.330
307.1369, 5336.404
307.6190, 5322.532
308.1012, 5303.739
308.5833, 5285.235
309.0654, 5274.429
309.5475, 5279.989
310.0296, 5290.771
310.5117, 5296.000
310.9938, 5295.618
311.4760, 5302.829
311.9581, 5335.662
312.4402, 5377.903
312.9223, 5409.294
313.4044, 5418.010
313.8865, 5418.360
314.3687, 5413.454
314.8508, 5404.166
315.3329, 5401.628
315.8150, 5418.585
316.2971, 5441.690
316.7792, 5458.025
317.2614, 5451.342
317.7435, 5449.425
318.2256, 5468.120
318.7077, 5504.499
319.1898, 5533.439
319.6719, 5537.863
320.1541, 5536.818
320.6362, 5544.242
321.1183, 5568.851
321.6004, 5595.971
322.0825, 5621.802
322.5646, 5647.008
323.0468, 5675.490
323.5289, 5713.902
324.0110, 5751.783
324.4931, 5783.332
324.9752, 5804.683
325.4573, 5822.813
325.9395, 5834.726
326.4216, 5842.803
326.9037, 5856.798
327.3858, 5879.807
327.8679, 5906.827
328.3500, 5936.043
328.8322, 5968.113
329.3143, 6001.224
329.7964, 6038.646
330.2785, 6076.888
330.7606, 6106.062
331.2427, 6115.242
331.7249, 6128.175
332.2070, 6155.329
332.6891, 6207.688
333.1712, 6247.110
333.6533, 6268.768
334.1354, 6280.327
334.6176, 6295.653
335.0997, 6315.065
335.5818, 6337.639
336.0639, 6361.844
336.5460, 6386.130
337.0281, 6421.834
337.5103, 6470.806
337.9924, 6529.313
338.4745, 6597.166
338.9566, 6683.201
339.4387, 6746.491
339.9208, 6765.774
340.4030, 6742.644
340.8851, 6744.829
341.3672, 6777.800
341.8493, 6822.399
342.3314, 6861.282
342.8135, 6894.594
343.2957, 6915.805
343.7778, 6916.115
344.2599, 6903.613
344.7420, 6912.589
345.2241, 6944.269
345.7062, 6987.878
346.1884, 7029.561
346.6705, 7072.090
347.1526, 7132.932
347.6347, 7219.038
348.1168, 7322.922
348.5989, 7428.887
349.0811, 7535.482
349.5632, 7646.503
350.0453, 7754.958
350.5274, 7868.010
351.0095, 8006.612
351.4916, 8176.931
351.9737, 8368.619
352.4558, 8572.940
352.9380, 8788.750
353.4201, 9010.931
353.9022, 9210.962
354.3843, 9424.793
354.8664, 9701.432
355.3485, 10052.06
355.8307, 10451.05
356.3128, 10870.56
356.7949, 11317.18
357.2770, 11815.29
357.7591, 12390.15
358.2412, 13012.20
358.7234, 13649.98
359.2055, 14292.67
359.6876, 14997.89
360.1697, 15819.60
360.6518, 16711.32
361.1339, 17632.71
361.6161, 18577.12
362.0982, 19533.94
362.5803, 20489.79
363.0624, 21448.17
363.5445, 22406.85
364.0266, 23364.15
364.5088, 24325.80
364.9909, 25285.43
365.4730, 26247.51
365.9551, 27212.25
366.4372, 28199.04
366.9193, 29204.78
367.4015, 30158.58
367.8836, 31086.30
368.3657, 31932.71
368.8478, 32654.41
369.3299, 33352.76
369.8120, 33809.04
370.2942, 34048.01
370.7763, 34043.55
371.2584, 33676.75
371.7405, 32894.71
372.2226, 31808.87
372.7047, 30425.34
373.1869, 28634.04
373.6690, 26824.65
374.1511, 24980.20
374.6332, 23145.40
375.1153, 21408.56
375.5974, 19770.35
376.0796, 18276.27
376.5617, 16943.66
377.0438, 15798.34
377.5259, 14769.50
378.0080, 13872.98
378.4901, 13079.19
378.9723, 12371.62
379.4544, 11747.67
379.9365, 11193.38
380.4186, 10716.23
380.9007, 10304.87
381.3828, 9945.012
381.8650, 9633.104
382.3471, 9358.119
382.8292, 9119.127
383.3113, 8908.682
383.7934, 8702.825
384.2755, 8483.686
384.7577, 8274.827
385.2398, 8120.678
385.7219, 8016.792
386.2040, 7927.768
386.6861, 7829.406
387.1682, 7728.277
387.6504, 7633.899
388.1325, 7545.209
388.6146, 7467.248
389.0967, 7412.086
389.5788, 7370.997
390.0609, 7322.711
390.5431, 7241.459
391.0252, 7158.284
391.5073, 7098.399
391.9894, 7067.819
392.4715, 7045.978
392.9536, 7021.704
393.4357, 7000.423
393.9178, 6989.089
394.4000, 7012.047
394.8821, 7025.764
395.3642, 7004.078
395.8463, 6945.273
396.3284, 6901.383
396.8105, 6891.034
397.2927, 6896.839
397.7748, 6905.759
398.2569, 6919.574
398.7390, 6932.365
399.2211, 6949.053
399.7032, 6966.435
400.1854, 6965.325
400.6675, 6928.398
401.1496, 6889.864
401.6317, 6868.402
402.1138, 6890.058
402.5959, 6874.784
403.0781, 6811.102
403.5602, 6716.434
404.0423, 6625.091
404.5244, 6536.375
405.0065, 6452.214
405.4886, 6372.458
405.9708, 6297.042
406.4529, 6227.112
406.9350, 6164.085
407.4171, 6104.712
407.8992, 6044.458
408.3813, 5982.890
408.8635, 5927.308
409.3456, 5883.500
409.8277, 5845.653
410.3098, 5790.651
410.7919, 5717.325
411.2740, 5653.516
411.7562, 5630.684
412.2383, 5635.941
412.7204, 5629.065
413.2025, 5598.573
413.6846, 5560.453
414.1667, 5528.931
414.6489, 5505.515
415.1310, 5496.736
415.6131, 5526.463
416.0952, 5563.533
416.5773, 5569.487
417.0594, 5536.610
417.5416, 5495.676
418.0237, 5459.538
418.5058, 5429.488
418.9879, 5407.945
419.4700, 5402.038
419.9521, 5399.340
420.4343, 5389.329
420.9164, 5372.258
421.3985, 5370.050
421.8806, 5411.696
422.3627, 5458.100
422.8448, 5480.608
423.3270, 5453.246
423.8091, 5425.774
424.2912, 5399.666
424.7733, 5377.551
425.2554, 5368.114
425.7375, 5375.581
426.2197, 5391.542
426.7018, 5415.677
427.1839, 5457.757
427.6660, 5479.976
428.1481, 5472.732
428.6302, 5452.742
429.1124, 5444.804
429.5945, 5450.144
430.0766, 5464.596
430.5587, 5494.090
431.0408, 5535.780
431.5229, 5544.474
432.0051, 5513.611
432.4872, 5473.600
432.9693, 5453.834
433.4514, 5452.979
433.9335, 5447.792
434.4156, 5429.903
434.8977, 5410.500
435.3799, 5417.895
435.8620, 5449.025
436.3441, 5474.074
436.8262, 5458.544
437.3083, 5427.435
437.7904, 5428.901
438.2726, 5471.626
438.7547, 5526.301
439.2368, 5575.408
439.7189, 5616.548
440.2010, 5645.302
440.6831, 5647.426
441.1653, 5645.393
441.6474, 5658.493
442.1295, 5685.942
442.6116, 5704.151
443.0937, 5692.326
443.5758, 5671.980
444.0580, 5660.745
444.5401, 5670.068
445.0222, 5679.939
445.5043, 5684.646
445.9864, 5686.643
446.4685, 5693.020
446.9507, 5717.842
447.4328, 5735.351
447.9149, 5735.557
448.3970, 5713.215
448.8791, 5689.414
449.3612, 5658.812
449.8434, 5630.931
450.3255, 5619.168
450.8076, 5630.479
451.2897, 5640.402
451.7718, 5643.955
452.2539, 5641.555
452.7361, 5635.772
453.2182, 5625.534
453.7003, 5615.582
454.1824, 5606.785
454.6645, 5599.704
455.1466, 5605.058
455.6288, 5627.654
456.1109, 5655.905
456.5930, 5669.238
457.0751, 5670.042
457.5572, 5672.568
458.0393, 5693.322
458.5215, 5717.560
459.0036, 5714.358
459.4857, 5682.047
459.9678, 5652.171
460.4499, 5657.348
460.9320, 5679.116
461.4142, 5691.483
461.8963, 5676.382
462.3784, 5661.012
462.8605, 5668.142
463.3426, 5690.142
463.8247, 5699.290
464.3069, 5669.689
464.7890, 5635.279
465.2711, 5617.768
465.7532, 5631.450
466.2353, 5631.047
466.7174, 5592.551
467.1996, 5541.202
467.6817, 5512.306
468.1638, 5530.573
468.6459, 5540.335
469.1280, 5528.738
469.6101, 5496.938
470.0923, 5468.669
470.5744, 5441.678
471.0565, 5421.985
471.5386, 5415.729
472.0207, 5425.629
472.5028, 5434.401
472.9850, 5441.701
473.4671, 5446.013
473.9492, 5444.727
474.4313, 5437.932
474.9134, 5425.861
475.3955, 5399.045
475.8776, 5366.839
476.3597, 5366.450
476.8419, 5399.257
477.3240, 5435.463
477.8061, 5446.319
478.2882, 5441.058
478.7703, 5437.974
479.2524, 5444.776
479.7346, 5451.664
480.2167, 5448.542
480.6988, 5438.026
481.1809, 5428.157
481.6630, 5401.869
482.1451, 5392.145
482.6273, 5430.499
483.1094, 5534.711
483.5915, 5620.025
484.0736, 5650.165
484.5557, 5653.142
485.0378, 5658.065
485.5200, 5666.079
486.0021, 5679.450
486.4842, 5700.573
486.9663, 5728.322
487.4484, 5754.505
487.9305, 5777.873
488.4127, 5801.559
488.8948, 5828.840
489.3769, 5862.649
489.8590, 5886.745
490.3411, 5896.913
490.8232, 5904.183
491.3054, 5930.244
491.7875, 5976.464
492.2696, 6009.024
492.7517, 6009.447
493.2338, 5992.072
493.7159, 6002.939
494.1981, 6041.107
494.6802, 6075.672
495.1623, 6072.426
495.6444, 6050.478
496.1265, 6048.364
496.6086, 6077.912
497.0908, 6109.604
497.5729, 6106.688
498.0550, 6088.733
498.5371, 6093.019
499.0192, 6167.527
499.5013, 6242.719
499.9835, 6268.527
500.4656, 6245.935
500.9477, 6240.635
501.4298, 6288.030
501.9119, 6349.249
502.3940, 6399.333
502.8762, 6423.227
503.3583, 6451.606
503.8404, 6484.756
504.3225, 6522.738
504.8046, 6566.102
505.2867, 6616.200
505.7689, 6668.799
506.2510, 6723.729
506.7331, 6780.872
507.2152, 6832.366
507.6973, 6878.211
508.1794, 6918.669
508.6616, 6956.529
509.1437, 6991.158
509.6258, 7008.895
510.1079, 7002.608
510.5900, 6989.800
511.0721, 7003.625
511.5543, 7037.743
512.0364, 7063.046
512.5185, 7050.321
513.0006, 7027.621
513.4827, 7030.726
513.9648, 7060.420
514.4470, 7097.504
514.9291, 7113.566
515.4112, 7137.937
515.8933, 7201.347
516.3754, 7328.892
516.8575, 7470.024
517.3397, 7603.993
517.8218, 7739.063
518.3039, 7897.259
518.7860, 8091.394
519.2681, 8301.127
519.7502, 8518.666
520.2324, 8744.335
520.7145, 8982.576
521.1966, 9237.795
521.6787, 9500.694
522.1608, 9765.121
522.6429, 10027.93
523.1251, 10307.60
523.6072, 10605.57
524.0893, 10918.15
524.5714, 11240.95
525.0535, 11575.32
525.5356, 11923.77
526.0178, 12306.19
526.4999, 12703.89
526.9820, 13064.85
527.4641, 13383.13
527.9462, 13693.98
528.4283, 14035.86
528.9105, 14382.49
529.3926, 14708.40
529.8747, 15020.65
530.3568, 15274.75
530.8389, 15484.47
531.3210, 15609.96
531.8032, 15582.73
532.2853, 15326.19
532.7674, 14960.47
533.2495, 14536.41
533.7316, 14055.15
534.2137, 13475.31
534.6959, 12695.86
535.1780, 11890.37
535.6601, 11136.66
536.1422, 10439.43
536.6243, 9794.352
537.1064, 9187.743
537.5885, 8639.593
538.0706, 8176.904
538.5527, 7806.754
539.0349, 7495.655
539.5170, 7240.945
539.9991, 7034.826
540.4812, 6851.568
540.9633, 6689.608
541.4454, 6548.301
541.9276, 6430.831
542.4097, 6332.385
542.8918, 6244.135
543.3739, 6165.135
543.8560, 6094.592
544.3381, 6039.333
544.8203, 5990.633
545.3024, 5935.067
545.7845, 5844.084
546.2666, 5767.005
546.7487, 5731.910
547.2308, 5734.585
547.7130, 5739.314
548.1951, 5743.313
548.6772, 5743.828
549.1593, 5738.246
549.6414, 5721.849
550.1235, 5713.777
550.6057, 5721.286
551.0878, 5730.434
551.5699, 5723.218
552.0520, 5695.101
552.5341, 5669.050
553.0162, 5646.920
553.4984, 5631.587
553.9805, 5634.751
554.4626, 5656.476
554.9447, 5679.701
555.4268, 5699.502
555.9089, 5712.592
556.3911, 5703.785
556.8732, 5671.073
557.3553, 5646.963
557.8374, 5664.125
558.3195, 5704.320
558.8016, 5744.453
559.2838, 5788.981
559.7659, 5815.865
560.2480, 5798.475
560.7301, 5755.947
561.2122, 5729.446
561.6943, 5738.491
562.1765, 5756.327
562.6586, 5781.432
563.1407, 5815.116
563.6228, 5821.283
564.1049, 5775.625
564.5870, 5731.983
565.0692, 5736.703
565.5513, 5812.043
566.0334, 5827.755
566.5155, 5757.979
566.9976, 5658.704
567.4797, 5617.602
567.9619, 5631.582
568.4440, 5650.204
568.9261, 5660.074
569.4082, 5661.042
569.8903, 5645.606
570.3724, 5617.314
570.8546, 5597.107
571.3367, 5610.164
571.8188, 5631.787
572.3009, 5636.020
572.7830, 5617.510
573.2651, 5597.219
573.7473, 5577.385
574.2294, 5564.012
574.7115, 5563.618
575.1936, 5599.352
575.6757, 5621.793
576.1578, 5618.755
576.6400, 5598.687
577.1221, 5580.997
577.6042, 5557.892
578.0863, 5552.716
578.5684, 5580.464
579.0505, 5638.719
579.5327, 5674.714
580.0148, 5683.580
580.4969, 5691.131
580.9790, 5723.412
581.4611, 5774.544
581.9432, 5814.238
582.4254, 5836.128
582.9075, 5852.809
583.3896, 5876.097
583.8717, 5904.788
584.3538, 5935.951
584.8359, 5965.370
585.3181, 5999.402
585.8002, 6044.830
586.2823, 6099.034
586.7644, 6152.213
587.2465, 6192.376
587.7286, 6238.082
588.2108, 6300.344
588.6929, 6386.178
589.1750, 6464.884
589.6571, 6529.522
590.1392, 6593.708
590.6213, 6678.082
591.1035, 6799.847
591.5856, 6871.741
592.0677, 6876.256
592.5498, 6837.461
593.0319, 6803.135
593.5140, 6772.247
593.9962, 6720.994
594.4783, 6633.796
594.9604, 6523.348
595.4425, 6398.017
595.9246, 6263.446
596.4067, 6157.131
596.8889, 6132.177
597.3710, 6131.888
597.8531, 6096.605
598.3352, 6008.211
598.8173, 5932.477
599.2994, 5893.061
599.7816, 5879.433
600.2637, 5880.899
600.7458, 5902.121
601.2279, 5931.901
601.7100, 5978.303
602.1921, 6030.315
602.6743, 6057.053
603.1564, 6051.280
603.6385, 6039.375
604.1206, 6028.106
604.6027, 6018.191
605.0848, 6012.682
605.5670, 6011.277
606.0491, 6018.772
606.5312, 6049.988
607.0133, 6091.423
607.4954, 6109.504
607.9775, 6096.888
608.4597, 6080.124
608.9418, 6076.791
609.4239, 6084.878
609.9060, 6101.671
610.3881, 6146.772
610.8702, 6178.216
611.3524, 6168.613
611.8345, 6133.216
612.3166, 6115.772
612.7987, 6129.472
613.2808, 6154.256
613.7629, 6188.550
614.2451, 6232.799
614.7272, 6267.904
615.2093, 6291.918
615.6914, 6311.741
616.1735, 6335.975
616.6556, 6363.576
617.1378, 6365.731
617.6199, 6334.647
618.1020, 6305.377
618.5840, 6332.681
619.0662, 6393.405
619.5483, 6431.021
620.0304, 6415.868
620.5125, 6388.359
620.9946, 6392.016
621.4767, 6408.981
621.9589, 6397.000
622.4410, 6306.110
622.9231, 6214.833
623.4052, 6163.140
623.8873, 6154.129
624.3694, 6119.012
624.8516, 6034.406
625.3337, 5947.882
625.8158, 5886.656
626.2979, 5860.563
626.7800, 5810.788
627.2621, 5729.002
627.7443, 5644.154
628.2264, 5591.286
628.7085, 5567.217
629.1906, 5549.508
629.6727, 5535.706
630.1548, 5520.908
630.6370, 5499.710
631.1191, 5472.367
631.6012, 5440.016
632.0833, 5396.479
632.5654, 5353.452
633.0475, 5319.598
633.5297, 5293.803
634.0118, 5268.299
634.4939, 5247.272
634.9760, 5220.760
635.4581, 5179.585
635.9402, 5115.019
636.4224, 5076.839
636.9045, 5081.250
637.3866, 5089.564
637.8687, 5060.604
638.3508, 4990.434
638.8329, 4944.219
639.3151, 4935.297
639.7972, 4937.852
640.2793, 4908.382
