##NAMES=Uzonite
##RRUFFID=R100020
##IDEAL CHEMISTRY=As_4_S_5_
##LOCALITY=Lazaresti, Harghita County, Romania
##OWNER=RRUFF
##SOURCE=William Pinch
##DESCRIPTION=Yellow prismatic crystals associated with isolated red crystals of realgar
##STATUS=The identification of this mineral has been confirmed by single-crystal X-ray diffraction.
##URL=rruff.info/R100020
89.60352, 0.3029945
90.08563, 0.3817683
90.56775, 0.3959958
91.04987, 0.3002674
91.53198, 0.1816242
92.01410, 0.1656618
92.49622, 0.2472542
92.97833, 0.3360129
93.46045, 0.3481756
93.94257, 0.2999368
94.42468, 0.2451864
94.90680, 0.1909418
95.38892, 0.1448629
95.87103, 0.1342953
96.35315, 0.1639495
96.83527, 0.2107468
97.31738, 0.2522438
97.79950, 0.2888564
98.28162, 0.3087036
98.76373, 0.2998582
99.24585, 0.2612581
99.72797, 0.2292397
100.2101, 0.2016061
100.6922, 0.1837246
101.1743, 0.1970450
101.6564, 0.2583343
102.1385, 0.3055831
102.6207, 0.2844379
103.1028, 0.1473064
103.5849, 9.7582743E-02
104.0670, 0.1913656
104.5491, 0.4023412
105.0313, 0.5269054
105.5134, 0.5321052
105.9955, 0.4863671
106.4776, 0.4398761
106.9597, 0.3877455
107.4418, 0.3422889
107.9240, 0.3043113
108.4061, 0.2731453
108.8882, 0.2546311
109.3703, 0.2442892
109.8524, 0.2483795
110.3345, 0.2735514
110.8167, 0.3826233
111.2988, 0.4554035
111.7809, 0.4475541
112.2630, 0.3172890
112.7451, 0.2239953
113.2272, 0.2125459
113.7094, 0.2485039
114.1915, 0.2748800
114.6736, 0.2735914
115.1557, 0.2630181
115.6378, 0.2534992
116.1199, 0.2556216
116.6021, 0.2431320
117.0842, 0.1674502
117.5663, 6.1282709E-02
118.0484, 2.2856761E-02
118.5305, 0.1611447
119.0126, 0.3527735
119.4948, 0.4961601
119.9769, 0.5408336
120.4590, 0.5524401
120.9411, 0.5566918
121.4232, 0.5563395
121.9053, 0.5723918
122.3875, 0.6477714
122.8696, 0.7421337
123.3517, 0.7994597
123.8338, 0.7401248
124.3159, 0.6632025
124.7980, 0.6944097
125.2802, 0.8377839
125.7623, 0.9856281
126.2444, 1.030524
126.7265, 1.001583
127.2086, 0.9764017
127.6907, 0.9845144
128.1729, 1.021876
128.6550, 1.068792
129.1371, 1.115316
129.6192, 1.208593
130.1013, 1.453619
130.5834, 1.829193
131.0656, 2.182603
131.5477, 2.402335
132.0298, 2.516573
132.5119, 2.675092
132.9940, 2.910413
133.4761, 3.168584
133.9583, 3.334285
134.4404, 3.398479
134.9225, 3.471576
135.4046, 3.639759
135.8867, 3.905539
136.3688, 4.170307
136.8510, 4.438954
137.3331, 4.689238
137.8152, 4.831637
138.2973, 4.829492
138.7794, 4.821572
139.2615, 4.941460
139.7437, 5.225562
140.2258, 5.473914
140.7079, 5.627966
141.1900, 5.694176
141.6721, 5.842085
142.1542, 6.083612
142.6364, 6.389400
143.1185, 6.753084
143.6006, 7.256442
144.0827, 7.643942
144.5648, 7.814581
145.0469, 7.713212
145.5291, 7.728350
146.0112, 7.930467
146.4933, 8.209336
146.9754, 8.406736
147.4575, 8.408593
147.9396, 8.464933
148.4218, 8.673045
148.9039, 9.156983
149.3860, 9.486862
149.8681, 9.557234
150.3502, 9.479399
150.8323, 9.475154
151.3145, 9.589998
151.7966, 9.739556
152.2787, 9.898809
152.7608, 10.06670
153.2429, 10.24323
153.7250, 10.52556
154.2072, 10.82999
154.6893, 10.92189
155.1714, 10.47280
155.6535, 9.934134
156.1356, 9.595429
156.6177, 9.657213
157.0999, 9.715021
157.5820, 9.660081
158.0641, 9.529827
158.5462, 9.480882
159.0283, 9.620413
159.5104, 9.812525
159.9926, 9.968623
160.4747, 9.857768
160.9568, 9.911529
161.4389, 10.37472
161.9210, 11.18343
162.4031, 11.90760
162.8853, 12.33018
163.3674, 12.60766
163.8495, 12.88322
164.3316, 13.18363
164.8137, 13.50866
165.2958, 13.88083
165.7780, 14.29978
166.2601, 14.68090
166.7422, 14.94763
167.2243, 15.16353
167.7064, 15.40556
168.1885, 15.82491
168.6707, 16.20124
169.1528, 16.34030
169.6349, 16.22292
170.1170, 16.07858
170.5991, 16.10433
171.0812, 16.20758
171.5634, 16.22749
172.0455, 15.98542
172.5276, 15.68234
173.0097, 15.50853
173.4918, 15.47952
173.9739, 15.55875
174.4561, 15.78967
174.9382, 16.11169
175.4203, 16.37995
175.9024, 16.45395
176.3845, 16.45029
176.8666, 16.53767
177.3488, 16.74954
177.8309, 16.99100
178.3130, 17.14627
178.7951, 17.23970
179.2772, 17.35501
179.7593, 17.48729
180.2415, 17.68134
180.7236, 18.06872
181.2057, 18.72641
181.6878, 19.42888
182.1699, 19.86382
182.6520, 20.05515
183.1342, 20.21494
183.6163, 20.44001
184.0984, 20.73507
184.5805, 21.13416
185.0626, 21.69816
185.5447, 22.28024
186.0269, 22.63004
186.5090, 22.75177
186.9911, 22.79084
187.4732, 22.83153
187.9553, 22.87273
188.4374, 22.92245
188.9196, 23.01796
189.4017, 23.08425
189.8838, 22.89007
190.3659, 22.41810
190.8480, 21.98045
191.3301, 21.91705
191.8123, 22.17498
192.2944, 22.20755
192.7765, 21.85407
193.2586, 21.24231
193.7407, 20.74494
194.2228, 20.36891
194.7050, 20.05400
195.1871, 19.75515
195.6692, 19.47236
196.1513, 19.20823
196.6334, 18.94711
197.1155, 18.70929
197.5977, 18.59893
198.0798, 18.64490
198.5619, 18.70506
199.0440, 18.63592
199.5261, 18.42920
200.0082, 18.21778
200.4904, 18.00843
200.9725, 17.81471
201.4546, 17.72836
201.9367, 17.76527
202.4188, 17.86370
202.9009, 17.98545
203.3831, 18.14393
203.8652, 18.23381
204.3473, 18.20362
204.8294, 18.06868
205.3115, 18.00832
205.7936, 18.03880
206.2758, 18.10898
206.7579, 18.14277
207.2400, 18.10766
207.7221, 18.17602
208.2042, 18.38479
208.6863, 18.73534
209.1685, 19.21231
209.6506, 19.80756
210.1327, 20.54523
210.6148, 21.53658
211.0969, 22.91064
211.5790, 24.05766
212.0612, 24.73209
212.5433, 24.91378
213.0254, 25.37693
213.5075, 26.21267
213.9896, 27.20926
214.4717, 28.13829
214.9538, 29.06018
215.4360, 29.76624
215.9181, 30.15900
216.4002, 30.21111
216.8823, 30.29312
217.3644, 30.31012
217.8465, 30.46363
218.3287, 31.08948
218.8108, 32.48611
219.2929, 33.67456
219.7750, 34.36246
220.2571, 34.48663
220.7392, 34.71211
221.2214, 35.13574
221.7035, 35.56599
222.1856, 35.70609
222.6677, 35.31387
223.1498, 35.14088
223.6319, 35.40553
224.1141, 36.14569
224.5962, 37.03649
225.0783, 38.12542
225.5604, 39.31111
226.0425, 40.49386
226.5246, 41.71310
227.0068, 42.84179
227.4889, 43.85797
227.9710, 44.80629
228.4531, 45.46582
228.9352, 45.92396
229.4173, 46.02361
229.8995, 45.52637
230.3816, 44.25470
230.8637, 42.68274
231.3458, 40.90531
231.8279, 38.85685
232.3100, 36.85191
232.7922, 34.82964
233.2743, 32.90731
233.7564, 31.23809
234.2385, 29.98873
234.7206, 28.71610
235.2027, 27.27061
235.6849, 25.59942
236.1670, 24.10195
236.6491, 22.81568
237.1312, 21.67214
237.6133, 20.59364
238.0954, 19.57852
238.5776, 18.60991
239.0597, 17.67229
239.5418, 16.76643
240.0239, 15.94492
240.5060, 15.22340
240.9881, 14.57291
241.4703, 13.95232
241.9524, 13.33110
242.4345, 12.79561
242.9166, 12.36981
243.3987, 12.05441
243.8808, 11.84329
244.3630, 11.77845
244.8451, 11.77922
245.3272, 11.74750
245.8093, 11.65156
246.2914, 11.58451
246.7735, 11.59888
247.2557, 11.71671
247.7378, 11.66321
248.2199, 11.30316
248.7020, 10.90259
249.1841, 10.78180
249.6662, 11.12209
250.1484, 11.38575
250.6305, 11.43111
251.1126, 11.24290
251.5947, 11.11085
252.0768, 11.05416
252.5589, 11.03428
253.0411, 11.01262
253.5232, 10.98561
254.0053, 10.96537
254.4874, 10.95874
254.9695, 10.96618
255.4516, 10.95346
255.9338, 10.90224
256.4159, 10.85386
256.8980, 10.85852
257.3801, 10.95506
257.8622, 11.00993
258.3444, 10.98655
258.8265, 10.88883
259.3086, 10.80796
259.7907, 10.73314
260.2728, 10.69309
260.7549, 10.72632
261.2371, 10.86949
261.7192, 10.98450
262.2013, 11.04626
262.6834, 11.05821
263.1655, 11.04766
263.6476, 11.00625
264.1298, 10.95591
264.6119, 10.89265
265.0940, 10.77965
265.5761, 10.78696
266.0582, 10.97899
266.5403, 11.31520
267.0225, 11.57430
267.5046, 11.74929
267.9867, 11.85724
268.4688, 11.87031
268.9509, 11.73199
269.4330, 11.76125
269.9152, 12.06910
270.3973, 12.55653
270.8794, 12.79751
271.3615, 12.73321
271.8436, 12.58581
272.3257, 12.51340
272.8079, 12.53767
273.2900, 12.48575
273.7721, 12.31612
274.2542, 12.07551
274.7363, 11.90423
275.2184, 11.81850
275.7006, 11.74047
276.1827, 11.62178
276.6648, 11.45803
277.1469, 11.29824
277.6290, 11.13352
278.1111, 10.98844
278.5933, 10.91761
279.0754, 10.92343
279.5575, 10.98530
280.0396, 11.14310
280.5217, 11.39679
281.0038, 11.48436
281.4860, 11.35300
281.9681, 11.12537
282.4502, 11.02259
282.9323, 11.05200
283.4144, 11.09793
283.8965, 11.08568
284.3787, 11.02538
284.8608, 11.05192
285.3429, 11.18600
285.8250, 11.35540
286.3071, 11.44239
286.7892, 11.44922
287.2714, 11.47868
287.7535, 11.59628
288.2356, 11.78287
288.7177, 11.91384
289.1998, 11.98212
289.6819, 12.04089
290.1641, 12.16607
290.6462, 12.34827
291.1283, 12.51180
291.6104, 12.61685
292.0925, 12.68326
292.5746, 12.75903
293.0568, 12.84376
293.5389, 12.94575
294.0210, 13.07507
294.5031, 13.22888
294.9852, 13.39279
295.4673, 13.54294
295.9495, 13.71073
296.4316, 13.99207
296.9137, 14.38132
297.3958, 14.73682
297.8779, 14.89859
298.3600, 14.93102
298.8422, 14.99347
299.3243, 15.11379
299.8064, 15.30056
300.2885, 15.60395
300.7706, 16.00618
301.2527, 16.39702
301.7349, 16.64591
302.2170, 16.83729
302.6991, 17.12557
303.1812, 17.59658
303.6633, 18.07902
304.1454, 18.41402
304.6276, 18.61145
305.1097, 18.71109
305.5918, 18.63774
306.0739, 18.51691
306.5560, 18.52731
307.0381, 18.74731
307.5203, 18.94482
308.0024, 18.85425
308.4845, 18.58824
308.9666, 18.41081
309.4487, 18.49170
309.9308, 18.69731
310.4130, 18.93498
310.8951, 19.20303
311.3772, 19.44638
311.8593, 19.60256
312.3414, 19.71237
312.8235, 19.84261
313.3057, 20.00105
313.7878, 20.20426
314.2699, 20.52052
314.7520, 20.96193
315.2341, 21.27652
315.7162, 21.10147
316.1984, 20.81564
316.6805, 20.84388
317.1626, 21.71313
317.6447, 22.55633
318.1268, 22.91317
318.6089, 22.82088
319.0911, 22.94159
319.5732, 23.71286
320.0553, 24.67209
320.5374, 25.45437
321.0195, 25.72806
321.5016, 26.09695
321.9838, 26.77382
322.4659, 27.68884
322.9480, 28.49939
323.4301, 29.14768
323.9122, 29.67156
324.3943, 30.07458
324.8765, 30.20312
325.3586, 30.43974
325.8407, 30.93390
326.3228, 31.56592
326.8049, 32.03331
327.2870, 32.24237
327.7692, 32.34345
328.2513, 32.36965
328.7334, 32.25707
329.2155, 32.21352
329.6976, 32.20830
330.1797, 32.28311
330.6619, 32.50599
331.1440, 32.96343
331.6261, 33.45608
332.1082, 33.94886
332.5903, 34.43860
333.0724, 34.88720
333.5546, 35.27285
334.0367, 35.63913
334.5188, 36.02205
335.0009, 36.41018
335.4830, 36.85248
335.9651, 37.38490
336.4473, 37.99735
336.9294, 38.49454
337.4115, 38.84009
337.8936, 39.14112
338.3757, 39.53239
338.8578, 40.09211
339.3399, 40.33997
339.8221, 40.13493
340.3042, 39.61571
340.7863, 39.23140
341.2684, 38.99790
341.7505, 38.79412
342.2326, 38.63397
342.7148, 38.51631
343.1969, 37.99639
343.6790, 36.94440
344.1611, 35.68270
344.6432, 34.82211
345.1253, 34.35726
345.6075, 33.89215
346.0896, 33.22614
346.5717, 32.39458
347.0538, 31.55990
347.5359, 30.70800
348.0180, 29.89837
348.5002, 29.27832
348.9823, 28.78336
349.4644, 28.13703
349.9465, 27.10876
350.4286, 25.94112
350.9107, 25.05185
351.3929, 24.43963
351.8750, 23.91575
352.3571, 23.28642
352.8392, 22.64342
353.3213, 22.16251
353.8034, 21.93651
354.2856, 21.82319
354.7677, 21.69032
355.2498, 21.54856
355.7319, 21.43807
356.2140, 21.35254
356.6961, 21.32497
357.1783, 21.39689
357.6604, 21.59444
358.1425, 21.83271
358.6246, 22.11372
359.1067, 22.39579
359.5888, 22.60123
360.0710, 22.69363
360.5531, 22.70052
361.0352, 22.62657
361.5173, 22.46672
361.9994, 22.27501
362.4815, 22.08652
362.9637, 21.87142
363.4458, 21.59777
363.9279, 21.17452
364.4100, 20.77128
364.8921, 20.45831
365.3742, 20.22717
365.8564, 19.98988
366.3385, 19.74335
366.8206, 19.47923
367.3027, 19.19252
367.7848, 18.78756
368.2669, 18.47293
368.7491, 18.27544
369.2312, 18.17835
369.7133, 18.14737
370.1954, 18.25737
370.6775, 18.35331
371.1596, 18.38077
371.6418, 18.33592
372.1239, 18.22820
372.6060, 18.00980
373.0881, 17.76430
373.5702, 17.61444
374.0523, 17.59339
374.5345, 17.59409
375.0166, 17.60220
375.4987, 17.61647
375.9808, 17.57130
376.4629, 17.45735
376.9450, 17.30134
377.4272, 17.10226
377.9093, 16.84788
378.3914, 16.65776
378.8735, 16.55757
379.3556, 16.52882
379.8377, 16.55892
380.3199, 16.65916
380.8020, 16.67338
381.2841, 16.41174
381.7662, 15.94249
382.2483, 15.67222
382.7304, 15.66799
383.2126, 15.75742
383.6947, 15.73457
384.1768, 15.60495
384.6589, 15.40183
385.1410, 15.03712
385.6231, 14.64074
386.1053, 14.47643
386.5874, 14.55431
387.0695, 14.62004
387.5516, 14.42322
388.0337, 14.07198
388.5158, 13.75869
388.9980, 13.58911
389.4801, 13.42667
389.9622, 13.12602
390.4443, 12.72499
390.9264, 12.37369
391.4085, 12.18944
391.8907, 12.07348
392.3728, 11.94549
392.8549, 11.78445
393.3370, 11.63228
393.8191, 11.48497
394.3012, 11.36256
394.7834, 11.29889
395.2655, 11.38822
395.7476, 11.46292
396.2297, 11.43972
396.7118, 11.29720
397.1939, 11.19534
397.6761, 11.16626
398.1582, 11.18426
398.6403, 11.22784
399.1224, 11.35445
399.6045, 11.43738
400.0866, 11.44115
400.5688, 11.38272
401.0509, 11.36393
401.5330, 11.41288
402.0151, 11.46725
402.4972, 11.50768
402.9793, 11.56734
403.4615, 11.50958
403.9436, 11.25895
404.4257, 10.95721
404.9078, 10.88754
405.3899, 11.12553
405.8720, 11.30161
406.3542, 11.25921
406.8363, 11.02150
407.3184, 10.91436
407.8005, 10.95548
408.2826, 11.04924
408.7647, 11.12608
409.2469, 11.18294
409.7290, 11.17720
410.2111, 11.07435
410.6932, 10.93945
411.1753, 10.90775
411.6574, 10.97139
412.1396, 11.05049
412.6217, 11.11139
413.1038, 11.14880
413.5859, 11.15042
414.0680, 11.11319
414.5501, 11.05211
415.0323, 10.94691
415.5144, 10.83024
415.9965, 10.76348
416.4786, 10.79560
416.9607, 10.87192
417.4428, 10.96356
417.9250, 11.06698
418.4071, 11.16321
418.8892, 11.25896
419.3713, 11.33304
419.8534, 11.36634
420.3355, 11.35114
420.8177, 11.30150
421.2998, 11.17035
421.7819, 11.00978
422.2640, 10.92956
422.7461, 11.02520
423.2282, 11.14324
423.7104, 11.23987
424.1925, 11.31794
424.6746, 11.34880
425.1567, 11.32528
425.6388, 11.25953
426.1209, 11.14685
426.6031, 10.84782
427.0852, 10.74173
427.5673, 10.97523
428.0494, 11.45988
428.5315, 11.68127
429.0136, 11.54074
429.4958, 11.34011
429.9779, 11.24874
430.4600, 11.28764
430.9421, 11.28886
431.4242, 11.24316
431.9063, 11.16864
432.3885, 11.07306
432.8706, 10.95638
433.3527, 10.89398
433.8348, 10.92819
434.3169, 11.03190
434.7990, 11.15291
435.2812, 11.29169
435.7633, 11.36705
436.2454, 11.24253
436.7275, 11.00528
437.2096, 10.85753
437.6917, 10.84891
438.1739, 10.91409
438.6560, 11.03250
439.1381, 11.17469
439.6202, 11.26266
440.1023, 11.20877
440.5844, 11.11565
441.0666, 11.07448
441.5487, 11.09396
442.0308, 11.09719
442.5129, 11.01346
442.9950, 10.90939
443.4771, 10.84865
443.9593, 10.83724
444.4414, 10.88321
444.9235, 11.04062
445.4056, 11.26750
445.8877, 11.42032
446.3698, 11.47824
446.8520, 11.45758
447.3341, 11.32770
447.8162, 10.99335
448.2983, 10.85572
448.7804, 11.07055
449.2625, 11.37385
449.7447, 11.44584
450.2268, 11.17358
450.7089, 10.93157
451.1910, 10.79378
451.6731, 10.74356
452.1552, 10.69803
452.6374, 10.65434
453.1195, 10.62903
453.6016, 10.64038
454.0837, 10.68711
454.5658, 10.71969
455.0479, 10.72633
455.5301, 10.74473
456.0122, 10.84752
456.4943, 11.02075
456.9764, 11.17069
457.4585, 11.25526
457.9406, 11.30165
458.4228, 11.37271
458.9049, 11.46109
459.3870, 11.50053
459.8691, 11.39811
460.3512, 11.23542
460.8333, 11.10934
461.3155, 11.03380
461.7976, 11.00668
462.2797, 11.07485
462.7618, 11.18421
463.2439, 11.23916
463.7260, 11.13716
464.2082, 11.03296
464.6903, 11.00077
465.1724, 11.04305
465.6545, 11.08831
466.1366, 11.11682
466.6187, 11.14698
467.1009, 11.19095
467.5830, 11.30162
468.0651, 11.35391
468.5472, 11.29964
469.0293, 11.20081
469.5114, 11.19539
469.9936, 11.35569
470.4757, 11.46870
470.9578, 11.45530
471.4399, 11.31686
471.9220, 11.19387
472.4041, 11.08236
472.8863, 11.00161
473.3684, 10.98081
473.8505, 11.01848
474.3326, 11.05895
474.8147, 11.09853
475.2968, 11.12851
475.7790, 11.09966
476.2611, 11.02915
476.7432, 11.03023
477.2253, 11.24998
477.7074, 11.54345
478.1895, 11.67366
478.6717, 11.63678
479.1538, 11.54067
479.6359, 11.41462
480.1180, 11.29566
480.6001, 11.23210
481.0822, 11.25775
481.5644, 11.30417
482.0465, 11.35476
482.5286, 11.40001
483.0107, 11.41916
483.4928, 11.35076
483.9749, 11.30384
484.4571, 11.33055
484.9392, 11.44289
485.4213, 11.55443
485.9034, 11.72338
486.3855, 11.84445
486.8676, 11.83678
487.3498, 11.58204
487.8319, 11.41153
488.3140, 11.36259
488.7961, 11.40067
489.2782, 11.45361
489.7603, 11.52827
490.2425, 11.59337
490.7246, 11.63997
491.2067, 11.66756
491.6888, 11.66087
492.1709, 11.61616
492.6530, 11.55976
493.1352, 11.52603
493.6173, 11.50420
494.0994, 11.43357
494.5815, 11.27674
495.0636, 11.13261
495.5457, 11.17774
496.0279, 11.35194
496.5100, 11.47568
496.9921, 11.41452
497.4742, 11.29415
497.9563, 11.21891
498.4384, 11.19095
498.9206, 11.18564
499.4027, 11.19324
499.8848, 11.21579
500.3669, 11.26253
500.8490, 11.39556
501.3311, 11.45120
501.8133, 11.31779
502.2954, 11.09402
502.7775, 10.96637
503.2596, 11.02678
503.7417, 11.09417
504.2238, 11.10734
504.7060, 11.06863
505.1881, 11.16426
505.6702, 11.49834
506.1523, 11.79411
506.6344, 11.83742
507.1165, 11.58781
507.5987, 11.37183
508.0808, 11.20255
508.5629, 11.09123
509.0450, 11.08934
509.5271, 11.18708
510.0092, 11.24965
510.4914, 11.20159
510.9735, 11.10578
511.4556, 11.08879
511.9377, 11.14523
512.4199, 11.22751
512.9020, 11.35315
513.3841, 11.46413
513.8662, 11.45976
514.3483, 11.29391
514.8304, 11.17481
515.3126, 11.30368
515.7947, 11.53186
516.2768, 11.67180
516.7589, 11.63251
517.2410, 11.53244
517.7231, 11.34910
518.2053, 11.11489
518.6874, 10.98309
519.1695, 11.03902
519.6516, 11.14211
520.1337, 11.27133
520.6158, 11.46797
521.0980, 11.48246
521.5801, 11.18127
522.0622, 10.86990
522.5443, 10.89471
523.0264, 11.32540
523.5085, 11.68637
523.9907, 11.92048
524.4728, 12.01935
524.9549, 11.87645
525.4370, 11.50521
525.9191, 11.24678
526.4012, 11.42210
526.8834, 11.79809
527.3655, 11.79764
527.8476, 11.42701
528.3297, 11.08810
528.8118, 11.15859
529.2939, 11.42208
529.7761, 11.60974
530.2582, 11.63306
530.7403, 11.63616
531.2224, 11.68420
531.7045, 11.76638
532.1866, 11.86460
532.6688, 12.09165
533.1509, 12.21535
533.6330, 12.09848
534.1151, 11.75412
534.5972, 11.53584
535.0793, 11.48506
535.5615, 11.52795
536.0436, 11.65848
536.5257, 11.94747
537.0078, 12.06612
537.4899, 11.97422
537.9720, 11.77694
538.4542, 11.56966
538.9363, 11.34359
539.4184, 11.24364
539.9005, 11.34466
540.3826, 11.54106
540.8647, 11.60585
541.3469, 11.55176
541.8290, 11.47515
542.3111, 11.40953
542.7932, 11.36336
543.2753, 11.36652
543.7574, 11.41851
544.2396, 11.44841
544.7217, 11.35991
545.2038, 11.24740
545.6859, 11.20459
546.1680, 11.25658
546.6501, 11.37326
547.1323, 11.62275
547.6144, 11.91599
548.0965, 12.10267
548.5786, 12.04031
549.0607, 12.00360
549.5428, 12.08208
550.0250, 12.25556
550.5071, 12.30302
550.9892, 12.18225
551.4713, 12.01172
551.9534, 11.83905
552.4355, 11.65978
552.9177, 11.51394
553.3998, 11.38965
553.8819, 11.33811
554.3640, 11.47260
554.8461, 11.75538
555.3282, 11.98181
555.8104, 12.11228
556.2925, 12.14098
556.7746, 11.98805
557.2567, 11.71218
557.7388, 11.49598
558.2209, 11.46457
558.7031, 11.51172
559.1852, 11.57346
559.6673, 11.64531
560.1494, 11.70639
560.6315, 11.77794
561.1136, 11.81527
561.5958, 11.78736
562.0779, 11.67226
562.5600, 11.52105
563.0421, 11.25160
563.5242, 10.99476
564.0063, 10.92857
564.4885, 11.13919
564.9706, 11.33738
565.4527, 11.46087
565.9348, 11.54024
566.4169, 11.71300
566.8990, 11.99684
567.3812, 12.21369
567.8633, 12.22678
568.3454, 12.09464
568.8275, 12.03891
569.3096, 12.06278
569.7917, 12.09687
570.2739, 12.08312
570.7560, 12.04034
571.2381, 11.98735
571.7202, 11.90987
572.2023, 11.87575
572.6844, 11.98397
573.1666, 12.14927
573.6487, 12.24523
574.1308, 12.17093
574.6129, 12.08549
575.0950, 12.06493
575.5771, 12.08690
576.0593, 11.99869
576.5414, 11.64229
577.0235, 11.37201
577.5056, 11.34968
577.9877, 11.60985
578.4698, 11.77658
578.9520, 11.82803
579.4341, 11.83990
579.9162, 11.87495
580.3983, 11.93172
580.8804, 12.00052
581.3625, 12.08949
581.8447, 12.16028
582.3268, 12.14097
582.8089, 12.05831
583.2910, 11.98743
583.7731, 11.96727
584.2552, 11.96515
584.7373, 11.95845
