##NAMES=Vaesite
##RRUFFID=R070763
##IDEAL CHEMISTRY=Ni^2+^(S_2_)^2-^
##LOCALITY=Shaba (Katanga), Congo (Za√Øre)
##OWNER=RRUFF
##SOURCE=Michael Scott
##DESCRIPTION=Metallic black micro-octahedra in massive aggregates associated with pyrite
##STATUS=The identification of this mineral has been confirmed by single-crystal X-ray diffraction.
##URL=rruff.info/R070763
127.3900, 657.1649
127.8721, 669.1073
128.3542, 676.6989
128.8363, 676.9068
129.3185, 673.6071
129.8006, 676.5035
130.2827, 686.8471
130.7648, 695.6010
131.2469, 689.1432
131.7290, 669.5651
132.2112, 652.9663
132.6933, 646.4798
133.1754, 648.3961
133.6575, 646.6458
134.1396, 639.3056
134.6217, 632.6755
135.1039, 638.8483
135.5860, 659.2495
136.0681, 679.3306
136.5502, 680.1763
137.0323, 680.3685
137.5145, 679.9421
137.9966, 677.0454
138.4787, 677.3388
138.9608, 676.3538
139.4429, 675.3163
139.9250, 676.0587
140.4072, 673.5211
140.8893, 674.2354
141.3714, 673.6515
141.8535, 673.6617
142.3356, 672.3856
142.8177, 675.2842
143.2998, 686.4924
143.7820, 699.6313
144.2641, 706.4214
144.7462, 702.6733
145.2283, 699.2699
145.7104, 699.4689
146.1925, 704.8206
146.6747, 709.9875
147.1568, 717.0577
147.6389, 723.8984
148.1210, 724.3182
148.6031, 710.8593
149.0852, 697.5743
149.5674, 690.6594
150.0495, 697.7455
150.5316, 702.1292
151.0137, 699.8030
151.4958, 691.8929
151.9779, 691.5732
152.4601, 713.7876
152.9422, 735.9000
153.4243, 742.1310
153.9064, 709.7617
154.3885, 681.9698
154.8706, 669.1008
155.3528, 673.4048
155.8349, 678.8524
156.3170, 685.6845
156.7991, 691.2857
157.2812, 692.3913
157.7633, 685.7120
158.2455, 676.3586
158.7276, 665.4274
159.2097, 650.3645
159.6918, 639.8886
160.1739, 638.8449
160.6560, 644.5035
161.1382, 650.6526
161.6203, 657.4750
162.1024, 662.6357
162.5845, 664.4479
163.0666, 660.3172
163.5487, 655.2615
164.0309, 650.9948
164.5130, 647.5432
164.9951, 645.2578
165.4772, 646.1836
165.9593, 647.7484
166.4414, 647.1770
166.9236, 641.4128
167.4057, 634.6125
167.8878, 627.7480
168.3699, 620.6540
168.8520, 618.6456
169.3341, 632.0884
169.8163, 652.6379
170.2984, 665.7155
170.7805, 656.2502
171.2626, 639.9446
171.7447, 633.9223
172.2268, 642.6543
172.7090, 652.4641
173.1911, 649.5453
173.6732, 637.3220
174.1553, 626.9931
174.6374, 627.5833
175.1195, 633.5326
175.6017, 635.8917
176.0838, 629.7624
176.5659, 623.8423
177.0480, 632.0727
177.5301, 652.5793
178.0122, 669.9174
178.4944, 668.6141
178.9765, 655.0554
179.4586, 644.0152
179.9407, 642.3753
180.4228, 644.6987
180.9049, 641.2328
181.3871, 631.7924
181.8692, 620.9001
182.3513, 610.5482
182.8334, 601.7886
183.3155, 598.5035
183.7976, 607.5518
184.2797, 623.6110
184.7619, 630.1146
185.2440, 625.5176
185.7261, 617.0189
186.2082, 613.8102
186.6903, 615.5483
187.1724, 618.1788
187.6546, 619.8380
188.1367, 620.6393
188.6188, 620.9824
189.1009, 620.5422
189.5830, 620.2058
190.0651, 621.4086
190.5473, 624.1165
191.0294, 628.4057
191.5115, 636.8733
191.9936, 648.7228
192.4757, 653.9334
192.9578, 649.5701
193.4400, 638.2055
193.9221, 625.7769
194.4042, 611.4333
194.8863, 600.2115
195.3684, 598.2191
195.8505, 605.6622
196.3327, 613.1090
196.8148, 618.9106
197.2969, 622.9277
197.7790, 622.8225
198.2611, 617.1273
198.7432, 611.5583
199.2254, 614.5802
199.7075, 627.6074
200.1896, 638.5233
200.6717, 641.4481
201.1538, 636.1686
201.6359, 637.9792
202.1181, 650.5972
202.6002, 664.5726
203.0823, 660.7181
203.5644, 633.9600
204.0465, 610.6004
204.5286, 605.0402
205.0108, 620.5673
205.4929, 630.3196
205.9750, 633.0147
206.4571, 629.8064
206.9392, 620.6460
207.4213, 600.8505
207.9035, 587.8926
208.3856, 596.8912
208.8677, 636.7103
209.3498, 660.1087
209.8319, 658.0251
210.3140, 637.2739
210.7962, 629.4564
211.2783, 640.3686
211.7604, 652.8519
212.2425, 652.0225
212.7246, 631.9939
213.2067, 618.2613
213.6889, 616.4631
214.1710, 625.6200
214.6531, 630.6045
215.1352, 629.5072
215.6173, 627.1251
216.0994, 629.1717
216.5816, 639.0746
217.0637, 644.4724
217.5458, 640.4730
218.0279, 626.1224
218.5100, 619.8220
218.9921, 625.6639
219.4743, 635.4318
219.9564, 637.8960
220.4385, 629.3887
220.9206, 621.0007
221.4027, 616.2637
221.8848, 615.8899
222.3670, 615.1938
222.8491, 613.2917
223.3312, 611.6176
223.8133, 613.3516
224.2954, 621.3444
224.7775, 627.8545
225.2596, 628.9427
225.7418, 620.5672
226.2239, 618.5327
226.7060, 626.4144
227.1881, 639.5994
227.6702, 645.9212
228.1523, 641.9980
228.6345, 636.1848
229.1166, 632.4166
229.5987, 631.5500
230.0808, 630.7228
230.5629, 629.0369
231.0450, 627.2534
231.5272, 628.5403
232.0093, 633.1643
232.4914, 640.4678
232.9735, 651.9273
233.4556, 675.5497
233.9377, 685.6349
234.4199, 673.5297
234.9020, 642.7560
235.3841, 627.1164
235.8662, 633.9853
236.3483, 647.6165
236.8304, 656.3270
237.3126, 657.5496
237.7947, 658.9155
238.2768, 662.3091
238.7589, 667.6491
239.2410, 669.0691
239.7231, 665.5040
240.2053, 659.0799
240.6874, 651.3654
241.1695, 640.3945
241.6516, 631.3730
242.1337, 624.6680
242.6158, 620.0847
243.0980, 620.5783
243.5801, 628.6171
244.0622, 639.6653
244.5443, 648.6733
245.0264, 655.5366
245.5085, 660.5921
245.9907, 664.2700
246.4728, 666.9576
246.9549, 665.4136
247.4370, 656.0090
247.9191, 645.0118
248.4012, 642.5856
248.8834, 655.5990
249.3655, 665.2590
249.8476, 664.7008
250.3297, 650.0727
250.8118, 640.7204
251.2939, 639.1080
251.7761, 641.3755
252.2582, 640.2421
252.7403, 632.7884
253.2224, 626.9052
253.7045, 625.9745
254.1866, 632.1772
254.6688, 636.2499
255.1509, 636.7400
255.6330, 635.7682
256.1151, 638.4393
256.5972, 647.2993
257.0793, 655.4045
257.5615, 659.0769
258.0436, 655.5460
258.5257, 655.8224
259.0078, 661.8895
259.4899, 671.1719
259.9720, 676.8292
260.4542, 678.2275
260.9363, 677.1849
261.4184, 674.2114
261.9005, 668.6322
262.3826, 663.5226
262.8647, 659.4356
263.3469, 655.8277
263.8290, 650.4543
264.3111, 641.5938
264.7932, 634.2858
265.2753, 632.0477
265.7574, 636.4986
266.2396, 640.1036
266.7217, 641.7945
267.2038, 642.2095
267.6859, 643.7767
268.1680, 646.4717
268.6501, 650.3130
269.1323, 655.6903
269.6144, 663.0186
270.0965, 669.6550
270.5786, 675.3583
271.0607, 680.0693
271.5428, 683.9299
272.0250, 687.4088
272.5071, 688.7975
272.9892, 686.5203
273.4713, 680.1276
273.9534, 671.8755
274.4355, 659.7260
274.9177, 646.2380
275.3998, 645.5671
275.8819, 661.8124
276.3640, 678.5811
276.8461, 678.8566
277.3282, 660.0420
277.8104, 650.6639
278.2925, 660.8625
278.7746, 684.0593
279.2567, 686.6079
279.7388, 663.4913
280.2209, 639.1456
280.7031, 639.4870
281.1852, 665.8663
281.6673, 685.1338
282.1494, 689.0068
282.6315, 680.6514
283.1136, 670.8187
283.5958, 658.6641
284.0779, 649.4076
284.5600, 650.5983
285.0421, 661.8241
285.5242, 669.1452
286.0063, 666.0616
286.4884, 657.1590
286.9706, 661.2208
287.4527, 680.0735
287.9348, 698.5658
288.4169, 697.4590
288.8990, 679.4042
289.3811, 668.8823
289.8633, 676.2662
290.3454, 694.9733
290.8275, 706.9604
291.3096, 711.9094
291.7917, 713.9187
292.2738, 717.8190
292.7560, 722.6710
293.2381, 723.4374
293.7202, 715.4851
294.2023, 703.7377
294.6844, 699.4841
295.1665, 702.9706
295.6487, 708.7968
296.1308, 709.8935
296.6129, 708.7456
297.0950, 713.9263
297.5771, 734.1002
298.0592, 759.1990
298.5414, 771.2290
299.0235, 770.1307
299.5056, 766.0990
299.9877, 767.0181
300.4698, 771.7968
300.9519, 778.0795
301.4341, 787.5734
301.9162, 796.5369
302.3983, 798.7897
302.8804, 794.4342
303.3625, 789.9786
303.8446, 789.9409
304.3268, 793.5692
304.8089, 799.5897
305.2910, 810.9903
305.7731, 822.3444
306.2552, 828.2868
306.7373, 828.9907
307.2195, 826.7748
307.7016, 823.0852
308.1837, 817.5708
308.6658, 809.8289
309.1479, 793.9309
309.6300, 779.8737
310.1122, 777.8542
310.5943, 787.0471
311.0764, 793.6191
311.5585, 787.7239
312.0406, 775.2847
312.5227, 762.7984
313.0049, 745.7992
313.4870, 735.0267
313.9691, 743.4367
314.4512, 768.9557
314.9333, 784.4296
315.4154, 767.7830
315.8976, 739.0306
316.3797, 717.0782
316.8618, 708.5492
317.3439, 706.8748
317.8260, 713.8043
318.3081, 728.1747
318.7903, 737.5227
319.2724, 733.5884
319.7545, 725.0889
320.2366, 718.9333
320.7187, 714.6802
321.2008, 714.9999
321.6830, 727.1171
322.1651, 748.7652
322.6472, 756.5169
323.1293, 730.9907
323.6114, 698.8558
324.0935, 678.0986
324.5757, 681.4165
325.0578, 684.8259
325.5399, 683.1606
326.0220, 677.3420
326.5041, 677.3359
326.9862, 690.6541
327.4684, 705.2935
327.9505, 714.4339
328.4326, 713.8301
328.9147, 712.8909
329.3968, 710.5050
329.8789, 707.5158
330.3611, 709.5588
330.8432, 722.7979
331.3253, 734.9607
331.8074, 738.5995
332.2895, 726.6312
332.7716, 718.9589
333.2538, 717.6121
333.7359, 721.4341
334.2180, 725.6977
334.7001, 730.6302
335.1822, 735.7392
335.6643, 739.8082
336.1465, 740.6028
336.6286, 748.4588
337.1107, 767.6023
337.5928, 792.5139
338.0749, 805.2561
338.5570, 802.0015
339.0392, 797.9767
339.5213, 804.4178
340.0034, 823.9182
340.4855, 829.9595
340.9676, 817.1433
341.4497, 795.1556
341.9319, 784.4079
342.4140, 785.7850
342.8961, 790.2072
343.3782, 795.3818
343.8603, 800.8425
344.3424, 798.4934
344.8246, 786.2211
345.3067, 770.2271
345.7888, 759.4418
346.2709, 753.8422
346.7530, 750.4722
347.2351, 747.4396
347.7173, 745.4119
348.1994, 748.1533
348.6815, 757.0936
349.1636, 764.8910
349.6457, 758.6760
350.1278, 742.3809
350.6100, 731.2953
351.0921, 737.2720
351.5742, 751.4643
352.0563, 759.7053
352.5384, 760.9822
353.0205, 760.9619
353.5027, 765.4462
353.9848, 772.3911
354.4669, 777.6473
354.9490, 780.0599
355.4311, 779.6552
355.9132, 775.1824
356.3954, 766.6380
356.8775, 758.7875
357.3596, 755.2592
357.8417, 754.1041
358.3238, 752.6771
358.8059, 748.8702
359.2881, 745.5037
359.7702, 743.4844
360.2523, 742.9200
360.7344, 745.0624
361.2165, 756.7168
361.6986, 768.2995
362.1808, 771.6461
362.6629, 752.7488
363.1450, 737.3081
363.6271, 735.3757
364.1092, 744.9744
364.5913, 751.9264
365.0735, 748.7429
365.5556, 744.5975
366.0377, 745.1304
366.5198, 753.2394
367.0019, 763.4227
367.4840, 778.9474
367.9662, 797.3931
368.4482, 807.9657
368.9304, 806.7534
369.4125, 800.9096
369.8946, 792.9188
370.3767, 776.9610
370.8588, 768.9796
371.3409, 772.6029
371.8231, 783.3475
372.3052, 789.9271
372.7873, 789.5045
373.2694, 789.4980
373.7515, 793.5812
374.2336, 803.6503
374.7158, 809.8239
375.1979, 811.5291
375.6800, 809.9208
376.1621, 806.7866
376.6442, 802.0862
377.1263, 795.8057
377.6085, 785.2459
378.0906, 770.9755
378.5727, 768.8051
379.0548, 781.4655
379.5369, 798.1376
380.0190, 803.3728
380.5012, 797.7349
380.9833, 796.3449
381.4654, 808.4305
381.9475, 827.6285
382.4296, 832.8458
382.9117, 823.2351
383.3939, 812.1083
383.8760, 813.2227
384.3581, 823.3178
384.8402, 832.4307
385.3223, 837.2731
385.8044, 839.9092
386.2866, 844.5074
386.7687, 850.3516
387.2508, 851.9836
387.7329, 840.0901
388.2150, 823.3037
388.6971, 814.6551
389.1793, 825.0361
389.6614, 831.7872
390.1435, 810.4244
390.6256, 769.7689
391.1077, 737.9850
391.5898, 733.4344
392.0720, 740.5054
392.5541, 748.8961
393.0362, 758.2316
393.5183, 765.2243
394.0004, 772.1431
394.4825, 775.5933
394.9647, 769.3575
395.4468, 738.3200
395.9289, 708.5873
396.4110, 691.2899
396.8931, 690.0926
397.3752, 691.3129
397.8574, 694.7488
398.3395, 699.1490
398.8216, 702.9809
399.3037, 704.3649
399.7858, 707.2962
400.2679, 714.0181
400.7501, 725.1514
401.2322, 730.5734
401.7143, 727.0178
402.1964, 720.9678
402.6785, 718.3219
403.1606, 721.4340
403.6428, 722.2512
404.1249, 719.4899
404.6070, 713.4963
405.0891, 704.4862
405.5712, 690.1192
406.0533, 679.7384
406.5355, 683.0316
407.0176, 701.1573
407.4997, 711.4239
407.9818, 709.2944
408.4639, 701.2507
408.9460, 701.7349
409.4282, 710.7576
409.9103, 719.2573
410.3924, 721.6458
410.8745, 719.3636
411.3566, 716.3159
411.8387, 712.1013
412.3209, 710.0946
412.8030, 719.1114
413.2851, 734.5013
413.7672, 742.5319
414.2493, 729.6714
414.7314, 709.5859
415.2136, 696.4951
415.6957, 690.9058
416.1778, 692.7532
416.6599, 713.1108
417.1420, 737.9580
417.6241, 748.4242
418.1063, 723.1362
418.5884, 695.5525
419.0705, 681.9783
419.5526, 681.2526
420.0347, 684.5006
420.5168, 692.7755
420.9990, 701.1725
421.4811, 705.9470
421.9632, 701.5704
422.4453, 700.4211
422.9274, 710.7987
423.4095, 726.6509
423.8917, 730.7395
424.3738, 703.6288
424.8559, 680.7150
425.3380, 675.1168
425.8201, 693.7380
426.3022, 711.7958
426.7844, 734.6999
427.2665, 753.7434
427.7486, 752.5714
428.2307, 717.5994
428.7128, 693.3793
429.1949, 697.4628
429.6771, 728.8757
430.1592, 739.6556
430.6413, 724.8427
431.1234, 702.0293
431.6055, 686.5792
432.0876, 678.4916
432.5698, 678.8244
433.0519, 691.3645
433.5340, 709.5741
434.0161, 716.5143
434.4982, 712.4093
434.9803, 706.6002
435.4625, 704.1594
435.9446, 705.1953
436.4267, 711.6365
436.9088, 726.0757
437.3909, 739.1436
437.8730, 739.0240
438.3552, 728.8550
438.8373, 717.4084
439.3194, 705.0450
439.8015, 695.9504
440.2836, 695.9932
440.7657, 706.5609
441.2479, 716.0715
441.7300, 716.5472
442.2121, 712.8194
442.6942, 710.6641
443.1763, 713.9528
443.6584, 717.0753
444.1406, 717.8123
444.6227, 716.2927
445.1048, 714.9741
445.5869, 711.1970
446.0690, 709.8687
446.5511, 713.9479
447.0333, 737.3332
447.5154, 748.2392
447.9975, 739.4701
448.4796, 718.6464
448.9617, 706.3678
449.4438, 706.0546
449.9260, 709.0453
450.4081, 712.5222
450.8902, 716.6030
451.3723, 720.7501
451.8544, 725.9316
452.3365, 729.6608
452.8186, 727.1334
453.3008, 717.6021
453.7829, 710.5439
454.2650, 708.9756
454.7471, 711.9138
455.2292, 716.9161
455.7113, 724.1722
456.1935, 730.4091
456.6756, 732.6763
457.1577, 731.7535
457.6398, 729.8257
458.1219, 727.1730
458.6040, 724.0181
459.0862, 721.3337
459.5683, 718.5906
460.0504, 713.9266
460.5325, 699.4080
461.0146, 686.5455
461.4967, 688.8239
461.9789, 711.1046
462.4610, 729.5411
462.9431, 727.2607
463.4252, 715.2421
463.9073, 707.6819
464.3894, 710.9279
464.8716, 717.1715
465.3537, 726.1830
465.8358, 737.8130
466.3179, 744.2217
466.8000, 740.1630
467.2821, 733.6672
467.7643, 729.6066
468.2464, 729.2173
468.7285, 729.3828
469.2106, 730.9769
469.6927, 732.7838
470.1748, 731.2926
470.6570, 725.3802
471.1391, 718.8278
471.6212, 712.4394
472.1033, 705.9534
472.5854, 703.3511
473.0675, 705.0214
473.5497, 709.5215
474.0318, 717.2996
474.5139, 727.7638
474.9960, 733.2445
475.4781, 728.3879
475.9602, 719.2167
476.4424, 718.6830
476.9245, 726.2670
477.4066, 735.3106
477.8887, 742.1778
478.3708, 747.0687
478.8529, 750.6780
479.3351, 754.0403
479.8172, 753.8868
480.2993, 743.4760
480.7814, 727.7808
481.2635, 717.2255
481.7456, 720.1901
482.2278, 725.9150
482.7099, 727.9797
483.1920, 725.0712
483.6741, 726.0707
484.1562, 740.0809
484.6383, 755.3715
485.1205, 761.8576
485.6026, 750.4837
486.0847, 739.8263
486.5668, 731.0248
487.0489, 723.9948
487.5310, 717.5989
488.0132, 708.3906
488.4953, 705.5696
488.9774, 717.2469
489.4595, 748.6194
489.9416, 765.4169
490.4237, 764.8983
490.9059, 754.3889
491.3880, 741.9584
491.8701, 727.7411
492.3522, 717.4705
492.8343, 713.7312
493.3164, 715.2333
493.7986, 720.5542
494.2807, 729.5490
494.7628, 737.0387
495.2449, 738.6401
495.7270, 735.8465
496.2091, 730.4642
496.6913, 720.9261
497.1734, 713.0327
497.6555, 713.3073
498.1376, 718.7145
498.6197, 722.1853
499.1018, 719.0463
499.5840, 714.4085
500.0661, 709.5930
500.5482, 704.1439
501.0303, 703.8965
501.5124, 717.6356
501.9945, 733.3861
502.4767, 740.2802
502.9588, 721.8317
503.4409, 714.8431
503.9230, 729.6393
504.4051, 759.0874
504.8872, 772.8707
505.3694, 766.1602
505.8515, 753.1551
506.3336, 738.2421
506.8157, 719.8510
507.2978, 711.6185
507.7799, 715.9676
508.2621, 724.9189
508.7442, 727.4606
509.2263, 724.2213
509.7084, 722.5790
510.1905, 726.1547
510.6726, 731.9794
511.1548, 734.6176
511.6369, 734.1345
512.1190, 731.5138
512.6011, 725.7728
513.0832, 718.9282
513.5653, 713.3749
514.0474, 709.3917
514.5295, 707.1405
515.0117, 708.1541
515.4938, 710.7686
515.9759, 712.1450
516.4580, 707.9495
516.9401, 705.5790
517.4222, 710.1544
517.9044, 722.2756
518.3865, 728.3625
518.8686, 722.7335
519.3507, 713.5857
519.8328, 705.4250
520.3149, 697.2751
520.7971, 692.1877
521.2792, 690.4851
521.7613, 691.8041
522.2434, 696.1534
522.7255, 704.5654
523.2076, 711.6609
523.6898, 714.2986
524.1719, 713.2982
524.6540, 715.9283
525.1361, 722.6475
525.6182, 729.3849
526.1003, 732.3919
526.5825, 732.2286
527.0646, 730.0552
527.5467, 725.1962
528.0288, 720.2210
528.5109, 718.4672
528.9930, 718.9881
529.4752, 718.9252
529.9573, 712.2651
530.4394, 707.7488
530.9215, 714.8144
531.4036, 736.4753
531.8857, 750.3537
532.3679, 741.4797
532.8500, 725.1451
533.3321, 715.4033
533.8142, 719.3188
534.2963, 723.5503
534.7784, 726.9667
535.2606, 729.7993
535.7427, 732.9315
536.2248, 736.9133
536.7069, 740.2803
537.1890, 743.0215
537.6711, 745.3651
538.1533, 742.6063
538.6354, 732.8749
539.1175, 723.4730
539.5996, 724.1610
540.0817, 733.6551
540.5638, 743.1835
541.0460, 752.5092
541.5281, 758.2249
542.0102, 750.0829
542.4923, 731.4744
542.9744, 718.2002
543.4565, 726.7283
543.9387, 741.1213
544.4208, 744.5227
544.9029, 733.6129
545.3850, 723.9796
545.8671, 725.6940
546.3492, 731.5095
546.8314, 733.5347
547.3135, 720.2873
547.7956, 713.8419
548.2777, 724.0060
548.7598, 745.8253
549.2419, 758.0444
549.7241, 757.4717
550.2062, 751.5880
550.6883, 741.7877
551.1704, 726.5097
551.6525, 716.6362
552.1346, 712.0985
552.6168, 712.8958
553.0989, 721.6898
553.5810, 737.9642
554.0631, 750.7376
554.5452, 757.5580
555.0273, 759.3568
555.5095, 755.7603
555.9916, 747.7247
556.4737, 740.4835
556.9558, 740.1241
557.4379, 740.7651
557.9200, 732.8032
558.4022, 713.8927
558.8843, 701.8760
559.3664, 713.1185
559.8485, 733.3430
560.3306, 747.9485
560.8127, 753.1273
561.2949, 752.2239
561.7770, 738.1202
562.2591, 716.9075
562.7412, 712.1095
563.2233, 740.1558
563.7054, 762.8779
564.1876, 764.7536
564.6697, 743.1336
565.1518, 726.3665
565.6339, 713.9642
566.1160, 707.8877
566.5981, 714.7152
567.0803, 733.4288
567.5624, 742.3407
568.0445, 734.5052
568.5266, 720.1509
569.0087, 716.3475
569.4908, 721.0068
569.9730, 725.4156
570.4551, 721.0615
570.9372, 716.5273
571.4193, 722.3392
571.9014, 738.8058
572.3835, 754.2200
572.8657, 762.0516
573.3478, 766.2502
573.8299, 770.2377
574.3120, 779.5854
574.7941, 781.8817
575.2762, 768.6457
575.7584, 748.1262
576.2405, 737.4327
576.7226, 744.4901
577.2047, 747.9919
577.6868, 738.9279
578.1689, 718.8297
578.6511, 715.6882
579.1332, 733.8556
579.6153, 752.8102
580.0974, 753.3415
580.5795, 738.7866
581.0616, 734.4879
581.5438, 745.6082
582.0259, 759.1031
582.5080, 756.7296
582.9901, 744.0032
583.4722, 734.5641
583.9543, 737.8033
584.4365, 743.6663
584.9186, 743.9213
585.4007, 739.7247
585.8828, 737.4952
586.3649, 737.7799
586.8470, 742.4272
587.3292, 754.9906
587.8113, 784.7944
588.2934, 798.3491
588.7755, 783.6068
589.2576, 759.4564
589.7397, 745.9120
590.2219, 745.9277
590.7040, 749.6472
591.1861, 758.5256
591.6682, 768.2368
592.1503, 761.8524
592.6324, 738.0273
593.1146, 719.8353
593.5967, 724.3777
594.0788, 743.4916
594.5609, 756.1525
595.0430, 761.8877
595.5251, 762.3767
596.0073, 752.4469
596.4894, 740.4250
596.9715, 738.4077
597.4536, 757.9578
597.9357, 772.9838
598.4178, 763.4410
598.9000, 741.8561
599.3821, 732.4143
599.8642, 757.1703
600.3463, 776.9631
600.8284, 778.9743
601.3105, 763.7629
601.7927, 754.8942
602.2748, 754.7709
602.7569, 756.8589
603.2390, 757.7059
603.7211, 757.4167
604.2032, 754.0574
604.6854, 746.4924
605.1675, 739.1368
605.6496, 738.6195
606.1317, 743.6959
606.6138, 749.0540
607.0959, 752.1838
607.5781, 755.7459
608.0602, 765.5566
608.5423, 779.0814
609.0244, 787.5189
609.5065, 783.2260
609.9886, 774.5309
610.4708, 764.6504
610.9529, 752.8822
611.4350, 747.0768
611.9171, 754.0507
612.3992, 764.1761
612.8813, 769.9832
613.3635, 768.7450
613.8456, 768.5746
614.3277, 769.8980
614.8098, 772.4474
615.2919, 776.7595
615.7740, 783.3328
616.2562, 786.4025
616.7383, 782.1868
617.2204, 773.6772
617.7025, 769.8610
618.1846, 770.2879
618.6667, 769.9960
619.1489, 761.5857
619.6310, 752.2281
620.1131, 752.4070
620.5952, 765.2224
621.0773, 776.8142
621.5594, 780.5852
622.0416, 778.7165
622.5237, 773.4858
623.0058, 757.2364
623.4879, 747.4573
623.9700, 749.4030
624.4521, 759.1165
624.9343, 767.4271
