##NAMES=Valentinite
##RRUFFID=R050389
##IDEAL CHEMISTRY=Sb^3+^_2_O_3_
##LOCALITY=Bohemia Region, Pribram, Czech Republic
##OWNER=RRUFF
##SOURCE=University of Arizona Mineral Museum
##DESCRIPTION=Colorless prismatic parallel crystals
##STATUS=The identification of this mineral has been confirmed by X-ray diffraction and chemical analysis
##URL=rruff.info/R050389
##MEASURED CHEMISTRY=Sb_2.00_O_3_
94.93402, 292.4099
95.41614, 293.6373
95.89825, 292.2577
96.38037, 290.5133
96.86249, 288.4038
97.34460, 286.0854
97.82672, 283.5762
98.30884, 281.4351
98.79095, 280.0560
99.27307, 278.7687
99.75519, 276.7021
100.2373, 274.0216
100.7194, 271.2869
101.2015, 269.9277
101.6837, 270.1042
102.1658, 271.1755
102.6479, 272.7149
103.1300, 274.6862
103.6121, 277.1301
104.0942, 279.9843
104.5764, 283.2856
105.0585, 287.2914
105.5406, 292.4642
106.0227, 298.4461
106.5048, 304.3665
106.9869, 311.3952
107.4691, 316.3149
107.9512, 318.1360
108.4333, 317.0535
108.9154, 313.5760
109.3975, 307.5253
109.8796, 298.3659
110.3618, 290.0435
110.8439, 281.5687
111.3260, 274.6093
111.8081, 270.2110
112.2902, 268.3857
112.7723, 268.2610
113.2545, 268.5961
113.7366, 268.7248
114.2187, 270.9142
114.7008, 274.8593
115.1829, 280.7581
115.6650, 288.4887
116.1472, 298.0068
116.6293, 309.8526
117.1114, 325.8021
117.5935, 345.9959
118.0756, 368.8715
118.5577, 393.8385
119.0399, 421.2044
119.5220, 452.5512
120.0041, 489.7189
120.4862, 530.3719
120.9683, 568.9758
121.4504, 606.0771
121.9326, 640.3345
122.4147, 670.2642
122.8968, 695.7346
123.3789, 718.4269
123.8610, 736.7632
124.3431, 753.4333
124.8252, 770.4684
125.3074, 787.8214
125.7895, 806.6886
126.2716, 829.7679
126.7537, 858.0993
127.2358, 889.0632
127.7179, 922.1212
128.2001, 956.6377
128.6822, 992.1110
129.1643, 1027.908
129.6464, 1064.284
130.1285, 1102.549
130.6107, 1146.204
131.0928, 1188.790
131.5749, 1227.303
132.0570, 1263.121
132.5391, 1299.647
133.0212, 1339.413
133.5034, 1382.691
133.9855, 1429.740
134.4676, 1478.379
134.9497, 1531.477
135.4318, 1590.287
135.9139, 1654.918
136.3961, 1725.397
136.8782, 1800.818
137.3603, 1881.136
137.8424, 1972.662
138.3245, 2076.579
138.8066, 2191.397
139.2888, 2322.947
139.7709, 2478.187
140.2530, 2625.690
140.7351, 2735.804
141.2172, 2813.935
141.6993, 2835.970
142.1815, 2780.852
142.6636, 2658.458
143.1457, 2498.839
143.6278, 2284.746
144.1099, 2060.630
144.5920, 1856.632
145.0742, 1674.670
145.5563, 1514.041
146.0384, 1376.259
146.5205, 1262.645
147.0026, 1162.600
147.4847, 1081.130
147.9669, 1008.899
148.4490, 941.9362
148.9311, 879.5599
149.4132, 822.3143
149.8953, 771.8000
150.3774, 730.2909
150.8596, 691.0519
151.3417, 652.2808
151.8238, 615.7833
152.3059, 583.4122
152.7880, 555.9873
153.2701, 532.0380
153.7523, 508.2955
154.2344, 482.4953
154.7165, 459.9575
155.1986, 442.2407
155.6807, 427.4618
156.1628, 413.1588
156.6449, 398.0959
157.1271, 382.8930
157.6092, 370.3326
158.0913, 360.7332
158.5734, 352.6596
159.0555, 346.3300
159.5376, 341.3487
160.0198, 336.6454
160.5019, 331.5125
160.9840, 326.3504
161.4661, 322.4132
161.9482, 319.9011
162.4303, 318.2914
162.9125, 317.2931
163.3946, 316.9031
163.8767, 317.1744
164.3588, 318.2109
164.8409, 319.9864
165.3230, 322.4092
165.8052, 325.3135
166.2873, 329.0018
166.7694, 333.9608
167.2515, 340.4469
167.7336, 347.4283
168.2157, 354.8456
168.6979, 362.3397
169.1800, 369.4397
169.6621, 375.7027
170.1442, 381.6249
170.6263, 388.7473
171.1084, 397.9395
171.5906, 406.9881
172.0727, 415.3251
172.5548, 423.0912
173.0369, 430.3441
173.5190, 436.8726
174.0011, 442.9462
174.4833, 450.8412
174.9654, 462.2865
175.4475, 474.0947
175.9296, 485.6580
176.4117, 497.0692
176.8938, 508.8065
177.3760, 521.2944
177.8581, 534.5751
178.3402, 546.9323
178.8223, 555.6626
179.3044, 566.1309
179.7865, 580.7323
180.2687, 598.8647
180.7508, 618.4028
181.2329, 637.5736
181.7150, 656.4169
182.1971, 675.1132
182.6792, 692.8505
183.1614, 711.0731
183.6435, 730.5488
184.1256, 751.2986
184.6077, 773.1476
185.0898, 796.2820
185.5719, 820.7533
186.0541, 844.2311
186.5362, 867.7468
187.0183, 889.5832
187.5004, 908.5930
187.9825, 924.7867
188.4646, 936.9996
188.9468, 943.8654
189.4289, 945.7172
189.9110, 942.6591
190.3931, 933.4312
190.8752, 919.6481
191.3573, 902.8394
191.8395, 881.9868
192.3216, 861.2402
192.8037, 842.2687
193.2858, 825.5895
193.7679, 813.2261
194.2500, 806.5815
194.7322, 805.0357
195.2143, 806.6000
195.6964, 811.4867
196.1785, 819.6232
196.6606, 831.0368
197.1427, 845.0759
197.6249, 860.2565
198.1070, 875.9161
198.5891, 892.0077
199.0712, 908.0168
199.5533, 923.2428
200.0354, 939.2538
200.5176, 955.7135
200.9997, 973.2072
201.4818, 992.7953
201.9639, 1015.073
202.4460, 1040.014
202.9281, 1068.043
203.4103, 1100.172
203.8924, 1134.591
204.3745, 1171.551
204.8566, 1210.619
205.3387, 1249.962
205.8208, 1287.520
206.3030, 1322.641
206.7851, 1364.008
207.2672, 1416.444
207.7493, 1469.926
208.2314, 1519.296
208.7135, 1565.520
209.1957, 1612.904
209.6778, 1665.310
210.1599, 1723.090
210.6420, 1783.266
211.1241, 1845.822
211.6062, 1909.969
212.0884, 1974.132
212.5705, 2038.781
213.0526, 2107.726
213.5347, 2186.167
214.0168, 2275.711
214.4989, 2355.267
214.9811, 2428.508
215.4632, 2490.375
215.9453, 2540.266
216.4274, 2577.303
216.9095, 2595.589
217.3916, 2588.772
217.8738, 2554.138
218.3559, 2508.208
218.8380, 2446.560
219.3201, 2376.348
219.8022, 2300.278
220.2843, 2218.590
220.7665, 2139.083
221.2486, 2067.477
221.7307, 2003.216
222.2128, 1946.047
222.6949, 1898.036
223.1770, 1855.957
223.6592, 1817.017
224.1413, 1781.218
224.6234, 1747.606
225.1055, 1717.673
225.5876, 1689.487
226.0697, 1659.490
226.5519, 1626.995
227.0340, 1592.188
227.5161, 1555.656
227.9982, 1517.718
228.4803, 1476.742
228.9624, 1429.630
229.4446, 1379.723
229.9267, 1330.401
230.4088, 1282.745
230.8909, 1236.974
231.3730, 1194.609
231.8551, 1157.211
232.3373, 1119.471
232.8194, 1076.540
233.3015, 1032.527
233.7836, 992.0112
234.2657, 956.9295
234.7478, 926.3275
235.2300, 898.1849
235.7121, 872.3470
236.1942, 849.3903
236.6763, 829.8140
237.1584, 812.5021
237.6405, 796.2162
238.1227, 780.3373
238.6048, 765.2352
239.0869, 751.9037
239.5690, 740.6410
240.0511, 730.7894
240.5332, 721.5845
241.0154, 713.7089
241.4975, 708.1662
241.9796, 705.3925
242.4617, 704.6190
242.9438, 703.9635
243.4259, 702.9861
243.9081, 702.9254
244.3902, 704.0963
244.8723, 706.0367
245.3544, 708.0831
245.8365, 710.0166
246.3186, 712.4683
246.8008, 717.0649
247.2829, 726.4026
247.7650, 734.1350
248.2471, 738.3505
248.7292, 741.7698
249.2113, 746.7186
249.6935, 754.0270
250.1756, 763.1878
250.6577, 773.2614
251.1398, 784.4580
251.6219, 796.3498
252.1040, 808.9773
252.5862, 822.1422
253.0683, 835.4733
253.5504, 848.8555
254.0325, 862.8951
254.5146, 878.6486
254.9967, 897.3441
255.4789, 915.5016
255.9610, 932.1068
256.4431, 948.6618
256.9252, 966.9967
257.4073, 987.4557
257.8894, 1008.236
258.3716, 1026.976
258.8537, 1042.881
259.3358, 1058.344
259.8179, 1074.839
260.3000, 1090.091
260.7821, 1101.103
261.2643, 1107.623
261.7464, 1113.432
262.2285, 1122.501
262.7106, 1135.524
263.1927, 1150.405
263.6748, 1168.966
264.1570, 1188.162
264.6391, 1204.135
265.1212, 1216.766
265.6033, 1231.010
266.0854, 1251.797
266.5675, 1279.598
267.0497, 1306.701
267.5318, 1330.446
268.0139, 1355.042
268.4960, 1384.547
268.9781, 1418.930
269.4602, 1454.117
269.9424, 1486.259
270.4245, 1516.401
270.9066, 1551.145
271.3887, 1593.981
271.8708, 1639.084
272.3529, 1681.247
272.8351, 1720.862
273.3172, 1762.263
273.7993, 1808.261
274.2814, 1858.531
274.7635, 1910.664
275.2456, 1965.861
275.7278, 2021.232
276.2099, 2073.230
276.6920, 2122.577
277.1741, 2175.404
277.6562, 2234.953
278.1383, 2299.776
278.6205, 2364.688
279.1026, 2430.010
279.5847, 2496.066
280.0668, 2563.382
280.5489, 2632.029
281.0310, 2700.787
281.5132, 2769.253
281.9953, 2837.635
282.4774, 2906.381
282.9595, 2975.867
283.4416, 3043.412
283.9237, 3106.131
284.4059, 3165.063
284.8880, 3225.753
285.3701, 3290.937
285.8522, 3355.807
286.3343, 3415.135
286.8164, 3469.179
287.2986, 3522.491
287.7807, 3579.588
288.2628, 3638.229
288.7449, 3689.632
289.2270, 3729.866
289.7091, 3767.862
290.1913, 3815.107
290.6734, 3867.882
291.1555, 3913.021
291.6376, 3941.708
292.1197, 3958.423
292.6018, 3975.091
293.0840, 3994.863
293.5661, 4007.591
294.0482, 4005.831
294.5303, 3993.035
295.0124, 3973.826
295.4945, 3949.622
295.9767, 3920.300
296.4588, 3886.589
296.9409, 3849.712
297.4230, 3803.991
297.9051, 3742.594
298.3872, 3671.366
298.8694, 3595.419
299.3515, 3515.359
299.8336, 3432.473
300.3157, 3348.621
300.7978, 3263.823
301.2799, 3174.797
301.7621, 3075.332
302.2442, 2973.054
302.7263, 2873.706
303.2084, 2778.090
303.6905, 2685.978
304.1726, 2596.984
304.6548, 2511.376
305.1369, 2426.950
305.6190, 2342.402
306.1011, 2259.198
306.5832, 2178.340
307.0653, 2099.948
307.5475, 2024.568
308.0296, 1953.211
308.5117, 1885.796
308.9938, 1819.403
309.4759, 1753.385
309.9580, 1689.161
310.4402, 1627.375
310.9223, 1568.108
311.4044, 1511.420
311.8865, 1457.526
312.3686, 1406.585
312.8507, 1358.407
313.3329, 1313.307
313.8150, 1270.709
314.2971, 1230.153
314.7792, 1191.221
315.2613, 1152.844
315.7434, 1113.677
316.2256, 1075.111
316.7077, 1040.847
317.1898, 1012.403
317.6719, 983.1759
318.1540, 946.9485
318.6361, 909.5669
319.1183, 877.9803
319.6004, 854.9471
320.0825, 835.9061
320.5646, 814.6201
321.0467, 790.5800
321.5288, 767.5552
322.0110, 747.2381
322.4931, 728.1685
322.9752, 709.3749
323.4573, 690.7788
323.9394, 672.7610
324.4215, 655.9318
324.9037, 640.3605
325.3858, 624.5091
325.8679, 607.5267
326.3500, 590.8972
326.8321, 575.5170
327.3142, 561.3448
327.7964, 548.1175
328.2785, 536.0037
328.7606, 524.8004
329.2427, 513.3483
329.7248, 501.3554
330.2069, 489.5766
330.6891, 478.3077
331.1712, 467.5569
331.6533, 457.3268
332.1354, 447.6421
332.6175, 438.4661
333.0996, 429.7223
333.5818, 421.3416
334.0639, 413.4873
334.5460, 406.7183
335.0281, 400.3788
335.5102, 393.6991
335.9923, 386.2480
336.4745, 378.8454
336.9566, 372.3528
337.4387, 366.8194
337.9208, 361.8135
338.4029, 357.6823
338.8850, 353.6793
339.3672, 348.9062
339.8493, 343.1983
340.3314, 337.8049
340.8135, 333.8265
341.2956, 331.0390
341.7777, 328.2809
342.2599, 325.4173
342.7420, 322.4308
343.2241, 319.3104
343.7062, 316.0594
344.1883, 312.7414
344.6704, 309.1851
345.1526, 305.6112
345.6347, 302.6294
346.1168, 300.4798
346.5989, 298.2567
347.0810, 294.7898
347.5631, 290.8445
348.0453, 287.8394
348.5274, 286.6224
349.0095, 286.0591
349.4916, 284.9393
349.9737, 283.2601
350.4558, 281.3847
350.9380, 279.4264
351.4201, 277.3983
351.9022, 275.3470
352.3843, 273.3022
352.8664, 271.1789
353.3485, 268.7863
353.8307, 266.2392
354.3128, 264.0229
354.7949, 262.3348
355.2770, 260.9077
355.7591, 259.5013
356.2412, 258.1330
356.7234, 256.4432
357.2055, 254.2317
357.6876, 251.6414
358.1697, 248.6697
358.6518, 245.2043
359.1339, 242.1617
359.6161, 240.6357
360.0982, 240.3400
360.5803, 239.7423
361.0624, 238.7665
361.5445, 237.3477
362.0266, 235.1290
362.5088, 232.2412
362.9909, 229.7343
363.4730, 228.3590
363.9551, 227.6778
364.4372, 226.2574
364.9193, 223.5932
365.4015, 221.1038
365.8836, 219.6156
366.3657, 218.6985
366.8478, 217.5483
367.3299, 215.9449
367.8120, 213.8472
368.2942, 210.8867
368.7763, 206.6224
369.2584, 203.4799
369.7405, 202.5910
370.2226, 202.5176
370.7047, 202.0215
371.1869, 200.9027
371.6690, 199.3106
372.1511, 197.2194
372.6332, 194.6032
373.1153, 192.7665
373.5974, 192.4165
374.0796, 192.0553
374.5617, 191.1581
375.0438, 189.6771
375.5259, 187.3641
376.0080, 183.9269
376.4901, 179.9663
376.9723, 177.6826
377.4544, 178.8236
377.9365, 179.3582
378.4186, 178.6249
378.9007, 177.1983
379.3828, 175.5162
379.8650, 173.7523
380.3471, 172.2049
380.8292, 171.3478
381.3113, 171.5553
381.7934, 171.3289
382.2755, 170.7152
382.7577, 169.6964
383.2398, 168.0580
383.7219, 165.9620
384.2040, 163.8820
384.6861, 162.2006
385.1682, 160.8905
385.6504, 159.5639
386.1325, 158.3093
386.6146, 156.9409
387.0967, 155.0298
387.5788, 153.1311
388.0609, 152.1354
388.5431, 152.4164
389.0252, 153.1709
389.5073, 152.6713
389.9894, 150.0177
390.4715, 147.9793
390.9536, 146.5439
391.4358, 145.7858
391.9179, 146.3052
392.4000, 147.8040
392.8821, 148.8775
393.3642, 147.8352
393.8463, 144.5734
394.3285, 142.6725
394.8106, 143.3632
395.2927, 144.0476
395.7748, 144.0408
396.2569, 143.3956
396.7390, 142.1502
397.2212, 140.1592
397.7033, 137.9332
398.1854, 136.6912
398.6675, 136.7093
399.1496, 136.8695
399.6317, 137.1613
400.1139, 137.2909
400.5960, 136.8419
401.0781, 135.7658
401.5602, 134.8078
402.0423, 135.0149
402.5244, 136.2133
403.0066, 136.3047
403.4887, 134.2734
403.9708, 132.2275
404.4529, 131.8138
404.9350, 132.5694
405.4171, 133.2089
405.8993, 133.1214
406.3814, 132.6339
406.8635, 132.2545
407.3456, 131.9998
407.8277, 131.6811
408.3098, 131.0754
408.7920, 130.4125
409.2741, 130.1197
409.7562, 130.3849
410.2383, 130.5843
410.7204, 130.1294
411.2025, 129.2950
411.6847, 128.8061
412.1668, 128.7709
412.6489, 129.3441
413.1310, 131.1834
413.6131, 134.2679
414.0952, 136.3849
414.5774, 136.4294
415.0595, 135.8360
415.5416, 135.8198
416.0237, 136.4367
416.5058, 137.3698
416.9879, 138.5482
417.4701, 139.8294
417.9522, 140.4422
418.4343, 139.7339
418.9164, 139.2570
419.3985, 139.3822
419.8806, 140.0096
420.3628, 141.0554
420.8449, 142.4904
421.3270, 144.1576
421.8091, 145.8187
422.2912, 147.3754
422.7733, 149.2278
423.2555, 151.5099
423.7376, 153.9360
424.2197, 156.4419
424.7018, 158.9406
425.1839, 161.2834
425.6660, 163.3778
426.1482, 165.2049
426.6303, 166.6649
427.1124, 166.8245
427.5945, 167.7867
428.0766, 170.7294
428.5587, 174.1103
429.0409, 176.0008
429.5230, 175.9516
430.0051, 175.7196
430.4872, 178.2588
430.9693, 184.6965
431.4514, 189.1328
431.9336, 189.3014
432.4157, 189.2834
432.8978, 190.7299
433.3799, 193.3292
433.8620, 195.9699
434.3441, 197.8556
434.8263, 199.3776
435.3084, 201.8292
435.7905, 205.7001
436.2726, 209.1150
436.7547, 211.0139
437.2368, 212.3719
437.7190, 213.9804
438.2011, 215.9916
438.6832, 218.1530
439.1653, 220.3792
439.6474, 222.6103
440.1295, 224.5831
440.6117, 226.3293
441.0938, 227.6476
441.5759, 227.8241
442.0580, 227.3297
442.5401, 227.7266
443.0222, 230.5246
443.5044, 233.6602
443.9865, 235.2286
444.4686, 235.2693
444.9507, 234.1749
445.4328, 231.7883
445.9149, 228.7044
446.3971, 226.3772
446.8792, 225.1678
447.3613, 223.5648
447.8434, 220.8338
448.3255, 217.6367
448.8076, 214.7438
449.2898, 212.2820
449.7719, 210.0659
450.2540, 207.9690
450.7361, 205.9975
451.2182, 203.7933
451.7003, 200.5730
452.1825, 198.0031
452.6646, 197.2608
453.1467, 197.4455
453.6288, 196.9139
454.1109, 194.9409
454.5930, 192.3971
455.0752, 191.0786
455.5573, 191.9835
456.0394, 192.1730
456.5215, 190.8852
457.0036, 189.6483
457.4857, 189.2609
457.9679, 189.7540
458.4500, 190.8690
458.9321, 192.5560
459.4142, 194.6475
459.8963, 196.0666
460.3784, 196.0632
460.8606, 196.7433
461.3427, 198.8389
461.8248, 201.7012
462.3069, 204.8435
462.7890, 208.1420
463.2711, 211.3994
463.7532, 214.1598
464.2354, 216.5182
464.7175, 219.5838
465.1996, 223.4705
465.6817, 228.1429
466.1638, 233.7054
466.6459, 239.9725
467.1281, 246.5534
467.6102, 253.3009
468.0923, 260.2968
468.5744, 267.4402
469.0565, 274.8246
469.5386, 282.7938
470.0208, 291.3835
470.5029, 300.7742
470.9850, 311.5269
471.4671, 323.9833
471.9492, 335.7846
472.4313, 345.7659
472.9135, 355.1887
473.3956, 365.3350
473.8777, 376.3189
474.3598, 387.8284
474.8419, 399.6105
475.3240, 411.6841
475.8062, 423.9670
476.2883, 434.9138
476.7704, 447.9766
477.2525, 464.9460
477.7346, 483.9228
478.2167, 502.4392
478.6989, 519.9650
479.1810, 537.6894
479.6631, 557.6284
480.1452, 580.3182
480.6273, 601.8476
481.1094, 619.3514
481.5916, 638.5480
482.0737, 661.8569
482.5558, 688.0785
483.0379, 715.0685
483.5200, 741.9481
484.0021, 769.0042
484.4843, 796.9999
484.9664, 826.3319
485.4485, 855.3473
485.9306, 884.8026
486.4127, 912.8333
486.8948, 938.6893
487.3770, 962.2389
487.8591, 982.6991
488.3412, 999.5891
488.8233, 1013.061
489.3054, 1022.833
489.7875, 1028.645
490.2697, 1032.886
490.7518, 1036.353
491.2339, 1039.078
491.7160, 1041.177
492.1981, 1042.247
492.6802, 1043.831
493.1624, 1046.723
493.6445, 1050.459
494.1266, 1053.555
494.6087, 1055.875
495.0908, 1060.698
495.5729, 1071.792
496.0551, 1089.018
496.5372, 1102.403
497.0193, 1109.605
497.5014, 1116.304
497.9835, 1124.431
498.4656, 1133.066
498.9478, 1141.414
499.4299, 1149.063
499.9120, 1154.896
500.3941, 1157.346
500.8762, 1156.386
501.3583, 1152.098
501.8405, 1144.050
502.3226, 1133.099
502.8047, 1118.849
503.2868, 1101.949
503.7689, 1083.587
504.2510, 1064.155
504.7332, 1043.825
505.2153, 1023.362
505.6974, 1003.192
506.1795, 979.8400
506.6616, 950.3942
507.1437, 919.6320
507.6259, 891.3889
508.1080, 865.0923
508.5901, 838.4069
509.0722, 809.0451
509.5543, 779.1879
510.0364, 751.5123
510.5186, 726.0892
511.0007, 702.9950
511.4828, 683.0808
511.9649, 664.9465
512.4470, 645.5772
512.9291, 624.3574
513.4113, 604.0897
513.8934, 585.7434
514.3755, 568.6749
514.8576, 552.6483
515.3397, 537.4235
515.8218, 522.2931
516.3040, 506.3840
516.7861, 490.1465
517.2682, 477.0806
517.7503, 470.5345
518.2324, 463.0775
518.7145, 454.0556
519.1967, 443.7489
519.6788, 431.7903
520.1609, 418.4987
520.6430, 405.4852
521.1251, 394.3743
521.6072, 385.0741
522.0894, 376.4440
522.5715, 368.3832
523.0536, 361.1811
523.5357, 355.2586
524.0178, 349.9694
524.4999, 344.6203
524.9821, 339.0326
525.4642, 333.3238
525.9463, 327.5615
526.4284, 321.7667
526.9105, 315.8166
527.3926, 309.6838
527.8748, 303.5447
528.3569, 297.4477
528.8390, 291.4465
529.3211, 285.6440
529.8032, 280.1796
530.2853, 274.7977
530.7675, 269.2292
531.2496, 263.6887
531.7317, 258.6830
532.2138, 254.3433
532.6959, 250.2404
533.1780, 245.8155
533.6602, 240.9144
534.1423, 236.6378
534.6244, 233.7578
535.1065, 230.5308
535.5886, 225.9098
536.0707, 220.6406
536.5529, 215.8812
537.0350, 212.1198
537.5171, 208.9508
537.9992, 205.8731
538.4813, 202.9386
538.9634, 199.8483
539.4456, 196.4336
539.9277, 193.0488
540.4098, 189.6995
540.8919, 186.5408
541.3740, 183.9327
541.8561, 182.2113
542.3383, 180.6814
542.8204, 178.4122
543.3025, 175.4928
543.7846, 172.7432
544.2667, 170.2897
544.7488, 168.2155
545.2310, 166.8951
545.7131, 166.2157
546.1952, 165.0072
546.6773, 162.4997
547.1594, 159.9745
547.6415, 158.3028
548.1237, 157.2814
548.6058, 156.3708
549.0879, 155.3708
549.5700, 154.2427
550.0521, 152.8900
550.5342, 151.1551
551.0164, 149.7054
551.4985, 148.6347
551.9806, 147.7159
552.4627, 146.8949
552.9448, 146.1372
553.4269, 145.4014
553.9091, 144.6688
554.3912, 143.9351
554.8733, 142.9875
555.3554, 141.6395
555.8375, 141.4361
556.3196, 143.7272
556.8018, 145.8733
557.2839, 145.9951
557.7660, 144.6544
558.2481, 143.4363
558.7302, 142.9509
559.2123, 142.7662
559.6945, 142.3946
560.1766, 141.9267
560.6587, 141.8183
561.1408, 142.2641
561.6229, 142.9280
562.1050, 143.4009
562.5872, 143.6420
563.0693, 143.9651
563.5514, 144.5444
564.0335, 145.0334
564.5156, 144.8506
564.9977, 144.5336
565.4799, 145.2664
565.9620, 147.4902
566.4441, 150.1361
566.9262, 151.3967
567.4083, 150.7940
567.8904, 150.7450
568.3726, 151.5953
568.8547, 152.6779
569.3368, 154.0183
569.8189, 155.3790
570.3010, 156.2519
570.7831, 156.3333
571.2653, 156.5421
571.7474, 158.1406
572.2295, 160.9555
572.7116, 163.6181
573.1937, 165.8394
573.6758, 168.0263
574.1580, 170.4845
574.6401, 173.1868
575.1222, 176.0417
575.6043, 179.0546
576.0864, 182.2013
576.5685, 185.5664
577.0507, 189.0055
577.5328, 192.2195
578.0149, 195.1499
578.4970, 198.0993
578.9791, 201.4323
579.4612, 205.1772
579.9434, 208.5959
580.4255, 211.1001
580.9076, 213.9735
581.3897, 217.6307
581.8718, 221.7132
582.3539, 225.8109
582.8361, 229.8497
583.3182, 233.9918
583.8003, 238.5722
584.2824, 243.4953
584.7645, 247.8305
585.2466, 251.2438
585.7288, 255.0830
586.2109, 260.4322
586.6930, 266.4269
587.1751, 271.7507
587.6572, 276.2198
588.1393, 280.4261
588.6215, 284.3432
589.1036, 288.3031
589.5857, 292.7034
590.0678, 297.5868
590.5499, 302.8653
591.0320, 308.5793
591.5142, 314.5478
