##NAMES=Valentinite
##RRUFFID=R050389
##IDEAL CHEMISTRY=Sb^3+^_2_O_3_
##LOCALITY=Bohemia Region, Pribram, Czech Republic
##OWNER=RRUFF
##SOURCE=University of Arizona Mineral Museum
##DESCRIPTION=Colorless prismatic parallel crystals
##STATUS=The identification of this mineral has been confirmed by X-ray diffraction and chemical analysis
##URL=rruff.info/R050389
##MEASURED CHEMISTRY=Sb_2.00_O_3_
92.35352, 43.60823
92.83563, 41.44038
93.31775, 40.51785
93.79987, 41.59639
94.28198, 44.02042
94.76410, 45.78004
95.24622, 46.09197
95.72833, 45.92823
96.21045, 47.45919
96.69257, 50.75964
97.17468, 54.62597
97.65680, 57.92664
98.13892, 60.69117
98.62103, 63.73507
99.10315, 67.28870
99.58527, 71.28717
100.0674, 75.07372
100.5495, 78.54076
101.0316, 81.96053
101.5137, 85.42039
101.9958, 88.71305
102.4780, 92.85863
102.9601, 98.24425
103.4422, 105.0055
103.9243, 112.0146
104.4064, 119.0033
104.8885, 126.4437
105.3707, 135.4819
105.8528, 146.8270
106.3349, 158.6769
106.8170, 170.4756
107.2991, 183.2332
107.7813, 194.0050
108.2634, 202.1495
108.7455, 208.2581
109.2276, 214.0376
109.7097, 218.9835
110.1918, 224.0207
110.6740, 229.5405
111.1561, 235.2859
111.6382, 241.8142
112.1203, 248.5063
112.6024, 255.7281
113.0845, 265.3608
113.5667, 277.4731
114.0488, 292.1583
114.5309, 309.6426
115.0130, 328.8138
115.4951, 351.7704
115.9772, 378.0739
116.4594, 408.0538
116.9415, 444.9338
117.4236, 487.9410
117.9057, 539.1278
118.3878, 600.4147
118.8699, 671.6562
119.3521, 754.5148
119.8342, 851.3865
120.3163, 962.7052
120.7984, 1084.648
121.2805, 1225.450
121.7626, 1374.647
122.2448, 1514.351
122.7269, 1637.462
123.2090, 1746.405
123.6911, 1841.145
124.1732, 1919.631
124.6553, 1992.489
125.1375, 2067.930
125.6196, 2145.458
126.1017, 2223.500
126.5838, 2300.461
127.0659, 2377.476
127.5480, 2456.302
128.0302, 2536.828
128.5123, 2621.141
128.9944, 2711.280
129.4765, 2807.358
129.9586, 2910.430
130.4407, 3020.070
130.9229, 3136.989
131.4050, 3264.455
131.8871, 3398.643
132.3692, 3544.297
132.8513, 3707.315
133.3334, 3880.980
133.8156, 4059.537
134.2977, 4245.169
134.7798, 4451.645
135.2619, 4690.230
135.7440, 4957.875
136.2261, 5255.990
136.7083, 5621.174
137.1904, 6057.026
137.6725, 6547.293
138.1546, 7099.585
138.6367, 7732.026
139.1188, 8347.219
139.6010, 8981.879
140.0831, 9636.779
140.5652, 10000.39
141.0473, 10077.82
141.5294, 9879.974
142.0115, 9385.584
142.4937, 8486.401
142.9758, 7538.861
143.4579, 6607.234
143.9400, 5667.485
144.4221, 4876.823
144.9042, 4256.784
145.3864, 3766.908
145.8685, 3356.139
146.3506, 3038.944
146.8327, 2773.551
147.3148, 2545.609
147.7969, 2363.193
148.2791, 2202.438
148.7612, 2068.272
149.2433, 1955.358
149.7254, 1849.604
150.2075, 1749.825
150.6896, 1658.802
151.1718, 1578.763
151.6539, 1518.072
152.1360, 1455.787
152.6181, 1389.085
153.1002, 1320.098
153.5823, 1255.528
154.0645, 1196.011
154.5466, 1140.050
155.0287, 1087.008
155.5108, 1035.373
155.9929, 987.2222
156.4750, 943.0492
156.9572, 902.6556
157.4393, 866.4382
157.9214, 834.2216
158.4035, 805.8979
158.8856, 781.2850
159.3677, 762.3902
159.8499, 745.0209
160.3320, 728.1457
160.8141, 711.8997
161.2962, 697.0929
161.7783, 684.1250
162.2604, 672.8035
162.7426, 662.9680
163.2247, 655.3978
163.7068, 648.5645
164.1889, 641.6960
164.6710, 634.8868
165.1531, 628.7382
165.6353, 622.6417
166.1174, 617.6566
166.5995, 614.9238
167.0816, 615.9435
167.5637, 618.5085
168.0458, 621.1945
168.5280, 623.9493
169.0101, 627.6234
169.4922, 632.9042
169.9743, 639.3641
170.4564, 646.3859
170.9385, 654.8136
171.4207, 663.0423
171.9028, 669.1187
172.3849, 672.8329
172.8670, 676.8926
173.3491, 682.8576
173.8312, 690.6859
174.3134, 700.3475
174.7955, 713.4882
175.2776, 727.6307
175.7597, 739.0076
176.2418, 747.1198
176.7239, 755.9043
177.2061, 770.2137
177.6882, 788.5496
178.1703, 806.5274
178.6524, 821.4930
179.1345, 835.0998
179.6166, 849.5820
180.0988, 865.0918
180.5809, 882.0814
181.0630, 900.7831
181.5451, 921.4401
182.0272, 944.2281
182.5093, 970.3715
182.9915, 998.9382
183.4736, 1027.331
183.9557, 1055.703
184.4378, 1083.616
184.9199, 1110.308
185.4020, 1135.681
185.8842, 1162.668
186.3663, 1195.408
186.8484, 1231.499
187.3305, 1261.008
187.8126, 1283.296
188.2947, 1299.471
188.7769, 1310.967
189.2590, 1317.840
189.7411, 1320.872
190.2232, 1317.547
190.7053, 1309.458
191.1874, 1306.483
191.6696, 1309.228
192.1517, 1317.656
192.6338, 1331.862
193.1159, 1351.861
193.5980, 1376.950
194.0801, 1405.566
194.5623, 1437.861
195.0444, 1479.496
195.5265, 1531.651
196.0086, 1591.959
196.4907, 1655.809
196.9728, 1723.132
197.4550, 1794.396
197.9371, 1870.840
198.4192, 1952.527
198.9013, 2034.584
199.3834, 2116.416
199.8655, 2198.185
200.3477, 2281.628
200.8298, 2366.625
201.3119, 2453.205
201.7940, 2541.481
202.2761, 2631.161
202.7582, 2725.894
203.2404, 2826.203
203.7225, 2931.625
204.2046, 3040.342
204.6867, 3151.608
205.1688, 3269.306
205.6509, 3393.916
206.1331, 3525.648
206.6152, 3666.738
207.0973, 3817.667
207.5794, 3977.938
208.0615, 4145.155
208.5436, 4317.692
209.0258, 4502.308
209.5079, 4701.293
209.9900, 4913.347
210.4721, 5141.313
210.9542, 5385.889
211.4363, 5646.249
211.9185, 5921.094
212.4006, 6213.410
212.8827, 6516.190
213.3648, 6824.167
213.8469, 7149.663
214.3290, 7451.315
214.8112, 7739.956
215.2933, 7998.573
215.7754, 8176.005
216.2575, 8267.845
216.7396, 8286.805
217.2217, 8234.221
217.7038, 8097.956
218.1860, 7926.016
218.6681, 7711.175
219.1502, 7465.617
219.6323, 7233.916
220.1144, 7015.864
220.5965, 6815.550
221.0787, 6637.928
221.5608, 6486.439
222.0429, 6349.785
222.5250, 6230.382
223.0071, 6125.381
223.4892, 6030.750
223.9714, 5952.940
224.4535, 5874.206
224.9356, 5784.652
225.4177, 5685.087
225.8998, 5574.134
226.3819, 5452.950
226.8641, 5319.735
227.3462, 5171.899
227.8283, 5007.134
228.3104, 4831.583
228.7925, 4649.804
229.2746, 4456.900
229.7568, 4262.636
230.2389, 4063.806
230.7210, 3862.581
231.2031, 3671.977
231.6852, 3493.659
232.1673, 3323.745
232.6495, 3161.715
233.1316, 3007.216
233.6137, 2861.674
234.0958, 2728.099
234.5779, 2604.551
235.0600, 2487.521
235.5422, 2374.193
236.0243, 2269.586
236.5064, 2176.101
236.9885, 2096.723
237.4706, 2022.059
237.9527, 1953.623
238.4349, 1890.366
238.9170, 1830.152
239.3991, 1771.068
239.8812, 1717.869
240.3633, 1672.731
240.8454, 1637.173
241.3276, 1606.157
241.8097, 1581.114
242.2918, 1560.490
242.7739, 1541.012
243.2560, 1521.369
243.7381, 1504.920
244.2203, 1493.606
244.7024, 1489.985
245.1845, 1484.118
245.6666, 1474.365
246.1487, 1463.174
246.6308, 1454.963
247.1130, 1450.018
247.5951, 1447.605
248.0772, 1447.958
248.5593, 1452.090
249.0414, 1454.997
249.5235, 1454.986
250.0057, 1454.799
250.4878, 1459.223
250.9699, 1470.186
251.4520, 1482.343
251.9341, 1493.644
252.4162, 1503.453
252.8984, 1515.827
253.3805, 1531.234
253.8626, 1548.988
254.3447, 1567.697
254.8268, 1587.826
255.3089, 1608.468
255.7911, 1628.778
256.2732, 1648.489
256.7553, 1670.995
257.2374, 1697.118
257.7195, 1725.349
258.2017, 1754.038
258.6838, 1783.803
259.1659, 1813.158
259.6480, 1841.828
260.1301, 1869.508
260.6122, 1898.257
261.0944, 1928.838
261.5765, 1959.709
262.0586, 1988.307
262.5407, 2011.603
263.0228, 2041.062
263.5049, 2080.685
263.9871, 2130.281
264.4692, 2174.958
264.9513, 2212.350
265.4334, 2249.256
265.9155, 2293.216
266.3976, 2345.259
266.8798, 2398.049
267.3619, 2449.101
267.8440, 2499.482
268.3261, 2554.116
268.8082, 2613.134
269.2903, 2675.826
269.7725, 2741.154
270.2546, 2808.004
270.7367, 2878.623
271.2188, 2952.873
271.7009, 3030.399
272.1830, 3111.925
272.6652, 3197.225
273.1473, 3285.489
273.6294, 3377.272
274.1115, 3472.655
274.5936, 3570.330
275.0757, 3669.919
275.5579, 3772.741
276.0400, 3879.645
276.5221, 3990.601
277.0042, 4105.575
277.4863, 4224.713
277.9684, 4348.052
278.4506, 4474.644
278.9327, 4604.594
279.4148, 4737.516
279.8969, 4873.211
280.3790, 5012.009
280.8611, 5151.384
281.3433, 5290.122
281.8254, 5428.837
282.3075, 5568.599
282.7896, 5712.221
283.2717, 5852.899
283.7538, 5977.550
284.2360, 6085.665
284.7181, 6191.935
285.2002, 6302.823
285.6823, 6417.755
286.1644, 6532.581
286.6465, 6646.779
287.1287, 6758.689
287.6108, 6865.482
288.0929, 6967.212
288.5750, 7065.631
289.0571, 7161.831
289.5392, 7255.585
290.0214, 7345.764
290.5035, 7432.638
290.9856, 7511.142
291.4677, 7576.919
291.9498, 7630.054
292.4319, 7669.202
292.9141, 7693.851
293.3962, 7704.965
293.8783, 7705.883
294.3604, 7696.658
294.8425, 7672.805
295.3246, 7633.819
295.8068, 7577.407
296.2889, 7495.575
296.7710, 7380.524
297.2531, 7245.073
297.7352, 7111.451
298.2173, 6979.297
298.6995, 6839.300
299.1816, 6686.104
299.6637, 6520.689
300.1458, 6348.062
300.6279, 6166.097
301.1100, 5979.948
301.5922, 5796.548
302.0743, 5615.667
302.5564, 5437.377
303.0385, 5259.764
303.5206, 5084.384
304.0027, 4909.060
304.4849, 4734.410
304.9670, 4563.015
305.4491, 4400.136
305.9312, 4244.377
306.4133, 4092.337
306.8954, 3940.346
307.3776, 3792.131
307.8597, 3655.757
308.3418, 3531.252
308.8239, 3409.593
309.3060, 3280.198
309.7881, 3148.574
310.2703, 3027.566
310.7524, 2927.493
311.2345, 2834.332
311.7166, 2739.262
312.1987, 2642.228
312.6808, 2548.232
313.1630, 2457.880
313.6451, 2371.933
314.1272, 2290.447
314.6093, 2216.672
315.0914, 2145.327
315.5735, 2073.933
316.0557, 2003.108
316.5378, 1936.206
317.0199, 1875.230
317.5020, 1818.631
317.9841, 1764.485
318.4662, 1713.833
318.9484, 1665.192
319.4305, 1618.884
319.9126, 1574.361
320.3947, 1530.177
320.8768, 1484.429
321.3589, 1440.043
321.8411, 1398.237
322.3232, 1359.649
322.8053, 1323.559
323.2874, 1290.974
323.7695, 1260.621
324.2516, 1230.486
324.7338, 1200.702
325.2159, 1170.676
325.6980, 1139.584
326.1801, 1106.402
326.6622, 1076.225
327.1443, 1050.287
327.6265, 1026.913
328.1086, 1004.360
328.5907, 983.5547
329.0728, 962.7451
329.5549, 941.0363
330.0370, 918.3164
330.5192, 898.3339
331.0013, 882.8874
331.4834, 868.5098
331.9655, 852.5988
332.4476, 833.8353
332.9297, 815.6813
333.4119, 798.3508
333.8940, 781.8901
334.3761, 766.7850
334.8582, 753.5024
335.3403, 741.3231
335.8224, 730.1144
336.3046, 720.2450
336.7867, 710.0950
337.2688, 699.3496
337.7509, 688.4489
338.2330, 678.0278
338.7151, 668.2168
339.1973, 658.6918
339.6794, 648.8775
340.1615, 638.7540
340.6436, 631.0108
341.1257, 626.3862
341.6078, 622.7299
342.0899, 616.9504
342.5721, 608.9374
343.0542, 601.8220
343.5363, 596.9898
344.0184, 593.8339
344.5005, 589.4399
344.9826, 583.7133
345.4648, 577.7291
345.9469, 572.3459
346.4290, 567.5042
346.9111, 563.4302
347.3932, 560.3868
347.8753, 557.7417
348.3575, 554.2614
348.8396, 550.0195
349.3217, 545.7489
349.8038, 541.5761
350.2859, 537.7813
350.7680, 535.5341
351.2502, 535.4412
351.7323, 535.0576
352.2144, 530.9286
352.6965, 524.0411
353.1786, 517.4988
353.6607, 513.4850
354.1429, 510.3913
354.6250, 505.8607
355.1071, 499.7439
355.5892, 494.1770
356.0713, 491.6940
356.5534, 490.6454
357.0356, 488.5735
357.5177, 483.3921
357.9998, 477.8663
358.4819, 474.5079
358.9640, 472.8754
359.4461, 470.5834
359.9283, 465.2117
360.4104, 459.2655
360.8925, 454.9225
361.3746, 453.4361
361.8567, 452.2651
362.3388, 451.1529
362.8210, 449.6121
363.3031, 446.5249
363.7852, 439.1225
364.2673, 432.0312
364.7494, 427.6744
365.2315, 427.0735
365.7137, 426.3586
366.1958, 425.4521
366.6779, 423.8181
367.1600, 420.8164
367.6421, 414.7802
368.1242, 409.0261
368.6064, 404.1626
369.0885, 400.2113
369.5706, 396.8427
370.0527, 394.3574
370.5348, 392.2064
371.0169, 390.0319
371.4991, 388.0353
371.9812, 385.7158
372.4633, 382.9529
372.9454, 379.8385
373.4275, 376.6104
373.9096, 372.6753
374.3918, 369.6126
374.8739, 368.6649
375.3560, 370.7459
375.8381, 370.6048
376.3202, 367.5883
376.8023, 363.2043
377.2845, 359.6455
377.7666, 357.0170
378.2487, 354.7929
378.7308, 352.9500
379.2129, 351.4069
379.6950, 349.6850
380.1772, 347.6725
380.6593, 345.9712
381.1414, 345.5685
381.6235, 346.2527
382.1056, 345.9188
382.5877, 343.8879
383.0699, 340.9645
383.5520, 338.5937
384.0341, 336.7188
384.5162, 334.9788
384.9983, 333.3020
385.4804, 331.5554
385.9626, 329.1739
386.4447, 325.9076
386.9268, 323.0526
387.4089, 322.7231
387.8910, 323.8354
388.3731, 323.9596
388.8553, 320.7975
389.3374, 316.9106
389.8195, 314.7972
390.3016, 314.4405
390.7837, 314.5794
391.2658, 314.9878
391.7480, 315.2675
392.2301, 314.9922
392.7122, 313.8737
393.1943, 312.4290
393.6764, 310.9105
394.1585, 309.2618
394.6407, 307.3515
395.1228, 304.3313
395.6049, 301.6661
396.0870, 300.2286
396.5691, 300.5799
397.0512, 300.6903
397.5334, 300.0797
398.0155, 299.0480
398.4976, 297.9805
398.9797, 296.9296
399.4618, 295.8146
399.9439, 294.5206
400.4261, 293.0470
400.9082, 291.8890
401.3903, 291.3994
401.8724, 290.8816
402.3545, 289.7955
402.8366, 287.5454
403.3188, 286.1102
403.8009, 285.9972
404.2830, 286.5900
404.7651, 286.1400
405.2472, 284.1413
405.7293, 282.5631
406.2115, 282.3453
406.6936, 283.5306
407.1757, 284.6072
407.6578, 285.5535
408.1399, 286.4622
408.6220, 287.6241
409.1042, 289.0231
409.5863, 289.8414
410.0684, 289.7193
410.5505, 288.9902
411.0326, 288.0049
411.5147, 286.8035
411.9969, 286.6175
412.4790, 289.3439
412.9611, 293.6819
413.4432, 296.2667
413.9253, 296.3793
414.4074, 295.8907
414.8896, 296.5224
415.3717, 298.0998
415.8538, 300.2248
416.3359, 303.3578
416.8180, 306.5219
417.3001, 308.5999
417.7823, 309.6328
418.2644, 310.7231
418.7465, 311.8506
419.2286, 313.6803
419.7107, 316.9505
420.1928, 323.4539
420.6750, 329.2987
421.1571, 332.4890
421.6392, 333.8763
422.1213, 335.5841
422.6034, 337.6068
423.0855, 340.5415
423.5677, 344.9481
424.0498, 351.4239
424.5319, 357.2625
425.0140, 361.8547
425.4961, 365.9640
425.9782, 370.3772
426.4604, 375.3879
426.9425, 380.2812
427.4246, 384.8576
427.9067, 389.2281
428.3888, 393.8198
428.8709, 398.5223
429.3531, 403.6206
429.8352, 409.3524
430.3173, 415.6652
430.7994, 422.5839
431.2815, 430.3219
431.7636, 438.2908
432.2458, 445.4282
432.7279, 451.7056
433.2100, 457.4974
433.6921, 462.6144
434.1742, 467.4089
434.6563, 473.0705
435.1385, 479.6795
435.6206, 486.7420
436.1027, 494.2314
436.5848, 501.8734
437.0669, 508.7796
437.5490, 514.5468
438.0312, 520.1829
438.5133, 527.3781
438.9954, 535.5247
439.4775, 542.9230
439.9596, 548.8942
440.4417, 553.6210
440.9239, 557.1223
441.4060, 559.4060
441.8881, 560.9882
442.3702, 561.4315
442.8523, 561.6337
443.3344, 562.4910
443.8166, 565.4830
444.2987, 567.6945
444.7808, 568.2814
445.2629, 567.4053
445.7450, 565.5331
446.2271, 562.0922
446.7093, 558.2809
447.1914, 554.3026
447.6735, 549.6958
448.1556, 546.5650
448.6377, 546.4540
449.1198, 546.8074
449.6020, 544.7260
450.0841, 538.1331
450.5662, 533.6635
451.0483, 533.0675
451.5304, 535.3248
452.0125, 535.6683
452.4947, 533.4717
452.9768, 531.3039
453.4589, 530.4318
453.9410, 530.8676
454.4231, 532.2946
454.9052, 534.7239
455.3874, 538.0991
455.8695, 542.8956
456.3516, 548.8957
456.8337, 554.2180
457.3158, 557.5293
457.7979, 560.4921
458.2801, 566.4094
458.7622, 574.9584
459.2443, 584.1335
459.7264, 592.2418
460.2085, 600.2260
460.6906, 609.2167
461.1728, 619.4139
461.6549, 630.3883
462.1370, 641.4228
462.6191, 652.9774
463.1012, 665.4867
463.5833, 677.8722
464.0655, 692.4168
464.5476, 710.2382
465.0297, 731.1035
465.5118, 753.8846
465.9939, 779.4728
466.4760, 805.5772
466.9582, 830.4379
467.4403, 850.6230
467.9224, 876.0382
468.4045, 908.5534
468.8866, 945.4409
469.3687, 983.5659
469.8509, 1022.136
470.3330, 1062.173
470.8151, 1103.635
471.2972, 1146.635
471.7793, 1192.264
472.2614, 1241.283
472.7436, 1292.133
473.2257, 1343.339
473.7078, 1395.079
474.1899, 1450.816
474.6720, 1511.678
475.1541, 1575.122
475.6363, 1636.200
476.1184, 1695.807
476.6005, 1759.806
477.0826, 1832.526
477.5647, 1909.741
478.0468, 1983.720
478.5290, 2055.393
479.0111, 2133.203
479.4932, 2224.007
479.9753, 2323.904
480.4574, 2429.017
480.9395, 2539.507
481.4217, 2653.231
481.9038, 2764.867
482.3859, 2877.950
482.8680, 2996.380
483.3501, 3124.950
483.8322, 3255.627
484.3144, 3389.428
484.7965, 3524.319
485.2786, 3650.672
485.7607, 3765.218
486.2428, 3870.502
486.7249, 3969.348
487.2071, 4067.716
487.6892, 4144.416
488.1713, 4196.392
488.6534, 4228.812
489.1355, 4248.393
489.6176, 4252.456
490.0998, 4251.840
490.5819, 4249.060
491.0640, 4243.856
491.5461, 4233.168
492.0282, 4216.018
492.5103, 4200.675
492.9925, 4190.967
493.4746, 4187.462
493.9567, 4193.341
494.4388, 4208.851
494.9209, 4233.500
495.4030, 4271.247
495.8852, 4317.845
496.3673, 4363.976
496.8494, 4407.542
497.3315, 4447.093
497.8136, 4482.311
498.2957, 4512.790
498.7779, 4535.604
499.2600, 4550.181
499.7421, 4556.200
500.2242, 4554.017
500.7063, 4544.254
501.1884, 4523.715
501.6706, 4494.182
502.1527, 4452.507
502.6348, 4395.820
503.1169, 4318.335
503.5990, 4232.179
504.0811, 4137.587
504.5633, 4036.140
505.0454, 3930.503
505.5275, 3821.252
506.0096, 3709.863
506.4917, 3596.749
506.9738, 3480.549
507.4560, 3366.774
507.9381, 3255.157
508.4202, 3146.596
508.9023, 3042.250
509.3844, 2942.021
509.8665, 2844.223
510.3487, 2748.250
510.8308, 2655.115
511.3129, 2566.359
511.7950, 2481.908
512.2772, 2401.390
512.7593, 2324.540
513.2414, 2251.706
513.7235, 2181.885
514.2056, 2115.123
514.6877, 2052.697
515.1699, 1996.663
515.6520, 1944.668
516.1341, 1894.784
516.6162, 1847.293
517.0983, 1800.254
517.5804, 1750.698
518.0626, 1701.272
518.5447, 1656.328
519.0268, 1619.732
519.5089, 1584.189
519.9910, 1547.995
520.4731, 1511.205
520.9553, 1476.873
521.4374, 1446.053
521.9195, 1416.696
522.4016, 1387.760
522.8837, 1359.532
523.3658, 1331.664
523.8480, 1304.151
524.3301, 1276.944
524.8122, 1250.014
525.2943, 1223.530
525.7764, 1198.284
526.2585, 1174.588
526.7407, 1152.193
527.2228, 1129.563
527.7049, 1106.990
528.1870, 1086.834
528.6691, 1073.178
529.1512, 1061.063
529.6334, 1043.733
530.1155, 1020.378
530.5976, 997.7996
531.0797, 980.9030
531.5618, 966.0670
532.0439, 949.8758
532.5261, 929.9004
533.0082, 910.4789
533.4903, 892.0924
533.9724, 874.8885
534.4545, 858.7240
534.9366, 843.1260
535.4188, 829.3371
535.9009, 818.9044
536.3830, 811.6824
536.8651, 800.2432
537.3472, 782.3618
537.8293, 764.7303
538.3115, 752.4215
538.7936, 745.9143
539.2757, 738.6341
539.7578, 730.3067
540.2399, 721.2545
540.7220, 710.8997
541.2042, 699.8171
541.6863, 690.7366
542.1684, 685.4247
542.6505, 681.2933
543.1326, 674.0063
543.6147, 664.4623
544.0969, 655.9171
544.5790, 650.3000
545.0611, 646.6517
545.5432, 645.1355
546.0253, 645.9199
546.5074, 645.0884
546.9896, 638.9709
547.4717, 631.6953
547.9538, 626.6364
548.4359, 626.8967
548.9180, 625.9093
549.4001, 621.3661
549.8823, 615.8104
550.3644, 613.7439
550.8465, 616.9801
551.3286, 620.3541
551.8107, 622.9828
552.2928, 624.7628
552.7750, 624.3071
553.2571, 621.0416
553.7392, 618.3571
554.2213, 618.6705
554.7034, 621.5721
555.1855, 624.8031
555.6677, 628.2643
556.1498, 631.9824
556.6319, 635.7537
557.1140, 639.7895
557.5961, 644.6622
558.0782, 651.2496
558.5604, 657.5221
559.0425, 660.8253
559.5246, 662.5267
560.0067, 665.6633
560.4888, 672.6900
560.9709, 680.2968
561.4531, 686.6031
561.9352, 691.5795
562.4173, 697.7921
562.8994, 706.3148
563.3815, 715.5845
563.8636, 724.9901
564.3458, 734.5806
564.8279, 743.8984
565.3100, 752.5516
565.7921, 761.5591
566.2742, 772.2720
566.7563, 784.8967
567.2385, 797.6140
567.7206, 809.6132
568.2027, 821.9365
568.6848, 836.8116
569.1669, 854.0809
569.6490, 871.0796
570.1312, 885.3592
570.6133, 899.2111
571.0954, 915.6935
571.5775, 935.0168
572.0596, 955.8322
572.5417, 977.3196
573.0239, 1000.173
573.5060, 1024.759
573.9881, 1051.698
574.4702, 1079.466
574.9523, 1107.761
575.4344, 1136.965
575.9166, 1167.206
576.3987, 1200.041
576.8808, 1232.405
577.3629, 1262.784
577.8450, 1292.779
578.3271, 1328.414
578.8093, 1370.773
579.2914, 1415.270
579.7735, 1460.563
580.2556, 1505.871
580.7377, 1548.775
581.2198, 1588.607
581.7020, 1631.098
582.1841, 1683.758
582.6662, 1742.185
583.1483, 1796.390
583.6304, 1843.569
584.1125, 1890.063
584.5947, 1940.436
585.0768, 1993.836
585.5589, 2049.087
586.0410, 2108.167
586.5231, 2166.390
587.0052, 2220.356
587.4873, 2271.815
587.9694, 2324.367
588.4515, 2379.527
588.9337, 2435.727
