##NAMES=Valleriite
##RRUFFID=R080119
##IDEAL CHEMISTRY=2[(Fe,Cu)S]&#183;1.53[(Mg,Al)(OH)_2_]
##LOCALITY=Transvaal, Complexe, Palabora, Sud√°frica
##OWNER=RRUFF
##SOURCE=Joan Abella i Creus
##DESCRIPTION=Dark metallic-bronze grains
##STATUS=The identification of this mineral is not yet confirmed.
##URL=rruff.info/R080119
91.87140, 0.0000000E+00
92.35352, 10.51021
92.83563, 10.70804
93.31775, 10.79265
93.79987, 10.71639
94.28198, 10.52058
94.76410, 10.30427
95.24622, 10.04244
95.72833, 9.816579
96.21045, 9.924626
96.69257, 10.39565
97.17468, 10.75365
97.65680, 10.27352
98.13892, 8.980697
98.62103, 8.390210
99.10315, 9.207365
99.58527, 11.14372
100.0674, 12.12330
100.5495, 11.93571
101.0316, 11.23351
101.5137, 10.72295
101.9958, 10.36891
102.4780, 10.32066
102.9601, 10.68688
103.4422, 11.53627
103.9243, 12.32666
104.4064, 12.97088
104.8885, 13.61526
105.3707, 14.58589
105.8528, 16.17690
106.3349, 17.66882
106.8170, 18.74787
107.2991, 19.05722
107.7813, 19.63278
108.2634, 20.60110
108.7455, 21.85809
109.2276, 23.01712
109.7097, 24.00640
110.1918, 24.95988
110.6740, 25.93451
111.1561, 26.82522
111.6382, 27.85672
112.1203, 29.03756
112.6024, 30.37633
113.0845, 31.86124
113.5667, 33.66563
114.0488, 35.51257
114.5309, 37.23582
115.0130, 38.52976
115.4951, 39.93236
115.9772, 41.69323
116.4594, 43.81787
116.9415, 45.84603
117.4236, 47.67224
117.9057, 49.29556
118.3878, 50.70905
118.8699, 51.55641
119.3521, 52.46977
119.8342, 53.87444
120.3163, 55.82983
120.7984, 57.90448
121.2805, 59.58450
121.7626, 61.22133
122.2448, 63.41579
122.7269, 67.83604
123.2090, 72.27998
123.6911, 74.31315
124.1732, 73.31725
124.6553, 71.42683
125.1375, 70.29492
125.6196, 69.81916
126.1017, 69.67548
126.5838, 69.59861
127.0659, 69.73988
127.5480, 70.39341
128.0302, 71.66286
128.5123, 73.32961
128.9944, 75.27592
129.4765, 77.46072
129.9586, 79.50057
130.4407, 81.18562
130.9229, 82.51372
131.4050, 83.41177
131.8871, 83.65589
132.3692, 83.62878
132.8513, 84.23530
133.3334, 85.37881
133.8156, 86.33989
134.2977, 86.77143
134.7798, 86.98775
135.2619, 87.38315
135.7440, 88.08118
136.2261, 89.01680
136.7083, 89.85897
137.1904, 90.49696
137.6725, 91.38767
138.1546, 93.39682
138.6367, 96.93318
139.1188, 99.37805
139.6010, 99.92923
140.0831, 98.59451
140.5652, 97.11189
141.0473, 95.32533
141.5294, 93.57526
142.0115, 92.39497
142.4937, 92.04354
142.9758, 91.59982
143.4579, 90.65690
143.9400, 88.96642
144.4221, 88.01431
144.9042, 88.03538
145.3864, 88.63685
145.8685, 89.16415
146.3506, 89.59658
146.8327, 89.98886
147.3148, 90.39209
147.7969, 90.94852
148.2791, 91.18520
148.7612, 90.88490
149.2433, 90.29021
149.7254, 89.95205
150.2075, 89.90091
150.6896, 90.07967
151.1718, 90.49381
151.6539, 91.58578
152.1360, 92.27366
152.6181, 92.17089
153.1002, 91.59575
153.5823, 91.49985
154.0645, 92.64224
154.5466, 93.77169
155.0287, 94.30910
155.5108, 93.92932
155.9929, 93.28596
156.4750, 92.29211
156.9572, 91.05178
157.4393, 90.01517
157.9214, 89.22704
158.4035, 88.68739
158.8856, 88.39236
159.3677, 88.59011
159.8499, 88.78111
160.3320, 88.77391
160.8141, 88.61114
161.2962, 88.55067
161.7783, 88.86892
162.2604, 89.24327
162.7426, 89.40772
163.2247, 89.28664
163.7068, 88.94016
164.1889, 88.32687
164.6710, 87.46730
165.1531, 86.56184
165.6353, 85.59323
166.1174, 84.66837
166.5995, 83.90236
167.0816, 83.39132
167.5637, 83.00850
168.0458, 82.69118
168.5280, 82.43951
169.0101, 82.22251
169.4922, 81.91337
169.9743, 81.64780
170.4564, 81.61924
170.9385, 82.48815
171.4207, 83.28248
171.9028, 82.99846
172.3849, 81.56300
172.8670, 79.90081
173.3491, 78.47411
173.8312, 77.32345
174.3134, 76.52497
174.7955, 76.44273
175.2776, 76.59373
175.7597, 76.33684
176.2418, 75.59106
176.7239, 74.84536
177.2061, 74.63948
177.6882, 74.80114
178.1703, 74.86526
178.6524, 74.47161
179.1345, 73.86906
179.6166, 73.53822
180.0988, 73.55274
180.5809, 73.57082
181.0630, 73.08585
181.5451, 72.22214
182.0272, 71.49934
182.5093, 71.28027
182.9915, 71.38847
183.4736, 71.36173
183.9557, 71.12199
184.4378, 70.91249
184.9199, 71.14865
185.4020, 71.76577
185.8842, 72.33945
186.3663, 72.68667
186.8484, 72.80920
187.3305, 72.65758
187.8126, 72.17826
188.2947, 71.55383
188.7769, 71.04684
189.2590, 70.65451
189.7411, 70.31918
190.2232, 69.97346
190.7053, 69.63982
191.1874, 69.44579
191.6696, 69.39552
192.1517, 69.49592
192.6338, 69.84939
193.1159, 70.46877
193.5980, 71.00351
194.0801, 71.20740
194.5623, 71.10210
195.0444, 71.01296
195.5265, 71.00285
196.0086, 70.97295
196.4907, 70.57801
196.9728, 69.74592
197.4550, 69.14616
197.9371, 69.38525
198.4192, 70.48272
198.9013, 71.13270
199.3834, 71.14205
199.8655, 70.72668
200.3477, 70.31261
200.8298, 69.85072
201.3119, 69.62582
201.7940, 69.92545
202.2761, 70.81489
202.7582, 71.49596
203.2404, 71.88815
203.7225, 72.03987
204.2046, 72.04240
204.6867, 71.85400
205.1688, 71.66151
205.6509, 71.58296
206.1331, 71.63023
206.6152, 71.71048
207.0973, 71.81908
207.5794, 71.95412
208.0615, 72.11426
208.5436, 72.30685
209.0258, 72.50584
209.5079, 72.67170
209.9900, 72.77187
210.4721, 73.00841
210.9542, 73.48076
211.4363, 74.07124
211.9185, 74.33830
212.4006, 74.14397
212.8827, 73.92313
213.3648, 73.93459
213.8469, 74.20655
214.3290, 74.61633
214.8112, 75.23092
215.2933, 75.95787
215.7754, 76.46470
216.2575, 76.65514
216.7396, 76.80702
217.2217, 77.11831
217.7039, 77.70842
218.1860, 78.07150
218.6681, 78.07884
219.1502, 77.84807
219.6323, 77.81621
220.1144, 78.05422
220.5966, 78.37111
221.0787, 78.69290
221.5608, 79.10378
222.0429, 79.27832
222.5250, 79.10909
223.0071, 78.69936
223.4893, 78.39988
223.9714, 78.11588
224.4535, 78.08679
224.9356, 78.50600
225.4177, 79.64673
225.8998, 80.57797
226.3820, 81.25679
226.8641, 81.69872
227.3462, 81.89635
227.8283, 81.67949
228.3104, 81.47670
228.7925, 81.50684
229.2747, 81.82970
229.7568, 82.26606
230.2389, 82.87973
230.7210, 83.59485
231.2031, 84.13249
231.6852, 84.35824
232.1674, 84.60350
232.6495, 85.04502
233.1316, 85.81541
233.6137, 86.47892
234.0958, 86.96760
234.5779, 87.34849
235.0601, 87.79053
235.5422, 88.26408
236.0243, 88.85054
236.5064, 89.63375
236.9885, 90.85371
237.4706, 91.70509
237.9528, 91.92562
238.4349, 91.83801
238.9170, 92.29898
239.3991, 93.72846
239.8812, 95.07785
240.3633, 95.85081
240.8455, 95.67596
241.3276, 95.85435
241.8097, 96.51381
242.2918, 97.47660
242.7739, 98.35991
243.2560, 99.15165
243.7382, 99.88306
244.2203, 100.5623
244.7024, 101.1803
245.1845, 101.7695
245.6666, 102.3122
246.1487, 102.8336
246.6309, 103.3979
247.1130, 104.0374
247.5951, 104.6667
248.0772, 105.2134
248.5593, 105.5911
249.0414, 106.2440
249.5236, 107.3887
250.0057, 108.6699
250.4878, 109.4647
250.9699, 109.4188
251.4520, 109.5221
251.9341, 110.1528
252.4163, 111.4728
252.8984, 112.5357
253.3805, 113.3271
253.8626, 113.8756
254.3447, 114.1733
254.8268, 114.0892
255.3090, 114.0315
255.7911, 114.1181
256.2732, 114.3641
256.7553, 114.6424
257.2374, 115.0032
257.7195, 115.3482
258.2017, 115.5449
258.6838, 115.5300
259.1659, 115.5117
259.6480, 115.5155
260.1301, 115.5368
260.6122, 115.7404
261.0944, 116.2934
261.5765, 116.8225
262.0586, 116.8348
262.5407, 116.0229
263.0228, 115.5667
263.5049, 115.8547
263.9871, 116.8479
264.4692, 117.4572
264.9513, 117.6066
265.4334, 117.5058
265.9155, 117.2749
266.3976, 116.8098
266.8798, 116.6002
267.3619, 116.8388
267.8440, 117.4442
268.3261, 117.7061
268.8082, 117.5086
269.2903, 117.2107
269.7725, 117.1054
270.2546, 117.2350
270.7367, 117.3435
271.2188, 117.3214
271.7009, 117.2617
272.1830, 117.6614
272.6652, 118.7000
273.1473, 119.6965
273.6294, 120.1390
274.1115, 119.9253
274.5936, 119.7582
275.0757, 119.6964
275.5579, 119.7300
276.0400, 119.8272
276.5221, 119.9806
277.0042, 120.2235
277.4863, 120.6129
277.9684, 121.1635
278.4506, 121.6579
278.9327, 122.0959
279.4148, 122.4533
279.8969, 122.6395
280.3790, 122.6294
280.8611, 122.6316
281.3433, 122.7823
281.8254, 123.0811
282.3075, 123.3169
282.7896, 123.4971
283.2717, 123.5898
283.7538, 123.5376
284.2360, 123.3391
284.7181, 123.0461
285.2002, 122.6376
285.6823, 122.1314
286.1644, 121.7128
286.6465, 121.4103
287.1287, 121.1037
287.6108, 120.6280
288.0929, 119.9895
288.5750, 119.3125
289.0571, 118.5611
289.5392, 117.8020
290.0214, 117.3994
290.5035, 117.3959
290.9856, 117.4080
291.4677, 117.0151
291.9498, 116.2647
292.4319, 115.4504
292.9141, 114.5582
293.3962, 113.7098
293.8783, 113.3191
294.3604, 113.3967
294.8425, 113.4027
295.3246, 112.7351
295.8068, 111.5883
296.2889, 110.6209
296.7710, 109.9871
297.2531, 109.5977
297.7352, 109.3572
298.2173, 109.2571
298.6995, 109.2186
299.1816, 109.2800
299.6637, 109.3544
300.1458, 109.2557
300.6279, 108.9360
301.1100, 108.4597
301.5922, 107.7487
302.0743, 106.8943
302.5564, 106.2722
303.0385, 106.3114
303.5206, 106.6463
304.0027, 106.7203
304.4849, 106.4102
304.9670, 106.0465
305.4491, 105.9581
305.9312, 106.0638
306.4133, 106.1690
306.8954, 106.2754
307.3776, 106.2842
307.8597, 106.0184
308.3418, 105.4390
308.8239, 104.9170
309.3060, 104.7285
309.7881, 104.7771
310.2703, 104.9145
310.7524, 105.0779
311.2345, 105.3105
311.7166, 105.7142
312.1987, 106.2786
312.6808, 106.7309
313.1630, 106.6514
313.6451, 106.4810
314.1272, 106.6968
314.6093, 107.8492
315.0914, 109.0445
315.5735, 109.8950
316.0557, 110.4215
316.5378, 110.7380
317.0199, 110.6509
317.5020, 110.5126
317.9841, 110.5785
318.4662, 110.9402
318.9484, 111.4621
319.4305, 112.2489
319.9126, 113.1784
320.3947, 113.9281
320.8768, 114.4593
321.3589, 114.7472
321.8411, 114.6677
322.3232, 113.8546
322.8053, 113.5449
323.2874, 114.4680
323.7695, 115.9475
324.2516, 116.9121
324.7338, 116.9420
325.2159, 116.6686
325.6980, 116.1681
326.1801, 115.3228
326.6622, 114.8074
327.1443, 114.9865
327.6265, 115.3745
328.1086, 115.4831
328.5907, 115.0235
329.0728, 114.6009
329.5549, 114.3934
330.0370, 114.4049
330.5192, 114.0945
331.0013, 113.2321
331.4834, 112.2423
331.9655, 111.4001
332.4476, 110.7215
332.9297, 110.1692
333.4119, 109.8182
333.8940, 109.6011
334.3761, 109.2196
334.8582, 108.6224
335.3403, 107.9547
335.8224, 107.2953
336.3046, 106.6693
336.7867, 105.9681
337.2688, 105.1847
337.7509, 104.3231
338.2330, 103.3180
338.7151, 102.0813
339.1973, 101.0080
339.6794, 100.3728
340.1615, 100.2239
340.6436, 99.48100
341.1257, 97.94116
341.6078, 96.27190
342.0900, 95.46419
342.5721, 95.61160
343.0542, 95.54372
343.5363, 94.85972
344.0184, 93.69947
344.5005, 92.60953
344.9827, 91.59750
345.4648, 90.66807
345.9469, 89.89011
346.4290, 89.22935
346.9111, 88.49451
347.3932, 87.60876
347.8754, 86.67139
348.3575, 85.91843
348.8396, 85.33636
349.3217, 84.74585
349.8038, 83.96983
350.2859, 83.10181
350.7681, 82.42090
351.2502, 82.01285
351.7323, 81.58495
352.2144, 80.78005
352.6965, 79.66990
353.1786, 78.49446
353.6608, 77.15607
354.1429, 75.92032
354.6250, 75.29077
355.1071, 75.31091
355.5892, 75.19495
356.0714, 74.12646
356.5535, 72.57754
357.0356, 71.24734
357.5177, 70.61137
357.9998, 70.09368
358.4819, 69.31632
358.9641, 68.30730
359.4462, 67.23687
359.9283, 66.04534
360.4104, 64.90926
360.8925, 63.98054
361.3746, 63.33881
361.8568, 62.82694
362.3389, 62.51255
362.8210, 62.28484
363.3031, 61.88611
363.7852, 61.10360
364.2673, 60.23743
364.7495, 59.42392
365.2316, 58.69230
365.7137, 57.95532
366.1958, 57.08467
366.6779, 56.24650
367.1600, 55.62836
367.6422, 55.53845
368.1243, 55.37366
368.6064, 54.98202
369.0885, 54.34761
369.5706, 53.74691
370.0527, 53.10313
370.5349, 52.54916
371.0170, 52.18127
371.4991, 52.19802
371.9812, 52.06618
372.4633, 51.68365
372.9454, 51.12927
373.4276, 50.69302
373.9097, 50.42485
374.3918, 50.17967
374.8739, 49.87291
375.3560, 49.45002
375.8381, 49.22941
376.3203, 49.31898
376.8024, 49.47358
377.2845, 49.25611
377.7666, 48.58247
378.2487, 48.00310
378.7308, 47.71942
379.2130, 47.69167
379.6951, 47.71799
380.1772, 47.81705
380.6593, 47.87372
381.1414, 47.76037
381.6235, 47.49329
382.1057, 47.20119
382.5878, 46.88322
383.0699, 46.59431
383.5520, 46.43750
384.0341, 46.40756
384.5162, 46.46461
384.9984, 46.71430
385.4805, 47.01561
385.9626, 47.01112
386.4447, 46.61865
386.9268, 46.17385
387.4089, 46.00247
387.8911, 46.03883
388.3732, 46.13989
388.8553, 46.41222
389.3374, 46.61241
389.8195, 46.42739
390.3016, 45.88017
390.7838, 45.33428
391.2659, 44.89063
391.7480, 44.62361
392.2301, 44.62888
392.7122, 45.11263
393.1943, 45.62449
393.6765, 46.07892
394.1586, 46.41183
394.6407, 46.43533
395.1228, 45.72262
395.6049, 44.97623
396.0870, 44.56481
396.5692, 44.63899
397.0513, 44.70594
397.5334, 44.72816
398.0155, 44.67447
398.4976, 44.50640
398.9797, 43.98899
399.4619, 43.60315
399.9440, 43.50970
400.4261, 43.70617
400.9082, 43.74503
401.3903, 43.47959
401.8724, 43.19454
402.3546, 43.08211
402.8367, 43.25422
403.3188, 43.35516
403.8009, 43.34885
404.2830, 43.26706
404.7651, 43.23357
405.2473, 43.34505
405.7294, 43.22352
406.2115, 42.53965
406.6936, 41.26648
407.1757, 40.69554
407.6578, 40.98897
408.1400, 41.54463
408.6221, 41.62653
409.1042, 41.24730
409.5863, 40.99303
410.0684, 41.08209
410.5505, 41.34432
411.0327, 41.36704
411.5148, 41.15557
411.9969, 40.88655
412.4790, 40.56200
412.9611, 40.27925
413.4432, 40.35731
413.9254, 40.93043
414.4075, 41.50741
414.8896, 41.52778
415.3717, 41.14332
415.8538, 40.70629
416.3359, 40.28469
416.8181, 39.95237
417.3002, 39.84490
417.7823, 39.95288
418.2644, 40.01313
418.7465, 39.75218
419.2286, 39.42496
419.7108, 39.28558
420.1929, 39.50543
420.6750, 39.77651
421.1571, 40.11228
421.6392, 40.42218
422.1213, 40.46130
422.6035, 39.81181
423.0856, 39.18221
423.5677, 38.88994
424.0498, 39.07081
424.5319, 39.19611
425.0140, 39.15204
425.4962, 39.07096
425.9783, 39.09784
426.4604, 39.45542
426.9425, 39.58438
427.4246, 39.27068
427.9067, 38.61275
428.3889, 38.34362
428.8710, 38.62539
429.3531, 39.00859
429.8352, 39.28115
430.3173, 39.45142
430.7994, 39.40450
431.2816, 39.05055
431.7637, 38.61757
432.2458, 38.49626
432.7279, 38.70100
433.2100, 38.97876
433.6921, 39.32604
434.1743, 39.66471
434.6564, 39.63409
435.1385, 39.22285
435.6206, 38.77722
436.1027, 38.63196
436.5848, 38.68531
437.0670, 38.65538
437.5491, 38.47337
438.0312, 38.23353
438.5133, 37.94999
438.9954, 37.68147
439.4775, 37.59064
439.9597, 38.02908
440.4418, 38.51362
440.9239, 38.56700
441.4060, 38.16197
441.8881, 37.68474
442.3702, 37.15335
442.8524, 36.75426
443.3345, 36.67296
443.8166, 37.35625
444.2987, 37.89695
444.7808, 37.85169
445.2629, 37.42953
445.7451, 37.24253
446.2272, 37.73552
446.7093, 38.20857
447.1914, 38.36016
447.6735, 38.03860
448.1556, 37.87022
448.6378, 38.06093
449.1199, 38.26795
449.6020, 38.09783
450.0841, 37.24971
450.5662, 36.66942
451.0483, 36.55588
451.5305, 36.81615
452.0126, 37.06311
452.4947, 37.32476
452.9768, 37.49316
453.4589, 37.46864
453.9410, 37.24436
454.4232, 37.10270
454.9053, 37.06173
455.3874, 37.05790
455.8695, 36.93871
456.3516, 36.74281
456.8337, 36.78527
457.3159, 37.36488
457.7980, 38.07727
458.2801, 38.07250
458.7622, 37.44623
459.2443, 36.86699
459.7264, 36.91118
460.2086, 37.23336
460.6907, 37.38364
461.1728, 37.28026
461.6549, 37.08831
462.1370, 36.87654
462.6191, 36.66370
463.1013, 36.48207
463.5834, 36.35105
464.0655, 36.24615
464.5476, 36.14065
465.0297, 36.04224
465.5118, 36.01502
465.9940, 36.22864
466.4761, 36.40717
466.9582, 36.38162
467.4403, 35.93003
467.9224, 35.65168
468.4045, 35.69297
468.8867, 35.85614
469.3688, 35.84424
469.8509, 35.51226
470.3330, 35.27295
470.8151, 35.25034
471.2972, 35.41882
471.7794, 35.51820
472.2615, 35.55579
472.7436, 35.50772
473.2257, 35.28141
473.7078, 34.87000
474.1899, 34.72178
474.6721, 34.91938
475.1542, 35.24779
475.6363, 35.41527
476.1184, 35.43440
476.6005, 35.38045
477.0826, 35.20679
477.5648, 35.02385
478.0469, 35.07991
478.5290, 35.34433
479.0111, 35.53881
479.4932, 35.38280
479.9753, 35.08307
480.4575, 34.88572
480.9396, 34.85408
481.4217, 34.86254
481.9038, 34.81771
482.3859, 34.76783
482.8680, 34.78498
483.3502, 34.98967
483.8323, 35.17081
484.3144, 35.23907
484.7965, 35.19904
485.2786, 35.16254
485.7607, 35.04474
486.2429, 35.01550
486.7250, 35.20084
487.2071, 35.90072
487.6892, 36.15055
488.1713, 35.74696
488.6534, 35.03630
489.1356, 34.48158
489.6177, 34.06375
490.0998, 33.86846
490.5819, 33.96473
491.0640, 34.29381
491.5461, 34.57819
492.0283, 34.82628
492.5104, 34.98703
492.9925, 35.07774
493.4746, 35.06585
493.9567, 34.68822
494.4388, 33.85091
494.9210, 33.02690
495.4031, 32.71260
495.8852, 32.82786
496.3673, 33.18698
496.8494, 34.01537
497.3315, 34.77232
497.8137, 34.81231
498.2958, 34.28657
498.7779, 33.81688
499.2600, 33.76548
499.7421, 33.85754
500.2242, 33.90082
500.7064, 33.85396
501.1885, 33.84010
501.6706, 34.02625
502.1527, 34.20711
502.6348, 34.17121
503.1169, 33.62013
503.5991, 33.17492
504.0812, 32.89048
504.5633, 32.76052
505.0454, 32.78822
505.5275, 33.10979
506.0096, 33.35277
506.4918, 33.34333
506.9739, 33.05629
507.4560, 32.79699
507.9381, 32.53862
508.4202, 32.37928
508.9023, 32.46256
509.3845, 32.77453
509.8666, 33.08900
510.3487, 33.39035
510.8308, 33.62757
511.3129, 33.68269
511.7950, 33.58465
512.2772, 33.46791
512.7593, 33.40975
513.2414, 33.36875
513.7235, 33.22878
514.2056, 33.00112
514.6877, 32.93804
515.1699, 33.51978
515.6520, 34.17397
516.1341, 34.31057
516.6162, 33.43451
517.0983, 32.75312
517.5804, 32.81322
518.0626, 33.28654
518.5447, 33.63485
519.0268, 33.73452
519.5089, 33.73637
519.9910, 33.56364
520.4731, 33.24583
520.9553, 33.32825
521.4374, 34.17272
521.9195, 34.87704
522.4016, 34.81637
522.8837, 33.75983
523.3658, 33.21039
523.8480, 33.30495
524.3301, 33.64400
524.8122, 33.68973
525.2943, 33.46131
525.7764, 33.25130
526.2585, 33.11507
526.7407, 33.06947
527.2228, 33.23927
527.7049, 33.57344
528.1870, 33.77050
528.6691, 33.48799
529.1512, 33.05291
529.6334, 32.87455
530.1155, 32.98715
530.5976, 33.10885
531.0797, 32.90479
531.5618, 32.70442
532.0439, 32.86441
532.5261, 33.96906
533.0082, 34.72866
533.4903, 34.56051
533.9724, 33.85365
534.4545, 33.43868
534.9366, 33.65109
535.4188, 33.86573
535.9009, 33.97026
536.3830, 33.96481
536.8651, 33.80431
537.3472, 33.38197
537.8293, 33.01648
538.3115, 32.99070
538.7936, 33.34410
539.2757, 33.45554
539.7578, 33.24778
540.2399, 32.92979
540.7220, 32.76560
541.2042, 32.73875
541.6863, 32.73433
542.1684, 32.68041
542.6505, 32.67491
543.1326, 32.97047
543.6147, 33.46966
544.0969, 33.80628
544.5790, 33.63445
545.0611, 33.28978
545.5432, 33.02531
546.0253, 32.86450
546.5074, 32.75848
546.9896, 32.58062
547.4717, 32.51117
547.9538, 32.70996
548.4359, 33.78564
548.9180, 34.32811
549.4001, 33.86751
549.8823, 32.92797
550.3644, 32.39680
550.8465, 32.44060
551.3286, 32.58054
551.8107, 32.74792
552.2928, 32.92290
552.7750, 32.89635
553.2571, 32.60654
553.7392, 32.41682
554.2213, 32.71208
554.7034, 33.36531
555.1855, 33.59121
555.6677, 33.31096
556.1498, 32.91380
556.6319, 32.80994
557.1140, 32.89514
557.5961, 32.95950
558.0782, 32.94129
558.5604, 32.88600
559.0425, 32.77670
559.5246, 32.65830
560.0067, 32.63286
560.4888, 32.91225
560.9709, 33.13976
561.4531, 33.07321
561.9352, 32.70835
562.4173, 32.52551
562.8994, 32.70963
563.3815, 32.99662
563.8636, 33.28487
564.3458, 33.65434
564.8279, 33.78769
565.3100, 33.60896
565.7921, 33.29241
566.2742, 33.04146
566.7563, 32.85361
567.2385, 32.74524
567.7206, 32.73191
568.2027, 32.78677
568.6848, 32.84800
569.1669, 32.92069
569.6490, 33.03798
570.1312, 33.35428
570.6133, 33.66521
571.0954, 33.59772
571.5775, 33.16830
572.0596, 32.76052
572.5417, 32.61432
573.0239, 32.59846
573.5060, 32.60862
573.9881, 32.63256
574.4702, 32.66358
574.9523, 32.69554
575.4344, 32.73567
575.9166, 32.79440
576.3987, 32.98050
576.8808, 33.03411
577.3629, 32.82672
577.8450, 32.47782
578.3271, 32.40516
578.8093, 32.69685
579.2914, 33.00287
579.7735, 33.18636
580.2556, 33.25625
580.7377, 33.29412
581.2198, 33.29873
581.7020, 33.27591
582.1841, 33.18779
582.6662, 33.07945
583.1483, 33.10014
583.6304, 33.30336
584.1125, 33.44481
584.5947, 33.17864
585.0768, 32.74639
585.5589, 32.50405
586.0410, 32.73644
586.5231, 32.99961
587.0052, 33.18480
587.4874, 33.26559
587.9695, 33.16869
588.4516, 32.61387
588.9337, 32.15493
589.4158, 31.91965
589.8979, 31.90792
590.3801, 32.17781
