##NAMES=Valleriite
##RRUFFID=R080119
##IDEAL CHEMISTRY=2[(Fe,Cu)S]&#183;1.53[(Mg,Al)(OH)_2_]
##LOCALITY=Transvaal, Complexe, Palabora, Sud√°frica
##OWNER=RRUFF
##SOURCE=Joan Abella i Creus
##DESCRIPTION=Dark metallic-bronze grains
##STATUS=The identification of this mineral is not yet confirmed.
##URL=rruff.info/R080119
92.52344, 102.7842
93.00555, 104.8738
93.48767, 104.7348
93.96979, 102.4444
94.45190, 100.7894
94.93402, 99.87195
95.41614, 98.04093
95.89825, 95.38174
96.38037, 92.54654
96.86249, 89.73200
97.34460, 87.70518
97.82672, 87.44308
98.30884, 86.80303
98.79095, 85.28377
99.27307, 83.04395
99.75519, 80.62040
100.2373, 78.63103
100.7194, 76.98154
101.2015, 74.95786
101.6837, 71.71627
102.1658, 68.70228
102.6479, 67.05135
103.1300, 66.81373
103.6121, 67.16430
104.0942, 68.08014
104.5764, 69.14198
105.0585, 69.56948
105.5406, 69.03205
106.0227, 67.66142
106.5048, 65.65356
106.9869, 61.99580
107.4691, 59.14643
107.9512, 58.40782
108.4333, 59.31890
108.9154, 60.73753
109.3975, 62.04517
109.8796, 63.44659
110.3618, 63.36462
110.8439, 60.52120
111.3260, 57.28378
111.8081, 54.58207
112.2902, 52.57551
112.7723, 50.88863
113.2544, 48.98768
113.7366, 46.53788
114.2187, 44.53047
114.7008, 42.88158
115.1829, 41.65532
115.6650, 41.07063
116.1471, 41.21039
116.6293, 41.70030
117.1114, 41.62239
117.5935, 40.63050
118.0756, 39.80923
118.5577, 39.53557
119.0398, 39.63040
119.5220, 39.64003
120.0041, 39.29399
120.4862, 38.80402
120.9683, 38.60344
121.4504, 38.69728
121.9325, 39.05025
122.4147, 39.72603
122.8968, 40.75155
123.3789, 41.77045
123.8610, 42.78451
124.3431, 43.63019
124.8252, 44.09074
125.3074, 44.05144
125.7895, 43.64886
126.2716, 43.10723
126.7537, 42.23779
127.2358, 41.59106
127.7179, 41.48018
128.2001, 41.62218
128.6822, 41.63799
129.1643, 41.27627
129.6464, 40.57024
130.1285, 39.96371
130.6107, 39.63028
131.0928, 39.23211
131.5749, 38.65057
132.0570, 37.93439
132.5391, 37.20023
133.0212, 36.55459
133.5034, 36.00917
133.9855, 35.46903
134.4676, 34.77933
134.9497, 34.21189
135.4318, 33.95527
135.9139, 34.01177
136.3960, 34.21794
136.8782, 34.41890
137.3603, 34.62368
137.8424, 34.74064
138.3245, 34.89891
138.8066, 34.91499
139.2887, 34.48879
139.7709, 33.48709
140.2530, 32.31258
140.7351, 31.42566
141.2172, 30.79376
141.6993, 30.33550
142.1814, 30.14561
142.6636, 30.13837
143.1457, 29.96387
143.6278, 29.37826
144.1099, 28.80556
144.5920, 28.68460
145.0741, 29.00782
145.5563, 29.28682
146.0384, 28.94928
146.5205, 27.87968
147.0026, 27.18961
147.4847, 27.52875
147.9668, 28.01655
148.4490, 28.18948
148.9311, 27.94902
149.4132, 27.49405
149.8953, 27.10412
150.3774, 26.76687
150.8595, 26.53214
151.3417, 26.43117
151.8238, 26.39597
152.3059, 26.39890
152.7880, 26.42489
153.2701, 26.44011
153.7522, 26.35778
154.2344, 26.01589
154.7165, 25.75656
155.1986, 25.64721
155.6807, 25.61135
156.1628, 25.56225
156.6449, 25.45977
157.1271, 25.30425
157.6092, 25.08903
158.0913, 24.73010
158.5734, 24.41466
159.0555, 24.18685
159.5376, 24.04214
160.0198, 23.98006
160.5019, 24.02696
160.9840, 24.14399
161.4661, 24.18418
161.9482, 24.11102
162.4303, 24.00455
162.9125, 23.92414
163.3946, 23.86775
163.8767, 23.77883
164.3588, 23.56456
164.8409, 23.31600
165.3230, 23.19298
165.8052, 23.29154
166.2873, 23.46372
166.7694, 23.50205
167.2515, 23.36493
167.7336, 23.23636
168.2157, 23.22339
168.6979, 23.26561
169.1800, 23.29864
169.6621, 23.30097
170.1442, 23.27255
170.6263, 23.19598
171.1084, 22.97786
171.5906, 22.87132
172.0727, 23.13230
172.5548, 23.50606
173.0369, 23.59661
173.5190, 23.09140
174.0011, 22.10068
174.4833, 21.56158
174.9654, 22.12206
175.4475, 22.51687
175.9296, 22.31931
176.4117, 21.76164
176.8938, 21.31868
177.3760, 21.37777
177.8581, 21.96115
178.3402, 22.16945
178.8223, 21.65457
179.3044, 21.15151
179.7865, 20.90724
180.2687, 20.90195
180.7508, 21.00744
181.2329, 21.12833
181.7150, 21.26846
182.1971, 21.36008
182.6792, 21.42556
183.1614, 21.43425
183.6435, 21.29792
184.1256, 21.04115
184.6077, 20.85908
185.0898, 20.95131
185.5719, 21.34261
186.0541, 21.66059
186.5362, 21.93197
187.0183, 22.10695
187.5004, 22.09926
187.9825, 21.89191
188.4646, 21.64642
188.9468, 21.53054
189.4289, 21.50743
189.9110, 21.41949
190.3931, 21.14988
190.8752, 20.81944
191.3573, 20.61436
191.8395, 20.56397
192.3216, 20.59758
192.8037, 20.70410
193.2858, 20.85278
193.7679, 20.97246
194.2500, 21.03070
194.7322, 21.03537
195.2143, 21.00650
195.6964, 20.92220
196.1785, 20.83819
196.6606, 20.77839
197.1427, 20.74080
197.6249, 20.72335
198.1070, 20.73948
198.5891, 20.78243
199.0712, 20.77517
199.5533, 20.59925
200.0354, 20.51018
200.5176, 20.69656
200.9997, 21.05039
201.4818, 21.32826
201.9639, 21.31181
202.4460, 20.99169
202.9281, 20.76636
203.4103, 20.71899
203.8924, 20.69964
204.3745, 20.66449
204.8566, 20.62030
205.3387, 20.59793
205.8208, 20.62638
206.3030, 20.71147
206.7851, 20.79660
207.2672, 20.93869
207.7493, 21.02989
208.2314, 20.98120
208.7135, 20.82861
209.1957, 20.68795
209.6778, 20.66464
210.1599, 20.77344
210.6420, 20.90049
211.1241, 21.09672
211.6062, 21.26371
212.0884, 21.35752
212.5705, 21.37444
213.0526, 21.32391
213.5347, 21.20085
214.0168, 20.99310
214.4989, 20.84044
214.9811, 20.75277
215.4632, 20.70593
215.9453, 20.67264
216.4274, 20.65555
216.9095, 20.70011
217.3916, 20.86666
217.8737, 21.15861
218.3559, 21.38806
218.8380, 21.45967
219.3201, 21.52932
219.8022, 21.79350
220.2843, 22.26639
220.7664, 22.66872
221.2486, 22.74216
221.7307, 22.54292
222.2128, 22.32576
222.6949, 22.12296
223.1770, 21.91899
223.6591, 21.64483
224.1413, 21.26967
224.6234, 21.02597
225.1055, 21.22325
225.5876, 21.66679
226.0697, 22.01065
226.5518, 22.12461
227.0340, 22.11007
227.5161, 22.12210
227.9982, 22.18328
228.4803, 22.19025
228.9624, 21.94160
229.4445, 21.63241
229.9267, 21.54741
230.4088, 21.88015
230.8909, 22.42056
231.3730, 22.75886
231.8551, 22.82662
232.3372, 22.85959
232.8194, 22.95762
233.3015, 23.08071
233.7836, 23.17872
234.2657, 23.22257
234.7478, 23.24336
235.2299, 23.30714
235.7121, 23.41138
236.1942, 23.57161
236.6763, 23.86057
237.1584, 24.17179
237.6405, 24.37399
238.1227, 24.39764
238.6048, 24.33413
239.0869, 24.44189
239.5690, 24.92086
240.0511, 25.21173
240.5332, 25.10922
241.0154, 24.84341
241.4975, 24.60855
241.9796, 24.48536
242.4617, 24.48588
242.9438, 24.66314
243.4259, 25.21953
243.9081, 25.63404
244.3902, 25.81146
244.8723, 25.85513
245.3544, 25.84890
245.8365, 25.82733
246.3186, 25.79290
246.8008, 25.74841
247.2829, 25.66058
247.7650, 25.61453
248.2471, 25.65917
248.7292, 25.72109
249.2113, 25.72821
249.6935, 25.65710
250.1756, 25.54288
250.6577, 25.45339
251.1398, 25.40243
251.6219, 25.36018
252.1040, 25.35072
252.5862, 25.33710
253.0683, 25.27783
253.5504, 25.16350
254.0325, 25.02869
254.5146, 24.93397
254.9967, 24.94594
255.4789, 24.86728
255.9610, 24.50129
256.4431, 24.15760
256.9252, 24.18956
257.4073, 24.65891
257.8894, 25.22569
258.3716, 25.42399
258.8537, 25.05768
259.3358, 24.79896
259.8179, 24.64892
260.3000, 24.60396
260.7821, 24.75856
261.2643, 25.10681
261.7464, 25.36447
262.2285, 25.17487
262.7106, 24.39459
263.1927, 23.84237
263.6748, 23.65586
264.1570, 23.62289
264.6391, 23.57978
265.1212, 23.50666
265.6033, 23.45653
266.0854, 23.48255
266.5675, 23.59132
267.0497, 23.70853
267.5318, 23.87823
268.0139, 24.02372
268.4960, 24.07061
268.9781, 24.01834
269.4602, 23.94317
269.9424, 23.91389
270.4245, 23.91222
270.9066, 23.83052
271.3887, 23.50327
271.8708, 23.21863
272.3529, 23.27170
272.8351, 23.63410
273.3172, 23.94831
273.7993, 24.02046
274.2814, 23.86012
274.7635, 23.57857
275.2456, 22.98363
275.7278, 22.48570
276.2099, 22.45908
276.6920, 22.84908
277.1741, 23.20415
277.6562, 23.29237
278.1383, 23.22345
278.6205, 23.24873
279.1026, 23.40916
279.5847, 23.57555
280.0668, 23.69308
280.5489, 23.75534
281.0310, 23.69444
281.5132, 23.37760
281.9953, 23.04205
282.4774, 23.05142
282.9595, 23.46775
283.4416, 23.85522
283.9237, 23.92765
284.4059, 23.74585
284.8880, 23.54818
285.3701, 23.34350
285.8522, 23.21245
286.3343, 23.27136
286.8164, 23.50934
287.2986, 23.70700
287.7807, 23.72021
288.2628, 23.59784
288.7449, 23.50150
289.2270, 23.46675
289.7091, 23.43516
290.1913, 23.35046
290.6734, 23.22624
291.1555, 23.10815
291.6376, 23.04400
292.1197, 22.99945
292.6018, 22.85738
293.0840, 22.53757
293.5661, 22.30494
294.0482, 22.44502
294.5303, 22.78312
295.0124, 22.99984
295.4945, 22.90839
295.9767, 22.65606
296.4588, 22.50787
296.9409, 22.48956
297.4230, 22.48747
297.9051, 22.33373
298.3872, 22.19416
298.8694, 22.32399
299.3515, 22.91395
299.8336, 23.59505
300.3157, 23.86073
300.7978, 23.65527
301.2799, 23.37313
301.7621, 23.03395
302.2442, 22.75504
302.7263, 22.65889
303.2084, 22.78045
303.6905, 23.01007
304.1726, 23.29118
304.6548, 23.63012
305.1369, 23.83977
305.6190, 23.73834
306.1011, 23.60052
306.5832, 23.71201
307.0653, 24.07654
307.5475, 24.33014
308.0296, 23.99108
308.5117, 23.13960
308.9938, 22.78248
309.4759, 23.35342
309.9580, 24.10762
310.4402, 24.61716
310.9223, 24.88721
311.4044, 24.97185
311.8865, 24.73640
312.3686, 24.30182
312.8507, 24.23690
313.3329, 24.75098
313.8150, 25.29421
314.2971, 25.64498
314.7792, 25.81207
315.2613, 25.79079
315.7434, 25.50275
316.2256, 25.07488
316.7077, 24.76723
317.1898, 24.57924
317.6719, 24.51184
318.1540, 24.66806
318.6361, 24.90132
319.1183, 25.05204
319.6004, 25.06331
320.0825, 25.00694
320.5646, 24.96442
321.0467, 24.93171
321.5288, 24.93955
322.0110, 25.03415
322.4931, 25.15294
322.9752, 25.28142
323.4573, 25.41967
323.9394, 25.46653
324.4215, 25.25379
324.9037, 24.79026
325.3858, 24.47579
325.8679, 24.52899
326.3500, 24.60009
326.8321, 24.38496
327.3142, 23.92800
327.7964, 23.53386
328.2785, 23.46395
328.7606, 23.64603
329.2427, 23.72837
329.7248, 23.67519
330.2069, 23.54718
330.6891, 23.30206
331.1712, 23.01757
331.6533, 22.87468
332.1354, 23.08343
332.6175, 23.41982
333.0996, 23.37090
333.5818, 22.80350
334.0639, 22.28021
334.5460, 22.12333
335.0281, 22.15639
335.5102, 22.23328
335.9923, 22.36934
336.4745, 22.41754
336.9566, 22.10976
337.4387, 21.41604
337.9208, 20.90186
338.4029, 20.87388
338.8850, 21.02870
339.3671, 21.09759
339.8492, 21.06116
340.3314, 20.92628
340.8135, 20.62083
341.2956, 20.18541
341.7777, 19.90455
342.2598, 19.89646
342.7419, 19.96106
343.2241, 19.94294
343.7062, 19.84911
344.1883, 19.70471
344.6704, 19.45735
345.1525, 19.17768
345.6346, 19.04442
346.1168, 19.10999
346.5989, 19.18188
347.0810, 19.10287
347.5631, 18.93541
348.0452, 18.78023
348.5273, 18.66782
349.0095, 18.57397
349.4916, 18.46520
349.9737, 18.34111
350.4558, 18.24405
350.9379, 18.22363
351.4200, 18.22445
351.9022, 18.16216
352.3843, 18.02771
352.8664, 17.84536
353.3485, 17.55621
353.8306, 17.21338
354.3127, 17.07138
354.7949, 17.30728
355.2770, 17.58706
355.7591, 17.43096
356.2412, 16.85247
356.7233, 16.32904
357.2054, 15.99252
357.6876, 15.82879
358.1697, 15.89607
358.6518, 16.24242
359.1339, 16.52536
359.6160, 16.36662
360.0981, 15.85512
360.5803, 15.48727
361.0624, 15.38233
361.5445, 15.39777
362.0266, 15.48954
362.5087, 15.63340
362.9908, 15.65737
363.4730, 15.42384
363.9551, 15.02596
364.4372, 14.75494
364.9193, 14.65502
365.4014, 14.59523
365.8835, 14.51141
366.3657, 14.43144
366.8478, 14.44512
367.3299, 14.60618
367.8120, 14.76872
368.2941, 14.65759
368.7762, 14.18256
369.2584, 13.85341
369.7405, 13.82277
370.2226, 13.92101
370.7047, 14.01848
371.1868, 14.08949
371.6689, 14.10281
372.1511, 14.01937
372.6332, 13.83320
373.1153, 13.68123
373.5974, 13.58635
374.0795, 13.49823
374.5616, 13.36273
375.0438, 13.21220
375.5259, 13.14727
376.0080, 13.23897
376.4901, 13.41825
376.9722, 13.43629
377.4543, 13.10302
377.9365, 12.85634
378.4186, 12.77179
378.9007, 12.78128
379.3828, 12.82868
379.8649, 12.89353
380.3470, 12.95747
380.8292, 12.99737
381.3113, 13.01893
381.7934, 12.99140
382.2755, 12.86247
382.7576, 12.73640
383.2397, 12.65290
383.7219, 12.62338
384.2040, 12.67571
384.6861, 12.85309
385.1682, 13.13690
385.6503, 13.21809
386.1324, 12.82539
386.6146, 12.52349
387.0967, 12.43354
387.5788, 12.48238
388.0609, 12.59522
388.5430, 12.73897
389.0251, 12.87355
389.5073, 12.91968
389.9894, 12.86557
390.4715, 12.73799
390.9536, 12.38261
391.4357, 12.08387
391.9178, 12.07370
392.4000, 12.33722
392.8821, 12.65182
393.3642, 12.81463
393.8463, 12.82288
394.3284, 12.76236
394.8105, 12.53458
395.2927, 12.35110
395.7748, 12.28587
396.2569, 12.31090
396.7390, 12.39992
397.2211, 12.57215
397.7032, 12.73087
398.1854, 12.59456
398.6675, 11.99895
399.1496, 11.60791
399.6317, 11.81870
400.1138, 12.17567
400.5959, 12.33794
401.0781, 12.24835
401.5602, 12.08980
402.0423, 12.04578
402.5244, 12.09993
403.0065, 12.04568
403.4886, 11.75024
403.9708, 11.50659
404.4529, 11.62396
404.9350, 11.96333
405.4171, 12.12369
405.8992, 11.75046
406.3813, 11.19287
406.8635, 11.04646
407.3456, 11.35599
407.8277, 11.66511
408.3098, 11.74444
408.7919, 11.68780
409.2740, 11.66810
409.7562, 11.72229
410.2383, 11.74141
410.7204, 11.63212
411.2025, 11.43357
411.6846, 11.24560
412.1667, 11.07744
412.6489, 10.96981
413.1310, 11.01456
413.6131, 11.20692
414.0952, 11.33796
414.5773, 11.34009
415.0594, 11.28729
415.5416, 11.23973
416.0237, 11.20130
416.5058, 11.15941
416.9879, 11.10508
417.4700, 11.04068
417.9521, 10.97923
418.4343, 10.91541
418.9164, 10.86011
419.3985, 10.79638
419.8806, 10.74877
420.3627, 10.76602
420.8448, 10.86294
421.3270, 10.99021
421.8091, 11.08093
422.2912, 11.14554
422.7733, 11.12695
423.2554, 10.92340
423.7375, 10.73164
424.2197, 10.63696
424.7018, 10.65629
425.1839, 10.82576
425.6660, 11.20346
426.1481, 11.72274
426.6302, 11.92215
427.1124, 11.34216
427.5945, 10.99925
428.0766, 11.25400
428.5587, 11.68004
429.0408, 11.83037
429.5229, 11.57706
430.0051, 11.13999
430.4872, 10.79774
430.9693, 10.54406
431.4514, 10.41645
431.9335, 10.47290
432.4156, 10.61485
432.8978, 10.90127
433.3799, 11.24836
433.8620, 11.47017
434.3441, 11.43029
434.8262, 11.20147
435.3083, 10.96281
435.7905, 10.66843
436.2726, 10.49544
436.7547, 10.68019
437.2368, 10.92306
437.7189, 10.89813
438.2010, 10.52423
438.6832, 10.19015
439.1653, 10.32385
439.6474, 10.82144
440.1295, 11.11194
440.6116, 11.06508
441.0938, 10.87845
441.5759, 10.63513
442.0580, 10.37566
442.5401, 10.24922
443.0222, 10.45564
443.5043, 10.70495
443.9865, 10.63828
444.4686, 10.29677
444.9507, 10.06900
445.4328, 10.17156
445.9149, 10.46449
446.3970, 10.61967
446.8792, 10.58709
447.3613, 10.58755
447.8434, 10.81450
448.3255, 11.04503
448.8076, 10.91668
449.2897, 10.39234
449.7719, 9.878672
450.2540, 9.776511
450.7361, 10.11158
451.2182, 10.34067
451.7003, 10.38956
452.1824, 10.43115
452.6646, 10.54437
453.1467, 10.69004
453.6288, 10.81041
454.1109, 10.88052
454.5930, 10.88467
455.0751, 10.77446
455.5573, 10.40690
456.0394, 10.21069
456.5215, 10.33452
457.0036, 10.47403
457.4857, 10.40058
457.9678, 10.16428
458.4500, 9.997777
458.9321, 10.10472
459.4142, 10.42205
459.8963, 10.57352
460.3784, 10.48509
460.8605, 10.35530
461.3427, 10.21483
461.8248, 10.07554
462.3069, 9.935495
462.7890, 9.794490
463.2711, 9.695754
463.7532, 9.679982
464.2354, 9.746100
464.7175, 9.915982
465.1996, 10.33092
465.6817, 10.62263
466.1638, 10.37983
466.6459, 9.814704
467.1281, 9.469907
467.6102, 9.646600
468.0923, 10.01057
468.5744, 10.24589
469.0565, 10.35588
469.5386, 10.34661
470.0208, 10.19450
470.5029, 9.956216
470.9850, 9.706470
471.4671, 9.420270
471.9492, 9.235449
472.4313, 9.240286
472.9135, 9.331504
473.3956, 9.403722
473.8777, 9.446586
474.3598, 9.494889
474.8419, 9.572860
475.3240, 9.679980
475.8062, 9.810129
476.2883, 10.06311
476.7704, 10.21513
477.2525, 10.14892
477.7346, 9.988768
478.2167, 9.896557
478.6989, 9.909822
479.1810, 9.923776
479.6631, 9.777079
480.1452, 9.400606
480.6273, 9.225823
481.1094, 9.446588
481.5916, 9.673055
482.0737, 9.786160
482.5558, 9.816167
483.0379, 9.832127
483.5200, 9.867658
484.0021, 9.903391
484.4843, 9.889498
484.9664, 9.804782
485.4485, 9.772075
485.9306, 9.935699
486.4127, 10.05164
486.8948, 9.916565
487.3770, 9.564502
487.8591, 9.221296
488.3412, 8.964064
488.8233, 8.817615
489.3054, 8.860589
489.7875, 9.107074
490.2697, 9.414196
490.7518, 9.798234
491.2339, 10.14129
491.7160, 10.23261
492.1981, 10.01428
492.6802, 9.714540
493.1624, 9.315883
493.6445, 8.937242
494.1266, 8.753073
494.6087, 8.792355
495.0908, 9.022196
495.5729, 9.489368
496.0551, 10.18233
496.5372, 10.45958
497.0193, 10.04529
497.5014, 9.605189
497.9835, 9.264685
498.4656, 9.047621
498.9478, 9.003606
499.4299, 9.140002
499.9120, 9.355618
500.3941, 9.511386
500.8762, 9.608649
501.3583, 9.642901
501.8405, 9.553497
502.3226, 9.462519
502.8047, 9.440664
503.2868, 9.444161
503.7689, 9.373279
504.2510, 9.163483
504.7331, 8.921812
505.2152, 8.868656
505.6974, 9.041864
506.1795, 9.164755
506.6616, 9.121976
507.1437, 9.069009
507.6258, 9.120852
508.1079, 9.267569
508.5901, 9.437677
509.0722, 9.675164
509.5543, 9.877269
510.0364, 9.842618
510.5185, 9.575112
511.0006, 9.353863
511.4828, 9.329516
511.9649, 9.412676
512.4470, 9.391274
512.9291, 9.198339
513.4113, 9.138368
513.8934, 9.491715
514.3755, 9.893661
514.8576, 9.897343
515.3397, 9.509952
515.8218, 9.106378
516.3040, 8.960082
516.7861, 9.042042
517.2682, 9.143193
517.7503, 9.344000
518.2324, 9.460890
518.7145, 9.458848
519.1967, 9.377191
519.6788, 9.211618
520.1609, 8.986269
520.6430, 8.796858
521.1251, 8.736295
521.6072, 8.803096
522.0894, 8.967769
522.5715, 9.400207
523.0536, 9.652739
523.5357, 9.417038
524.0178, 9.013999
524.4999, 8.825953
524.9821, 8.960589
525.4642, 9.190759
525.9463, 9.350338
526.4284, 9.436939
526.9105, 9.425952
527.3926, 9.286846
527.8748, 9.131211
528.3569, 9.061148
528.8390, 9.046453
529.3211, 8.977344
529.8032, 8.702616
530.2853, 8.531952
530.7675, 8.773497
531.2496, 9.215304
531.7317, 9.396968
532.2138, 9.181697
532.6959, 8.872075
533.1780, 8.851397
533.6602, 9.184259
534.1423, 9.406766
534.6244, 9.495143
535.1065, 9.520133
535.5886, 9.460463
536.0707, 9.368677
536.5529, 9.330335
537.0350, 9.377749
537.5171, 9.445850
537.9992, 9.435076
538.4813, 9.340298
538.9634, 9.189340
539.4456, 8.885584
539.9277, 8.635789
540.4098, 8.537384
540.8919, 8.560493
541.3740, 8.648798
541.8561, 8.799424
542.3383, 8.965508
542.8204, 9.084668
543.3025, 9.162151
543.7846, 9.258573
544.2667, 9.412382
544.7488, 9.541936
545.2310, 9.488474
545.7131, 9.282362
546.1952, 9.253228
546.6773, 9.704848
547.1594, 10.11181
547.6415, 10.02069
548.1237, 9.613299
548.6058, 9.368121
549.0879, 9.480870
549.5700, 9.778070
550.0521, 9.984308
550.5342, 10.08939
551.0164, 10.12458
551.4985, 10.05182
551.9806, 9.959561
552.4627, 9.848001
552.9448, 9.752096
553.4269, 9.745020
553.9091, 9.868212
554.3912, 10.02480
554.8733, 10.03668
555.3554, 9.883116
555.8375, 9.722795
556.3196, 9.541765
556.8018, 9.399333
557.2839, 9.311992
557.7660, 9.286479
558.2481, 9.352795
558.7302, 9.612240
559.2123, 9.859280
559.6945, 9.847053
560.1766, 9.627783
560.6587, 9.433432
561.1408, 9.335375
561.6229, 9.280476
562.1050, 9.200094
562.5872, 9.086741
563.0693, 9.012476
563.5514, 8.979601
564.0335, 8.984882
564.5156, 9.037006
564.9977, 9.124018
565.4799, 9.259080
565.9620, 9.443058
566.4441, 9.576066
566.9262, 9.454074
567.4083, 8.952616
567.8904, 8.703112
568.3726, 8.969684
568.8547, 9.225055
569.3368, 9.309707
569.8189, 9.258307
570.3010, 9.110697
570.7831, 8.855511
571.2653, 8.639689
571.7474, 8.710128
572.2295, 9.016717
572.7116, 9.119647
573.1937, 8.872109
573.6758, 8.604254
574.1580, 8.637682
574.6401, 8.888639
575.1222, 9.026767
575.6043, 8.926385
576.0864, 8.815062
576.5685, 8.814281
577.0507, 8.873704
577.5328, 8.909930
578.0149, 8.902414
578.4970, 8.885988
578.9791, 8.907084
579.4612, 8.971004
579.9434, 8.938874
580.4255, 8.606035
580.9076, 8.419836
581.3897, 8.612678
581.8718, 8.914104
582.3539, 9.010036
582.8361, 8.840013
583.3182, 8.607819
583.8003, 8.508998
584.2824, 8.527849
584.7645, 8.561311
585.2466, 8.630376
585.7288, 8.649282
586.2108, 8.493013
586.6929, 8.300654
587.1750, 8.285504
587.6572, 8.495230
588.1393, 8.737334
588.6214, 8.997900
589.1035, 9.203490
589.5856, 9.212292
590.0677, 9.034021
590.5499, 8.842338
591.0320, 8.735076
