##NAMES=Vanadiocarpholite
##RRUFFID=R080099
##IDEAL CHEMISTRY=Mn^2+^V^3+^AlSi_2_O_6_(OH)_4_
##LOCALITY=Molinello mine, Graveglia Valley, Ne, Genova Province, Liguria, Italy
##OWNER=RRUFF
##SOURCE=Michael Scott
##DESCRIPTION=Yellow brown fibrous, associated with quartz crystals on matrix
##STATUS=The identification of this mineral has been confirmed only by single crystal X-ray diffraction.
##URL=rruff.info/R080099
92.52344, 133.4799
93.00555, 134.7681
93.48767, 134.7346
93.96979, 134.5568
94.45190, 134.9089
94.93402, 135.9887
95.41614, 135.3107
95.89825, 132.7512
96.38037, 129.1263
96.86249, 124.9252
97.34460, 121.8169
97.82672, 120.3860
98.30884, 119.2766
98.79095, 118.5582
99.27307, 117.8499
99.75519, 116.6148
100.2373, 114.8637
100.7194, 112.7804
101.2015, 110.9079
101.6837, 109.2178
102.1658, 107.6638
102.6479, 106.0721
103.1300, 104.3753
103.6121, 103.1050
104.0942, 102.8787
104.5764, 103.3120
105.0585, 103.9577
105.5406, 104.6617
106.0227, 105.4531
106.5048, 106.4995
106.9869, 108.2151
107.4691, 109.5055
107.9512, 109.9489
108.4333, 109.6326
108.9154, 108.7788
109.3975, 107.2922
109.8796, 104.9208
110.3618, 103.5480
110.8439, 103.8410
111.3260, 104.5376
111.8081, 105.2627
112.2902, 105.8890
112.7723, 106.4040
113.2544, 106.8230
113.7366, 107.4388
114.2187, 107.2914
114.7008, 105.6590
115.1829, 103.6875
115.6650, 102.5159
116.1471, 102.5539
116.6293, 103.2212
117.1114, 103.1120
117.5935, 101.7089
118.0756, 100.6123
118.5577, 100.2192
119.0398, 100.4085
119.5220, 100.9756
120.0041, 102.0498
120.4862, 103.2406
120.9683, 103.6891
121.4504, 102.9795
121.9325, 102.2365
122.4147, 102.5583
122.8968, 104.0530
123.3789, 105.2886
123.8610, 105.2925
124.3431, 104.7290
124.8252, 104.1350
125.3074, 103.6294
125.7895, 103.2368
126.2716, 102.9969
126.7537, 102.8736
127.2358, 103.0089
127.7179, 103.5821
128.2001, 104.3571
128.6822, 105.0185
129.1643, 105.3421
129.6464, 105.3669
130.1285, 105.5727
130.6107, 106.4453
131.0928, 107.0408
131.5749, 107.0890
132.0570, 106.6628
132.5391, 105.9706
133.0212, 105.1910
133.5034, 104.3255
133.9855, 103.2968
134.4676, 101.7927
134.9497, 100.4057
135.4318, 99.43279
135.9139, 98.91411
136.3960, 98.75855
136.8782, 98.34261
137.3603, 99.20683
137.8424, 99.74804
138.3245, 99.98359
138.8066, 98.99802
139.2887, 99.58928
139.7709, 99.54865
140.2530, 99.48207
140.7351, 100.2953
141.2172, 99.48730
141.6993, 100.2865
142.1814, 100.4442
142.6636, 100.8955
143.1457, 100.7110
143.6278, 100.7229
144.1099, 101.3708
144.5920, 101.6665
145.0741, 101.5392
145.5563, 102.2067
146.0384, 103.0727
146.5205, 104.1858
147.0026, 105.0689
147.4847, 105.3433
147.9668, 105.5514
148.4490, 105.9272
148.9311, 106.5343
149.4132, 107.3807
149.8953, 108.5010
150.3774, 110.0190
150.8595, 111.5986
151.3417, 113.2551
151.8238, 114.9175
152.3059, 116.4550
152.7880, 117.8216
153.2701, 119.1924
153.7522, 120.9919
154.2344, 123.6564
154.7165, 126.2915
155.1986, 128.9354
155.6807, 131.5204
156.1628, 133.9634
156.6449, 136.2107
157.1271, 138.2958
157.6092, 140.3377
158.0913, 142.1746
158.5734, 144.1644
159.0555, 146.4866
159.5376, 149.0485
160.0198, 151.6269
160.5019, 154.1337
160.9840, 156.5346
161.4661, 158.7410
161.9482, 160.6344
162.4303, 162.4713
162.9125, 164.6406
163.3946, 167.1093
163.8767, 169.0413
164.3588, 169.9828
164.8409, 169.9645
165.3230, 169.0224
165.8052, 166.7906
166.2873, 163.9651
166.7694, 161.5539
167.2515, 159.7498
167.7336, 157.6563
168.2157, 154.5341
168.6979, 150.9618
169.1800, 147.6097
169.6621, 144.8842
170.1442, 142.4709
170.6263, 139.3882
171.1084, 135.0354
171.5906, 130.9728
172.0727, 127.6391
172.5548, 124.8590
173.0369, 122.4039
173.5190, 120.1794
174.0011, 118.1526
174.4833, 116.0459
174.9654, 113.3477
175.4475, 111.0968
175.9296, 109.7463
176.4117, 109.0078
176.8938, 108.3279
177.3760, 107.2838
177.8581, 105.8600
178.3402, 104.6856
178.8223, 104.0103
179.3044, 103.3131
179.7865, 102.3151
180.2687, 101.1121
180.7508, 100.0377
181.2329, 99.41292
181.7150, 99.29391
182.1971, 98.90359
182.6792, 97.94676
183.1614, 97.00497
183.6435, 96.41956
184.1256, 96.20052
184.6077, 96.14949
185.0898, 96.15268
185.5719, 96.20327
186.0541, 96.02964
186.5362, 95.27375
187.0183, 94.49335
187.5004, 94.27868
187.9825, 94.71248
188.4646, 95.29533
188.9468, 95.65559
189.4289, 95.80690
189.9110, 95.75491
190.3931, 95.33150
190.8752, 94.75447
191.3573, 94.35377
191.8395, 94.17311
192.3216, 94.11746
192.8037, 94.11514
193.2858, 94.17176
193.7679, 94.32206
194.2500, 94.72442
194.7322, 95.24819
195.2143, 95.46094
195.6964, 95.24791
196.1785, 94.85933
196.6606, 94.27461
197.1427, 93.63391
197.6249, 93.26439
198.1070, 93.52483
198.5891, 93.73222
199.0712, 94.38326
199.5533, 94.71130
200.0354, 94.73367
200.5176, 93.53492
200.9997, 93.91300
201.4818, 93.65916
201.9639, 93.37941
202.4460, 93.97942
202.9281, 92.95829
203.4103, 93.54433
203.8924, 93.48884
204.3745, 93.72696
204.8566, 93.32926
205.3387, 93.12795
205.8208, 93.56267
206.3030, 93.64520
206.7851, 93.17430
207.2672, 92.49693
207.7493, 92.15282
208.2314, 92.09508
208.7135, 92.29515
209.1957, 92.57443
209.6778, 92.78386
210.1599, 92.92422
210.6420, 92.95538
211.1241, 92.84618
211.6062, 92.67899
212.0884, 92.48006
212.5705, 92.25818
213.0526, 92.02921
213.5347, 91.81963
214.0168, 91.63611
214.4989, 91.31324
214.9811, 90.80777
215.4632, 90.21085
215.9453, 89.56309
216.4274, 88.87151
216.9095, 88.14441
217.3916, 87.34216
217.8737, 86.47806
218.3559, 85.85847
218.8380, 85.77583
219.3201, 85.74995
219.8022, 85.36892
220.2843, 84.60242
220.7664, 83.64665
221.2486, 82.53452
221.7307, 81.33487
222.2128, 80.38018
222.6949, 79.83132
223.1770, 79.48960
223.6591, 79.13976
224.1413, 78.76620
224.6234, 78.44639
225.1055, 78.34145
225.5876, 78.32520
226.0697, 78.15009
226.5518, 77.60632
227.0340, 76.94411
227.5161, 76.57610
227.9982, 76.59199
228.4803, 76.58888
228.9624, 76.32645
229.4445, 75.90564
229.9267, 75.42500
230.4088, 74.88306
230.8909, 74.33489
231.3730, 73.84770
231.8551, 73.34077
232.3372, 73.12100
232.8194, 73.52122
233.3015, 74.18550
233.7836, 74.69357
234.2657, 74.83555
234.7478, 74.78323
235.2299, 74.94050
235.7121, 75.43491
236.1942, 75.88860
236.6763, 76.29504
237.1584, 76.57344
237.6405, 76.59555
238.1227, 76.27974
238.6048, 75.77592
239.0869, 75.48619
239.5690, 75.60219
240.0511, 75.59399
240.5332, 75.16735
241.0154, 74.67006
241.4975, 74.46331
241.9796, 74.70226
242.4617, 75.24857
242.9438, 75.76668
243.4259, 76.28213
243.9081, 76.72200
244.3902, 77.16419
244.8723, 77.49741
245.3544, 77.51775
245.8365, 77.15941
246.3186, 76.68301
246.8008, 76.70473
247.2829, 77.74616
247.7650, 78.55383
248.2471, 79.11903
248.7292, 79.42292
249.2113, 79.28288
249.6935, 78.67567
250.1756, 77.99107
250.6577, 78.01348
251.1398, 79.50822
251.6219, 80.63594
252.1040, 81.31887
252.5862, 81.68946
253.0683, 81.70596
253.5504, 81.39660
254.0325, 81.10599
254.5146, 81.44167
254.9967, 83.12133
255.4789, 84.06849
255.9610, 83.56369
256.4431, 82.74626
256.9252, 82.75092
257.4073, 83.80598
257.8894, 85.08935
258.3716, 85.43143
258.8537, 84.17505
259.3358, 83.73778
259.8179, 84.81622
260.3000, 86.29441
260.7821, 87.12379
261.2643, 87.14646
261.7464, 87.06312
262.2285, 87.71497
262.7106, 89.35863
263.1927, 90.45134
263.6748, 90.47275
264.1570, 90.24783
264.6391, 90.51659
265.1212, 91.34140
265.6033, 92.22191
266.0854, 92.65768
266.5675, 92.62108
267.0497, 92.77390
267.5318, 93.30824
268.0139, 93.91170
268.4960, 94.28020
268.9781, 94.41203
269.4602, 94.63232
269.9424, 95.27396
270.4245, 96.24637
270.9066, 96.88564
271.3887, 96.98729
271.8708, 96.89626
272.3529, 96.81297
272.8351, 96.74733
273.3172, 96.74986
273.7993, 96.86588
274.2814, 97.07834
274.7635, 97.30029
275.2456, 97.51985
275.7278, 97.75957
276.2099, 98.06496
276.6920, 98.42351
277.1741, 98.70235
277.6562, 98.70389
278.1383, 98.69047
278.6205, 99.17033
279.1026, 100.3573
279.5847, 101.5842
280.0668, 102.3304
280.5489, 102.6887
281.0310, 103.2091
281.5132, 104.1711
281.9953, 105.2995
282.4774, 106.1443
282.9595, 106.6408
283.4416, 107.2316
283.9237, 108.2130
284.4059, 109.5167
284.8880, 110.8773
285.3701, 112.2435
285.8522, 113.6276
286.3343, 115.1108
286.8164, 116.6841
287.2986, 118.0831
287.7807, 119.0310
288.2628, 119.6783
288.7449, 120.4754
289.2270, 121.4320
289.7091, 122.6638
290.1913, 124.4462
290.6734, 126.6147
291.1555, 128.6157
291.6376, 130.0660
292.1197, 131.1660
292.6018, 132.3955
293.0840, 133.7680
293.5661, 135.2759
294.0482, 137.0254
294.5303, 138.8870
295.0124, 140.6442
295.4945, 142.1507
295.9767, 143.5213
296.4588, 144.9662
296.9409, 146.5128
297.4230, 148.0434
297.9051, 149.3620
298.3872, 150.6833
298.8694, 152.3539
299.3515, 154.6641
299.8336, 157.0297
300.3157, 158.5271
300.7978, 158.9770
301.2799, 159.7041
301.7621, 161.7741
302.2442, 164.0654
302.7263, 165.3767
303.2084, 165.3274
303.6905, 165.2995
304.1726, 166.9661
304.6548, 170.4109
305.1369, 173.4496
305.6190, 175.2333
306.1011, 176.6900
306.5832, 178.6194
307.0653, 181.0528
307.5475, 183.3205
308.0296, 184.6216
308.5117, 185.0729
308.9938, 186.1983
309.4759, 188.7277
309.9580, 191.3427
310.4402, 193.0901
310.9223, 194.1329
311.4044, 195.1407
311.8865, 196.5884
312.3686, 198.3541
312.8507, 199.9395
313.3329, 201.3342
313.8150, 202.5323
314.2971, 203.4150
314.7792, 204.1423
315.2613, 205.0405
315.7434, 206.4097
316.2256, 207.9454
316.7077, 208.9767
317.1898, 209.4059
317.6719, 209.6114
318.1540, 209.8402
318.6361, 209.9163
319.1183, 209.5339
319.6004, 208.4746
320.0825, 207.2841
320.5646, 206.9241
321.0467, 207.6281
321.5288, 207.6687
322.0110, 206.0369
322.4931, 203.7660
322.9752, 201.6235
323.4573, 199.7383
323.9394, 197.7753
324.4215, 195.3788
324.9037, 192.5714
325.3858, 189.7475
325.8679, 186.9622
326.3500, 184.1997
326.8321, 181.5901
327.3142, 179.0606
327.7964, 176.2270
328.2785, 172.5912
328.7606, 168.3647
329.2427, 164.5408
329.7248, 161.2378
330.2069, 158.2624
330.6891, 155.5782
331.1712, 153.0943
331.6533, 150.6138
332.1354, 148.0686
332.6175, 145.4612
333.0996, 142.6938
333.5818, 139.5887
334.0639, 136.8610
334.5460, 135.2117
335.0281, 134.0320
335.5102, 132.6587
335.9923, 130.8437
336.4745, 128.9500
336.9566, 127.3903
337.4387, 126.1857
337.9208, 125.0524
338.4029, 123.8735
338.8850, 122.7545
339.3671, 121.8607
339.8492, 121.2213
340.3314, 120.5199
340.8135, 119.4017
341.2956, 117.9523
341.7777, 116.7743
342.2598, 116.0333
342.7419, 115.5192
343.2241, 115.1024
343.7062, 114.7558
344.1883, 114.3462
344.6704, 113.8139
345.1525, 113.1739
345.6346, 112.5197
346.1168, 111.9428
346.5989, 111.0758
347.0810, 109.2329
347.5631, 106.9482
348.0452, 105.1722
348.5273, 104.3230
349.0095, 103.9251
349.4916, 103.5853
349.9737, 103.3119
350.4558, 102.7832
350.9379, 101.7434
351.4200, 100.4087
351.9022, 99.14928
352.3843, 98.00094
352.8664, 96.88638
353.3485, 95.63455
353.8306, 94.34605
354.3127, 93.50150
354.7949, 93.42752
355.2770, 93.51373
355.7591, 92.88712
356.2412, 91.56838
356.7233, 90.38476
357.2054, 89.77785
357.6876, 89.44303
358.1697, 88.83562
358.6518, 87.84124
359.1339, 86.90905
359.6160, 86.59225
360.0981, 86.73051
360.5803, 86.46127
361.0624, 85.37326
361.5445, 84.07320
362.0266, 82.94493
362.5087, 82.01118
362.9908, 81.41048
363.4730, 81.35291
363.9551, 81.60882
364.4372, 81.45327
364.9193, 80.66766
365.4014, 79.87702
365.8835, 79.21647
366.3657, 78.74509
366.8478, 78.71080
367.3299, 79.28836
367.8120, 79.94347
368.2941, 79.71398
368.7762, 78.33897
369.2584, 77.30602
369.7405, 77.09879
370.2226, 77.16138
370.7047, 76.96470
371.1868, 76.44045
371.6689, 75.79759
372.1511, 75.16438
372.6332, 74.54476
373.1153, 74.27587
373.5974, 74.78663
374.0795, 75.19067
374.5616, 74.90630
375.0438, 74.16067
375.5259, 73.57535
376.0080, 73.50713
376.4901, 73.80382
376.9722, 73.93189
377.4543, 73.81126
377.9365, 73.62943
378.4186, 73.24815
378.9007, 72.88459
379.3828, 72.86050
379.8649, 73.24095
380.3470, 73.70261
380.8292, 73.76968
381.3113, 73.21815
381.7934, 72.94138
382.2755, 72.80545
382.7576, 73.01414
383.2397, 73.92686
383.7219, 75.34427
384.2040, 76.65088
384.6861, 77.35105
385.1682, 77.48273
385.6503, 77.61259
386.1324, 77.69440
386.6146, 77.82858
387.0967, 78.03892
387.5788, 78.30922
388.0609, 78.62240
388.5430, 78.97018
389.0251, 79.34956
389.5073, 79.75932
389.9894, 80.21362
390.4715, 80.67101
390.9536, 81.07384
391.4357, 81.51832
391.9178, 82.14720
392.4000, 82.92029
392.8821, 83.61037
393.3642, 83.98355
393.8463, 84.03141
394.3284, 84.04058
394.8105, 84.05120
395.2927, 83.96571
395.7748, 83.68981
396.2569, 83.31185
396.7390, 82.99989
397.2211, 82.87498
397.7032, 82.78309
398.1854, 82.33482
398.6675, 81.38670
399.1496, 80.51343
399.6317, 79.97434
400.1138, 79.50723
400.5959, 78.86598
401.0781, 78.01627
401.5602, 77.24128
402.0423, 76.88653
402.5244, 76.90602
403.0065, 76.78416
403.4886, 76.46831
403.9708, 75.98119
404.4529, 75.35525
404.9350, 74.59595
405.4171, 73.69394
405.8992, 72.44680
406.3813, 71.16013
406.8635, 70.35501
407.3456, 70.07278
407.8277, 69.89073
408.3098, 69.66184
408.7919, 69.37444
409.2740, 69.00839
409.7562, 68.53152
410.2383, 68.05540
410.7204, 67.58219
411.2025, 67.15622
411.6846, 66.91773
412.1667, 66.92589
412.6489, 67.06111
413.1310, 67.25654
413.6131, 67.51640
414.0952, 67.54987
414.5773, 67.17381
415.0594, 66.63976
415.5416, 66.07947
416.0237, 65.53651
416.5058, 65.21799
416.9879, 65.30987
417.4700, 65.72527
417.9521, 65.98243
418.4343, 65.92482
418.9164, 65.92413
419.3985, 66.21881
419.8806, 66.59100
420.3627, 66.64506
420.8448, 66.25905
421.3270, 65.77300
421.8091, 65.70181
422.2912, 66.22335
422.7733, 66.68260
423.2554, 67.20856
423.7375, 67.56772
424.2197, 67.43778
424.7018, 66.98029
425.1839, 66.72951
425.6660, 67.11247
426.1481, 67.99203
426.6302, 68.42826
427.1124, 67.93742
427.5945, 67.56965
428.0766, 67.35932
428.5587, 67.37535
429.0408, 67.25952
429.5229, 68.12389
430.0051, 68.66528
430.4872, 68.90099
430.9693, 67.91558
431.4514, 68.50699
431.9335, 68.46648
432.4156, 68.40005
432.8978, 69.21343
433.3799, 68.40563
433.8620, 69.20502
434.3441, 69.36285
434.8262, 69.81430
435.3083, 69.62994
435.7905, 69.64198
436.2726, 70.29003
436.7547, 70.58590
437.2368, 70.32833
437.7189, 70.79846
438.2010, 69.96844
438.6832, 70.27934
439.1653, 70.48195
439.6474, 70.61564
440.1295, 70.60588
440.6116, 70.38180
441.0938, 70.09998
441.5759, 69.91280
442.0580, 69.78346
442.5401, 69.59135
443.0222, 69.25361
443.5043, 68.87331
443.9865, 68.49503
444.4686, 68.13683
444.9507, 67.96321
445.4328, 68.11900
445.9149, 68.43938
446.3970, 68.51620
446.8792, 68.23026
447.3613, 68.08367
447.8434, 68.41202
448.3255, 68.86156
448.8076, 68.98869
449.2897, 68.72327
449.7719, 68.26663
450.2540, 67.77366
450.7361, 67.23606
451.2182, 66.86530
451.7003, 66.56502
452.1824, 66.50473
452.6646, 66.98175
453.1467, 67.68988
453.6288, 68.10704
454.1109, 68.00454
454.5930, 67.59808
455.0751, 67.30559
455.5573, 67.13998
456.0394, 67.07563
456.5215, 67.22474
457.0036, 67.36234
457.4857, 67.35551
457.9678, 67.21194
458.4500, 67.01118
458.9321, 66.80895
459.4142, 66.60212
459.8963, 66.36462
460.3784, 66.05970
460.8605, 65.79201
461.3427, 65.54832
461.8248, 65.36858
462.3069, 65.37849
462.7890, 65.60772
463.2711, 65.71349
463.7532, 65.25428
464.2354, 64.27187
464.7175, 63.37149
465.1996, 62.56583
465.6817, 61.94707
466.1638, 61.70189
466.6459, 61.68492
467.1281, 61.52839
467.6102, 61.08960
468.0923, 60.47917
468.5744, 59.74599
469.0565, 58.90517
469.5386, 58.14579
470.0208, 57.47992
470.5029, 57.01358
470.9850, 57.06668
471.4671, 57.77291
471.9492, 58.16046
472.4313, 57.90974
472.9135, 57.26507
473.3956, 56.32002
473.8777, 55.15657
474.3598, 54.17067
474.8419, 53.69154
475.3240, 53.66748
475.8062, 53.59942
476.2883, 53.60463
476.7704, 53.43122
477.2525, 52.90175
477.7346, 52.22156
478.2167, 51.63456
478.6989, 51.20393
479.1810, 50.82992
479.6631, 50.34395
480.1452, 49.66325
480.6273, 49.31725
481.1094, 49.85750
481.5916, 50.16730
482.0737, 49.67850
482.5558, 48.74126
483.0379, 47.97064
483.5200, 47.65927
484.0021, 47.65431
484.4843, 47.71943
484.9664, 47.90246
485.4485, 47.92807
485.9306, 47.52207
486.4127, 47.13214
486.8948, 47.12614
487.3770, 47.44506
487.8591, 47.69572
488.3412, 47.57724
488.8233, 47.26463
489.3054, 47.09581
489.7875, 47.08400
490.2697, 47.13259
490.7518, 47.29150
491.2339, 47.41919
491.7160, 47.22615
492.1981, 46.57802
492.6802, 46.00702
493.1624, 45.76690
493.6445, 45.73419
494.1266, 45.75644
494.6087, 45.80413
495.0908, 45.82174
495.5729, 45.71362
496.0551, 45.48856
496.5372, 45.61454
497.0193, 46.38368
497.5014, 47.10627
497.9835, 47.67292
498.4656, 48.03226
498.9478, 48.06178
499.4299, 47.74009
499.9120, 47.28984
500.3941, 47.03631
500.8762, 47.02969
501.3583, 47.01432
501.8405, 46.99661
502.3226, 46.96343
502.8047, 46.78559
503.2868, 46.60898
503.7689, 46.73848
504.2510, 47.36792
504.7331, 48.18399
505.2152, 48.61270
505.6974, 48.61091
506.1795, 48.48890
506.6616, 48.18398
507.1437, 47.89474
507.6258, 47.67452
508.1079, 47.56266
508.5901, 47.75064
509.0722, 48.70734
509.5543, 49.83057
510.0364, 50.17663
510.5185, 49.74982
511.0006, 49.15779
511.4828, 48.58135
511.9649, 48.10355
512.4470, 47.91590
512.9291, 48.05976
513.4113, 48.27802
513.8934, 48.46416
514.3755, 48.71811
514.8576, 49.30047
515.3397, 50.14393
515.8218, 50.69203
516.3040, 50.47303
516.7861, 49.62791
517.2682, 49.18247
517.7503, 49.34403
518.2324, 49.66590
518.7145, 50.31433
519.1967, 50.98507
519.6788, 51.38380
520.1609, 51.47245
520.6430, 51.42576
521.1251, 51.39183
521.6072, 51.37243
522.0894, 51.44190
522.5715, 51.69661
523.0536, 51.88547
523.5357, 51.77696
524.0178, 51.63000
524.4999, 51.81066
524.9821, 52.44216
525.4642, 53.07478
525.9463, 53.23592
526.4284, 53.03082
526.9105, 52.94029
527.3926, 53.04416
527.8748, 53.22411
528.3569, 53.42894
528.8390, 53.63902
529.3211, 53.78563
529.8032, 53.74378
530.2853, 53.77130
530.7675, 54.10230
531.2496, 54.58580
531.7317, 54.92660
532.2138, 55.03945
532.6959, 55.01554
533.1780, 54.95308
533.6602, 54.83828
534.1423, 54.77146
534.6244, 54.57215
535.1065, 54.60477
535.5886, 55.27808
536.0707, 56.19207
536.5529, 56.66909
537.0350, 56.44946
537.5171, 55.99014
537.9992, 56.08551
538.4813, 56.90263
538.9634, 57.40061
539.4456, 57.19257
539.9277, 57.03607
540.4098, 57.39455
540.8919, 58.03975
541.3740, 58.49226
541.8561, 58.52069
542.3383, 58.37785
542.8204, 58.29934
543.3025, 58.29559
543.7846, 58.48293
544.2667, 58.92620
544.7488, 59.49784
545.2310, 60.18653
545.7131, 60.95900
546.1952, 61.37934
546.6773, 61.03598
547.1594, 60.63987
547.6415, 60.65431
548.1237, 60.98706
548.6058, 61.41239
549.0879, 61.84564
549.5700, 62.22150
550.0521, 62.42528
550.5342, 62.40884
551.0164, 62.35728
551.4985, 62.11383
551.9806, 61.99922
552.4627, 61.72037
552.9448, 62.57077
553.4269, 63.08840
553.9091, 63.29067
554.3912, 62.26204
554.8733, 62.80051
555.3554, 62.69732
555.8375, 62.55847
556.3196, 63.28963
556.8018, 62.38992
557.2839, 63.08765
557.7660, 63.13409
558.2481, 63.46440
558.7302, 63.14915
559.2123, 63.02055
559.6945, 63.51822
560.1766, 63.65398
560.6587, 63.22657
561.1408, 63.51710
561.6229, 62.49775
562.1050, 62.60955
562.5872, 63.20382
563.0693, 62.75968
563.5514, 63.01312
564.0335, 62.04079
564.5156, 62.20260
564.9977, 62.66710
565.4799, 62.81929
565.9620, 62.42056
566.4441, 61.82648
566.9262, 61.63250
567.4083, 61.98377
567.8904, 62.14361
568.3726, 61.89167
568.8547, 61.66930
569.3368, 61.65928
569.8189, 61.77071
570.3010, 61.84896
570.7831, 61.83736
571.2653, 61.77907
571.7474, 61.78301
572.2295, 61.81722
572.7116, 61.57801
573.1937, 60.92838
573.6758, 60.22197
574.1580, 59.71471
574.6401, 59.39269
575.1222, 59.20391
575.6043, 59.24714
576.0864, 59.30531
576.5685, 59.34480
577.0507, 59.30811
577.5328, 58.99827
578.0149, 58.39223
578.4970, 57.89397
578.9791, 58.01600
579.4612, 58.80783
579.9434, 58.97305
580.4255, 57.82000
580.9076, 56.84113
581.3897, 56.39463
581.8718, 56.20755
582.3539, 56.01448
582.8361, 55.73726
583.3182, 55.38394
583.8003, 54.89048
584.2824, 54.29583
584.7645, 53.90709
585.2466, 53.76258
585.7288, 53.72083
586.2108, 53.88885
586.6929, 54.03235
587.1750, 53.78640
587.6572, 53.05778
588.1393, 52.23660
588.6214, 51.24428
