##NAMES=Vanadinite
##RRUFFID=R050171
##IDEAL CHEMISTRY=Pb^2+^_5_(V^5+^O_4_)_3_Cl
##LOCALITY=Hamburg mine, La Paz County, Arizona, USA
##OWNER=RRUFF
##SOURCE=Marcus Origlieri
##DESCRIPTION=Red prismatic hexagonal crystals
##STATUS=The identification of this mineral has been confirmed by X-ray diffraction and chemical analysis
##URL=rruff.info/R050171
##MEASURED CHEMISTRY=Pb_5.00_((V_0.89_As_0.11_)O_4_)_3_Cl_1.00_
93.46680, 3904.195
93.94891, 3884.257
94.43103, 3893.076
94.91315, 3902.354
95.39526, 3890.391
95.87738, 3858.352
96.35950, 3813.749
96.84161, 3756.712
97.32373, 3685.878
97.80585, 3606.678
98.28796, 3526.587
98.77008, 3446.544
99.25220, 3368.404
99.73431, 3294.280
100.2164, 3224.065
100.6985, 3150.183
101.1807, 3081.235
101.6628, 3015.575
102.1449, 2950.442
102.6270, 2883.410
103.1091, 2814.508
103.5912, 2748.265
104.0734, 2683.623
104.5555, 2621.102
105.0376, 2560.100
105.5197, 2500.659
106.0018, 2443.532
106.4839, 2389.339
106.9661, 2337.472
107.4482, 2289.466
107.9303, 2244.834
108.4124, 2202.629
108.8945, 2162.232
109.3766, 2123.614
109.8588, 2086.927
110.3409, 2052.541
110.8230, 2020.222
111.3051, 1991.581
111.7872, 1968.768
112.2693, 1949.332
112.7515, 1929.302
113.2336, 1907.576
113.7157, 1885.745
114.1978, 1865.453
114.6799, 1846.710
115.1620, 1829.145
115.6442, 1812.534
116.1263, 1796.833
116.6084, 1782.850
117.0905, 1769.804
117.5726, 1759.530
118.0547, 1754.213
118.5369, 1754.335
119.0190, 1756.262
119.5011, 1754.362
119.9832, 1745.619
120.4653, 1740.338
120.9474, 1740.270
121.4296, 1743.453
121.9117, 1748.594
122.3938, 1755.127
122.8759, 1762.914
123.3580, 1771.628
123.8401, 1782.775
124.3223, 1793.232
124.8044, 1802.595
125.2865, 1811.102
125.7686, 1818.825
126.2507, 1825.715
126.7328, 1831.965
127.2150, 1840.382
127.6971, 1851.061
128.1792, 1863.177
128.6613, 1877.372
129.1434, 1893.203
129.6255, 1908.394
130.1077, 1921.158
130.5898, 1931.536
131.0719, 1941.884
131.5540, 1952.175
132.0361, 1962.622
132.5182, 1973.672
133.0004, 1985.514
133.4825, 1997.228
133.9646, 2007.869
134.4467, 2017.856
134.9288, 2027.775
135.4109, 2038.410
135.8931, 2049.256
136.3752, 2058.606
136.8573, 2065.629
137.3394, 2072.001
137.8215, 2078.679
138.3036, 2085.566
138.7858, 2092.235
139.2679, 2098.575
139.7500, 2104.691
140.2321, 2109.647
140.7142, 2113.948
141.1963, 2116.630
141.6785, 2116.348
142.1606, 2113.511
142.6427, 2110.136
143.1248, 2108.928
143.6069, 2111.578
144.0890, 2112.538
144.5712, 2112.045
145.0533, 2110.111
145.5354, 2106.620
146.0175, 2101.580
146.4996, 2095.174
146.9817, 2087.608
147.4639, 2077.120
147.9460, 2068.342
148.4281, 2063.843
148.9102, 2060.428
149.3923, 2053.512
149.8744, 2040.919
150.3566, 2025.440
150.8387, 2013.790
151.3208, 2007.341
151.8029, 2000.099
152.2850, 1988.713
152.7671, 1974.482
153.2493, 1961.754
153.7314, 1952.220
154.2135, 1945.434
154.6956, 1940.081
155.1777, 1936.925
155.6598, 1933.469
156.1420, 1926.874
156.6241, 1916.930
157.1062, 1908.402
157.5883, 1905.309
158.0704, 1903.753
158.5525, 1900.276
159.0347, 1893.767
159.5168, 1885.854
159.9989, 1878.913
160.4810, 1873.219
160.9631, 1867.948
161.4452, 1862.604
161.9274, 1857.602
162.4095, 1853.145
162.8916, 1849.257
163.3737, 1846.290
163.8558, 1845.719
164.3379, 1851.924
164.8201, 1854.622
165.3022, 1850.730
165.7843, 1842.877
166.2664, 1834.080
166.7485, 1825.923
167.2306, 1818.633
167.7128, 1814.015
168.1949, 1815.381
168.6770, 1815.882
169.1591, 1814.321
169.6412, 1810.733
170.1233, 1805.259
170.6055, 1797.774
171.0876, 1788.303
171.5697, 1780.375
172.0518, 1775.701
172.5339, 1770.654
173.0160, 1763.906
173.4982, 1755.384
173.9803, 1745.082
174.4624, 1732.563
174.9445, 1717.956
175.4266, 1704.314
175.9087, 1692.409
176.3909, 1680.867
176.8730, 1669.061
177.3551, 1656.959
177.8372, 1643.488
178.3193, 1626.811
178.8014, 1607.904
179.2836, 1590.161
179.7657, 1576.383
180.2478, 1563.419
180.7299, 1545.576
181.2120, 1521.074
181.6941, 1496.584
182.1763, 1477.315
182.6584, 1461.259
183.1405, 1445.176
183.6226, 1427.368
184.1047, 1408.414
184.5868, 1390.110
185.0690, 1373.041
185.5511, 1355.836
186.0332, 1337.385
186.5153, 1318.386
186.9974, 1300.061
187.4795, 1283.496
187.9617, 1268.527
188.4438, 1253.356
188.9259, 1238.294
189.4080, 1222.572
189.8901, 1205.175
190.3722, 1186.883
190.8544, 1169.342
191.3365, 1154.198
191.8186, 1141.626
192.3007, 1128.151
192.7828, 1113.424
193.2649, 1098.070
193.7471, 1081.496
194.2292, 1064.366
194.7113, 1048.058
195.1934, 1033.978
195.6755, 1022.301
196.1576, 1011.610
196.6398, 1002.874
197.1219, 994.0199
197.6040, 984.0594
198.0861, 972.9922
198.5682, 961.1804
199.0503, 948.7960
199.5325, 935.5045
200.0146, 924.3327
200.4967, 916.4412
200.9788, 909.5682
201.4609, 902.0799
201.9430, 893.8459
202.4252, 886.0952
202.9073, 880.3888
203.3894, 877.0220
203.8715, 871.7275
204.3536, 862.6725
204.8357, 852.5573
205.3179, 843.8961
205.8000, 837.0023
206.2821, 830.9039
206.7642, 824.5926
207.2463, 818.1801
207.7284, 812.6350
208.2106, 808.4846
208.6927, 805.1934
209.1748, 802.2284
209.6569, 799.6914
210.1390, 796.8962
210.6211, 792.9362
211.1033, 788.2188
211.5854, 783.7062
212.0675, 779.9957
212.5496, 776.6924
213.0317, 772.6300
213.5138, 767.0777
213.9960, 762.2972
214.4781, 760.1737
214.9602, 759.7848
215.4423, 759.3101
215.9244, 757.7211
216.4065, 755.2887
216.8886, 753.1336
217.3708, 751.5674
217.8529, 749.7772
218.3350, 746.8826
218.8171, 743.5450
219.2992, 741.0780
219.7813, 740.7454
220.2635, 742.0735
220.7456, 741.6835
221.2277, 737.4519
221.7098, 734.0446
222.1919, 733.1276
222.6740, 734.0366
223.1562, 735.7273
223.6383, 737.8475
224.1204, 740.2028
224.6025, 740.2900
225.0846, 734.7904
225.5667, 730.3542
226.0489, 728.7516
226.5310, 729.2874
227.0131, 730.5976
227.4952, 731.8120
227.9773, 732.9250
228.4594, 733.9589
228.9416, 734.9105
229.4237, 735.7709
229.9058, 736.2573
230.3879, 736.6561
230.8700, 737.6396
231.3521, 739.8033
231.8343, 742.9690
232.3164, 744.1743
232.7985, 741.0076
233.2806, 738.6242
233.7627, 738.6788
234.2448, 740.5361
234.7270, 742.7630
235.2091, 744.4557
235.6912, 745.7100
236.1733, 747.4622
236.6554, 750.3463
237.1375, 752.9636
237.6197, 754.8621
238.1018, 756.1593
238.5839, 757.0581
239.0660, 757.5411
239.5481, 757.8272
240.0302, 759.1595
240.5124, 761.8698
240.9945, 765.0057
241.4766, 768.8195
241.9587, 772.8662
242.4408, 775.7759
242.9229, 776.4374
243.4051, 775.8630
243.8872, 777.4467
244.3693, 781.7542
244.8514, 786.9525
245.3335, 792.6783
245.8156, 798.7368
246.2978, 804.6548
246.7799, 810.4776
247.2620, 815.6826
247.7441, 819.1749
248.2262, 820.2585
248.7083, 821.3937
249.1905, 823.5082
249.6726, 826.6081
250.1547, 830.7223
250.6368, 835.8297
251.1189, 842.1779
251.6010, 850.2916
252.0832, 860.6890
252.5653, 870.4333
253.0474, 877.3032
253.5295, 881.9510
254.0116, 887.4612
254.4937, 894.6131
254.9759, 903.0953
255.4580, 912.4553
255.9401, 922.7269
256.4222, 933.1600
256.9043, 943.1664
257.3864, 952.8698
257.8686, 962.7736
258.3507, 972.3693
258.8328, 983.0878
259.3149, 996.1502
259.7970, 1011.353
260.2791, 1027.024
260.7613, 1041.975
261.2434, 1056.390
261.7255, 1071.528
262.2076, 1087.385
262.6897, 1104.218
263.1718, 1121.433
263.6540, 1139.419
264.1361, 1159.540
264.6182, 1183.537
265.1003, 1210.713
265.5824, 1237.524
266.0645, 1263.422
266.5467, 1289.442
267.0288, 1315.269
267.5109, 1341.572
267.9930, 1369.645
268.4751, 1400.648
268.9572, 1434.029
269.4394, 1467.813
269.9215, 1503.021
270.4036, 1537.095
270.8857, 1568.516
271.3678, 1598.442
271.8499, 1628.635
272.3321, 1659.981
272.8142, 1692.328
273.2963, 1724.647
273.7784, 1756.147
274.2605, 1788.753
274.7426, 1824.377
275.2248, 1860.842
275.7069, 1894.461
276.1890, 1923.211
276.6711, 1949.967
277.1532, 1982.365
277.6353, 2024.365
278.1175, 2064.951
278.5996, 2101.054
279.0817, 2135.429
279.5638, 2170.190
280.0459, 2206.284
280.5280, 2244.017
281.0102, 2284.724
281.4923, 2329.847
281.9744, 2374.702
282.4565, 2419.644
282.9386, 2463.585
283.4207, 2505.492
283.9029, 2545.127
284.3850, 2582.888
284.8671, 2618.892
285.3492, 2651.552
285.8313, 2686.472
286.3134, 2725.261
286.7956, 2764.988
287.2777, 2805.345
287.7598, 2845.371
288.2419, 2882.903
288.7240, 2915.616
289.2061, 2942.930
289.6883, 2966.294
290.1704, 2984.302
290.6525, 2999.893
291.1346, 3013.016
291.6167, 3024.590
292.0988, 3036.577
292.5810, 3050.826
293.0631, 3067.437
293.5452, 3084.910
294.0273, 3097.856
294.5094, 3116.958
294.9915, 3146.060
295.4737, 3184.352
295.9558, 3228.991
296.4379, 3277.546
296.9200, 3330.563
297.4021, 3393.764
297.8842, 3472.298
298.3664, 3556.550
298.8485, 3644.513
299.3306, 3737.011
299.8127, 3835.511
300.2948, 3940.669
300.7769, 4051.148
301.2591, 4160.884
301.7412, 4265.970
302.2233, 4374.649
302.7054, 4489.873
303.1875, 4607.225
303.6696, 4722.747
304.1518, 4834.408
304.6339, 4942.729
305.1160, 5050.535
305.5981, 5157.158
306.0802, 5263.015
306.5623, 5367.183
307.0445, 5470.937
307.5266, 5575.374
308.0087, 5680.667
308.4908, 5787.625
308.9729, 5898.089
309.4550, 6016.123
309.9372, 6126.639
310.4193, 6224.167
310.9014, 6320.521
311.3835, 6423.249
311.8656, 6532.488
312.3477, 6642.909
312.8299, 6748.296
313.3120, 6848.777
313.7941, 6948.803
314.2762, 7053.345
314.7583, 7153.251
315.2404, 7245.948
315.7226, 7331.248
316.2047, 7409.763
316.6868, 7481.475
317.1689, 7546.505
317.6510, 7606.721
318.1331, 7678.070
318.6153, 7727.166
319.0974, 7744.864
319.5795, 7735.638
320.0616, 7707.121
320.5437, 7663.350
321.0258, 7602.655
321.5080, 7518.521
321.9901, 7409.563
322.4722, 7275.527
322.9543, 7107.824
323.4364, 6920.350
323.9185, 6722.966
324.4007, 6521.067
324.8828, 6314.854
325.3649, 6106.117
325.8470, 5888.778
326.3291, 5680.094
326.8112, 5473.867
327.2934, 5277.970
327.7755, 5095.763
328.2576, 4928.353
328.7397, 4774.861
329.2218, 4634.325
329.7039, 4507.925
330.1861, 4388.541
330.6682, 4276.057
331.1503, 4169.383
331.6324, 4067.655
332.1145, 3971.101
332.5966, 3881.565
333.0788, 3800.381
333.5609, 3727.393
334.0430, 3660.378
334.5251, 3601.135
335.0072, 3545.790
335.4893, 3495.214
335.9715, 3447.913
336.4536, 3401.106
336.9357, 3353.517
337.4178, 3307.373
337.8999, 3270.820
338.3820, 3247.650
338.8642, 3229.442
339.3463, 3216.496
339.8284, 3207.025
340.3105, 3199.389
340.7926, 3193.150
341.2747, 3189.346
341.7568, 3189.114
342.2390, 3191.132
342.7211, 3200.547
343.2032, 3219.909
343.6853, 3243.376
344.1674, 3269.083
344.6495, 3296.148
345.1317, 3323.405
345.6138, 3349.256
346.0959, 3373.384
346.5780, 3401.519
347.0601, 3439.826
347.5422, 3476.338
348.0244, 3506.542
348.5065, 3532.762
348.9886, 3559.719
349.4707, 3590.372
349.9528, 3623.494
350.4349, 3653.692
350.9171, 3681.809
351.3992, 3705.575
351.8813, 3724.611
352.3634, 3739.776
352.8455, 3752.163
353.3276, 3762.182
353.8098, 3768.441
354.2919, 3767.727
354.7740, 3757.619
355.2561, 3747.834
355.7382, 3740.078
356.2203, 3732.429
356.7025, 3722.305
357.1846, 3710.372
357.6667, 3701.050
358.1488, 3700.876
358.6309, 3710.432
359.1130, 3713.056
359.5952, 3701.243
360.0773, 3690.609
360.5594, 3687.822
361.0415, 3690.992
361.5236, 3696.766
362.0057, 3706.070
362.4879, 3714.616
362.9700, 3708.591
363.4521, 3684.088
363.9342, 3653.127
364.4163, 3622.579
364.8984, 3587.212
365.3806, 3541.312
365.8627, 3482.872
366.3448, 3414.140
366.8269, 3335.615
367.3090, 3245.852
367.7911, 3156.580
368.2733, 3069.504
368.7554, 2984.652
369.2375, 2900.874
369.7196, 2818.219
370.2017, 2740.851
370.6838, 2673.393
371.1660, 2614.294
371.6481, 2556.492
372.1302, 2497.944
372.6123, 2443.757
373.0944, 2397.689
373.5765, 2358.137
374.0587, 2321.541
374.5408, 2286.651
375.0229, 2254.179
375.5050, 2225.069
375.9871, 2199.397
376.4692, 2177.400
376.9514, 2160.214
377.4335, 2146.749
377.9156, 2135.415
378.3977, 2126.561
378.8798, 2118.501
379.3619, 2110.144
379.8441, 2101.568
380.3262, 2092.654
380.8083, 2082.146
381.2904, 2073.346
381.7725, 2071.682
382.2546, 2076.836
382.7368, 2080.764
383.2189, 2080.495
383.7010, 2077.692
384.1831, 2073.626
384.6652, 2068.266
385.1473, 2065.025
385.6295, 2067.497
386.1116, 2074.894
386.5937, 2080.547
387.0758, 2081.829
387.5579, 2083.526
388.0400, 2089.385
388.5222, 2098.257
389.0043, 2106.099
389.4864, 2110.748
389.9685, 2113.664
390.4506, 2118.575
390.9327, 2126.182
391.4149, 2133.801
391.8970, 2140.627
392.3791, 2147.292
392.8612, 2155.095
393.3433, 2164.202
393.8254, 2172.523
394.3076, 2177.122
394.7897, 2176.704
395.2718, 2180.030
395.7539, 2189.746
396.2360, 2200.448
396.7181, 2209.294
397.2003, 2216.542
397.6824, 2223.558
398.1645, 2231.271
398.6466, 2239.428
399.1287, 2247.017
399.6108, 2254.149
400.0930, 2260.471
400.5751, 2266.265
401.0572, 2271.099
401.5393, 2273.504
402.0214, 2273.380
402.5035, 2273.746
402.9857, 2279.615
403.4678, 2294.148
403.9499, 2305.028
404.4320, 2311.198
404.9141, 2315.310
405.3962, 2316.944
405.8784, 2317.461
406.3605, 2319.975
406.8426, 2327.177
407.3247, 2338.252
407.8068, 2347.084
408.2889, 2352.969
408.7711, 2357.290
409.2532, 2359.205
409.7353, 2360.398
410.2174, 2362.840
410.6995, 2367.208
411.1816, 2372.194
411.6638, 2376.130
412.1459, 2379.020
412.6280, 2380.710
413.1101, 2380.487
413.5922, 2379.539
414.0743, 2378.409
414.5565, 2377.122
415.0386, 2375.547
415.5207, 2373.458
416.0028, 2371.015
416.4849, 2369.206
416.9670, 2369.021
417.4492, 2366.991
417.9313, 2359.554
418.4134, 2349.770
418.8955, 2341.218
419.3776, 2334.496
419.8597, 2329.799
420.3419, 2328.272
420.8240, 2329.518
421.3061, 2329.707
421.7882, 2327.410
422.2703, 2324.128
422.7524, 2321.445
423.2346, 2319.299
423.7167, 2317.923
424.1988, 2318.118
424.6809, 2318.797
425.1630, 2318.303
425.6451, 2316.473
426.1273, 2314.575
426.6094, 2313.359
427.0915, 2312.894
427.5736, 2313.121
428.0557, 2315.172
428.5378, 2316.681
429.0200, 2316.267
429.5021, 2314.589
429.9842, 2312.960
430.4663, 2311.844
430.9484, 2310.984
431.4305, 2309.917
431.9127, 2308.302
432.3948, 2307.402
432.8769, 2308.603
433.3590, 2309.468
433.8411, 2307.419
434.3232, 2303.049
434.8054, 2299.599
435.2875, 2299.868
435.7696, 2303.284
436.2517, 2303.817
436.7338, 2298.758
437.2159, 2293.853
437.6981, 2290.382
438.1802, 2287.280
438.6623, 2283.203
439.1444, 2277.750
439.6265, 2271.635
440.1086, 2265.783
440.5908, 2260.031
441.0729, 2255.126
441.5550, 2253.046
442.0371, 2249.972
442.5192, 2243.765
443.0013, 2235.171
443.4835, 2226.232
443.9656, 2218.168
444.4477, 2210.827
444.9298, 2204.214
445.4119, 2199.011
445.8940, 2192.730
446.3762, 2183.209
446.8583, 2173.005
447.3404, 2164.435
447.8225, 2157.957
448.3046, 2152.238
448.7867, 2146.668
449.2689, 2141.073
449.7510, 2134.522
450.2331, 2127.144
450.7152, 2118.283
451.1973, 2106.031
451.6794, 2091.783
452.1616, 2079.164
452.6437, 2069.841
453.1258, 2061.991
453.6079, 2054.579
454.0900, 2047.398
454.5721, 2039.176
455.0543, 2029.274
455.5364, 2018.151
456.0185, 2006.146
456.5006, 1992.464
456.9827, 1981.032
457.4648, 1975.162
457.9470, 1970.635
458.4291, 1962.936
458.9112, 1951.581
459.3933, 1938.386
459.8754, 1924.384
460.3575, 1909.639
460.8397, 1897.279
461.3218, 1889.000
461.8039, 1880.704
462.2860, 1871.016
462.7681, 1860.789
463.2502, 1851.396
463.7324, 1843.284
464.2145, 1835.684
464.6966, 1827.302
465.1787, 1817.750
465.6608, 1808.730
466.1429, 1801.528
466.6251, 1793.613
467.1072, 1782.897
467.5893, 1770.507
468.0714, 1759.095
468.5535, 1750.304
469.0356, 1743.529
469.5178, 1737.303
469.9999, 1732.302
470.4820, 1725.944
470.9641, 1716.413
471.4462, 1705.962
471.9283, 1695.905
472.4105, 1686.487
472.8926, 1678.017
473.3747, 1671.117
473.8568, 1665.397
474.3389, 1659.591
474.8210, 1653.696
475.3032, 1647.496
475.7853, 1640.348
476.2674, 1632.865
476.7495, 1626.561
477.2316, 1623.161
477.7137, 1618.740
478.1959, 1609.042
478.6780, 1596.095
479.1601, 1585.783
479.6422, 1580.227
480.1243, 1576.658
480.6064, 1571.681
481.0886, 1565.053
481.5707, 1558.354
482.0528, 1551.682
482.5349, 1544.958
483.0170, 1537.691
483.4991, 1530.303
483.9813, 1524.173
484.4634, 1520.169
484.9455, 1517.413
485.4276, 1513.257
485.9097, 1506.351
486.3918, 1499.971
486.8740, 1495.100
487.3561, 1490.044
487.8382, 1482.941
488.3203, 1474.124
488.8024, 1465.889
489.2845, 1460.215
489.7667, 1456.862
490.2488, 1453.357
490.7309, 1449.815
491.2130, 1445.901
491.6951, 1440.838
492.1772, 1435.754
492.6594, 1432.212
493.1415, 1430.612
493.6236, 1428.918
494.1057, 1424.981
494.5878, 1419.007
495.0699, 1412.648
495.5521, 1405.384
496.0342, 1399.126
496.5163, 1396.625
496.9984, 1396.165
497.4805, 1393.795
497.9626, 1386.844
498.4448, 1379.674
498.9269, 1376.913
499.4090, 1377.171
499.8911, 1374.904
500.3732, 1367.582
500.8553, 1359.125
501.3375, 1355.738
501.8196, 1358.957
502.3017, 1359.127
502.7838, 1353.162
503.2659, 1346.121
503.7480, 1341.292
504.2302, 1338.345
504.7123, 1335.358
505.1944, 1331.184
505.6765, 1326.477
506.1586, 1323.178
506.6407, 1322.557
507.1228, 1321.329
507.6049, 1319.240
508.0871, 1316.710
508.5692, 1313.894
509.0513, 1310.891
509.5334, 1307.957
510.0155, 1305.563
510.4977, 1303.281
510.9798, 1298.649
511.4619, 1289.848
511.9440, 1282.809
512.4261, 1280.413
512.9083, 1280.012
513.3904, 1279.895
513.8725, 1279.781
514.3546, 1278.649
514.8367, 1274.851
515.3188, 1269.489
515.8010, 1265.957
516.2831, 1264.938
516.7652, 1263.774
517.2473, 1260.103
517.7294, 1254.950
518.2115, 1251.826
518.6937, 1252.850
519.1758, 1252.952
519.6579, 1248.313
520.1400, 1241.731
520.6221, 1238.096
521.1042, 1238.516
521.5864, 1240.177
522.0685, 1240.174
522.5506, 1238.416
523.0327, 1235.831
523.5148, 1231.254
523.9969, 1227.267
524.4791, 1225.640
524.9612, 1224.776
525.4433, 1221.791
525.9254, 1215.840
526.4075, 1209.755
526.8896, 1208.698
527.3718, 1214.311
527.8539, 1216.274
528.3360, 1211.260
528.8181, 1205.967
529.3002, 1203.297
529.7823, 1202.322
530.2645, 1201.089
530.7466, 1198.687
531.2287, 1196.091
531.7108, 1195.041
532.1929, 1195.358
532.6750, 1193.892
533.1572, 1188.738
533.6393, 1183.538
534.1214, 1183.518
534.6035, 1187.661
535.0856, 1189.042
535.5677, 1184.390
536.0499, 1178.141
536.5320, 1172.698
537.0141, 1168.359
537.4962, 1165.879
537.9783, 1165.767
538.4604, 1166.575
538.9426, 1165.733
539.4247, 1162.382
539.9068, 1159.487
540.3889, 1156.973
540.8710, 1154.953
541.3531, 1153.413
541.8353, 1152.404
542.3174, 1152.326
542.7995, 1153.534
543.2816, 1154.837
543.7637, 1153.189
544.2458, 1147.378
544.7280, 1142.623
545.2101, 1140.979
545.6922, 1139.397
546.1743, 1135.662
546.6564, 1130.430
547.1385, 1126.300
547.6207, 1125.113
548.1028, 1125.220
548.5849, 1124.271
549.0670, 1122.296
549.5491, 1119.905
550.0313, 1117.118
550.5134, 1114.300
550.9955, 1112.273
551.4776, 1111.144
551.9597, 1109.160
552.4418, 1104.826
552.9240, 1100.495
553.4061, 1098.339
553.8882, 1097.850
554.3703, 1096.958
554.8524, 1094.526
555.3345, 1091.555
555.8167, 1090.552
556.2988, 1094.050
556.7809, 1094.421
557.2630, 1088.938
557.7451, 1083.262
558.2272, 1080.634
558.7094, 1080.398
559.1915, 1080.409
559.6736, 1079.612
560.1557, 1077.894
560.6378, 1074.633
561.1199, 1069.475
561.6021, 1065.085
562.0842, 1062.059
562.5663, 1060.037
563.0484, 1058.919
563.5305, 1058.552
564.0126, 1058.113
564.4948, 1057.524
564.9769, 1056.571
565.4590, 1055.240
565.9411, 1053.422
566.4232, 1050.285
566.9053, 1045.203
567.3875, 1039.755
567.8696, 1036.310
568.3517, 1035.335
568.8338, 1035.251
569.3159, 1037.518
569.7980, 1039.243
570.2802, 1038.847
570.7623, 1036.762
571.2444, 1033.804
571.7265, 1030.354
572.2086, 1026.902
572.6907, 1024.542
573.1729, 1023.682
573.6550, 1022.100
574.1371, 1017.583
574.6192, 1014.655
575.1013, 1017.135
575.5834, 1022.408
576.0656, 1024.975
576.5477, 1022.092
577.0298, 1017.429
577.5119, 1014.718
577.9940, 1013.716
578.4761, 1013.383
578.9583, 1013.823
579.4404, 1013.805
579.9225, 1011.696
580.4046, 1007.667
580.8867, 1005.107
581.3688, 1005.201
581.8510, 1005.591
582.3331, 1005.310
582.8152, 1004.664
583.2973, 1004.241
583.7794, 1004.171
584.2615, 1003.916
584.7437, 1002.695
585.2258, 1000.390
585.7079, 999.2263
586.1900, 1000.443
586.6721, 1001.247
587.1542, 1000.986
587.6363, 999.9691
588.1184, 998.1844
588.6005, 995.6891
589.0826, 993.7372
589.5648, 993.9484
