##NAMES=Vanadinite
##RRUFFID=R050530
##IDEAL CHEMISTRY=Pb^2+^_5_(V^5+^O_4_)_3_Cl
##LOCALITY=Hillsboro, Sierra County, New Mexico, USA
##OWNER=RRUFF
##SOURCE=University of Arizona Mineral Museum
##DESCRIPTION=Yellow hexagonal prisms
##STATUS=The identification of this mineral has been confirmed by X-ray diffraction and chemical analysis
##URL=rruff.info/R050530
##MEASURED CHEMISTRY=Pb_5.00_((V_0.93_As_0.07_)O_4_)_3_Cl_1.00_
92.37695, 4667.617
92.85907, 4555.553
93.34119, 4580.694
93.82330, 4713.138
94.30542, 4826.337
94.78754, 4885.731
95.26965, 4901.937
95.75177, 4876.184
96.23389, 4804.403
96.71600, 4698.714
97.19812, 4571.704
97.68024, 4423.743
98.16235, 4266.036
98.64447, 4110.692
99.12659, 3955.016
99.60870, 3798.701
100.0908, 3648.709
100.5729, 3508.011
101.0551, 3379.175
101.5372, 3262.263
102.0193, 3155.528
102.5014, 3055.949
102.9835, 2962.137
103.4656, 2875.127
103.9478, 2795.298
104.4299, 2721.644
104.9120, 2653.269
105.3941, 2589.445
105.8762, 2529.510
106.3583, 2476.337
106.8405, 2431.080
107.3226, 2389.070
107.8047, 2347.364
108.2868, 2305.801
108.7689, 2266.318
109.2510, 2231.645
109.7332, 2201.921
110.2153, 2174.419
110.6974, 2149.942
111.1795, 2127.217
111.6616, 2104.685
112.1437, 2082.992
112.6259, 2059.631
113.1080, 2031.598
113.5901, 1999.462
114.0722, 1966.126
114.5543, 1933.127
115.0364, 1900.350
115.5185, 1868.558
116.0007, 1837.879
116.4828, 1808.297
116.9649, 1779.312
117.4470, 1751.034
117.9291, 1723.945
118.4112, 1698.109
118.8934, 1672.479
119.3755, 1651.362
119.8576, 1635.707
120.3397, 1623.424
120.8218, 1612.986
121.3039, 1603.762
121.7861, 1596.070
122.2682, 1590.795
122.7503, 1589.820
123.2324, 1589.608
123.7145, 1589.463
124.1966, 1589.999
124.6788, 1592.217
125.1609, 1596.804
125.6430, 1603.532
126.1251, 1610.462
126.6072, 1616.177
127.0893, 1623.349
127.5715, 1633.263
128.0536, 1645.744
128.5357, 1659.564
129.0178, 1673.908
129.4999, 1689.090
129.9821, 1705.866
130.4642, 1725.803
130.9463, 1746.683
131.4284, 1766.354
131.9105, 1784.635
132.3926, 1802.211
132.8748, 1818.461
133.3569, 1834.421
133.8390, 1851.948
134.3211, 1872.187
134.8032, 1894.635
135.2853, 1918.017
135.7674, 1942.940
136.2496, 1968.021
136.7317, 1992.435
137.2138, 2016.390
137.6959, 2040.250
138.1780, 2064.936
138.6601, 2090.765
139.1423, 2114.095
139.6244, 2132.677
140.1065, 2150.556
140.5886, 2169.876
141.0707, 2190.291
141.5528, 2209.928
142.0350, 2226.437
142.5171, 2238.737
142.9992, 2250.359
143.4813, 2263.134
143.9634, 2274.157
144.4455, 2281.268
144.9277, 2283.983
145.4098, 2283.874
145.8919, 2283.456
146.3740, 2283.463
146.8561, 2281.489
147.3382, 2277.069
147.8204, 2270.716
148.3025, 2263.203
148.7846, 2254.882
149.2667, 2245.138
149.7488, 2232.038
150.2309, 2215.200
150.7131, 2197.626
151.1952, 2180.186
151.6773, 2162.825
152.1594, 2145.813
152.6415, 2129.758
153.1236, 2113.427
153.6058, 2094.728
154.0879, 2072.896
154.5700, 2051.313
155.0521, 2033.835
155.5342, 2020.797
156.0163, 2005.762
156.4985, 1982.998
156.9806, 1958.970
157.4627, 1939.154
157.9448, 1925.169
158.4269, 1914.176
158.9090, 1901.891
159.3912, 1887.616
159.8733, 1873.876
160.3554, 1860.426
160.8375, 1848.074
161.3196, 1837.785
161.8017, 1830.114
162.2839, 1824.221
162.7660, 1817.624
163.2481, 1809.003
163.7302, 1801.474
164.2123, 1795.951
164.6944, 1791.569
165.1766, 1787.278
165.6587, 1782.438
166.1408, 1777.235
166.6229, 1772.762
167.1050, 1768.484
167.5871, 1765.505
168.0693, 1764.723
168.5514, 1765.426
169.0335, 1766.266
169.5156, 1766.359
169.9977, 1765.771
170.4798, 1765.532
170.9620, 1766.647
171.4441, 1767.115
171.9262, 1765.816
172.4083, 1762.965
172.8904, 1759.639
173.3725, 1756.583
173.8547, 1753.739
174.3368, 1750.551
174.8189, 1747.072
175.3010, 1743.199
175.7831, 1739.039
176.2652, 1734.603
176.7474, 1729.307
177.2295, 1722.403
177.7116, 1714.250
178.1937, 1705.869
178.6758, 1697.432
179.1579, 1688.871
179.6401, 1680.208
180.1222, 1671.765
180.6043, 1662.304
181.0864, 1650.665
181.5685, 1637.608
182.0506, 1624.310
182.5328, 1611.204
183.0149, 1598.271
183.4970, 1585.321
183.9791, 1572.324
184.4612, 1559.438
184.9433, 1547.066
185.4255, 1534.853
185.9076, 1522.082
186.3897, 1508.282
186.8718, 1493.504
187.3539, 1478.627
187.8360, 1463.505
188.3182, 1448.371
188.8003, 1433.603
189.2824, 1418.897
189.7645, 1403.625
190.2466, 1387.332
190.7287, 1369.911
191.2109, 1352.439
191.6930, 1335.385
192.1751, 1317.713
192.6572, 1298.602
193.1393, 1278.553
193.6214, 1258.784
194.1036, 1240.683
194.5857, 1224.624
195.0678, 1206.411
195.5499, 1184.149
196.0320, 1161.944
196.5141, 1141.854
196.9963, 1123.789
197.4784, 1106.228
197.9605, 1087.838
198.4426, 1068.439
198.9247, 1049.835
199.4068, 1031.781
199.8890, 1014.608
200.3711, 998.7699
200.8532, 984.1916
201.3353, 970.1808
201.8174, 956.0604
202.2995, 941.8197
202.7817, 927.8666
203.2638, 913.9166
203.7459, 900.4211
204.2280, 887.6772
204.7101, 875.6519
205.1922, 864.6556
205.6744, 855.4719
206.1565, 847.6998
206.6386, 839.5798
207.1207, 830.5667
207.6028, 821.0982
208.0849, 811.6656
208.5671, 802.1794
209.0492, 793.0436
209.5313, 784.6406
210.0134, 776.8019
210.4955, 769.3076
210.9776, 761.5628
211.4598, 754.1448
211.9419, 748.5289
212.4240, 745.4669
212.9061, 742.7613
213.3882, 739.3528
213.8703, 735.3395
214.3525, 730.8017
214.8346, 725.5608
215.3167, 719.8275
215.7988, 714.4760
216.2809, 709.6376
216.7630, 704.9841
217.2451, 700.1151
217.7273, 695.3143
218.2094, 691.0914
218.6915, 687.8995
219.1736, 685.5420
219.6557, 682.9089
220.1378, 680.1953
220.6200, 676.8874
221.1021, 672.0188
221.5842, 666.5926
222.0663, 662.2736
222.5484, 660.3924
223.0305, 660.6146
223.5127, 659.6930
223.9948, 656.5276
224.4769, 653.2809
224.9590, 650.2233
225.4411, 647.4070
225.9232, 644.8796
226.4054, 642.6872
226.8875, 640.8026
227.3696, 638.7237
227.8517, 636.0130
228.3338, 633.5839
228.8159, 632.1533
229.2981, 631.1151
229.7802, 629.3046
230.2623, 625.8580
230.7444, 621.0014
231.2265, 617.4133
231.7086, 615.6521
232.1908, 614.4188
232.6729, 613.5731
233.1550, 613.0172
233.6371, 612.6459
234.1192, 612.4139
234.6013, 612.2949
235.0835, 612.0994
235.5656, 612.0765
236.0477, 611.7296
236.5298, 610.6788
237.0119, 609.1837
237.4940, 607.8682
237.9762, 607.1634
238.4583, 606.8162
238.9404, 605.6130
239.4225, 602.4785
239.9046, 599.8417
240.3867, 598.8456
240.8689, 599.0062
241.3510, 599.1098
241.8331, 598.4922
242.3152, 597.5070
242.7973, 597.2770
243.2794, 598.5338
243.7616, 599.2824
244.2437, 598.0845
244.7258, 595.5950
245.2079, 593.8401
245.6900, 593.8224
246.1721, 594.8430
246.6543, 595.4150
247.1364, 595.3974
247.6185, 595.3762
248.1006, 595.6909
248.5827, 596.2550
249.0648, 596.7130
249.5470, 596.7970
250.0291, 596.9216
250.5112, 597.7429
250.9933, 599.3674
251.4754, 600.9594
251.9576, 602.0087
252.4397, 602.6176
252.9218, 603.1702
253.4039, 603.3850
253.8860, 604.1066
254.3681, 606.3626
254.8503, 610.1443
255.3324, 613.9133
255.8145, 616.5892
256.2966, 618.3860
256.7787, 620.3463
257.2608, 622.4813
257.7430, 625.0894
258.2251, 628.5640
258.7072, 632.7673
259.1893, 636.7802
259.6714, 639.6646
260.1535, 641.7147
260.6357, 644.5769
261.1178, 648.3248
261.5999, 653.1423
262.0820, 659.3915
262.5641, 666.7131
263.0462, 674.0071
263.5284, 680.2210
264.0105, 685.6462
264.4926, 692.3143
264.9747, 701.0646
265.4568, 709.8544
265.9389, 717.3215
266.4211, 724.0910
266.9032, 731.3746
267.3853, 739.8358
267.8674, 749.3691
268.3495, 759.6447
268.8316, 770.7754
269.3138, 782.6184
269.7959, 795.2252
270.2780, 808.3568
270.7601, 821.7506
271.2422, 835.3811
271.7243, 849.0621
272.2065, 861.7754
272.6886, 872.1118
273.1707, 883.8445
273.6528, 898.1024
274.1349, 914.0423
274.6170, 930.5225
275.0992, 947.0845
275.5813, 964.0544
276.0634, 982.0169
276.5455, 1000.794
277.0276, 1021.196
277.5097, 1043.613
277.9919, 1067.249
278.4740, 1091.137
278.9561, 1115.051
279.4382, 1139.750
279.9203, 1167.106
280.4024, 1198.094
280.8846, 1229.601
281.3667, 1260.510
281.8488, 1292.137
282.3309, 1325.521
282.8130, 1360.855
283.2951, 1397.263
283.7773, 1433.352
284.2594, 1468.489
284.7415, 1504.962
285.2236, 1544.413
285.7057, 1583.853
286.1878, 1622.331
286.6700, 1659.164
287.1521, 1693.654
287.6342, 1725.360
288.1163, 1754.423
288.5984, 1778.940
289.0805, 1799.429
289.5627, 1815.344
290.0448, 1825.674
290.5269, 1830.887
291.0090, 1832.373
291.4911, 1831.253
291.9732, 1827.475
292.4554, 1821.745
292.9375, 1810.994
293.4196, 1801.352
293.9017, 1794.376
294.3838, 1790.103
294.8659, 1787.967
295.3481, 1787.447
295.8302, 1788.695
296.3123, 1793.829
296.7944, 1803.906
297.2765, 1817.103
297.7586, 1832.106
298.2408, 1850.246
298.7229, 1873.491
299.2050, 1902.861
299.6871, 1937.804
300.1692, 1976.115
300.6513, 2018.012
301.1335, 2063.425
301.6156, 2111.759
302.0977, 2163.414
302.5798, 2219.409
303.0619, 2279.937
303.5440, 2343.903
304.0262, 2409.944
304.5083, 2476.305
304.9904, 2547.413
305.4725, 2624.047
305.9546, 2704.332
306.4367, 2786.335
306.9189, 2869.752
307.4010, 2957.259
307.8831, 3052.781
308.3652, 3158.261
308.8473, 3267.407
309.3294, 3376.109
309.8116, 3491.522
310.2937, 3618.148
310.7758, 3755.973
311.2579, 3901.153
311.7400, 4048.198
312.2221, 4196.824
312.7043, 4358.887
313.1864, 4537.841
313.6685, 4725.204
314.1506, 4920.045
314.6327, 5121.282
315.1148, 5327.989
315.5970, 5538.956
316.0791, 5754.114
316.5612, 5972.095
317.0433, 6207.002
317.5254, 6430.654
318.0075, 6640.471
318.4897, 6833.918
318.9718, 7010.739
319.4539, 7171.300
319.9360, 7310.297
320.4181, 7411.958
320.9002, 7469.620
321.3824, 7490.290
321.8645, 7475.184
322.3466, 7424.046
322.8287, 7331.927
323.3108, 7198.880
323.7929, 7034.695
324.2751, 6856.116
324.7572, 6653.982
325.2393, 6453.045
325.7214, 6247.094
326.2035, 6045.310
326.6856, 5851.405
327.1678, 5666.820
327.6499, 5491.264
328.1320, 5323.749
328.6141, 5164.006
329.0962, 5013.179
329.5783, 4873.425
330.0605, 4738.969
330.5426, 4610.623
331.0247, 4485.574
331.5068, 4359.396
331.9889, 4228.287
332.4710, 4092.681
332.9532, 3960.002
333.4353, 3830.839
333.9174, 3702.964
334.3995, 3574.588
334.8816, 3447.980
335.3637, 3325.804
335.8459, 3210.119
336.3280, 3100.590
336.8101, 2999.472
337.2922, 2907.229
337.7743, 2823.598
338.2564, 2747.435
338.7386, 2679.142
339.2206, 2619.695
339.7028, 2568.963
340.1849, 2526.259
340.6670, 2489.705
341.1491, 2456.510
341.6312, 2437.677
342.1133, 2437.076
342.5955, 2445.499
343.0776, 2458.642
343.5597, 2476.063
344.0418, 2499.142
344.5239, 2528.747
345.0060, 2564.717
345.4882, 2610.013
345.9703, 2667.484
346.4524, 2732.685
346.9345, 2806.286
347.4166, 2886.827
347.8987, 2972.273
348.3809, 3061.006
348.8630, 3153.581
349.3451, 3251.386
349.8272, 3364.440
350.3093, 3468.127
350.7914, 3561.670
351.2736, 3643.254
351.7557, 3712.097
352.2378, 3768.106
352.7199, 3807.394
353.2020, 3823.520
353.6841, 3815.915
354.1663, 3785.625
354.6484, 3725.617
355.1305, 3649.207
355.6126, 3559.698
356.0947, 3459.388
356.5768, 3353.823
357.0590, 3245.204
357.5411, 3133.702
358.0232, 3030.737
358.5053, 2938.162
358.9874, 2853.620
359.4695, 2775.349
359.9517, 2704.131
360.4338, 2642.419
360.9159, 2593.091
361.3980, 2553.346
361.8801, 2514.310
362.3622, 2476.695
362.8444, 2438.622
363.3265, 2402.160
363.8086, 2363.738
364.2907, 2319.890
364.7728, 2269.544
365.2549, 2212.533
365.7371, 2147.300
366.2192, 2072.829
366.7013, 1996.944
367.1834, 1920.531
367.6655, 1843.884
368.1476, 1766.685
368.6298, 1688.841
369.1119, 1612.674
369.5940, 1539.357
370.0761, 1469.049
370.5582, 1403.407
371.0403, 1343.207
371.5225, 1286.812
372.0046, 1232.294
372.4867, 1180.386
372.9688, 1132.568
373.4509, 1090.050
373.9330, 1051.815
374.4152, 1016.768
374.8973, 985.1475
375.3794, 955.8096
375.8615, 928.5118
376.3436, 903.4307
376.8257, 880.8072
377.3079, 861.2295
377.7900, 842.6160
378.2721, 823.1104
378.7542, 803.1595
379.2363, 784.6741
379.7184, 767.9626
380.2006, 753.1772
380.6827, 740.9059
381.1648, 731.0980
381.6469, 721.4367
382.1290, 710.4832
382.6111, 699.4808
383.0933, 690.3802
383.5754, 683.4191
384.0575, 677.2226
384.5396, 670.3378
385.0217, 663.1830
385.5038, 658.0136
385.9860, 656.4130
386.4681, 655.4739
386.9502, 653.0063
387.4323, 649.6204
387.9144, 647.5496
388.3965, 648.0319
388.8787, 650.2175
389.3608, 651.9604
389.8429, 653.1559
390.3250, 654.2569
390.8071, 655.1510
391.2892, 656.0869
391.7714, 657.5119
392.2535, 659.4962
392.7356, 661.4926
393.2177, 662.8974
393.6998, 663.6669
394.1819, 663.7803
394.6641, 663.0240
395.1462, 661.8665
395.6283, 660.6203
396.1104, 659.2091
396.5925, 657.2239
397.0746, 654.2662
397.5568, 650.6871
398.0389, 648.3780
398.5210, 648.7409
399.0031, 648.7393
399.4852, 647.6166
399.9673, 646.1604
400.4495, 645.0164
400.9316, 644.4573
401.4137, 644.7370
401.8958, 646.3731
402.3779, 650.0046
402.8600, 653.2772
403.3422, 654.9755
403.8243, 657.4510
404.3064, 661.9886
404.7885, 668.4063
405.2706, 675.7597
405.7527, 683.2175
406.2349, 690.9694
406.7170, 700.3364
407.1991, 712.6841
407.6812, 724.6691
408.1633, 735.2009
408.6454, 745.1085
409.1276, 755.3340
409.6097, 766.1923
410.0918, 777.3475
410.5739, 788.6990
411.0560, 800.5139
411.5381, 810.8974
412.0203, 819.7775
412.5024, 826.7571
412.9845, 831.9713
413.4666, 835.1664
413.9487, 835.4001
414.4308, 831.5413
414.9130, 824.1290
415.3951, 815.1327
415.8772, 804.5409
416.3593, 792.3578
416.8414, 777.7379
417.3235, 761.7713
417.8057, 745.8058
418.2878, 730.1881
418.7699, 714.5784
419.2520, 698.4758
419.7341, 681.9350
420.2162, 665.4608
420.6984, 649.2756
421.1805, 633.2318
421.6626, 617.5184
422.1447, 602.0561
422.6268, 585.8575
423.1089, 567.1970
423.5911, 548.2031
424.0732, 531.9821
424.5553, 518.9486
425.0374, 506.7338
425.5195, 493.6377
426.0016, 479.8926
426.4838, 467.0221
426.9659, 454.8994
427.4480, 443.7511
427.9301, 433.9439
428.4122, 425.1934
428.8943, 417.1071
429.3765, 409.5552
429.8586, 402.2354
430.3407, 394.5429
430.8228, 385.7566
431.3049, 378.3042
431.7870, 372.8278
432.2692, 368.2588
432.7513, 364.1728
433.2334, 360.3476
433.7155, 356.2710
434.1976, 351.4663
434.6797, 346.0379
435.1619, 341.4093
435.6440, 338.4480
436.1261, 335.2904
436.6082, 331.5588
437.0903, 327.5090
437.5724, 323.2878
438.0546, 318.9931
438.5367, 314.9235
439.0188, 311.6251
439.5009, 309.3600
439.9830, 307.0253
440.4651, 304.6629
440.9473, 302.1410
441.4294, 299.2743
441.9115, 296.1830
442.3936, 293.2086
442.8757, 290.6588
443.3578, 288.3530
443.8400, 285.7123
444.3221, 282.5407
444.8042, 279.4999
445.2863, 276.8203
445.7684, 274.3746
446.2505, 272.0920
446.7327, 269.9579
447.2148, 268.0156
447.6969, 266.5610
448.1790, 265.4375
448.6611, 263.6630
449.1432, 260.8644
449.6254, 257.8429
450.1075, 255.3098
450.5896, 253.1267
451.0717, 250.8583
451.5538, 248.0087
452.0359, 245.3054
452.5181, 243.6767
453.0002, 242.9674
453.4823, 242.1210
453.9644, 240.6566
454.4465, 238.7723
454.9286, 236.8577
455.4108, 234.8624
455.8929, 233.0021
456.3750, 231.4370
456.8571, 229.9737
457.3392, 228.4341
457.8214, 226.7803
458.3035, 224.9479
458.7856, 222.8067
459.2677, 220.3448
459.7498, 218.3828
460.2319, 217.5100
460.7141, 216.3755
461.1962, 214.2742
461.6783, 211.7803
462.1604, 209.7757
462.6425, 208.5856
463.1246, 207.7836
463.6068, 206.6768
464.0889, 205.2711
464.5710, 203.5464
465.0531, 200.9792
465.5352, 198.6021
466.0173, 196.9253
466.4995, 195.8537
466.9816, 195.0778
467.4637, 194.5010
467.9458, 193.9536
468.4279, 192.8042
468.9100, 190.7433
469.3922, 188.8744
469.8743, 187.8157
470.3564, 186.8900
470.8385, 185.3954
471.3206, 183.2449
471.8027, 181.3390
472.2849, 180.6720
472.7670, 180.8655
473.2491, 180.4141
473.7312, 178.9944
474.2133, 177.4747
474.6954, 176.5235
475.1776, 175.9349
475.6597, 175.2612
476.1418, 174.4155
476.6239, 173.4927
477.1060, 172.5399
477.5881, 171.5657
478.0703, 170.5797
478.5524, 169.5998
479.0345, 168.5802
479.5166, 167.3983
479.9987, 165.9353
480.4808, 164.9019
480.9630, 164.6730
481.4451, 164.6093
481.9272, 164.3649
482.4093, 163.9095
482.8914, 163.2854
483.3735, 162.5118
483.8557, 161.5956
484.3378, 160.5464
484.8199, 159.0596
485.3020, 157.8891
485.7841, 157.1760
486.2662, 156.6881
486.7484, 156.4062
487.2305, 156.2198
487.7126, 155.7713
488.1947, 154.5711
488.6768, 152.7113
489.1589, 151.7451
489.6411, 152.4325
490.1232, 152.8102
490.6053, 152.0788
491.0874, 150.8373
491.5695, 149.6852
492.0516, 148.7739
492.5338, 148.1616
493.0159, 148.1474
493.4980, 148.6236
493.9801, 148.5412
494.4622, 147.4999
494.9443, 146.3560
495.4265, 145.8930
495.9086, 145.8979
496.3907, 145.8112
496.8728, 145.5341
497.3549, 145.0845
497.8370, 144.4435
498.3192, 143.6373
498.8013, 142.7151
499.2834, 141.6483
499.7655, 140.6130
500.2476, 139.8955
500.7297, 139.5484
501.2119, 139.3438
501.6940, 139.4761
502.1761, 139.5763
502.6582, 139.3895
503.1403, 138.9346
503.6224, 138.3049
504.1045, 137.5283
504.5866, 136.7095
505.0688, 136.2440
505.5509, 136.5657
506.0330, 136.5520
506.5151, 136.0955
506.9972, 135.3472
507.4793, 134.1241
507.9615, 132.6184
508.4436, 131.5776
508.9257, 131.8982
509.4078, 133.2336
509.8899, 133.3388
510.3720, 131.6223
510.8542, 129.9615
511.3363, 128.9894
511.8184, 128.4517
512.3005, 128.2314
512.7827, 128.3417
513.2648, 128.3735
513.7469, 127.8547
514.2290, 127.0167
514.7111, 126.5946
515.1932, 126.7555
515.6754, 126.9775
516.1575, 126.9352
516.6396, 126.6147
517.1217, 126.0505
517.6038, 124.9926
518.0859, 123.9830
518.5681, 123.1945
519.0502, 122.6349
519.5323, 122.4003
520.0144, 122.5097
520.4965, 122.6789
520.9786, 122.5486
521.4608, 122.0512
521.9429, 121.6637
522.4250, 121.5973
522.9071, 121.3896
523.3892, 120.7328
523.8713, 119.8697
524.3535, 119.2098
524.8356, 118.9216
525.3177, 118.7516
525.7998, 118.2213
526.2819, 117.1955
526.7640, 116.4933
527.2462, 116.3974
527.7283, 116.4055
528.2104, 116.2533
528.6925, 116.0172
529.1746, 115.9221
529.6567, 116.1869
530.1389, 116.4386
530.6210, 116.0180
531.1031, 114.9787
531.5852, 114.3064
532.0673, 114.4338
532.5494, 114.8007
533.0316, 114.7282
533.5137, 114.2514
533.9958, 113.6754
534.4779, 112.9241
534.9600, 112.2100
535.4421, 111.7617
535.9243, 111.5036
536.4064, 111.1045
536.8885, 110.3787
537.3706, 109.5842
537.8527, 109.3106
538.3348, 110.1297
538.8170, 110.3003
539.2991, 109.1072
539.7812, 107.9588
540.2633, 107.9183
540.7454, 108.6312
541.2275, 108.9620
541.7097, 108.1690
542.1918, 106.7192
542.6739, 105.8296
543.1560, 105.6199
543.6381, 105.5804
544.1202, 105.8506
544.6024, 106.0735
545.0845, 105.9011
545.5666, 105.4214
546.0487, 105.1400
546.5308, 105.7032
547.0129, 106.4289
547.4951, 105.9826
547.9772, 104.4032
548.4593, 103.2667
548.9414, 103.3830
549.4235, 104.1103
549.9056, 104.2857
550.3878, 103.8376
550.8699, 103.4398
551.3520, 103.3419
551.8341, 103.2466
552.3162, 102.8554
552.7983, 102.2275
553.2805, 101.6350
553.7626, 101.2327
554.2447, 100.9749
554.7268, 100.7322
555.2089, 100.5433
555.6910, 100.2980
556.1732, 99.95876
556.6553, 99.59808
557.1374, 99.20398
557.6195, 98.82051
558.1016, 98.55703
558.5837, 98.49271
559.0659, 98.57350
559.5480, 98.74760
560.0301, 99.07732
560.5122, 99.09943
560.9943, 98.42488
561.4764, 97.63503
561.9586, 97.37691
562.4407, 97.61082
562.9228, 97.68754
563.4049, 97.17545
563.8870, 96.52316
564.3691, 96.25156
564.8513, 96.30379
565.3334, 96.29189
565.8155, 96.02502
566.2976, 95.64961
566.7797, 95.44408
567.2618, 95.49948
567.7440, 95.52843
568.2261, 95.40357
568.7082, 95.36885
569.1903, 95.62830
569.6724, 96.09048
570.1545, 96.58768
570.6367, 97.04485
571.1188, 97.33153
571.6009, 97.04021
572.0830, 95.88807
572.5651, 95.24684
573.0472, 95.82718
573.5294, 96.39715
574.0115, 96.21268
574.4936, 95.47723
574.9757, 94.78223
575.4578, 94.26474
575.9399, 94.03482
576.4221, 94.37955
576.9042, 95.18877
577.3863, 95.86190
577.8684, 96.25201
578.3505, 96.37498
578.8326, 96.14870
579.3148, 95.53589
579.7969, 95.21938
580.2790, 95.48689
580.7611, 95.77437
581.2432, 95.77321
581.7253, 95.61797
582.2075, 95.54792
582.6896, 95.64597
583.1717, 95.82708
583.6538, 95.96279
584.1359, 96.02869
584.6180, 96.22755
585.1002, 96.72080
585.5823, 97.15881
586.0643, 97.52561
586.5464, 97.73845
587.0286, 97.60814
587.5107, 97.05161
587.9928, 96.52692
588.4749, 96.60183
