##NAMES=Vanadiocarpholite
##RRUFFID=R080099
##IDEAL CHEMISTRY=Mn^2+^V^3+^AlSi_2_O_6_(OH)_4_
##LOCALITY=Molinello mine, Graveglia Valley, Ne, Genova Province, Liguria, Italy
##OWNER=RRUFF
##SOURCE=Michael Scott
##DESCRIPTION=Yellow brown fibrous, associated with quartz crystals on matrix
##STATUS=The identification of this mineral has been confirmed only by single crystal X-ray diffraction.
##URL=rruff.info/R080099
91.87140, 0.0000000E+00
92.35352, 13.38913
92.83563, 13.35694
93.31775, 13.34361
93.79987, 13.35159
94.28198, 13.37877
94.76410, 13.41885
95.24622, 13.46862
95.72833, 13.53242
96.21045, 13.54937
96.69257, 13.50502
97.17468, 13.63140
97.65680, 14.31602
98.13892, 15.54523
98.62103, 16.43216
99.10315, 16.56136
99.58527, 16.10056
100.0674, 16.18413
100.5495, 16.86374
101.0316, 17.97453
101.5137, 19.33013
101.9958, 20.95423
102.4780, 22.77263
102.9601, 24.77963
103.4422, 26.99928
103.9243, 29.24583
104.4064, 31.55924
104.8885, 33.88649
105.3707, 36.17750
105.8528, 38.34237
106.3349, 40.57072
106.8170, 42.95148
107.2991, 45.74719
107.7813, 48.20549
108.2634, 50.41223
108.7455, 52.30406
109.2276, 53.59867
109.7097, 53.05999
110.1918, 52.83572
110.6740, 53.81689
111.1561, 57.57998
111.6382, 60.80385
112.1203, 62.73368
112.6024, 63.67833
113.0845, 65.41393
113.5667, 68.51321
114.0488, 72.32137
114.5309, 76.43702
115.0130, 81.19822
115.4951, 85.81979
115.9772, 90.08167
116.4594, 94.02124
116.9415, 97.79997
117.4236, 101.5274
117.9057, 105.1145
118.3878, 108.4523
118.8699, 111.3194
119.3521, 114.0974
119.8342, 117.0092
120.3163, 120.0673
120.7984, 123.2678
121.2805, 126.4130
121.7626, 129.7112
122.2448, 133.5184
122.7269, 139.0662
123.2090, 144.6893
123.6911, 148.8649
124.1732, 151.4457
124.6553, 152.5238
125.1375, 151.2908
125.6196, 148.3806
126.1017, 145.8002
126.5838, 144.5885
127.0659, 144.5291
127.5480, 145.2411
128.0302, 146.7071
128.5123, 148.8442
128.9944, 152.0127
129.4765, 156.0734
129.9586, 159.7265
130.4407, 161.7175
130.9229, 162.4206
131.4050, 163.4128
131.8871, 165.1241
132.3692, 167.1536
132.8513, 168.4833
133.3334, 168.8018
133.8156, 168.2170
134.2977, 167.2716
134.7798, 166.5548
135.2619, 166.5481
135.7440, 167.5314
136.2261, 169.2792
136.7083, 170.7655
137.1904, 171.8834
137.6725, 173.1071
138.1546, 175.0972
138.6367, 178.0547
139.1188, 180.7834
139.6010, 183.4685
140.0831, 186.1281
140.5652, 185.9445
141.0473, 182.1094
141.5294, 176.6339
142.0115, 171.9817
142.4937, 167.9632
142.9758, 165.0352
143.4579, 163.3992
143.9400, 163.2455
144.4221, 163.4245
144.9042, 163.9267
145.3864, 164.7473
145.8685, 165.8914
146.3506, 167.5594
146.8327, 169.2827
147.3148, 171.0052
147.7969, 173.0370
148.2791, 174.3323
148.7612, 174.3354
149.2433, 173.6605
149.7254, 173.7198
150.2075, 174.5066
150.6896, 176.0227
151.1718, 178.3055
151.6539, 182.1831
152.1360, 185.6187
152.6181, 188.3248
153.1002, 190.5295
153.5823, 192.8994
154.0645, 195.1818
154.5466, 197.8756
155.0287, 201.2454
155.5108, 207.2810
155.9929, 211.6955
156.4750, 212.8692
156.9572, 211.5917
157.4393, 211.0344
157.9214, 212.0280
158.4035, 213.8397
158.8856, 216.0103
159.3677, 218.8623
159.8499, 221.6485
160.3320, 224.1673
160.8141, 226.4340
161.2962, 228.5320
161.7783, 230.3440
162.2604, 232.0529
162.7426, 233.8099
163.2247, 236.5762
163.7068, 238.6068
164.1889, 239.0200
164.6710, 237.8694
165.1531, 236.0293
165.6353, 233.4352
166.1174, 230.5394
166.5995, 227.8289
167.0816, 226.0456
167.5637, 224.0797
168.0458, 220.9767
168.5280, 216.7567
169.0101, 212.5872
169.4922, 209.1456
169.9743, 206.2628
170.4564, 203.7294
170.9385, 202.0669
171.4207, 200.3556
171.9028, 197.5662
172.3849, 193.6276
172.8670, 189.6824
173.3491, 186.4745
173.8312, 183.8630
174.3134, 181.5704
174.7955, 179.6126
175.2776, 177.8651
175.7597, 176.1695
176.2418, 174.4917
176.7239, 172.9971
177.2061, 171.8197
177.6882, 170.9124
178.1703, 170.1667
178.6524, 169.7497
179.1345, 169.3958
179.6166, 168.5691
180.0988, 167.1558
180.5809, 165.6775
181.0630, 164.6913
181.5451, 164.1307
182.0272, 163.7729
182.5093, 163.5596
182.9915, 163.4552
183.4736, 163.4063
183.9557, 163.4302
184.4378, 163.4257
184.9199, 163.0704
185.4020, 162.4538
185.8842, 162.1769
186.3663, 162.9668
186.8484, 164.4450
187.3305, 165.1709
187.8126, 164.9641
188.2947, 164.1992
188.7769, 163.3269
189.2590, 162.3571
189.7411, 161.4858
190.2232, 160.7902
190.7053, 160.2760
191.1874, 159.9935
191.6696, 160.0012
192.1517, 160.1331
192.6338, 160.0854
193.1159, 159.8544
193.5980, 159.5577
194.0801, 159.2028
194.5623, 158.8040
195.0444, 158.6252
195.5265, 158.8111
196.0086, 159.0565
196.4907, 158.6291
196.9728, 157.4604
197.4550, 156.1904
197.9371, 155.1586
198.4192, 154.3654
198.9013, 153.7823
199.3834, 153.4972
199.8655, 153.3292
200.3477, 152.7508
200.8298, 151.6626
201.3119, 150.6197
201.7940, 150.0034
202.2761, 149.8599
202.7582, 149.6509
203.2404, 149.3746
203.7225, 148.9744
204.2046, 148.2017
204.6867, 146.9330
205.1688, 145.7147
205.6509, 144.9043
206.1331, 144.5391
206.6152, 144.3432
207.0973, 144.4075
207.5794, 144.5689
208.0615, 144.2712
208.5436, 143.3811
209.0258, 142.3805
209.5079, 141.5099
209.9900, 140.7295
210.4721, 140.2998
210.9542, 140.3559
211.4363, 140.7362
211.9185, 140.8843
212.4006, 140.7220
212.8827, 140.4921
213.3648, 140.4267
213.8469, 140.7015
214.3290, 140.4479
214.8112, 139.3768
215.2933, 137.7804
215.7754, 136.6960
216.2575, 136.2921
216.7396, 136.0779
217.2217, 135.8598
217.7039, 135.8130
218.1860, 135.1688
218.6681, 133.5776
219.1502, 131.4021
219.6323, 130.0321
220.1144, 129.7655
220.5966, 129.8155
221.0787, 129.7775
221.5608, 129.6642
222.0429, 129.4331
222.5250, 129.0701
223.0071, 128.5905
223.4893, 128.0452
223.9714, 127.3621
224.4535, 126.7224
224.9356, 126.2119
225.4177, 125.8408
225.8998, 125.5927
226.3820, 125.5083
226.8641, 125.5406
227.3462, 125.5368
227.8283, 125.5081
228.3104, 125.4250
228.7925, 125.2355
229.2747, 124.7655
229.7568, 124.5911
230.2389, 124.8306
230.7210, 125.3600
231.2031, 125.7845
231.6852, 126.0725
232.1674, 126.3006
232.6495, 126.4846
233.1316, 126.5466
233.6137, 126.7561
234.0958, 127.2374
234.5779, 127.8438
235.0601, 128.1251
235.5422, 127.8606
236.0243, 127.5965
236.5064, 127.5961
236.9885, 128.0404
237.4706, 128.3377
237.9528, 128.3941
238.4349, 128.3249
238.9170, 128.4483
239.3991, 128.9747
239.8812, 129.3772
240.3633, 129.3572
240.8455, 128.5312
241.3276, 128.2593
241.8097, 128.7814
242.2918, 129.7720
242.7739, 130.5059
243.2560, 130.5690
243.7382, 131.3136
244.2203, 131.9450
244.7024, 132.4692
245.1845, 132.5657
245.6666, 133.2146
246.1487, 133.6421
246.6309, 134.0606
247.1130, 134.7872
247.5951, 134.9459
248.0772, 135.6676
248.5593, 136.1646
249.0414, 136.7645
249.5236, 137.1417
250.0057, 137.5876
250.4878, 138.2563
250.9699, 138.8017
251.4520, 139.1531
251.9341, 139.7595
252.4163, 139.9105
252.8984, 140.4611
253.3805, 141.1841
253.8626, 141.5468
254.3447, 142.1572
254.8268, 142.6733
255.3090, 143.0649
255.7911, 143.7644
256.2732, 144.5920
256.7553, 145.4274
257.2374, 146.3657
257.7195, 147.2207
258.2017, 147.6968
258.6838, 147.5286
259.1659, 147.6132
259.6480, 148.3080
260.1301, 149.6476
260.6122, 150.4849
261.0944, 150.6537
261.5765, 150.5276
262.0586, 150.4648
262.5407, 150.4268
263.0228, 150.5620
263.5049, 150.9215
263.9871, 151.5031
264.4692, 152.1826
264.9513, 153.0708
265.4334, 153.8912
265.9155, 154.3706
266.3976, 154.4052
266.8798, 154.4117
267.3619, 154.4232
267.8440, 154.4559
268.3261, 154.6472
268.8082, 155.0163
269.2903, 155.5004
269.7725, 156.0863
270.2546, 156.8101
270.7367, 157.4336
271.2188, 157.9126
271.7009, 158.2612
272.1830, 158.4604
272.6652, 158.3687
273.1473, 158.5108
273.6294, 159.3919
274.1115, 161.1815
274.5936, 162.6526
275.0757, 163.6409
275.5579, 164.2773
276.0400, 164.8798
276.5221, 165.4379
277.0042, 165.9992
277.4863, 166.5507
277.9684, 167.0779
278.4506, 167.8132
278.9327, 168.8318
279.4148, 169.9913
279.8969, 170.9539
280.3790, 171.6835
280.8611, 172.4787
281.3433, 173.4650
281.8254, 174.6488
282.3075, 176.0564
282.7896, 177.7194
283.2717, 179.5578
283.7538, 181.5749
284.2360, 183.7901
284.7181, 185.7185
285.2002, 186.8679
285.6823, 187.3852
286.1644, 188.7578
286.6465, 191.1376
287.1287, 193.7676
287.6108, 195.4884
288.0929, 196.3642
288.5750, 197.6151
289.0571, 199.9935
289.5392, 203.1252
290.0214, 205.4189
290.5035, 206.8066
290.9856, 207.8651
291.4677, 209.0084
291.9498, 210.2779
292.4319, 211.9043
292.9141, 214.1297
293.3962, 216.6779
293.8783, 218.9391
294.3604, 220.9026
294.8425, 222.6817
295.3246, 224.2874
295.8068, 225.7927
296.2889, 227.4068
296.7710, 229.2227
297.2531, 231.1517
297.7352, 233.0757
298.2173, 234.9779
298.6995, 236.7896
299.1816, 238.2195
299.6637, 239.5295
300.1458, 241.2464
300.6279, 243.5202
301.1100, 246.1337
301.5922, 249.0455
302.0743, 252.1269
302.5564, 254.8568
303.0385, 257.0845
303.5206, 258.7297
304.0027, 259.4635
304.4849, 258.9834
304.9670, 258.6204
305.4491, 259.8950
305.9312, 262.2934
306.4133, 264.5850
306.8954, 266.2308
307.3776, 267.4400
307.8597, 268.2759
308.3418, 268.7224
308.8239, 269.2132
309.3060, 270.1050
309.7881, 271.2613
310.2703, 272.4338
310.7524, 273.6423
311.2345, 274.7623
311.7166, 275.6843
312.1987, 276.4095
312.6808, 277.0141
313.1630, 277.6314
313.6451, 278.1196
314.1272, 278.3306
314.6093, 278.1685
315.0914, 277.7538
315.5735, 276.9775
316.0557, 275.9213
316.5378, 275.0280
317.0199, 274.5655
317.5020, 274.2931
317.9841, 274.0462
318.4662, 273.8944
318.9484, 273.6146
319.4305, 273.5365
319.9126, 273.3193
320.3947, 272.0653
320.8768, 268.2595
321.3589, 264.3041
321.8411, 261.4890
322.3232, 260.5810
322.8053, 259.3994
323.2874, 257.4739
323.7695, 255.0357
324.2516, 252.4507
324.7338, 249.9995
325.2159, 247.2019
325.6980, 243.7375
326.1801, 239.3286
326.6622, 235.4035
327.1443, 232.3850
327.6265, 229.7281
328.1086, 226.8748
328.5907, 223.5711
329.0728, 220.3813
329.5549, 217.4202
330.0370, 214.6786
330.5192, 211.9448
331.0013, 209.1594
331.4834, 206.4136
331.9655, 203.7406
332.4476, 201.1419
332.9297, 198.5798
333.4119, 195.8907
333.8940, 193.2231
334.3761, 191.3739
334.8582, 190.8678
335.3403, 190.4043
335.8224, 189.2956
336.3046, 187.2834
336.7867, 185.3464
337.2688, 183.4080
337.7509, 181.6115
338.2330, 180.2467
338.7151, 179.4208
339.1973, 178.7246
339.6794, 178.0063
340.1615, 177.2708
340.6436, 176.6092
341.1257, 176.0974
341.6078, 175.5188
342.0900, 174.4706
342.5721, 172.9220
343.0542, 171.6149
343.5363, 170.8816
344.0184, 170.5703
344.5005, 170.0003
344.9827, 169.1610
345.4648, 168.1810
345.9469, 167.1096
346.4290, 165.9593
346.9111, 164.9496
347.3932, 164.1179
347.8754, 163.4322
348.3575, 163.0956
348.8396, 163.0431
349.3217, 162.5139
349.8038, 160.3672
350.2859, 157.3892
350.7681, 155.6717
351.2502, 155.6774
351.7323, 156.1107
352.2144, 155.5144
352.6965, 154.1194
353.1786, 152.6407
353.6608, 151.2862
354.1429, 150.1190
354.6250, 149.3275
355.1071, 148.9337
355.5892, 148.4924
356.0714, 147.5383
356.5535, 146.3441
357.0356, 145.3138
357.5177, 144.7823
357.9998, 144.3065
358.4819, 143.4909
358.9641, 142.4106
359.4462, 141.5051
359.9283, 141.1924
360.4104, 141.0510
360.8925, 140.7147
361.3746, 139.9765
361.8568, 139.2464
362.3389, 138.6379
362.8210, 138.1599
363.3031, 137.8187
363.7852, 137.8834
364.2673, 137.8703
364.7495, 137.4902
365.2316, 136.5734
365.7137, 135.8033
366.1958, 135.4591
366.6779, 135.2876
367.1600, 134.9876
367.6422, 134.2352
368.1243, 133.6530
368.6064, 133.4642
369.0885, 133.6971
369.5706, 133.7333
370.0527, 133.4584
370.5349, 133.0783
371.0170, 132.7147
371.4991, 132.3372
371.9812, 132.0289
372.4633, 131.7318
372.9454, 131.5109
373.4276, 131.6360
373.9097, 132.3131
374.3918, 132.9831
374.8739, 133.3913
375.3560, 133.5173
375.8381, 133.4677
376.3203, 133.1515
376.8024, 132.7776
377.2845, 132.6694
377.7666, 132.8540
378.2487, 133.1653
378.7308, 133.5905
379.2130, 134.1054
379.6951, 134.5075
380.1772, 134.7902
380.6593, 135.0067
381.1414, 135.1013
381.6235, 135.1127
382.1057, 135.4769
382.5878, 136.4311
383.0699, 137.5767
383.5520, 138.0293
384.0341, 137.8648
384.5162, 137.8093
384.9984, 138.5314
385.4805, 139.6699
385.9626, 140.3846
386.4447, 140.5268
386.9268, 140.5993
387.4089, 141.2195
387.8911, 142.1673
388.3732, 142.9333
388.8553, 143.1412
389.3374, 143.1583
389.8195, 143.2935
390.3016, 143.5482
390.7838, 143.8937
391.2659, 144.4385
391.7480, 145.0091
392.2301, 145.4317
392.7122, 145.6951
393.1943, 145.7566
393.6765, 145.5103
394.1586, 145.0333
394.6407, 144.5488
395.1228, 144.2773
395.6049, 143.9064
396.0870, 143.1903
396.5692, 141.9088
397.0513, 140.9324
397.5334, 140.7825
398.0155, 140.9102
398.4976, 140.6311
398.9797, 139.6149
399.4619, 138.4604
399.9440, 137.1388
400.4261, 135.6515
400.9082, 134.5682
401.3903, 134.1867
401.8724, 133.9222
402.3546, 133.3944
402.8367, 132.4725
403.3188, 131.5866
403.8009, 130.7938
404.2830, 130.0367
404.7651, 129.1470
405.2473, 128.0813
405.7294, 127.0303
406.2115, 126.0135
406.6936, 125.0318
407.1757, 124.4176
407.6578, 124.2559
408.1400, 124.2310
408.6221, 124.0297
409.1042, 123.6522
409.5863, 123.0512
410.0684, 122.1178
410.5505, 121.0295
411.0327, 120.1118
411.5148, 119.3638
411.9969, 118.8407
412.4790, 118.7085
412.9611, 118.8160
413.4432, 118.7661
413.9254, 118.4574
414.4075, 118.1778
414.8896, 118.4207
415.3717, 118.9427
415.8538, 119.1669
416.3359, 118.5360
416.8181, 117.6629
417.3002, 116.9606
417.7823, 116.4467
418.2644, 116.3916
418.7465, 117.5905
419.2286, 119.0194
419.7108, 119.6410
420.1929, 118.5883
420.6750, 117.5073
421.1571, 117.0228
421.6392, 116.9806
422.1213, 116.9971
422.6035, 116.9556
423.0856, 116.9634
423.5677, 117.1468
424.0498, 117.6723
424.5319, 117.7998
425.0140, 116.9411
425.4962, 115.9142
425.9783, 115.5639
426.4604, 116.5276
426.9425, 117.2318
427.4246, 117.3394
427.9067, 116.9622
428.3889, 116.8808
428.8710, 117.1915
429.3531, 117.6264
429.8352, 118.1182
430.3173, 118.7410
430.7994, 118.9469
431.2816, 118.5982
431.7637, 118.0243
432.2458, 117.7230
432.7279, 117.6975
433.2100, 117.8740
433.6921, 118.2727
434.1743, 118.8463
434.6564, 119.4898
435.1385, 120.2193
435.6206, 120.7849
436.1027, 120.9822
436.5848, 120.8516
437.0670, 120.4063
437.5491, 118.2013
438.0312, 119.8334
438.5133, 120.7702
438.9954, 121.0492
439.4775, 118.7000
439.9597, 119.7446
440.4418, 119.4291
440.9239, 119.0578
441.4060, 120.5800
441.8881, 118.6131
442.3702, 120.1053
442.8524, 120.2167
443.3345, 120.9601
443.8166, 120.3349
444.2987, 120.1325
444.7808, 121.2989
445.2629, 121.7074
445.7451, 120.9248
446.2272, 121.7083
446.7093, 119.6936
447.1914, 120.1343
447.6735, 121.6346
448.1556, 120.9207
448.6378, 121.7293
449.1199, 121.9580
449.6020, 119.5517
450.0841, 121.7280
450.5662, 121.9225
451.0483, 120.0821
451.5305, 122.1013
452.0126, 120.5415
452.4947, 120.2591
452.9768, 120.9382
453.4589, 120.6150
453.9410, 121.8720
454.4232, 121.6067
454.9053, 121.2054
455.3874, 121.3977
455.8695, 119.9080
456.3516, 120.8293
456.8337, 120.6062
457.3159, 120.6732
457.7980, 120.8731
458.2801, 120.9271
458.7622, 120.8502
459.2443, 120.7440
459.7264, 120.8186
460.2086, 120.8538
460.6907, 120.4744
461.1728, 119.5341
461.6549, 118.6329
462.1370, 118.2396
462.6191, 118.1635
463.1013, 118.1359
463.5834, 118.3112
464.0655, 118.2756
464.5476, 117.7190
465.0297, 116.7073
465.5118, 115.7886
465.9940, 115.2049
466.4761, 114.6981
466.9582, 114.1393
467.4403, 113.5387
467.9224, 112.8281
468.4045, 111.8526
468.8867, 110.8359
469.3688, 110.1140
469.8509, 109.9420
470.3330, 109.6204
470.8151, 108.9455
471.2972, 107.9594
471.7794, 107.1140
472.2615, 106.4488
472.7436, 105.7969
473.2257, 104.9650
473.7078, 103.9428
474.1899, 103.3137
474.6721, 103.2473
475.1542, 103.2246
475.6363, 102.3093
476.1184, 100.6482
476.6005, 99.18404
477.0826, 98.32032
477.5648, 97.86540
478.0469, 97.52338
478.5290, 97.29408
479.0111, 97.17673
479.4932, 97.40495
479.9753, 97.64439
480.4575, 97.43810
480.9396, 96.57963
481.4217, 95.68697
481.9038, 95.05265
482.3859, 94.65531
482.8680, 94.47608
483.3502, 94.91814
483.8323, 95.17796
484.3144, 94.78231
484.7965, 93.79139
485.2786, 93.12764
485.7607, 93.26319
486.2429, 93.50012
486.7250, 93.49553
487.2071, 93.17115
487.6892, 92.76049
488.1713, 92.17033
488.6534, 91.56124
489.1356, 91.14503
489.6177, 90.92146
490.0998, 90.92322
490.5819, 91.27579
491.0640, 91.85409
491.5461, 91.92126
492.0283, 91.40824
492.5104, 90.91183
492.9925, 90.85394
493.4746, 91.17531
493.9567, 91.63046
494.4388, 92.24724
494.9210, 92.77822
495.4031, 92.84395
495.8852, 92.60029
496.3673, 92.44308
496.8494, 92.53986
497.3315, 92.76406
497.8137, 93.02449
498.2958, 93.31634
498.7779, 93.61301
499.2600, 93.89444
499.7421, 94.18324
500.2242, 94.53757
500.7064, 95.02188
501.1885, 95.32540
501.6706, 95.07566
502.1527, 94.72401
502.6348, 94.73111
503.1169, 95.64285
503.5991, 96.33671
504.0812, 96.64787
504.5633, 96.64875
505.0454, 96.56667
505.5275, 96.23134
506.0096, 96.11423
506.4918, 95.90723
506.9739, 96.78618
507.4560, 97.45351
507.9381, 97.92065
508.4202, 97.58789
508.9023, 98.28804
509.3845, 98.57430
509.8666, 98.84355
510.3487, 99.68905
510.8308, 99.47266
511.3129, 100.3090
511.7950, 100.7252
512.2772, 101.3337
512.7593, 101.5257
513.2414, 102.5126
513.7235, 103.1801
514.2056, 103.7345
514.6877, 104.1818
515.1699, 104.2014
515.6520, 104.7732
516.1341, 105.1238
516.6162, 105.4652
517.0983, 106.1149
517.5804, 106.1966
518.0626, 106.8415
518.5447, 107.2614
519.0268, 107.7843
519.5089, 108.0845
519.9910, 108.4534
520.4731, 109.0451
520.9553, 109.5136
521.4374, 109.7880
521.9195, 110.3175
522.4016, 110.3914
522.8837, 110.8650
523.3658, 111.5111
523.8480, 111.7969
524.3301, 112.3303
524.8122, 112.7695
525.2943, 113.2205
525.7764, 113.9829
526.2585, 114.7778
526.7407, 115.4699
527.2228, 115.6885
527.7049, 115.5221
528.1870, 115.4778
528.6691, 116.0101
529.1512, 116.7569
529.6334, 117.2994
530.1155, 117.6080
530.5976, 117.8360
531.0797, 118.0444
531.5618, 118.2342
532.0439, 118.3957
532.5261, 118.4077
533.0082, 118.5608
533.4903, 119.1122
533.9724, 119.8387
534.4545, 120.2729
534.9366, 119.9958
535.4188, 119.8553
535.9009, 120.0874
536.3830, 120.6829
536.8651, 121.1965
537.3472, 121.5938
537.8293, 121.9800
538.3115, 122.4591
538.7936, 123.0497
539.2757, 123.4433
539.7578, 123.5851
540.2399, 123.6378
540.7220, 123.7468
541.2042, 123.9339
541.6863, 124.3583
542.1684, 125.2263
542.6505, 126.1720
543.1326, 126.5373
543.6147, 126.4806
544.0969, 126.6219
544.5790, 127.6914
545.0611, 128.8579
545.5432, 129.3470
546.0253, 129.0624
546.5074, 128.8005
546.9896, 128.8848
547.4717, 129.1384
547.9538, 129.4230
548.4359, 129.8457
548.9180, 130.1190
549.4001, 130.0569
549.8823, 129.8864
550.3644, 129.9951
550.8465, 130.4797
551.3286, 131.0882
551.8107, 131.8779
552.2928, 132.7715
552.7750, 133.0826
553.2571, 132.7020
553.7392, 132.2893
554.2213, 132.3360
554.7034, 132.7486
555.1855, 132.9971
555.6677, 133.0530
556.1498, 132.9647
556.6319, 132.6164
557.1140, 132.1780
557.5961, 130.4035
558.0782, 132.0700
558.5604, 133.0413
559.0425, 133.3547
559.5246, 131.0399
560.0067, 132.1189
560.4888, 131.8378
560.9709, 131.5010
561.4531, 133.0576
561.9352, 131.1251
562.4173, 132.6517
562.8994, 132.7975
563.3815, 133.5753
563.8636, 132.7530
564.3458, 132.7723
564.8279, 132.5828
565.3100, 132.0755
565.7921, 131.4956
566.2742, 131.2391
566.7563, 131.3638
567.2385, 131.2074
567.7206, 130.5378
568.2027, 129.6232
568.6848, 129.1181
569.1669, 128.9618
569.6490, 128.7533
570.1312, 128.2398
570.6133, 127.5566
571.0954, 126.9294
571.5775, 126.3444
572.0596, 125.6534
572.5417, 124.6197
573.0239, 123.5089
573.5060, 122.5487
573.9881, 121.7505
574.4702, 121.1590
574.9523, 120.9957
575.4344, 120.9642
575.9166, 120.6910
576.3987, 119.9449
576.8808, 119.2236
577.3629, 118.5797
577.8450, 117.9941
578.3271, 117.3913
578.8093, 116.7594
579.2914, 116.1515
579.7735, 115.6392
580.2556, 115.1940
580.7377, 114.4676
581.2198, 113.4324
581.7020, 112.4368
582.1841, 111.8203
582.6662, 111.4587
583.1483, 111.0489
583.6304, 110.5524
584.1125, 110.0338
584.5947, 109.4842
585.0768, 108.9695
585.5589, 108.5934
586.0410, 108.7324
586.5231, 108.6386
587.0052, 107.7460
587.4874, 106.3672
587.9695, 105.3538
