##NAMES=Vanadinite
##RRUFFID=R050533
##IDEAL CHEMISTRY=Pb^2+^_5_(V^5+^O_4_)_3_Cl
##LOCALITY=Ahumada mine, Los Lamentos, Mexico
##OWNER=RRUFF
##SOURCE=University of Arizona Mineral Museum
##DESCRIPTION=Greenish-brown hexagonal prisms
##STATUS=The identification of this mineral has been confirmed by X-ray diffraction and chemical analysis
##URL=rruff.info/R050533
##MEASURED CHEMISTRY=Pb_5.00_((V_0.95_As_0.05_)O_4_)_3_Cl_1.00_
92.37695, 645.1088
92.85907, 635.7823
93.34119, 637.9589
93.82330, 646.6618
94.30542, 653.2278
94.78754, 655.7414
95.26965, 655.5703
95.75177, 653.4816
96.23389, 649.7478
96.71600, 644.7842
97.19812, 639.3427
97.68024, 633.5941
98.16235, 627.8135
98.64447, 622.4024
99.12659, 617.6494
99.60870, 611.0671
100.0908, 604.4426
100.5729, 597.4218
101.0551, 589.1617
101.5372, 578.9758
102.0193, 567.2983
102.5014, 556.9768
102.9835, 548.3971
103.4656, 540.6183
103.9478, 533.8017
104.4299, 527.5898
104.9120, 521.4677
105.3941, 515.0049
105.8762, 508.0478
106.3583, 501.6332
106.8405, 496.1575
107.3226, 490.6180
107.8047, 484.1215
108.2868, 476.6900
108.7689, 469.4043
109.2510, 463.5545
109.7332, 459.2037
110.2153, 455.3077
110.6974, 451.7757
111.1795, 448.6104
111.6616, 445.8163
112.1437, 443.4494
112.6259, 441.4143
113.1080, 439.5048
113.5901, 437.7237
114.0722, 436.3210
114.5543, 435.5317
115.0364, 435.3324
115.5185, 435.3454
116.0007, 435.4279
116.4828, 435.7869
116.9649, 436.6440
117.4470, 438.0166
117.9291, 439.5934
118.4112, 440.8805
118.8934, 441.5039
119.3755, 442.7779
119.8576, 444.8432
120.3397, 447.4892
120.8218, 450.7346
121.3039, 454.5703
121.7861, 458.7071
122.2682, 462.3470
122.7503, 464.9046
123.2324, 467.5125
123.7145, 470.0705
124.1966, 472.7532
124.6788, 475.8335
125.1609, 479.5457
125.6430, 483.7784
126.1251, 487.5615
126.6072, 490.4572
127.0893, 493.4554
127.5715, 496.9273
128.0536, 500.8618
128.5357, 505.1187
129.0178, 509.8379
129.4999, 514.8410
129.9821, 519.1945
130.4642, 522.2849
130.9463, 525.0521
131.4284, 528.6404
131.9105, 533.2859
132.3926, 537.8308
132.8748, 541.3484
133.3569, 544.1694
133.8390, 546.6835
134.3211, 548.5846
134.8032, 550.2327
135.2853, 553.0861
135.7674, 558.3111
136.2496, 563.1703
136.7317, 566.3537
137.2138, 568.1335
137.6959, 569.2320
138.1780, 570.1578
138.6601, 570.9197
139.1423, 571.4295
139.6244, 571.4145
140.1065, 571.3679
140.5886, 571.6014
141.0707, 572.0466
141.5528, 572.3590
142.0350, 572.1389
142.5171, 571.3035
142.9992, 570.0308
143.4813, 568.3962
143.9634, 566.3814
144.4455, 563.7404
144.9277, 560.4929
145.4098, 557.1251
145.8919, 554.4933
146.3740, 553.5342
146.8561, 551.5226
147.3382, 547.6777
147.8204, 542.9279
148.3025, 538.3873
148.7846, 534.4483
149.2667, 530.8400
149.7488, 526.9088
150.2309, 522.4606
150.7131, 518.3000
151.1952, 515.2496
151.6773, 512.8348
152.1594, 509.4734
152.6415, 504.0529
153.1236, 497.8548
153.6058, 492.9128
154.0879, 489.5205
154.5700, 486.5484
155.0521, 483.1519
155.5342, 479.3258
156.0163, 475.4807
156.4985, 471.5505
156.9806, 467.8231
157.4627, 464.6579
157.9448, 462.2155
158.4269, 460.0246
158.9090, 457.2857
159.3912, 453.6644
159.8733, 450.3600
160.3554, 447.8125
160.8375, 445.5991
161.3196, 443.3348
161.8017, 440.8546
162.2839, 438.2724
162.7660, 435.9489
163.2481, 433.9712
163.7302, 432.1720
164.2123, 430.6805
164.6944, 429.2969
165.1766, 427.8223
165.6587, 426.1418
166.1408, 424.2578
166.6229, 422.1163
167.1050, 418.8129
167.5871, 416.2286
168.0693, 415.2555
168.5514, 415.2903
169.0335, 415.1211
169.5156, 413.9223
169.9977, 411.7679
170.4798, 410.0591
170.9620, 409.1410
171.4441, 408.2413
171.9262, 407.0953
172.4083, 405.6895
172.8904, 404.0172
173.3725, 402.0097
173.8547, 399.7020
174.3368, 397.5053
174.8189, 395.4449
175.3010, 393.4628
175.7831, 391.5557
176.2652, 389.7220
176.7474, 387.8561
177.2295, 385.9100
177.7116, 383.8652
178.1937, 381.7238
178.6758, 379.5616
179.1579, 377.2688
179.6401, 374.6518
180.1222, 371.6885
180.6043, 368.4774
181.0864, 364.8069
181.5685, 360.9666
182.0506, 357.5030
182.5328, 354.8986
183.0149, 352.8299
183.4970, 350.2336
183.9791, 346.8515
184.4612, 343.3094
184.9433, 339.9407
185.4255, 336.6397
185.9076, 333.1751
186.3897, 329.3332
186.8718, 325.1656
187.3539, 321.3284
187.8360, 317.9276
188.3182, 314.7840
188.8003, 312.0550
189.2824, 309.5458
189.7645, 306.8464
190.2466, 303.5420
190.7287, 299.5587
191.2109, 296.4893
191.6930, 295.1384
192.1751, 293.8954
192.6572, 292.4630
193.1393, 290.7348
193.6214, 288.5739
194.1036, 285.7915
194.5857, 282.2144
195.0678, 279.3794
195.5499, 277.7266
196.0320, 276.2257
196.5141, 274.3795
196.9963, 272.2104
197.4784, 270.0232
197.9605, 268.1078
198.4426, 266.5068
198.9247, 264.9528
199.4068, 263.4408
199.8890, 261.9733
200.3711, 260.5200
200.8532, 259.0859
201.3353, 257.7742
201.8174, 256.7378
202.2995, 255.9909
202.7817, 254.9979
203.2638, 253.4145
203.7459, 251.7627
204.2280, 250.6382
204.7101, 250.1245
205.1922, 249.6110
205.6744, 248.4003
206.1565, 246.6547
206.6386, 245.1736
207.1207, 244.2641
207.6028, 243.6484
208.0849, 242.9548
208.5671, 242.1367
209.0492, 241.3150
209.5313, 240.6410
210.0134, 240.0413
210.4955, 239.3479
210.9776, 238.3570
211.4598, 237.2451
211.9419, 236.4557
212.4240, 236.1768
212.9061, 235.8411
213.3882, 235.0236
213.8703, 233.9210
214.3525, 232.8823
214.8346, 232.0775
215.3167, 231.4738
215.7988, 230.9601
216.2809, 230.4877
216.7630, 230.2018
217.2451, 230.3105
217.7273, 230.6040
218.2094, 230.7207
218.6915, 230.4247
219.1736, 229.7699
219.6557, 229.0719
220.1378, 228.2636
220.6200, 227.4990
221.1021, 226.7348
221.5842, 226.0528
222.0663, 225.5895
222.5484, 225.4660
223.0305, 225.6441
223.5127, 225.7552
223.9948, 225.8918
224.4769, 225.8438
224.9590, 225.4391
225.4411, 224.8310
225.9232, 224.2682
226.4054, 223.9134
226.8875, 223.7542
227.3696, 223.6227
227.8517, 223.6518
228.3338, 223.5708
228.8159, 223.0899
229.2981, 222.4725
229.7802, 222.2432
230.2623, 222.7938
230.7444, 224.0098
231.2265, 224.5569
231.7086, 223.8010
232.1908, 223.1284
232.6729, 222.8773
233.1550, 222.9607
233.6371, 223.1840
234.1192, 223.4450
234.6013, 223.7309
235.0835, 223.9417
235.5656, 224.0246
236.0477, 224.1064
236.5298, 224.2289
237.0119, 224.3777
237.4940, 224.5132
237.9762, 224.6041
238.4583, 224.6724
238.9404, 224.8277
239.4225, 225.2296
239.9046, 225.5256
240.3867, 225.4553
240.8689, 225.1736
241.3510, 225.0770
241.8331, 225.3906
242.3152, 225.9924
242.7973, 226.5000
243.2794, 226.8177
243.7616, 227.2048
244.2437, 227.8823
244.7258, 228.7354
245.2079, 229.3669
245.6900, 229.4932
246.1721, 229.4542
246.6543, 229.9745
247.1364, 231.2453
247.6185, 232.4870
248.1006, 233.3032
248.5827, 233.7666
249.0648, 234.0990
249.5470, 234.2298
250.0291, 234.4508
250.5112, 235.1481
250.9933, 236.3439
251.4754, 237.7791
251.9576, 239.5625
252.4397, 241.5440
252.9218, 243.0430
253.4039, 243.5799
253.8860, 243.9412
254.3681, 245.0278
254.8503, 246.8347
255.3324, 248.6854
255.8145, 250.0763
256.2966, 251.1190
256.7787, 252.3907
257.2608, 254.0527
257.7430, 255.9041
258.2251, 257.6488
258.7072, 259.3387
259.1893, 261.3227
259.6714, 263.9171
260.1535, 267.0285
260.6357, 270.1744
261.1178, 273.2834
261.5999, 276.4631
262.0820, 279.6501
262.5641, 282.9272
263.0462, 286.5451
263.5284, 290.9338
264.0105, 295.8971
264.4926, 300.2546
264.9747, 303.1749
265.4568, 306.6892
265.9389, 311.9420
266.4211, 318.4168
266.9032, 325.0169
267.3853, 331.0039
267.8674, 336.5952
268.3495, 342.8339
268.8316, 350.0062
269.3138, 357.4717
269.7959, 364.9380
270.2780, 372.4974
270.7601, 380.3028
271.2422, 388.4444
271.7243, 396.8776
272.2065, 405.3792
272.6886, 414.0345
273.1707, 422.5268
273.6528, 430.5312
274.1349, 438.4565
274.6170, 446.6523
275.0992, 455.3098
275.5813, 464.3775
276.0634, 473.6647
276.5455, 483.2384
277.0276, 492.9848
277.5097, 502.6423
277.9919, 512.5422
278.4740, 523.0480
278.9561, 534.3345
279.4382, 546.0762
279.9203, 557.8583
280.4024, 569.8302
280.8846, 581.3895
281.3667, 592.0131
281.8488, 602.5515
282.3309, 613.6494
282.8130, 625.4445
283.2951, 637.5105
283.7773, 649.3143
284.2594, 661.0530
284.7415, 671.9657
285.2236, 682.4766
285.7057, 691.9828
286.1878, 700.1298
286.6700, 706.8414
287.1521, 712.3134
287.6342, 716.8265
288.1163, 720.4809
288.5984, 722.5222
289.0805, 723.2496
289.5627, 722.2806
290.0448, 719.2021
290.5269, 714.1495
291.0090, 707.6063
291.4911, 699.9150
291.9732, 691.0399
292.4554, 681.6562
292.9375, 671.8884
293.4196, 661.4728
293.9017, 649.7292
294.3838, 637.2380
294.8659, 625.0970
295.3481, 614.0695
295.8302, 604.0967
296.3123, 594.9918
296.7944, 587.0961
297.2765, 579.7486
297.7586, 572.4439
298.2408, 565.7051
298.7229, 560.4557
299.2050, 557.2526
299.6871, 555.7288
300.1692, 554.5067
300.6513, 553.3423
301.1335, 552.8725
301.6156, 553.0114
302.0977, 553.9215
302.5798, 555.8898
303.0619, 559.0127
303.5440, 562.9493
304.0262, 567.0488
304.5083, 571.2105
304.9904, 575.6956
305.4725, 580.1068
305.9546, 585.0334
306.4367, 591.0701
306.9189, 598.3002
307.4010, 606.2880
307.8831, 614.4150
308.3652, 622.5017
308.8473, 631.2498
309.3294, 640.6717
309.8116, 650.6579
310.2937, 661.1291
310.7758, 672.0829
311.2579, 683.5479
311.7400, 695.5254
312.2221, 708.2241
312.7043, 720.6133
313.1864, 732.0582
313.6685, 743.9066
314.1506, 756.9551
314.6327, 770.9172
315.1148, 785.1201
315.5970, 799.0978
316.0791, 812.8162
316.5612, 825.7249
317.0433, 838.6531
317.5254, 849.9417
318.0075, 859.2042
318.4897, 866.5599
318.9718, 872.2888
319.4539, 876.5473
319.9360, 879.1577
320.4181, 879.5906
320.9002, 879.1457
321.3824, 874.2886
321.8645, 863.6752
322.3466, 849.2747
322.8287, 832.4745
323.3108, 813.9644
323.7929, 794.0463
324.2751, 773.3935
324.7572, 751.7053
325.2393, 729.6493
325.7214, 706.4797
326.2035, 683.3979
326.6856, 660.7808
327.1678, 638.8771
327.6499, 617.9482
328.1320, 598.1769
328.6141, 579.5250
329.0962, 562.1985
329.5783, 546.1206
330.0605, 531.2033
330.5426, 517.6978
331.0247, 505.3318
331.5068, 493.5903
331.9889, 482.0005
332.4710, 470.6381
332.9532, 460.7889
333.4353, 453.0680
333.9174, 446.2286
334.3995, 440.2980
334.8816, 435.0784
335.3637, 430.2673
335.8459, 425.7289
336.3280, 421.6652
336.8101, 418.8508
337.2922, 418.2028
337.7743, 417.5204
338.2564, 416.1680
338.7386, 414.9571
339.2206, 414.4924
339.7028, 414.9795
340.1849, 416.4137
340.6670, 418.8465
341.1491, 422.5025
341.6312, 426.6410
342.1133, 431.0281
342.5955, 435.9858
343.0776, 441.6325
343.5597, 448.0144
344.0418, 455.1925
344.5239, 463.2846
345.0060, 472.3246
345.4882, 481.6756
345.9703, 491.5788
346.4524, 501.5991
346.9345, 511.6214
347.4166, 521.6826
347.8987, 531.9256
348.3809, 542.4252
348.8630, 553.0961
349.3451, 563.3312
349.8272, 572.7996
350.3093, 582.4971
350.7914, 592.5465
351.2736, 602.9225
351.7557, 613.5359
352.2378, 624.3859
352.7199, 635.4650
353.2020, 646.7050
353.6841, 658.0963
354.1663, 669.6717
354.6484, 680.9892
355.1305, 692.8330
355.6126, 705.7101
356.0947, 719.6181
356.5768, 734.1266
357.0590, 748.9039
357.5411, 763.8643
358.0232, 779.1809
358.5053, 795.4875
358.9874, 811.3976
359.4695, 826.3558
359.9517, 840.4664
360.4338, 854.0904
360.9159, 867.9588
361.3980, 881.1342
361.8801, 891.0251
362.3622, 897.6063
362.8444, 900.6054
363.3265, 901.0729
363.8086, 897.7986
364.2907, 889.0380
364.7728, 874.0349
365.2549, 854.5335
365.7371, 832.5995
366.2192, 808.1702
366.7013, 780.9257
367.1834, 748.7542
367.6655, 715.1995
368.1476, 682.2744
368.6298, 650.1111
369.1119, 619.5696
369.5940, 591.7020
370.0761, 566.1317
370.5582, 541.1700
371.0403, 516.0853
371.5225, 492.8195
372.0046, 472.9278
372.4867, 455.6969
372.9688, 439.4359
373.4509, 423.4520
373.9330, 408.2219
374.4152, 394.5236
374.8973, 382.4657
375.3794, 371.4654
375.8615, 361.5274
376.3436, 352.5030
376.8257, 344.0941
377.3079, 336.3047
377.7900, 329.0294
378.2721, 322.2765
378.7542, 315.9908
379.2363, 309.8991
379.7184, 303.7831
380.2006, 298.0365
380.6827, 293.1913
381.1648, 289.2169
381.6469, 285.5839
382.1290, 282.3983
382.6111, 279.3275
383.0933, 275.7864
383.5754, 271.6646
384.0575, 267.6795
384.5396, 264.3346
385.0217, 261.6518
385.5038, 259.2376
385.9860, 257.3000
386.4681, 255.4471
386.9502, 253.4062
387.4323, 251.2472
387.9144, 249.1850
388.3965, 247.3286
388.8787, 245.6382
389.3608, 244.0356
389.8429, 242.5547
390.3250, 241.0537
390.8071, 239.2955
391.2892, 237.5907
391.7714, 236.4064
392.2535, 235.8316
392.7356, 235.4374
393.2177, 234.7490
393.6998, 233.7192
394.1819, 232.5253
394.6641, 230.8102
395.1462, 229.2577
395.6283, 228.4767
396.1104, 228.2316
396.5925, 227.7486
397.0746, 226.4719
397.5568, 224.6115
398.0389, 223.3019
398.5210, 223.0850
399.0031, 222.7951
399.4852, 222.2136
399.9673, 221.5383
400.4495, 221.0049
400.9316, 220.6834
401.4137, 220.4446
401.8958, 220.1408
402.3779, 219.9426
402.8600, 219.1799
403.3422, 217.1283
403.8243, 215.2294
404.3064, 214.3367
404.7885, 214.2779
405.2706, 214.3352
405.7527, 213.9665
406.2349, 213.2285
406.7170, 212.6095
407.1991, 212.3820
407.6812, 211.8691
408.1633, 210.6486
408.6454, 209.2039
409.1276, 208.0692
409.6097, 207.4419
410.0918, 207.1150
410.5739, 206.9072
411.0560, 206.9293
411.5381, 206.4749
412.0203, 204.8895
412.5024, 203.2450
412.9845, 202.2293
413.4666, 201.7689
413.9487, 201.3010
414.4308, 200.4067
414.9130, 199.1919
415.3951, 198.0285
415.8772, 196.8787
416.3593, 195.8763
416.8414, 195.2636
417.3235, 194.7937
417.8057, 194.1102
418.2878, 193.0439
418.7699, 191.9081
419.2520, 190.9719
419.7341, 190.2274
420.2162, 189.6089
420.6984, 189.1280
421.1805, 188.7339
421.6626, 188.4335
422.1447, 188.2341
422.6268, 187.8295
423.1089, 186.8809
423.5911, 185.7643
424.0732, 185.0471
424.5553, 184.7957
425.0374, 184.5808
425.5195, 184.0826
426.0016, 183.3328
426.4838, 182.6336
426.9659, 181.9289
427.4480, 181.3317
427.9301, 181.0694
428.4122, 180.9411
428.8943, 180.4435
429.3765, 179.3492
429.8586, 178.0714
430.3407, 177.3490
430.8228, 177.5506
431.3049, 177.5349
431.7870, 177.1198
432.2692, 176.6182
432.7513, 176.2590
433.2334, 176.0455
433.7155, 175.8495
434.1976, 175.5726
434.6797, 175.2190
435.1619, 174.8384
435.6440, 174.4415
436.1261, 173.9993
436.6082, 173.3976
437.0903, 172.7925
437.5724, 172.3969
438.0546, 172.2769
438.5367, 172.2561
439.0188, 172.0475
439.5009, 171.5799
439.9830, 171.1510
440.4651, 170.6836
440.9473, 170.3291
441.4294, 170.2090
441.9115, 170.2706
442.3936, 170.3779
442.8757, 170.4853
443.3578, 170.5447
443.8400, 170.3723
444.3221, 169.9003
444.8042, 169.3633
445.2863, 168.7863
445.7684, 168.2147
446.2505, 167.6756
446.7327, 167.1694
447.2148, 166.7699
447.6969, 166.5828
448.1790, 166.5763
448.6611, 166.5926
449.1432, 166.6607
449.6254, 166.6436
450.1075, 166.3305
450.5896, 165.8206
451.0717, 165.4193
451.5538, 165.2010
452.0359, 165.1310
452.5181, 165.3752
453.0002, 165.8416
453.4823, 165.8176
453.9644, 164.7946
454.4465, 163.3100
454.9286, 162.6225
455.4108, 162.9026
455.8929, 163.2520
456.3750, 163.6366
456.8571, 163.8992
457.3392, 163.7928
457.8214, 163.3148
458.3035, 162.7746
458.7856, 162.4447
459.2677, 162.3277
459.7498, 162.1635
460.2319, 161.7693
460.7141, 161.5433
461.1962, 161.8490
461.6783, 162.3121
462.1604, 162.3288
462.6425, 161.6838
463.1246, 160.7906
463.6068, 160.4006
464.0889, 160.8444
464.5710, 160.9176
465.0531, 160.2246
465.5352, 159.5528
466.0173, 159.3164
466.4995, 159.4213
466.9816, 159.5418
467.4637, 159.4680
467.9458, 159.2572
468.4279, 159.0964
468.9100, 159.0130
469.3922, 158.9069
469.8743, 158.7354
470.3564, 158.5363
470.8385, 158.3245
471.3206, 158.1035
471.8027, 157.9128
472.2849, 157.7548
472.7670, 157.6471
473.2491, 157.7086
473.7312, 158.0325
474.2133, 158.2840
474.6954, 158.1880
475.1776, 157.8371
475.6597, 157.4178
476.1418, 156.8565
476.6239, 156.3619
477.1060, 156.1348
477.5881, 156.0986
478.0703, 156.0152
478.5524, 155.7994
479.0345, 155.5366
479.5166, 155.3380
479.9987, 155.1985
480.4808, 155.1662
480.9630, 155.4565
481.4451, 155.6797
481.9272, 155.4768
482.4093, 154.9535
482.8914, 154.4986
483.3735, 154.3515
483.8557, 154.4215
484.3378, 154.3799
484.8199, 154.0706
485.3020, 153.8721
485.7841, 153.8873
486.2662, 153.9488
486.7484, 153.8939
487.2305, 153.7282
487.7126, 153.6092
488.1947, 153.7018
488.6768, 153.9874
489.1589, 154.1913
489.6411, 154.4136
490.1232, 154.3753
490.6053, 153.7869
491.0874, 153.0238
491.5695, 152.5122
492.0516, 152.3754
492.5338, 152.4338
493.0159, 152.6182
493.4980, 152.8923
493.9801, 152.8728
494.4622, 152.3665
494.9443, 151.8235
495.4265, 151.6166
495.9086, 151.6665
496.3907, 151.7912
496.8728, 152.1397
497.3549, 152.3770
497.8370, 152.0763
498.3192, 151.3925
498.8013, 150.9303
499.2834, 150.9538
499.7655, 151.2040
500.2476, 151.2662
500.7297, 151.0887
501.2119, 150.9002
501.6940, 150.6485
502.1761, 150.4427
502.6582, 150.4214
503.1403, 150.5243
503.6224, 150.5297
504.1045, 150.2830
504.5866, 149.8889
505.0688, 149.7330
505.5509, 150.0436
506.0330, 150.2386
506.5151, 150.3353
506.9972, 150.2799
507.4793, 149.9400
507.9615, 149.3737
508.4436, 148.8459
508.9257, 148.5813
509.4078, 148.5456
509.8899, 148.5718
510.3720, 148.7681
510.8542, 148.7863
511.3363, 148.1789
511.8184, 147.4952
512.3005, 147.3972
512.7827, 148.0582
513.2648, 148.6672
513.7469, 148.4730
514.2290, 147.7507
514.7111, 147.3040
515.1932, 147.2532
515.6754, 147.3856
516.1575, 147.6217
516.6396, 147.9158
517.1217, 148.0664
517.6038, 148.0122
518.0859, 147.8764
518.5681, 147.7067
519.0502, 147.4948
519.5323, 147.1827
520.0144, 146.7570
520.4965, 146.3720
520.9786, 146.2204
521.4608, 146.3372
521.9429, 146.4845
522.4250, 146.7702
522.9071, 146.9666
523.3892, 146.9460
523.8713, 146.7962
524.3535, 146.6567
524.8356, 146.5851
525.3177, 146.5236
525.7998, 146.3591
526.2819, 146.0550
526.7640, 145.8260
527.2462, 145.6138
527.7283, 145.5677
528.2104, 145.9717
528.6925, 146.5816
529.1746, 146.8111
529.6567, 146.2333
530.1389, 145.4487
530.6210, 145.3888
531.1031, 145.9985
531.5852, 146.2541
532.0673, 145.6955
532.5494, 144.9339
533.0316, 144.7760
533.5137, 145.1763
533.9958, 145.5042
534.4779, 145.5844
534.9600, 145.5864
535.4421, 145.6710
535.9243, 145.7989
536.4064, 145.8130
536.8885, 145.6319
537.3706, 145.3278
537.8527, 145.0487
538.3348, 144.7536
538.8170, 144.5719
539.2991, 144.5815
539.7812, 144.6258
540.2633, 144.5832
540.7454, 144.4959
541.2275, 144.5199
541.7097, 144.7753
542.1918, 145.1197
542.6739, 145.1506
543.1560, 144.7585
543.6381, 144.4024
544.1202, 144.1863
544.6024, 144.0227
545.0845, 143.8498
545.5666, 143.6754
546.0487, 143.5601
546.5308, 143.6567
547.0129, 143.7688
547.4951, 143.4597
547.9772, 142.7461
548.4593, 142.3263
548.9414, 142.6098
549.4235, 143.2020
549.9056, 143.3519
550.3878, 142.9845
550.8699, 142.7375
551.3520, 142.7249
551.8341, 142.8817
552.3162, 143.3344
552.7983, 143.9403
553.2805, 144.2163
553.7626, 143.8528
554.2447, 143.0893
554.7268, 142.6180
555.2089, 142.5582
555.6910, 142.5967
556.1732, 142.9062
556.6553, 143.1416
557.1374, 143.0204
557.6195, 142.6254
558.1016, 142.2631
558.5837, 142.1309
559.0659, 142.1445
559.5480, 142.0864
560.0301, 141.9259
560.5122, 141.8874
560.9943, 142.1561
561.4764, 142.4545
561.9586, 142.5131
562.4407, 142.3413
562.9228, 142.1107
563.4049, 141.7608
563.8870, 141.4686
564.3691, 141.5089
564.8513, 141.8167
565.3334, 142.0324
565.8155, 141.9926
566.2976, 141.7764
566.7797, 141.5101
567.2618, 141.0856
567.7440, 140.8883
568.2261, 141.0955
568.7082, 141.3661
569.1903, 141.4996
569.6724, 141.5340
570.1545, 141.6120
570.6367, 141.8128
571.1188, 142.0618
571.6009, 142.2272
572.0830, 142.3435
572.5651, 142.2315
573.0472, 141.5359
573.5294, 140.9408
574.0115, 140.9055
574.4936, 141.2687
574.9757, 141.5591
575.4578, 141.5381
575.9399, 141.4239
576.4221, 141.5071
576.9042, 141.7399
577.3863, 141.8189
577.8684, 141.6145
578.3505, 141.3691
578.8326, 141.4566
579.3148, 141.9186
579.7969, 141.8831
580.2790, 140.7171
580.7611, 139.6868
581.2432, 139.5565
581.7253, 139.9328
582.2075, 140.0631
582.6896, 139.7048
583.1717, 139.3199
583.6538, 139.6148
584.1359, 140.7359
584.6180, 141.4890
585.1002, 141.7352
585.5823, 141.7575
586.0643, 141.5300
586.5464, 141.1855
587.0286, 140.8743
587.5107, 140.6338
587.9928, 140.4721
588.4749, 140.3912
