##NAMES=Vanadinite
##RRUFFID=R050530
##IDEAL CHEMISTRY=Pb^2+^_5_(V^5+^O_4_)_3_Cl
##LOCALITY=Hillsboro, Sierra County, New Mexico, USA
##OWNER=RRUFF
##SOURCE=University of Arizona Mineral Museum
##DESCRIPTION=Yellow hexagonal prisms
##STATUS=The identification of this mineral has been confirmed by X-ray diffraction and chemical analysis
##URL=rruff.info/R050530
##MEASURED CHEMISTRY=Pb_5.00_((V_0.93_As_0.07_)O_4_)_3_Cl_1.00_
90.92609, 0.0000000E+00
91.40820, 132.7648
91.89032, 132.9287
92.37244, 132.9561
92.85455, 132.8404
93.33667, 132.5433
93.81879, 131.4647
94.30090, 130.0956
94.78302, 130.1026
95.26514, 132.5450
95.74725, 135.9929
96.22937, 137.1659
96.71149, 135.9392
97.19360, 133.7447
97.67572, 131.2231
98.15784, 128.4438
98.63995, 127.2343
99.12207, 128.5654
99.60419, 132.1104
100.0863, 135.0100
100.5684, 137.0565
101.0505, 138.8842
101.5327, 141.4943
102.0148, 145.2004
102.4969, 148.5466
102.9790, 150.7190
103.4611, 151.1645
103.9432, 153.5380
104.4253, 158.6567
104.9075, 165.2557
105.3896, 170.3573
105.8717, 171.4739
106.3538, 174.5416
106.8359, 181.9871
107.3180, 195.6939
107.8002, 210.4072
108.2823, 226.3014
108.7644, 243.2015
109.2465, 261.1429
109.7286, 276.6840
110.2107, 295.5212
110.6929, 320.4223
111.1750, 354.5009
111.6571, 390.9525
112.1392, 428.1678
112.6213, 466.6693
113.1034, 511.2227
113.5856, 563.4893
114.0677, 622.2500
114.5498, 686.0988
115.0319, 748.7402
115.5140, 822.6263
115.9961, 909.8084
116.4783, 1010.422
116.9604, 1125.820
117.4425, 1261.642
117.9246, 1412.540
118.4067, 1571.183
118.8888, 1743.169
119.3710, 1917.679
119.8531, 2088.891
120.3352, 2255.545
120.8173, 2421.141
121.2994, 2588.281
121.7815, 2754.392
122.2637, 2915.683
122.7458, 3067.877
123.2279, 3213.915
123.7100, 3354.432
124.1921, 3488.214
124.6742, 3621.846
125.1564, 3749.774
125.6385, 3879.414
126.1206, 4034.963
126.6027, 4233.285
127.0848, 4465.334
127.5669, 4714.869
128.0491, 4979.996
128.5312, 5260.824
129.0133, 5557.938
129.4954, 5869.052
129.9775, 6197.839
130.4596, 6554.261
130.9418, 6930.145
131.4239, 7307.167
131.9060, 7681.602
132.3881, 8056.771
132.8702, 8437.850
133.3523, 8827.727
133.8345, 9209.209
134.3166, 9566.556
134.7987, 9902.774
135.2808, 10226.76
135.7629, 10545.82
136.2450, 10859.36
136.7272, 11156.35
137.2093, 11438.76
137.6914, 11704.23
138.1735, 11947.85
138.6556, 12164.96
139.1377, 12376.67
139.6199, 12589.85
140.1020, 12802.66
140.5841, 13012.38
141.0662, 13212.80
141.5483, 13415.12
142.0304, 13636.52
142.5126, 13886.39
142.9947, 14123.30
143.4768, 14284.67
143.9589, 14330.25
144.4410, 14395.48
144.9231, 14494.28
145.4053, 14603.78
145.8874, 14690.99
146.3695, 14750.40
146.8516, 14796.64
147.3337, 14834.57
147.8158, 14870.53
148.2980, 14885.81
148.7801, 14879.93
149.2622, 14854.65
149.7443, 14813.55
150.2264, 14766.90
150.7085, 14695.30
151.1907, 14592.39
151.6728, 14440.92
152.1549, 14285.49
152.6370, 14130.92
153.1191, 13972.23
153.6012, 13801.13
154.0834, 13609.34
154.5655, 13411.19
155.0476, 13209.25
155.5297, 13000.37
156.0118, 12797.21
156.4939, 12598.80
156.9761, 12405.40
157.4582, 12225.20
157.9403, 12066.37
158.4224, 11916.60
158.9045, 11768.00
159.3866, 11616.45
159.8688, 11471.15
160.3509, 11334.29
160.8330, 11206.21
161.3151, 11088.87
161.7972, 10983.83
162.2793, 10889.22
162.7615, 10803.62
163.2436, 10730.04
163.7257, 10661.98
164.2078, 10593.41
164.6899, 10525.56
165.1720, 10468.01
165.6541, 10431.26
166.1363, 10404.47
166.6184, 10376.94
167.1005, 10347.47
167.5826, 10314.13
168.0647, 10271.56
168.5468, 10220.70
169.0290, 10174.65
169.5111, 10140.90
169.9932, 10116.86
170.4753, 10099.10
170.9574, 10093.99
171.4395, 10089.98
171.9217, 10078.94
172.4038, 10060.87
172.8859, 10035.06
173.3680, 9997.175
173.8501, 9951.729
174.3322, 9905.859
174.8144, 9865.377
175.2965, 9824.454
175.7786, 9775.503
176.2607, 9717.696
176.7428, 9659.507
177.2249, 9612.166
177.7071, 9570.893
178.1892, 9522.848
178.6713, 9460.356
179.1534, 9387.897
179.6355, 9313.268
180.1176, 9236.306
180.5998, 9154.083
181.0819, 9060.033
181.5640, 8956.901
182.0461, 8850.957
182.5282, 8748.116
183.0103, 8645.111
183.4925, 8535.248
183.9746, 8418.727
184.4567, 8296.080
184.9388, 8166.147
185.4209, 8028.958
185.9030, 7892.271
186.3852, 7757.751
186.8673, 7626.327
187.3494, 7495.988
187.8315, 7366.796
188.3136, 7240.380
188.7957, 7116.108
189.2779, 6994.845
189.7600, 6872.159
190.2421, 6740.594
190.7242, 6604.641
191.2063, 6489.858
191.6884, 6402.156
192.1706, 6325.145
192.6527, 6228.839
193.1348, 6113.228
193.6169, 5997.725
194.0990, 5889.922
194.5811, 5789.972
195.0633, 5694.804
195.5454, 5605.595
196.0275, 5518.433
196.5096, 5427.560
196.9917, 5331.710
197.4738, 5241.385
197.9560, 5163.930
198.4381, 5099.717
198.9202, 5034.192
199.4023, 4966.567
199.8844, 4898.338
200.3665, 4834.142
200.8487, 4774.414
201.3308, 4714.638
201.8129, 4651.146
202.2950, 4583.265
202.7771, 4521.008
203.2592, 4464.459
203.7414, 4413.090
204.2235, 4365.999
204.7056, 4324.532
205.1877, 4283.572
205.6698, 4240.036
206.1519, 4193.074
206.6341, 4148.327
207.1162, 4106.186
207.5983, 4066.566
208.0804, 4030.353
208.5625, 3999.013
209.0446, 3967.593
209.5268, 3933.798
210.0089, 3897.331
210.4910, 3859.093
210.9731, 3816.337
211.4552, 3773.626
211.9373, 3744.180
212.4195, 3733.165
212.9016, 3722.658
213.3837, 3703.305
213.8658, 3671.686
214.3479, 3643.396
214.8300, 3618.373
215.3121, 3596.820
215.7943, 3580.333
216.2764, 3572.178
216.7585, 3562.386
217.2406, 3545.518
217.7227, 3518.722
218.2048, 3494.266
218.6870, 3472.128
219.1691, 3452.383
219.6512, 3434.913
220.1333, 3420.174
220.6154, 3406.709
221.0975, 3393.621
221.5797, 3380.885
222.0618, 3368.912
222.5439, 3357.156
223.0260, 3346.526
223.5081, 3339.672
223.9902, 3340.654
224.4724, 3338.583
224.9545, 3328.148
225.4366, 3304.981
225.9187, 3285.652
226.4008, 3269.514
226.8829, 3257.413
227.3651, 3251.466
227.8472, 3254.264
228.3293, 3258.831
228.8114, 3263.164
229.2935, 3268.582
229.7757, 3269.287
230.2578, 3263.100
230.7399, 3253.181
231.2220, 3245.646
231.7041, 3241.465
232.1862, 3238.054
232.6684, 3234.165
233.1505, 3228.725
233.6326, 3226.314
234.1147, 3228.155
234.5968, 3232.336
235.0789, 3235.063
235.5611, 3234.116
236.0432, 3235.371
236.5253, 3241.615
237.0074, 3254.978
237.4895, 3265.321
237.9716, 3272.115
238.4538, 3276.254
238.9359, 3278.686
239.4180, 3277.066
239.9001, 3277.632
240.3822, 3282.354
240.8643, 3291.614
241.3465, 3303.376
241.8286, 3319.733
242.3107, 3337.102
242.7928, 3350.006
243.2749, 3355.380
243.7570, 3361.486
244.2392, 3370.462
244.7213, 3382.594
245.2034, 3396.393
245.6855, 3413.679
246.1676, 3431.259
246.6497, 3443.936
247.1319, 3444.999
247.6140, 3453.737
248.0961, 3477.544
248.5782, 3518.980
249.0603, 3552.127
249.5424, 3572.194
250.0246, 3588.904
250.5067, 3613.702
250.9888, 3651.002
251.4709, 3687.718
251.9530, 3720.573
252.4351, 3749.540
252.9173, 3780.152
253.3994, 3812.436
253.8815, 3846.681
254.3636, 3883.417
254.8457, 3922.691
255.3278, 3963.051
255.8100, 4002.992
256.2921, 4042.853
256.7742, 4089.827
257.2563, 4145.080
257.7384, 4205.724
258.2205, 4268.776
258.7026, 4335.031
259.1848, 4402.942
259.6669, 4471.466
260.1490, 4541.400
260.6311, 4613.750
261.1132, 4687.706
261.5953, 4765.345
262.0775, 4846.032
262.5596, 4928.109
263.0417, 5020.543
263.5238, 5126.896
264.0059, 5244.377
264.4880, 5364.050
264.9702, 5482.255
265.4523, 5608.136
265.9344, 5747.616
266.4165, 5904.295
266.8986, 6064.365
267.3807, 6224.081
267.8629, 6388.626
268.3450, 6578.353
268.8271, 6802.069
269.3092, 7034.600
269.7913, 7265.403
270.2734, 7489.801
270.7556, 7729.337
271.2377, 7987.542
271.7198, 8262.573
272.2019, 8551.857
272.6840, 8854.721
273.1661, 9175.119
273.6483, 9514.464
274.1304, 9871.069
274.6125, 10250.97
275.0946, 10654.71
275.5767, 11077.62
276.0588, 11509.08
276.5410, 11944.28
277.0231, 12405.78
277.5052, 12894.83
277.9873, 13413.25
278.4694, 13950.80
278.9515, 14503.60
279.4337, 15082.59
279.9158, 15707.09
280.3979, 16376.33
280.8800, 17071.85
281.3621, 17773.98
281.8442, 18487.08
282.3264, 19225.32
282.8085, 19988.43
283.2906, 20778.06
283.7727, 21600.66
284.2548, 22456.65
284.7369, 23328.89
285.2191, 24233.03
285.7012, 25144.49
286.1833, 26003.90
286.6654, 26813.14
287.1475, 27562.56
287.6296, 28248.87
288.1118, 28870.94
288.5939, 29385.15
289.0760, 29794.92
289.5581, 30079.41
290.0402, 30187.74
290.5223, 30117.90
291.0045, 29917.62
291.4866, 29616.17
291.9687, 29213.60
292.4508, 28702.57
292.9329, 28061.14
293.4150, 27340.43
293.8972, 26582.81
294.3793, 25791.97
294.8614, 25004.83
295.3435, 24242.36
295.8256, 23507.12
296.3077, 22808.40
296.7899, 22149.10
297.2720, 21540.42
297.7541, 21008.40
298.2362, 20551.85
298.7183, 20155.16
299.2004, 19810.54
299.6826, 19521.89
300.1647, 19285.80
300.6468, 19101.70
301.1289, 18981.63
301.6110, 18943.23
302.0931, 18978.41
302.5753, 19065.43
303.0574, 19196.02
303.5395, 19371.78
304.0216, 19592.42
304.5037, 19859.81
304.9858, 20171.29
305.4680, 20525.86
305.9501, 20923.55
306.4322, 21362.31
306.9143, 21839.93
307.3964, 22362.93
307.8785, 22949.20
308.3607, 23595.11
308.8428, 24284.89
309.3249, 25003.92
309.8070, 25762.67
310.2891, 26569.43
310.7712, 27432.19
311.2534, 28349.73
311.7355, 29307.55
312.2176, 30321.12
312.6997, 31419.84
313.1818, 32628.01
313.6639, 33906.59
314.1461, 35235.36
314.6282, 36598.89
315.1103, 38014.28
315.5924, 39508.18
316.0745, 41053.29
316.5566, 42619.26
317.0388, 44233.38
317.5209, 45817.63
318.0030, 47367.03
318.4851, 48908.12
318.9672, 50298.05
319.4493, 51526.86
319.9315, 52563.01
320.4136, 53379.18
320.8957, 54022.73
321.3778, 54382.56
321.8599, 54429.74
322.3420, 54162.13
322.8242, 53584.93
323.3063, 52665.43
323.7884, 51453.32
324.2705, 49991.96
324.7526, 48125.31
325.2347, 46166.22
325.7169, 44174.74
326.1990, 42141.71
326.6811, 40143.56
327.1632, 38152.68
327.6453, 36220.24
328.1274, 34375.61
328.6096, 32598.22
329.0917, 30924.65
329.5738, 29369.41
330.0559, 27932.38
330.5380, 26589.42
331.0201, 25353.38
331.5023, 24197.32
331.9844, 23105.95
332.4665, 22083.72
332.9486, 21139.58
333.4307, 20298.98
333.9128, 19527.51
334.3950, 18782.64
334.8771, 18041.98
335.3592, 17357.81
335.8413, 16757.14
336.3234, 16241.98
336.8055, 15755.67
337.2877, 15296.40
337.7698, 14875.26
338.2519, 14500.25
338.7340, 14177.10
339.2161, 13890.22
339.6982, 13640.57
340.1803, 13425.38
340.6624, 13240.97
341.1446, 13083.99
341.6267, 12962.60
342.1088, 12881.32
342.5909, 12841.14
343.0730, 12829.43
343.5551, 12843.70
344.0373, 12886.66
344.5194, 12962.04
345.0015, 13070.24
345.4836, 13215.62
345.9657, 13399.72
346.4478, 13622.88
346.9300, 13888.78
347.4121, 14202.57
347.8942, 14549.28
348.3763, 14922.42
348.8584, 15318.43
349.3405, 15724.45
349.8227, 16135.51
350.3048, 16552.84
350.7869, 16980.48
351.2690, 17417.00
351.7511, 17859.75
352.2332, 18306.74
352.7154, 18753.88
353.1975, 19192.29
353.6796, 19619.91
354.1617, 20036.80
354.6438, 20432.39
355.1259, 20811.92
355.6081, 21202.78
356.0902, 21621.38
356.5723, 22064.83
357.0544, 22530.15
357.5365, 23003.99
358.0186, 23516.53
358.5008, 24081.65
358.9829, 24699.29
359.4650, 25369.77
359.9471, 26122.64
360.4292, 26906.69
360.9113, 27706.67
361.3935, 28520.50
361.8756, 29297.45
362.3577, 30069.27
362.8398, 30774.57
363.3219, 31343.59
363.8040, 31821.50
364.2862, 32099.39
364.7683, 32145.87
365.2504, 31960.57
365.7325, 31560.97
366.2146, 30924.40
366.6967, 30092.36
367.1789, 29090.67
367.6610, 27811.24
368.1431, 26493.10
368.6252, 25112.40
369.1073, 23688.74
369.5894, 22309.21
370.0716, 20937.20
370.5537, 19635.26
371.0358, 18413.32
371.5179, 17269.59
372.0000, 16206.63
372.4821, 15238.04
372.9643, 14350.48
373.4464, 13530.59
373.9285, 12786.80
374.4106, 12107.40
374.8927, 11490.20
375.3748, 10932.08
375.8570, 10415.76
376.3391, 9938.833
376.8212, 9499.405
377.3033, 9091.537
377.7854, 8718.611
378.2675, 8369.136
378.7497, 8037.855
379.2318, 7729.533
379.7139, 7449.490
380.1960, 7201.175
380.6781, 6968.728
381.1602, 6744.591
381.6424, 6530.156
382.1245, 6335.795
382.6066, 6161.386
383.0887, 6002.679
383.5708, 5854.003
384.0529, 5715.639
384.5351, 5581.514
385.0172, 5446.608
385.4993, 5317.840
385.9814, 5203.750
386.4635, 5104.973
386.9456, 5014.406
387.4278, 4927.869
387.9099, 4846.809
388.3920, 4772.768
388.8741, 4707.821
389.3562, 4648.038
389.8383, 4590.922
390.3205, 4535.454
390.8026, 4480.429
391.2847, 4420.380
391.7668, 4363.682
392.2489, 4317.359
392.7310, 4284.051
393.2132, 4252.928
393.6953, 4222.136
394.1774, 4189.923
394.6595, 4153.861
395.1416, 4105.845
395.6237, 4061.359
396.1059, 4028.264
396.5880, 4005.861
397.0701, 3980.532
397.5522, 3945.090
398.0343, 3909.176
398.5164, 3878.576
398.9986, 3857.099
399.4807, 3836.728
399.9628, 3817.479
400.4449, 3799.153
400.9270, 3781.230
401.4091, 3764.333
401.8913, 3747.228
402.3734, 3728.230
402.8555, 3705.552
403.3376, 3691.528
403.8197, 3688.859
404.3018, 3691.639
404.7840, 3693.689
405.2661, 3694.471
405.7482, 3696.324
406.2303, 3699.911
406.7124, 3704.794
407.1945, 3709.235
407.6767, 3713.018
408.1588, 3717.171
408.6409, 3723.137
409.1230, 3730.618
409.6051, 3735.919
410.0872, 3738.718
410.5694, 3739.477
411.0515, 3740.130
411.5336, 3740.051
412.0157, 3735.034
412.4978, 3721.344
412.9799, 3702.043
413.4621, 3685.896
413.9442, 3672.572
414.4263, 3651.325
414.9084, 3609.480
415.3905, 3554.735
415.8727, 3498.972
416.3548, 3446.477
416.8369, 3391.536
417.3190, 3326.187
417.8011, 3254.302
418.2832, 3184.911
418.7654, 3127.411
419.2475, 3071.191
419.7296, 3009.550
420.2117, 2940.493
420.6938, 2870.073
421.1759, 2796.019
421.6581, 2723.835
422.1402, 2658.466
422.6223, 2610.015
423.1044, 2559.828
423.5865, 2500.893
424.0686, 2435.160
424.5508, 2375.844
425.0329, 2329.637
425.5150, 2286.215
425.9971, 2240.927
426.4792, 2191.835
426.9613, 2145.026
427.4435, 2099.956
427.9256, 2057.828
428.4077, 2021.052
428.8898, 1990.861
429.3719, 1962.448
429.8540, 1934.914
430.3362, 1908.227
430.8183, 1879.382
431.3004, 1847.605
431.7825, 1816.359
432.2646, 1788.400
432.7467, 1763.823
433.2289, 1741.089
433.7110, 1720.562
434.1931, 1701.544
434.6752, 1683.682
435.1573, 1666.783
435.6394, 1648.848
436.1216, 1626.527
436.6036, 1602.743
437.0858, 1585.579
437.5679, 1575.249
438.0500, 1565.318
438.5321, 1549.359
439.0142, 1530.095
439.4963, 1512.049
439.9785, 1496.429
440.4606, 1482.606
440.9427, 1472.131
441.4248, 1463.497
441.9069, 1452.332
442.3890, 1431.455
442.8712, 1411.002
443.3533, 1399.345
443.8354, 1399.885
444.3175, 1396.483
444.7996, 1378.718
445.2817, 1356.482
445.7639, 1339.968
446.2460, 1336.785
446.7281, 1333.003
447.2102, 1326.228
447.6923, 1316.644
448.1744, 1306.125
448.6566, 1292.916
449.1387, 1280.542
449.6208, 1271.188
450.1029, 1267.227
450.5850, 1258.381
451.0671, 1242.040
451.5493, 1223.617
452.0314, 1211.226
452.5135, 1206.245
452.9956, 1201.881
453.4777, 1196.728
453.9598, 1190.831
454.4420, 1184.174
454.9241, 1176.818
455.4062, 1168.734
455.8883, 1159.647
456.3704, 1149.794
456.8525, 1140.203
457.3347, 1131.072
457.8168, 1122.590
458.2989, 1115.297
458.7810, 1108.990
459.2631, 1103.292
459.7452, 1100.121
460.2274, 1096.125
460.7095, 1085.938
461.1916, 1070.382
461.6737, 1056.769
462.1558, 1051.422
462.6379, 1048.894
463.1201, 1044.063
463.6022, 1034.908
464.0843, 1025.650
464.5664, 1016.700
465.0485, 1008.968
465.5306, 1003.907
466.0128, 1006.062
466.4949, 1006.748
466.9770, 1002.527
467.4591, 993.1393
467.9412, 985.3431
468.4233, 980.2194
468.9055, 975.8571
469.3876, 971.1771
469.8697, 966.2824
470.3518, 960.8547
470.8339, 954.6007
471.3160, 947.9874
471.7982, 941.7440
472.2803, 935.8221
472.7624, 930.4608
473.2445, 925.7733
473.7266, 921.7316
474.2087, 918.6813
474.6909, 916.7869
475.1730, 914.5051
475.6551, 910.0174
476.1372, 903.9103
476.6193, 898.6266
477.1014, 894.5944
477.5836, 891.3853
478.0657, 889.2575
478.5478, 887.6382
479.0299, 884.9506
479.5120, 878.9664
479.9941, 872.5267
480.4763, 868.9097
480.9584, 867.8187
481.4405, 866.1207
481.9226, 860.8369
482.4047, 854.9780
482.8868, 851.0526
483.3690, 850.3579
483.8511, 850.0432
484.3332, 850.4489
484.8153, 850.5137
485.2974, 848.5124
485.7795, 842.1229
486.2617, 835.8444
486.7438, 829.7337
487.2259, 823.8472
487.7080, 822.2726
488.1901, 829.0503
488.6722, 834.8854
489.1544, 833.1167
489.6365, 820.5781
490.1186, 813.3756
490.6007, 813.7184
491.0828, 816.9965
491.5649, 815.9122
492.0471, 810.3172
492.5292, 803.7429
493.0113, 796.3326
493.4934, 789.3138
493.9755, 787.2294
494.4576, 789.8364
494.9398, 791.5472
495.4219, 786.5915
495.9040, 778.2660
496.3861, 773.1235
496.8682, 772.3403
497.3503, 772.0243
497.8325, 768.3842
498.3146, 763.1895
498.7967, 759.1080
499.2788, 758.5625
499.7609, 758.1541
500.2430, 755.9569
500.7252, 752.4001
501.2073, 749.3286
501.6894, 747.1452
502.1715, 745.7529
502.6536, 745.5772
503.1357, 748.0672
503.6179, 747.6376
504.1000, 742.2988
504.5821, 735.2474
505.0642, 729.6490
505.5463, 726.2167
506.0284, 722.5695
506.5106, 717.9576
506.9927, 713.0477
507.4748, 710.5064
507.9569, 710.8979
508.4390, 710.8710
508.9211, 708.3268
509.4033, 703.6411
509.8854, 700.0029
510.3675, 697.4721
510.8496, 695.4661
511.3317, 693.5567
511.8138, 691.7159
512.2960, 690.0848
512.7781, 689.0944
513.2602, 687.4125
513.7423, 682.9880
514.2244, 676.7423
514.7065, 670.9147
515.1887, 665.8015
515.6708, 662.0736
516.1529, 660.8466
516.6350, 662.0331
517.1171, 662.8235
517.5992, 662.9534
518.0814, 661.8812
518.5635, 659.0512
519.0456, 651.9182
519.5277, 647.1554
520.0098, 646.5372
520.4919, 647.8287
520.9741, 647.8872
521.4562, 646.8036
521.9383, 644.1134
522.4204, 638.6147
522.9025, 631.2300
523.3846, 628.4489
523.8668, 631.2124
524.3489, 634.6795
524.8310, 636.4257
525.3131, 636.4213
525.7952, 633.7447
526.2773, 627.8939
526.7595, 622.0452
527.2416, 620.6275
527.7237, 622.1372
528.2058, 622.7408
528.6879, 621.3141
529.1700, 618.5197
529.6522, 613.6371
530.1343, 607.7379
530.6164, 603.7720
531.0985, 604.7177
531.5806, 606.9244
532.0627, 608.8301
532.5449, 610.3908
533.0270, 609.8574
533.5091, 604.0197
533.9912, 597.6057
534.4733, 594.0458
534.9554, 596.0057
535.4376, 597.4836
535.9197, 599.1906
536.4018, 600.0536
536.8839, 597.5795
537.3660, 589.7909
537.8481, 583.9939
538.3303, 582.6240
538.8124, 584.7952
539.2945, 586.0624
539.7766, 586.4814
540.2587, 585.5385
540.7408, 581.5219
541.2230, 575.6694
541.7051, 573.1765
542.1872, 574.7054
542.6693, 577.1000
543.1514, 577.4656
543.6335, 576.4365
544.1157, 575.1801
544.5978, 574.0245
545.0799, 572.8045
545.5620, 571.7946
546.0441, 570.6613
546.5262, 568.5781
547.0084, 563.2219
547.4905, 558.6843
547.9726, 556.9240
548.4547, 558.2538
548.9368, 559.6702
549.4189, 561.9808
549.9011, 563.4028
550.3832, 562.7222
550.8653, 558.6024
551.3474, 555.6161
551.8295, 554.5200
552.3116, 553.7699
552.7938, 550.4401
553.2759, 544.0667
553.7580, 539.7463
554.2401, 539.4109
554.7222, 541.4912
555.2043, 542.5057
555.6865, 542.4457
556.1686, 541.2698
556.6507, 537.6055
557.1328, 533.3550
557.6149, 531.4626
558.0970, 532.1034
558.5792, 533.7190
559.0613, 536.7578
559.5434, 539.4761
560.0255, 539.8546
560.5076, 535.7631
560.9897, 532.3260
561.4719, 531.6387
561.9540, 532.5681
562.4361, 533.2319
562.9182, 533.5748
563.4003, 533.3862
563.8824, 532.3715
564.3646, 530.6924
564.8467, 529.4518
565.3288, 528.6625
565.8109, 528.2617
566.2930, 528.2552
566.7751, 528.6481
567.2573, 529.3033
567.7394, 530.3246
568.2215, 531.1361
568.7036, 530.7915
569.1857, 529.6724
569.6678, 529.2697
570.1500, 530.0676
570.6321, 531.2586
571.1142, 532.3564
571.5963, 533.1363
572.0784, 533.0892
572.5605, 530.6859
573.0427, 528.5386
573.5248, 528.4913
574.0069, 530.2777
574.4890, 531.9430
574.9711, 532.9349
575.4532, 533.5989
575.9354, 533.9659
576.4175, 533.7948
576.8996, 534.2535
577.3817, 535.7986
577.8638, 537.5197
578.3459, 538.6991
578.8281, 539.3539
579.3102, 539.1722
579.7923, 537.8048
580.2744, 536.0438
580.7565, 535.0056
581.2386, 534.7374
581.7208, 536.3160
582.2029, 541.8856
582.6850, 548.3474
583.1671, 549.3312
583.6492, 545.6681
584.1313, 542.3082
584.6134, 542.7737
585.0955, 544.7463
585.5776, 545.8871
586.0598, 545.8242
586.5419, 546.4998
