##NAMES=Vanadinite
##RRUFFID=R050189
##IDEAL CHEMISTRY=Pb^2+^_5_(V^5+^O_4_)_3_Cl
##LOCALITY=Puzzler mine, Yuma County, Arizona, USA
##OWNER=RRUFF
##SOURCE=Dave Bunk Minerals
##DESCRIPTION=Red and green hexagonal prisms
##STATUS=The identification of this mineral has been confirmed by X-ray diffraction and chemical analysis
##URL=rruff.info/R050189
##MEASURED CHEMISTRY=Pb_5.00_(V_1.00_O_4_)_3_Cl_1.00_
92.96582, 4594.656
93.44794, 4530.364
93.93005, 4535.832
94.41217, 4636.339
94.89429, 4696.602
95.37640, 4722.306
95.85852, 4723.343
96.34064, 4707.423
96.82275, 4680.249
97.30487, 4638.979
97.78699, 4582.454
98.26910, 4507.079
98.75122, 4427.643
99.23334, 4351.847
99.71545, 4277.196
100.1976, 4196.472
100.6797, 4121.560
101.1618, 4049.223
101.6439, 3971.175
102.1260, 3881.118
102.6081, 3783.597
103.0903, 3689.164
103.5724, 3596.479
104.0545, 3506.509
104.5366, 3418.410
105.0187, 3331.732
105.5008, 3245.584
105.9830, 3157.895
106.4651, 3067.824
106.9472, 2983.113
107.4293, 2901.059
107.9114, 2825.287
108.3935, 2759.164
108.8757, 2701.673
109.3578, 2649.373
109.8399, 2597.825
110.3220, 2545.867
110.8041, 2497.509
111.2862, 2450.886
111.7684, 2407.950
112.2505, 2371.615
112.7326, 2342.528
113.2147, 2318.007
113.6968, 2292.466
114.1789, 2263.680
114.6611, 2238.027
115.1432, 2217.214
115.6253, 2200.419
116.1074, 2185.450
116.5895, 2170.757
117.0716, 2158.497
117.5538, 2153.056
118.0359, 2157.350
118.5180, 2163.031
119.0001, 2162.540
119.4822, 2155.581
119.9643, 2152.102
120.4465, 2158.559
120.9286, 2171.177
121.4107, 2187.237
121.8928, 2207.890
122.3749, 2229.675
122.8570, 2244.787
123.3392, 2247.052
123.8213, 2254.319
124.3034, 2273.742
124.7855, 2300.705
125.2676, 2329.482
125.7497, 2356.416
126.2319, 2381.831
126.7140, 2409.507
127.1961, 2444.171
127.6782, 2476.984
128.1603, 2503.612
128.6424, 2526.215
129.1246, 2550.103
129.6067, 2580.695
130.0888, 2619.684
130.5709, 2656.390
131.0530, 2690.439
131.5351, 2723.413
132.0173, 2755.795
132.4994, 2787.965
132.9815, 2820.294
133.4636, 2853.000
133.9457, 2885.739
134.4278, 2921.403
134.9100, 2964.579
135.3921, 3009.190
135.8742, 3047.076
136.3563, 3075.125
136.8384, 3099.292
137.3205, 3130.134
137.8027, 3168.712
138.2848, 3201.848
138.7669, 3221.589
139.2490, 3230.676
139.7311, 3239.734
140.2132, 3251.095
140.6954, 3264.386
141.1775, 3280.097
141.6596, 3298.785
142.1417, 3315.533
142.6238, 3325.446
143.1059, 3327.963
143.5881, 3327.691
144.0702, 3326.496
144.5523, 3322.540
145.0344, 3313.902
145.5165, 3299.975
145.9986, 3282.337
146.4807, 3264.126
146.9629, 3247.077
147.4450, 3225.532
147.9271, 3196.104
148.4092, 3163.556
148.8913, 3132.701
149.3734, 3105.772
149.8556, 3081.635
150.3377, 3055.856
150.8198, 3027.510
151.3019, 2997.996
151.7840, 2968.509
152.2661, 2937.672
152.7483, 2902.947
153.2304, 2862.219
153.7125, 2815.933
154.1946, 2774.389
154.6767, 2739.992
155.1588, 2706.592
155.6410, 2671.997
156.1231, 2636.421
156.6052, 2601.068
157.0873, 2566.287
157.5694, 2532.816
158.0515, 2503.837
158.5337, 2481.679
159.0158, 2462.355
159.4979, 2443.136
159.9800, 2423.837
160.4621, 2405.180
160.9442, 2388.922
161.4264, 2373.899
161.9085, 2356.751
162.3906, 2334.075
162.8727, 2309.512
163.3548, 2288.668
163.8369, 2271.935
164.3191, 2258.872
164.8012, 2251.001
165.2833, 2246.393
165.7654, 2241.051
166.2475, 2231.692
166.7296, 2219.344
167.2118, 2209.621
167.6939, 2204.577
168.1760, 2200.058
168.6581, 2194.462
169.1402, 2187.850
169.6223, 2180.464
170.1045, 2172.027
170.5866, 2162.269
171.0687, 2154.567
171.5508, 2150.584
172.0329, 2147.373
172.5150, 2144.837
172.9972, 2142.385
173.4793, 2138.799
173.9614, 2132.913
174.4435, 2124.877
174.9256, 2113.585
175.4077, 2094.878
175.8899, 2076.682
176.3720, 2064.961
176.8541, 2059.708
177.3362, 2055.568
177.8183, 2045.550
178.3004, 2026.648
178.7826, 2007.837
179.2647, 1989.889
179.7468, 1971.569
180.2289, 1951.612
180.7110, 1929.823
181.1931, 1906.930
181.6752, 1884.093
182.1574, 1861.787
182.6395, 1838.218
183.1216, 1813.126
183.6037, 1786.625
184.0858, 1759.357
184.5679, 1731.587
185.0501, 1702.698
185.5322, 1670.128
186.0143, 1633.082
186.4964, 1599.339
186.9785, 1573.912
187.4606, 1554.073
187.9428, 1532.614
188.4249, 1507.145
188.9070, 1479.902
189.3891, 1453.419
189.8712, 1427.630
190.3533, 1402.848
190.8355, 1379.577
191.3176, 1357.626
191.7997, 1336.313
192.2818, 1315.167
192.7639, 1294.713
193.2460, 1275.652
193.7282, 1257.959
194.2103, 1240.235
194.6924, 1220.351
195.1745, 1197.635
195.6566, 1177.750
196.1387, 1164.840
196.6209, 1153.318
197.1030, 1140.382
197.5851, 1125.485
198.0672, 1109.708
198.5493, 1094.301
199.0314, 1079.369
199.5136, 1064.516
199.9957, 1049.204
200.4778, 1034.263
200.9599, 1019.637
201.4420, 1005.491
201.9241, 993.0165
202.4063, 984.6323
202.8884, 984.2556
203.3705, 980.1419
203.8526, 969.1367
204.3347, 956.5428
204.8168, 946.5576
205.2990, 940.3776
205.7811, 935.8516
206.2632, 928.8717
206.7453, 915.6223
207.2274, 905.4754
207.7095, 900.8320
208.1917, 897.8317
208.6738, 892.4054
209.1559, 883.2382
209.6380, 872.8301
210.1201, 866.2772
210.6022, 866.7676
211.0844, 866.6632
211.5665, 865.6167
212.0486, 863.8522
212.5307, 861.5187
213.0128, 858.6417
213.4949, 855.4795
213.9771, 852.6287
214.4592, 850.7583
214.9413, 847.8206
215.4234, 842.4995
215.9055, 836.0954
216.3876, 830.5153
216.8698, 826.4016
217.3519, 823.4176
217.8340, 821.0154
218.3161, 819.1165
218.7982, 817.7521
219.2803, 817.2140
219.7625, 817.2232
220.2446, 817.0560
220.7267, 816.3141
221.2088, 815.6446
221.6909, 816.1150
222.1730, 817.8251
222.6552, 819.5166
223.1373, 820.6523
223.6194, 821.2824
224.1015, 821.6322
224.5836, 821.8317
225.0657, 821.6063
225.5479, 820.6218
226.0300, 818.8584
226.5121, 817.0420
226.9942, 815.0507
227.4763, 813.1185
227.9584, 813.0188
228.4406, 816.4483
228.9227, 820.5284
229.4048, 822.9124
229.8869, 823.6247
230.3690, 823.8602
230.8511, 823.8337
231.3333, 823.6042
231.8154, 825.6707
232.2975, 833.1930
232.7796, 840.4855
233.2617, 843.5952
233.7438, 842.8540
234.2260, 841.7590
234.7081, 843.9728
235.1902, 849.8387
235.6723, 853.7274
236.1544, 852.1564
236.6365, 851.1405
237.1187, 853.5345
237.6008, 859.1415
238.0829, 866.0687
238.5650, 872.9031
239.0471, 879.7479
239.5292, 885.6835
240.0114, 889.3926
240.4935, 893.2656
240.9756, 898.9520
241.4577, 905.8991
241.9398, 911.9761
242.4219, 914.8154
242.9041, 913.7388
243.3862, 914.4878
243.8683, 916.8936
244.3504, 921.2713
244.8325, 928.9680
245.3146, 939.0433
245.7968, 949.1779
246.2789, 957.2158
246.7610, 962.9926
247.2431, 968.4501
247.7252, 973.3218
248.2073, 978.1818
248.6895, 982.9276
249.1716, 987.7990
249.6537, 993.0925
250.1358, 998.9074
250.6179, 1005.138
251.1000, 1014.017
251.5822, 1027.269
252.0643, 1041.074
252.5464, 1054.653
253.0285, 1067.714
253.5106, 1079.820
253.9927, 1090.642
254.4748, 1100.141
254.9570, 1109.740
255.4391, 1116.798
255.9212, 1126.557
256.4033, 1142.510
256.8854, 1162.801
257.3676, 1183.158
257.8497, 1200.844
258.3318, 1215.997
258.8139, 1230.551
259.2960, 1241.349
259.7781, 1254.971
260.2603, 1275.326
260.7424, 1300.369
261.2245, 1325.119
261.7066, 1346.308
262.1887, 1365.149
262.6708, 1388.074
263.1530, 1417.138
263.6351, 1447.034
264.1172, 1476.004
264.5993, 1504.620
265.0814, 1533.943
265.5635, 1563.920
266.0457, 1595.826
266.5278, 1634.168
267.0099, 1681.973
267.4920, 1729.953
267.9741, 1774.630
268.4562, 1817.476
268.9384, 1861.269
269.4204, 1906.919
269.9026, 1954.107
270.3847, 2002.467
270.8668, 2051.889
271.3489, 2101.885
271.8310, 2151.587
272.3131, 2201.447
272.7953, 2252.698
273.2774, 2305.626
273.7595, 2360.125
274.2416, 2416.405
274.7237, 2473.915
275.2058, 2534.288
275.6880, 2599.722
276.1701, 2668.330
276.6522, 2734.911
277.1343, 2797.558
277.6164, 2862.566
278.0985, 2940.608
278.5807, 3029.757
279.0628, 3122.098
279.5449, 3215.820
280.0270, 3311.109
280.5091, 3409.501
280.9912, 3511.263
281.4734, 3614.677
281.9555, 3717.121
282.4376, 3819.671
282.9197, 3925.808
283.4018, 4037.568
283.8839, 4152.955
284.3661, 4271.172
284.8482, 4392.905
285.3303, 4511.617
285.8124, 4623.231
286.2945, 4727.411
286.7766, 4821.741
287.2588, 4907.893
287.7409, 4982.340
288.2230, 5041.706
288.7051, 5086.097
289.1872, 5111.946
289.6693, 5114.035
290.1515, 5095.299
290.6336, 5060.481
291.1157, 5006.550
291.5978, 4940.990
292.0799, 4871.194
292.5620, 4797.094
293.0442, 4713.505
293.5263, 4610.900
294.0084, 4501.557
294.4905, 4402.127
294.9726, 4314.157
295.4547, 4234.566
295.9369, 4162.551
296.4190, 4097.839
296.9011, 4036.102
297.3832, 3972.519
297.8653, 3916.106
298.3474, 3874.421
298.8296, 3848.143
299.3117, 3833.194
299.7938, 3829.275
300.2759, 3835.272
300.7580, 3845.461
301.2401, 3858.786
301.7223, 3876.486
302.2044, 3897.984
302.6865, 3923.446
303.1686, 3954.719
303.6507, 3993.617
304.1328, 4039.346
304.6150, 4089.196
305.0971, 4143.107
305.5792, 4200.890
306.0613, 4262.257
306.5434, 4326.927
307.0255, 4394.000
307.5077, 4459.602
307.9898, 4528.085
308.4719, 4608.642
308.9540, 4702.278
309.4361, 4804.849
309.9182, 4914.036
310.4004, 5029.748
310.8825, 5154.364
311.3646, 5289.144
311.8467, 5432.812
312.3288, 5580.126
312.8109, 5730.106
313.2931, 5892.706
313.7752, 6077.718
314.2573, 6275.722
314.7394, 6476.443
315.2215, 6676.929
315.7036, 6880.997
316.1858, 7095.478
316.6679, 7319.823
317.1500, 7535.237
317.6321, 7736.912
318.1142, 7924.927
318.5963, 8107.011
319.0785, 8285.106
319.5606, 8435.432
320.0427, 8544.635
320.5248, 8613.021
321.0069, 8639.627
321.4890, 8623.865
321.9712, 8561.781
322.4533, 8456.240
322.9354, 8308.712
323.4175, 8126.877
323.8996, 7905.111
324.3817, 7651.188
324.8639, 7385.100
325.3460, 7103.877
325.8281, 6819.641
326.3102, 6536.241
326.7923, 6258.369
327.2744, 5996.597
327.7566, 5757.307
328.2387, 5536.143
328.7208, 5327.528
329.2029, 5131.943
329.6850, 4949.465
330.1671, 4782.274
330.6493, 4627.963
331.1314, 4482.713
331.6135, 4347.221
332.0956, 4219.522
332.5777, 4096.709
333.0598, 3979.166
333.5420, 3871.888
334.0241, 3779.354
334.5062, 3697.788
334.9883, 3619.564
335.4704, 3544.283
335.9525, 3474.171
336.4347, 3409.967
336.9168, 3352.174
337.3989, 3304.401
337.8810, 3268.607
338.3631, 3241.197
338.8452, 3217.648
339.3274, 3197.886
339.8094, 3183.395
340.2916, 3174.436
340.7737, 3171.299
341.2558, 3174.401
341.7379, 3183.789
342.2200, 3199.592
342.7021, 3222.555
343.1843, 3252.248
343.6664, 3288.537
344.1485, 3334.095
344.6306, 3384.697
345.1127, 3435.579
345.5948, 3486.814
346.0770, 3543.098
346.5591, 3608.912
347.0412, 3681.429
347.5233, 3750.393
348.0054, 3813.634
348.4875, 3877.102
348.9697, 3942.666
349.4518, 4010.838
349.9339, 4083.414
350.4160, 4161.983
350.8981, 4243.802
351.3802, 4325.963
351.8624, 4408.795
352.3445, 4488.868
352.8266, 4564.854
353.3087, 4637.497
353.7908, 4707.503
354.2729, 4774.806
354.7551, 4841.212
355.2372, 4907.313
355.7193, 4973.313
356.2014, 5047.110
356.6835, 5128.966
357.1656, 5219.101
357.6478, 5317.378
358.1299, 5424.117
358.6120, 5542.780
359.0941, 5676.583
359.5762, 5824.866
360.0583, 5981.808
360.5405, 6158.567
361.0226, 6331.974
361.5047, 6501.493
361.9868, 6660.760
362.4689, 6802.389
362.9510, 6924.874
363.4332, 7019.153
363.9153, 7058.565
364.3974, 7044.148
364.8795, 6978.869
365.3616, 6854.924
365.8438, 6683.824
366.3259, 6470.931
366.8080, 6218.411
367.2901, 5944.042
367.7722, 5666.425
368.2543, 5383.947
368.7365, 5108.632
369.2186, 4826.176
369.7007, 4563.540
370.1828, 4340.223
370.6649, 4151.368
371.1470, 3976.704
371.6292, 3801.417
372.1113, 3626.762
372.5934, 3468.808
373.0755, 3327.143
373.5576, 3201.840
374.0397, 3100.712
374.5219, 3014.752
375.0040, 2932.607
375.4861, 2848.934
375.9682, 2767.567
376.4503, 2695.959
376.9324, 2636.030
377.4146, 2584.183
377.8967, 2546.628
378.3788, 2511.995
378.8609, 2469.933
379.3430, 2420.329
379.8251, 2372.076
380.3073, 2335.268
380.7894, 2311.556
381.2715, 2287.662
381.7536, 2261.331
382.2357, 2236.878
382.7178, 2215.743
383.2000, 2197.628
383.6821, 2181.726
384.1642, 2167.771
384.6463, 2155.298
385.1284, 2142.486
385.6105, 2129.066
386.0927, 2115.734
386.5748, 2101.232
387.0569, 2087.528
387.5390, 2076.809
388.0211, 2069.616
388.5032, 2064.341
388.9854, 2059.166
389.4675, 2054.311
389.9496, 2048.450
390.4317, 2039.100
390.9138, 2030.776
391.3959, 2026.112
391.8781, 2024.703
392.3602, 2024.393
392.8423, 2024.944
393.3244, 2025.546
393.8065, 2021.369
394.2886, 2009.209
394.7708, 1998.698
395.2529, 1994.625
395.7350, 1994.724
396.2171, 1996.540
396.6992, 2000.039
397.1813, 2003.339
397.6635, 2003.967
398.1456, 2001.839
398.6277, 1998.953
399.1098, 1995.779
399.5919, 1992.173
400.0740, 1987.587
400.5562, 1981.894
401.0383, 1977.339
401.5204, 1974.606
402.0025, 1973.965
402.4846, 1976.939
402.9667, 1984.766
403.4489, 1992.598
403.9310, 1995.280
404.4131, 1994.222
404.8952, 1994.315
405.3773, 1998.029
405.8594, 2002.048
406.3416, 2002.155
406.8237, 1999.148
407.3058, 1998.926
407.7879, 2005.009
408.2700, 2015.268
408.7521, 2024.584
409.2343, 2033.986
409.7164, 2040.490
410.1985, 2040.157
410.6806, 2037.350
411.1627, 2039.586
411.6448, 2048.713
412.1269, 2058.221
412.6090, 2060.082
413.0912, 2052.298
413.5733, 2046.364
414.0554, 2044.245
414.5375, 2042.099
415.0196, 2036.738
415.5017, 2029.208
415.9839, 2023.167
416.4660, 2021.051
416.9481, 2021.975
417.4302, 2021.733
417.9123, 2020.997
418.3944, 2018.142
418.8766, 2010.219
419.3587, 2001.521
419.8408, 1996.804
420.3229, 1997.152
420.8050, 1999.618
421.2871, 2000.394
421.7693, 1999.202
422.2514, 1997.311
422.7335, 1995.292
423.2156, 1992.092
423.6977, 1985.563
424.1798, 1977.460
424.6620, 1971.669
425.1441, 1970.870
425.6262, 1974.024
426.1083, 1977.357
426.5904, 1981.262
427.0725, 1984.601
427.5547, 1987.434
428.0368, 1989.498
428.5189, 1990.441
429.0010, 1990.210
429.4831, 1989.219
429.9652, 1987.967
430.4474, 1986.451
430.9295, 1983.819
431.4116, 1977.959
431.8937, 1973.712
432.3758, 1975.472
432.8579, 1981.159
433.3401, 1984.823
433.8222, 1981.669
434.3043, 1976.343
434.7864, 1977.253
435.2685, 1985.063
435.7506, 1991.652
436.2328, 1992.853
436.7149, 1990.920
437.1970, 1989.445
437.6791, 1988.322
438.1612, 1988.325
438.6433, 1992.403
439.1255, 1997.545
439.6076, 1996.230
440.0897, 1986.189
440.5718, 1974.660
441.0539, 1969.402
441.5360, 1970.513
442.0182, 1969.815
442.5003, 1965.354
442.9824, 1960.382
443.4645, 1957.927
443.9466, 1956.888
444.4287, 1953.246
444.9109, 1944.502
445.3930, 1933.077
445.8751, 1925.416
446.3572, 1925.267
446.8393, 1923.304
447.3214, 1917.662
447.8036, 1910.922
448.2857, 1905.463
448.7678, 1901.499
449.2499, 1897.500
449.7320, 1892.036
450.2141, 1885.082
450.6963, 1877.158
451.1784, 1866.460
451.6605, 1856.680
452.1426, 1849.512
452.6247, 1843.576
453.1068, 1837.121
453.5890, 1829.428
454.0711, 1820.608
454.5532, 1811.103
455.0353, 1801.171
455.5174, 1789.559
455.9995, 1772.805
456.4817, 1757.026
456.9638, 1745.958
457.4459, 1739.036
457.9280, 1733.308
458.4101, 1727.653
458.8922, 1721.498
459.3744, 1712.931
459.8565, 1701.513
460.3386, 1689.056
460.8207, 1674.996
461.3028, 1660.938
461.7849, 1649.510
462.2671, 1641.861
462.7492, 1633.841
463.2313, 1621.785
463.7134, 1606.964
464.1955, 1592.954
464.6776, 1580.507
465.1598, 1569.068
465.6419, 1558.529
466.1240, 1548.809
466.6061, 1538.291
467.0882, 1525.763
467.5703, 1513.313
468.0525, 1502.333
468.5346, 1492.660
469.0167, 1483.635
469.4988, 1475.093
469.9809, 1466.558
470.4630, 1456.710
470.9452, 1444.010
471.4273, 1432.799
471.9094, 1424.269
472.3915, 1416.503
472.8736, 1407.927
473.3557, 1398.512
473.8379, 1389.422
474.3200, 1381.897
474.8021, 1375.662
475.2842, 1366.827
475.7663, 1351.484
476.2484, 1338.422
476.7306, 1331.114
477.2127, 1325.718
477.6948, 1317.451
478.1769, 1305.152
478.6590, 1292.764
479.1411, 1286.132
479.6233, 1285.917
480.1054, 1283.789
480.5875, 1278.316
481.0696, 1272.013
481.5517, 1266.195
482.0338, 1260.555
482.5159, 1254.208
482.9980, 1246.314
483.4802, 1238.246
483.9623, 1232.515
484.4444, 1229.131
484.9265, 1224.619
485.4086, 1217.346
485.8907, 1208.947
486.3729, 1201.444
486.8550, 1194.843
487.3371, 1188.568
487.8192, 1181.438
488.3013, 1175.056
488.7834, 1172.410
489.2656, 1173.292
489.7477, 1172.882
490.2298, 1167.812
490.7119, 1159.050
491.1940, 1151.512
491.6761, 1145.395
492.1583, 1139.915
492.6404, 1134.323
493.1225, 1129.562
493.6046, 1127.269
494.0867, 1127.482
494.5688, 1128.127
495.0510, 1126.992
495.5331, 1123.959
496.0152, 1120.781
496.4973, 1117.001
496.9794, 1113.591
497.4615, 1111.709
497.9437, 1110.002
498.4258, 1106.334
498.9079, 1099.903
499.3900, 1092.731
499.8721, 1087.573
500.3542, 1084.496
500.8364, 1083.235
501.3185, 1085.924
501.8006, 1088.055
502.2827, 1086.992
502.7648, 1083.412
503.2469, 1079.070
503.7291, 1074.128
504.2112, 1069.466
504.6933, 1067.175
505.1754, 1067.132
505.6575, 1064.965
506.1396, 1058.198
506.6218, 1049.663
507.1039, 1043.058
507.5860, 1038.220
508.0681, 1035.599
508.5502, 1037.766
509.0323, 1040.627
509.5145, 1039.185
509.9966, 1033.894
510.4787, 1029.579
510.9608, 1029.515
511.4429, 1032.425
511.9250, 1033.142
512.4072, 1029.776
512.8893, 1026.710
513.3714, 1024.908
513.8535, 1023.042
514.3356, 1019.153
514.8177, 1013.584
515.2999, 1009.144
515.7820, 1008.812
516.2641, 1012.151
516.7462, 1013.335
517.2283, 1012.170
517.7104, 1008.873
518.1926, 1000.670
518.6747, 992.1712
519.1568, 988.9256
519.6389, 992.1373
520.1210, 996.1178
520.6031, 994.8439
521.0853, 989.2014
521.5674, 985.2233
522.0495, 984.1967
522.5316, 982.8789
523.0137, 977.3478
523.4958, 970.1735
523.9780, 966.9026
524.4601, 971.1789
524.9422, 974.9615
525.4243, 971.1527
525.9064, 963.0427
526.3885, 958.6592
526.8707, 960.2191
527.3528, 964.0534
527.8349, 966.2873
528.3170, 966.7563
528.7991, 966.6465
529.2813, 966.8391
529.7634, 965.5778
530.2455, 961.3209
530.7276, 955.3109
531.2097, 949.1795
531.6918, 943.6232
532.1740, 939.2274
532.6561, 937.3209
533.1382, 939.1086
533.6203, 939.2943
534.1024, 935.3490
534.5845, 932.2376
535.0667, 932.6979
535.5488, 935.2162
536.0309, 936.8511
536.5130, 936.3395
536.9951, 934.1428
537.4772, 929.9554
537.9594, 923.6749
538.4415, 920.1857
538.9236, 921.9943
539.4057, 924.9655
539.8878, 925.3688
540.3699, 923.5386
540.8521, 921.0856
541.3342, 917.9423
541.8163, 914.7822
542.2984, 912.0643
542.7805, 909.8109
543.2626, 907.8950
543.7448, 906.1681
544.2269, 905.2122
544.7090, 906.3932
545.1911, 911.9154
545.6732, 913.4357
546.1553, 906.7804
546.6375, 900.0757
547.1196, 898.3649
547.6017, 900.3392
548.0838, 902.3102
548.5659, 902.3154
549.0480, 900.9261
549.5302, 899.1428
550.0123, 896.3182
550.4944, 895.0424
550.9765, 898.2718
551.4586, 900.8122
551.9407, 899.4254
552.4229, 895.0333
552.9050, 890.6942
553.3871, 887.4550
553.8692, 885.6985
554.3513, 886.8934
554.8334, 890.9564
555.3156, 893.6862
555.7977, 893.4608
556.2798, 891.7410
556.7619, 890.2618
557.2440, 889.0027
557.7261, 887.9672
558.2083, 887.9891
558.6904, 887.5365
559.1725, 884.8905
559.6546, 880.7101
560.1367, 876.8423
560.6188, 874.1279
561.1010, 872.6351
561.5831, 872.7020
562.0652, 875.5546
562.5473, 877.2029
563.0294, 877.3172
563.5115, 876.7411
563.9937, 874.9413
564.4758, 872.8693
564.9579, 872.3809
565.4400, 874.5288
565.9221, 878.3514
566.4042, 883.4051
566.8864, 890.4674
567.3685, 891.6368
567.8506, 880.8801
568.3327, 869.3007
568.8148, 864.9675
569.2969, 866.8143
569.7791, 870.9552
570.2612, 878.8330
570.7433, 886.0570
571.2254, 888.2883
571.7075, 886.4376
572.1896, 883.4615
572.6718, 880.1637
573.1539, 876.8695
573.6360, 873.7036
574.1181, 870.1677
574.6002, 869.7357
575.0823, 876.3676
575.5645, 881.7140
576.0466, 880.8029
576.5287, 876.5389
577.0108, 873.7448
577.4929, 874.3032
577.9750, 876.9201
578.4572, 880.1082
578.9393, 884.1151
579.4214, 886.8893
579.9035, 887.9489
580.3856, 888.2677
580.8677, 887.7936
581.3499, 887.0750
581.8320, 887.0092
582.3141, 887.9384
582.7962, 889.2847
583.2783, 890.6637
583.7604, 892.0491
584.2426, 893.2023
584.7247, 893.9822
585.2068, 895.2272
585.6889, 898.0089
586.1710, 901.9959
586.6531, 904.3893
587.1352, 904.8513
587.6173, 904.2230
588.0994, 901.1407
588.5815, 897.9196
589.0637, 897.6852
589.5458, 900.6955
