##NAMES=Vanadinite
##RRUFFID=R050376
##IDEAL CHEMISTRY=Pb^2+^_5_(V^5+^O_4_)_3_Cl
##LOCALITY=Morocco
##OWNER=RRUFF
##SOURCE=Eugene Schlepp
##DESCRIPTION=Red hoppered crystal
##STATUS=The identification of this mineral has been confirmed by X-ray diffraction and chemical analysis
##URL=rruff.info/R050376
##MEASURED CHEMISTRY=Pb_5.00_(V_1.00_O_4_)_3_Cl_1.00_
91.87140, 0.0000000E+00
92.35352, 46.34788
92.83563, 43.45681
93.31775, 42.22615
93.79987, 42.86032
94.28198, 45.18308
94.76410, 48.75908
95.24622, 53.57838
95.72833, 59.50828
96.21045, 66.27644
96.69257, 73.93037
97.17468, 82.14225
97.65680, 90.34151
98.13892, 98.57759
98.62103, 107.8302
99.10315, 118.1153
99.58527, 129.5094
100.0674, 141.9097
100.5495, 154.9752
101.0316, 169.5698
101.5137, 186.5543
101.9958, 206.2380
102.4780, 227.6017
102.9601, 250.1362
103.4422, 273.7136
103.9243, 299.1618
104.4064, 326.6143
104.8885, 355.9791
105.3707, 388.1008
105.8528, 424.5682
106.3349, 461.1912
106.8170, 496.4440
107.2991, 531.6023
107.7813, 562.9019
108.2634, 588.6056
108.7455, 610.3345
109.2276, 632.6012
109.7097, 659.0093
110.1918, 683.5248
110.6740, 703.6793
111.1561, 713.5990
111.6382, 725.6827
112.1203, 740.8630
112.6024, 759.0789
113.0845, 779.1202
113.5667, 800.0271
114.0488, 823.0233
114.5309, 849.1981
115.0130, 880.3963
115.4951, 913.0566
115.9772, 947.1048
116.4594, 982.7333
116.9415, 1017.207
117.4236, 1049.025
117.9057, 1079.370
118.3878, 1109.377
118.8699, 1139.682
119.3521, 1169.923
119.8342, 1200.555
120.3163, 1231.704
120.7984, 1262.041
121.2805, 1291.558
121.7626, 1319.665
122.2448, 1345.349
122.7269, 1364.489
123.2090, 1382.740
123.6911, 1406.927
124.1732, 1439.211
124.6553, 1471.385
125.1375, 1493.612
125.6196, 1508.811
126.1017, 1526.215
126.5838, 1551.472
127.0659, 1582.606
127.5480, 1616.818
128.0302, 1654.964
128.5123, 1693.866
128.9944, 1727.395
129.4765, 1756.303
129.9586, 1787.608
130.4407, 1828.890
130.9229, 1877.563
131.4050, 1923.021
131.8871, 1960.955
132.3692, 1995.393
132.8513, 2034.118
133.3334, 2073.943
133.8156, 2107.646
134.2977, 2138.231
134.7798, 2172.820
135.2619, 2203.956
135.7440, 2229.720
136.2261, 2250.763
136.7083, 2271.704
137.1904, 2292.591
137.6725, 2313.707
138.1546, 2337.591
138.6367, 2366.267
139.1188, 2387.418
139.6010, 2396.115
140.0831, 2392.347
140.5652, 2393.067
141.0473, 2399.354
141.5294, 2408.442
142.0115, 2416.925
142.4937, 2425.059
142.9758, 2432.121
143.4579, 2438.317
143.9400, 2444.115
144.4221, 2446.110
144.9042, 2442.370
145.3864, 2435.864
145.8685, 2431.919
146.3506, 2432.678
146.8327, 2432.918
147.3148, 2431.088
147.7969, 2427.345
148.2791, 2421.272
148.7612, 2412.917
149.2433, 2402.364
149.7254, 2389.520
150.2075, 2373.929
150.6896, 2356.640
151.1718, 2337.921
151.6539, 2313.480
152.1360, 2293.849
152.6181, 2282.711
153.1002, 2277.032
153.5823, 2267.788
154.0645, 2251.825
154.5466, 2233.900
155.0287, 2216.219
155.5108, 2198.284
155.9929, 2181.067
156.4750, 2164.709
156.9572, 2149.156
157.4393, 2134.665
157.9214, 2120.923
158.4035, 2108.281
158.8856, 2096.913
159.3677, 2088.459
159.8499, 2079.632
160.3320, 2069.021
160.8141, 2057.037
161.2962, 2046.040
161.7783, 2036.573
162.2604, 2028.701
162.7426, 2022.474
163.2247, 2018.963
163.7068, 2016.172
164.1889, 2013.549
164.6710, 2011.064
165.1531, 2008.107
165.6353, 2003.950
166.1174, 1999.295
166.5995, 1994.899
167.0816, 1990.615
167.5637, 1986.942
168.0458, 1984.248
168.5280, 1982.544
169.0101, 1981.373
169.4922, 1982.110
169.9743, 1982.896
170.4564, 1981.120
170.9385, 1971.898
171.4207, 1961.933
171.9028, 1958.724
172.3849, 1962.915
172.8670, 1965.942
173.3491, 1959.990
173.8312, 1948.235
174.3134, 1936.693
174.7955, 1927.839
175.2776, 1920.887
175.7597, 1915.590
176.2418, 1912.136
176.7239, 1908.445
177.2061, 1902.994
177.6882, 1895.740
178.1703, 1886.688
178.6524, 1875.608
179.1345, 1862.688
179.6166, 1847.990
180.0988, 1831.113
180.5809, 1813.851
181.0630, 1798.933
181.5451, 1785.517
182.0272, 1770.879
182.5093, 1752.838
182.9915, 1732.374
183.4736, 1712.101
183.9557, 1691.970
184.4378, 1672.155
184.9199, 1652.632
185.4020, 1633.633
185.8842, 1614.234
186.3663, 1593.865
186.8484, 1572.719
187.3305, 1552.123
187.8126, 1531.812
188.2947, 1512.457
188.7769, 1495.880
189.2590, 1481.920
189.7411, 1467.203
190.2232, 1448.245
190.7053, 1426.109
191.1874, 1407.887
191.6696, 1395.193
192.1517, 1384.251
192.6338, 1367.333
193.1159, 1344.247
193.5980, 1320.509
194.0801, 1299.251
194.5623, 1280.419
195.0444, 1261.948
195.5265, 1243.641
196.0086, 1225.833
196.4907, 1209.503
196.9728, 1194.794
197.4550, 1180.281
197.9371, 1164.552
198.4192, 1147.551
198.9013, 1132.896
199.3834, 1121.632
199.8655, 1112.174
200.3477, 1100.352
200.8298, 1085.810
201.3119, 1070.577
201.7940, 1054.905
202.2761, 1038.481
202.7582, 1025.410
203.2404, 1016.790
203.7225, 1011.197
204.2046, 1004.912
204.6867, 997.9403
205.1688, 990.2557
205.6509, 981.7560
206.1331, 972.2587
206.6152, 962.8433
207.0973, 953.4440
207.5794, 944.2628
208.0615, 935.7757
208.5436, 927.7708
209.0258, 920.9793
209.5079, 916.2609
209.9900, 914.1647
210.4721, 911.7679
210.9542, 909.3136
211.4363, 906.2330
211.9185, 900.1229
212.4006, 889.6840
212.8827, 878.9308
213.3648, 870.3209
213.8469, 863.8136
214.3290, 859.3151
214.8112, 857.5375
215.2933, 857.6091
215.7754, 856.2914
216.2575, 853.0863
216.7396, 849.4067
217.2217, 845.9938
217.7039, 842.7487
218.1860, 840.2672
218.6681, 839.4170
219.1502, 839.2576
219.6323, 835.8378
220.1144, 827.2070
220.5966, 818.7272
221.0787, 813.6525
221.5608, 813.1400
222.0429, 813.0625
222.5250, 813.8353
223.0071, 814.8256
223.4893, 813.5903
223.9714, 809.4813
224.4535, 804.1877
224.9356, 797.9693
225.4177, 788.8439
225.8998, 783.9670
226.3820, 785.3120
226.8641, 790.9395
227.3462, 793.9883
227.8283, 793.0773
228.3104, 791.6869
228.7925, 791.7625
229.2747, 794.5404
229.7568, 795.9427
230.2389, 795.5592
230.7210, 793.7559
231.2031, 791.5950
231.6852, 788.6271
232.1674, 785.9598
232.6495, 784.1397
233.1316, 783.2786
233.6137, 783.0691
234.0958, 783.8575
234.5779, 785.2270
235.0601, 786.1771
235.5422, 787.5292
236.0243, 787.2880
236.5064, 783.9636
236.9885, 774.2896
237.4706, 768.9348
237.9528, 769.4838
238.4349, 773.9988
238.9170, 777.9915
239.3991, 782.4206
239.8812, 784.8800
240.3633, 783.6235
240.8455, 775.3512
241.3276, 771.7898
241.8097, 775.1481
242.2918, 782.4429
242.7739, 787.0401
243.2560, 787.3314
243.7382, 787.4138
244.2203, 788.8607
244.7024, 792.1868
245.1845, 795.5826
245.6666, 799.8983
246.1487, 803.8734
246.6309, 804.6678
247.1130, 799.4032
247.5951, 795.7126
248.0772, 797.1970
248.5593, 806.5253
249.0414, 810.7960
249.5236, 806.5283
250.0057, 799.3873
250.4878, 799.2123
250.9699, 810.1238
251.4520, 820.6750
251.9341, 826.8640
252.4163, 827.6219
252.8984, 829.5213
253.3805, 833.0153
253.8626, 837.3304
254.3447, 841.1436
254.8268, 843.9923
255.3090, 847.3651
255.7911, 851.4225
256.2732, 856.0377
256.7553, 862.8405
257.2374, 873.4020
257.7195, 884.6357
258.2017, 892.2007
258.6838, 893.6527
259.1659, 897.2467
259.6480, 905.8504
260.1301, 919.6525
260.6122, 931.1475
261.0944, 939.2694
261.5765, 946.4606
262.0586, 955.2188
262.5407, 965.5791
263.0228, 977.3880
263.5049, 990.8167
263.9871, 1005.912
264.4692, 1020.497
264.9513, 1034.096
265.4334, 1048.156
265.9155, 1064.580
266.3976, 1083.798
266.8798, 1102.783
267.3619, 1120.135
267.8440, 1136.534
268.3261, 1156.417
268.8082, 1180.397
269.2903, 1206.447
269.7725, 1233.177
270.2546, 1260.523
270.7367, 1287.093
271.2188, 1311.814
271.7009, 1335.466
272.1830, 1362.470
272.6652, 1393.600
273.1473, 1425.401
273.6294, 1454.977
274.1115, 1481.289
274.5936, 1512.083
275.0757, 1549.438
275.5579, 1591.100
276.0400, 1629.220
276.5221, 1662.948
277.0042, 1696.488
277.4863, 1732.165
277.9684, 1770.041
278.4506, 1808.877
278.9327, 1848.330
279.4148, 1889.019
279.8969, 1932.890
280.3790, 1980.392
280.8611, 2027.976
281.3433, 2073.518
281.8254, 2117.241
282.3075, 2161.441
282.7896, 2206.104
283.2717, 2252.110
283.7538, 2301.243
284.2360, 2353.600
284.7181, 2406.921
285.2002, 2462.527
285.6823, 2519.463
286.1644, 2568.107
286.6465, 2606.875
287.1287, 2641.420
287.6108, 2680.990
288.0929, 2724.911
288.5750, 2760.888
289.0571, 2782.243
289.5392, 2792.000
290.0214, 2801.951
290.5035, 2812.391
290.9856, 2820.428
291.4677, 2822.804
291.9498, 2819.912
292.4319, 2813.757
292.9141, 2802.307
293.3962, 2789.422
293.8783, 2785.363
294.3604, 2790.286
294.8425, 2796.944
295.3246, 2795.044
295.8068, 2789.095
296.2889, 2794.415
296.7710, 2816.497
297.2531, 2849.509
297.7352, 2882.833
298.2173, 2916.993
298.6995, 2958.275
299.1816, 3010.038
299.6637, 3072.142
300.1458, 3143.710
300.6279, 3226.410
301.1100, 3315.826
301.5922, 3403.400
302.0743, 3491.264
302.5564, 3587.738
303.0385, 3701.751
303.5206, 3826.431
304.0027, 3953.454
304.4849, 4079.373
304.9670, 4212.242
305.4491, 4360.709
305.9312, 4520.936
306.4133, 4683.786
306.8954, 4845.062
307.3776, 5006.907
307.8597, 5167.616
308.3418, 5328.253
308.8239, 5492.687
309.3060, 5661.157
309.7881, 5837.565
310.2703, 6022.426
310.7524, 6217.770
311.2345, 6422.833
311.7166, 6636.137
312.1987, 6857.549
312.6808, 7083.419
313.1630, 7310.934
313.6451, 7544.224
314.1272, 7789.823
314.6093, 8055.917
315.0914, 8325.580
315.5735, 8588.178
316.0557, 8844.632
316.5378, 9100.131
317.0199, 9362.287
317.5020, 9620.090
317.9841, 9871.961
318.4662, 10132.11
318.9484, 10355.93
319.4305, 10527.23
319.9126, 10650.81
320.3947, 10739.18
320.8768, 10810.46
321.3589, 10836.65
321.8411, 10802.71
322.3232, 10701.04
322.8053, 10553.97
323.2874, 10357.33
323.7695, 10119.38
324.2516, 9853.186
324.7338, 9543.510
325.2159, 9221.714
325.6980, 8894.049
326.1801, 8556.693
326.6622, 8227.716
327.1443, 7901.444
327.6265, 7584.892
328.1086, 7284.090
328.5907, 7002.049
329.0728, 6736.097
329.5549, 6489.066
330.0370, 6260.139
330.5192, 6036.303
331.0013, 5810.632
331.4834, 5594.269
331.9655, 5393.192
332.4476, 5214.212
332.9297, 5037.807
333.4119, 4861.370
333.8940, 4686.692
334.3761, 4523.950
334.8582, 4377.227
335.3403, 4241.329
335.8224, 4114.436
336.3046, 3995.988
336.7867, 3887.538
337.2688, 3789.556
337.7509, 3700.445
338.2330, 3613.407
338.7151, 3526.360
339.1973, 3449.892
339.6794, 3387.535
340.1615, 3339.989
340.6436, 3303.458
341.1257, 3279.670
341.6078, 3264.014
342.0900, 3248.374
342.5721, 3232.008
343.0542, 3229.925
343.5363, 3249.838
344.0184, 3287.311
344.5005, 3322.530
344.9827, 3354.126
345.4648, 3391.482
345.9469, 3443.162
346.4290, 3508.879
346.9111, 3580.273
347.3932, 3655.984
347.8754, 3736.825
348.3575, 3825.965
348.8396, 3922.099
349.3217, 4015.891
349.8038, 4103.825
350.2859, 4183.671
350.7681, 4250.422
351.2502, 4303.593
351.7323, 4342.954
352.2144, 4370.928
352.6965, 4385.608
353.1786, 4380.334
353.6608, 4348.555
354.1429, 4296.690
354.6250, 4230.304
355.1071, 4149.544
355.5892, 4060.687
356.0714, 3962.966
356.5535, 3861.536
357.0356, 3763.912
357.5177, 3670.388
357.9998, 3583.269
358.4819, 3506.615
358.9641, 3439.548
359.4462, 3379.363
359.9283, 3323.468
360.4104, 3274.414
360.8925, 3235.295
361.3746, 3212.307
361.8568, 3189.656
362.3389, 3162.317
362.8210, 3130.686
363.3031, 3095.099
363.7852, 3060.588
364.2673, 3018.194
364.7495, 2964.027
365.2316, 2897.530
365.7137, 2819.480
366.1958, 2726.936
366.6779, 2624.825
367.1600, 2518.087
367.6422, 2401.188
368.1243, 2286.087
368.6064, 2173.870
369.0885, 2064.093
369.5706, 1961.770
370.0527, 1866.932
370.5349, 1778.936
371.0170, 1696.102
371.4991, 1618.424
371.9812, 1547.357
372.4633, 1482.817
372.9454, 1424.750
373.4276, 1375.137
373.9097, 1337.695
374.3918, 1301.246
374.8739, 1260.120
375.3560, 1210.810
375.8381, 1170.947
376.3203, 1142.898
376.8024, 1121.759
377.2845, 1100.630
377.7666, 1079.531
378.2487, 1059.079
378.7308, 1039.368
379.2130, 1020.489
379.6951, 1005.825
380.1772, 995.9240
380.6593, 986.7406
381.1414, 973.1532
381.6235, 955.9940
382.1057, 942.1074
382.5878, 933.6208
383.0699, 928.3143
383.5520, 922.7404
384.0341, 916.8042
384.5162, 910.0555
384.9984, 900.6891
385.4805, 890.4404
385.9626, 882.8348
386.4447, 878.2215
386.9268, 876.2343
387.4089, 878.8552
387.8911, 883.8916
388.3732, 886.3512
388.8553, 880.6957
389.3374, 873.5250
389.8195, 871.2121
390.3016, 873.6825
390.7838, 877.8981
391.2659, 882.8993
391.7480, 888.2758
392.2301, 893.6190
392.7122, 898.8960
393.1943, 904.0241
393.6765, 909.3081
394.1586, 914.4618
394.6407, 918.5618
395.1228, 920.1804
395.6049, 921.6052
396.0870, 924.3117
396.5692, 929.2614
397.0513, 932.8446
397.5334, 933.5767
398.0155, 932.8339
398.4976, 932.3330
398.9797, 932.0358
399.4619, 932.1847
399.9440, 931.8243
400.4261, 930.9598
400.9082, 934.4557
401.3903, 945.5213
401.8724, 957.8698
402.3546, 967.6047
402.8367, 973.8625
403.3188, 978.8534
403.8009, 981.1813
404.2830, 982.9686
404.7651, 990.0865
405.2473, 1003.859
405.7294, 1018.991
406.2115, 1033.596
406.6936, 1047.544
407.1757, 1061.576
407.6578, 1076.038
408.1400, 1089.763
408.6221, 1100.525
409.1042, 1108.440
409.5863, 1119.081
410.0684, 1135.444
410.5505, 1154.250
411.0327, 1169.228
411.5148, 1180.412
411.9969, 1187.529
412.4790, 1190.740
412.9611, 1189.820
413.4432, 1184.115
413.9254, 1173.325
414.4075, 1158.406
414.8896, 1139.913
415.3717, 1118.073
415.8538, 1093.448
416.3359, 1065.223
416.8181, 1035.186
417.3002, 1005.039
417.7823, 974.4641
418.2644, 944.3506
418.7465, 914.3726
419.2286, 884.7079
419.7108, 855.7988
420.1929, 826.3577
420.6750, 799.0287
421.1571, 776.1260
421.6392, 756.0551
422.1213, 735.2862
422.6035, 710.2166
423.0856, 686.6039
423.5677, 667.0505
424.0498, 653.1377
424.5319, 638.8472
425.0140, 622.5954
425.4962, 606.1876
425.9783, 591.3321
426.4604, 577.6917
426.9425, 566.2138
427.4246, 558.0889
427.9067, 552.5726
428.3889, 544.7275
428.8710, 533.3112
429.3531, 521.7999
429.8352, 511.9216
430.3173, 503.9830
430.7994, 496.8893
431.2816, 490.7709
431.7637, 485.2292
432.2458, 479.9649
432.7279, 475.0192
433.2100, 469.5136
433.6921, 462.7591
434.1743, 455.2290
434.6564, 448.9407
435.1385, 443.8382
435.6206, 439.1129
436.1027, 433.9000
436.5848, 428.5029
437.0670, 423.8473
437.5491, 420.2899
438.0312, 417.0495
438.5133, 413.2366
438.9954, 408.9835
439.4775, 404.6484
439.9597, 400.4297
440.4418, 396.2126
440.9239, 391.4745
441.4060, 386.1882
441.8881, 382.0679
442.3702, 381.6750
442.8524, 382.2448
443.3345, 381.0764
443.8166, 375.6124
444.2987, 370.4669
444.7808, 367.9023
445.2629, 366.8400
445.7451, 364.1027
446.2272, 356.3713
446.7093, 349.2468
447.1914, 344.9864
447.6735, 344.4230
448.1556, 344.3477
448.6378, 346.0504
449.1199, 347.3766
449.6020, 345.7616
450.0841, 338.9170
450.5662, 334.1342
451.0483, 333.3676
451.5305, 335.4589
452.0126, 335.0789
452.4947, 331.6131
452.9768, 327.5649
453.4589, 324.2894
453.9410, 321.7824
454.4232, 319.0119
454.9053, 315.8340
455.3874, 312.6446
455.8695, 309.7653
456.3516, 307.2157
456.8337, 305.3104
457.3159, 304.5772
457.7980, 304.1596
458.2801, 302.2319
458.7622, 299.0112
459.2443, 295.9374
459.7264, 294.6357
460.2086, 293.8514
460.6907, 291.5128
461.1728, 286.8261
461.6549, 282.9822
462.1370, 283.3744
462.6191, 285.8873
463.1013, 287.4194
463.5834, 286.2632
464.0655, 284.3984
464.5476, 282.5907
465.0297, 280.8405
465.5118, 278.8837
465.9940, 276.2873
466.4761, 273.7621
466.9582, 271.7520
467.4403, 270.7807
467.9224, 269.4031
468.4045, 267.5947
468.8867, 265.3761
469.3688, 262.5748
469.8509, 258.2845
470.3330, 255.1920
470.8151, 254.2406
471.2972, 255.1930
471.7794, 255.4409
472.2615, 254.6840
472.7436, 254.0556
473.2257, 254.8073
473.7078, 256.9868
474.1899, 257.3428
474.6721, 255.2744
475.1542, 252.3285
475.6363, 251.0716
476.1184, 251.1759
476.6005, 250.5030
477.0826, 247.4726
477.5648, 243.5858
478.0469, 241.1865
478.5290, 240.2099
479.0111, 240.0709
479.4932, 241.4770
479.9753, 243.0083
480.4575, 242.6180
480.9396, 239.2407
481.4217, 236.2700
481.9038, 236.9143
482.3859, 239.0747
482.8680, 239.6567
483.3502, 235.2580
483.8323, 231.4229
484.3144, 230.8581
484.7965, 233.3210
485.2786, 234.4853
485.7607, 232.3437
486.2429, 229.8148
486.7250, 228.4188
487.2071, 229.0798
487.6892, 228.8687
488.1713, 227.1892
488.6534, 225.0593
489.1356, 224.0044
489.6177, 224.3874
490.0998, 224.7995
490.5819, 224.9337
491.0640, 224.8332
491.5461, 224.5599
492.0283, 224.0391
492.5104, 223.9000
492.9925, 225.5467
493.4746, 228.2621
493.9567, 227.6676
494.4388, 222.9604
494.9210, 217.5536
495.4031, 215.3122
495.8852, 215.4031
496.3673, 215.7097
496.8494, 215.7873
497.3315, 215.4120
497.8137, 213.8871
498.2958, 211.5514
498.7779, 209.8708
499.2600, 210.0274
499.7421, 210.8053
500.2242, 211.4647
500.7064, 211.9757
501.1885, 212.1030
501.6706, 211.8276
502.1527, 211.1187
502.6348, 209.9433
503.1169, 207.4545
503.5991, 205.5174
504.0812, 204.5141
504.5633, 204.2361
505.0454, 203.9279
505.5275, 203.6818
506.0096, 203.2531
506.4918, 202.4952
506.9739, 201.3644
507.4560, 200.3370
507.9381, 199.4123
508.4202, 198.5896
508.9023, 197.7810
509.3845, 197.0072
509.8666, 196.7122
510.3487, 197.1332
510.8308, 197.7849
511.3129, 198.0283
511.7950, 197.8416
512.2772, 197.1187
512.7593, 195.5362
513.2414, 193.5310
513.7235, 191.3177
514.2056, 188.9523
514.6877, 187.2618
515.1699, 187.1706
515.6520, 187.7888
516.1341, 188.4058
516.6162, 189.2927
517.0983, 189.3186
517.5804, 187.3451
518.0626, 184.4276
518.5447, 182.2978
519.0268, 181.5519
519.5089, 181.2900
519.9910, 181.4788
520.4731, 182.0774
520.9553, 182.4529
521.4374, 182.5124
521.9195, 182.4845
522.4016, 182.5305
522.8837, 182.7148
523.3658, 182.6703
523.8480, 182.4318
524.3301, 181.8881
524.8122, 180.6077
525.2943, 178.6724
525.7764, 177.3142
526.2585, 176.8818
526.7407, 177.2016
527.2228, 178.6066
527.7049, 180.7868
528.1870, 181.9057
528.6691, 179.6870
529.1512, 176.4111
529.6334, 174.9484
530.1155, 175.5391
530.5976, 176.1532
531.0797, 175.4444
531.5618, 174.2136
532.0439, 173.2577
532.5261, 172.8645
533.0082, 172.6120
533.4903, 172.4917
533.9724, 172.4244
534.4545, 172.2346
534.9366, 171.5757
535.4188, 171.1784
535.9009, 171.2654
536.3830, 171.8270
536.8651, 172.4382
537.3472, 173.2125
537.8293, 173.8195
538.3115, 174.1448
538.7936, 174.2271
539.2757, 173.2792
539.7578, 170.8970
540.2399, 168.5437
540.7220, 168.5971
541.2042, 170.6278
541.6863, 172.1839
542.1684, 172.4993
542.6505, 171.9900
543.1326, 170.8716
543.6147, 169.3434
544.0969, 168.1459
544.5790, 167.8981
545.0611, 168.0641
545.5432, 168.3360
546.0253, 168.7012
546.5074, 168.7954
546.9896, 168.3239
547.4717, 167.5940
547.9538, 166.8469
548.4359, 165.9207
548.9180, 165.2630
549.4001, 165.1876
549.8823, 165.3121
550.3644, 164.9415
550.8465, 163.6836
551.3286, 162.6865
551.8107, 162.3834
552.2928, 162.6213
552.7750, 162.1422
553.2571, 160.7688
553.7392, 159.5418
554.2213, 159.1024
554.7034, 159.3934
555.1855, 160.3868
555.6677, 162.2354
556.1498, 163.6255
556.6319, 162.4766
557.1140, 159.9049
557.5961, 158.2864
558.0782, 158.7471
558.5604, 159.6099
559.0425, 159.2587
559.5246, 158.2763
560.0067, 157.9665
560.4888, 159.9770
560.9709, 161.7692
561.4531, 161.9230
561.9352, 160.4030
562.4173, 159.2650
562.8994, 158.8264
563.3815, 158.8143
563.8636, 159.1768
564.3458, 160.2290
564.8279, 160.7917
565.3100, 160.7789
565.7921, 160.3955
566.2742, 159.6032
566.7563, 158.2406
567.2385, 158.2193
567.7206, 160.5680
568.2027, 163.7124
568.6848, 163.4939
569.1669, 160.4014
569.6490, 158.1116
570.1312, 159.7928
570.6133, 162.9001
571.0954, 163.3543
571.5775, 161.2533
572.0596, 159.3850
572.5417, 159.7712
573.0239, 161.0365
573.5060, 162.0527
573.9881, 162.6740
574.4702, 162.9134
574.9523, 162.1669
575.4344, 161.2660
575.9166, 161.2826
576.3987, 163.6001
576.8808, 165.0538
577.3629, 164.8415
577.8450, 163.5811
578.3271, 163.4974
578.8093, 165.1516
579.2914, 166.2634
579.7735, 165.3349
580.2556, 162.8399
580.7377, 162.7946
581.2198, 165.3964
581.7020, 168.3185
582.1841, 169.9292
582.6662, 170.3661
583.1483, 169.6650
583.6304, 167.6130
584.1125, 165.6747
584.5947, 165.1247
585.0768, 165.5299
585.5589, 166.2705
586.0410, 167.6720
586.5231, 168.7697
587.0052, 168.7553
587.4874, 168.1036
587.9695, 168.0817
588.4516, 169.6514
588.9337, 171.1488
589.4158, 172.1557
