##NAMES=Vanadinite
##RRUFFID=R050189
##IDEAL CHEMISTRY=Pb^2+^_5_(V^5+^O_4_)_3_Cl
##LOCALITY=Puzzler mine, Yuma County, Arizona, USA
##OWNER=RRUFF
##SOURCE=Dave Bunk Minerals
##DESCRIPTION=Red and green hexagonal prisms
##STATUS=The identification of this mineral has been confirmed by X-ray diffraction and chemical analysis
##URL=rruff.info/R050189
##MEASURED CHEMISTRY=Pb_5.00_(V_1.00_O_4_)_3_Cl_1.00_
93.77539, 101.6749
94.25751, 96.78966
94.73962, 98.94181
95.22174, 107.1237
95.70386, 117.7242
96.18597, 130.1270
96.66809, 143.9464
97.15021, 154.4868
97.63232, 159.2344
98.11444, 171.2279
98.59656, 219.5812
99.07867, 305.7135
99.56079, 376.0260
100.0429, 394.8024
100.5250, 361.1253
101.0071, 346.5105
101.4893, 355.6842
101.9714, 382.0703
102.4535, 411.7338
102.9356, 445.4529
103.4177, 480.8758
103.8998, 516.1012
104.3820, 550.8711
104.8641, 587.2662
105.3462, 624.7077
105.8283, 663.8230
106.3104, 712.8521
106.7925, 786.4757
107.2747, 853.5198
107.7568, 889.8900
108.2389, 869.6428
108.7210, 856.5114
109.2031, 858.6652
109.6852, 876.7982
110.1674, 897.7723
110.6495, 921.8419
111.1316, 948.8489
111.6137, 978.6398
112.0958, 1011.433
112.5779, 1047.176
113.0601, 1086.340
113.5422, 1129.731
114.0243, 1174.319
114.5064, 1222.033
114.9885, 1269.933
115.4706, 1315.010
115.9528, 1356.865
116.4349, 1395.231
116.9170, 1428.196
117.3991, 1453.618
117.8812, 1481.253
118.3633, 1519.329
118.8455, 1562.034
119.3276, 1597.818
119.8097, 1616.005
120.2918, 1629.431
120.7739, 1647.726
121.2560, 1675.625
121.7382, 1703.418
122.2203, 1724.921
122.7024, 1741.303
123.1845, 1756.476
123.6666, 1771.484
124.1487, 1786.859
124.6309, 1803.297
125.1130, 1819.494
125.5951, 1838.026
126.0772, 1861.047
126.5593, 1888.546
127.0414, 1920.406
127.5236, 1958.779
128.0057, 2001.328
128.4878, 2043.828
128.9699, 2081.311
129.4520, 2119.232
129.9341, 2167.227
130.4162, 2225.498
130.8984, 2289.185
131.3805, 2355.171
131.8626, 2423.034
132.3447, 2490.808
132.8268, 2556.126
133.3089, 2620.513
133.7911, 2683.822
134.2732, 2739.067
134.7553, 2785.048
135.2374, 2823.674
135.7195, 2855.194
136.2016, 2887.330
136.6838, 2926.748
137.1659, 2973.082
137.6480, 3006.798
138.1301, 3025.196
138.6122, 3036.317
139.0943, 3055.747
139.5765, 3085.719
140.0586, 3114.643
140.5407, 3137.530
141.0228, 3154.145
141.5049, 3166.233
141.9870, 3171.650
142.4692, 3173.950
142.9513, 3184.757
143.4334, 3209.940
143.9155, 3232.405
144.3976, 3241.794
144.8797, 3230.695
145.3619, 3224.594
145.8440, 3226.784
146.3261, 3235.473
146.8082, 3241.815
147.2903, 3247.043
147.7724, 3248.759
148.2546, 3245.460
148.7367, 3235.830
149.2188, 3223.231
149.7009, 3206.796
150.1830, 3186.857
150.6651, 3169.157
151.1473, 3158.942
151.6294, 3147.857
152.1115, 3130.133
152.5936, 3098.768
153.0757, 3068.536
153.5578, 3041.467
154.0400, 3017.951
154.5221, 2994.590
155.0042, 2970.801
155.4863, 2946.951
155.9684, 2923.358
156.4505, 2899.733
156.9327, 2876.212
157.4148, 2852.789
157.8969, 2829.698
158.3790, 2806.298
158.8611, 2781.617
159.3432, 2756.670
159.8254, 2732.481
160.3075, 2707.204
160.7896, 2684.548
161.2717, 2666.973
161.7538, 2655.701
162.2359, 2643.810
162.7181, 2627.223
163.2002, 2609.031
163.6823, 2593.503
164.1644, 2582.053
164.6465, 2573.751
165.1286, 2568.509
165.6108, 2566.740
166.0929, 2566.125
166.5750, 2566.499
167.0571, 2567.118
167.5392, 2566.647
168.0213, 2561.395
168.5035, 2556.558
168.9856, 2557.102
169.4677, 2565.745
169.9498, 2573.541
170.4319, 2573.299
170.9140, 2567.502
171.3962, 2561.974
171.8783, 2560.816
172.3604, 2561.026
172.8425, 2559.227
173.3246, 2553.958
173.8067, 2548.727
174.2889, 2548.323
174.7710, 2551.028
175.2531, 2551.235
175.7352, 2543.163
176.2173, 2531.270
176.6994, 2522.172
177.1816, 2518.752
177.6637, 2515.481
178.1458, 2504.416
178.6279, 2487.042
179.1100, 2471.227
179.5921, 2466.286
180.0743, 2466.028
180.5564, 2457.911
181.0385, 2436.894
181.5206, 2410.269
182.0027, 2389.277
182.4848, 2373.198
182.9670, 2355.736
183.4491, 2329.104
183.9312, 2296.866
184.4133, 2270.463
184.8954, 2255.217
185.3775, 2243.685
185.8597, 2220.532
186.3418, 2186.032
186.8239, 2150.522
187.3060, 2123.935
187.7881, 2103.945
188.2702, 2081.301
188.7523, 2052.192
189.2345, 2019.983
189.7166, 1993.675
190.1987, 1973.421
190.6808, 1952.619
191.1629, 1923.398
191.6451, 1887.040
192.1272, 1854.212
192.6093, 1828.271
193.0914, 1807.076
193.5735, 1783.275
194.0556, 1756.269
194.5378, 1729.376
195.0199, 1707.448
195.5020, 1690.163
195.9841, 1669.119
196.4662, 1640.517
196.9483, 1606.794
197.4305, 1578.870
197.9126, 1557.521
198.3947, 1538.486
198.8768, 1518.149
199.3589, 1496.310
199.8410, 1474.714
200.3232, 1453.498
200.8053, 1432.887
201.2874, 1414.197
201.7695, 1398.187
202.2516, 1382.135
202.7337, 1362.191
203.2159, 1337.781
203.6980, 1315.840
204.1801, 1298.480
204.6622, 1285.325
205.1443, 1272.913
205.6264, 1261.618
206.1086, 1250.255
206.5907, 1237.250
207.0728, 1222.347
207.5549, 1207.781
208.0370, 1193.615
208.5191, 1179.980
209.0013, 1169.889
209.4834, 1164.867
209.9655, 1160.504
210.4476, 1151.364
210.9297, 1135.870
211.4118, 1121.779
211.8940, 1110.915
212.3761, 1103.219
212.8582, 1096.271
213.3403, 1090.192
213.8224, 1084.670
214.3045, 1079.599
214.7867, 1075.224
215.2688, 1070.427
215.7509, 1064.808
216.2330, 1058.419
216.7151, 1051.896
217.1972, 1044.721
217.6794, 1038.068
218.1615, 1033.694
218.6436, 1032.948
219.1257, 1030.736
219.6078, 1025.432
220.0899, 1016.963
220.5721, 1010.046
221.0542, 1004.970
221.5363, 1001.140
222.0184, 998.3472
222.5005, 997.5250
222.9826, 995.3538
223.4648, 990.2009
223.9469, 981.9103
224.4290, 978.1320
224.9111, 981.3771
225.3932, 986.1937
225.8753, 986.8223
226.3575, 980.8367
226.8396, 975.9667
227.3217, 974.5319
227.8038, 976.5938
228.2859, 975.7183
228.7680, 970.5933
229.2502, 964.0425
229.7323, 958.6097
230.2144, 953.9157
230.6965, 951.1042
231.1786, 951.1068
231.6607, 953.9203
232.1429, 954.9432
232.6250, 953.6914
233.1071, 951.2025
233.5892, 948.1915
234.0713, 943.8294
234.5534, 940.6172
235.0356, 939.0343
235.5177, 939.0641
235.9998, 940.2697
236.4819, 944.1302
236.9640, 947.5402
237.4461, 947.4131
237.9283, 940.8125
238.4104, 936.6088
238.8925, 937.1999
239.3746, 942.2459
239.8567, 944.3300
240.3388, 941.6547
240.8210, 938.1384
241.3031, 936.9487
241.7852, 939.5222
242.2673, 941.5197
242.7494, 942.4379
243.2315, 942.3032
243.7137, 941.2495
244.1958, 938.2097
244.6779, 935.5531
245.1600, 935.1354
245.6421, 938.2201
246.1242, 940.9388
246.6064, 942.8596
247.0885, 944.0674
247.5706, 944.9691
248.0527, 944.7679
248.5348, 945.3190
249.0169, 947.9879
249.4990, 953.9091
249.9812, 959.5978
250.4633, 965.6510
250.9454, 971.3721
251.4275, 972.6676
251.9096, 965.9222
252.3917, 960.0146
252.8739, 960.6265
253.3560, 971.0380
253.8381, 979.9918
254.3202, 986.7576
254.8023, 991.6299
255.2844, 995.2010
255.7666, 996.0294
256.2487, 997.9160
256.7308, 1003.354
257.2129, 1014.616
257.6950, 1023.100
258.1772, 1027.379
258.6593, 1029.066
259.1414, 1032.556
259.6235, 1038.182
260.1056, 1045.045
260.5877, 1052.862
261.0699, 1061.476
261.5520, 1071.416
262.0341, 1083.325
262.5162, 1096.151
262.9983, 1108.041
263.4804, 1118.889
263.9626, 1128.856
264.4447, 1137.405
264.9268, 1143.701
265.4089, 1152.807
265.8910, 1165.424
266.3731, 1180.262
266.8553, 1195.443
267.3374, 1210.713
267.8195, 1226.774
268.3016, 1243.387
268.7837, 1260.672
269.2658, 1279.456
269.7480, 1299.540
270.2301, 1321.375
270.7122, 1345.866
271.1943, 1373.835
271.6764, 1401.114
272.1585, 1424.776
272.6407, 1444.783
273.1228, 1470.635
273.6049, 1504.087
274.0870, 1539.593
274.5691, 1570.246
275.0512, 1594.443
275.5334, 1621.006
276.0155, 1652.714
276.4976, 1689.102
276.9797, 1724.672
277.4618, 1758.452
277.9439, 1794.057
278.4261, 1835.545
278.9081, 1883.131
279.3903, 1932.727
279.8724, 1983.429
280.3545, 2034.975
280.8366, 2088.433
281.3187, 2143.994
281.8008, 2200.781
282.2830, 2256.499
282.7651, 2311.030
283.2472, 2372.738
283.7293, 2444.934
284.2114, 2524.311
284.6935, 2599.340
285.1757, 2669.933
285.6578, 2740.415
286.1399, 2815.800
286.6220, 2895.355
287.1041, 2969.756
287.5862, 3038.326
288.0684, 3100.617
288.5505, 3154.615
289.0326, 3200.569
289.5147, 3239.389
289.9968, 3270.853
290.4789, 3295.445
290.9611, 3315.985
291.4432, 3333.750
291.9253, 3345.227
292.4074, 3342.954
292.8895, 3327.773
293.3716, 3308.598
293.8538, 3286.903
294.3359, 3264.519
294.8180, 3246.533
295.3001, 3233.049
295.7822, 3225.472
296.2643, 3228.233
296.7465, 3239.561
297.2286, 3251.199
297.7107, 3251.912
298.1928, 3251.950
298.6749, 3274.745
299.1570, 3321.075
299.6392, 3378.516
300.1213, 3433.116
300.6034, 3488.579
301.0855, 3552.138
301.5676, 3626.489
302.0497, 3711.246
302.5319, 3805.259
303.0140, 3909.209
303.4961, 4020.585
303.9782, 4137.981
304.4603, 4261.571
304.9424, 4397.092
305.4246, 4547.438
305.9067, 4706.817
306.3888, 4866.185
306.8709, 5026.106
307.3530, 5194.277
307.8351, 5373.016
308.3173, 5562.023
308.7994, 5760.013
309.2815, 5968.311
309.7636, 6186.860
310.2457, 6410.594
310.7278, 6645.232
311.2100, 6900.276
311.6921, 7185.232
312.1742, 7492.521
312.6563, 7808.245
313.1384, 8130.829
313.6205, 8467.431
314.1027, 8826.846
314.5848, 9205.201
315.0669, 9598.127
315.5490, 9998.236
316.0311, 10418.90
316.5132, 10864.97
316.9954, 11341.38
317.4775, 11820.13
317.9596, 12300.33
318.4417, 12770.49
318.9238, 13223.77
319.4059, 13684.71
319.8881, 14099.75
320.3702, 14454.33
320.8523, 14748.54
321.3344, 14957.27
321.8165, 15067.70
322.2986, 15092.56
322.7808, 15041.59
323.2629, 14921.75
323.7450, 14721.11
324.2271, 14421.02
324.7092, 14033.51
325.1913, 13606.20
325.6735, 13116.55
326.1556, 12611.20
326.6377, 12112.54
327.1198, 11613.58
327.6019, 11134.62
328.0840, 10673.26
328.5662, 10234.75
329.0483, 9819.010
329.5304, 9430.813
330.0125, 9064.653
330.4946, 8719.716
330.9767, 8397.137
331.4589, 8092.560
331.9410, 7810.159
332.4231, 7543.169
332.9052, 7281.924
333.3873, 7025.437
333.8694, 6771.887
334.3516, 6521.762
334.8337, 6273.294
335.3158, 6035.364
335.7979, 5811.860
336.2800, 5596.634
336.7621, 5386.052
337.2443, 5173.445
337.7264, 4978.535
338.2085, 4802.603
338.6906, 4646.658
339.1727, 4507.235
339.6548, 4383.540
340.1370, 4277.788
340.6191, 4190.995
341.1012, 4125.646
341.5833, 4071.977
342.0654, 4030.286
342.5475, 3999.357
343.0297, 3974.839
343.5118, 3955.673
343.9939, 3952.246
344.4760, 3972.760
344.9581, 4015.714
345.4402, 4065.805
345.9224, 4120.984
346.4045, 4186.995
346.8866, 4270.080
347.3687, 4370.728
347.8508, 4486.492
348.3329, 4619.962
348.8151, 4767.340
349.2972, 4921.212
349.7793, 5081.325
350.2614, 5239.864
350.7435, 5389.548
351.2256, 5529.717
351.7078, 5663.038
352.1899, 5797.677
352.6720, 5915.395
353.1541, 5997.268
353.6362, 6043.632
354.1183, 6051.532
354.6005, 6012.079
355.0826, 5935.728
355.5647, 5833.997
356.0468, 5705.891
356.5289, 5561.491
357.0110, 5400.994
357.4932, 5229.243
357.9753, 5057.614
358.4574, 4880.523
358.9395, 4712.751
359.4216, 4569.191
359.9037, 4451.953
360.3859, 4348.884
360.8680, 4252.023
361.3501, 4166.625
361.8322, 4099.697
362.3143, 4071.539
362.7964, 4045.958
363.2786, 4007.146
363.7607, 3955.790
364.2428, 3902.948
364.7249, 3865.336
365.2070, 3820.253
365.6891, 3752.088
366.1713, 3647.777
366.6534, 3532.701
367.1355, 3410.523
367.6176, 3281.223
368.0997, 3146.005
368.5818, 2994.599
369.0640, 2846.344
369.5461, 2707.394
370.0282, 2579.079
370.5103, 2456.197
370.9924, 2336.515
371.4745, 2222.453
371.9567, 2116.644
372.4388, 2018.971
372.9209, 1931.359
373.4030, 1855.448
373.8851, 1791.172
374.3672, 1727.793
374.8494, 1662.951
375.3315, 1601.242
375.8136, 1547.069
376.2957, 1500.549
376.7778, 1459.712
377.2599, 1425.472
377.7421, 1396.194
378.2242, 1367.229
378.7063, 1338.743
379.1884, 1310.815
379.6705, 1283.314
380.1526, 1255.997
380.6348, 1231.724
381.1169, 1210.779
381.5990, 1192.522
382.0811, 1176.444
382.5632, 1162.571
383.0453, 1148.821
383.5275, 1134.132
384.0096, 1119.089
384.4917, 1105.727
384.9738, 1094.070
385.4559, 1083.783
385.9380, 1074.040
386.4202, 1065.360
386.9023, 1059.051
387.3844, 1055.744
387.8665, 1054.353
388.3486, 1054.079
388.8307, 1054.712
389.3129, 1055.405
389.7950, 1054.182
390.2771, 1053.434
390.7592, 1056.416
391.2413, 1064.215
391.7234, 1072.270
392.2056, 1077.089
392.6877, 1080.085
393.1698, 1083.557
393.6519, 1089.164
394.1340, 1094.824
394.6161, 1099.195
395.0983, 1102.291
395.5804, 1105.665
396.0625, 1111.735
396.5446, 1117.263
397.0267, 1119.766
397.5089, 1114.847
397.9910, 1111.565
398.4731, 1112.239
398.9552, 1115.817
399.4373, 1119.135
399.9194, 1124.376
400.4016, 1127.044
400.8837, 1123.968
401.3658, 1110.254
401.8479, 1105.838
402.3300, 1115.365
402.8121, 1131.283
403.2942, 1144.345
403.7763, 1151.497
404.2585, 1161.857
404.7406, 1178.399
405.2227, 1200.355
405.7048, 1218.088
406.1869, 1228.915
406.6690, 1241.148
407.1512, 1261.607
407.6333, 1291.389
408.1154, 1319.760
408.5975, 1344.855
409.0796, 1369.429
409.5617, 1401.599
410.0439, 1441.588
410.5260, 1479.672
411.0081, 1510.708
411.4902, 1535.731
411.9723, 1561.519
412.4544, 1588.793
412.9366, 1611.807
413.4187, 1625.874
413.9008, 1631.655
414.3829, 1631.100
414.8650, 1625.444
415.3471, 1612.963
415.8293, 1590.355
416.3114, 1558.433
416.7935, 1521.916
417.2756, 1481.772
417.7577, 1439.451
418.2398, 1397.178
418.7220, 1355.017
419.2041, 1312.404
419.6862, 1267.632
420.1683, 1221.716
420.6504, 1177.518
421.1325, 1135.072
421.6147, 1094.289
422.0968, 1054.838
422.5789, 1016.438
423.0610, 980.9279
423.5431, 949.5837
424.0252, 920.4629
424.5074, 891.6931
424.9895, 860.7501
425.4716, 833.9982
425.9537, 813.8651
426.4358, 797.9303
426.9179, 780.7313
427.4001, 760.4762
427.8822, 740.8891
428.3643, 723.0498
428.8464, 707.0902
429.3285, 692.0097
429.8106, 678.0484
430.2928, 664.7111
430.7749, 651.0157
431.2570, 636.4744
431.7391, 624.1722
432.2212, 615.3246
432.7033, 608.6792
433.1855, 600.0538
433.6676, 589.2119
434.1497, 578.4438
434.6318, 569.4364
435.1139, 561.8363
435.5960, 553.3875
436.0782, 543.7584
436.5603, 533.9641
437.0424, 524.9442
437.5245, 516.7549
438.0066, 509.7567
438.4887, 504.2815
438.9709, 499.9081
439.4530, 496.8111
439.9351, 494.6927
440.4172, 491.6098
440.8993, 485.0641
441.3814, 477.4367
441.8636, 471.5525
442.3457, 468.6575
442.8278, 465.2975
443.3099, 458.4612
443.7920, 450.0340
444.2741, 442.9451
444.7563, 438.8880
445.2384, 435.8361
445.7205, 433.4410
446.2026, 431.6637
446.6847, 429.2068
447.1668, 424.2485
447.6490, 419.5827
448.1311, 416.9859
448.6132, 419.5451
449.0953, 420.2391
449.5774, 418.6752
450.0595, 415.3118
450.5417, 410.9284
451.0238, 404.7813
451.5059, 399.0212
451.9880, 394.3202
452.4701, 390.6767
452.9522, 387.4907
453.4344, 384.6675
453.9165, 382.4025
454.3986, 381.3537
454.8807, 381.6357
455.3628, 380.2597
455.8449, 376.2309
456.3271, 371.0472
456.8092, 368.2795
457.2913, 367.6691
457.7734, 366.0546
458.2555, 360.1085
458.7376, 352.2328
459.2198, 348.0370
459.7019, 347.8795
460.1840, 348.4596
460.6661, 347.1536
461.1482, 344.5738
461.6303, 341.6530
462.1125, 338.2137
462.5946, 335.1562
463.0767, 333.9588
463.5588, 333.8242
464.0409, 332.4618
464.5230, 327.2527
465.0052, 321.7465
465.4873, 318.0043
465.9694, 316.4183
466.4515, 315.5641
466.9336, 316.2428
467.4157, 316.9606
467.8979, 316.3092
468.3800, 312.2608
468.8621, 309.0651
469.3442, 307.5225
469.8263, 307.2017
470.3084, 306.4195
470.7906, 305.3189
471.2727, 303.5338
471.7548, 300.6150
472.2369, 296.1857
472.7190, 293.1358
473.2011, 291.8297
473.6833, 291.1028
474.1654, 289.2255
474.6475, 286.0924
475.1296, 284.3573
475.6117, 285.0033
476.0938, 287.0121
476.5760, 288.4539
477.0581, 289.2831
477.5402, 288.7788
478.0223, 285.5091
478.5044, 280.8098
478.9865, 277.2319
479.4687, 274.9779
479.9508, 273.4975
480.4329, 272.6398
480.9150, 272.1810
481.3971, 271.8216
481.8792, 271.8762
482.3614, 271.5440
482.8435, 269.9297
483.3256, 267.4652
483.8077, 265.5036
484.2898, 265.2207
484.7719, 265.0596
485.2541, 264.1329
485.7362, 262.0973
486.2183, 260.4560
486.7004, 259.1418
487.1825, 258.4507
487.6646, 258.7788
488.1468, 262.2213
488.6289, 263.2714
489.1110, 260.3198
489.5931, 254.6801
490.0752, 250.7737
490.5573, 248.9235
491.0395, 248.0041
491.5216, 247.6424
492.0037, 247.8493
492.4858, 248.3875
492.9679, 249.4349
493.4500, 250.1344
493.9322, 249.0386
494.4143, 246.5079
494.8964, 245.0551
495.3785, 245.5735
495.8606, 246.7648
496.3427, 246.7933
496.8249, 245.8169
497.3070, 244.4231
497.7891, 242.1656
498.2712, 240.0974
498.7533, 239.8564
499.2354, 241.5210
499.7176, 242.5555
500.1997, 240.5795
500.6818, 237.6958
501.1639, 235.9145
501.6460, 236.5317
502.1281, 237.0624
502.6103, 237.1001
503.0924, 236.5645
503.5745, 235.2686
504.0566, 232.4738
504.5387, 229.6634
505.0208, 227.1370
505.5030, 224.8976
505.9851, 223.0198
506.4672, 221.2948
506.9493, 220.2368
507.4314, 220.4308
507.9135, 222.2829
508.3957, 223.5235
508.8778, 223.9344
509.3599, 223.7999
509.8420, 223.7992
510.3241, 223.9153
510.8062, 223.0426
511.2884, 220.1665
511.7705, 216.2978
512.2526, 214.0272
512.7347, 213.2406
513.2168, 212.7520
513.6989, 211.5620
514.1810, 210.1920
514.6631, 209.3616
515.1453, 209.1939
515.6274, 209.4680
516.1095, 211.0470
516.5916, 212.6798
517.0737, 212.6948
517.5558, 208.5306
518.0380, 204.6978
518.5201, 203.1828
519.0022, 203.4929
519.4843, 203.1980
519.9664, 200.2610
520.4485, 198.1331
520.9307, 198.6698
521.4128, 203.1467
521.8949, 204.8979
522.3770, 202.5990
522.8591, 199.0381
523.3412, 196.9173
523.8234, 196.5876
524.3055, 196.2479
524.7876, 195.6167
525.2697, 194.8735
525.7518, 194.5998
526.2339, 194.7914
526.7161, 194.6335
527.1982, 193.2308
527.6803, 191.2537
528.1624, 190.6963
528.6445, 191.5166
529.1266, 192.3237
529.6088, 191.9674
530.0909, 190.9373
530.5730, 189.9561
531.0551, 189.2553
531.5372, 188.3377
532.0193, 186.1845
532.5015, 183.7392
532.9836, 182.4902
533.4657, 184.2047
533.9478, 185.8560
534.4299, 186.2884
534.9120, 185.6197
535.3942, 185.2741
535.8763, 186.1638
536.3584, 186.6252
536.8405, 185.6517
537.3226, 182.4138
537.8047, 181.2397
538.2869, 183.1714
538.7690, 185.7318
539.2511, 185.6735
539.7332, 182.6317
540.2153, 180.8609
540.6974, 181.4316
541.1796, 183.3091
541.6617, 184.8705
542.1438, 186.0328
542.6259, 186.0580
543.1080, 183.3888
543.5901, 179.7835
544.0723, 178.4261
544.5544, 179.2435
545.0365, 180.1588
545.5186, 179.5888
546.0007, 178.4140
546.4828, 177.5050
546.9650, 177.0275
547.4471, 176.8514
547.9292, 177.1596
548.4113, 177.6692
548.8934, 177.9893
549.3755, 178.3831
549.8577, 178.1924
550.3398, 176.7563
550.8219, 174.4589
551.3040, 173.4294
551.7861, 174.3031
552.2682, 175.3905
552.7504, 176.1498
553.2325, 176.6435
553.7146, 175.7724
554.1967, 173.1202
554.6788, 170.3669
555.1609, 169.3970
555.6431, 170.0091
556.1252, 170.5847
556.6073, 170.8301
557.0894, 170.9501
557.5715, 171.2964
558.0536, 171.7624
558.5358, 172.0352
559.0179, 172.1650
559.5000, 171.8902
559.9821, 170.2854
560.4642, 167.7150
560.9464, 166.5443
561.4285, 170.0145
561.9106, 173.6531
562.3927, 174.2723
562.8748, 170.1333
563.3569, 167.3194
563.8391, 167.7861
564.3212, 169.1974
564.8033, 169.4296
565.2854, 167.4996
565.7675, 166.4423
566.2496, 167.0307
566.7318, 168.3892
567.2139, 167.9436
567.6960, 165.3228
568.1781, 163.6070
568.6602, 164.6376
569.1423, 167.4533
569.6245, 168.4037
570.1066, 167.5172
570.5887, 166.1037
571.0708, 164.3873
571.5529, 163.0075
572.0350, 163.4796
572.5172, 166.3581
572.9993, 168.7818
573.4814, 167.9775
573.9635, 165.7692
574.4456, 164.3969
574.9277, 165.3077
575.4099, 166.2951
575.8920, 166.7079
576.3741, 166.7417
576.8562, 166.9502
577.3383, 167.7391
577.8204, 168.2835
578.3026, 168.2375
578.7847, 167.6222
579.2668, 167.5582
579.7489, 168.3263
580.2310, 168.9776
580.7131, 168.6481
581.1953, 167.3612
581.6774, 166.7802
582.1595, 167.0905
582.6416, 167.6961
583.1237, 167.9249
583.6058, 167.8668
584.0880, 167.7606
584.5701, 167.6206
585.0522, 167.5480
585.5343, 167.6488
586.0164, 167.8961
586.4985, 168.2220
586.9807, 168.5021
587.4628, 168.9380
587.9449, 169.5685
588.4270, 170.4074
588.9091, 171.6336
589.3912, 174.3451
589.8734, 176.5539
590.3555, 177.1555
