##NAMES=Vanadinite
##RRUFFID=R050533
##IDEAL CHEMISTRY=Pb^2+^_5_(V^5+^O_4_)_3_Cl
##LOCALITY=Ahumada mine, Los Lamentos, Mexico
##OWNER=RRUFF
##SOURCE=University of Arizona Mineral Museum
##DESCRIPTION=Greenish-brown hexagonal prisms
##STATUS=The identification of this mineral has been confirmed by X-ray diffraction and chemical analysis
##URL=rruff.info/R050533
##MEASURED CHEMISTRY=Pb_5.00_((V_0.95_As_0.05_)O_4_)_3_Cl_1.00_
90.92609, 0.0000000E+00
91.40820, 25.22262
91.89032, 25.16501
92.37244, 25.14528
92.85455, 25.17176
93.33667, 25.29373
93.81879, 25.62447
94.30090, 26.08981
94.78302, 26.48609
95.26514, 26.78909
95.74725, 26.97671
96.22937, 26.91926
96.71149, 26.59461
97.19360, 26.28161
97.67572, 26.29017
98.15784, 26.61452
98.63995, 26.90092
99.12207, 27.01926
99.60419, 26.99851
100.0863, 27.10504
100.5684, 27.34872
101.0505, 27.70172
101.5327, 28.20243
102.0148, 28.94766
102.4969, 29.49440
102.9790, 29.59483
103.4611, 29.09172
103.9432, 29.00243
104.4253, 29.36509
104.9075, 30.12408
105.3896, 31.17568
105.8717, 32.65415
106.3538, 34.25669
106.8359, 35.85007
107.3180, 36.98046
107.8002, 38.87389
108.2823, 41.83607
108.7644, 45.61153
109.2465, 49.39068
109.7286, 52.53446
110.2107, 56.09212
110.6929, 60.57750
111.1750, 66.14654
111.6571, 72.42751
112.1392, 79.56632
112.6213, 87.48849
113.1034, 95.79105
113.5856, 103.4633
114.0677, 112.1153
114.5498, 122.8081
115.0319, 136.6380
115.5140, 151.7834
115.9961, 167.1720
116.4783, 182.8240
116.9604, 200.7706
117.4425, 222.4955
117.9246, 246.9353
118.4067, 272.6830
118.8888, 299.7822
119.3710, 327.8969
119.8531, 357.0877
120.3352, 387.3130
120.8173, 417.8541
121.2994, 449.2105
121.7815, 480.2751
122.2637, 509.2426
122.7458, 533.7612
123.2279, 556.1946
123.7100, 578.4929
124.1921, 600.7625
124.6742, 623.3106
125.1564, 645.6508
125.6385, 668.2944
126.1206, 692.9702
126.6027, 720.1149
127.0848, 749.8665
127.5669, 782.2648
128.0491, 817.2739
128.5312, 855.0199
129.0133, 896.7858
129.4954, 941.9187
129.9775, 987.8820
130.4596, 1032.645
130.9418, 1076.360
131.4239, 1121.475
131.9060, 1168.882
132.3881, 1217.693
132.8702, 1265.566
133.3523, 1312.808
133.8345, 1358.126
134.3166, 1400.278
134.7987, 1439.605
135.2808, 1476.897
135.7629, 1513.323
136.2450, 1548.433
136.7272, 1578.243
137.2093, 1601.837
137.6914, 1623.510
138.1735, 1648.095
138.6556, 1676.212
139.1377, 1703.252
139.6199, 1728.291
140.1020, 1751.123
140.5841, 1772.825
141.0662, 1791.982
141.5483, 1811.561
142.0304, 1835.737
142.5126, 1866.137
142.9947, 1896.162
143.4768, 1917.593
143.9589, 1925.521
144.4410, 1934.594
144.9231, 1945.703
145.4053, 1957.442
145.8874, 1967.874
146.3695, 1976.503
146.8516, 1984.604
147.3337, 1992.498
147.8158, 2000.755
148.2980, 2007.872
148.7801, 2014.213
149.2622, 2019.477
149.7443, 2022.866
150.2264, 2023.651
150.7085, 2023.341
151.1907, 2022.390
151.6728, 2020.413
152.1549, 2018.410
152.6370, 2017.660
153.1191, 2016.944
153.6012, 2013.252
154.0834, 2004.145
154.5655, 1993.715
155.0476, 1983.495
155.5297, 1973.659
156.0118, 1964.200
156.4939, 1955.190
156.9761, 1946.489
157.4582, 1937.993
157.9403, 1929.201
158.4224, 1920.885
158.9045, 1913.456
159.3866, 1907.044
159.8688, 1901.582
160.3509, 1897.297
160.8330, 1894.080
161.3151, 1891.398
161.7972, 1889.036
162.2793, 1887.168
162.7615, 1885.943
163.2436, 1886.757
163.7257, 1886.943
164.2078, 1884.819
164.6899, 1880.716
165.1720, 1877.023
165.6541, 1874.563
166.1363, 1873.165
166.6184, 1872.661
167.1005, 1874.476
167.5826, 1875.970
168.0647, 1875.318
168.5468, 1872.634
169.0290, 1869.503
169.5111, 1866.291
169.9932, 1863.357
170.4753, 1861.175
170.9574, 1861.173
171.4395, 1861.239
171.9217, 1859.276
172.4038, 1855.301
172.8859, 1851.225
173.3680, 1849.282
173.8501, 1848.218
174.3322, 1845.773
174.8144, 1839.182
175.2965, 1831.523
175.7786, 1826.976
176.2607, 1825.622
176.7428, 1825.012
177.2249, 1824.174
177.7071, 1822.497
178.1892, 1818.469
178.6713, 1809.118
179.1534, 1797.600
179.6355, 1789.529
180.1176, 1785.263
180.5998, 1781.758
181.0819, 1775.763
181.5640, 1767.774
182.0461, 1759.359
182.5282, 1751.309
183.0103, 1743.403
183.4925, 1735.205
183.9746, 1726.735
184.4567, 1718.014
184.9388, 1708.957
185.4209, 1699.566
185.9030, 1690.357
186.3852, 1682.328
186.8673, 1674.799
187.3494, 1664.334
187.8315, 1650.127
188.3136, 1635.542
188.7957, 1625.077
189.2779, 1618.593
189.7600, 1612.793
190.2421, 1606.373
190.7242, 1599.402
191.2063, 1591.899
191.6884, 1583.704
192.1706, 1575.434
192.6527, 1567.836
193.1348, 1560.933
193.6169, 1554.147
194.0990, 1546.832
194.5811, 1539.089
195.0633, 1532.550
195.5454, 1527.753
196.0275, 1523.231
196.5096, 1516.111
196.9917, 1506.131
197.4738, 1496.204
197.9560, 1487.688
198.4381, 1480.625
198.9202, 1474.465
199.4023, 1469.336
199.8844, 1465.009
200.3665, 1461.394
200.8487, 1458.683
201.3308, 1455.588
201.8129, 1451.282
202.2950, 1445.671
202.7771, 1440.238
203.2592, 1434.876
203.7414, 1429.815
204.2235, 1425.438
204.7056, 1421.750
205.1877, 1418.793
205.6698, 1416.956
206.1519, 1416.554
206.6341, 1414.938
207.1162, 1411.673
207.5983, 1407.444
208.0804, 1403.854
208.5625, 1401.136
209.0446, 1398.420
209.5268, 1395.132
210.0089, 1390.994
210.4910, 1387.613
210.9731, 1385.026
211.4552, 1383.236
211.9373, 1382.508
212.4195, 1383.366
212.9016, 1384.019
213.3837, 1383.434
213.8658, 1381.088
214.3479, 1379.535
214.8300, 1379.201
215.3121, 1379.457
215.7943, 1378.676
216.2764, 1376.423
216.7585, 1374.011
217.2406, 1372.044
217.7227, 1370.762
218.2048, 1369.004
218.6870, 1366.208
219.1691, 1363.175
219.6512, 1362.021
220.1333, 1363.951
220.6154, 1365.500
221.0975, 1364.887
221.5797, 1360.842
222.0618, 1358.520
222.5439, 1358.813
223.0260, 1360.446
223.5081, 1360.426
223.9902, 1357.927
224.4724, 1355.295
224.9545, 1353.596
225.4366, 1353.207
225.9187, 1352.596
226.4008, 1351.312
226.8829, 1350.038
227.3651, 1350.359
227.8472, 1353.238
228.3293, 1356.111
228.8114, 1357.978
229.2935, 1358.557
229.7757, 1358.915
230.2578, 1358.965
230.7399, 1358.797
231.2220, 1358.470
231.7041, 1357.369
232.1862, 1357.062
232.6684, 1358.389
233.1505, 1362.245
233.6326, 1364.711
234.1147, 1365.166
234.5968, 1364.560
235.0789, 1364.623
235.5611, 1365.731
236.0432, 1366.905
236.5253, 1367.771
237.0074, 1368.099
237.4895, 1369.042
237.9716, 1371.160
238.4538, 1373.565
238.9359, 1374.672
239.4180, 1373.392
239.9001, 1372.623
240.3822, 1373.366
240.8643, 1375.965
241.3465, 1378.476
241.8286, 1381.005
242.3107, 1383.365
242.7928, 1385.257
243.2749, 1386.453
243.7570, 1387.527
244.2392, 1388.394
244.7213, 1388.811
245.2034, 1390.714
245.6855, 1395.254
246.1676, 1400.347
246.6497, 1403.195
247.1319, 1402.329
247.6140, 1401.962
248.0961, 1403.408
248.5782, 1406.999
249.0603, 1409.348
249.5424, 1409.494
250.0246, 1409.363
250.5067, 1411.176
250.9888, 1415.845
251.4709, 1420.690
251.9530, 1425.168
252.4351, 1429.287
252.9173, 1433.288
253.3994, 1436.804
253.8815, 1440.622
254.3636, 1445.729
254.8457, 1453.011
255.3278, 1459.376
255.8100, 1463.882
256.2921, 1466.603
256.7742, 1470.246
257.2563, 1474.968
257.7384, 1480.385
258.2205, 1486.228
258.7026, 1492.844
259.1848, 1499.125
259.6669, 1504.644
260.1490, 1509.617
260.6311, 1515.330
261.1132, 1521.786
261.5953, 1529.015
262.0775, 1537.082
262.5596, 1546.431
263.0417, 1555.486
263.5238, 1563.849
264.0059, 1571.767
264.4880, 1580.862
264.9702, 1591.087
265.4523, 1602.410
265.9344, 1614.974
266.4165, 1629.300
266.8986, 1643.140
267.3807, 1655.880
267.8629, 1668.269
268.3450, 1683.300
268.8271, 1702.323
269.3092, 1721.115
269.7913, 1736.894
270.2734, 1748.186
270.7556, 1763.749
271.2377, 1785.348
271.7198, 1810.600
272.2019, 1833.988
272.6840, 1854.899
273.1661, 1876.226
273.6483, 1898.978
274.1304, 1922.918
274.6125, 1949.789
275.0946, 1980.135
275.5767, 2012.433
276.0588, 2043.947
276.5410, 2074.264
277.0231, 2105.251
277.5052, 2136.976
277.9873, 2169.519
278.4694, 2202.906
278.9515, 2237.021
279.4337, 2272.049
279.9158, 2307.941
280.3979, 2344.381
280.8800, 2383.376
281.3621, 2425.973
281.8442, 2471.778
282.3264, 2515.033
282.8085, 2555.226
283.2906, 2594.771
283.7727, 2636.540
284.2548, 2680.585
284.7369, 2725.116
285.2191, 2770.817
285.7012, 2816.357
286.1833, 2858.079
286.6654, 2895.950
287.1475, 2930.493
287.6296, 2961.879
288.1118, 2990.195
288.5939, 3015.074
289.0760, 3037.269
289.5581, 3055.263
290.0402, 3065.288
290.5223, 3067.235
291.0045, 3064.190
291.4866, 3058.332
291.9687, 3049.501
292.4508, 3036.690
292.9329, 3019.014
293.4150, 2998.346
293.8972, 2976.726
294.3793, 2954.229
294.8614, 2931.324
295.3435, 2907.393
295.8256, 2883.416
296.3077, 2861.967
296.7899, 2843.255
297.2720, 2828.095
297.7541, 2818.089
298.2362, 2812.976
298.7183, 2811.453
299.2004, 2812.657
299.6826, 2816.991
300.1647, 2825.274
300.6468, 2837.546
301.1289, 2853.470
301.6110, 2872.648
302.0931, 2895.156
302.5753, 2921.864
303.0574, 2952.541
303.5395, 2987.730
304.0216, 3028.040
304.5037, 3073.863
304.9858, 3123.040
305.4680, 3175.048
305.9501, 3229.162
306.4322, 3283.853
306.9143, 3337.024
307.3964, 3392.167
307.8785, 3453.946
308.3607, 3521.806
308.8428, 3592.432
309.3249, 3663.087
309.8070, 3735.500
310.2891, 3811.286
310.7712, 3891.299
311.2534, 3975.536
311.7355, 4064.084
312.2176, 4157.419
312.6997, 4254.703
313.1818, 4355.171
313.6639, 4458.155
314.1461, 4564.206
314.6282, 4673.341
315.1103, 4783.854
315.5924, 4895.487
316.0745, 5007.387
316.5566, 5119.725
317.0388, 5236.495
317.5209, 5349.528
318.0030, 5457.494
318.4851, 5562.636
318.9672, 5652.529
319.4493, 5722.275
319.9315, 5774.362
320.4136, 5812.867
320.8957, 5844.762
321.3778, 5857.302
321.8599, 5846.271
322.3420, 5811.186
322.8242, 5755.373
323.3063, 5675.980
323.7884, 5577.868
324.2705, 5465.280
324.7526, 5331.686
325.2347, 5190.095
325.7169, 5042.049
326.1990, 4887.264
326.6811, 4736.534
327.1632, 4591.412
327.6453, 4449.980
328.1274, 4311.242
328.6096, 4170.419
329.0917, 4037.390
329.5738, 3913.483
330.0559, 3798.631
330.5380, 3690.761
331.0201, 3591.656
331.5023, 3497.593
331.9844, 3406.583
332.4665, 3318.281
332.9486, 3235.766
333.4307, 3160.323
333.9128, 3090.368
334.3950, 3024.840
334.8771, 2963.070
335.3592, 2905.927
335.8413, 2854.757
336.3234, 2809.727
336.8055, 2765.815
337.2877, 2722.104
337.7698, 2681.379
338.2519, 2646.495
338.7340, 2618.527
339.2161, 2593.257
339.6982, 2569.593
340.1803, 2547.889
340.6624, 2532.078
341.1446, 2522.677
341.6267, 2516.954
342.1088, 2512.586
342.5909, 2509.556
343.0730, 2509.239
343.5551, 2511.656
344.0373, 2517.079
344.5194, 2526.195
345.0015, 2539.112
345.4836, 2554.914
345.9657, 2572.507
346.4478, 2592.314
346.9300, 2617.537
347.4121, 2649.514
347.8942, 2683.523
348.3763, 2713.120
348.8584, 2739.090
349.3405, 2766.708
349.8227, 2799.845
350.3048, 2836.008
350.7869, 2870.575
351.2690, 2903.475
351.7511, 2934.120
352.2332, 2962.112
352.7154, 2987.123
353.1975, 3008.263
353.6796, 3024.101
354.1617, 3037.102
354.6438, 3049.582
355.1259, 3061.481
355.6081, 3072.604
356.0902, 3082.263
356.5723, 3091.311
357.0544, 3100.500
357.5365, 3109.163
358.0186, 3119.512
358.5008, 3132.089
358.9829, 3147.403
359.4650, 3166.595
359.9471, 3194.961
360.4292, 3223.912
360.9113, 3248.026
361.3935, 3266.188
361.8756, 3282.384
362.3577, 3299.651
362.8398, 3315.383
363.3219, 3326.614
363.8040, 3340.156
364.2862, 3341.793
364.7683, 3326.215
365.2504, 3293.573
365.7325, 3250.750
366.2146, 3196.515
366.6967, 3134.074
367.1789, 3065.418
367.6610, 2986.670
368.1431, 2906.514
368.6252, 2822.333
369.1073, 2736.109
369.5894, 2655.566
370.0716, 2581.389
370.5537, 2511.499
371.0358, 2444.403
371.5179, 2379.176
372.0000, 2319.314
372.4821, 2265.996
372.9643, 2217.754
373.4464, 2173.039
373.9285, 2132.764
374.4106, 2094.719
374.8927, 2057.698
375.3748, 2021.669
375.8570, 1990.618
376.3391, 1965.131
376.8212, 1942.784
377.3033, 1921.603
377.7854, 1901.822
378.2675, 1882.185
378.7497, 1861.975
379.2318, 1842.164
379.7139, 1824.862
380.1960, 1810.355
380.6781, 1796.818
381.1602, 1783.439
381.6424, 1770.290
382.1245, 1757.654
382.6066, 1745.350
383.0887, 1734.017
383.5708, 1724.565
384.0529, 1716.811
384.5351, 1709.403
385.0172, 1701.954
385.4993, 1694.566
385.9814, 1686.725
386.4635, 1678.558
386.9456, 1671.388
387.4278, 1666.853
387.9099, 1663.992
388.3920, 1661.274
388.8741, 1658.450
389.3562, 1655.420
389.8383, 1651.563
390.3205, 1647.283
390.8026, 1643.842
391.2847, 1642.525
391.7668, 1641.889
392.2489, 1641.076
392.7310, 1640.128
393.2132, 1638.159
393.6953, 1633.584
394.1774, 1628.149
394.6595, 1623.928
395.1416, 1622.364
395.6237, 1621.410
396.1059, 1620.581
396.5880, 1619.842
397.0701, 1618.915
397.5522, 1617.617
398.0343, 1616.229
398.5164, 1614.920
398.9986, 1613.561
399.4807, 1612.496
399.9628, 1611.843
400.4449, 1611.492
400.9270, 1611.164
401.4091, 1610.686
401.8913, 1610.475
402.3734, 1610.742
402.8555, 1611.605
403.3376, 1612.124
403.8197, 1611.643
404.3018, 1611.563
404.7840, 1613.825
405.2661, 1619.467
405.7482, 1623.727
406.2303, 1625.345
406.7124, 1624.963
407.1945, 1625.264
407.6767, 1626.228
408.1588, 1627.854
408.6409, 1630.824
409.1230, 1634.918
409.6051, 1636.926
410.0872, 1636.242
410.5694, 1634.482
411.0515, 1634.158
411.5336, 1635.041
412.0157, 1635.671
412.4978, 1635.891
412.9799, 1635.310
413.4621, 1633.015
413.9442, 1629.023
414.4263, 1624.110
414.9084, 1618.794
415.3905, 1613.004
415.8727, 1606.315
416.3548, 1597.792
416.8369, 1589.734
417.3190, 1584.920
417.8011, 1582.222
418.2832, 1578.539
418.7654, 1571.816
419.2475, 1563.936
419.7296, 1555.711
420.2117, 1546.815
420.6938, 1539.700
421.1759, 1537.013
421.6581, 1535.906
422.1402, 1533.333
422.6223, 1526.643
423.1044, 1520.459
423.5865, 1516.564
424.0686, 1514.573
424.5508, 1511.270
425.0329, 1504.752
425.5150, 1498.203
425.9971, 1493.129
426.4792, 1490.567
426.9613, 1487.322
427.4435, 1482.583
427.9256, 1477.660
428.4077, 1474.943
428.8898, 1475.858
429.3719, 1475.692
429.8540, 1472.746
430.3362, 1467.303
430.8183, 1463.307
431.3004, 1461.052
431.7825, 1459.474
432.2646, 1457.865
432.7467, 1456.232
433.2289, 1454.203
433.7110, 1451.593
434.1931, 1448.849
434.6752, 1446.672
435.1573, 1445.062
435.6394, 1444.087
436.1216, 1444.553
436.6036, 1445.534
437.0858, 1444.824
437.5679, 1442.352
438.0500, 1439.281
438.5321, 1435.941
439.0142, 1432.826
439.4963, 1430.835
439.9785, 1430.645
440.4606, 1431.105
440.9427, 1431.929
441.4248, 1432.783
441.9069, 1432.627
442.3890, 1430.024
442.8712, 1426.951
443.3533, 1424.588
443.8354, 1423.099
444.3175, 1422.249
444.7996, 1422.555
445.2817, 1423.218
445.7639, 1423.398
446.2460, 1421.645
446.7281, 1420.792
447.2102, 1422.115
447.6923, 1425.151
448.1744, 1426.620
448.6566, 1425.182
449.1387, 1423.528
449.6208, 1423.078
450.1029, 1424.898
450.5850, 1424.378
451.0671, 1420.177
451.5493, 1415.018
452.0314, 1413.067
452.5135, 1415.108
452.9956, 1417.127
453.4777, 1418.294
453.9598, 1418.594
454.4420, 1417.483
454.9241, 1414.791
455.4062, 1412.421
455.8883, 1412.385
456.3704, 1414.058
456.8525, 1414.403
457.3347, 1412.875
457.8168, 1410.849
458.2989, 1410.184
458.7810, 1410.459
459.2631, 1410.451
459.7452, 1409.249
460.2274, 1407.719
460.7095, 1407.010
461.1916, 1406.986
461.6737, 1406.673
462.1558, 1405.127
462.6379, 1403.198
463.1201, 1401.645
463.6022, 1400.639
464.0843, 1399.907
464.5664, 1398.802
465.0485, 1397.986
465.5306, 1398.519
466.0128, 1403.149
466.4949, 1406.664
466.9770, 1406.861
467.4591, 1403.566
467.9412, 1401.416
468.4233, 1401.181
468.9055, 1401.532
469.3876, 1401.787
469.8697, 1402.190
470.3518, 1401.946
470.8339, 1400.697
471.3160, 1399.077
471.7982, 1398.215
472.2803, 1398.169
472.7624, 1398.706
473.2445, 1399.855
473.7266, 1401.529
474.2087, 1403.452
474.6909, 1405.706
475.1730, 1407.358
475.6551, 1407.055
476.1372, 1405.306
476.6193, 1404.257
477.1014, 1404.229
477.5836, 1404.923
478.0657, 1406.597
478.5478, 1408.784
479.0299, 1410.144
479.5120, 1408.781
479.9941, 1407.168
480.4763, 1408.331
480.9584, 1411.957
481.4405, 1414.601
481.9226, 1413.312
482.4047, 1410.896
482.8868, 1409.754
483.3690, 1411.314
483.8511, 1412.219
484.3332, 1411.054
484.8153, 1408.742
485.2974, 1406.758
485.7795, 1405.006
486.2617, 1403.968
486.7438, 1403.836
487.2259, 1404.605
487.7080, 1405.721
488.1901, 1407.624
488.6722, 1409.328
489.1544, 1410.171
489.6365, 1409.874
490.1186, 1409.826
490.6007, 1410.174
491.0828, 1410.633
491.5649, 1410.642
492.0471, 1410.167
492.5292, 1409.962
493.0113, 1410.323
493.4934, 1411.078
493.9755, 1411.937
494.4576, 1412.864
494.9398, 1413.518
495.4219, 1413.285
495.9040, 1412.667
496.3861, 1412.744
496.8682, 1413.781
497.3503, 1414.699
497.8325, 1414.421
498.3146, 1413.490
498.7967, 1412.741
499.2788, 1413.014
499.7609, 1413.111
500.2430, 1412.380
500.7252, 1410.979
501.2073, 1409.531
501.6894, 1407.337
502.1715, 1405.920
502.6536, 1406.323
503.1357, 1409.766
503.6179, 1411.811
504.1000, 1411.676
504.5821, 1410.548
505.0642, 1409.436
505.5463, 1407.817
506.0284, 1407.401
506.5106, 1408.851
506.9927, 1411.500
507.4748, 1413.126
507.9569, 1413.536
508.4390, 1413.755
508.9211, 1414.233
509.4033, 1414.939
509.8854, 1415.799
510.3675, 1416.855
510.8496, 1417.681
511.3317, 1417.458
511.8138, 1416.666
512.2960, 1416.698
512.7781, 1418.184
513.2602, 1419.944
513.7423, 1420.936
514.2244, 1421.256
514.7065, 1421.130
515.1887, 1420.236
515.6708, 1419.281
516.1529, 1418.717
516.6350, 1418.559
517.1171, 1418.594
517.5992, 1418.671
518.0814, 1418.973
518.5635, 1419.686
519.0456, 1421.636
519.5277, 1422.653
520.0098, 1421.998
520.4919, 1420.632
520.9741, 1419.981
521.4562, 1420.387
521.9383, 1420.782
522.4204, 1420.735
522.9025, 1420.432
523.3846, 1421.306
523.8668, 1423.630
524.3489, 1425.904
524.8310, 1427.321
525.3131, 1427.897
525.7952, 1427.367
526.2773, 1425.435
526.7595, 1424.055
527.2416, 1426.815
527.7237, 1431.934
528.2058, 1434.764
528.6879, 1433.073
529.1700, 1429.753
529.6522, 1426.650
530.1343, 1424.114
530.6164, 1423.036
531.0985, 1425.528
531.5806, 1428.351
532.0627, 1429.295
532.5449, 1428.086
533.0270, 1427.181
533.5091, 1427.552
533.9912, 1428.272
534.4733, 1428.666
534.9554, 1427.480
535.4376, 1427.722
535.9197, 1430.430
536.4018, 1434.026
536.8839, 1435.486
537.3660, 1433.804
537.8481, 1432.678
538.3303, 1433.180
538.8124, 1435.023
539.2945, 1436.925
539.7766, 1438.963
540.2587, 1440.436
540.7408, 1440.292
541.2230, 1439.129
541.7051, 1439.504
542.1872, 1441.803
542.6693, 1444.016
543.1514, 1443.888
543.6335, 1442.313
544.1157, 1440.900
544.5978, 1440.054
545.0799, 1439.669
545.5620, 1439.911
546.0441, 1440.580
546.5262, 1441.169
547.0084, 1441.002
547.4905, 1441.147
547.9726, 1442.267
548.4547, 1444.479
548.9368, 1446.256
549.4189, 1447.468
549.9011, 1448.168
550.3832, 1448.343
550.8653, 1447.821
551.3474, 1446.958
551.8295, 1445.215
552.3116, 1443.747
552.7938, 1444.803
553.2759, 1448.746
553.7580, 1451.595
554.2401, 1452.045
554.7222, 1450.953
555.2043, 1450.351
555.6865, 1450.214
556.1686, 1450.149
556.6507, 1449.818
557.1328, 1449.468
557.6149, 1449.461
558.0970, 1449.832
558.5792, 1450.474
559.0613, 1451.660
559.5434, 1452.935
560.0255, 1453.823
560.5076, 1454.068
560.9897, 1454.188
561.4719, 1454.280
561.9540, 1454.367
562.4361, 1454.484
562.9182, 1454.147
563.4003, 1454.407
563.8824, 1455.834
564.3646, 1458.141
564.8467, 1459.378
565.3288, 1459.143
565.8109, 1458.600
566.2930, 1458.456
566.7751, 1458.737
567.2573, 1457.915
567.7394, 1455.683
568.2215, 1453.659
568.7036, 1453.605
569.1857, 1455.182
569.6678, 1457.358
570.1500, 1460.274
570.6321, 1462.809
571.1142, 1463.580
571.5963, 1462.971
572.0784, 1461.837
572.5605, 1459.625
573.0427, 1457.841
573.5248, 1457.833
574.0069, 1459.310
574.4890, 1460.219
574.9711, 1459.121
575.4532, 1457.970
575.9354, 1457.847
576.4175, 1459.224
576.8996, 1460.124
577.3817, 1460.112
577.8638, 1460.039
578.3459, 1460.696
578.8281, 1462.216
579.3102, 1463.988
579.7923, 1466.228
580.2744, 1468.237
580.7565, 1468.232
581.2386, 1466.331
581.7208, 1464.829
582.2029, 1464.850
582.6850, 1465.612
583.1671, 1465.622
583.6492, 1465.015
584.1313, 1464.590
584.6134, 1464.758
585.0955, 1465.417
585.5776, 1466.460
586.0598, 1467.885
586.5419, 1469.792
