##NAMES=Vanadinite
##RRUFFID=R050376
##IDEAL CHEMISTRY=Pb^2+^_5_(V^5+^O_4_)_3_Cl
##LOCALITY=Morocco
##OWNER=RRUFF
##SOURCE=Eugene Schlepp
##DESCRIPTION=Red hoppered crystal
##STATUS=The identification of this mineral has been confirmed by X-ray diffraction and chemical analysis
##URL=rruff.info/R050376
##MEASURED CHEMISTRY=Pb_5.00_(V_1.00_O_4_)_3_Cl_1.00_
92.52344, 2056.882
93.00555, 2036.247
93.48767, 2040.254
93.96979, 2119.521
94.45190, 2195.031
94.93402, 2259.298
95.41614, 2283.143
95.89825, 2277.247
96.38037, 2260.629
96.86249, 2234.783
97.34460, 2204.333
97.82672, 2172.530
98.30884, 2138.153
98.79095, 2100.356
99.27307, 2057.456
99.75519, 2010.490
100.2373, 1966.686
100.7194, 1926.619
101.2015, 1885.757
101.6837, 1841.410
102.1658, 1797.263
102.6479, 1756.247
103.1300, 1718.329
103.6121, 1681.138
104.0942, 1642.563
104.5764, 1603.097
105.0585, 1564.332
105.5406, 1526.707
106.0227, 1489.763
106.5048, 1452.264
106.9869, 1411.709
107.4691, 1373.345
107.9512, 1338.943
108.4333, 1308.076
108.9154, 1279.923
109.3975, 1254.142
109.8796, 1230.978
110.3618, 1208.158
110.8439, 1184.117
111.3260, 1161.481
111.8081, 1141.418
112.2902, 1124.170
112.7723, 1109.218
113.2544, 1095.952
113.7366, 1084.779
114.2187, 1074.945
114.7008, 1066.711
115.1829, 1059.496
115.6650, 1052.573
116.1471, 1045.636
116.6293, 1039.415
117.1114, 1035.997
117.5935, 1036.489
118.0756, 1037.142
118.5577, 1036.196
119.0398, 1034.671
119.5220, 1035.128
120.0041, 1039.059
120.4862, 1045.586
120.9683, 1052.065
121.4504, 1058.171
121.9325, 1064.710
122.4147, 1072.170
122.8968, 1080.542
123.3789, 1089.891
123.8610, 1100.953
124.3431, 1112.818
124.8252, 1124.589
125.3074, 1135.740
125.7895, 1146.951
126.2716, 1159.860
126.7537, 1175.481
127.2358, 1190.903
127.7179, 1204.820
128.2001, 1218.086
128.6822, 1232.052
129.1643, 1247.569
129.6464, 1264.542
130.1285, 1280.880
130.6107, 1297.488
131.0928, 1312.613
131.5749, 1324.512
132.0570, 1334.331
132.5391, 1344.709
133.0212, 1358.035
133.5034, 1375.027
133.9855, 1390.495
134.4676, 1403.554
134.9497, 1416.158
135.4318, 1429.834
135.9139, 1444.526
136.3960, 1458.668
136.8782, 1470.303
137.3603, 1478.943
137.8424, 1487.017
138.3245, 1494.160
138.8066, 1500.968
139.2887, 1508.652
139.7709, 1517.901
140.2530, 1526.196
140.7351, 1529.623
141.2172, 1528.715
141.6993, 1527.209
142.1814, 1527.120
142.6636, 1527.813
143.1457, 1526.852
143.6278, 1523.186
144.1099, 1518.148
144.5920, 1513.414
145.0741, 1508.973
145.5563, 1503.273
146.0384, 1494.471
146.5205, 1482.211
147.0026, 1470.120
147.4847, 1459.668
147.9668, 1448.978
148.4490, 1436.979
148.9311, 1423.494
149.4132, 1408.935
149.8953, 1393.872
150.3774, 1377.899
150.8595, 1362.037
151.3417, 1346.463
151.8238, 1331.014
152.3059, 1315.648
152.7880, 1300.433
153.2701, 1285.117
153.7522, 1269.291
154.2344, 1251.746
154.7165, 1235.186
155.1986, 1220.210
155.6807, 1206.094
156.1628, 1191.842
156.6449, 1176.965
157.1271, 1161.764
157.6092, 1147.569
158.0913, 1134.446
158.5734, 1121.909
159.0555, 1109.793
159.5376, 1098.188
160.0198, 1087.327
160.5019, 1077.359
160.9840, 1068.323
161.4661, 1060.062
161.9482, 1052.960
162.4303, 1046.171
162.9125, 1039.148
163.3946, 1031.907
163.8767, 1024.807
164.3588, 1017.910
164.8409, 1011.417
165.3230, 1005.634
165.8052, 1000.987
166.2873, 996.7640
166.7694, 992.0457
167.2515, 986.6066
167.7336, 981.3912
168.2157, 977.1360
168.6979, 973.2712
169.1800, 969.0936
169.6621, 964.2393
170.1442, 958.9318
170.6263, 953.6563
171.1084, 947.9130
171.5906, 943.1319
172.0727, 940.5969
172.5548, 938.9842
173.0369, 936.4559
173.5190, 931.8480
174.0011, 925.3512
174.4833, 918.5829
174.9654, 910.8278
175.4475, 903.4736
175.9296, 897.3172
176.4117, 891.7844
176.8938, 885.7775
177.3760, 878.4584
177.8581, 869.7944
178.3402, 861.0198
178.8223, 852.1877
179.3044, 843.2371
179.7865, 834.4592
180.2687, 825.6339
180.7508, 816.2053
181.2329, 805.7353
181.7150, 794.0850
182.1971, 782.0748
182.6792, 769.0799
183.1614, 756.3162
183.6435, 744.4520
184.1256, 733.5433
184.6077, 723.2790
185.0898, 713.5839
185.5719, 704.4952
186.0541, 694.8105
186.5362, 685.4741
187.0183, 674.9717
187.5004, 661.0865
187.9825, 643.3663
188.4646, 625.5974
188.9468, 611.4115
189.4289, 600.1616
189.9110, 589.2053
190.3931, 577.8948
190.8752, 566.5829
191.3573, 555.6267
191.8395, 544.9484
192.3216, 534.9493
192.8037, 526.5809
193.2858, 519.1963
193.7679, 511.2323
194.2500, 501.2407
194.7322, 490.0772
195.2143, 480.4033
195.6964, 472.8239
196.1785, 466.0664
196.6606, 459.5956
197.1427, 453.2650
197.6249, 446.8019
198.1070, 439.8487
198.5891, 432.4998
199.0712, 425.7454
199.5533, 419.9835
200.0354, 414.4285
200.5176, 408.7115
200.9997, 402.9745
201.4818, 397.5952
201.9639, 392.9975
202.4460, 389.2068
202.9281, 385.1066
203.4103, 380.1048
203.8924, 375.3521
204.3745, 371.5735
204.8566, 368.3974
205.3387, 364.8880
205.8208, 360.0553
206.3030, 353.5776
206.7851, 348.6882
207.2672, 346.9200
207.7493, 345.1187
208.2314, 341.9244
208.7135, 337.5285
209.1957, 332.9348
209.6778, 328.9984
210.1599, 325.7542
210.6420, 323.1437
211.1241, 321.7090
211.6062, 320.3107
212.0884, 318.3826
212.5705, 315.9224
213.0526, 313.1812
213.5347, 310.2838
214.0168, 307.1924
214.4989, 304.6715
214.9811, 303.0874
215.4632, 301.7263
215.9453, 300.0968
216.4274, 298.1817
216.9095, 296.3164
217.3916, 294.8031
217.8737, 293.6577
218.3559, 292.5023
218.8380, 291.2959
219.3201, 290.0923
219.8022, 289.0171
220.2843, 288.0800
220.7664, 286.9715
221.2486, 285.3228
221.7307, 283.2547
222.2128, 281.3671
222.6949, 279.6738
223.1770, 278.2320
223.6591, 277.2251
224.1413, 276.7176
224.6234, 276.2012
225.1055, 275.0103
225.5876, 273.5714
226.0697, 272.7415
226.5518, 273.3185
227.0340, 274.3306
227.5161, 274.1451
227.9982, 272.3674
228.4803, 270.7610
228.9624, 270.7027
229.4445, 271.3665
229.9267, 271.6885
230.4088, 271.1638
230.8909, 270.1872
231.3730, 269.5155
231.8551, 269.2506
232.3372, 269.0455
232.8194, 267.9246
233.3015, 267.0135
233.7836, 268.0839
234.2657, 272.5470
234.7478, 278.3208
235.2299, 280.3949
235.7121, 276.8497
236.1942, 273.3497
236.6763, 271.2528
237.1584, 270.1731
237.6405, 269.8180
238.1227, 270.1179
238.6048, 270.8646
239.0869, 271.5329
239.5690, 272.0645
240.0511, 272.6227
240.5332, 273.1163
241.0154, 273.6963
241.4975, 274.5494
241.9796, 275.7578
242.4617, 277.1748
242.9438, 278.4235
243.4259, 279.4501
243.9081, 280.3769
244.3902, 280.9667
244.8723, 281.5889
245.3544, 282.5977
245.8365, 284.1339
246.3186, 286.0547
246.8008, 288.0560
247.2829, 290.0680
247.7650, 292.2793
248.2471, 294.6706
248.7292, 297.2553
249.2113, 300.2286
249.6935, 303.6137
250.1756, 306.9850
250.6577, 309.4665
251.1398, 309.6939
251.6219, 311.0077
252.1040, 313.8152
252.5862, 317.4178
253.0683, 321.3378
253.5504, 325.3857
254.0325, 329.4754
254.5146, 333.4300
254.9967, 336.8194
255.4789, 340.9321
255.9610, 346.2056
256.4431, 351.9145
256.9252, 357.4451
257.4073, 362.6657
257.8894, 367.8258
258.3716, 373.2213
258.8537, 378.7480
259.3358, 384.9997
259.8179, 392.0064
260.3000, 399.7387
260.7821, 408.2565
261.2643, 417.5717
261.7464, 427.4423
262.2285, 437.6379
262.7106, 448.2365
263.1927, 459.3990
263.6748, 470.9377
264.1570, 483.1338
264.6391, 496.0489
265.1212, 509.7065
265.6033, 524.3345
266.0854, 539.9639
266.5675, 556.7226
267.0497, 574.7568
267.5318, 594.6976
268.0139, 615.3936
268.4960, 635.9268
268.9781, 656.2193
269.4602, 676.7666
269.9424, 697.6638
270.4245, 719.1644
270.9066, 742.1893
271.3887, 767.4059
271.8708, 793.7587
272.3529, 820.6168
272.8351, 847.9792
273.3172, 875.3236
273.7993, 902.1590
274.2814, 928.9793
274.7635, 957.1823
275.2456, 986.9756
275.7278, 1017.785
276.2099, 1049.289
276.6920, 1081.478
277.1741, 1114.271
277.6562, 1147.245
278.1383, 1181.075
278.6205, 1216.250
279.1026, 1253.442
279.5847, 1291.247
280.0668, 1328.213
280.5489, 1364.858
281.0310, 1403.452
281.5132, 1445.291
281.9953, 1489.109
282.4774, 1532.950
282.9595, 1576.976
283.4416, 1620.011
283.9237, 1661.846
284.4059, 1702.170
284.8880, 1740.191
285.3701, 1775.725
285.8522, 1808.307
286.3343, 1838.308
286.8164, 1865.795
287.2986, 1889.915
287.7807, 1911.361
288.2628, 1929.258
288.7449, 1940.706
289.2270, 1945.446
289.7091, 1942.959
290.1913, 1932.566
290.6734, 1915.328
291.1555, 1893.676
291.6376, 1868.627
292.1197, 1840.146
292.6018, 1806.978
293.0840, 1767.819
293.5661, 1727.268
294.0482, 1687.078
294.5303, 1647.881
295.0124, 1610.470
295.4945, 1575.159
295.9767, 1542.180
296.4588, 1511.929
296.9409, 1484.368
297.4230, 1459.668
297.9051, 1437.359
298.3872, 1417.910
298.8694, 1402.275
299.3515, 1390.621
299.8336, 1383.056
300.3157, 1379.823
300.7978, 1381.071
301.2799, 1385.752
301.7621, 1395.055
302.2442, 1407.035
302.7263, 1419.956
303.2084, 1433.353
303.6905, 1448.791
304.1726, 1468.334
304.6548, 1492.058
305.1369, 1517.158
305.6190, 1542.885
306.1011, 1570.203
306.5832, 1599.467
307.0653, 1630.738
307.5475, 1664.185
308.0296, 1699.779
308.5117, 1737.492
308.9938, 1778.171
309.4759, 1822.895
309.9580, 1869.666
310.4402, 1916.237
310.9223, 1963.029
311.4044, 2011.934
311.8865, 2064.015
312.3686, 2118.901
312.8507, 2175.885
313.3329, 2234.751
313.8150, 2296.306
314.2971, 2363.128
314.7792, 2432.804
315.2613, 2501.406
315.7434, 2567.726
316.2256, 2631.851
316.7077, 2694.310
317.1898, 2756.155
317.6719, 2814.768
318.1540, 2872.435
318.6361, 2925.272
319.1183, 2968.635
319.6004, 3001.608
320.0825, 3024.026
320.5646, 3036.526
321.0467, 3039.657
321.5288, 3029.397
322.0110, 3002.293
322.4931, 2961.301
322.9752, 2907.097
323.4573, 2839.867
323.9394, 2762.401
324.4215, 2675.183
324.9037, 2578.878
325.3858, 2479.426
325.8679, 2375.128
326.3500, 2270.935
326.8321, 2169.360
327.3142, 2070.518
327.7964, 1975.480
328.2785, 1884.205
328.7606, 1797.184
329.2427, 1715.886
329.7248, 1640.681
330.2069, 1571.535
330.6891, 1508.549
331.1712, 1450.796
331.6533, 1396.275
332.1354, 1343.738
332.6175, 1294.042
333.0996, 1249.210
333.5818, 1209.537
334.0639, 1173.132
334.5460, 1139.707
335.0281, 1108.897
335.5102, 1080.780
335.9923, 1055.159
336.4745, 1032.321
336.9566, 1012.696
337.4387, 996.4565
337.9208, 981.6500
338.4029, 966.6282
338.8850, 953.7921
339.3671, 945.4879
339.8492, 941.9813
340.3314, 941.4168
340.8135, 942.2850
341.2956, 944.8049
341.7777, 950.3687
342.2598, 959.5323
342.7419, 971.6232
343.2241, 985.5151
343.7062, 1001.310
344.1883, 1019.716
344.6704, 1041.229
345.1525, 1065.568
345.6346, 1092.388
346.1168, 1121.945
346.5989, 1152.958
347.0810, 1184.799
347.5631, 1217.284
348.0452, 1250.627
348.5273, 1285.482
349.0095, 1320.660
349.4916, 1355.012
349.9737, 1388.406
350.4558, 1421.037
350.9379, 1451.932
351.4200, 1482.559
351.9022, 1515.157
352.3843, 1550.102
352.8664, 1585.908
353.3485, 1621.159
353.8306, 1656.242
354.3127, 1692.911
354.7949, 1732.557
355.2770, 1772.707
355.7591, 1809.522
356.2412, 1842.905
356.7233, 1879.209
357.2054, 1921.362
357.6876, 1967.631
358.1697, 2015.596
358.6518, 2065.041
359.1339, 2115.679
359.6160, 2167.418
360.0981, 2220.278
360.5803, 2272.498
361.0624, 2327.921
361.5445, 2379.429
362.0266, 2422.329
362.5087, 2456.412
362.9908, 2481.078
363.4730, 2498.014
363.9551, 2503.003
364.4372, 2487.091
364.9193, 2450.047
365.4014, 2395.654
365.8835, 2321.850
366.3657, 2232.385
366.8478, 2132.852
367.3299, 2024.556
367.8120, 1910.384
368.2941, 1791.976
368.7762, 1666.669
369.2584, 1549.377
369.7405, 1443.480
370.2226, 1346.227
370.7047, 1255.622
371.1868, 1170.822
371.6689, 1092.650
372.1511, 1021.306
372.6332, 957.1995
373.1153, 899.5991
373.5974, 849.2223
374.0795, 803.3718
374.5616, 760.6182
375.0438, 721.2067
375.5259, 685.6016
376.0080, 654.4047
376.4901, 626.9941
376.9722, 601.5450
377.4543, 578.5350
377.9365, 556.8703
378.4186, 536.1845
378.9007, 516.8866
379.3828, 499.8924
379.8649, 485.3467
380.3470, 472.1071
380.8292, 458.5503
381.3113, 444.0396
381.7934, 431.1159
382.2755, 420.4201
382.7576, 410.5062
383.2397, 400.6463
383.7219, 390.8189
384.2040, 381.4657
384.6861, 372.9692
385.1682, 365.2900
385.6503, 358.0609
386.1324, 351.3792
386.6146, 345.1124
387.0967, 339.2464
387.5788, 333.8434
388.0609, 329.0722
388.5430, 325.0175
389.0251, 321.3242
389.5073, 317.1961
389.9894, 312.1781
390.4715, 307.6780
390.9536, 303.8702
391.4357, 300.4397
391.9178, 297.1456
392.4000, 293.9932
392.8821, 291.1683
393.3642, 288.9796
393.8463, 287.4530
394.3284, 285.4976
394.8105, 282.5659
395.2927, 279.8066
395.7748, 277.7063
396.2569, 276.0210
396.7390, 274.3282
397.2211, 272.4359
397.7032, 270.3792
398.1854, 268.2597
398.6675, 266.0975
399.1496, 263.7890
399.6317, 261.1184
400.1138, 258.3895
400.5959, 255.7706
401.0781, 253.3019
401.5602, 251.0989
402.0423, 249.4008
402.5244, 248.1598
403.0065, 246.6566
403.4886, 244.1071
403.9708, 242.3864
404.4529, 243.4324
404.9350, 246.3253
405.4171, 248.4961
405.8992, 249.0532
406.3813, 248.1433
406.8635, 245.5033
407.3456, 240.9008
407.8277, 236.6549
408.3098, 233.8392
408.7919, 232.1304
409.2740, 231.0157
409.7562, 230.7538
410.2383, 230.3139
410.7204, 229.0764
411.2025, 227.1632
411.6846, 224.8617
412.1667, 222.1581
412.6489, 219.2996
413.1310, 216.6874
413.6131, 214.3112
414.0952, 211.4783
414.5773, 207.8458
415.0594, 203.8537
415.5416, 199.8260
416.0237, 195.8076
416.5058, 191.8472
416.9879, 187.9066
417.4700, 184.0773
417.9521, 180.8408
418.4343, 178.8409
418.9164, 176.5598
419.3985, 173.4436
419.8806, 169.8314
420.3627, 166.1052
420.8448, 162.3839
421.3270, 158.9179
421.8091, 156.1145
422.2912, 154.2926
422.7733, 152.2933
423.2554, 149.9717
423.7375, 147.6207
424.2197, 145.3513
424.7018, 143.2151
425.1839, 141.2971
425.6660, 139.6722
426.1481, 138.3101
426.6302, 136.9651
427.1124, 136.1093
427.5945, 134.6574
428.0766, 131.7420
428.5587, 128.5569
429.0408, 126.3362
429.5229, 125.4338
430.0051, 125.1838
430.4872, 124.7188
430.9693, 124.0282
431.4514, 123.1813
431.9335, 122.1331
432.4156, 120.9504
432.8978, 119.5048
433.3799, 117.9332
433.8620, 116.5520
434.3441, 115.6428
434.8262, 115.0007
435.3083, 113.9771
435.7905, 112.3780
436.2726, 110.9456
436.7547, 110.0415
437.2368, 109.3673
437.7189, 108.7039
438.2010, 108.0126
438.6832, 107.3010
439.1653, 106.6037
439.6474, 105.9032
440.1295, 105.0708
440.6116, 104.0273
441.0938, 102.9676
441.5759, 101.9860
442.0580, 101.1081
442.5401, 100.4675
443.0222, 100.4817
443.5043, 100.4910
443.9865, 99.62388
444.4686, 97.99641
444.9507, 96.69451
445.4328, 96.38461
445.9149, 96.54827
446.3970, 95.92873
446.8792, 94.22428
447.3613, 92.76220
447.8434, 91.96680
448.3255, 91.57896
448.8076, 91.39596
449.2897, 91.35292
449.7719, 91.20061
450.2540, 90.67103
450.7361, 89.73637
451.2182, 88.97758
451.7003, 88.59639
452.1824, 88.14393
452.6646, 87.29981
453.1467, 86.30428
453.6288, 85.62698
454.1109, 85.47310
454.5930, 85.54647
455.0751, 85.22484
455.5573, 84.13931
456.0394, 83.38219
456.5215, 83.26920
457.0036, 83.16055
457.4857, 82.61642
457.9678, 81.70856
458.4500, 80.80412
458.9321, 80.18607
459.4142, 79.80737
459.8963, 79.38457
460.3784, 78.89656
460.8605, 78.40215
461.3427, 77.89462
461.8248, 77.39664
462.3069, 76.94068
462.7890, 76.53474
463.2711, 76.12291
463.7532, 75.58753
464.2354, 74.94746
464.7175, 74.57860
465.1996, 74.79533
465.6817, 74.84630
466.1638, 73.96934
466.6459, 72.51800
467.1281, 71.38407
467.6102, 70.97977
468.0923, 70.91526
468.5744, 70.82262
469.0565, 70.70430
469.5386, 70.61294
470.0208, 70.61665
470.5029, 70.59570
470.9850, 70.30723
471.4671, 69.71478
471.9492, 69.13720
472.4313, 68.74704
472.9135, 68.35501
473.3956, 67.62766
473.8777, 66.59792
474.3598, 65.78397
474.8419, 65.64311
475.3240, 66.08159
475.8062, 66.16788
476.2883, 65.69544
476.7704, 65.17931
477.2525, 64.64675
477.7346, 64.15879
478.2167, 63.83392
478.6989, 63.68313
479.1810, 63.53642
479.6631, 63.14682
480.1452, 62.43813
480.6273, 61.88997
481.1094, 61.60005
481.5916, 61.37502
482.0737, 61.18521
482.5558, 61.01205
483.0379, 60.83294
483.5200, 60.63462
484.0021, 60.43169
484.4843, 60.25834
484.9664, 60.12525
485.4485, 59.97047
485.9306, 59.82755
486.4127, 59.61520
486.8948, 59.19719
487.3770, 58.62434
487.8591, 58.17897
488.3412, 58.13694
488.8233, 58.29560
489.3054, 58.26865
489.7875, 58.04472
490.2697, 57.71177
490.7518, 57.21693
491.2339, 56.69787
491.7160, 56.44218
492.1981, 56.57401
492.6802, 56.60926
493.1624, 56.25588
493.6445, 55.71361
494.1266, 55.26249
494.6087, 54.94999
495.0908, 54.73106
495.5729, 54.57717
496.0551, 54.48814
496.5372, 54.38726
497.0193, 54.23536
497.5014, 54.11872
497.9835, 54.14198
498.4656, 54.18885
498.9478, 54.07534
499.4299, 53.74760
499.9120, 53.33375
500.3941, 53.02288
500.8762, 52.84447
501.3583, 52.64310
501.8405, 52.48088
502.3226, 52.23243
502.8047, 51.70895
503.2868, 51.08825
503.7689, 50.71574
504.2510, 50.78273
504.7331, 51.06990
505.2152, 51.19155
505.6974, 51.13323
506.1795, 50.99920
506.6616, 50.76712
507.1437, 50.50294
507.6258, 50.26738
508.1079, 50.04955
508.5901, 49.79460
509.0722, 49.39840
509.5543, 48.98815
510.0364, 48.79876
510.5185, 48.82704
511.0006, 48.78267
511.4828, 48.50968
511.9649, 48.09979
512.4470, 47.74508
512.9291, 47.45188
513.4113, 47.17589
513.8934, 46.82037
514.3755, 46.53030
514.8576, 46.55073
515.3397, 46.84721
515.8218, 47.07196
516.3040, 46.95881
516.7861, 46.55201
517.2682, 46.17548
517.7503, 45.71067
518.2324, 45.43243
518.7145, 45.50682
519.1967, 45.69248
519.6788, 45.75724
520.1609, 45.66711
520.6430, 45.55504
521.1251, 45.58850
521.6072, 45.75720
522.0894, 45.67768
522.5715, 45.13039
523.0536, 44.68378
523.5357, 44.64879
524.0178, 44.75346
524.4999, 44.63026
524.9821, 44.16029
525.4642, 43.74048
525.9463, 43.83657
526.4284, 44.31870
526.9105, 44.59721
527.3926, 44.56810
527.8748, 44.39646
528.3569, 44.12626
528.8390, 43.81017
529.3211, 43.62941
529.8032, 43.70246
530.2853, 43.80096
530.7675, 43.90862
531.2496, 43.93607
531.7317, 43.60443
532.2138, 42.82486
532.6959, 42.03687
533.1780, 41.81650
533.6602, 42.29258
534.1423, 42.53654
534.6244, 42.45028
535.1065, 42.28062
535.5886, 42.03027
536.0707, 41.78351
536.5529, 41.69277
537.0350, 41.81316
537.5171, 41.97639
537.9992, 41.89440
538.4813, 41.51274
538.9634, 41.16097
539.4456, 40.73602
539.9277, 40.48380
540.4098, 40.63612
540.8919, 41.02263
541.3740, 41.31315
541.8561, 41.38476
542.3383, 41.29751
542.8204, 41.04009
543.3025, 40.64191
543.7846, 40.40276
544.2667, 40.43652
544.7488, 40.57037
545.2310, 40.62156
545.7131, 40.60020
546.1952, 40.59505
546.6773, 40.73632
547.1594, 40.78937
547.6415, 40.47409
548.1237, 39.95106
548.6058, 39.67110
549.0879, 39.82797
549.5700, 40.09964
550.0521, 39.90567
550.5342, 38.91047
551.0164, 38.49654
551.4985, 39.13654
551.9806, 39.78380
552.4627, 39.98987
552.9448, 39.86401
553.4269, 39.65183
553.9091, 39.46071
554.3912, 39.32774
554.8733, 39.35807
555.3554, 39.59217
555.8375, 39.70160
556.3196, 39.52930
556.8018, 39.35572
557.2839, 39.41592
557.7660, 39.61949
558.2481, 39.70286
558.7302, 39.48818
559.2123, 39.21551
559.6945, 39.16761
560.1766, 39.28742
560.6587, 39.28462
561.1408, 39.02966
561.6229, 38.76843
562.1050, 38.84592
562.5872, 39.33741
563.0693, 39.63128
563.5514, 39.63910
564.0335, 39.52937
564.5156, 39.31932
564.9977, 39.06691
565.4799, 38.85698
565.9620, 38.72429
566.4441, 38.64702
566.9262, 38.58001
567.4083, 38.49459
567.8904, 38.53624
568.3726, 38.81676
568.8547, 39.11481
569.3368, 39.40264
569.8189, 39.64593
570.3010, 39.80442
570.7831, 39.86995
571.2653, 39.82099
571.7474, 39.54254
572.2295, 39.08144
572.7116, 38.83660
573.1937, 38.93356
573.6758, 39.10308
574.1580, 39.12666
574.6401, 39.03697
575.1222, 38.96112
575.6043, 38.85894
576.0864, 38.83201
576.5685, 39.05769
577.0507, 39.35555
577.5328, 39.37489
578.0149, 39.04226
578.4970, 38.63858
578.9791, 38.46220
579.4612, 38.52109
579.9434, 38.60817
580.4255, 38.65253
580.9076, 38.81328
581.3897, 39.25119
581.8718, 39.75388
582.3539, 40.08707
582.8361, 40.20266
583.3182, 40.22402
583.8003, 40.30886
584.2824, 40.42560
584.7645, 40.29985
585.2466, 39.82857
585.7288, 39.40227
586.2108, 39.18371
586.6929, 39.14263
587.1750, 39.25557
587.6572, 39.54433
588.1393, 39.88426
588.6214, 40.31124
589.1035, 40.71009
589.5856, 40.87700
590.0677, 40.82037
