##NAMES=Vanadinite
##RRUFFID=R050171
##IDEAL CHEMISTRY=Pb^2+^_5_(V^5+^O_4_)_3_Cl
##LOCALITY=Hamburg mine, La Paz County, Arizona, USA
##OWNER=RRUFF
##SOURCE=Marcus Origlieri
##DESCRIPTION=Red prismatic hexagonal crystals
##STATUS=The identification of this mineral has been confirmed by X-ray diffraction and chemical analysis
##URL=rruff.info/R050171
##MEASURED CHEMISTRY=Pb_5.00_((V_0.89_As_0.11_)O_4_)_3_Cl_1.00_
93.26398, 0.0000000E+00
93.74609, 54.73212
94.22821, 51.48010
94.71033, 53.24023
95.19244, 59.11275
95.67456, 65.85998
96.15668, 72.48170
96.63879, 79.03956
97.12091, 85.58327
97.60303, 91.98297
98.08514, 99.02008
98.56726, 107.9032
99.04938, 118.7029
99.53149, 130.0491
100.0136, 140.8534
100.4957, 151.0295
100.9778, 163.0114
101.4600, 176.8954
101.9421, 192.5264
102.4242, 209.3397
102.9063, 227.7183
103.3884, 246.5799
103.8705, 265.1036
104.3527, 283.4568
104.8348, 301.6551
105.3169, 320.1843
105.7990, 338.7365
106.2811, 356.4623
106.7632, 373.5435
107.2454, 389.4442
107.7275, 403.4889
108.2096, 415.2996
108.6917, 425.9719
109.1738, 434.8447
109.6559, 441.5290
110.1381, 450.7842
110.6202, 463.7716
111.1023, 478.9558
111.5844, 494.8397
112.0665, 511.1982
112.5486, 528.6396
113.0308, 547.4156
113.5129, 567.8611
113.9950, 589.0912
114.4771, 610.7379
114.9592, 633.0547
115.4413, 656.7425
115.9235, 683.1404
116.4056, 709.9681
116.8877, 735.9257
117.3698, 761.3599
117.8519, 785.8223
118.3340, 808.9689
118.8162, 831.0341
119.2983, 852.4857
119.7804, 874.0133
120.2625, 895.0598
120.7446, 914.9337
121.2267, 933.0557
121.7089, 950.8522
122.1910, 968.9850
122.6731, 987.4655
123.1552, 1006.348
123.6373, 1026.150
124.1194, 1046.159
124.6016, 1065.843
125.0837, 1084.551
125.5658, 1102.759
126.0479, 1120.465
126.5300, 1137.716
127.0121, 1155.582
127.4943, 1174.812
127.9764, 1195.241
128.4585, 1217.047
128.9406, 1240.396
129.4227, 1264.947
129.9048, 1289.588
130.3869, 1314.172
130.8691, 1340.006
131.3512, 1369.753
131.8333, 1398.139
132.3154, 1418.200
132.7975, 1432.701
133.2796, 1444.476
133.7618, 1456.717
134.2439, 1469.666
134.7260, 1483.084
135.2081, 1497.175
135.6902, 1512.157
136.1723, 1525.287
136.6545, 1534.837
137.1366, 1540.829
137.6187, 1546.129
138.1008, 1550.823
138.5829, 1555.055
139.0650, 1559.449
139.5472, 1564.227
140.0293, 1568.213
140.5114, 1571.086
140.9935, 1573.168
141.4756, 1572.055
141.9577, 1566.303
142.4399, 1557.170
142.9220, 1551.308
143.4041, 1550.311
143.8862, 1549.704
144.3683, 1546.181
144.8504, 1538.726
145.3326, 1530.864
145.8147, 1523.611
146.2968, 1516.787
146.7789, 1507.703
147.2610, 1494.668
147.7431, 1480.940
148.2253, 1469.162
148.7074, 1461.340
149.1895, 1452.807
149.6716, 1442.752
150.1537, 1430.977
150.6358, 1419.464
151.1180, 1408.118
151.6001, 1397.061
152.0822, 1386.586
152.5643, 1377.615
153.0464, 1368.214
153.5285, 1358.277
154.0107, 1348.206
154.4928, 1336.310
154.9749, 1320.116
155.4570, 1302.623
155.9391, 1287.624
156.4212, 1276.783
156.9034, 1267.229
157.3855, 1258.217
157.8676, 1250.125
158.3497, 1241.639
158.8318, 1232.721
159.3139, 1223.243
159.7961, 1212.906
160.2782, 1199.830
160.7603, 1187.262
161.2424, 1176.789
161.7245, 1169.092
162.2066, 1162.452
162.6888, 1156.476
163.1709, 1151.132
163.6530, 1146.363
164.1351, 1143.006
164.6172, 1139.644
165.0993, 1135.149
165.5815, 1128.286
166.0636, 1121.957
166.5457, 1118.202
167.0278, 1116.204
167.5099, 1113.478
167.9920, 1108.511
168.4742, 1102.369
168.9563, 1095.971
169.4384, 1089.405
169.9205, 1082.804
170.4026, 1076.285
170.8847, 1069.814
171.3669, 1063.334
171.8490, 1057.177
172.3311, 1050.909
172.8132, 1043.972
173.2953, 1035.829
173.7774, 1027.364
174.2596, 1019.354
174.7417, 1011.736
175.2238, 1004.215
175.7059, 996.8350
176.1880, 989.4396
176.6701, 981.8232
177.1523, 973.8882
177.6344, 965.6879
178.1165, 956.7227
178.5986, 946.9906
179.0807, 938.2780
179.5628, 933.8672
180.0450, 931.5721
180.5271, 926.3177
181.0092, 914.3536
181.4913, 899.1680
181.9734, 886.8220
182.4555, 877.3660
182.9377, 868.7336
183.4198, 858.4032
183.9019, 846.9958
184.3840, 836.9852
184.8661, 830.1794
185.3482, 825.2054
185.8304, 818.8685
186.3125, 811.1926
186.7946, 802.1922
187.2767, 790.9402
187.7588, 777.8477
188.2409, 765.9553
188.7231, 757.1400
189.2052, 750.5104
189.6873, 742.4879
190.1694, 732.7843
190.6515, 722.7866
191.1336, 714.2476
191.6158, 707.0906
192.0979, 700.1914
192.5800, 692.7817
193.0621, 685.0811
193.5442, 678.5583
194.0263, 673.4100
194.5085, 668.5958
194.9906, 662.4164
195.4727, 654.8607
195.9548, 647.6321
196.4369, 642.0958
196.9190, 638.0613
197.4012, 632.0077
197.8833, 623.3426
198.3654, 613.9730
198.8475, 607.3347
199.3296, 603.5685
199.8117, 600.4828
200.2939, 597.5803
200.7760, 594.8995
201.2581, 590.6227
201.7402, 584.2939
202.2223, 577.1220
202.7044, 571.3297
203.1866, 567.2228
203.6687, 563.1014
204.1508, 557.8554
204.6329, 551.2584
205.1150, 546.3319
205.5971, 543.6570
206.0793, 541.9935
206.5614, 538.5840
207.0435, 532.8328
207.5256, 527.8011
208.0077, 525.5346
208.4898, 526.8252
208.9720, 525.5313
209.4541, 520.5973
209.9362, 513.9641
210.4183, 509.8360
210.9004, 508.9111
211.3825, 508.5189
211.8647, 507.5517
212.3468, 505.9413
212.8289, 503.9801
213.3110, 501.4840
213.7931, 498.7540
214.2752, 496.6424
214.7574, 495.4956
215.2395, 494.0887
215.7216, 491.6805
216.2037, 487.8547
216.6858, 484.6968
217.1679, 482.3560
217.6500, 480.6085
218.1322, 479.0765
218.6143, 478.0250
219.0964, 476.6164
219.5785, 474.2214
220.0606, 469.9946
220.5427, 467.5259
221.0249, 467.6505
221.5070, 469.1596
221.9891, 469.1054
222.4712, 466.8187
222.9533, 464.2068
223.4354, 461.9777
223.9176, 459.7957
224.3997, 458.9762
224.8818, 460.2322
225.3639, 462.5183
225.8460, 463.3593
226.3281, 462.0672
226.8103, 460.5002
227.2924, 459.4875
227.7745, 459.2715
228.2566, 458.8966
228.7387, 458.2274
229.2208, 457.4595
229.7030, 457.1493
230.1851, 457.7714
230.6672, 458.0851
231.1493, 457.4988
231.6314, 455.5732
232.1135, 453.8927
232.5957, 452.2209
233.0778, 450.8928
233.5599, 450.8787
234.0420, 453.2940
234.5241, 455.2036
235.0062, 455.0290
235.4884, 451.1616
235.9705, 450.0230
236.4526, 452.9561
236.9347, 458.0174
237.4168, 461.1246
237.8989, 461.1970
238.3811, 461.0311
238.8632, 461.7942
239.3453, 464.1453
239.8274, 465.3243
240.3095, 464.6017
240.7916, 463.0939
241.2738, 462.9705
241.7559, 464.9420
242.2380, 467.1328
242.7201, 468.7606
243.2022, 469.3913
243.6843, 471.0608
244.1665, 474.4095
244.6486, 478.4401
245.1307, 481.3857
245.6128, 482.7314
246.0949, 483.8403
246.5770, 484.8988
247.0592, 485.5034
247.5413, 487.7677
248.0234, 492.3274
248.5055, 498.0963
248.9876, 503.3907
249.4697, 508.3254
249.9519, 512.6346
250.4340, 516.2128
250.9161, 519.0087
251.3982, 521.1190
251.8803, 521.3838
252.3624, 521.9020
252.8446, 525.8158
253.3267, 534.7932
253.8088, 543.9450
254.2909, 552.2459
254.7730, 559.8190
255.2551, 565.5908
255.7373, 568.6019
256.2194, 570.7882
256.7015, 574.3141
257.1836, 579.2250
257.6657, 585.3831
258.1478, 592.8056
258.6299, 601.4241
259.1121, 611.2804
259.5942, 622.9608
260.0763, 635.1937
260.5584, 647.0917
261.0405, 658.6879
261.5226, 669.4308
262.0048, 678.5125
262.4869, 685.9367
262.9690, 696.5085
263.4511, 711.1761
263.9332, 727.5162
264.4153, 743.0015
264.8975, 756.9882
265.3796, 772.5587
265.8617, 790.7631
266.3438, 811.2322
266.8259, 831.6227
267.3080, 851.2707
267.7902, 871.8682
268.2723, 894.5685
268.7544, 920.3426
269.2365, 945.7264
269.7186, 969.6450
270.2007, 992.8448
270.6829, 1018.376
271.1650, 1046.609
271.6471, 1076.234
272.1292, 1105.503
272.6113, 1134.140
273.0934, 1164.099
273.5756, 1195.456
274.0577, 1227.987
274.5398, 1261.861
275.0219, 1297.086
275.5040, 1332.935
275.9861, 1368.782
276.4683, 1404.475
276.9504, 1441.382
277.4325, 1479.981
277.9146, 1519.513
278.3967, 1557.798
278.8788, 1594.330
279.3610, 1631.563
279.8431, 1670.487
280.3252, 1710.781
280.8073, 1753.540
281.2894, 1799.634
281.7715, 1847.083
282.2537, 1891.296
282.7358, 1931.843
283.2179, 1973.876
283.7000, 2021.063
284.1821, 2073.315
284.6642, 2123.496
285.1464, 2171.852
285.6285, 2217.794
286.1106, 2259.782
286.5927, 2297.763
287.0748, 2334.654
287.5569, 2374.130
288.0391, 2414.728
288.5212, 2444.506
289.0033, 2462.480
289.4854, 2474.609
289.9675, 2489.647
290.4496, 2506.877
290.9318, 2517.359
291.4139, 2517.233
291.8960, 2508.024
292.3781, 2494.061
292.8602, 2475.065
293.3423, 2453.227
293.8245, 2430.485
294.3066, 2406.623
294.7887, 2380.326
295.2708, 2350.566
295.7529, 2318.763
296.2350, 2286.496
296.7172, 2253.943
297.1993, 2225.067
297.6814, 2204.103
298.1635, 2189.273
298.6456, 2175.645
299.1277, 2160.880
299.6099, 2147.844
300.0920, 2141.534
300.5741, 2141.459
301.0562, 2144.837
301.5383, 2148.917
302.0204, 2155.256
302.5026, 2167.054
302.9847, 2186.077
303.4668, 2208.513
303.9489, 2230.253
304.4310, 2251.631
304.9131, 2275.533
305.3953, 2303.150
305.8774, 2334.229
306.3595, 2368.042
306.8416, 2404.292
307.3237, 2443.445
307.8058, 2486.746
308.2880, 2532.933
308.7701, 2579.015
309.2522, 2622.523
309.7343, 2666.315
310.2164, 2713.065
310.6985, 2763.539
311.1807, 2816.010
311.6628, 2869.395
312.1449, 2924.595
312.6270, 2981.237
313.1091, 3040.158
313.5912, 3100.271
314.0734, 3161.853
314.5555, 3224.657
315.0376, 3287.944
315.5197, 3352.505
316.0018, 3417.357
316.4839, 3479.808
316.9661, 3538.592
317.4482, 3595.952
317.9303, 3654.875
318.4124, 3713.995
318.8945, 3766.801
319.3766, 3813.677
319.8588, 3851.113
320.3409, 3876.174
320.8230, 3888.620
321.3051, 3888.584
321.7872, 3875.417
322.2693, 3849.669
322.7515, 3813.037
323.2336, 3766.516
323.7157, 3708.805
324.1978, 3638.294
324.6799, 3551.683
325.1620, 3460.041
325.6442, 3364.423
326.1263, 3264.828
326.6084, 3161.233
327.0905, 3047.111
327.5726, 2935.014
328.0547, 2828.647
328.5369, 2730.817
329.0190, 2633.019
329.5011, 2532.225
329.9832, 2433.351
330.4653, 2342.348
330.9474, 2261.513
331.4296, 2185.716
331.9117, 2113.813
332.3938, 2046.100
332.8759, 1983.589
333.3580, 1927.243
333.8401, 1874.418
334.3223, 1823.421
334.8044, 1772.466
335.2865, 1726.099
335.7686, 1685.909
336.2507, 1650.888
336.7328, 1617.548
337.2150, 1584.746
337.6971, 1555.070
338.1792, 1529.786
338.6613, 1509.515
339.1434, 1491.955
339.6255, 1476.842
340.1077, 1464.485
340.5898, 1455.595
341.0719, 1450.786
341.5540, 1447.508
342.0361, 1443.905
342.5182, 1439.772
343.0003, 1440.781
343.4825, 1447.729
343.9646, 1458.009
344.4467, 1467.550
344.9288, 1476.209
345.4109, 1487.528
345.8930, 1502.912
346.3752, 1521.951
346.8573, 1542.518
347.3394, 1564.854
347.8215, 1588.237
348.3036, 1611.458
348.7857, 1634.946
349.2679, 1661.074
349.7500, 1691.231
350.2321, 1723.470
350.7142, 1754.539
351.1963, 1784.210
351.6784, 1811.751
352.1606, 1834.196
352.6427, 1854.098
353.1248, 1877.166
353.6069, 1905.226
354.0890, 1934.736
354.5711, 1961.786
355.0533, 1987.109
355.5354, 2013.302
356.0175, 2041.882
356.4996, 2071.706
356.9817, 2101.694
357.4638, 2131.635
357.9460, 2163.006
358.4281, 2197.268
358.9102, 2233.645
359.3923, 2270.443
359.8744, 2307.648
360.3565, 2344.724
360.8387, 2382.552
361.3208, 2420.857
361.8029, 2454.317
362.2850, 2482.015
362.7671, 2503.016
363.2492, 2516.552
363.7314, 2522.431
364.2135, 2520.797
364.6956, 2513.775
365.1777, 2499.681
365.6598, 2473.150
366.1419, 2428.863
366.6241, 2374.714
367.1062, 2314.432
367.5883, 2246.816
368.0704, 2175.836
368.5525, 2100.942
369.0346, 2023.339
369.5168, 1943.643
369.9989, 1855.389
370.4810, 1771.625
370.9631, 1695.483
371.4452, 1627.907
371.9273, 1560.079
372.4095, 1489.865
372.8916, 1422.010
373.3737, 1360.242
373.8558, 1306.283
374.3379, 1254.748
374.8200, 1204.385
375.3022, 1155.391
375.7843, 1110.407
376.2664, 1069.545
376.7485, 1031.539
377.2306, 995.6522
377.7127, 961.6173
378.1949, 930.1935
378.6770, 901.8171
379.1591, 875.9359
379.6412, 852.5613
380.1233, 831.6638
380.6054, 811.6801
381.0876, 792.2379
381.5697, 773.2938
382.0518, 753.0198
382.5339, 731.0670
383.0160, 710.6859
383.4981, 697.1575
383.9803, 689.1412
384.4624, 680.0298
384.9445, 667.1663
385.4266, 652.8683
385.9087, 640.9323
386.3908, 631.2870
386.8730, 622.7227
387.3551, 614.7169
387.8372, 607.0502
388.3193, 599.2308
388.8014, 591.0712
389.2835, 583.0613
389.7657, 575.6200
390.2478, 568.6505
390.7299, 562.1026
391.2120, 556.0194
391.6941, 550.2872
392.1762, 544.8942
392.6584, 539.8933
393.1405, 535.1471
393.6226, 531.1819
394.1047, 527.2075
394.5868, 522.4299
395.0689, 514.9570
395.5511, 508.2651
396.0332, 504.0233
396.5153, 501.8292
396.9974, 499.4808
397.4795, 495.9272
397.9616, 492.4113
398.4438, 489.7753
398.9259, 489.6184
399.4080, 487.6644
399.8901, 481.6482
400.3722, 473.8613
400.8543, 468.6375
401.3365, 468.0933
401.8186, 467.6056
402.3007, 466.1006
402.7828, 463.5092
403.2649, 460.3746
403.7470, 455.8693
404.2292, 451.6939
404.7113, 449.7292
405.1934, 451.0692
405.6755, 451.3368
406.1576, 449.7592
406.6397, 446.7270
407.1219, 443.2733
407.6040, 439.0334
408.0861, 435.7699
408.5682, 435.4633
409.0503, 438.0318
409.5324, 437.6557
410.0146, 433.6042
410.4967, 427.9788
410.9788, 423.6554
411.4609, 420.5439
411.9430, 417.4078
412.4251, 413.7600
412.9073, 409.8005
413.3894, 405.6981
413.8715, 401.4446
414.3536, 397.3492
414.8357, 394.3665
415.3178, 391.5583
415.8000, 386.9561
416.2821, 379.2484
416.7642, 371.2482
417.2463, 365.7266
417.7284, 362.0316
418.2105, 358.5939
418.6927, 354.6842
419.1748, 350.6280
419.6569, 346.6520
420.1390, 342.7651
420.6211, 338.8127
421.1032, 334.7521
421.5854, 330.4987
422.0675, 325.9638
422.5496, 320.1655
423.0317, 315.0327
423.5138, 311.5822
423.9959, 309.5123
424.4781, 306.6616
424.9602, 301.6696
425.4423, 296.6682
425.9244, 292.6821
426.4065, 290.3719
426.8886, 287.9109
427.3708, 285.2162
427.8529, 282.3802
428.3350, 279.4666
428.8171, 276.1380
429.2992, 273.3561
429.7813, 271.4703
430.2635, 270.4591
430.7456, 269.5759
431.2277, 269.1123
431.7098, 268.1466
432.1919, 265.6270
432.6740, 261.3901
433.1562, 257.6455
433.6383, 254.6436
434.1204, 252.2976
434.6025, 250.6630
435.0846, 249.7214
435.5667, 248.6853
436.0489, 247.1372
436.5310, 245.1625
437.0131, 242.9248
437.4952, 240.3908
437.9773, 237.9889
438.4594, 236.2881
438.9415, 235.0199
439.4236, 233.5992
439.9058, 231.7042
440.3879, 229.7673
440.8700, 228.2701
441.3521, 227.0910
441.8342, 225.7974
442.3163, 223.9092
442.7985, 221.9697
443.2806, 220.4160
443.7627, 219.3820
444.2448, 218.4493
444.7269, 217.6495
445.2090, 216.7938
445.6912, 215.6613
446.1733, 213.7815
446.6554, 212.0363
447.1375, 210.5915
447.6196, 209.4511
448.1017, 208.7142
448.5839, 208.9776
449.0660, 209.1546
449.5481, 208.7208
450.0302, 207.3402
450.5123, 206.0327
450.9944, 204.8031
451.4766, 203.6607
451.9587, 202.5879
452.4408, 201.4834
452.9229, 200.7731
453.4050, 200.8108
453.8871, 201.4194
454.3693, 200.9492
454.8514, 199.1837
455.3335, 197.2714
455.8156, 196.2676
456.2977, 196.0547
456.7798, 195.4065
457.2620, 194.0281
457.7441, 192.4830
458.2262, 191.7900
458.7083, 191.7373
459.1904, 191.3372
459.6725, 189.6273
460.1547, 187.4932
460.6368, 186.2474
461.1189, 185.8690
461.6010, 185.6443
462.0831, 185.2702
462.5652, 184.6806
463.0474, 183.7254
463.5295, 181.9396
464.0116, 180.5208
464.4937, 180.5730
464.9758, 181.4323
465.4579, 181.7311
465.9401, 180.5515
466.4222, 179.1610
466.9043, 178.1025
467.3864, 177.4732
467.8685, 176.7149
468.3506, 175.2815
468.8328, 174.0056
469.3149, 173.5475
469.7970, 174.9248
470.2791, 175.4019
470.7612, 174.4051
471.2433, 172.4935
471.7255, 171.2240
472.2076, 170.8483
472.6897, 170.4715
473.1718, 169.6935
473.6539, 168.5163
474.1360, 167.5124
474.6182, 166.7034
475.1003, 165.9926
475.5824, 165.1898
476.0645, 164.3397
476.5466, 163.8788
477.0287, 163.9591
477.5109, 164.3489
477.9930, 164.8346
478.4751, 165.3581
478.9572, 165.6398
479.4393, 165.6658
479.9214, 165.2888
480.4036, 163.9670
480.8857, 161.6441
481.3678, 159.8451
481.8499, 160.2388
482.3320, 161.4655
482.8141, 161.9688
483.2963, 160.6005
483.7784, 159.3787
484.2605, 159.4540
484.7426, 160.2859
485.2247, 160.5359
485.7068, 159.1894
486.1890, 157.8480
486.6711, 157.1358
487.1532, 157.2451
487.6353, 157.2074
488.1174, 157.1177
488.5995, 156.8078
489.0817, 155.9634
489.5638, 153.8580
490.0459, 153.1735
490.5280, 154.8223
491.0101, 157.6356
491.4922, 158.5982
491.9744, 157.4364
492.4565, 155.7879
492.9386, 154.0729
493.4207, 152.3836
493.9028, 151.5800
494.3849, 151.7382
494.8671, 151.9540
495.3492, 151.2883
495.8313, 149.9986
496.3134, 148.7774
496.7955, 147.7286
497.2776, 146.8990
497.7598, 146.3788
498.2419, 146.1308
498.7240, 146.0740
499.2061, 146.5506
499.6882, 146.9176
500.1703, 146.4244
500.6525, 145.0822
501.1346, 144.3139
501.6167, 145.4814
502.0988, 146.9461
502.5809, 147.4725
503.0630, 146.0300
503.5452, 144.9303
504.0273, 144.7760
504.5094, 145.0759
504.9915, 144.9768
505.4736, 144.1174
505.9557, 143.4034
506.4379, 143.1504
506.9200, 143.3161
507.4021, 143.0358
507.8842, 142.0369
508.3663, 141.2184
508.8484, 141.4113
509.3306, 142.6474
509.8127, 143.2933
510.2948, 143.1786
510.7769, 142.6265
511.2590, 141.9158
511.7411, 141.1066
512.2233, 140.5784
512.7054, 140.6908
513.1875, 140.9668
513.6696, 140.6099
514.1517, 139.7276
514.6339, 138.9096
515.1160, 138.9417
515.5981, 138.9811
516.0802, 137.9522
516.5623, 135.4050
517.0444, 133.4931
517.5266, 133.8696
518.0087, 135.1429
518.4908, 135.7952
518.9729, 134.4246
519.4550, 133.5772
519.9371, 134.2605
520.4193, 136.0170
520.9014, 136.8374
521.3835, 136.2293
521.8656, 135.3190
522.3477, 134.3590
522.8298, 133.2583
523.3120, 132.9561
523.7941, 133.7418
524.2762, 134.7433
524.7583, 135.0746
525.2404, 134.7088
525.7225, 134.5150
526.2047, 134.7481
526.6868, 134.9725
527.1689, 134.0499
527.6510, 132.2207
528.1331, 130.9826
528.6152, 131.6104
529.0974, 132.9881
529.5795, 133.6326
530.0616, 133.5536
530.5437, 133.0005
531.0258, 131.6164
531.5079, 130.1230
531.9901, 129.2044
532.4722, 129.1311
532.9543, 129.2438
533.4364, 129.2969
533.9185, 129.3811
534.4006, 129.6203
534.8828, 130.3713
535.3649, 130.9092
535.8470, 130.9751
536.3291, 130.6658
536.8112, 130.5379
537.2933, 130.8205
537.7755, 130.9204
538.2576, 130.4560
538.7397, 129.2957
539.2218, 128.6289
539.7039, 128.5469
540.1860, 128.7218
540.6682, 128.8974
541.1503, 129.0575
541.6324, 129.0369
542.1145, 128.8261
542.5966, 128.3734
543.0787, 127.2068
543.5609, 125.6215
544.0430, 124.7165
544.5251, 125.8760
545.0072, 127.4675
545.4893, 127.6414
545.9714, 126.4719
546.4536, 125.4793
546.9357, 125.6266
547.4178, 126.1754
547.8999, 126.5796
548.3820, 126.7034
548.8641, 126.7787
549.3463, 126.8272
549.8284, 126.8587
550.3105, 126.8821
550.7926, 126.8332
551.2747, 126.8735
551.7568, 127.0543
552.2390, 127.3419
552.7211, 127.6415
553.2032, 128.0310
553.6853, 128.1924
554.1674, 127.8069
554.6495, 126.9388
555.1317, 126.6915
555.6138, 127.1474
556.0959, 127.6258
556.5780, 127.4063
557.0601, 126.6973
557.5422, 125.9932
558.0244, 125.2896
558.5065, 124.9026
558.9886, 125.4172
559.4707, 126.4704
559.9528, 127.3243
560.4349, 127.8717
560.9171, 127.9592
561.3992, 127.2275
561.8813, 125.8166
562.3634, 124.7080
562.8455, 123.7176
563.3276, 123.4368
563.8098, 124.4968
564.2919, 127.7370
564.7740, 129.3225
565.2561, 128.4181
565.7382, 126.6858
566.2203, 125.5977
566.7025, 125.1720
567.1846, 125.4263
567.6667, 126.6155
568.1488, 128.1451
568.6309, 128.5935
569.1130, 128.0206
569.5952, 127.6892
570.0773, 128.4770
570.5594, 129.7014
571.0415, 129.9516
571.5236, 129.3286
572.0057, 128.7514
572.4879, 129.1202
572.9700, 129.7047
573.4521, 129.6328
573.9342, 128.6329
574.4163, 127.8392
574.8984, 127.8599
575.3806, 128.3059
575.8627, 128.7839
576.3448, 129.1891
576.8269, 129.6543
577.3090, 130.4232
577.7911, 131.2313
578.2733, 131.4239
578.7554, 130.6440
579.2375, 129.9485
579.7196, 129.6609
580.2017, 129.7401
580.6838, 129.7740
581.1660, 129.7087
581.6481, 129.9152
582.1302, 130.9626
582.6123, 132.5680
583.0944, 133.5434
583.5765, 133.8018
584.0587, 133.5417
584.5408, 132.2347
585.0229, 130.6883
585.5050, 130.4066
585.9871, 132.7232
586.4692, 135.0090
586.9513, 135.5211
587.4334, 134.8750
587.9155, 134.3303
588.3976, 134.0618
588.8798, 134.1647
589.3619, 134.7599
