##NAMES=Vandenbrandeite
##RRUFFID=R080114
##IDEAL CHEMISTRY=Cu^2+^U^6+^O_2_(OH)_4_
##LOCALITY=Shinkolobwe Mine, Shaba, Democratic Republic of Congo
##OWNER=RRUFF
##SOURCE=William W. Pinch
##DESCRIPTION=Dark blackish green crystals
##STATUS=The identification of this mineral has been confirmed by single-crystal X-ray diffraction.
##URL=rruff.info/R080114
91.87140, 0.0000000E+00
92.35352, 5.797560
92.83563, 5.545777
93.31775, 5.438651
93.79987, 5.480639
94.28198, 5.667988
94.76410, 6.014810
95.24622, 6.578422
95.72833, 7.245001
96.21045, 7.750428
96.69257, 8.089855
97.17468, 8.389072
97.65680, 8.752131
98.13892, 9.179325
98.62103, 9.610964
99.10315, 9.994346
99.58527, 10.35637
100.0674, 10.89341
100.5495, 11.64954
101.0316, 12.47378
101.5137, 13.11823
101.9958, 13.48683
102.4780, 14.03308
102.9601, 14.95110
103.4422, 16.31733
103.9243, 17.51754
104.4064, 18.41445
104.8885, 19.23876
105.3707, 20.43807
105.8528, 22.11034
106.3349, 24.00659
106.8170, 26.01229
107.2991, 28.02018
107.7813, 30.34376
108.2634, 33.04890
108.7455, 36.09240
109.2276, 39.22383
109.7097, 42.66597
110.1918, 46.06333
110.6740, 49.27374
111.1561, 51.89483
111.6382, 54.77675
112.1203, 58.10510
112.6024, 61.82898
113.0845, 65.45010
113.5667, 70.23772
114.0488, 74.14610
114.5309, 75.83770
115.0130, 73.56155
115.4951, 70.36638
115.9772, 66.74647
116.4594, 62.71699
116.9415, 59.09285
117.4236, 56.00346
117.9057, 53.52546
118.3878, 51.74788
118.8699, 50.67997
119.3521, 50.32013
119.8342, 50.79190
120.3163, 52.15150
120.7984, 53.79646
121.2805, 55.50815
121.7626, 57.24755
122.2448, 58.94788
122.7269, 60.74276
123.2090, 62.40377
123.6911, 63.60514
124.1732, 64.20904
124.6553, 64.78712
125.1375, 65.83414
125.6196, 67.28495
126.1017, 68.93333
126.5838, 70.67484
127.0659, 72.53231
127.5480, 74.54761
128.0302, 76.73494
128.5123, 79.09170
128.9944, 81.78586
129.4765, 84.76523
129.9586, 87.54237
130.4407, 89.55526
130.9229, 91.00853
131.4050, 92.75268
131.8871, 94.93566
132.3692, 97.46756
132.8513, 100.1249
133.3334, 102.7428
133.8156, 105.0400
134.2977, 107.1420
134.7798, 109.4091
135.2619, 111.7242
135.7440, 113.9782
136.2261, 116.2413
136.7083, 119.1000
137.1904, 122.6227
137.6725, 126.5266
138.1546, 130.7399
138.6367, 135.4167
139.1188, 139.6589
139.6010, 143.1549
140.0831, 145.8928
140.5652, 148.9652
141.0473, 152.4512
141.5294, 156.1974
142.0115, 159.8324
142.4937, 163.0099
142.9758, 166.9303
143.4579, 172.0113
143.9400, 178.3333
144.4221, 185.2946
144.9042, 193.1871
145.3864, 201.5500
145.8685, 209.5366
146.3506, 217.9684
146.8327, 225.0542
147.3148, 230.5210
147.7969, 235.2159
148.2791, 236.3480
148.7612, 232.7576
149.2433, 225.8047
149.7254, 218.4366
150.2075, 209.5678
150.6896, 201.2780
151.1718, 194.3313
151.6539, 188.2441
152.1360, 184.1200
152.6181, 182.3984
153.1002, 182.6901
153.5823, 183.8546
154.0645, 186.4414
154.5466, 189.4202
155.0287, 192.3259
155.5108, 195.7976
155.9929, 198.4212
156.4750, 200.0735
156.9572, 200.7464
157.4393, 200.3266
157.9214, 198.4830
158.4035, 195.7345
158.8856, 192.4060
159.3677, 187.2943
159.8499, 182.8695
160.3320, 179.6513
160.8141, 177.6343
161.2962, 176.9020
161.7783, 177.8929
162.2604, 180.0015
162.7426, 182.7275
163.2247, 186.1521
163.7068, 189.9571
164.1889, 194.1551
164.6710, 198.6822
165.1531, 203.1927
165.6353, 207.3550
166.1174, 211.4575
166.5995, 215.8104
167.0816, 220.7210
167.5637, 225.7678
168.0458, 230.5627
168.5280, 235.0618
169.0101, 239.9395
169.4922, 245.4964
169.9743, 251.6660
170.4564, 258.3291
170.9385, 265.3896
171.4207, 272.9451
171.9028, 281.2694
172.3849, 290.3619
172.8670, 299.5777
173.3491, 308.4677
173.8312, 317.1876
174.3134, 326.0737
174.7955, 335.2067
175.2776, 344.5314
175.7597, 353.9015
176.2418, 363.3748
176.7239, 372.9726
177.2061, 382.8766
177.6882, 393.1556
178.1703, 403.7851
178.6524, 414.9554
179.1345, 426.5605
179.6166, 438.8014
180.0988, 452.1476
180.5809, 464.3461
181.0630, 474.6564
181.5451, 482.3748
182.0272, 484.2204
182.5093, 478.1150
182.9915, 464.9381
183.4736, 446.3320
183.9557, 421.6934
184.4378, 393.7400
184.9199, 364.1151
185.4020, 333.6355
185.8842, 304.1769
186.3663, 276.4188
186.8484, 250.5398
187.3305, 228.4690
187.8126, 210.3938
188.2947, 195.3808
188.7769, 182.0635
189.2590, 170.4339
189.7411, 160.4565
190.2232, 152.3896
190.7053, 146.0655
191.1874, 140.1647
191.6696, 134.4697
192.1517, 129.2415
192.6338, 124.9595
193.1159, 121.6350
193.5980, 118.8992
194.0801, 116.6091
194.5623, 114.7603
195.0444, 113.2121
195.5265, 112.0018
196.0086, 111.0345
196.4907, 110.0767
196.9728, 109.1030
197.4550, 108.3410
197.9371, 107.8972
198.4192, 107.7698
198.9013, 108.0127
199.3834, 108.6585
199.8655, 109.6411
200.3477, 110.9163
200.8298, 112.5597
201.3119, 114.1406
201.7940, 115.3604
202.2761, 116.1795
202.7582, 117.0751
203.2404, 118.0576
203.7225, 119.1656
204.2046, 120.5603
204.6867, 122.3186
205.1688, 124.1102
205.6509, 125.6429
206.1331, 126.8427
206.6152, 128.3298
207.0973, 130.1931
207.5794, 132.3584
208.0615, 134.6093
208.5436, 136.9470
209.0258, 139.3781
209.5079, 141.8764
209.9900, 144.4113
210.4721, 147.1180
210.9542, 150.0700
211.4363, 153.1776
211.9185, 156.1384
212.4006, 158.9232
212.8827, 161.6443
213.3648, 164.3289
213.8469, 167.0448
214.3290, 169.5770
214.8112, 171.8901
215.2933, 174.0023
215.7754, 175.9933
216.2575, 177.6875
216.7396, 179.5979
217.2217, 182.1399
217.7039, 185.6720
218.1860, 188.7711
218.6681, 191.5345
219.1502, 193.7577
219.6323, 194.6478
220.1144, 194.1834
220.5966, 192.4178
221.0787, 189.3397
221.5608, 184.8345
222.0429, 179.3165
222.5250, 172.5227
223.0071, 164.7672
223.4893, 157.3696
223.9714, 150.0019
224.4535, 143.4037
224.9356, 137.8295
225.4177, 133.1732
225.8998, 129.9309
226.3820, 128.3682
226.8641, 128.1955
227.3462, 128.4669
227.8283, 129.0814
228.3104, 130.2849
228.7925, 132.2499
229.2747, 135.3250
229.7568, 138.4441
230.2389, 141.5853
230.7210, 144.7699
231.2031, 147.9820
231.6852, 151.2767
232.1674, 154.5096
232.6495, 157.5663
233.1316, 160.3320
233.6137, 163.1681
234.0958, 166.0124
234.5779, 168.9140
235.0601, 171.9573
235.5422, 175.1413
236.0243, 178.5213
236.5064, 182.0820
236.9885, 185.5918
237.4706, 189.8098
237.9528, 194.8347
238.4349, 200.4917
238.9170, 206.2922
239.3991, 212.1309
239.8812, 218.2671
240.3633, 224.7446
240.8455, 231.3023
241.3276, 238.7921
241.8097, 246.9232
242.2918, 255.9956
242.7739, 266.6260
243.2560, 279.0352
243.7382, 292.6752
244.2203, 307.6812
244.7024, 325.1191
245.1845, 340.9739
245.6666, 355.4147
246.1487, 368.1615
246.6309, 379.1339
247.1130, 389.1551
247.5951, 396.1068
248.0772, 399.6081
248.5593, 400.4574
249.0414, 394.9326
249.5236, 381.6935
250.0057, 362.9303
250.4878, 341.4049
250.9699, 315.0327
251.4520, 289.4730
251.9341, 266.4559
252.4163, 245.7456
252.8984, 228.1823
253.3805, 214.3361
253.8626, 203.1082
254.3447, 193.1317
254.8268, 183.7758
255.3090, 176.6584
255.7911, 172.6666
256.2732, 172.1286
256.7553, 171.8634
257.2374, 172.4209
257.7195, 172.7031
258.2017, 171.1811
258.6838, 166.9776
259.1659, 162.9256
259.6480, 159.5943
260.1301, 157.0143
260.6122, 155.0685
261.0944, 153.8538
261.5765, 153.1504
262.0586, 152.7206
262.5407, 152.5347
263.0228, 152.7122
263.5049, 153.3274
263.9871, 154.3735
264.4692, 155.4621
264.9513, 156.4514
265.4334, 157.7243
265.9155, 159.7365
266.3976, 162.6388
266.8798, 165.6382
267.3619, 168.5308
267.8440, 171.3843
268.3261, 174.4770
268.8082, 177.6899
269.2903, 181.3718
269.7725, 185.8908
270.2546, 191.3543
270.7367, 196.8627
271.2188, 202.1810
271.7009, 207.4099
272.1830, 213.2056
272.6652, 219.7057
273.1473, 226.2768
273.6294, 232.5280
274.1115, 238.3856
274.5936, 244.3933
275.0757, 250.8296
275.5579, 257.3509
276.0400, 263.1519
276.5221, 268.5421
277.0042, 271.9532
277.4863, 272.4308
277.9684, 269.9146
278.4506, 265.1268
278.9327, 257.7809
279.4148, 248.6164
279.8969, 238.9694
280.3790, 228.7915
280.8611, 218.4949
281.3433, 208.0705
281.8254, 197.4852
282.3075, 187.7711
282.7896, 178.9807
283.2717, 170.8736
283.7538, 162.9351
284.2360, 155.1372
284.7181, 148.2176
285.2002, 142.5978
285.6823, 138.2023
286.1644, 134.4341
286.6465, 131.3891
287.1287, 128.7461
287.6108, 126.0964
288.0929, 123.4543
288.5750, 121.0988
289.0571, 119.1248
289.5392, 117.5122
290.0214, 116.2858
290.5035, 115.4763
290.9856, 114.8284
291.4677, 114.0195
291.9498, 113.1039
292.4319, 112.4338
292.9141, 112.0948
293.3962, 112.0733
293.8783, 112.4002
294.3604, 113.0784
294.8425, 113.9089
295.3246, 114.6957
295.8068, 115.4994
296.2889, 116.5120
296.7710, 117.8340
297.2531, 119.3400
297.7352, 120.7050
298.2173, 121.9673
298.6995, 123.5284
299.1816, 125.8398
299.6637, 128.6410
300.1458, 131.3136
300.6279, 133.7201
301.1100, 136.0749
301.5922, 138.5693
302.0743, 141.2027
302.5564, 143.9662
303.0385, 146.8478
303.5206, 149.8668
304.0027, 153.1980
304.4849, 156.9148
304.9670, 160.5912
305.4491, 163.5551
305.9312, 166.1065
306.4133, 168.9662
306.8954, 172.5845
307.3776, 176.6462
307.8597, 180.8044
308.3418, 185.0752
308.8239, 189.4533
309.3060, 193.7939
309.7881, 198.3103
310.2703, 203.1922
310.7524, 208.9537
311.2345, 214.8563
311.7166, 220.3202
312.1987, 225.3445
312.6808, 230.1955
313.1630, 234.7067
313.6451, 239.2874
314.1272, 244.4272
314.6093, 251.1837
315.0914, 257.6145
315.5735, 262.5935
316.0557, 266.2986
316.5378, 269.6811
317.0199, 273.6050
317.5020, 277.0830
317.9841, 279.4618
318.4662, 280.5758
318.9484, 280.5067
319.4305, 279.2201
319.9126, 276.7642
320.3947, 273.2623
320.8768, 268.2133
321.3589, 262.5375
321.8411, 256.6378
322.3232, 250.6161
322.8053, 244.4009
323.2874, 237.8342
323.7695, 231.0946
324.2516, 224.4649
324.7338, 217.6792
325.2159, 211.2920
325.6980, 205.4691
326.1801, 200.2183
326.6622, 195.4529
327.1443, 191.1209
327.6265, 187.2540
328.1086, 183.8780
328.5907, 181.3143
329.0728, 178.9176
329.5549, 176.5922
330.0370, 174.3289
330.5192, 172.2594
331.0013, 170.3522
331.4834, 168.6504
331.9655, 167.1633
332.4476, 165.8824
332.9297, 164.8337
333.4119, 164.0899
333.8940, 163.5898
334.3761, 163.1080
334.8582, 162.7608
335.3403, 162.2633
335.8224, 161.4341
336.3046, 160.1261
336.7867, 158.9123
337.2688, 157.8162
337.7509, 156.8009
338.2330, 155.7900
338.7151, 154.8236
339.1973, 153.7540
339.6794, 152.4246
340.1615, 150.8210
340.6436, 149.6238
341.1257, 148.9863
341.6078, 148.4548
342.0900, 147.3305
342.5721, 145.5733
343.0542, 144.0569
343.5363, 143.0876
344.0184, 142.5753
344.5005, 142.0992
344.9827, 141.6491
345.4648, 141.3419
345.9469, 141.3498
346.4290, 141.6352
346.9111, 141.8687
347.3932, 141.8935
347.8754, 141.9563
348.3575, 142.6475
348.8396, 143.9115
349.3217, 145.1853
349.8038, 145.9803
350.2859, 146.4948
350.7681, 147.2221
351.2502, 148.2387
351.7323, 149.3918
352.2144, 150.5176
352.6965, 151.6429
353.1786, 152.8161
353.6608, 154.2797
354.1429, 155.7090
354.6250, 156.6377
355.1071, 157.0383
355.5892, 157.3060
356.0714, 157.7853
356.5535, 158.3239
357.0356, 158.6926
357.5177, 158.6533
357.9998, 158.5490
358.4819, 158.6321
358.9641, 158.8745
359.4462, 159.1194
359.9283, 159.1489
360.4104, 159.2166
360.8925, 159.5720
361.3746, 160.5047
361.8568, 161.3205
362.3389, 161.5071
362.8210, 161.3600
363.3031, 161.5557
363.7852, 162.8190
364.2673, 164.0589
364.7495, 164.7600
365.2316, 164.7802
365.7137, 164.5835
366.1958, 164.1320
366.6779, 163.5568
367.1600, 163.0082
367.6422, 162.8045
368.1243, 162.3178
368.6064, 161.3018
369.0885, 159.7187
369.5706, 158.3171
370.0527, 157.3953
370.5349, 156.4191
371.0170, 154.9985
371.4991, 152.7612
371.9812, 150.7429
372.4633, 149.0641
372.9454, 147.6447
373.4276, 146.2493
373.9097, 144.8931
374.3918, 143.5075
374.8739, 142.0648
375.3560, 140.5045
375.8381, 139.0710
376.3203, 137.7522
376.8024, 136.5944
377.2845, 135.7136
377.7666, 135.1585
378.2487, 134.6431
378.7308, 134.0574
379.2130, 133.4272
379.6951, 132.9977
380.1772, 132.7801
380.6593, 132.6837
381.1414, 132.6481
381.6235, 132.6685
382.1057, 132.7203
382.5878, 132.8430
383.0699, 132.9326
383.5520, 132.7595
384.0341, 132.3411
384.5162, 131.8717
384.9984, 131.4335
385.4805, 131.0352
385.9626, 130.7608
386.4447, 130.6684
386.9268, 130.4290
387.4089, 129.6533
387.8911, 128.4688
388.3732, 127.1800
388.8553, 125.8472
389.3374, 124.5156
389.8195, 123.3203
390.3016, 122.2577
390.7838, 121.0164
391.2659, 119.1851
391.7480, 117.1829
392.2301, 115.4633
392.7122, 114.3798
393.1943, 113.2889
393.6765, 111.9602
394.1586, 110.3992
394.6407, 108.6494
395.1228, 106.2023
395.6049, 103.9755
396.0870, 102.4910
396.5692, 102.0636
397.0513, 101.5815
397.5334, 100.8842
398.0155, 99.99863
398.4976, 98.96963
398.9797, 97.53788
399.4619, 96.23489
399.9440, 95.18748
400.4261, 94.39371
400.9082, 93.59157
401.3903, 92.58970
401.8724, 91.75839
402.3546, 91.37457
402.8367, 91.72852
403.3188, 91.89371
403.8009, 91.74382
404.2830, 91.40804
404.7651, 91.20325
405.2473, 91.13960
405.7294, 91.18711
406.2115, 91.39343
406.6936, 91.76687
407.1757, 91.93039
407.6578, 91.83826
408.1400, 91.66225
408.6221, 91.57433
409.1042, 91.57461
409.5863, 91.66002
410.0684, 91.83102
410.5505, 92.08576
411.0327, 92.43088
411.5148, 92.86794
411.9969, 93.38273
412.4790, 94.00892
412.9611, 94.70959
413.4432, 95.35942
413.9254, 95.92043
414.4075, 96.54276
414.8896, 97.47710
415.3717, 98.60482
415.8538, 99.64109
416.3359, 100.3346
416.8181, 100.9422
417.3002, 101.6658
417.7823, 102.5190
418.2644, 103.4419
418.7465, 104.4336
419.2286, 105.4829
419.7108, 106.5661
420.1929, 107.6908
420.6750, 108.8472
421.1571, 110.0914
421.6392, 111.3747
422.1213, 112.5393
422.6035, 113.3265
423.0856, 114.1688
423.5677, 115.3125
424.0498, 116.9124
424.5319, 118.2945
425.0140, 119.2340
425.4962, 120.0287
425.9783, 120.9812
426.4604, 122.1804
426.9425, 123.4211
427.4246, 124.7555
427.9067, 126.1453
428.3889, 127.2191
428.8710, 127.8935
429.3531, 128.3989
429.8352, 128.8589
430.3173, 129.2690
430.7994, 129.6435
431.2816, 130.0325
431.7637, 130.3024
432.2458, 130.1838
432.7279, 129.6562
433.2100, 129.0562
433.6921, 128.5107
434.1743, 127.9778
434.6564, 127.3278
435.1385, 126.5520
435.6206, 125.6771
436.1027, 124.6616
436.5848, 123.5620
437.0670, 122.5237
437.5491, 121.5611
438.0312, 120.6985
438.5133, 120.0381
438.9954, 119.5033
439.4775, 118.8781
439.9597, 117.8975
440.4418, 116.8776
440.9239, 116.0277
441.4060, 115.3607
441.8881, 115.0348
442.3702, 115.3323
442.8524, 115.9305
443.3345, 116.5194
443.8166, 116.8862
444.2987, 117.3837
444.7808, 118.1315
445.2629, 119.0921
445.7451, 120.1665
446.2272, 121.1057
446.7093, 122.3272
447.1914, 124.0115
447.6735, 126.2609
448.1556, 128.6895
448.6378, 131.4415
449.1199, 134.2507
449.6020, 136.8209
450.0841, 138.8572
450.5662, 141.1596
451.0483, 143.8507
451.5305, 146.9097
452.0126, 150.2215
452.4947, 153.9096
452.9768, 157.5545
453.4589, 160.8174
453.9410, 163.7065
454.4232, 167.1412
454.9053, 171.2674
455.3874, 175.6758
455.8695, 179.9260
456.3516, 184.0583
456.8337, 188.2154
457.3159, 192.4984
457.7980, 196.8477
458.2801, 201.1042
458.7622, 205.2894
459.2443, 209.7245
459.7264, 214.8309
460.2086, 220.2068
460.6907, 225.2607
461.1728, 229.8794
461.6549, 234.2888
462.1370, 238.4951
462.6191, 242.5615
463.1013, 246.4821
463.5834, 250.6439
464.0655, 254.3081
464.5476, 257.1173
465.0297, 259.0812
465.5118, 260.4527
465.9940, 261.3099
466.4761, 261.5394
466.9582, 261.0859
467.4403, 260.0029
467.9224, 258.0905
468.4045, 255.0463
468.8867, 251.3295
469.3688, 247.5603
469.8509, 244.1116
470.3330, 240.0202
470.8151, 234.8363
471.2972, 228.7095
471.7794, 223.2393
472.2615, 218.5051
472.7436, 214.0703
473.2257, 209.6610
473.7078, 205.2596
474.1899, 200.8282
474.6721, 196.2605
475.1542, 191.8633
475.6363, 188.1156
476.1184, 184.9665
476.6005, 182.0991
477.0826, 179.3963
477.5648, 176.8969
478.0469, 174.6350
478.5290, 172.6032
479.0111, 170.7354
479.4932, 168.8348
479.9753, 167.1367
480.4575, 166.0126
480.9396, 165.6966
481.4217, 165.3882
481.9038, 164.5767
482.3859, 163.4736
482.8680, 162.3969
483.3502, 161.1945
483.8323, 160.2837
484.3144, 159.9674
484.7965, 160.2004
485.2786, 160.2652
485.7607, 159.9974
486.2429, 159.5775
486.7250, 159.0854
487.2071, 158.4843
487.6892, 157.9107
488.1713, 157.4453
488.6534, 156.9543
489.1356, 156.1853
489.6177, 154.9859
490.0998, 153.9617
490.5819, 153.2890
491.0640, 152.8941
491.5461, 152.4132
492.0283, 151.8369
492.5104, 151.2457
492.9925, 150.7561
493.4746, 150.3166
493.9567, 149.6605
494.4388, 148.7253
494.9210, 147.7506
495.4031, 146.9619
495.8852, 146.3374
496.3673, 145.8149
496.8494, 145.5266
497.3315, 145.1821
497.8137, 144.4507
498.2958, 143.3973
498.7779, 142.3264
499.2600, 141.2535
499.7421, 140.3057
500.2242, 139.6385
500.7064, 139.3559
501.1885, 138.9319
501.6706, 137.9901
502.1527, 136.9326
502.6348, 136.1815
503.1169, 136.2393
503.5991, 136.0697
504.0812, 135.4075
504.5633, 134.4269
505.0454, 133.7937
505.5275, 133.7847
506.0096, 133.6633
506.4918, 133.0856
506.9739, 131.9952
507.4560, 131.0964
507.9381, 130.4534
508.4202, 129.8269
508.9023, 128.8819
509.3845, 127.6483
509.8666, 126.6786
510.3487, 126.1436
510.8308, 125.7921
511.3129, 125.2432
511.7950, 124.5163
512.2772, 123.6993
512.7593, 122.7449
513.2414, 121.7776
513.7235, 120.9769
514.2056, 120.3358
514.6877, 119.6440
515.1699, 118.7802
515.6520, 117.7956
516.1341, 116.7186
516.6162, 115.4663
517.0983, 114.2901
517.5804, 113.3012
518.0626, 112.4250
518.5447, 111.5398
519.0268, 110.6011
519.5089, 109.6744
519.9910, 108.8000
520.4731, 107.9683
520.9553, 107.0628
521.4374, 106.0241
521.9195, 105.0170
522.4016, 104.1781
522.8837, 103.5897
523.3658, 102.7216
523.8480, 101.4488
524.3301, 100.1534
524.8122, 99.46201
525.2943, 99.33457
525.7764, 99.05354
526.2585, 98.37376
526.7407, 97.49348
527.2228, 96.71428
527.7049, 96.03219
528.1870, 95.44465
528.6691, 94.96201
529.1512, 94.55766
529.6334, 94.19012
530.1155, 93.85096
530.5976, 93.59366
531.0797, 93.56480
531.5618, 93.57298
532.0439, 93.41447
532.5261, 92.77638
533.0082, 92.33978
533.4903, 92.41593
533.9724, 92.79363
534.4545, 93.02321
534.9366, 92.96886
535.4188, 92.86727
535.9009, 92.69737
536.3830, 92.46795
536.8651, 92.59386
537.3472, 93.26089
537.8293, 93.92033
538.3115, 94.14635
538.7936, 93.89689
539.2757, 93.83656
539.7578, 94.02645
540.2399, 94.32774
540.7220, 94.53376
541.2042, 94.67318
541.6863, 94.92727
542.1684, 95.37894
542.6505, 95.94376
543.1326, 96.55185
543.6147, 97.18041
544.0969, 97.76019
544.5790, 98.18619
545.0611, 98.57346
545.5432, 99.01570
546.0253, 99.52047
546.5074, 100.0360
546.9896, 100.5893
547.4717, 101.1116
547.9538, 101.5475
548.4359, 101.8877
548.9180, 102.1398
549.4001, 102.1930
549.8823, 102.1962
550.3644, 102.4163
550.8465, 102.9893
551.3286, 103.5308
551.8107, 103.9457
552.2928, 104.2500
552.7750, 104.5894
553.2571, 105.0116
553.7392, 105.2498
554.2213, 104.9886
554.7034, 104.3424
555.1855, 104.0565
555.6677, 104.2212
556.1498, 104.3284
556.6319, 103.7952
557.1140, 102.8133
557.5961, 101.7731
558.0782, 100.7872
558.5604, 99.77071
559.0425, 98.72832
559.5246, 97.61037
560.0067, 96.30839
560.4888, 94.55714
560.9709, 92.82423
561.4531, 91.41805
561.9352, 90.33931
562.4173, 89.07053
562.8994, 87.36713
563.3815, 85.60012
563.8636, 83.95361
564.3458, 82.55368
564.8279, 80.93392
565.3100, 78.94047
565.7921, 76.90018
566.2742, 75.32677
566.7563, 74.27473
567.2385, 73.05218
567.7206, 71.44834
568.2027, 69.68137
568.6848, 68.32175
569.1669, 67.30890
569.6490, 66.33172
570.1312, 65.19617
570.6133, 63.99152
571.0954, 62.82702
571.5775, 61.69625
572.0596, 60.68692
572.5417, 60.03891
573.0239, 59.41232
573.5060, 58.44361
573.9881, 56.81370
574.4702, 55.52499
574.9523, 54.82007
575.4344, 54.62776
575.9166, 54.87896
576.3987, 56.56854
576.8808, 57.33630
577.3629, 56.61272
577.8450, 54.82356
578.3271, 53.31723
578.8093, 52.10044
579.2914, 51.15979
579.7735, 50.57795
580.2556, 50.30746
580.7377, 49.91144
581.2198, 49.37934
581.7020, 48.84772
582.1841, 48.39513
582.6662, 48.03278
583.1483, 47.81645
583.6304, 47.78425
584.1125, 47.74707
584.5947, 47.47212
585.0768, 47.10349
585.5589, 46.85587
586.0410, 47.00811
586.5231, 47.06671
587.0052, 46.72646
587.4874, 46.12957
587.9695, 45.66322
588.4516, 45.40203
588.9337, 45.28355
589.4158, 45.38282
