##NAMES=Vandendriesscheite
##RRUFFID=R090064
##IDEAL CHEMISTRY=Pb^2+^_1.6_(U^6+^O_2_)_10_O_6_(OH)_11_&#183;11H_2_O
##LOCALITY=Shinkolobwe mine, Katanga, Congo
##OWNER=RRUFF
##SOURCE=William W. Pinch
##DESCRIPTION=Yellowish-orange blocky crystals associated with dark reddish-orange fourmarierite
##STATUS=The identification of this mineral has been confirmed by single-crystal X-ray diffraction.
##URL=rruff.info/R090064
91.82715, 4438.429
92.30927, 4366.094
92.79138, 4381.002
93.27350, 4446.540
93.75562, 4504.304
94.23773, 4542.543
94.71985, 4569.886
95.20197, 4587.205
95.68408, 4592.550
96.16620, 4593.989
96.64832, 4602.637
97.13043, 4622.071
97.61255, 4645.190
98.09467, 4663.038
98.57678, 4675.896
99.05890, 4673.097
99.54102, 4662.772
100.0231, 4652.284
100.5052, 4646.935
100.9874, 4649.076
101.4695, 4656.271
101.9516, 4658.797
102.4337, 4652.117
102.9158, 4644.214
103.3979, 4638.439
103.8801, 4632.037
104.3622, 4619.143
104.8443, 4594.155
105.3264, 4554.851
105.8085, 4525.173
106.2906, 4506.670
106.7728, 4492.654
107.2549, 4479.142
107.7370, 4465.796
108.2191, 4455.193
108.7012, 4451.360
109.1833, 4454.692
109.6655, 4456.725
110.1476, 4455.979
110.6297, 4453.313
111.1118, 4449.673
111.5939, 4444.755
112.0760, 4439.890
112.5582, 4437.845
113.0403, 4438.320
113.5224, 4436.079
114.0045, 4426.631
114.4866, 4410.272
114.9688, 4394.425
115.4509, 4380.368
115.9330, 4367.443
116.4151, 4355.729
116.8972, 4345.200
117.3793, 4334.431
117.8615, 4320.285
118.3436, 4298.796
118.8257, 4284.187
119.3078, 4281.079
119.7899, 4282.382
120.2720, 4282.849
120.7542, 4280.352
121.2363, 4276.132
121.7184, 4273.775
122.2005, 4278.613
122.6826, 4279.333
123.1647, 4272.554
123.6468, 4261.573
124.1290, 4251.351
124.6111, 4244.838
125.0932, 4241.284
125.5753, 4234.324
126.0574, 4223.110
126.5395, 4210.327
127.0217, 4195.714
127.5038, 4179.871
127.9859, 4165.449
128.4680, 4154.164
128.9501, 4146.245
129.4323, 4140.318
129.9144, 4139.055
130.3965, 4138.315
130.8786, 4131.302
131.3607, 4115.519
131.8428, 4104.311
132.3250, 4111.681
132.8071, 4130.678
133.2892, 4150.209
133.7713, 4168.800
134.2534, 4184.763
134.7355, 4190.346
135.2177, 4172.829
135.6998, 4162.765
136.1819, 4178.098
136.6640, 4212.460
137.1461, 4249.675
137.6282, 4278.489
138.1104, 4298.609
138.5925, 4313.293
139.0746, 4315.609
139.5567, 4318.054
140.0388, 4327.200
140.5209, 4342.063
141.0031, 4356.267
141.4852, 4361.227
141.9673, 4349.786
142.4494, 4348.394
142.9315, 4363.670
143.4136, 4382.402
143.8958, 4396.571
144.3779, 4404.000
144.8600, 4407.126
145.3421, 4409.025
145.8242, 4403.017
146.3063, 4409.819
146.7885, 4440.682
147.2706, 4481.524
147.7527, 4515.394
148.2348, 4536.269
148.7169, 4548.664
149.1990, 4559.734
149.6812, 4566.987
150.1633, 4579.989
150.6454, 4606.382
151.1275, 4642.219
151.6096, 4673.936
152.0917, 4693.753
152.5739, 4709.893
153.0560, 4736.167
153.5381, 4775.672
154.0202, 4815.105
154.5023, 4840.818
154.9844, 4851.886
155.4665, 4867.802
155.9487, 4905.603
156.4308, 4946.097
156.9129, 4973.050
157.3950, 4981.556
157.8771, 4980.784
158.3592, 4983.102
158.8414, 4987.889
159.3235, 4997.941
159.8056, 5020.249
160.2877, 5044.446
160.7698, 5060.583
161.2519, 5063.943
161.7341, 5059.274
162.2162, 5060.724
162.6983, 5075.930
163.1804, 5087.197
163.6625, 5088.284
164.1446, 5085.267
164.6268, 5085.603
165.1089, 5093.609
165.5910, 5108.153
166.0731, 5122.284
166.5552, 5134.849
167.0373, 5148.276
167.5195, 5161.333
168.0016, 5175.652
168.4837, 5195.936
168.9658, 5226.849
169.4479, 5266.716
169.9300, 5288.536
170.4122, 5277.072
170.8943, 5266.151
171.3764, 5272.627
171.8585, 5294.104
172.3406, 5317.262
172.8227, 5332.979
173.3049, 5341.429
173.7870, 5350.228
174.2691, 5360.159
174.7512, 5369.960
175.2333, 5376.405
175.7154, 5379.167
176.1976, 5386.649
176.6797, 5410.024
177.1618, 5442.951
177.6439, 5469.479
178.1260, 5481.616
178.6081, 5487.269
179.0903, 5498.216
179.5724, 5515.590
180.0545, 5534.897
180.5366, 5552.384
181.0187, 5569.793
181.5008, 5590.280
181.9830, 5617.431
182.4651, 5648.406
182.9472, 5673.912
183.4293, 5689.199
183.9114, 5706.243
184.3935, 5729.559
184.8757, 5757.838
185.3578, 5789.524
185.8399, 5825.421
186.3220, 5864.563
186.8041, 5895.253
187.2862, 5903.878
187.7684, 5918.434
188.2505, 5952.216
188.7326, 5998.187
189.2147, 6041.595
189.6968, 6069.782
190.1789, 6082.066
190.6611, 6100.625
191.1432, 6138.289
191.6253, 6169.961
192.1074, 6183.628
192.5895, 6183.394
193.0716, 6181.882
193.5538, 6190.789
194.0359, 6212.629
194.5180, 6223.283
195.0001, 6215.899
195.4822, 6206.356
195.9643, 6206.619
196.4465, 6213.730
196.9286, 6212.644
197.4107, 6187.816
197.8928, 6134.980
198.3749, 6090.749
198.8570, 6065.144
199.3392, 6039.722
199.8213, 6002.533
200.3034, 5952.663
200.7855, 5896.735
201.2676, 5840.714
201.7497, 5784.235
202.2319, 5720.722
202.7140, 5640.814
203.1961, 5558.981
203.6782, 5491.624
204.1603, 5440.845
204.6424, 5390.188
205.1246, 5321.378
205.6067, 5238.443
206.0888, 5161.116
206.5709, 5097.128
207.0530, 5039.351
207.5351, 4977.561
208.0173, 4909.538
208.4994, 4842.389
208.9815, 4782.056
209.4636, 4726.590
209.9457, 4672.887
210.4278, 4618.898
210.9100, 4565.831
211.3921, 4516.315
211.8742, 4471.489
212.3563, 4428.531
212.8384, 4384.425
213.3205, 4340.757
213.8027, 4300.753
214.2848, 4267.630
214.7669, 4239.407
215.2490, 4209.044
215.7311, 4173.003
216.2132, 4140.460
216.6954, 4114.752
217.1775, 4094.609
217.6596, 4078.289
218.1417, 4066.534
218.6238, 4057.721
219.1059, 4041.372
219.5881, 4005.720
220.0702, 3977.431
220.5523, 3968.995
221.0344, 3972.270
221.5165, 3973.713
221.9986, 3963.925
222.4808, 3944.467
222.9629, 3929.919
223.4450, 3921.423
223.9271, 3917.601
224.4092, 3919.870
224.8913, 3926.449
225.3735, 3935.296
225.8556, 3945.680
226.3377, 3956.918
226.8198, 3961.594
227.3019, 3947.305
227.7840, 3939.274
228.2662, 3947.634
228.7483, 3965.752
229.2304, 3980.740
229.7125, 3983.656
230.1946, 3976.447
230.6767, 3980.738
231.1589, 4001.801
231.6410, 4027.372
232.1231, 4058.674
232.6052, 4092.297
233.0873, 4122.876
233.5694, 4147.329
234.0516, 4165.869
234.5337, 4179.249
235.0158, 4180.893
235.4979, 4185.728
235.9800, 4199.174
236.4621, 4219.144
236.9443, 4241.715
237.4264, 4265.517
237.9085, 4289.460
238.3906, 4308.446
238.8727, 4316.757
239.3548, 4327.452
239.8370, 4348.768
240.3191, 4376.140
240.8012, 4397.269
241.2833, 4404.399
241.7654, 4403.273
242.2475, 4411.138
242.7297, 4431.067
243.2118, 4453.059
243.6939, 4474.321
244.1760, 4494.443
244.6581, 4511.653
245.1402, 4523.967
245.6224, 4534.401
246.1045, 4550.691
246.5866, 4577.228
247.0687, 4597.337
247.5508, 4595.764
248.0329, 4579.186
248.5151, 4572.770
248.9972, 4589.198
249.4793, 4614.524
249.9614, 4628.557
250.4435, 4630.657
250.9256, 4628.138
251.4078, 4625.253
251.8899, 4621.260
252.3720, 4611.605
252.8541, 4590.443
253.3362, 4569.364
253.8183, 4562.840
254.3005, 4570.705
254.7826, 4576.602
255.2647, 4568.698
255.7468, 4549.559
256.2289, 4532.195
256.7110, 4519.396
257.1931, 4508.198
257.6753, 4498.249
258.1574, 4488.746
258.6395, 4474.434
259.1216, 4449.374
259.6037, 4415.689
260.0858, 4385.091
260.5680, 4361.018
261.0501, 4337.024
261.5322, 4307.294
262.0143, 4273.896
262.4964, 4243.110
262.9785, 4221.761
263.4607, 4207.620
263.9428, 4186.417
264.4249, 4154.106
264.9070, 4120.266
265.3891, 4088.207
265.8712, 4058.211
266.3534, 4031.095
266.8355, 4008.231
267.3176, 3988.543
267.7997, 3966.803
268.2818, 3940.091
268.7639, 3915.899
269.2461, 3900.490
269.7282, 3888.239
270.2103, 3869.967
270.6924, 3839.099
271.1745, 3800.924
271.6566, 3773.730
272.1388, 3763.940
272.6209, 3755.126
273.1030, 3744.598
273.5851, 3731.802
274.0672, 3716.040
274.5493, 3696.816
275.0315, 3674.976
275.5136, 3652.216
275.9957, 3626.001
276.4778, 3603.831
276.9599, 3590.668
277.4420, 3579.534
277.9242, 3563.714
278.4063, 3540.785
278.8884, 3514.100
279.3705, 3489.189
279.8526, 3465.407
280.3347, 3445.444
280.8169, 3430.794
281.2990, 3418.559
281.7811, 3407.417
282.2632, 3396.782
282.7453, 3385.874
283.2274, 3373.555
283.7096, 3359.616
284.1917, 3344.686
284.6738, 3327.674
285.1559, 3310.644
285.6380, 3294.793
286.1201, 3280.284
286.6023, 3266.334
287.0844, 3251.561
287.5665, 3234.919
288.0486, 3222.151
288.5307, 3213.766
289.0128, 3208.376
289.4950, 3205.801
289.9771, 3205.796
290.4592, 3208.340
290.9413, 3214.259
291.4234, 3224.269
291.9055, 3227.889
292.3877, 3214.062
292.8698, 3204.955
293.3519, 3209.800
293.8340, 3225.168
294.3161, 3243.423
294.7982, 3259.808
295.2804, 3274.073
295.7625, 3281.961
296.2446, 3271.614
296.7267, 3267.551
297.2088, 3276.919
297.6909, 3295.037
298.1731, 3314.850
298.6552, 3332.435
299.1373, 3348.797
299.6194, 3367.739
300.1015, 3394.133
300.5836, 3417.044
301.0658, 3429.823
301.5479, 3440.894
302.0300, 3460.384
302.5121, 3492.061
302.9942, 3530.479
303.4763, 3565.189
303.9585, 3596.967
304.4406, 3622.484
304.9227, 3631.177
305.4048, 3640.504
305.8869, 3667.015
306.3690, 3713.316
306.8512, 3767.198
307.3333, 3811.625
307.8154, 3841.814
308.2975, 3874.666
308.7796, 3906.973
309.2617, 3944.087
309.7439, 3993.148
310.2260, 4051.918
310.7081, 4109.512
311.1902, 4154.514
311.6723, 4185.530
312.1544, 4216.271
312.6366, 4243.125
313.1187, 4273.338
313.6008, 4309.878
314.0829, 4352.289
314.5650, 4399.659
315.0471, 4451.892
315.5293, 4508.255
316.0114, 4558.859
316.4935, 4604.768
316.9756, 4644.039
317.4577, 4670.726
317.9398, 4691.456
318.4220, 4716.911
318.9041, 4752.806
319.3862, 4794.269
319.8683, 4826.105
320.3504, 4837.466
320.8326, 4851.798
321.3147, 4874.674
321.7968, 4898.820
322.2789, 4917.037
322.7610, 4926.903
323.2431, 4931.595
323.7253, 4936.459
324.2074, 4943.262
324.6895, 4946.458
325.1716, 4946.668
325.6537, 4943.459
326.1358, 4936.575
326.6180, 4925.976
327.1001, 4911.677
327.5822, 4893.409
328.0643, 4870.552
328.5464, 4846.454
329.0285, 4822.175
329.5107, 4795.853
329.9928, 4764.515
330.4749, 4730.162
330.9570, 4698.160
331.4391, 4672.838
331.9212, 4653.609
332.4034, 4631.724
332.8855, 4609.452
333.3676, 4581.503
333.8497, 4542.396
334.3318, 4498.138
334.8139, 4457.424
335.2961, 4424.950
335.7782, 4397.271
336.2603, 4365.228
336.7424, 4325.793
337.2245, 4285.952
337.7066, 4247.476
338.1888, 4208.019
338.6709, 4166.351
339.1530, 4121.706
339.6351, 4073.462
340.1172, 4020.197
340.5993, 3960.430
341.0815, 3899.516
341.5636, 3831.285
342.0457, 3767.397
342.5278, 3715.171
343.0099, 3674.020
343.4920, 3638.788
343.9742, 3606.464
344.4563, 3577.708
344.9384, 3539.532
345.4205, 3475.520
345.9026, 3417.839
346.3847, 3377.670
346.8669, 3349.709
347.3490, 3324.969
347.8311, 3299.331
348.3132, 3270.717
348.7953, 3230.110
349.2774, 3164.076
349.7596, 3106.378
350.2417, 3067.499
350.7238, 3036.740
351.2059, 3004.202
351.6880, 2966.348
352.1701, 2925.859
352.6523, 2887.759
353.1344, 2853.763
353.6165, 2816.838
354.0986, 2771.418
354.5807, 2726.606
355.0628, 2685.275
355.5450, 2649.018
356.0271, 2621.288
356.5092, 2610.782
356.9913, 2618.674
357.4734, 2611.224
357.9555, 2576.945
358.4377, 2538.993
358.9198, 2506.158
359.4019, 2477.124
359.8840, 2448.073
360.3661, 2415.615
360.8482, 2382.488
361.3304, 2356.578
361.8125, 2339.026
362.2946, 2326.869
362.7767, 2323.565
363.2588, 2322.629
363.7409, 2317.606
364.2231, 2306.521
364.7052, 2291.176
365.1873, 2271.594
365.6694, 2246.603
366.1515, 2227.738
366.6336, 2222.533
367.1158, 2220.596
367.5979, 2214.491
368.0800, 2203.973
368.5621, 2192.745
369.0442, 2182.426
369.5263, 2173.362
370.0085, 2167.823
370.4906, 2167.622
370.9727, 2168.025
371.4548, 2165.961
371.9369, 2162.081
372.4190, 2157.825
372.9012, 2155.889
373.3833, 2152.513
373.8654, 2137.664
374.3475, 2108.895
374.8296, 2090.599
375.3117, 2102.689
375.7939, 2129.165
376.2760, 2145.849
376.7581, 2148.132
377.2402, 2147.138
377.7223, 2152.521
378.2044, 2161.959
378.6866, 2163.950
379.1687, 2151.774
379.6508, 2137.047
380.1329, 2134.633
380.6150, 2143.841
381.0971, 2156.054
381.5793, 2169.886
382.0614, 2184.643
382.5435, 2199.448
383.0256, 2214.276
383.5077, 2228.869
383.9898, 2243.445
384.4720, 2257.698
384.9541, 2270.632
385.4362, 2280.624
385.9183, 2290.669
386.4004, 2303.243
386.8825, 2317.510
387.3647, 2330.399
387.8468, 2339.882
388.3289, 2347.961
388.8110, 2360.324
389.2931, 2379.906
389.7752, 2396.798
390.2574, 2406.057
390.7395, 2412.851
391.2216, 2423.949
391.7037, 2440.700
392.1858, 2458.661
392.6679, 2471.899
393.1501, 2478.336
393.6322, 2492.167
394.1143, 2520.746
394.5964, 2549.465
395.0785, 2570.007
395.5606, 2583.524
396.0428, 2594.368
396.5249, 2604.919
397.0070, 2615.836
397.4891, 2631.292
397.9712, 2655.917
398.4533, 2679.458
398.9355, 2700.896
399.4176, 2720.724
399.8997, 2739.593
400.3818, 2757.676
400.8639, 2775.041
401.3460, 2792.029
401.8282, 2809.662
402.3103, 2823.816
402.7924, 2832.657
403.2745, 2840.260
403.7566, 2848.209
404.2387, 2856.691
404.7209, 2865.427
405.2030, 2874.151
405.6851, 2882.926
406.1672, 2891.983
406.6493, 2902.328
407.1314, 2911.336
407.6136, 2917.606
408.0957, 2922.726
408.5778, 2927.594
409.0599, 2932.470
409.5420, 2939.548
410.0241, 2954.548
410.5063, 2980.394
410.9884, 2998.048
411.4705, 2997.951
411.9526, 2994.208
412.4347, 2992.777
412.9168, 2994.417
413.3990, 2999.401
413.8811, 3009.411
414.3632, 3023.057
414.8453, 3034.665
415.3274, 3042.759
415.8095, 3052.487
416.2917, 3071.535
416.7738, 3092.496
417.2559, 3103.720
417.7380, 3098.039
418.2201, 3091.284
418.7022, 3099.918
419.1844, 3122.534
419.6665, 3146.019
420.1486, 3167.271
420.6307, 3186.750
421.1128, 3204.091
421.5949, 3219.389
422.0771, 3236.351
422.5592, 3257.393
423.0413, 3280.351
423.5234, 3301.482
424.0055, 3320.268
424.4876, 3341.922
424.9698, 3372.196
425.4519, 3408.920
425.9340, 3438.132
426.4161, 3452.241
426.8982, 3467.086
427.3803, 3492.646
427.8625, 3523.809
428.3446, 3548.021
428.8267, 3559.954
429.3088, 3568.459
429.7909, 3589.018
430.2730, 3628.529
430.7552, 3665.591
431.2373, 3700.796
431.7194, 3732.819
432.2015, 3757.397
432.6836, 3776.620
433.1657, 3799.531
433.6479, 3833.626
434.1300, 3877.942
434.6121, 3920.692
435.0942, 3963.418
435.5763, 4002.752
436.0584, 4036.750
436.5406, 4067.581
437.0227, 4097.799
437.5048, 4128.200
437.9869, 4158.163
438.4690, 4185.915
438.9511, 4209.284
439.4333, 4237.493
439.9154, 4271.788
440.3975, 4310.341
440.8796, 4356.116
441.3617, 4405.856
441.8438, 4451.683
442.3260, 4487.693
442.8081, 4516.368
443.2902, 4544.751
443.7723, 4573.495
444.2544, 4600.608
444.7365, 4621.450
445.2187, 4642.554
445.7008, 4671.039
446.1829, 4708.654
446.6650, 4746.986
447.1471, 4778.452
447.6292, 4803.930
448.1114, 4829.627
448.5935, 4858.741
449.0756, 4883.277
449.5577, 4893.290
450.0398, 4892.893
450.5219, 4893.648
451.0041, 4901.649
451.4862, 4909.859
451.9683, 4911.292
452.4504, 4906.542
452.9325, 4900.434
453.4146, 4896.603
453.8968, 4890.821
454.3789, 4873.084
454.8610, 4843.095
455.3431, 4806.802
455.8252, 4764.763
456.3073, 4717.577
456.7895, 4664.537
457.2716, 4606.074
457.7537, 4544.777
458.2358, 4482.008
458.7179, 4417.656
459.2000, 4357.314
459.6822, 4306.348
460.1643, 4252.485
460.6464, 4189.087
461.1285, 4121.699
461.6106, 4059.802
462.0927, 4006.655
462.5748, 3955.889
463.0569, 3896.241
463.5391, 3823.937
464.0212, 3753.805
464.5033, 3680.803
464.9854, 3614.594
465.4675, 3563.721
465.9496, 3523.490
466.4318, 3481.669
466.9139, 3429.458
467.3960, 3371.198
467.8781, 3320.791
468.3602, 3280.815
468.8423, 3241.548
469.3245, 3198.843
469.8066, 3156.307
470.2887, 3116.966
470.7708, 3081.249
471.2529, 3047.611
471.7350, 3014.146
472.2172, 2981.606
472.6993, 2954.207
473.1814, 2933.809
473.6635, 2914.099
474.1456, 2889.135
474.6277, 2861.598
475.1099, 2837.969
475.5920, 2821.270
476.0741, 2806.232
476.5562, 2790.096
477.0383, 2772.836
477.5204, 2753.011
478.0026, 2729.475
478.4847, 2706.563
478.9668, 2691.667
479.4489, 2687.300
479.9310, 2678.216
480.4131, 2657.170
480.8953, 2636.661
481.3774, 2625.904
481.8595, 2623.407
482.3416, 2622.777
482.8237, 2620.361
483.3058, 2616.706
483.7880, 2613.673
484.2701, 2612.176
484.7522, 2610.006
485.2343, 2607.048
485.7164, 2603.447
486.1985, 2598.545
486.6807, 2592.785
487.1628, 2587.931
487.6449, 2585.009
488.1270, 2584.218
488.6091, 2589.026
489.0912, 2606.146
489.5734, 2617.999
490.0555, 2615.057
490.5376, 2606.764
491.0197, 2603.357
491.5018, 2607.648
491.9839, 2616.423
492.4661, 2629.343
492.9482, 2645.353
493.4303, 2653.297
493.9124, 2647.419
494.3945, 2641.355
494.8766, 2647.907
495.3588, 2663.036
495.8409, 2676.476
496.3230, 2685.611
496.8051, 2692.346
497.2872, 2695.703
497.7693, 2697.391
498.2515, 2705.682
498.7336, 2725.715
499.2157, 2747.408
499.6978, 2752.388
500.1799, 2732.739
500.6620, 2727.311
501.1442, 2749.444
501.6263, 2777.451
502.1084, 2797.494
502.5905, 2809.937
503.0726, 2820.711
503.5547, 2833.334
504.0369, 2847.260
504.5190, 2860.858
505.0011, 2876.940
505.4832, 2887.955
505.9653, 2889.791
506.4474, 2889.764
506.9296, 2892.759
507.4117, 2899.247
507.8938, 2907.115
508.3759, 2913.956
508.8580, 2920.717
509.3401, 2932.809
509.8223, 2951.123
510.3044, 2972.925
510.7865, 3004.505
511.2686, 3035.177
511.7507, 3052.852
512.2328, 3054.766
512.7150, 3053.083
513.1971, 3055.591
513.6792, 3061.648
514.1613, 3069.568
514.6434, 3079.278
515.1255, 3090.439
515.6077, 3102.816
516.0898, 3116.593
516.5719, 3132.102
517.0540, 3157.656
517.5361, 3174.864
518.0182, 3166.996
518.5004, 3147.505
518.9825, 3138.717
519.4646, 3146.737
519.9467, 3165.066
520.4288, 3187.690
520.9109, 3216.865
521.3931, 3234.744
521.8752, 3233.103
522.3573, 3231.253
522.8394, 3235.198
523.3215, 3243.453
523.8036, 3253.574
524.2858, 3264.465
524.7679, 3275.693
525.2500, 3286.452
525.7321, 3296.701
526.2142, 3306.517
526.6964, 3314.674
527.1785, 3323.673
527.6606, 3335.484
528.1427, 3348.918
528.6248, 3361.688
529.1069, 3373.602
529.5891, 3383.064
530.0712, 3385.852
530.5533, 3382.524
531.0354, 3383.398
531.5175, 3393.605
531.9996, 3405.430
532.4818, 3409.557
532.9639, 3406.639
533.4460, 3401.462
533.9281, 3388.021
534.4102, 3378.469
534.8923, 3386.411
535.3745, 3407.042
535.8566, 3423.807
536.3387, 3428.753
536.8208, 3426.585
537.3029, 3426.794
537.7850, 3431.100
538.2672, 3434.345
538.7493, 3433.243
539.2314, 3434.128
539.7135, 3443.124
540.1956, 3457.250
540.6777, 3468.781
541.1599, 3473.111
541.6420, 3471.927
542.1241, 3469.224
542.6062, 3464.852
543.0883, 3459.355
543.5704, 3450.563
544.0526, 3442.571
544.5347, 3438.504
545.0168, 3437.792
545.4989, 3437.283
545.9810, 3435.779
546.4631, 3433.209
546.9453, 3429.306
547.4274, 3424.083
547.9095, 3417.915
548.3916, 3409.781
548.8737, 3402.225
549.3558, 3402.134
549.8380, 3411.841
550.3201, 3413.376
550.8022, 3395.636
551.2843, 3374.440
551.7664, 3362.162
552.2485, 3358.293
552.7307, 3357.917
553.2128, 3358.712
553.6949, 3359.037
554.1770, 3354.661
554.6591, 3348.123
555.1412, 3331.577
555.6234, 3296.262
556.1055, 3259.708
556.5876, 3230.475
557.0697, 3209.190
557.5518, 3195.036
558.0339, 3189.874
558.5161, 3187.451
558.9982, 3171.074
559.4803, 3137.811
559.9624, 3108.841
560.4445, 3091.573
560.9266, 3079.355
561.4088, 3067.064
561.8909, 3054.455
562.3730, 3038.985
562.8551, 3020.932
563.3372, 2998.731
563.8193, 2967.930
564.3015, 2930.488
564.7836, 2895.983
565.2657, 2868.432
565.7478, 2846.675
566.2299, 2829.151
566.7120, 2819.804
567.1942, 2804.751
567.6763, 2784.527
568.1584, 2758.286
568.6405, 2719.789
569.1226, 2675.277
569.6047, 2638.117
570.0869, 2615.786
570.5690, 2600.979
571.0511, 2579.206
571.5332, 2549.023
572.0153, 2516.547
572.4974, 2479.467
572.9796, 2443.147
573.4617, 2410.415
573.9438, 2380.565
574.4259, 2352.025
574.9080, 2325.540
575.3901, 2298.029
575.8723, 2262.947
576.3544, 2222.561
576.8365, 2191.146
577.3186, 2175.498
577.8007, 2161.294
578.2828, 2130.290
578.7650, 2081.232
579.2471, 2042.288
579.7292, 2021.801
580.2113, 2003.659
580.6934, 1980.882
581.1755, 1955.086
581.6577, 1928.731
582.1398, 1902.931
582.6219, 1877.613
583.1040, 1852.895
583.5861, 1828.831
584.0682, 1805.228
584.5504, 1786.378
585.0325, 1762.221
585.5146, 1720.394
585.9967, 1675.628
586.4788, 1649.255
586.9609, 1647.861
587.4431, 1650.981
587.9252, 1638.983
