##NAMES=Vandendriesscheite
##RRUFFID=R090064
##IDEAL CHEMISTRY=Pb^2+^_1.6_(U^6+^O_2_)_10_O_6_(OH)_11_&#183;11H_2_O
##LOCALITY=Shinkolobwe mine, Katanga, Congo
##OWNER=RRUFF
##SOURCE=William W. Pinch
##DESCRIPTION=Yellowish-orange blocky crystals associated with dark reddish-orange fourmarierite
##STATUS=The identification of this mineral has been confirmed by single-crystal X-ray diffraction.
##URL=rruff.info/R090064
92.07813, 53.56447
92.56024, 52.56535
93.04236, 52.72200
93.52448, 53.97036
94.00659, 56.07211
94.48871, 60.84147
94.97083, 66.45388
95.45294, 67.28577
95.93506, 61.30527
96.41718, 53.09670
96.89929, 50.52873
97.38141, 53.66740
97.86353, 59.20473
98.34564, 67.48586
98.82776, 77.99511
99.30988, 81.38785
99.79199, 73.85809
100.2741, 58.90450
100.7562, 49.92875
101.2383, 48.14098
101.7205, 48.94863
102.2026, 48.00103
102.6847, 44.46930
103.1668, 42.53750
103.6489, 43.85799
104.1310, 48.54963
104.6132, 50.18852
105.0953, 46.72206
105.5774, 42.12612
106.0595, 41.58796
106.5416, 47.95974
107.0237, 54.00204
107.5059, 57.53875
107.9880, 57.00597
108.4701, 58.86482
108.9522, 66.22998
109.4343, 75.39899
109.9164, 79.76933
110.3986, 74.55333
110.8807, 68.47141
111.3628, 63.87034
111.8449, 60.22594
112.3270, 59.07143
112.8091, 63.19862
113.2913, 70.25908
113.7734, 73.70271
114.2555, 65.94189
114.7376, 58.62088
115.2197, 58.14095
115.7018, 73.77968
116.1840, 87.04786
116.6661, 91.70073
117.1482, 89.17484
117.6303, 86.94701
118.1124, 87.60118
118.5945, 89.81615
119.0767, 92.43402
119.5588, 94.81684
120.0409, 97.75877
120.5230, 100.8010
121.0051, 104.0564
121.4872, 110.1561
121.9694, 121.9121
122.4515, 137.2231
122.9336, 153.2469
123.4157, 167.9559
123.8978, 183.1649
124.3799, 200.8908
124.8621, 221.3652
125.3442, 242.3498
125.8263, 260.9548
126.3084, 278.4527
126.7905, 298.0442
127.2726, 323.3618
127.7548, 351.1364
128.2369, 375.2826
128.7190, 394.6456
129.2011, 413.1403
129.6832, 437.2562
130.1653, 465.6711
130.6474, 491.8045
131.1296, 510.0584
131.6117, 522.3997
132.0938, 536.1434
132.5759, 551.8403
133.0580, 569.7894
133.5401, 592.2665
134.0223, 619.5651
134.5044, 644.4055
134.9865, 656.6794
135.4686, 657.2285
135.9507, 671.6268
136.4328, 706.7886
136.9150, 756.6164
137.3971, 801.1942
137.8792, 840.6328
138.3613, 875.4515
138.8434, 904.0016
139.3255, 924.2922
139.8077, 949.5788
140.2898, 984.8242
140.7719, 1028.037
141.2540, 1063.294
141.7361, 1088.209
142.2182, 1108.482
142.7004, 1130.013
143.1825, 1154.900
143.6646, 1175.390
144.1467, 1188.585
144.6288, 1194.188
145.1109, 1199.563
145.5931, 1201.759
146.0752, 1206.101
146.5573, 1219.994
147.0394, 1252.344
147.5215, 1281.319
148.0036, 1300.659
148.4858, 1308.328
148.9679, 1315.387
149.4500, 1317.985
149.9321, 1321.241
150.4142, 1332.701
150.8963, 1361.754
151.3785, 1390.520
151.8606, 1412.847
152.3427, 1423.630
152.8248, 1440.841
153.3069, 1470.790
153.7890, 1506.843
154.2712, 1532.754
154.7533, 1533.437
155.2354, 1533.969
155.7175, 1541.160
156.1996, 1561.378
156.6817, 1576.503
157.1639, 1581.982
157.6460, 1580.874
158.1281, 1579.500
158.6102, 1578.602
159.0923, 1578.214
159.5744, 1578.501
160.0566, 1580.576
160.5387, 1581.607
161.0208, 1579.916
161.5029, 1576.461
161.9850, 1574.003
162.4671, 1576.050
162.9493, 1577.951
163.4314, 1576.118
163.9135, 1563.786
164.3956, 1555.191
164.8777, 1560.094
165.3598, 1575.118
165.8420, 1586.301
166.3241, 1581.596
166.8062, 1572.574
167.2883, 1569.621
167.7704, 1579.372
168.2525, 1592.060
168.7346, 1604.130
169.2168, 1615.075
169.6989, 1621.552
170.1810, 1616.484
170.6631, 1607.359
171.1452, 1603.192
171.6273, 1610.974
172.1095, 1621.706
172.5916, 1628.589
173.0737, 1631.810
173.5558, 1633.243
174.0379, 1633.582
174.5201, 1633.135
175.0022, 1632.337
175.4843, 1628.308
175.9664, 1625.664
176.4485, 1631.678
176.9306, 1646.175
177.4128, 1660.938
177.8949, 1669.153
178.3770, 1672.335
178.8591, 1674.036
179.3412, 1676.401
179.8233, 1677.878
180.3055, 1674.428
180.7876, 1665.657
181.2697, 1657.985
181.7518, 1659.981
182.2339, 1668.805
182.7160, 1675.327
183.1982, 1674.299
183.6803, 1668.462
184.1624, 1662.881
184.6445, 1657.369
185.1266, 1653.915
185.6087, 1658.282
186.0909, 1668.402
186.5730, 1672.962
187.0551, 1660.551
187.5372, 1638.055
188.0193, 1630.753
188.5014, 1641.414
188.9836, 1656.607
189.4657, 1657.819
189.9478, 1646.317
190.4299, 1636.780
190.9120, 1638.064
191.3941, 1647.850
191.8763, 1653.308
192.3584, 1653.527
192.8405, 1651.415
193.3226, 1651.543
193.8047, 1653.928
194.2868, 1654.870
194.7690, 1651.443
195.2511, 1644.143
195.7332, 1639.966
196.2153, 1639.814
196.6974, 1641.161
197.1795, 1639.191
197.6617, 1633.573
198.1438, 1629.067
198.6259, 1628.845
199.1080, 1632.897
199.5901, 1634.646
200.0722, 1633.508
200.5544, 1630.721
201.0365, 1628.787
201.5186, 1627.978
202.0007, 1626.162
202.4828, 1620.767
202.9649, 1611.120
203.4471, 1607.904
203.9292, 1613.469
204.4113, 1622.803
204.8934, 1625.388
205.3755, 1619.559
205.8576, 1613.547
206.3398, 1612.048
206.8219, 1616.243
207.3040, 1616.494
207.7861, 1611.339
208.2682, 1603.501
208.7503, 1598.856
209.2325, 1598.326
209.7146, 1598.236
210.1967, 1597.054
210.6788, 1594.719
211.1609, 1591.387
211.6430, 1586.159
212.1252, 1580.621
212.6073, 1579.092
213.0894, 1583.425
213.5715, 1586.969
214.0536, 1586.126
214.5357, 1579.110
215.0179, 1574.448
215.5000, 1572.739
215.9821, 1572.991
216.4642, 1573.076
216.9463, 1572.943
217.4284, 1572.721
217.9105, 1572.399
218.3927, 1571.846
218.8748, 1571.593
219.3569, 1571.599
219.8390, 1571.912
220.3211, 1572.740
220.8032, 1574.416
221.2854, 1575.974
221.7675, 1576.830
222.2496, 1576.324
222.7317, 1577.156
223.2138, 1579.655
223.6959, 1583.310
224.1781, 1587.117
224.6602, 1590.972
225.1423, 1595.112
225.6244, 1599.734
226.1065, 1605.501
226.5886, 1609.913
227.0708, 1612.615
227.5529, 1614.168
228.0350, 1615.976
228.5171, 1619.224
228.9992, 1620.762
229.4813, 1618.888
229.9635, 1611.840
230.4456, 1606.636
230.9277, 1602.204
231.4098, 1600.199
231.8919, 1604.549
232.3740, 1619.505
232.8562, 1633.974
233.3383, 1644.386
233.8204, 1650.723
234.3025, 1652.615
234.7846, 1646.961
235.2667, 1638.561
235.7489, 1636.617
236.2310, 1644.937
236.7131, 1653.530
237.1952, 1659.317
237.6773, 1661.834
238.1594, 1662.681
238.6416, 1660.174
239.1237, 1657.037
239.6058, 1657.881
240.0879, 1664.863
240.5700, 1672.379
241.0521, 1678.730
241.5343, 1683.527
242.0164, 1688.560
242.4985, 1693.743
242.9806, 1699.192
243.4627, 1705.260
243.9448, 1712.895
244.4270, 1719.402
244.9091, 1723.338
245.3912, 1723.652
245.8733, 1727.561
246.3554, 1738.832
246.8375, 1750.693
247.3197, 1753.300
247.8018, 1740.090
248.2839, 1729.423
248.7660, 1726.442
249.2481, 1732.163
249.7302, 1738.094
250.2124, 1745.958
250.6945, 1752.559
251.1766, 1754.001
251.6587, 1748.123
252.1408, 1741.212
252.6229, 1733.299
253.1051, 1723.895
253.5872, 1721.849
254.0693, 1731.464
254.5514, 1743.607
255.0335, 1748.193
255.5156, 1740.657
255.9978, 1735.608
256.4799, 1737.071
256.9620, 1744.957
257.4441, 1748.332
257.9262, 1745.289
258.4083, 1740.175
258.8904, 1737.049
259.3726, 1737.056
259.8547, 1735.956
260.3368, 1732.057
260.8189, 1725.871
261.3010, 1724.086
261.7831, 1728.651
262.2653, 1734.532
262.7474, 1737.672
263.2295, 1737.224
263.7116, 1736.786
264.1937, 1737.691
264.6758, 1739.140
265.1580, 1735.419
265.6401, 1723.279
266.1222, 1712.156
266.6043, 1709.412
267.0864, 1717.831
267.5685, 1724.700
268.0507, 1729.029
268.5328, 1730.916
269.0149, 1730.693
269.4970, 1728.095
269.9791, 1724.032
270.4612, 1718.165
270.9434, 1709.527
271.4255, 1703.953
271.9076, 1702.140
272.3897, 1703.320
272.8718, 1705.637
273.3539, 1709.150
273.8361, 1713.516
274.3182, 1719.843
274.8003, 1729.048
275.2824, 1732.080
275.7645, 1726.682
276.2466, 1717.172
276.7288, 1712.203
277.2109, 1712.523
277.6930, 1713.639
278.1751, 1713.420
278.6572, 1711.769
279.1393, 1711.095
279.6215, 1711.692
280.1036, 1712.760
280.5857, 1713.124
281.0678, 1712.778
281.5499, 1712.044
282.0320, 1710.568
282.5142, 1708.526
282.9963, 1708.720
283.4784, 1711.690
283.9605, 1715.272
284.4426, 1716.943
284.9247, 1716.692
285.4069, 1715.138
285.8890, 1711.681
286.3711, 1707.013
286.8532, 1704.697
287.3353, 1705.008
287.8174, 1706.105
288.2996, 1706.543
288.7817, 1706.280
289.2638, 1704.293
289.7459, 1698.312
290.2280, 1691.438
290.7101, 1694.573
291.1923, 1708.393
291.6744, 1721.413
292.1565, 1721.369
292.6386, 1711.057
293.1207, 1704.806
293.6028, 1706.395
294.0850, 1712.680
294.5671, 1719.632
295.0492, 1727.019
295.5313, 1731.253
296.0134, 1727.468
296.4955, 1718.260
296.9777, 1711.004
297.4598, 1706.824
297.9419, 1705.159
298.4240, 1706.585
298.9061, 1710.488
299.3882, 1713.661
299.8704, 1714.018
300.3525, 1712.367
300.8346, 1709.783
301.3167, 1706.067
301.7988, 1702.974
302.2809, 1702.604
302.7631, 1704.463
303.2452, 1707.031
303.7273, 1712.062
304.2094, 1716.365
304.6915, 1713.308
305.1736, 1701.766
305.6558, 1692.265
306.1379, 1697.878
306.6200, 1711.860
307.1021, 1721.493
307.5842, 1718.089
308.0663, 1710.060
308.5485, 1703.854
309.0306, 1699.644
309.5127, 1698.801
309.9948, 1706.538
310.4769, 1716.927
310.9590, 1722.328
311.4412, 1717.501
311.9233, 1709.615
312.4054, 1702.341
312.8875, 1695.803
313.3696, 1691.003
313.8517, 1687.063
314.3339, 1685.876
314.8160, 1690.021
315.2981, 1705.656
315.7802, 1718.004
316.2623, 1716.885
316.7444, 1706.464
317.2266, 1697.789
317.7087, 1695.265
318.1908, 1696.195
318.6729, 1699.914
319.1550, 1708.606
319.6371, 1713.832
320.1193, 1709.500
320.6014, 1700.340
321.0835, 1694.034
321.5656, 1695.433
322.0477, 1697.889
322.5298, 1698.501
323.0120, 1696.550
323.4941, 1695.230
323.9762, 1694.401
324.4583, 1694.794
324.9404, 1697.207
325.4225, 1707.371
325.9047, 1713.984
326.3868, 1712.575
326.8689, 1702.865
327.3510, 1695.232
327.8331, 1690.315
328.3152, 1687.797
328.7974, 1687.480
329.2795, 1693.245
329.7616, 1696.607
330.2437, 1695.786
330.7258, 1691.631
331.2079, 1688.794
331.6901, 1687.890
332.1722, 1687.664
332.6543, 1687.495
333.1364, 1687.091
333.6185, 1687.196
334.1006, 1687.666
334.5828, 1688.657
335.0649, 1690.724
335.5470, 1694.749
336.0291, 1698.270
336.5112, 1699.963
336.9933, 1699.140
337.4755, 1700.485
337.9576, 1705.429
338.4397, 1710.889
338.9218, 1712.718
339.4039, 1710.442
339.8860, 1706.087
340.3681, 1699.446
340.8503, 1690.777
341.3324, 1684.168
341.8145, 1679.477
342.2966, 1677.087
342.7787, 1677.877
343.2608, 1681.990
343.7430, 1686.498
344.2251, 1691.671
344.7072, 1696.262
345.1893, 1694.766
345.6714, 1686.551
346.1535, 1679.972
346.6357, 1682.603
347.1178, 1692.799
347.5999, 1701.021
348.0820, 1706.664
348.5641, 1709.031
349.0462, 1704.586
349.5284, 1694.435
350.0105, 1686.808
350.4926, 1689.124
350.9747, 1696.639
351.4568, 1697.885
351.9389, 1691.854
352.4211, 1684.842
352.9032, 1683.750
353.3853, 1686.761
353.8674, 1689.501
354.3495, 1690.689
354.8316, 1690.472
355.3138, 1686.782
355.7959, 1680.283
356.2780, 1677.900
356.7601, 1689.313
357.2422, 1706.104
357.7243, 1717.430
358.2065, 1718.594
358.6886, 1716.141
359.1707, 1713.828
359.6528, 1711.400
360.1349, 1708.091
360.6170, 1700.819
361.0992, 1694.254
361.5813, 1691.841
362.0634, 1694.714
362.5455, 1699.702
363.0276, 1708.158
363.5097, 1717.385
363.9919, 1723.378
364.4740, 1723.684
364.9561, 1721.663
365.4382, 1717.121
365.9203, 1709.638
366.4024, 1705.584
366.8846, 1711.159
367.3667, 1717.999
367.8488, 1719.334
368.3309, 1706.005
368.8130, 1696.589
369.2951, 1695.426
369.7773, 1701.223
370.2594, 1704.625
370.7415, 1702.732
371.2236, 1701.195
371.7057, 1702.946
372.1878, 1712.036
372.6700, 1716.747
373.1521, 1716.799
373.6342, 1712.598
374.1163, 1703.411
374.5984, 1683.570
375.0805, 1670.151
375.5627, 1670.756
376.0448, 1687.055
376.5269, 1696.679
377.0090, 1698.172
377.4911, 1695.650
377.9732, 1693.402
378.4554, 1691.625
378.9375, 1688.720
379.4196, 1683.903
379.9017, 1677.877
380.3838, 1672.151
380.8659, 1666.413
381.3481, 1663.813
381.8302, 1669.368
382.3123, 1681.522
382.7944, 1688.367
383.2765, 1687.954
383.7586, 1683.797
384.2408, 1680.280
384.7229, 1677.483
385.2050, 1675.642
385.6871, 1675.225
386.1692, 1675.798
386.6513, 1676.527
387.1335, 1677.378
387.6156, 1678.555
388.0977, 1680.170
388.5798, 1682.218
389.0619, 1684.896
389.5440, 1690.110
390.0262, 1694.032
390.5083, 1691.444
390.9904, 1683.754
391.4725, 1677.735
391.9546, 1679.746
392.4367, 1683.801
392.9189, 1684.073
393.4010, 1677.312
393.8831, 1672.218
394.3652, 1674.350
394.8473, 1680.765
395.3294, 1686.661
395.8116, 1691.850
396.2937, 1694.948
396.7758, 1694.034
397.2579, 1688.372
397.7400, 1685.642
398.2221, 1691.320
398.7043, 1698.485
399.1864, 1701.501
399.6685, 1693.642
400.1506, 1688.820
400.6327, 1690.210
401.1148, 1696.254
401.5970, 1699.539
402.0791, 1698.246
402.5612, 1696.270
403.0433, 1695.523
403.5254, 1697.235
404.0075, 1696.439
404.4897, 1691.230
404.9718, 1685.224
405.4539, 1684.808
405.9360, 1692.436
406.4181, 1697.933
406.9002, 1697.591
407.3824, 1692.225
407.8645, 1689.898
408.3466, 1691.226
408.8287, 1693.193
409.3108, 1692.055
409.7929, 1688.091
410.2751, 1688.501
410.7572, 1696.044
411.2393, 1705.598
411.7214, 1706.277
412.2035, 1698.959
412.6856, 1691.879
413.1678, 1690.013
413.6499, 1691.685
414.1320, 1693.306
414.6141, 1694.697
415.0962, 1696.479
415.5783, 1700.383
416.0605, 1705.021
416.5426, 1707.857
417.0247, 1708.122
417.5068, 1706.111
417.9889, 1699.912
418.4710, 1690.831
418.9532, 1684.768
419.4353, 1688.680
419.9174, 1694.777
420.3995, 1696.370
420.8816, 1690.377
421.3637, 1684.792
421.8459, 1682.396
422.3280, 1682.381
422.8101, 1683.520
423.2922, 1688.211
423.7743, 1691.380
424.2564, 1690.000
424.7386, 1683.513
425.2207, 1680.471
425.7028, 1684.838
426.1849, 1690.832
426.6670, 1694.811
427.1491, 1696.800
427.6313, 1696.794
428.1134, 1694.396
428.5955, 1690.126
429.0776, 1684.914
429.5597, 1677.148
430.0418, 1671.627
430.5240, 1670.713
431.0061, 1674.798
431.4882, 1678.668
431.9703, 1683.092
432.4524, 1685.514
432.9345, 1680.682
433.4167, 1668.260
433.8988, 1661.709
434.3809, 1666.166
434.8630, 1676.790
435.3451, 1681.681
435.8272, 1680.987
436.3094, 1679.243
436.7915, 1680.120
437.2736, 1682.155
437.7557, 1681.492
438.2378, 1677.531
438.7199, 1672.553
439.2020, 1667.562
439.6841, 1663.311
440.1663, 1661.335
440.6484, 1663.013
441.1305, 1666.706
441.6126, 1671.917
442.0947, 1678.338
442.5768, 1683.958
443.0590, 1688.348
443.5411, 1691.126
444.0232, 1691.819
444.5053, 1689.661
444.9874, 1686.866
445.4695, 1682.517
445.9517, 1678.296
446.4338, 1676.894
446.9159, 1681.867
447.3980, 1686.688
447.8801, 1689.402
448.3622, 1689.851
448.8444, 1690.481
449.3265, 1691.848
449.8086, 1692.927
450.2907, 1693.133
450.7728, 1692.673
451.2549, 1690.725
451.7371, 1686.247
452.2192, 1680.929
452.7013, 1678.542
453.1834, 1679.463
453.6655, 1682.100
454.1476, 1686.634
454.6298, 1692.719
455.1119, 1696.474
455.5940, 1697.626
456.0761, 1697.685
456.5582, 1698.006
457.0403, 1698.478
457.5225, 1698.746
458.0046, 1699.166
458.4867, 1698.493
458.9688, 1692.966
459.4509, 1684.016
459.9330, 1677.810
460.4152, 1680.544
460.8973, 1686.445
461.3794, 1687.516
461.8615, 1683.219
462.3436, 1680.670
462.8257, 1687.502
463.3079, 1697.481
463.7900, 1703.617
464.2721, 1702.914
464.7542, 1699.303
465.2363, 1691.275
465.7184, 1681.208
466.2006, 1675.846
466.6827, 1683.892
467.1648, 1690.823
467.6469, 1689.728
468.1290, 1677.234
468.6111, 1668.599
469.0933, 1665.513
469.5754, 1665.429
470.0575, 1666.271
470.5396, 1668.818
471.0217, 1670.767
471.5038, 1672.024
471.9860, 1672.475
472.4681, 1671.179
472.9502, 1667.187
473.4323, 1664.629
473.9144, 1666.601
474.3965, 1672.861
474.8787, 1675.402
475.3608, 1673.545
475.8429, 1671.076
476.3250, 1672.445
476.8071, 1677.011
477.2892, 1682.088
477.7714, 1688.374
478.2535, 1692.693
478.7356, 1687.289
479.2177, 1674.634
479.6998, 1665.529
480.1819, 1671.481
480.6641, 1681.155
481.1462, 1681.408
481.6283, 1670.649
482.1104, 1660.533
482.5925, 1658.058
483.0746, 1659.622
483.5568, 1661.525
484.0389, 1664.053
484.5210, 1665.324
485.0031, 1663.637
485.4852, 1660.128
485.9673, 1658.264
486.4495, 1661.991
486.9316, 1664.180
487.4137, 1661.475
487.8958, 1652.047
488.3779, 1646.797
488.8600, 1646.860
489.3422, 1649.801
489.8243, 1654.211
490.3064, 1661.338
490.7885, 1665.236
491.2706, 1664.566
491.7527, 1660.672
492.2349, 1656.032
492.7170, 1650.470
493.1991, 1646.707
493.6812, 1647.979
494.1633, 1652.449
494.6454, 1651.280
495.1276, 1644.181
495.6097, 1637.586
496.0918, 1639.838
496.5739, 1646.759
497.0560, 1648.982
497.5381, 1642.696
498.0203, 1635.043
498.5024, 1631.440
498.9845, 1631.312
499.4666, 1633.299
499.9487, 1641.969
500.4308, 1648.322
500.9130, 1644.245
501.3951, 1629.620
501.8772, 1620.231
502.3593, 1625.090
502.8414, 1634.108
503.3235, 1640.835
503.8057, 1644.868
504.2878, 1645.877
504.7699, 1641.469
505.2520, 1634.946
505.7341, 1632.073
506.2162, 1635.017
506.6984, 1637.293
507.1805, 1637.336
507.6626, 1635.236
508.1447, 1631.384
508.6268, 1625.074
509.1089, 1619.576
509.5911, 1616.714
510.0732, 1616.525
510.5553, 1620.377
511.0374, 1629.244
511.5195, 1638.742
512.0016, 1643.923
512.4838, 1645.184
512.9659, 1643.631
513.4480, 1638.002
513.9301, 1631.391
514.4122, 1627.100
514.8943, 1624.868
515.3765, 1623.558
515.8586, 1623.108
516.3407, 1622.944
516.8228, 1622.555
517.3049, 1621.772
517.7870, 1621.338
518.2692, 1623.140
518.7513, 1624.639
519.2334, 1623.383
519.7155, 1615.710
520.1976, 1609.182
520.6797, 1603.978
521.1619, 1600.458
521.6440, 1599.990
522.1261, 1603.999
522.6082, 1608.609
523.0903, 1612.977
523.5724, 1617.155
524.0546, 1618.352
524.5367, 1615.587
525.0188, 1612.934
525.5009, 1615.488
525.9830, 1622.539
526.4651, 1624.961
526.9473, 1620.497
527.4294, 1613.765
527.9115, 1610.732
528.3936, 1610.964
528.8757, 1613.033
529.3578, 1618.217
529.8400, 1623.628
530.3221, 1626.379
530.8042, 1626.582
531.2863, 1625.256
531.7684, 1620.204
532.2505, 1615.601
532.7327, 1615.463
533.2148, 1622.357
533.6969, 1626.910
534.1790, 1626.358
534.6611, 1622.300
535.1432, 1616.471
535.6254, 1602.965
536.1075, 1595.572
536.5896, 1598.541
537.0717, 1608.572
537.5538, 1614.208
538.0359, 1614.724
538.5181, 1612.635
539.0002, 1607.946
539.4823, 1600.791
539.9644, 1596.536
540.4465, 1595.354
540.9286, 1596.206
541.4108, 1599.110
541.8929, 1603.473
542.3750, 1606.527
542.8571, 1607.618
543.3392, 1607.759
543.8214, 1608.838
544.3035, 1609.933
544.7856, 1608.858
545.2677, 1601.895
545.7498, 1594.590
546.2319, 1591.116
546.7141, 1591.076
547.1962, 1591.834
547.6783, 1593.486
548.1604, 1594.722
548.6425, 1594.490
549.1246, 1591.696
549.6068, 1590.458
550.0889, 1592.578
550.5710, 1595.514
551.0531, 1597.032
551.5352, 1597.038
552.0173, 1595.662
552.4995, 1592.241
552.9816, 1587.904
553.4637, 1585.208
553.9458, 1584.096
554.4279, 1585.181
554.9100, 1590.634
555.3922, 1598.425
555.8743, 1600.000
556.3564, 1595.354
556.8385, 1588.340
557.3206, 1580.377
557.8027, 1572.592
558.2849, 1566.433
558.7670, 1561.869
559.2491, 1560.159
559.7312, 1566.073
560.2133, 1574.362
560.6954, 1577.843
561.1776, 1568.732
561.6597, 1559.957
562.1418, 1555.734
562.6239, 1555.291
563.1060, 1555.783
563.5881, 1557.315
564.0703, 1559.285
564.5524, 1562.566
565.0345, 1567.637
565.5166, 1566.842
565.9987, 1557.164
566.4808, 1546.755
566.9630, 1541.905
567.4451, 1542.992
567.9272, 1545.640
568.4093, 1550.313
568.8914, 1554.321
569.3735, 1553.751
569.8557, 1549.121
570.3378, 1542.362
570.8199, 1531.310
571.3020, 1521.633
571.7841, 1523.535
572.2662, 1534.033
572.7484, 1542.090
573.2305, 1540.668
573.7126, 1535.539
574.1947, 1530.052
574.6768, 1524.497
575.1589, 1519.471
575.6411, 1513.899
576.1232, 1509.817
576.6053, 1508.959
577.0874, 1515.510
577.5695, 1518.413
578.0516, 1515.383
578.5338, 1510.167
579.0159, 1508.810
579.4980, 1513.174
579.9801, 1514.471
580.4622, 1509.317
580.9443, 1500.686
581.4265, 1498.807
581.9086, 1503.667
582.3907, 1508.308
582.8728, 1508.173
583.3549, 1505.196
583.8370, 1503.286
584.3192, 1502.525
584.8013, 1502.441
585.2834, 1503.117
585.7655, 1504.075
586.2476, 1505.299
586.7297, 1507.934
587.2118, 1507.469
587.6939, 1496.131
588.1760, 1482.605
