##NAMES=Vandenbrandeite
##RRUFFID=R080113
##IDEAL CHEMISTRY=Cu^2+^U^6+^O_2_(OH)_4_
##LOCALITY=Musonoi mine, Kolwezi, Katanga, Democratic Republic of Congo
##OWNER=RRUFF
##SOURCE=William W. Pinch
##DESCRIPTION=Aggregates of dark-green bladed crystals
##STATUS=The identification of this mineral has been confirmed by single-crystal X-ray diffraction.
##URL=rruff.info/R080113
91.87140, 0.0000000E+00
92.35352, 7.516953
92.83563, 7.177577
93.31775, 7.033175
93.79987, 7.123035
94.28198, 7.413181
94.76410, 7.826023
95.24622, 8.385888
95.72833, 9.017839
96.21045, 9.519252
96.69257, 9.882539
97.17468, 10.27360
97.65680, 10.86540
98.13892, 11.65594
98.62103, 12.43142
99.10315, 13.10696
99.58527, 13.70914
100.0674, 14.36868
100.5495, 15.06719
101.0316, 15.85150
101.5137, 16.76031
101.9958, 17.79828
102.4780, 18.96350
102.9601, 20.23812
103.4422, 21.61036
103.9243, 23.16006
104.4064, 24.89422
104.8885, 26.80868
105.3707, 28.94138
105.8528, 31.27678
106.3349, 33.82612
106.8170, 36.54152
107.2991, 39.19226
107.7813, 42.44758
108.2634, 46.35662
108.7455, 50.89674
109.2276, 55.83395
109.7097, 62.33829
110.1918, 68.43248
110.6740, 73.30515
111.1561, 75.89319
111.6382, 78.43015
112.1203, 80.61404
112.6024, 82.66812
113.0845, 85.83210
113.5667, 92.35253
114.0488, 98.90122
114.5309, 103.3002
115.0130, 105.8959
115.4951, 105.4319
115.9772, 100.3022
116.4594, 90.60732
116.9415, 81.33145
117.4236, 73.50362
117.9057, 67.30316
118.3878, 62.93908
118.8699, 61.24419
119.3521, 60.80294
119.8342, 60.90798
120.3163, 61.52814
120.7984, 62.54688
121.2805, 64.00411
121.7626, 65.80507
122.2448, 67.78769
122.7269, 70.16426
123.2090, 72.54653
123.6911, 74.47762
124.1732, 75.82060
124.6553, 77.08439
125.1375, 78.51248
125.6196, 80.18979
126.1017, 82.38484
126.5838, 85.29527
127.0659, 88.83069
127.5480, 92.84119
128.0302, 97.34054
128.5123, 102.2840
128.9944, 107.9140
129.4765, 114.1409
129.9586, 120.1263
130.4407, 125.1397
130.9229, 129.3673
131.4050, 133.5744
131.8871, 137.7656
132.3692, 142.0364
132.8513, 146.5690
133.3334, 151.1406
133.8156, 155.0828
134.2977, 158.1809
134.7798, 160.9960
135.2619, 164.2180
135.7440, 167.9829
136.2261, 172.2305
136.7083, 177.0504
137.1904, 182.4557
137.6725, 188.4075
138.1546, 195.2007
138.6367, 203.1091
139.1188, 210.5056
139.6010, 216.9545
140.0831, 222.4366
140.5652, 227.9498
141.0473, 233.2811
141.5294, 239.0032
142.0115, 245.7029
142.4937, 253.3549
142.9758, 262.0885
143.4579, 271.8626
143.9400, 282.3784
144.4221, 295.1130
144.9042, 310.5293
145.3864, 327.8615
145.8685, 345.7409
146.3506, 366.3711
146.8327, 384.8495
147.3148, 400.4281
147.7969, 415.5002
148.2791, 422.2458
148.7612, 419.7512
149.2433, 409.2652
149.7254, 393.1957
150.2075, 366.5722
150.6896, 338.8624
151.1718, 313.5389
151.6539, 289.6028
152.1360, 269.3267
152.6181, 252.7270
153.1002, 239.7425
153.5823, 230.3086
154.0645, 225.9336
154.5466, 223.8267
155.0287, 222.7016
155.5108, 222.8971
155.9929, 223.4422
156.4750, 224.7518
156.9572, 226.4790
157.4393, 227.1670
157.9214, 226.4414
158.4035, 224.6407
158.8856, 221.9821
159.3677, 217.3362
159.8499, 213.0060
160.3320, 209.1731
160.8141, 205.9826
161.2962, 204.4247
161.7783, 205.3023
162.2604, 207.7662
162.7426, 211.1147
163.2247, 215.4326
163.7068, 220.3271
164.1889, 225.7720
164.6710, 231.6962
165.1531, 237.8129
165.6353, 244.2546
166.1174, 250.7141
166.5995, 256.8601
167.0816, 261.8822
167.5637, 267.0612
168.0458, 273.3396
168.5280, 280.6714
169.0101, 288.3250
169.4922, 295.6243
169.9743, 302.9168
170.4564, 310.6476
170.9385, 318.4451
171.4207, 327.0794
171.9028, 337.4899
172.3849, 349.7125
172.8670, 362.5890
173.3491, 375.3145
173.8312, 388.1364
174.3134, 401.5888
174.7955, 416.1326
175.2776, 431.2059
175.7597, 446.1687
176.2418, 461.1371
176.7239, 475.7402
177.2061, 489.6650
177.6882, 503.2740
178.1703, 517.2615
178.6524, 531.9371
179.1345, 547.4023
179.6166, 564.1016
180.0988, 582.5417
180.5809, 600.5269
181.0630, 617.8352
181.5451, 633.5145
182.0272, 642.9861
182.5093, 645.7307
182.9915, 640.5853
183.4736, 623.9316
183.9557, 594.4954
184.4378, 556.9753
184.9199, 513.9859
185.4020, 466.9981
185.8842, 420.7242
186.3663, 376.9155
186.8484, 335.8900
187.3305, 300.7291
187.8126, 271.6263
188.2947, 247.4780
188.7769, 226.8712
189.2590, 209.7530
189.7411, 195.2372
190.2232, 183.1663
190.7053, 173.3819
191.1874, 164.5504
191.6696, 156.4792
192.1517, 149.2891
192.6338, 143.2223
193.1159, 138.2910
193.5980, 134.0843
194.0801, 130.4845
194.5623, 127.4795
195.0444, 124.6970
195.5265, 122.0993
196.0086, 119.7487
196.4907, 117.8020
196.9728, 116.2740
197.4550, 115.0104
197.9371, 113.8817
198.4192, 112.8831
198.9013, 112.2729
199.3834, 112.1106
199.8655, 112.3069
200.3477, 112.6397
200.8298, 113.0892
201.3119, 113.7727
201.7940, 114.9161
202.2761, 116.5933
202.7582, 117.8400
203.2404, 118.3947
203.7225, 118.6001
204.2046, 119.5127
204.6867, 121.3369
205.1688, 123.1754
205.6509, 124.2954
206.1331, 124.5065
206.6152, 125.3274
207.0973, 127.0334
207.5794, 129.3548
208.0615, 131.3514
208.5436, 132.7658
209.0258, 134.5439
209.5079, 137.5097
209.9900, 142.0603
210.4721, 145.8272
210.9542, 148.4308
211.4363, 150.1867
211.9185, 152.1303
212.4006, 154.2840
212.8827, 156.5929
213.3648, 158.9576
213.8469, 161.3618
214.3290, 163.9847
214.8112, 166.9402
215.2933, 170.0906
215.7754, 173.0113
216.2575, 175.5563
216.7396, 178.1550
217.2217, 181.0811
217.7039, 184.4655
218.1860, 187.7970
218.6681, 191.2234
219.1502, 194.5291
219.6323, 196.9778
220.1144, 198.8352
220.5966, 199.3518
221.0787, 198.0608
221.5608, 194.7947
222.0429, 190.1848
222.5250, 184.0841
223.0071, 176.6869
223.4893, 168.8315
223.9714, 160.0387
224.4535, 151.4389
224.9356, 143.3919
225.4177, 135.5444
225.8998, 129.2573
226.3820, 124.8037
226.8641, 121.9063
227.3462, 119.7744
227.8283, 118.3981
228.3104, 117.7948
228.7925, 118.0282
229.2747, 119.3253
229.7568, 120.9885
230.2389, 123.1172
230.7210, 125.5895
231.2031, 127.9527
231.6852, 130.1438
232.1674, 132.3133
232.6495, 134.5295
233.1316, 136.8672
233.6137, 139.0655
234.0958, 140.9801
234.5779, 142.7558
235.0601, 144.7567
235.5422, 146.9982
236.0243, 149.4787
236.5064, 152.2152
236.9885, 155.2658
237.4706, 158.4172
237.9528, 161.4634
238.4349, 164.6289
238.9170, 168.4677
239.3991, 173.1822
239.8812, 178.2650
240.3633, 183.4637
240.8455, 188.5262
241.3276, 194.3023
241.8097, 200.6746
242.2918, 207.7278
242.7739, 215.5820
243.2560, 224.1828
243.7382, 233.6710
244.2203, 244.1873
244.7024, 256.0338
245.1845, 268.1396
245.6666, 281.0053
246.1487, 293.8658
246.6309, 305.7765
247.1130, 317.8682
247.5951, 327.2173
248.0772, 333.0674
248.5593, 336.0026
249.0414, 333.4103
249.5236, 324.4385
250.0057, 310.4769
250.4878, 293.0791
250.9699, 270.1067
251.4520, 247.3702
251.9341, 226.5098
252.4163, 207.1380
252.8984, 191.0093
253.3805, 178.4847
253.8626, 168.8542
254.3447, 161.4424
254.8268, 156.4310
255.3090, 153.0384
255.7911, 151.3124
256.2732, 151.4140
256.7553, 151.7739
257.2374, 152.6169
257.7195, 153.4982
258.2017, 153.9140
258.6838, 153.9008
259.1659, 153.3275
259.6480, 151.9761
260.1301, 149.8149
260.6122, 148.0343
261.0944, 146.5927
261.5765, 145.5805
262.0586, 145.0991
262.5407, 145.1953
263.0228, 145.7024
263.5049, 146.6529
263.9871, 148.0404
264.4692, 149.4181
264.9513, 150.6762
265.4334, 152.1192
265.9155, 154.0644
266.3976, 156.5245
266.8798, 159.3281
267.3619, 162.4517
267.8440, 165.9026
268.3261, 169.4790
268.8082, 173.0932
269.2903, 176.9967
269.7725, 181.3847
270.2546, 186.2401
270.7367, 191.3464
271.2188, 196.4990
271.7009, 201.8508
272.1830, 208.3014
272.6652, 216.0168
273.1473, 224.2481
273.6294, 232.4747
274.1115, 240.5558
274.5936, 249.6380
275.0757, 260.3125
275.5579, 271.8094
276.0400, 281.8797
276.5221, 290.6352
277.0042, 297.4993
277.4863, 302.2880
277.9684, 305.0417
278.4506, 305.1551
278.9327, 302.5823
279.4148, 297.3646
279.8969, 289.3022
280.3790, 278.2359
280.8611, 265.4872
281.3433, 250.9955
281.8254, 234.7253
282.3075, 219.8846
282.7896, 206.5850
283.2717, 194.4772
283.7538, 182.9317
284.2360, 171.9258
284.7181, 162.0405
285.2002, 153.7112
285.6823, 146.8305
286.1644, 140.4088
286.6465, 134.4728
287.1287, 129.1095
287.6108, 124.4931
288.0929, 120.6123
288.5750, 117.2952
289.0571, 114.5750
289.5392, 112.3602
290.0214, 110.3892
290.5035, 108.6823
290.9856, 107.1123
291.4677, 105.5223
291.9498, 103.9356
292.4319, 102.5389
292.9141, 101.3533
293.3962, 100.3985
293.8783, 99.80654
294.3604, 99.58596
294.8425, 99.41991
295.3246, 98.94100
295.8068, 98.27403
296.2889, 97.84707
296.7710, 97.78722
297.2531, 97.98035
297.7352, 98.24944
298.2173, 98.59730
298.6995, 99.06695
299.1816, 99.70135
299.6637, 100.4772
300.1458, 101.3310
300.6279, 102.2572
301.1100, 103.2585
301.5922, 104.2561
302.0743, 105.2951
302.5564, 106.5575
303.0385, 108.3730
303.5206, 110.4085
304.0027, 112.1928
304.4849, 113.6014
304.9670, 114.9458
305.4491, 116.4853
305.9312, 118.1728
306.4133, 119.8967
306.8954, 121.5472
307.3776, 123.2411
307.8597, 125.0421
308.3418, 126.9670
308.8239, 129.0730
309.3060, 131.5565
309.7881, 134.2512
310.2703, 136.8122
310.7524, 138.8208
311.2345, 140.8874
311.7166, 143.5032
312.1987, 146.6582
312.6808, 149.8404
313.1630, 152.5078
313.6451, 155.1737
314.1272, 158.4195
314.6093, 162.9718
315.0914, 167.5920
315.5735, 171.6390
316.0557, 175.1834
316.5378, 178.6068
317.0199, 182.4687
317.5020, 186.0276
317.9841, 188.7608
318.4662, 190.1383
318.9484, 191.2011
319.4305, 192.6646
319.9126, 194.1100
320.3947, 194.4350
320.8768, 192.7085
321.3589, 190.2473
321.8411, 187.6971
322.3232, 185.3015
322.8053, 182.4861
323.2874, 178.8164
323.7695, 174.7204
324.2516, 170.8762
324.7338, 167.2441
325.2159, 164.0090
325.6980, 161.2753
326.1801, 159.1092
326.6622, 157.1253
327.1443, 155.3526
327.6265, 153.7113
328.1086, 152.1106
328.5907, 149.8884
329.0728, 148.4729
329.5549, 148.3721
330.0370, 149.6040
330.5192, 150.4739
331.0013, 150.7925
331.4834, 150.9187
331.9655, 151.0702
332.4476, 151.0450
332.9297, 151.4087
333.4119, 152.3470
333.8940, 153.7226
334.3761, 154.9503
334.8582, 156.0374
335.3403, 156.9224
335.8224, 157.5347
336.3046, 157.7702
336.7867, 158.0876
337.2688, 158.6847
337.7509, 159.2265
338.2330, 159.0031
338.7151, 157.8831
339.1973, 156.4052
339.6794, 154.6260
340.1615, 152.5308
340.6436, 150.9128
341.1257, 149.9808
341.6078, 149.1150
342.0900, 147.4864
342.5721, 145.0864
343.0542, 142.4379
343.5363, 139.5482
344.0184, 136.5719
344.5005, 134.2013
344.9827, 132.5156
345.4648, 131.0008
345.9469, 129.1121
346.4290, 126.9115
346.9111, 125.0880
347.3932, 123.7668
347.8754, 122.8649
348.3575, 122.3795
348.8396, 122.2798
349.3217, 122.2178
349.8038, 121.8652
350.2859, 121.3791
350.7681, 121.1587
351.2502, 121.2736
351.7323, 121.5632
352.2144, 121.9253
352.6965, 122.3281
353.1786, 122.6645
353.6608, 122.7331
354.1429, 122.7775
354.6250, 123.1686
355.1071, 123.9337
355.5892, 124.7014
356.0714, 125.3191
356.5535, 125.7299
357.0356, 125.8454
357.5177, 125.4603
357.9998, 124.9160
358.4819, 124.4970
358.9641, 124.1606
359.4462, 123.6760
359.9283, 122.6695
360.4104, 121.5964
360.8925, 120.8764
361.3746, 120.8712
361.8568, 120.7610
362.3389, 120.0175
362.8210, 118.9200
363.3031, 118.0871
363.7852, 118.0145
364.2673, 118.0074
364.7495, 117.6567
365.2316, 116.7294
365.7137, 116.1606
366.1958, 116.5098
366.6779, 117.1862
367.1600, 117.4984
367.6422, 117.0375
368.1243, 116.5506
368.6064, 116.2692
369.0885, 116.2162
369.5706, 115.8347
370.0527, 114.9103
370.5349, 113.8240
371.0170, 112.8097
371.4991, 111.9483
371.9812, 111.0466
372.4633, 110.1197
372.9454, 109.1397
373.4276, 107.9836
373.9097, 106.4344
374.3918, 105.0669
374.8739, 104.2444
375.3560, 104.1343
375.8381, 103.7402
376.3203, 102.9593
376.8024, 102.0334
377.2845, 101.3421
377.7666, 100.9275
378.2487, 100.5396
378.7308, 100.0804
379.2130, 99.57347
379.6951, 99.20079
380.1772, 98.94656
380.6593, 98.88806
381.1414, 99.29675
381.6235, 100.0850
382.1057, 100.3926
382.5878, 99.84699
383.0699, 98.99693
383.5520, 98.92249
384.0341, 99.56631
384.5162, 100.3473
384.9984, 101.0093
385.4805, 101.5326
385.9626, 101.8894
386.4447, 102.0813
386.9268, 102.0837
387.4089, 101.7568
387.8911, 101.2162
388.3732, 100.7301
388.8553, 100.6367
389.3374, 100.5137
389.8195, 99.88049
390.3016, 98.76797
390.7838, 97.61003
391.2659, 96.76540
391.7480, 95.98976
392.2301, 95.01727
392.7122, 93.63342
393.1943, 92.24031
393.6765, 91.11525
394.1586, 90.14666
394.6407, 89.03951
395.1228, 87.42686
395.6049, 85.85497
396.0870, 84.60916
396.5692, 83.82952
397.0513, 83.05492
397.5334, 82.17337
398.0155, 81.25365
398.4976, 80.39364
398.9797, 79.63322
399.4619, 78.89075
399.9440, 78.12680
400.4261, 77.34124
400.9082, 76.65690
401.3903, 76.10191
401.8724, 75.61910
402.3546, 75.15068
402.8367, 74.58688
403.3188, 74.30440
403.8009, 74.43696
404.2830, 74.81392
404.7651, 75.00838
405.2473, 74.99162
405.7294, 74.86874
406.2115, 74.63747
406.6936, 74.29362
407.1757, 74.07815
407.6578, 74.00593
408.1400, 74.02277
408.6221, 74.10091
409.1042, 74.23803
409.5863, 74.30037
410.0684, 74.18344
410.5505, 74.02364
411.0327, 74.15727
411.5148, 74.58035
411.9969, 75.12344
412.4790, 75.76151
412.9611, 76.42982
413.4432, 76.95026
413.9254, 77.28708
414.4075, 77.54581
414.8896, 77.75246
415.3717, 77.96564
415.8538, 78.32436
416.3359, 79.00256
416.8181, 79.78447
417.3002, 80.47773
417.7823, 81.08679
418.2644, 81.65206
418.7465, 82.01064
419.2286, 82.43705
419.7108, 83.21169
420.1929, 84.72478
420.6750, 86.17744
421.1571, 87.25079
421.6392, 88.03761
422.1213, 88.75004
422.6035, 89.32478
423.0856, 89.93733
423.5677, 90.70763
424.0498, 91.73030
424.5319, 92.58287
425.0140, 92.98501
425.4962, 93.32960
425.9783, 94.02927
426.4604, 95.46568
426.9425, 96.70354
427.4246, 97.59079
427.9067, 98.16805
428.3889, 98.61633
428.8710, 98.78535
429.3531, 99.08843
429.8352, 99.87129
430.3173, 101.2975
430.7994, 102.2782
431.2816, 102.6929
431.7637, 102.7979
432.2458, 102.9642
432.7279, 103.1927
433.2100, 103.4546
433.6921, 103.8076
434.1743, 104.1749
434.6564, 104.2831
435.1385, 104.1332
435.6206, 103.7633
436.1027, 103.0048
436.5848, 102.0457
437.0670, 101.4648
437.5491, 101.4984
438.0312, 101.6188
438.5133, 101.0777
438.9954, 100.1122
439.4775, 99.37856
439.9597, 99.40383
440.4418, 99.69383
440.9239, 99.79180
441.4060, 99.67195
441.8881, 99.60592
442.3702, 99.61233
442.8524, 99.81068
443.3345, 100.3189
443.8166, 101.2904
444.2987, 102.4317
444.7808, 103.6067
445.2629, 104.8756
445.7451, 106.4287
446.2272, 108.4378
446.7093, 110.5824
447.1914, 112.7189
447.6735, 114.7807
448.1556, 117.0562
448.6378, 119.5197
449.1199, 122.1898
449.6020, 125.1369
450.0841, 128.4902
450.5662, 131.6883
451.0483, 134.4496
451.5305, 137.0107
452.0126, 140.4200
452.4947, 144.9067
452.9768, 149.6216
453.4589, 154.1872
453.9410, 158.6380
454.4232, 162.8624
454.9053, 166.8261
455.3874, 170.8591
455.8695, 175.5551
456.3516, 180.8472
456.8337, 186.0591
457.3159, 190.9769
457.7980, 195.7577
458.2801, 200.5866
458.7622, 205.4814
459.2443, 210.7667
459.7264, 216.8421
460.2086, 223.3322
460.6907, 229.6603
461.1728, 235.7047
461.6549, 241.7346
462.1370, 248.0515
462.6191, 254.3645
463.1013, 260.0979
463.5834, 264.5478
464.0655, 268.8448
464.5476, 273.7984
465.0297, 279.2134
465.5118, 283.6146
465.9940, 286.5938
466.4761, 288.3589
466.9582, 288.9760
467.4403, 288.1993
467.9224, 286.7155
468.4045, 284.6744
468.8867, 281.9108
469.3688, 278.0887
469.8509, 273.0034
470.3330, 267.3536
470.8151, 261.3154
471.2972, 254.8681
471.7794, 247.6866
472.2615, 239.4954
472.7436, 231.1336
473.2257, 223.0647
473.7078, 215.2557
474.1899, 207.8264
474.6721, 200.6819
475.1542, 194.0600
475.6363, 188.4172
476.1184, 183.6707
476.6005, 179.2986
477.0826, 175.0461
477.5648, 171.0762
478.0469, 167.6273
478.5290, 164.6756
479.0111, 162.0058
479.4932, 159.5828
479.9753, 157.3063
480.4575, 155.0039
480.9396, 152.5524
481.4217, 150.3706
481.9038, 148.7561
482.3859, 147.5979
482.8680, 146.7610
483.3502, 146.4115
483.8323, 146.1687
484.3144, 145.8337
484.7965, 145.4286
485.2786, 145.2883
485.7607, 146.0015
486.2429, 146.5624
486.7250, 146.4099
487.2071, 144.9700
487.6892, 144.0624
488.1713, 143.8909
488.6534, 144.1121
489.1356, 144.2391
489.6177, 144.2449
490.0998, 144.2476
490.5819, 144.2841
491.0640, 144.3441
491.5461, 144.3393
492.0283, 144.2554
492.5104, 144.2303
492.9925, 144.5130
493.4746, 144.9869
493.9567, 144.9539
494.4388, 144.2970
494.9210, 143.4904
495.4031, 142.9703
495.8852, 142.7153
496.3673, 142.6754
496.8494, 143.0161
497.3315, 143.3840
497.8137, 143.3569
498.2958, 143.0317
498.7779, 142.8139
499.2600, 143.1039
499.7421, 143.4445
500.2242, 143.4796
500.7064, 143.0895
501.1885, 142.7493
501.6706, 142.4740
502.1527, 142.3794
502.6348, 142.5907
503.1169, 143.6503
503.5991, 144.3885
504.0812, 144.5495
504.5633, 144.2851
505.0454, 144.1507
505.5275, 144.1922
506.0096, 144.2931
506.4918, 144.4547
506.9739, 144.7018
507.4560, 144.6837
507.9381, 144.3429
508.4202, 143.8898
508.9023, 143.5220
509.3845, 143.2362
509.8666, 142.9891
510.3487, 142.7859
510.8308, 142.5940
511.3129, 142.4261
511.7950, 142.2475
512.2772, 141.8931
512.7593, 141.1464
513.2414, 140.2466
513.7235, 139.5409
514.2056, 139.0187
514.6877, 138.3201
515.1699, 137.0354
515.6520, 135.5606
516.1341, 134.2802
516.6162, 133.4147
517.0983, 132.4725
517.5804, 131.1909
518.0626, 129.7407
518.5447, 128.4031
519.0268, 127.3506
519.5089, 126.2730
519.9910, 125.1200
520.4731, 123.8891
520.9553, 122.5918
521.4374, 121.2108
521.9195, 119.8131
522.4016, 118.3897
522.8837, 116.8981
523.3658, 115.6993
523.8480, 114.8465
524.3301, 114.1809
524.8122, 113.6265
525.2943, 113.1633
525.7764, 112.3253
526.2585, 110.7720
526.7407, 109.0239
527.2228, 108.1152
527.7049, 107.9182
528.1870, 107.7089
528.6691, 106.9377
529.1512, 105.9651
529.6334, 105.1882
530.1155, 104.6294
530.5976, 104.2132
531.0797, 103.8981
531.5618, 103.6917
532.0439, 103.6223
532.5261, 103.9490
533.0082, 104.0460
533.4903, 103.5346
533.9724, 102.7048
534.4545, 102.1658
534.9366, 102.0700
535.4188, 102.1628
535.9009, 102.4145
536.3830, 102.8238
536.8651, 103.3274
537.3472, 103.9743
537.8293, 104.6208
538.3115, 105.1570
538.7936, 105.5731
539.2757, 106.0014
539.7578, 106.4363
540.2399, 106.9124
540.7220, 107.4548
541.2042, 108.0700
541.6863, 108.8360
542.1684, 109.8129
542.6505, 110.9192
543.1326, 112.0628
543.6147, 113.2377
544.0969, 114.4566
544.5790, 115.7176
545.0611, 117.0009
545.5432, 118.2768
546.0253, 119.5352
546.5074, 120.8387
546.9896, 122.2385
547.4717, 123.6676
547.9538, 125.0716
548.4359, 126.4072
548.9180, 127.7668
549.4001, 129.1691
549.8823, 130.6064
550.3644, 132.0626
550.8465, 133.5600
551.3286, 135.0642
551.8107, 136.5587
552.2928, 138.0589
552.7750, 139.6654
553.2571, 141.4329
553.7392, 143.0816
554.2213, 144.3662
554.7034, 145.3423
555.1855, 146.4590
555.6677, 147.7717
556.1498, 148.9640
556.6319, 149.6638
557.1140, 149.9910
557.5961, 150.1924
558.0782, 150.3888
558.5604, 150.3938
559.0425, 150.0384
559.5246, 149.3779
560.0067, 148.5320
560.4888, 147.7412
560.9709, 146.6080
561.4531, 144.9290
561.9352, 142.6943
562.4173, 140.2056
562.8994, 137.3003
563.3815, 134.3156
563.8636, 131.3910
564.3458, 128.5971
564.8279, 125.7287
565.3100, 122.7493
565.7921, 119.7048
566.2742, 116.7037
566.7563, 113.7433
567.2385, 110.7065
567.7206, 107.5749
568.2027, 104.3682
568.6848, 101.2312
569.1669, 98.13168
569.6490, 95.14816
570.1312, 92.19707
570.6133, 89.39999
571.0954, 87.04932
571.5775, 85.09811
572.0596, 83.22057
572.5417, 81.21397
573.0239, 79.14883
573.5060, 77.10308
573.9881, 75.04209
574.4702, 73.08088
574.9523, 71.18791
575.4344, 69.41224
575.9166, 67.83652
576.3987, 66.38218
576.8808, 65.20535
577.3629, 64.41694
577.8450, 63.90195
578.3271, 63.29442
578.8093, 62.61903
579.2914, 61.77327
579.7735, 60.61246
580.2556, 59.22176
580.7377, 58.18360
581.2198, 57.52401
581.7020, 56.98637
582.1841, 56.40395
582.6662, 55.77990
583.1483, 55.09474
583.6304, 54.34497
584.1125, 53.59724
584.5947, 52.79522
585.0768, 52.06632
585.5589, 51.60488
586.0410, 51.86027
586.5231, 51.96736
587.0052, 51.34925
587.4874, 50.29389
587.9695, 49.58392
588.4516, 49.76249
588.9337, 49.89454
