##NAMES=Vanuralite
##RRUFFID=R050544
##IDEAL CHEMISTRY=Al(U^6+^O_2_)_2_(V^5+^O_4_)_2_(OH)&#183;8.5H_2_O
##LOCALITY=Mounana mine, Franceville, Haut-Ogoou√©, Gabon
##OWNER=RRUFF
##SOURCE=University of Arizona Mineral Museum
##DESCRIPTION=Yellowish-green branching aggregates
##STATUS=The identification of this mineral has been confirmed by single-crystal X-ray diffraction.
##URL=rruff.info/R050544
134.255, 535.088
134.737, 538.842
135.219, 540.664
135.701, 540.105
136.184, 539.239
136.666, 539.963
137.148, 542.181
137.630, 547.227
138.112, 557.020
138.594, 571.200
139.076, 580.049
139.558, 582.215
140.040, 581.331
140.523, 581.748
141.005, 583.662
141.487, 586.219
141.969, 589.352
142.451, 593.170
142.933, 596.384
143.415, 598.602
143.897, 600.570
144.380, 603.023
144.862, 605.199
145.344, 609.301
145.826, 616.771
146.308, 628.738
146.790, 637.948
147.272, 644.973
147.754, 648.869
148.236, 647.805
148.719, 634.950
149.201, 625.538
149.683, 624.054
150.165, 632.965
150.647, 641.225
151.129, 649.004
151.611, 656.093
152.093, 662.162
152.575, 668.389
153.058, 672.406
153.540, 672.395
154.022, 666.183
154.504, 663.864
154.986, 670.306
155.468, 679.997
155.950, 686.018
156.432, 679.996
156.915, 676.754
157.397, 683.361
157.879, 703.695
158.361, 718.433
158.843, 721.091
159.325, 716.468
159.807, 710.881
160.289, 703.225
160.771, 697.273
161.254, 695.044
161.736, 697.276
162.218, 700.048
162.700, 701.318
163.182, 702.422
163.664, 705.222
164.146, 712.721
164.628, 720.439
165.111, 725.792
165.593, 728.439
166.075, 729.791
166.557, 729.679
167.039, 728.881
167.521, 728.562
168.003, 730.714
168.485, 732.578
168.967, 730.428
169.449, 723.278
169.932, 719.340
170.414, 728.395
170.896, 744.090
171.378, 755.554
171.860, 753.407
172.342, 747.023
172.824, 746.064
173.307, 751.405
173.789, 757.284
174.271, 758.579
174.753, 756.943
175.235, 755.809
175.717, 756.818
176.199, 759.167
176.681, 762.552
177.163, 767.054
177.645, 770.566
178.128, 770.254
178.610, 767.277
179.092, 764.557
179.574, 763.940
180.056, 764.252
180.538, 763.124
181.020, 760.372
181.503, 757.944
181.985, 758.810
182.467, 761.894
182.949, 763.573
183.431, 760.906
183.913, 755.973
184.395, 754.388
184.877, 756.580
185.359, 758.151
185.842, 752.641
186.324, 741.490
186.806, 732.138
187.288, 727.629
187.770, 726.927
188.252, 728.842
188.734, 734.021
189.216, 736.807
189.698, 728.399
190.181, 710.216
190.663, 694.646
191.145, 685.057
191.627, 681.214
192.109, 684.275
192.591, 695.502
193.073, 706.212
193.555, 705.492
194.038, 693.783
194.520, 683.360
195.002, 677.696
195.484, 676.013
195.966, 674.852
196.448, 674.027
196.930, 674.652
197.412, 679.246
197.894, 688.029
198.376, 693.935
198.859, 695.415
199.341, 692.716
199.823, 685.782
200.305, 673.489
200.787, 661.278
201.269, 654.925
201.751, 655.317
202.234, 653.147
202.716, 645.167
203.198, 633.470
203.680, 628.446
204.162, 631.478
204.644, 636.918
205.126, 640.812
205.608, 643.211
206.090, 643.495
206.572, 640.738
207.055, 636.017
207.537, 633.805
208.019, 634.504
208.501, 636.649
208.983, 639.523
209.465, 643.413
209.947, 646.844
210.430, 649.738
210.912, 652.097
211.394, 653.781
211.876, 654.500
212.358, 655.232
212.840, 656.219
213.322, 656.945
213.804, 660.444
214.286, 668.891
214.768, 679.298
215.251, 681.757
215.733, 672.236
216.215, 663.683
216.697, 663.318
217.179, 674.244
217.661, 683.184
218.143, 689.884
218.625, 694.441
219.108, 696.249
219.590, 692.577
220.072, 691.716
220.554, 698.244
221.036, 715.796
221.518, 727.877
222.000, 732.470
222.482, 733.028
222.964, 731.664
223.447, 778.210
223.929, 792.321
224.411, 803.620
224.893, 812.261
225.375, 810.271
225.857, 822.005
226.339, 828.240
226.821, 770.270
227.303, 778.005
227.786, 798.096
228.268, 817.721
228.750, 837.624
229.232, 851.609
229.714, 856.559
230.196, 858.613
230.678, 864.560
231.161, 875.136
231.643, 888.536
232.125, 905.731
232.607, 927.179
233.089, 943.498
233.571, 951.037
234.053, 957.315
234.535, 969.453
235.017, 991.049
235.499, 1011.490
235.982, 1030.094
236.464, 1046.633
236.946, 1058.794
237.428, 1066.310
237.910, 1069.763
238.392, 1069.253
238.874, 1063.254
239.357, 1056.245
239.839, 1047.709
240.321, 1038.316
240.803, 1031.888
241.285, 1029.846
241.767, 1028.879
242.249, 1027.369
242.731, 1025.901
243.213, 1022.613
243.695, 1017.570
244.178, 1010.634
244.660, 1001.166
245.142, 987.982
245.624, 973.983
246.106, 959.904
246.588, 944.147
247.070, 933.403
247.552, 932.620
248.035, 934.666
248.517, 923.458
248.999, 890.203
249.481, 858.497
249.963, 837.151
250.445, 828.851
250.927, 820.654
251.409, 812.390
251.891, 804.367
252.374, 797.181
252.856, 792.054
253.338, 785.294
253.820, 774.727
254.302, 759.523
254.784, 749.410
255.266, 746.109
255.748, 745.925
256.231, 745.512
256.713, 746.466
257.195, 743.269
257.677, 732.822
258.159, 715.471
258.641, 705.243
259.123, 706.077
259.605, 708.361
260.087, 703.025
260.570, 685.619
261.052, 672.960
261.534, 668.728
262.016, 671.310
262.498, 671.991
262.980, 670.439
263.462, 667.618
263.944, 664.107
264.427, 659.830
264.909, 654.971
265.391, 649.329
265.873, 643.189
266.355, 637.081
266.837, 630.990
267.319, 625.244
267.801, 619.429
268.284, 612.637
268.766, 610.549
269.248, 614.989
269.730, 622.377
270.212, 625.749
270.694, 623.970
271.176, 622.067
271.658, 622.651
272.140, 626.076
272.622, 625.083
273.105, 618.167
273.587, 609.394
274.069, 604.236
274.551, 603.410
275.033, 602.369
275.515, 599.380
275.997, 594.846
276.479, 592.527
276.962, 592.498
277.444, 594.562
277.926, 599.981
278.408, 609.514
278.890, 614.984
279.372, 614.013
279.854, 608.230
280.336, 602.912
280.819, 597.561
281.301, 595.162
281.783, 599.523
282.265, 610.743
282.747, 619.551
283.229, 624.610
283.711, 626.984
284.193, 628.355
284.675, 628.634
285.158, 629.134
285.640, 630.973
286.122, 633.964
286.604, 635.264
287.086, 633.867
287.568, 633.198
288.050, 639.868
288.532, 653.562
289.014, 666.183
289.497, 674.386
289.979, 678.623
290.461, 679.608
290.943, 676.883
291.425, 673.929
291.907, 673.382
292.389, 675.510
292.871, 682.355
293.353, 697.477
293.836, 716.121
294.318, 725.513
294.800, 725.598
295.282, 725.819
295.764, 736.043
296.246, 752.943
296.728, 766.141
297.211, 772.213
297.693, 775.693
298.175, 783.667
298.657, 795.614
299.139, 808.216
299.621, 818.592
300.103, 828.390
300.585, 841.216
301.067, 858.249
301.549, 875.879
302.032, 889.384
302.514, 900.156
302.996, 912.532
303.478, 931.658
303.960, 952.433
304.442, 968.015
304.924, 977.836
305.406, 985.963
305.889, 995.783
306.371, 1006.349
306.853, 1016.056
307.335, 1024.059
307.817, 1031.131
308.299, 1037.597
308.781, 1043.504
309.263, 1049.470
309.746, 1057.972
310.228, 1065.891
310.710, 1069.180
311.192, 1064.076
311.674, 1058.550
312.156, 1059.113
312.638, 1063.747
313.120, 1066.567
313.602, 1061.838
314.085, 1055.890
314.567, 1054.552
315.049, 1060.617
315.531, 1064.480
316.013, 1059.514
316.495, 1049.650
316.977, 1041.098
317.459, 1036.305
317.941, 1033.251
318.424, 1031.424
318.906, 1030.843
319.388, 1030.027
319.870, 1029.862
320.352, 1028.594
320.834, 1024.606
321.316, 1009.882
321.798, 1000.182
322.280, 1004.060
322.763, 1018.969
323.245, 1028.018
323.727, 1020.933
324.209, 1011.758
324.691, 1008.471
325.173, 1017.709
325.655, 1024.551
326.138, 1025.704
326.620, 1023.352
327.102, 1022.488
327.584, 1023.404
328.066, 1025.925
328.548, 1030.658
329.030, 1039.213
329.512, 1044.921
329.994, 1046.031
330.477, 1045.100
330.959, 1044.761
331.441, 1041.424
331.923, 1043.782
332.405, 1055.494
332.887, 1076.518
333.369, 1094.002
333.851, 1108.335
334.333, 1118.882
334.816, 1124.260
335.298, 1120.473
335.780, 1120.890
336.262, 1127.526
336.744, 1138.856
337.226, 1151.238
337.708, 1166.739
338.190, 1178.711
338.672, 1181.377
339.155, 1170.941
339.637, 1173.774
340.119, 1194.690
340.601, 1221.651
341.083, 1236.088
341.565, 1236.037
342.047, 1235.230
342.529, 1237.466
343.012, 1242.661
343.494, 1251.678
343.976, 1266.065
344.458, 1277.294
344.940, 1272.894
345.422, 1254.420
345.904, 1246.733
346.386, 1258.492
346.868, 1279.154
347.351, 1283.380
347.833, 1272.042
348.315, 1263.794
348.797, 1272.663
349.279, 1294.221
349.761, 1317.103
350.243, 1341.204
350.725, 1361.992
351.208, 1371.396
351.690, 1372.270
352.172, 1374.080
352.654, 1378.072
353.136, 1386.774
353.618, 1406.196
354.100, 1436.073
354.582, 1467.202
355.065, 1493.702
355.547, 1516.245
356.029, 1534.224
356.511, 1542.587
356.993, 1553.370
357.475, 1577.511
357.957, 1612.662
358.439, 1651.132
358.921, 1696.706
359.404, 1739.113
359.886, 1767.802
360.368, 1777.811
360.850, 1788.365
361.332, 1810.915
361.814, 1839.697
362.296, 1866.429
362.778, 1888.089
363.260, 1907.234
363.743, 1924.998
364.225, 1941.426
364.707, 1956.194
365.189, 1970.887
365.671, 1982.962
366.153, 1990.451
366.635, 1990.292
367.117, 1988.831
367.599, 1987.370
368.082, 1985.305
368.564, 1980.754
369.046, 1977.197
369.528, 1967.849
370.010, 1949.661
370.492, 1919.533
370.974, 1888.999
371.457, 1858.359
371.939, 1827.470
372.421, 1795.901
372.903, 1763.743
373.385, 1730.598
373.867, 1696.670
374.349, 1661.832
374.831, 1626.373
375.313, 1592.135
375.796, 1555.377
376.278, 1511.483
376.760, 1457.718
377.242, 1411.994
377.724, 1377.978
378.206, 1351.041
378.688, 1321.212
379.170, 1288.500
379.652, 1256.482
380.135, 1226.765
380.617, 1199.155
381.099, 1175.521
381.581, 1156.496
382.063, 1137.389
382.545, 1110.427
383.027, 1077.302
383.509, 1048.890
383.991, 1029.149
384.474, 1014.651
384.956, 999.569
385.438, 984.169
385.920, 970.099
386.402, 959.950
386.884, 951.755
387.366, 941.212
387.848, 927.050
388.331, 914.053
388.813, 907.124
389.295, 904.938
389.777, 904.712
390.259, 907.520
390.741, 910.190
391.223, 908.913
391.705, 904.004
392.188, 900.776
392.670, 905.426
393.152, 911.581
393.634, 913.179
394.116, 905.906
394.598, 898.181
395.080, 891.184
395.562, 886.172
396.044, 886.163
396.526, 896.394
397.009, 907.998
397.491, 918.075
397.973, 926.627
398.455, 932.146
398.937, 931.295
399.419, 928.751
399.901, 928.894
400.384, 931.783
400.866, 937.547
401.348, 948.785
401.830, 963.908
402.312, 972.808
402.794, 973.293
403.276, 970.380
403.758, 965.560
404.240, 956.706
404.723, 953.295
405.205, 957.884
405.687, 965.025
406.169, 965.206
406.651, 956.254
407.133, 950.302
407.615, 952.154
408.097, 959.976
408.579, 963.250
409.062, 961.481
409.544, 958.190
410.026, 956.178
410.508, 955.253
410.990, 954.339
411.472, 953.938
411.954, 951.893
412.436, 944.062
412.918, 931.274
413.401, 917.626
413.883, 905.051
414.365, 893.036
414.847, 880.715
415.329, 868.134
415.811, 856.320
416.293, 846.983
416.775, 838.827
417.258, 829.887
417.740, 818.654
418.222, 808.034
418.704, 801.005
419.186, 796.408
419.668, 791.548
420.150, 785.397
420.632, 778.440
421.115, 770.986
421.597, 763.240
422.079, 754.309
422.561, 742.377
423.043, 729.877
423.525, 719.194
424.007, 711.751
424.489, 705.021
424.971, 698.918
425.453, 693.299
425.936, 687.558
426.418, 678.378
426.900, 672.514
427.382, 674.058
427.864, 687.825
428.346, 693.565
428.828, 687.976
429.310, 677.294
429.793, 669.178
430.275, 663.653
430.757, 660.535
431.239, 660.452
431.721, 662.685
432.203, 663.988
432.685, 664.330
433.167, 663.947
433.650, 662.169
434.132, 659.324
434.614, 659.346
435.096, 663.172
435.578, 667.584
436.060, 668.322
436.542, 665.873
437.024, 662.209
437.506, 655.654
437.989, 649.864
438.471, 651.948
438.953, 661.109
439.435, 670.794
439.917, 677.842
440.399, 682.251
440.881, 683.596
441.363, 681.087
441.845, 677.759
442.328, 673.083
442.810, 669.336
443.292, 670.103
443.774, 683.059
444.256, 695.031
444.738, 699.260
445.220, 695.916
445.702, 693.161
446.185, 693.206
446.667, 694.326
447.149, 695.432
447.631, 695.164
448.113, 696.829
448.595, 701.340
449.077, 707.532
449.559, 713.364
450.042, 718.341
450.524, 723.722
451.006, 729.299
451.488, 735.196
451.970, 744.968
452.452, 760.790
452.934, 775.821
453.416, 784.717
453.898, 787.276
454.380, 785.789
454.863, 778.333
455.345, 771.140
455.827, 776.854
456.309, 794.711
456.791, 812.661
457.273, 826.558
457.755, 836.805
458.237, 843.298
458.720, 846.111
459.202, 849.682
459.684, 858.539
460.166, 870.142
460.648, 880.298
461.130, 888.021
461.612, 894.894
462.094, 900.784
462.577, 906.895
463.059, 915.639
463.541, 930.740
464.023, 946.503
464.505, 960.073
464.987, 971.509
465.469, 981.977
465.951, 992.374
466.434, 1001.579
466.916, 1008.456
467.398, 1007.059
467.880, 1012.583
468.362, 1032.046
468.844, 1057.194
469.326, 1075.080
469.808, 1081.980
470.290, 1087.352
470.772, 1092.317
471.255, 1097.090
471.737, 1106.294
472.219, 1122.833
472.701, 1136.995
473.183, 1139.670
473.665, 1129.612
474.147, 1127.312
474.629, 1135.646
475.112, 1148.648
475.594, 1159.578
476.076, 1168.079
476.558, 1170.663
477.040, 1162.886
477.522, 1150.393
478.004, 1144.868
478.486, 1145.500
478.969, 1144.943
479.451, 1136.074
479.933, 1123.877
480.415, 1115.330
480.897, 1112.435
481.379, 1108.669
481.861, 1097.030
482.343, 1082.621
482.825, 1072.233
483.308, 1076.346
483.790, 1076.774
484.272, 1063.804
484.754, 1039.851
485.236, 1019.612
485.718, 1008.499
486.200, 999.438
486.682, 989.014
487.164, 976.339
487.647, 964.939
488.129, 954.097
488.611, 945.062
489.093, 939.830
489.575, 940.313
490.057, 939.188
490.539, 934.724
491.021, 928.148
491.504, 923.756
491.986, 921.955
492.468, 919.866
492.950, 915.539
493.432, 909.435
493.914, 904.716
494.396, 901.633
494.878, 898.555
495.361, 895.282
495.843, 890.787
496.325, 881.366
496.807, 862.256
497.289, 845.174
497.771, 844.856
498.253, 856.156
498.735, 865.937
499.217, 866.634
499.699, 864.481
500.182, 863.006
500.664, 862.430
501.146, 862.135
501.628, 861.166
502.110, 860.874
502.592, 862.244
503.074, 866.620
503.556, 870.828
504.039, 875.747
504.521, 880.071
505.003, 881.368
505.485, 876.332
505.967, 874.257
506.449, 879.307
506.931, 889.936
507.413, 890.901
507.896, 878.108
508.378, 868.310
508.860, 877.223
509.342, 903.743
509.824, 914.311
510.306, 904.557
510.788, 889.970
511.270, 889.479
511.752, 900.320
512.235, 911.977
512.717, 921.808
513.199, 930.148
513.681, 936.134
514.163, 940.615
514.645, 946.479
515.127, 954.911
515.609, 965.661
516.091, 980.467
516.574, 1000.003
517.056, 1014.961
517.538, 1019.147
518.020, 1018.397
518.502, 1017.553
518.984, 1011.779
519.466, 1013.094
519.948, 1026.729
520.430, 1047.608
520.913, 1066.354
521.395, 1082.952
521.877, 1097.420
522.359, 1109.559
522.841, 1119.401
523.323, 1128.980
523.805, 1138.359
524.287, 1147.284
524.770, 1154.378
525.252, 1159.850
525.734, 1170.301
526.216, 1186.884
526.698, 1205.570
527.180, 1223.003
527.662, 1238.726
528.144, 1251.253
528.627, 1260.194
529.109, 1265.421
529.591, 1264.381
530.073, 1258.830
530.555, 1254.613
531.037, 1255.219
531.519, 1258.133
532.001, 1261.146
532.484, 1263.878
532.966, 1269.604
533.448, 1283.485
533.930, 1298.336
534.412, 1308.884
534.894, 1314.945
535.376, 1315.608
535.858, 1308.064
536.340, 1296.125
536.823, 1287.293
537.305, 1284.115
537.787, 1278.061
538.269, 1265.046
538.751, 1246.920
539.233, 1237.237
539.715, 1237.712
540.197, 1236.640
540.679, 1223.176
541.162, 1200.240
541.644, 1185.259
542.126, 1179.835
542.608, 1177.096
543.090, 1172.355
543.572, 1164.773
544.054, 1151.799
544.536, 1128.086
545.018, 1105.601
545.501, 1095.721
545.983, 1094.716
546.465, 1093.966
546.947, 1090.379
547.429, 1085.834
547.911, 1081.884
548.393, 1078.657
548.875, 1072.357
549.357, 1055.103
549.840, 1040.433
550.322, 1036.630
550.804, 1051.789
551.286, 1058.478
551.768, 1053.082
552.250, 1042.985
552.732, 1037.106
553.214, 1035.274
553.697, 1039.925
554.179, 1054.209
554.661, 1072.757
555.143, 1082.048
555.625, 1082.476
556.107, 1080.158
556.589, 1075.532
557.071, 1071.483
557.554, 1072.917
558.036, 1079.932
558.518, 1091.218
559.000, 1112.306
559.482, 1133.904
559.964, 1145.088
560.446, 1139.464
560.928, 1133.911
561.411, 1131.593
561.893, 1134.541
562.375, 1145.542
562.857, 1180.572
563.339, 1205.802
563.821, 1210.796
564.303, 1200.801
564.785, 1198.958
565.267, 1208.404
565.750, 1220.086
566.232, 1230.585
566.714, 1239.805
567.196, 1250.073
567.678, 1261.811
568.160, 1272.346
568.642, 1278.621
569.124, 1281.295
569.606, 1284.260
570.089, 1288.359
570.571, 1291.608
571.053, 1290.086
571.535, 1286.021
572.017, 1284.191
572.499, 1288.496
572.981, 1293.741
573.463, 1297.198
573.945, 1298.914
574.428, 1299.182
574.910, 1300.508
575.392, 1298.284
575.874, 1289.254
576.356, 1271.986
576.838, 1256.092
577.320, 1238.944
577.802, 1226.111
578.284, 1223.367
578.767, 1237.799
579.249, 1238.364
579.731, 1220.001
580.213, 1193.509
580.695, 1175.383
581.177, 1165.354
581.659, 1155.057
582.141, 1141.284
582.624, 1127.180
583.106, 1120.855
583.588, 1120.288
584.070, 1116.156
584.552, 1099.721
585.034, 1079.384
585.516, 1063.165
585.998, 1051.276
586.481, 1040.274
586.963, 1026.637
587.445, 1014.539
587.927, 1007.379
588.409, 1008.967
588.891, 1008.240
589.373, 1004.514
589.855, 997.542
590.338, 986.237
590.820, 966.716
591.302, 951.364
591.784, 942.308
592.266, 938.097
592.748, 935.904
593.230, 936.053
593.712, 934.458
594.194, 927.476
594.677, 918.140
595.159, 916.244
595.641, 921.290
596.123, 926.046
596.605, 925.446
597.087, 921.601
597.569, 916.968
598.051, 911.843
598.533, 905.785
599.016, 896.876
599.498, 887.713
599.980, 880.821
600.462, 877.595
600.944, 875.394
601.426, 875.563
601.908, 876.104
602.390, 873.210
602.872, 863.306
603.355, 856.996
603.837, 857.360
604.319, 863.026
604.801, 869.297
605.283, 876.765
605.765, 880.643
606.247, 875.865
606.729, 865.271
607.211, 858.644
607.694, 856.175
608.176, 856.010
608.658, 859.614
609.140, 863.508
609.622, 862.104
610.104, 852.736
610.586, 844.232
611.068, 842.990
611.551, 844.665
612.033, 844.017
612.515, 835.336
612.997, 829.622
613.479, 830.652
613.961, 835.523
614.443, 837.588
614.925, 835.446
615.407, 833.278
615.890, 832.260
616.372, 832.248
616.854, 831.976
617.336, 831.262
617.818, 832.054
618.300, 837.943
618.782, 846.273
619.265, 847.455
619.747, 840.823
620.229, 835.884
620.711, 844.754
621.193, 858.251
621.675, 863.845
622.157, 854.583
622.639, 848.132
623.121, 858.167
623.604, 873.809
624.086, 880.489
624.568, 862.125
625.050, 851.425
625.532, 855.508
626.014, 869.494
626.496, 879.489
626.978, 884.695
627.460, 887.960
627.943, 888.688
628.425, 888.356
628.907, 896.311
629.389, 912.773
629.871, 928.085
630.353, 932.000
630.835, 930.902
631.317, 937.801
631.799, 953.869
632.282, 971.444
632.764, 987.807
633.246, 1001.400
633.728, 1009.835
634.210, 1007.432
634.692, 1010.510
635.174, 1029.872
635.656, 1055.028
636.138, 1070.902
636.621, 1068.424
637.103, 1072.074
637.585, 1088.545
638.067, 1111.425
638.549, 1122.346
639.031, 1119.080
639.513, 1118.826
639.995, 1128.825
640.478, 1146.382
640.960, 1166.440
641.442, 1188.343
641.924, 1204.631
642.406, 1205.426
642.888, 1200.284
643.370, 1200.579
643.852, 1207.261
644.334, 1213.452
644.817, 1217.070
645.299, 1217.878
645.781, 1215.030
646.263, 1204.111
646.745, 1198.573
647.227, 1206.529
647.709, 1214.690
648.192, 1206.475
648.674, 1174.136
649.156, 1152.667
649.638, 1149.741
650.120, 1155.611
650.602, 1151.331
651.084, 1137.617
651.566, 1122.430
652.048, 1108.786
652.531, 1095.146
653.013, 1077.669
653.495, 1057.619
653.977, 1040.459
654.459, 1030.996
654.941, 1024.132
655.423, 1016.902
655.905, 1009.149
656.388, 1001.764
656.870, 996.796
657.352, 990.598
657.834, 980.056
658.316, 962.175
658.798, 954.034
659.280, 959.503
659.762, 967.494
660.244, 966.928
660.727, 958.051
661.209, 950.990
661.691, 947.705
662.173, 943.865
662.655, 930.924
663.137, 913.317
663.619, 901.568
664.101, 901.542
664.583, 904.802
665.066, 905.553
665.548, 905.278
666.030, 907.060
666.512, 915.772
666.994, 922.480
667.476, 922.332
667.958, 917.290
668.440, 917.683
668.922, 927.265
669.405, 934.591
669.887, 934.278
670.369, 927.130
670.851, 920.721
671.333, 914.956
671.815, 910.891
672.297, 910.444
672.779, 911.953
673.261, 911.535
673.744, 908.709
674.226, 906.755
674.708, 907.669
675.190, 910.790
675.672, 916.075
676.154, 926.525
676.636, 932.709
677.119, 927.627
677.601, 919.443
