##NAMES=Variscite
##RRUFFID=R100222
##IDEAL CHEMISTRY=AlPO_4_&#183;2H_2_O
##LOCALITY=Canarana, Mato Grosso, Brazil
##OWNER=RRUFF
##SOURCE=Luiz Menezes
##DESCRIPTION=Green blocky, combination of pseudo-octahedral and pseudo-cubes on quartz
##STATUS=The identification of this mineral has been confirmed by single-crystal X-ray diffraction.
##URL=rruff.info/R100222
187.5108, 1878.020
187.9930, 1876.069
188.4751, 1875.281
188.9572, 1875.878
189.4393, 1877.652
189.9214, 1879.469
190.4035, 1881.822
190.8857, 1883.686
191.3678, 1883.756
191.8499, 1883.286
192.3320, 1884.572
192.8141, 1889.170
193.2962, 1896.568
193.7784, 1902.891
194.2605, 1906.903
194.7426, 1911.401
195.2247, 1917.826
195.7068, 1925.607
196.1889, 1933.128
196.6711, 1939.436
197.1532, 1944.621
197.6353, 1949.537
198.1174, 1956.216
198.5995, 1960.877
199.0816, 1961.266
199.5638, 1957.644
200.0459, 1951.533
200.5280, 1942.221
201.0101, 1931.496
201.4922, 1924.442
201.9743, 1922.907
202.4565, 1923.371
202.9386, 1922.205
203.4207, 1919.290
203.9028, 1918.944
204.3849, 1925.487
204.8670, 1935.523
205.3492, 1944.089
205.8313, 1949.626
206.3134, 1954.286
206.7955, 1961.155
207.2776, 1970.955
207.7597, 1979.587
208.2419, 1983.920
208.7240, 1986.590
209.2061, 1990.031
209.6882, 1995.174
210.1703, 2001.082
210.6524, 2005.920
211.1346, 2008.841
211.6167, 2012.826
212.0988, 2018.924
212.5809, 2026.311
213.0630, 2034.285
213.5451, 2042.499
214.0273, 2051.251
214.5094, 2061.210
214.9915, 2072.654
215.4736, 2084.992
215.9557, 2098.542
216.4378, 2112.569
216.9200, 2126.092
217.4021, 2138.541
217.8842, 2151.012
218.3663, 2166.160
218.8484, 2182.444
219.3305, 2204.479
219.8127, 2232.245
220.2948, 2265.653
220.7769, 2304.791
221.2590, 2349.699
221.7411, 2400.022
222.2232, 2454.813
222.7054, 2519.058
223.1875, 2582.177
223.6696, 2648.048
224.1517, 2711.053
224.6338, 2767.413
225.1159, 2815.823
225.5980, 2851.905
226.0802, 2862.170
226.5623, 2836.089
227.0444, 2795.095
227.5265, 2733.631
228.0086, 2659.890
228.4907, 2582.623
228.9729, 2505.070
229.4550, 2429.768
229.9371, 2364.734
230.4192, 2309.707
230.9013, 2264.107
231.3834, 2231.466
231.8656, 2207.667
232.3477, 2186.752
232.8298, 2166.433
233.3119, 2148.119
233.7940, 2135.844
234.2761, 2131.675
234.7583, 2126.876
235.2404, 2119.426
235.7225, 2109.922
236.2046, 2099.189
236.6867, 2087.263
237.1688, 2074.599
237.6510, 2061.494
238.1331, 2047.758
238.6152, 2034.803
239.0973, 2023.199
239.5794, 2012.685
240.0615, 2002.768
240.5437, 1993.220
241.0258, 1984.357
241.5079, 1976.812
241.9900, 1970.538
242.4721, 1964.244
242.9542, 1956.568
243.4364, 1948.473
243.9185, 1942.495
244.4006, 1939.395
244.8827, 1938.157
245.3648, 1937.858
245.8469, 1938.419
246.3290, 1939.593
246.8112, 1941.796
247.2933, 1944.566
247.7754, 1946.375
248.2575, 1946.461
248.7396, 1946.516
249.2217, 1947.624
249.7039, 1949.688
250.1860, 1952.529
250.6681, 1956.764
251.1502, 1961.813
251.6323, 1965.445
252.1144, 1966.755
252.5966, 1967.889
253.0787, 1970.265
253.5608, 1973.442
254.0429, 1976.490
254.5250, 1979.018
255.0071, 1981.006
255.4893, 1982.149
255.9714, 1981.367
256.4535, 1981.564
256.9356, 1985.179
257.4177, 1990.322
257.8998, 1993.828
258.3820, 1993.537
258.8641, 1990.550
259.3462, 1989.080
259.8283, 1991.471
260.3104, 1991.315
260.7925, 1985.786
261.2747, 1977.141
261.7568, 1968.045
262.2389, 1959.472
262.7210, 1951.809
263.2031, 1946.198
263.6852, 1943.539
264.1674, 1941.580
264.6495, 1939.881
265.1316, 1938.438
265.6137, 1937.139
266.0958, 1935.910
266.5779, 1935.084
267.0601, 1935.462
267.5422, 1937.206
268.0243, 1940.067
268.5064, 1944.662
268.9885, 1949.805
269.4706, 1954.985
269.9528, 1959.943
270.4349, 1963.660
270.9170, 1963.645
271.3991, 1956.452
271.8812, 1952.375
272.3633, 1954.361
272.8455, 1957.759
273.3276, 1958.933
273.8097, 1957.061
274.2918, 1953.918
274.7739, 1952.106
275.2560, 1951.880
275.7382, 1952.598
276.2202, 1955.131
276.7024, 1957.745
277.1845, 1959.334
277.6666, 1959.767
278.1487, 1959.633
278.6308, 1959.624
279.1129, 1959.801
279.5951, 1959.864
280.0772, 1959.130
280.5593, 1958.855
281.0414, 1960.140
281.5235, 1962.692
282.0056, 1965.045
282.4878, 1965.526
282.9699, 1963.502
283.4520, 1964.420
283.9341, 1971.165
284.4162, 1977.634
284.8983, 1981.590
285.3805, 1983.190
285.8626, 1983.447
286.3447, 1983.015
286.8268, 1981.919
287.3089, 1981.184
287.7910, 1981.045
288.2732, 1980.995
288.7553, 1980.507
289.2374, 1980.031
289.7195, 1980.450
290.2016, 1982.340
290.6837, 1985.452
291.1659, 1988.513
291.6480, 1991.473
292.1301, 1994.400
292.6122, 1998.105
293.0943, 2001.569
293.5764, 2003.249
294.0586, 2002.410
294.5407, 1999.766
295.0228, 1997.246
295.5049, 1995.281
295.9870, 1992.898
296.4691, 1989.473
296.9513, 1985.873
297.4334, 1983.454
297.9155, 1982.596
298.3976, 1981.853
298.8797, 1978.835
299.3618, 1972.852
299.8440, 1965.375
300.3261, 1954.526
300.8082, 1943.443
301.2903, 1934.477
301.7724, 1928.137
302.2545, 1923.503
302.7367, 1919.525
303.2188, 1916.255
303.7009, 1913.729
304.1830, 1911.480
304.6651, 1910.222
305.1472, 1910.731
305.6294, 1912.811
306.1115, 1915.445
306.5936, 1917.822
307.0757, 1919.936
307.5578, 1921.887
308.0399, 1923.616
308.5221, 1925.276
309.0042, 1927.195
309.4863, 1929.131
309.9684, 1930.366
310.4505, 1930.341
310.9326, 1929.301
311.4148, 1928.945
311.8969, 1929.447
312.3790, 1930.314
312.8611, 1931.039
313.3432, 1932.130
313.8253, 1934.624
314.3075, 1939.058
314.7896, 1944.673
315.2717, 1949.545
315.7538, 1953.075
316.2359, 1956.766
316.7180, 1959.702
317.2001, 1963.315
317.6823, 1969.290
318.1644, 1978.121
318.6465, 1988.800
319.1286, 1999.748
319.6107, 2009.945
320.0928, 2023.271
320.5750, 2041.738
321.0571, 2061.865
321.5392, 2081.286
322.0213, 2099.559
322.5034, 2117.763
322.9855, 2137.362
323.4677, 2159.376
323.9498, 2174.680
324.4319, 2183.426
324.9140, 2186.579
325.3961, 2184.414
325.8782, 2177.082
326.3604, 2164.278
326.8425, 2145.163
327.3246, 2120.441
327.8067, 2097.587
328.2888, 2075.776
328.7709, 2056.443
329.2531, 2039.977
329.7352, 2026.332
330.2173, 2015.536
330.6994, 2007.644
331.1815, 2002.330
331.6636, 1998.703
332.1458, 1998.820
332.6279, 1998.177
333.1100, 1994.825
333.5921, 1991.557
334.0742, 1991.622
334.5563, 1995.772
335.0385, 2001.645
335.5206, 2005.813
336.0027, 2007.555
336.4848, 2009.266
336.9669, 2010.569
337.4490, 2012.129
337.9312, 2014.527
338.4133, 2017.691
338.8954, 2021.045
339.3775, 2024.104
339.8596, 2026.890
340.3417, 2029.115
340.8239, 2030.355
341.3060, 2031.541
341.7881, 2033.180
342.2702, 2035.007
342.7523, 2036.156
343.2344, 2035.926
343.7166, 2034.999
344.1987, 2036.725
344.6808, 2044.163
345.1629, 2050.955
345.6450, 2056.123
346.1271, 2060.499
346.6093, 2065.169
347.0914, 2070.478
347.5735, 2075.849
348.0556, 2080.094
348.5377, 2082.865
349.0198, 2085.067
349.5020, 2085.856
349.9841, 2086.803
350.4662, 2089.502
350.9483, 2093.782
351.4304, 2097.832
351.9125, 2099.640
352.3947, 2098.932
352.8768, 2097.786
353.3589, 2097.550
353.8410, 2095.560
354.3231, 2090.324
354.8052, 2082.578
355.2874, 2073.865
355.7695, 2065.211
356.2516, 2056.510
356.7337, 2046.824
357.2158, 2034.063
357.6979, 2023.263
358.1800, 2015.857
358.6621, 2010.487
359.1443, 2005.506
359.6264, 2000.264
360.1085, 1995.808
360.5906, 1994.500
361.0727, 1998.283
361.5548, 2000.130
362.0370, 1997.763
362.5191, 1994.584
363.0012, 1992.654
363.4833, 1992.131
363.9654, 1991.925
364.4475, 1991.250
364.9297, 1990.158
365.4118, 1987.549
365.8939, 1981.728
366.3760, 1976.177
366.8581, 1971.658
367.3402, 1968.464
367.8224, 1967.222
368.3045, 1968.930
368.7866, 1972.329
369.2687, 1973.424
369.7508, 1970.893
370.2329, 1968.981
370.7151, 1969.796
371.1972, 1971.572
371.6793, 1972.510
372.1614, 1972.018
372.6435, 1971.230
373.1256, 1971.738
373.6078, 1973.673
374.0899, 1974.925
374.5720, 1973.275
375.0541, 1972.506
375.5362, 1976.229
376.0183, 1984.036
376.5005, 1991.410
376.9826, 1994.718
377.4647, 1995.120
377.9468, 1997.039
378.4289, 2001.173
378.9110, 2005.830
379.3932, 2009.738
379.8753, 2013.332
380.3574, 2017.591
380.8395, 2023.741
381.3216, 2029.835
381.8037, 2032.968
382.2859, 2033.080
382.7680, 2033.637
383.2501, 2037.061
383.7322, 2041.139
384.2143, 2042.146
384.6964, 2039.094
385.1786, 2036.264
385.6607, 2036.683
386.1428, 2039.230
386.6249, 2041.060
387.1070, 2041.636
387.5891, 2041.041
388.0713, 2038.592
388.5534, 2034.502
389.0355, 2031.539
389.5176, 2031.480
389.9997, 2032.049
390.4818, 2030.436
390.9640, 2026.667
391.4461, 2023.602
391.9282, 2023.123
392.4103, 2025.050
392.8924, 2027.739
393.3745, 2032.015
393.8567, 2036.064
394.3388, 2038.556
394.8209, 2040.370
395.3030, 2043.786
395.7851, 2049.961
396.2672, 2056.290
396.7494, 2057.815
397.2315, 2051.256
397.7136, 2047.660
398.1957, 2049.205
398.6778, 2052.698
399.1599, 2055.896
399.6420, 2058.398
400.1241, 2060.515
400.6063, 2062.560
401.0884, 2064.564
401.5705, 2065.732
402.0526, 2063.554
402.5347, 2063.437
403.0168, 2067.954
403.4990, 2075.472
403.9811, 2083.246
404.4632, 2089.931
404.9453, 2096.306
405.4274, 2104.319
405.9095, 2115.391
406.3917, 2125.703
406.8738, 2134.600
407.3559, 2143.141
407.8380, 2151.544
408.3201, 2160.177
408.8022, 2170.096
409.2844, 2182.732
409.7665, 2198.221
410.2486, 2213.368
410.7307, 2227.319
411.2128, 2241.806
411.6949, 2257.595
412.1771, 2274.169
412.6592, 2290.992
413.1413, 2308.003
413.6234, 2324.408
414.1055, 2338.962
414.5876, 2352.539
415.0698, 2361.696
415.5519, 2362.643
416.0340, 2360.813
416.5161, 2359.291
416.9982, 2358.564
417.4803, 2358.177
417.9625, 2357.117
418.4446, 2355.775
418.9267, 2357.017
419.4088, 2361.889
419.8909, 2367.869
420.3730, 2374.196
420.8552, 2380.320
421.3373, 2384.839
421.8194, 2386.341
422.3015, 2387.008
422.7836, 2389.136
423.2657, 2392.724
423.7479, 2397.687
424.2300, 2404.037
424.7121, 2411.822
425.1942, 2420.790
425.6763, 2430.800
426.1584, 2442.427
426.6406, 2456.683
427.1227, 2472.537
427.6048, 2487.780
428.0869, 2502.037
428.5690, 2517.274
429.0511, 2535.177
429.5333, 2556.013
430.0154, 2578.080
430.4975, 2602.693
430.9796, 2627.335
431.4617, 2650.862
431.9438, 2673.187
432.4260, 2694.691
432.9081, 2715.581
433.3902, 2735.099
433.8723, 2751.334
434.3544, 2763.439
434.8365, 2773.231
435.3187, 2783.055
435.8008, 2789.054
436.2829, 2787.985
436.7650, 2779.544
437.2471, 2765.337
437.7292, 2746.847
438.2114, 2724.014
438.6935, 2696.249
439.1756, 2660.881
439.6577, 2623.355
440.1398, 2582.853
440.6219, 2541.640
441.1040, 2503.090
441.5862, 2468.760
442.0683, 2436.626
442.5504, 2403.296
443.0325, 2368.001
443.5146, 2333.611
443.9967, 2298.681
444.4789, 2266.246
444.9610, 2238.625
445.4431, 2215.415
445.9252, 2194.165
446.4073, 2173.495
446.8894, 2153.573
447.3716, 2134.978
447.8537, 2117.561
448.3358, 2101.878
448.8179, 2088.516
449.3000, 2076.768
449.7821, 2066.050
450.2643, 2056.267
450.7464, 2047.317
451.2285, 2038.946
451.7106, 2031.257
452.1927, 2025.496
452.6748, 2022.865
453.1570, 2020.278
453.6391, 2013.177
454.1212, 2002.793
454.6033, 1995.300
455.0854, 1994.012
455.5675, 1994.849
456.0497, 1994.585
456.5318, 1993.199
457.0139, 1991.045
457.4960, 1987.911
457.9781, 1984.609
458.4602, 1983.593
458.9424, 1986.173
459.4245, 1987.901
459.9066, 1987.473
460.3887, 1986.123
460.8708, 1984.863
461.3529, 1983.952
461.8351, 1983.633
462.3172, 1984.369
462.7993, 1986.247
463.2814, 1986.151
463.7635, 1982.384
464.2456, 1978.730
464.7278, 1975.925
465.2099, 1973.840
465.6920, 1972.100
466.1741, 1970.562
466.6562, 1969.644
467.1383, 1970.485
467.6205, 1974.385
468.1026, 1975.976
468.5847, 1972.566
469.0668, 1969.067
469.5489, 1967.444
470.0310, 1967.594
470.5132, 1968.748
470.9953, 1970.607
471.4774, 1973.002
471.9595, 1975.729
472.4416, 1979.113
472.9237, 1981.618
473.4059, 1981.778
473.8880, 1981.346
474.3701, 1982.081
474.8522, 1984.216
475.3343, 1986.143
475.8164, 1986.378
476.2986, 1985.668
476.7807, 1985.799
477.2628, 1986.964
477.7449, 1989.005
478.2270, 1992.370
478.7091, 1996.568
479.1913, 1999.549
479.6734, 2000.861
480.1555, 2001.311
480.6376, 2001.399
481.1197, 2000.902
481.6018, 1999.283
482.0839, 1996.343
482.5660, 1992.545
483.0482, 1988.658
483.5303, 1985.194
484.0124, 1979.344
484.4945, 1968.776
484.9766, 1958.181
485.4587, 1950.787
485.9409, 1945.385
486.4230, 1938.428
486.9051, 1927.754
487.3872, 1915.068
487.8693, 1905.458
488.3514, 1900.273
488.8336, 1895.645
489.3157, 1891.709
489.7978, 1887.830
490.2799, 1883.760
490.7620, 1879.391
491.2441, 1874.507
491.7263, 1868.492
492.2084, 1861.864
492.6905, 1857.217
493.1726, 1855.050
493.6547, 1853.709
494.1368, 1853.391
494.6190, 1853.158
495.1011, 1851.782
495.5832, 1848.876
496.0653, 1846.221
496.5474, 1845.838
497.0295, 1846.805
497.5117, 1845.882
497.9938, 1842.048
498.4759, 1838.624
498.9580, 1839.015
499.4401, 1842.350
499.9222, 1843.803
500.4044, 1841.248
500.8865, 1838.640
501.3686, 1838.252
501.8507, 1839.249
502.3328, 1839.876
502.8149, 1839.532
503.2971, 1838.835
503.7792, 1838.733
504.2613, 1839.638
504.7434, 1839.599
505.2255, 1837.598
505.7076, 1835.783
506.1898, 1835.166
506.6719, 1835.534
507.1540, 1836.268
507.6361, 1837.035
508.1182, 1838.078
508.6003, 1840.239
509.0825, 1844.606
509.5646, 1847.170
510.0467, 1845.263
510.5288, 1843.397
511.0109, 1844.250
511.4930, 1847.432
511.9752, 1850.810
512.4573, 1852.946
512.9394, 1854.462
513.4215, 1857.041
513.9036, 1860.963
514.3857, 1864.207
514.8679, 1865.783
515.3500, 1866.422
515.8321, 1866.670
516.3142, 1866.328
516.7963, 1867.516
517.2784, 1872.793
517.7606, 1879.375
518.2427, 1883.190
518.7248, 1883.964
519.2069, 1883.999
519.6890, 1884.700
520.1711, 1885.949
520.6533, 1887.139
521.1354, 1887.427
521.6175, 1888.773
522.0996, 1891.549
522.5817, 1895.490
523.0638, 1900.864
523.5460, 1907.379
524.0281, 1913.605
524.5102, 1917.866
524.9923, 1920.255
525.4744, 1925.073
525.9565, 1936.095
526.4387, 1944.497
526.9208, 1946.838
527.4029, 1946.724
527.8850, 1948.056
528.3671, 1951.776
528.8492, 1955.715
529.3314, 1957.181
529.8135, 1956.523
530.2956, 1957.800
530.7777, 1963.154
531.2598, 1966.442
531.7419, 1960.484
532.2241, 1950.649
532.7062, 1946.019
533.1883, 1950.525
533.6704, 1955.815
534.1525, 1955.671
534.6346, 1952.101
535.1168, 1949.948
535.5989, 1950.381
536.0810, 1951.444
536.5631, 1951.272
537.0452, 1949.789
537.5273, 1947.958
538.0095, 1944.812
538.4916, 1942.409
538.9737, 1942.134
539.4558, 1942.866
539.9379, 1943.011
540.4200, 1942.034
540.9022, 1940.315
541.3843, 1938.209
541.8664, 1935.485
542.3485, 1933.709
542.8306, 1932.873
543.3127, 1933.124
543.7948, 1935.852
544.2769, 1939.312
544.7590, 1940.508
545.2411, 1938.073
545.7233, 1935.082
546.2054, 1935.638
546.6875, 1939.495
547.1696, 1943.192
547.6517, 1946.561
548.1339, 1948.978
548.6160, 1948.544
549.0981, 1946.549
549.5802, 1946.921
550.0623, 1952.462
550.5444, 1958.332
551.0266, 1960.943
551.5087, 1961.578
551.9908, 1963.113
552.4729, 1966.411
552.9550, 1970.962
553.4371, 1976.485
553.9193, 1983.593
554.4014, 1987.903
554.8835, 1987.082
555.3656, 1986.494
555.8477, 1988.622
556.3298, 1992.059
556.8120, 1994.503
557.2941, 1995.141
557.7762, 1995.057
558.2583, 1996.102
558.7404, 1998.615
559.2225, 1999.277
559.7047, 1996.626
560.1868, 1993.858
560.6689, 1992.987
561.1510, 1992.884
561.6331, 1991.432
562.1152, 1987.552
562.5974, 1983.445
563.0795, 1981.713
563.5616, 1981.527
564.0437, 1979.681
564.5258, 1975.290
565.0079, 1970.322
565.4901, 1966.840
565.9722, 1964.664
566.4543, 1960.663
566.9364, 1953.712
567.4185, 1946.270
567.9006, 1938.711
568.3828, 1931.466
568.8649, 1925.144
569.3470, 1919.900
569.8291, 1915.163
570.3112, 1910.379
570.7933, 1905.527
571.2755, 1900.787
571.7576, 1896.888
572.2397, 1892.106
572.7218, 1885.034
573.2039, 1877.366
573.6860, 1871.241
574.1682, 1867.121
574.6503, 1863.179
575.1324, 1856.815
575.6145, 1848.973
576.0966, 1844.584
576.5787, 1844.999
577.0609, 1844.607
577.5430, 1838.807
578.0251, 1830.215
578.5072, 1825.235
578.9893, 1825.299
579.4714, 1826.036
579.9536, 1826.756
580.4357, 1826.739
580.9178, 1824.588
581.3999, 1820.448
581.8820, 1816.285
582.3641, 1813.617
582.8463, 1812.197
583.3284, 1810.503
583.8105, 1807.540
584.2926, 1805.817
584.7747, 1806.862
585.2568, 1808.141
585.7390, 1807.270
586.2211, 1804.547
586.7032, 1802.383
587.1853, 1802.799
587.6674, 1804.779
588.1495, 1805.470
588.6317, 1804.648
589.1138, 1803.909
589.5959, 1803.604
590.0780, 1803.772
590.5601, 1804.584
591.0422, 1806.023
591.5244, 1807.212
592.0065, 1807.314
592.4886, 1807.485
592.9707, 1809.396
593.4528, 1812.375
593.9349, 1813.650
594.4171, 1811.793
594.8992, 1809.207
595.3813, 1810.372
595.8634, 1817.453
596.3455, 1821.841
596.8276, 1821.452
597.3098, 1820.945
597.7919, 1822.278
598.2740, 1824.835
598.7561, 1827.333
599.2382, 1829.250
599.7203, 1831.104
600.2025, 1833.694
600.6846, 1837.012
601.1667, 1840.284
601.6488, 1843.823
602.1309, 1846.528
602.6130, 1846.684
603.0952, 1845.596
603.5773, 1846.036
604.0594, 1849.363
604.5415, 1852.370
605.0236, 1852.346
605.5057, 1851.393
605.9879, 1853.392
606.4700, 1858.670
606.9521, 1863.738
607.4342, 1865.677
607.9163, 1864.833
608.3984, 1863.812
608.8806, 1861.599
609.3627, 1860.643
609.8448, 1861.688
610.3269, 1863.592
610.8090, 1865.720
611.2911, 1867.868
611.7733, 1869.966
612.2554, 1872.506
612.7375, 1874.477
613.2196, 1873.049
613.7017, 1867.886
614.1838, 1862.734
614.6660, 1858.402
615.1481, 1854.905
615.6302, 1852.992
616.1123, 1852.507
616.5944, 1850.055
617.0765, 1843.969
617.5587, 1836.654
618.0408, 1828.708
618.5229, 1820.906
619.0050, 1814.989
619.4871, 1811.528
619.9692, 1808.994
620.4514, 1805.330
620.9335, 1800.339
621.4156, 1795.564
621.8977, 1790.983
622.3798, 1786.653
622.8619, 1782.931
623.3441, 1779.310
623.8262, 1775.192
624.3083, 1770.461
624.7904, 1765.571
625.2725, 1760.788
625.7546, 1756.180
626.2367, 1751.752
626.7188, 1747.429
627.2009, 1744.351
627.6830, 1743.754
628.1652, 1744.262
628.6473, 1742.592
629.1294, 1738.344
629.6115, 1733.766
630.0936, 1727.742
630.5757, 1722.708
631.0579, 1721.092
631.5400, 1721.951
632.0221, 1722.827
632.5042, 1722.502
632.9863, 1720.981
633.4684, 1717.817
633.9506, 1712.327
634.4327, 1708.592
634.9148, 1708.174
635.3969, 1707.854
635.8790, 1705.598
636.3611, 1702.470
636.8433, 1700.368
637.3254, 1699.968
637.8075, 1700.005
638.2896, 1699.925
638.7717, 1699.548
639.2538, 1698.320
639.7360, 1696.203
640.2181, 1694.111
640.7002, 1692.717
641.1823, 1691.832
641.6644, 1690.669
642.1465, 1689.229
642.6287, 1687.496
643.1108, 1684.530
643.5929, 1682.095
644.0750, 1682.036
644.5571, 1683.569
645.0392, 1684.156
645.5214, 1682.123
646.0035, 1679.355
646.4856, 1679.537
646.9677, 1682.653
647.4498, 1684.357
647.9319, 1683.471
648.4141, 1681.894
648.8962, 1680.989
649.3783, 1680.645
649.8604, 1680.526
650.3425, 1681.312
650.8246, 1681.328
651.3068, 1678.849
651.7889, 1675.779
652.2710, 1674.781
652.7531, 1675.953
653.2352, 1677.258
653.7173, 1677.084
654.1995, 1675.797
654.6816, 1674.890
655.1637, 1674.339
655.6458, 1674.235
656.1279, 1675.879
656.6100, 1676.882
657.0922, 1675.158
657.5743, 1671.495
658.0564, 1668.702
658.5385, 1668.125
659.0206, 1668.453
659.5027, 1669.045
659.9849, 1669.533
660.4670, 1668.606
660.9491, 1665.927
661.4312, 1662.897
661.9133, 1660.560
662.3954, 1658.981
662.8776, 1659.060
663.3597, 1663.312
663.8418, 1665.936
664.3239, 1665.159
664.8060, 1663.482
665.2881, 1663.002
665.7703, 1663.665
666.2524, 1664.159
666.7345, 1663.784
667.2166, 1662.574
667.6987, 1659.962
668.1808, 1656.026
668.6630, 1653.927
669.1451, 1654.905
669.6272, 1656.728
670.1093, 1657.370
670.5914, 1656.880
671.0735, 1656.325
671.5557, 1655.737
672.0378, 1655.044
672.5199, 1654.189
673.0020, 1653.233
673.4841, 1652.028
673.9662, 1650.709
674.4484, 1649.954
674.9305, 1650.476
675.4126, 1651.652
675.8947, 1651.108
676.3768, 1648.226
676.8589, 1646.429
677.3411, 1646.971
677.8232, 1648.186
678.3053, 1649.034
678.7874, 1649.473
679.2695, 1649.298
679.7516, 1648.669
680.2338, 1647.170
680.7159, 1643.180
681.1980, 1638.690
681.6801, 1637.342
682.1622, 1639.452
682.6443, 1641.912
683.1265, 1642.123
683.6086, 1640.638
684.0907, 1640.221
684.5728, 1641.359
685.0549, 1642.457
