##NAMES=Variscite
##RRUFFID=R100222
##IDEAL CHEMISTRY=AlPO_4_&#183;2H_2_O
##LOCALITY=Canarana, Mato Grosso, Brazil
##OWNER=RRUFF
##SOURCE=Luiz Menezes
##DESCRIPTION=Green blocky, combination of pseudo-octahedral and pseudo-cubes on quartz
##STATUS=The identification of this mineral has been confirmed by single-crystal X-ray diffraction.
##URL=rruff.info/R100222
179.7447, 6690.065
180.2268, 6716.911
180.7090, 6734.358
181.1911, 6744.248
181.6732, 6751.888
182.1553, 6757.090
182.6374, 6762.055
183.1195, 6772.244
183.6017, 6788.591
184.0838, 6806.179
184.5659, 6819.458
185.0480, 6829.047
185.5301, 6838.805
186.0123, 6849.581
186.4944, 6861.747
186.9765, 6876.533
187.4586, 6894.314
187.9407, 6913.579
188.4228, 6932.076
188.9050, 6949.831
189.3871, 6968.817
189.8692, 6989.654
190.3513, 7012.202
190.8334, 7037.416
191.3155, 7066.115
191.7977, 7095.159
192.2798, 7119.364
192.7619, 7138.815
193.2440, 7156.825
193.7261, 7175.163
194.2082, 7193.784
194.6904, 7212.092
195.1725, 7229.861
195.6546, 7247.915
196.1367, 7266.878
196.6188, 7286.822
197.1009, 7307.979
197.5831, 7332.587
198.0652, 7360.808
198.5473, 7381.384
199.0294, 7392.513
199.5115, 7397.308
199.9937, 7402.689
200.4758, 7409.248
200.9579, 7411.905
201.4400, 7405.744
201.9221, 7389.803
202.4042, 7377.615
202.8864, 7370.052
203.3685, 7366.342
203.8506, 7365.183
204.3327, 7366.866
204.8148, 7369.742
205.2969, 7372.427
205.7791, 7374.438
206.2612, 7379.920
206.7433, 7390.062
207.2254, 7403.056
207.7075, 7414.255
208.1896, 7423.225
208.6718, 7431.816
209.1539, 7441.448
209.6360, 7452.550
210.1181, 7462.023
210.6002, 7468.705
211.0823, 7474.365
211.5645, 7484.650
212.0466, 7501.840
212.5287, 7518.822
213.0108, 7531.089
213.4929, 7536.896
213.9750, 7545.640
214.4572, 7558.339
214.9393, 7574.123
215.4214, 7590.741
215.9035, 7607.892
216.3856, 7626.547
216.8678, 7647.264
217.3499, 7671.351
217.8320, 7693.054
218.3141, 7709.538
218.7962, 7723.750
219.2783, 7745.627
219.7605, 7777.462
220.2426, 7811.923
220.7247, 7844.005
221.2068, 7870.166
221.6889, 7903.498
222.1710, 7945.064
222.6532, 7993.993
223.1353, 8046.938
223.6174, 8107.636
224.0995, 8167.351
224.5816, 8221.976
225.0637, 8272.076
225.5459, 8317.959
226.0280, 8362.452
226.5101, 8402.420
226.9922, 8427.860
227.4743, 8442.121
227.9564, 8437.224
228.4386, 8406.779
228.9207, 8341.195
229.4028, 8274.153
229.8849, 8204.026
230.3670, 8133.076
230.8492, 8064.843
231.3313, 7996.880
231.8134, 7936.248
232.2955, 7885.451
232.7776, 7846.389
233.2597, 7815.291
233.7419, 7794.498
234.2240, 7781.069
234.7061, 7767.483
235.1882, 7751.494
235.6703, 7739.080
236.1524, 7733.483
236.6346, 7739.140
237.1167, 7741.640
237.5988, 7739.830
238.0809, 7735.336
238.5630, 7731.727
239.0451, 7728.755
239.5273, 7726.884
240.0094, 7726.184
240.4915, 7726.425
240.9736, 7728.098
241.4557, 7732.067
241.9378, 7736.840
242.4200, 7739.196
242.9021, 7737.336
243.3842, 7735.672
243.8663, 7736.063
244.3484, 7739.600
244.8306, 7741.867
245.3127, 7742.927
245.7948, 7742.693
246.2769, 7740.407
246.7590, 7733.306
247.2411, 7729.023
247.7233, 7731.104
248.2054, 7742.124
248.6875, 7749.940
249.1696, 7752.626
249.6517, 7753.471
250.1338, 7758.045
250.6160, 7768.630
251.0981, 7778.987
251.5802, 7786.873
252.0623, 7791.672
252.5444, 7797.517
253.0265, 7804.282
253.5087, 7812.236
253.9908, 7822.567
254.4729, 7839.089
254.9550, 7850.372
255.4371, 7851.107
255.9192, 7839.141
256.4014, 7834.853
256.8835, 7842.133
257.3656, 7853.231
257.8477, 7858.315
258.3298, 7853.919
258.8120, 7851.274
259.2941, 7853.634
259.7762, 7861.345
260.2583, 7867.884
260.7404, 7873.450
261.2225, 7877.438
261.7047, 7879.200
262.1868, 7878.210
262.6689, 7875.756
263.1510, 7871.124
263.6331, 7864.421
264.1152, 7860.976
264.5974, 7861.907
265.0795, 7864.368
265.5616, 7865.752
266.0437, 7865.925
266.5258, 7865.714
267.0079, 7864.771
267.4901, 7863.530
267.9722, 7865.391
268.4543, 7871.284
268.9364, 7878.911
269.4185, 7886.995
269.9006, 7896.159
270.3828, 7903.387
270.8649, 7907.719
271.3470, 7909.815
271.8291, 7913.171
272.3112, 7918.267
272.7933, 7922.935
273.2755, 7926.062
273.7576, 7927.837
274.2397, 7925.208
274.7218, 7915.958
275.2039, 7902.909
275.6860, 7895.013
276.1682, 7892.930
276.6503, 7893.266
277.1324, 7895.371
277.6145, 7899.796
278.0966, 7899.650
278.5787, 7893.137
279.0609, 7883.833
279.5430, 7879.315
280.0251, 7880.226
280.5072, 7883.629
280.9893, 7888.523
281.4715, 7894.953
281.9536, 7901.692
282.4357, 7908.477
282.9178, 7915.894
283.3999, 7925.025
283.8820, 7935.791
284.3642, 7947.161
284.8463, 7959.380
285.3284, 7972.037
285.8105, 7980.466
286.2926, 7983.188
286.7747, 7985.660
287.2569, 7997.546
287.7390, 8018.292
288.2211, 8035.774
288.7032, 8043.050
289.1853, 8042.692
289.6674, 8046.394
290.1496, 8054.517
290.6317, 8064.833
291.1138, 8075.792
291.5959, 8087.314
292.0780, 8098.029
292.5602, 8108.720
293.0423, 8118.138
293.5244, 8122.505
294.0065, 8121.749
294.4886, 8118.532
294.9707, 8113.697
295.4529, 8108.047
295.9350, 8104.807
296.4171, 8106.186
296.8992, 8109.065
297.3813, 8107.034
297.8634, 8100.540
298.3456, 8094.462
298.8277, 8094.576
299.3098, 8097.780
299.7919, 8096.667
300.2740, 8088.107
300.7561, 8077.534
301.2383, 8072.493
301.7204, 8072.001
302.2025, 8071.927
302.6846, 8068.100
303.1667, 8063.472
303.6488, 8063.047
304.1310, 8068.594
304.6131, 8075.247
305.0952, 8078.518
305.5773, 8079.018
306.0594, 8078.410
306.5415, 8074.713
307.0237, 8071.723
307.5058, 8074.722
307.9879, 8085.064
308.4700, 8095.127
308.9521, 8097.529
309.4343, 8095.810
309.9164, 8096.275
310.3985, 8102.677
310.8806, 8111.568
311.3627, 8120.876
311.8448, 8130.584
312.3270, 8139.721
312.8091, 8147.353
313.2912, 8154.237
313.7733, 8161.278
314.2554, 8169.453
314.7375, 8177.321
315.2197, 8183.954
315.7018, 8189.529
316.1839, 8195.022
316.6660, 8200.467
317.1481, 8206.285
317.6302, 8212.807
318.1124, 8221.067
318.5945, 8228.878
319.0766, 8235.454
319.5587, 8240.995
320.0408, 8246.309
320.5229, 8249.865
321.0051, 8254.492
321.4872, 8261.966
321.9693, 8273.835
322.4514, 8285.982
322.9335, 8298.387
323.4156, 8310.462
323.8978, 8321.089
324.3799, 8327.836
324.8620, 8335.074
325.3441, 8344.659
325.8262, 8357.561
326.3083, 8369.893
326.7905, 8384.948
327.2726, 8398.176
327.7547, 8403.806
328.2368, 8393.950
328.7189, 8384.591
329.2010, 8378.660
329.6832, 8376.472
330.1653, 8374.749
330.6474, 8371.816
331.1295, 8370.576
331.6116, 8373.717
332.0938, 8385.579
332.5759, 8394.819
333.0580, 8398.771
333.5401, 8398.376
334.0222, 8400.588
334.5043, 8406.329
334.9865, 8413.354
335.4686, 8420.562
335.9507, 8428.303
336.4328, 8435.295
336.9149, 8441.738
337.3970, 8447.333
337.8792, 8450.060
338.3613, 8447.788
338.8434, 8448.837
339.3255, 8459.223
339.8076, 8481.265
340.2898, 8494.951
340.7719, 8498.622
341.2540, 8497.292
341.7361, 8497.772
342.2182, 8500.146
342.7003, 8504.046
343.1825, 8509.737
343.6646, 8516.984
344.1467, 8524.170
344.6288, 8531.549
345.1109, 8537.749
345.5930, 8538.541
346.0752, 8534.998
346.5573, 8539.515
347.0394, 8559.133
347.5215, 8584.956
348.0036, 8595.406
348.4857, 8590.717
348.9679, 8585.499
349.4500, 8593.843
349.9321, 8610.391
350.4142, 8618.940
350.8963, 8615.558
351.3784, 8607.431
351.8606, 8602.099
352.3427, 8599.557
352.8248, 8599.678
353.3069, 8605.711
353.7890, 8613.153
354.2711, 8615.806
354.7533, 8613.012
355.2354, 8607.555
355.7175, 8599.994
356.1996, 8591.628
356.6817, 8584.698
357.1638, 8582.403
357.6460, 8580.236
358.1281, 8573.084
358.6102, 8561.507
359.0923, 8552.679
359.5744, 8553.098
360.0565, 8557.246
360.5387, 8559.733
361.0208, 8557.666
361.5029, 8555.453
361.9850, 8555.165
362.4671, 8556.326
362.9492, 8557.486
363.4314, 8558.115
363.9135, 8558.661
364.3956, 8559.565
364.8777, 8561.572
365.3598, 8562.404
365.8419, 8559.004
366.3241, 8554.760
366.8062, 8554.772
367.2883, 8563.857
367.7704, 8573.274
368.2526, 8581.236
368.7347, 8587.884
369.2168, 8591.681
369.6989, 8589.362
370.1810, 8586.195
370.6631, 8586.483
371.1453, 8591.699
371.6274, 8598.310
372.1095, 8607.161
372.5916, 8617.547
373.0737, 8624.206
373.5558, 8624.849
374.0380, 8625.189
374.5201, 8628.778
375.0022, 8637.123
375.4843, 8643.183
375.9664, 8645.390
376.4485, 8646.369
376.9307, 8651.894
377.4128, 8662.896
377.8949, 8674.198
378.3770, 8683.110
378.8591, 8689.801
379.3412, 8699.978
379.8234, 8714.565
380.3055, 8729.030
380.7876, 8737.154
381.2697, 8739.408
381.7518, 8742.772
382.2339, 8750.325
382.7161, 8759.295
383.1982, 8762.228
383.6803, 8759.324
384.1624, 8756.343
384.6445, 8758.209
385.1266, 8763.271
385.6088, 8767.498
386.0909, 8770.290
386.5730, 8772.179
387.0551, 8773.766
387.5372, 8774.928
388.0193, 8775.310
388.5015, 8772.916
388.9836, 8770.547
389.4657, 8771.818
389.9478, 8776.996
390.4299, 8782.251
390.9120, 8783.544
391.3942, 8783.808
391.8763, 8786.689
392.3584, 8797.022
392.8405, 8806.853
393.3226, 8810.683
393.8047, 8809.995
394.2869, 8811.487
394.7690, 8818.786
395.2511, 8828.429
395.7332, 8838.729
396.2154, 8850.933
396.6975, 8860.687
397.1796, 8865.577
397.6617, 8867.803
398.1438, 8871.071
398.6259, 8875.612
399.1081, 8881.480
399.5902, 8889.932
400.0723, 8901.955
400.5544, 8908.893
401.0365, 8904.012
401.5186, 8898.848
402.0008, 8903.790
402.4829, 8927.980
402.9650, 8944.193
403.4471, 8945.444
403.9292, 8936.429
404.4113, 8937.749
404.8935, 8953.107
405.3756, 8970.234
405.8577, 8982.976
406.3398, 8990.766
406.8219, 8997.998
407.3040, 9004.708
407.7862, 9011.239
408.2683, 9017.751
408.7504, 9024.304
409.2325, 9032.628
409.7146, 9043.103
410.1967, 9056.001
410.6789, 9073.154
411.1610, 9094.741
411.6431, 9118.705
412.1252, 9144.239
412.6073, 9170.709
413.0894, 9195.766
413.5716, 9217.788
414.0537, 9239.578
414.5358, 9266.192
415.0179, 9295.478
415.5000, 9321.476
415.9821, 9340.652
416.4643, 9354.440
416.9464, 9363.747
417.4285, 9368.348
417.9106, 9369.520
418.3927, 9364.278
418.8748, 9357.146
419.3570, 9353.632
419.8391, 9358.110
420.3212, 9364.032
420.8033, 9368.300
421.2854, 9371.616
421.7675, 9377.157
422.2497, 9388.501
422.7318, 9400.639
423.2139, 9410.815
423.6960, 9417.813
424.1781, 9425.261
424.6602, 9432.400
425.1424, 9440.697
425.6245, 9452.153
426.1066, 9467.049
426.5887, 9484.568
427.0709, 9504.667
427.5530, 9527.287
428.0351, 9551.188
428.5172, 9576.864
428.9993, 9603.287
429.4814, 9630.264
429.9636, 9658.553
430.4457, 9683.650
430.9278, 9703.829
431.4099, 9721.865
431.8920, 9743.316
432.3741, 9768.376
432.8563, 9796.790
433.3384, 9830.878
433.8205, 9869.271
434.3026, 9902.024
434.7847, 9929.317
435.2668, 9951.073
435.7490, 9965.843
436.2311, 9974.815
436.7132, 9981.892
437.1953, 9988.965
437.6774, 9993.411
438.1595, 9994.087
438.6417, 9989.935
439.1238, 9976.516
439.6059, 9944.978
440.0880, 9906.057
440.5701, 9871.902
441.0522, 9844.659
441.5344, 9815.640
442.0165, 9779.884
442.4986, 9739.084
442.9807, 9695.438
443.4628, 9644.612
443.9449, 9596.006
444.4271, 9553.735
444.9092, 9517.062
445.3913, 9481.356
445.8734, 9443.715
446.3555, 9408.840
446.8376, 9379.438
447.3198, 9357.808
447.8019, 9337.337
448.2840, 9317.856
448.7661, 9299.553
449.2482, 9282.810
449.7303, 9268.181
450.2125, 9254.530
450.6946, 9241.770
451.1767, 9229.824
451.6588, 9217.497
452.1409, 9203.588
452.6230, 9191.975
453.1052, 9187.239
453.5873, 9190.199
454.0694, 9187.757
454.5515, 9177.353
455.0337, 9164.348
455.5158, 9158.688
455.9979, 9159.784
456.4800, 9160.112
456.9621, 9154.438
457.4442, 9146.328
457.9264, 9145.509
458.4085, 9151.737
458.8906, 9157.854
459.3727, 9157.607
459.8548, 9153.588
460.3369, 9149.589
460.8191, 9145.920
461.3012, 9143.840
461.7833, 9145.905
462.2654, 9150.343
462.7475, 9153.377
463.2296, 9150.924
463.7118, 9148.662
464.1939, 9150.241
464.6760, 9155.889
465.1581, 9161.022
465.6402, 9164.250
466.1223, 9166.156
466.6045, 9167.058
467.0866, 9163.723
467.5687, 9163.106
468.0508, 9167.049
468.5329, 9173.657
469.0150, 9179.002
469.4972, 9183.184
469.9793, 9185.800
470.4614, 9186.100
470.9435, 9183.918
471.4256, 9184.118
471.9077, 9187.729
472.3899, 9191.984
472.8720, 9193.634
473.3541, 9192.294
473.8362, 9194.940
474.3183, 9204.037
474.8004, 9215.292
475.2826, 9219.134
475.7647, 9216.077
476.2468, 9213.755
476.7289, 9216.759
477.2110, 9223.017
477.6931, 9227.784
478.1753, 9230.989
478.6574, 9234.521
479.1395, 9241.994
479.6216, 9250.192
480.1037, 9253.893
480.5858, 9249.538
481.0680, 9244.675
481.5501, 9246.010
482.0322, 9250.705
482.5143, 9252.760
482.9964, 9246.899
483.4786, 9240.597
483.9607, 9238.097
484.4428, 9240.099
484.9249, 9240.472
485.4070, 9236.801
485.8892, 9231.982
486.3713, 9227.921
486.8534, 9221.322
487.3355, 9220.701
487.8176, 9230.171
488.2997, 9244.358
488.7819, 9251.350
489.2640, 9247.416
489.7461, 9244.593
490.2282, 9247.580
490.7103, 9255.798
491.1924, 9259.158
491.6746, 9256.420
492.1567, 9253.614
492.6388, 9257.058
493.1209, 9265.857
493.6030, 9271.994
494.0851, 9274.037
494.5673, 9274.103
495.0494, 9274.697
495.5315, 9275.777
496.0136, 9277.221
496.4957, 9278.569
496.9778, 9280.548
497.4600, 9285.028
497.9421, 9291.646
498.4242, 9296.745
498.9063, 9295.964
499.3884, 9294.049
499.8705, 9295.875
500.3527, 9305.076
500.8348, 9311.324
501.3169, 9307.784
501.7990, 9299.919
502.2811, 9295.407
502.7632, 9300.293
503.2454, 9303.792
503.7275, 9303.063
504.2096, 9298.565
504.6917, 9294.592
505.1738, 9290.896
505.6559, 9288.325
506.1381, 9287.520
506.6202, 9288.897
507.1023, 9290.802
507.5844, 9293.134
508.0665, 9296.378
508.5486, 9300.794
509.0308, 9306.370
509.5129, 9314.560
509.9950, 9327.002
510.4771, 9340.786
510.9592, 9348.843
511.4413, 9351.574
511.9235, 9354.605
512.4056, 9362.473
512.8877, 9372.279
513.3698, 9379.025
513.8519, 9381.979
514.3340, 9386.285
514.8162, 9400.449
515.2983, 9416.409
515.7804, 9424.263
516.2625, 9415.175
516.7446, 9405.239
517.2267, 9399.337
517.7089, 9397.547
518.1910, 9400.016
518.6731, 9414.315
519.1552, 9426.123
519.6373, 9428.544
520.1194, 9420.315
520.6016, 9417.139
521.0837, 9421.364
521.5658, 9427.891
522.0479, 9432.763
522.5300, 9434.652
523.0121, 9439.702
523.4943, 9449.708
523.9764, 9461.045
524.4585, 9466.150
524.9406, 9464.755
525.4227, 9465.118
525.9048, 9470.358
526.3870, 9479.337
526.8691, 9491.491
527.3513, 9506.463
527.8334, 9517.746
528.3155, 9518.545
528.7976, 9513.685
529.2797, 9509.529
529.7618, 9506.615
530.2440, 9505.912
530.7261, 9510.097
531.2082, 9516.218
531.6903, 9520.437
532.1724, 9518.689
532.6545, 9517.781
533.1367, 9520.290
533.6188, 9525.451
534.1009, 9530.590
534.5830, 9537.479
535.0651, 9542.123
535.5472, 9542.239
536.0294, 9536.779
536.5115, 9535.171
536.9936, 9539.994
537.4757, 9545.183
537.9578, 9544.349
538.4399, 9535.691
538.9221, 9533.407
539.4042, 9540.917
539.8863, 9551.896
540.3684, 9553.875
540.8505, 9547.678
541.3326, 9543.431
541.8148, 9546.584
542.2969, 9553.389
542.7790, 9557.564
543.2611, 9559.291
543.7432, 9560.100
544.2253, 9560.363
544.7075, 9560.611
545.1896, 9561.411
545.6717, 9562.896
546.1538, 9564.669
546.6359, 9564.938
547.1180, 9566.075
547.6002, 9570.603
548.0823, 9582.729
548.5644, 9594.121
549.0465, 9603.489
549.5286, 9611.069
550.0107, 9617.543
550.4929, 9622.573
550.9750, 9626.801
551.4571, 9630.047
551.9392, 9632.265
552.4213, 9635.519
552.9034, 9639.873
553.3856, 9644.949
553.8677, 9651.872
554.3498, 9660.140
554.8319, 9662.967
555.3140, 9658.694
555.7961, 9652.504
556.2783, 9650.456
556.7604, 9651.972
557.2425, 9655.611
557.7246, 9662.616
558.2067, 9669.848
558.6888, 9674.790
559.1710, 9677.579
559.6531, 9678.359
560.1352, 9675.708
560.6173, 9672.368
561.0994, 9669.232
561.5815, 9666.069
562.0637, 9666.064
562.5458, 9673.021
563.0279, 9681.265
563.5100, 9686.781
563.9921, 9689.240
564.4742, 9688.956
564.9564, 9684.029
565.4385, 9677.615
565.9206, 9675.252
566.4027, 9677.416
566.8848, 9680.797
567.3669, 9684.813
567.8491, 9689.073
568.3312, 9692.872
568.8133, 9696.137
569.2954, 9697.295
569.7775, 9693.831
570.2596, 9688.036
570.7418, 9684.565
571.2239, 9683.786
571.7060, 9682.582
572.1881, 9677.688
572.6702, 9671.547
573.1523, 9666.897
573.6345, 9665.401
574.1166, 9663.859
574.5987, 9660.935
575.0808, 9657.268
575.5629, 9653.854
576.0450, 9651.777
576.5272, 9648.933
577.0093, 9644.486
577.4914, 9638.821
577.9735, 9634.126
578.4556, 9630.101
578.9377, 9627.946
579.4199, 9629.267
579.9020, 9634.243
580.3841, 9636.106
580.8662, 9634.548
581.3483, 9632.234
581.8304, 9631.179
582.3126, 9631.552
582.7947, 9634.328
583.2768, 9640.491
583.7589, 9646.606
584.2410, 9646.634
584.7231, 9644.006
585.2053, 9645.565
585.6874, 9656.403
586.1696, 9669.827
586.6517, 9685.002
587.1338, 9700.313
587.6159, 9709.463
588.0980, 9704.185
588.5801, 9697.901
589.0623, 9696.482
589.5444, 9700.718
590.0265, 9704.642
590.5086, 9710.059
590.9907, 9712.998
591.4728, 9709.250
591.9550, 9697.503
592.4371, 9688.753
592.9192, 9683.910
593.4013, 9682.841
593.8834, 9687.774
594.3655, 9697.580
594.8477, 9703.913
595.3298, 9702.018
595.8119, 9698.166
596.2940, 9701.509
596.7761, 9710.223
597.2582, 9718.250
597.7404, 9720.176
598.2225, 9721.731
598.7046, 9727.327
599.1867, 9737.004
599.6688, 9746.047
600.1509, 9753.397
600.6331, 9759.204
601.1152, 9763.186
601.5973, 9764.149
602.0794, 9766.212
602.5615, 9770.762
603.0436, 9775.054
603.5258, 9775.262
604.0079, 9770.307
604.4900, 9767.829
604.9721, 9769.875
605.4542, 9774.176
605.9363, 9775.282
606.4185, 9773.856
606.9006, 9775.047
607.3827, 9783.465
607.8648, 9794.561
608.3469, 9800.895
608.8290, 9803.375
609.3112, 9806.637
609.7933, 9815.844
610.2754, 9825.140
610.7575, 9828.354
611.2396, 9823.302
611.7217, 9823.395
612.2039, 9837.457
612.6860, 9854.571
613.1681, 9866.703
613.6502, 9874.349
614.1323, 9874.942
614.6144, 9865.375
615.0966, 9851.279
615.5787, 9839.937
616.0608, 9831.409
616.5429, 9826.391
617.0250, 9826.314
617.5071, 9828.606
617.9893, 9828.166
618.4714, 9825.049
618.9535, 9819.188
619.4356, 9807.749
619.9177, 9795.159
620.3998, 9787.903
620.8820, 9785.494
621.3641, 9782.560
621.8462, 9773.406
622.3283, 9764.322
622.8104, 9760.093
623.2925, 9762.021
623.7747, 9765.307
624.2568, 9772.210
624.7389, 9777.871
625.2210, 9777.797
625.7031, 9767.132
626.1852, 9761.562
626.6674, 9764.013
627.1495, 9769.450
627.6316, 9768.707
628.1137, 9761.459
628.5958, 9756.474
629.0779, 9757.296
629.5601, 9760.813
630.0422, 9761.526
630.5243, 9759.692
631.0064, 9756.196
631.4885, 9748.059
631.9706, 9741.014
632.4528, 9742.546
632.9349, 9751.976
633.4170, 9759.113
633.8991, 9756.362
634.3812, 9752.422
634.8633, 9752.994
635.3455, 9760.800
635.8276, 9766.112
636.3097, 9766.096
636.7918, 9765.812
637.2739, 9769.785
637.7560, 9779.038
638.2382, 9787.983
638.7203, 9796.410
639.2024, 9803.313
639.6845, 9805.798
640.1666, 9804.495
640.6487, 9805.688
641.1309, 9812.455
641.6130, 9820.646
642.0951, 9823.669
642.5772, 9823.134
643.0594, 9823.639
643.5415, 9830.991
644.0236, 9836.946
644.5057, 9834.810
644.9879, 9825.597
645.4700, 9819.521
645.9521, 9823.198
646.4342, 9827.067
646.9163, 9827.840
647.3984, 9825.991
647.8806, 9818.812
648.3627, 9804.297
648.8448, 9788.772
649.3269, 9776.341
649.8090, 9767.168
650.2911, 9763.268
650.7733, 9765.458
651.2554, 9770.038
651.7375, 9769.535
652.2196, 9768.056
652.7017, 9777.129
653.1838, 9805.963
653.6660, 9834.045
654.1481, 9843.848
654.6302, 9841.921
655.1123, 9840.026
655.5944, 9840.544
656.0765, 9842.802
656.5587, 9847.017
657.0408, 9852.674
657.5229, 9857.978
658.0050, 9861.980
658.4871, 9866.795
658.9692, 9873.989
659.4514, 9882.984
659.9335, 9887.885
660.4156, 9888.583
660.8977, 9886.067
661.3798, 9878.598
661.8619, 9868.762
662.3441, 9863.459
662.8262, 9863.210
663.3083, 9865.338
663.7904, 9869.877
664.2725, 9874.752
664.7546, 9878.004
665.2368, 9879.994
665.7189, 9878.717
666.2010, 9870.825
666.6831, 9860.740
667.1652, 9853.416
667.6473, 9848.035
668.1295, 9847.600
668.6116, 9854.505
669.0937, 9865.004
669.5758, 9871.868
670.0579, 9874.941
670.5400, 9876.107
671.0222, 9875.646
671.5043, 9873.671
671.9864, 9867.240
672.4685, 9858.153
672.9506, 9855.858
673.4327, 9873.931
673.9149, 9894.818
674.3970, 9900.688
674.8791, 9893.288
675.3612, 9888.198
675.8433, 9893.824
676.3254, 9901.467
676.8076, 9907.324
677.2897, 9911.402
