##NAMES=Variscite
##RRUFFID=R050467
##IDEAL CHEMISTRY=AlPO_4_&#183;2H_2_O
##LOCALITY=Garland County, Arkansas, USA
##OWNER=RRUFF
##SOURCE=University of Arizona Mineral Museum
##DESCRIPTION=Green crust of flattened crystals
##STATUS=The identification of this mineral is confirmed by single-crystal X-ray diffraction and chemical analysis.
##URL=rruff.info/R050467
##MEASURED CHEMISTRY=Al_1.00_(P_0.98_V_0.02_)_Σ=1_O_4_·2H_2_O
93.78320, 67.95088
94.26532, 67.92569
94.74744, 68.18888
95.22955, 68.57137
95.71167, 69.07179
96.19379, 69.29446
96.67590, 69.30645
97.15802, 69.36134
97.64014, 69.38852
98.12225, 69.48259
98.60437, 69.84636
99.08649, 70.60832
99.56860, 71.63149
100.0507, 72.71129
100.5328, 73.79098
101.0150, 74.69901
101.4971, 75.28403
101.9792, 75.55165
102.4613, 75.75312
102.9434, 75.96607
103.4255, 76.14464
103.9077, 76.19312
104.3898, 76.03122
104.8719, 75.86832
105.3540, 76.14498
105.8361, 77.05016
106.3182, 78.10165
106.8004, 79.28233
107.2825, 80.49317
107.7646, 81.58967
108.2467, 82.46007
108.7288, 83.13614
109.2109, 84.07872
109.6931, 85.11145
110.1752, 86.57594
110.6573, 88.82085
111.1394, 91.63515
111.6215, 94.49491
112.1036, 96.91788
112.5858, 98.83949
113.0679, 100.8507
113.5500, 102.6967
114.0321, 104.7742
114.5142, 107.3363
114.9964, 110.4235
115.4785, 113.9857
115.9606, 118.0166
116.4427, 122.4750
116.9248, 127.3569
117.4069, 132.7631
117.8891, 138.5788
118.3712, 144.7356
118.8533, 151.4718
119.3354, 158.0959
119.8175, 164.8000
120.2996, 171.4789
120.7818, 176.0715
121.2639, 177.3948
121.7460, 175.4552
122.2281, 170.0666
122.7102, 158.1424
123.1923, 144.4806
123.6745, 130.6827
124.1566, 117.2159
124.6387, 104.9320
125.1208, 95.01787
125.6029, 88.05795
126.0850, 82.57647
126.5672, 78.64022
127.0493, 75.64758
127.5314, 73.22057
128.0135, 71.18156
128.4956, 69.51836
128.9777, 68.16237
129.4599, 67.37270
129.9420, 66.64848
130.4241, 65.89935
130.9062, 65.20148
131.3883, 64.63910
131.8705, 64.23669
132.3526, 64.03622
132.8347, 64.26453
133.3168, 65.27953
133.7989, 66.26322
134.2810, 66.76118
134.7632, 66.86980
135.2453, 67.10680
135.7274, 67.83215
136.2095, 68.97207
136.6916, 70.11937
137.1737, 71.09407
137.6559, 72.16990
138.1380, 73.69193
138.6201, 75.73470
139.1022, 77.88795
139.5843, 79.83171
140.0664, 81.73117
140.5486, 83.84807
141.0307, 86.58855
141.5128, 89.58965
141.9949, 91.76382
142.4770, 93.05370
142.9591, 93.45455
143.4413, 93.14326
143.9234, 92.10127
144.4055, 90.23317
144.8876, 87.26627
145.3697, 83.19744
145.8518, 79.58232
146.3340, 76.75813
146.8161, 74.14078
147.2982, 71.63588
147.7803, 69.20360
148.2624, 66.79985
148.7445, 64.31564
149.2267, 61.61442
149.7088, 59.54878
150.1909, 58.30163
150.6730, 57.37858
151.1551, 56.56648
151.6372, 55.80836
152.1194, 55.10606
152.6015, 54.44111
153.0836, 53.76748
153.5657, 53.34285
154.0478, 53.33548
154.5299, 53.49527
155.0121, 53.54072
155.4942, 53.38958
155.9763, 53.24137
156.4584, 53.46582
156.9405, 54.09018
157.4227, 54.64973
157.9048, 54.96874
158.3869, 55.13783
158.8690, 55.33435
159.3511, 55.58194
159.8332, 55.91673
160.3154, 56.39238
160.7975, 57.01032
161.2796, 57.63960
161.7617, 58.24676
162.2438, 58.82608
162.7259, 59.22676
163.2081, 59.05545
163.6902, 59.00432
164.1723, 59.67970
164.6544, 61.13891
165.1365, 62.78551
165.6186, 63.97523
166.1008, 64.59711
166.5829, 65.23723
167.0650, 65.84422
167.5471, 66.59183
168.0292, 67.72317
168.5113, 69.26782
168.9935, 70.86863
169.4756, 71.87794
169.9577, 71.85023
170.4398, 72.07451
170.9219, 72.76022
171.4040, 73.63139
171.8862, 74.41609
172.3683, 75.02170
172.8504, 75.61093
173.3325, 76.58481
173.8146, 78.35493
174.2967, 80.04605
174.7789, 81.86552
175.2610, 83.52402
175.7431, 84.59573
176.2252, 84.87809
176.7073, 84.62575
177.1894, 84.67761
177.6716, 85.74315
178.1537, 86.22820
178.6358, 85.72352
179.1179, 84.43701
179.6000, 82.66228
180.0821, 80.42545
180.5643, 77.95407
181.0464, 75.96090
181.5285, 74.62651
182.0106, 73.37798
182.4927, 71.92204
182.9749, 70.30933
183.4570, 68.76579
183.9391, 67.39713
184.4212, 66.18138
184.9033, 65.01602
185.3854, 63.83696
185.8676, 62.81173
186.3497, 62.12165
186.8318, 61.77403
187.3139, 61.49896
187.7960, 61.08083
188.2781, 60.72924
188.7603, 60.71364
189.2424, 61.15793
189.7245, 61.78878
190.2066, 62.26936
190.6887, 62.57623
191.1708, 62.81449
191.6530, 62.87107
192.1351, 62.94585
192.6172, 63.19142
193.0993, 63.64664
193.5814, 64.34889
194.0635, 65.43957
194.5457, 67.21709
195.0278, 68.78189
195.5099, 69.87426
195.9920, 70.72842
196.4741, 71.56335
196.9562, 72.47652
197.4384, 73.42419
197.9205, 74.30730
198.4026, 75.31773
198.8847, 75.94653
199.3668, 75.93136
199.8489, 75.60001
200.3311, 75.29589
200.8132, 75.19099
201.2953, 75.24963
201.7774, 75.33151
202.2595, 75.32786
202.7416, 75.47890
203.2238, 75.58949
203.7059, 75.91618
204.1880, 76.88042
204.6701, 78.73484
205.1522, 81.27798
205.6344, 83.61449
206.1165, 85.51494
206.5986, 87.52530
207.0807, 89.85693
207.5628, 92.37510
208.0449, 94.79806
208.5271, 96.94444
209.0092, 98.93625
209.4913, 101.2479
209.9734, 103.9564
210.4555, 106.8039
210.9376, 109.6909
211.4198, 112.6384
211.9019, 115.7463
212.3840, 119.0519
212.8661, 122.5306
213.3482, 126.0294
213.8303, 129.2394
214.3125, 132.8951
214.7946, 137.6143
215.2767, 143.2363
215.7588, 148.7211
216.2409, 153.4087
216.7230, 157.8791
217.2052, 163.1647
217.6873, 169.3391
218.1694, 176.1443
218.6515, 183.4693
219.1336, 191.3341
219.6157, 199.4544
220.0979, 207.5996
220.5800, 216.1432
221.0621, 225.4863
221.5442, 235.7395
222.0263, 246.5357
222.5084, 257.8355
222.9906, 269.7993
223.4727, 281.0620
223.9548, 291.9065
224.4369, 301.2822
224.9190, 308.6444
225.4011, 313.9727
225.8833, 316.4098
226.3654, 314.8676
226.8475, 309.0971
227.3296, 300.4828
227.8117, 287.7446
228.2938, 273.2010
228.7760, 257.7169
229.2581, 241.5223
229.7402, 225.4999
230.2223, 210.6338
230.7044, 196.7338
231.1866, 184.5808
231.6687, 174.5499
232.1508, 165.9444
232.6329, 158.6091
233.1150, 152.4023
233.5971, 147.0659
234.0793, 142.2831
234.5614, 138.1881
235.0435, 134.3669
235.5256, 131.2137
236.0077, 127.9895
236.4898, 124.0662
236.9720, 119.4426
237.4541, 114.7205
237.9362, 110.7179
238.4183, 107.6694
238.9004, 104.9002
239.3825, 102.7202
239.8647, 100.5530
240.3468, 98.01047
240.8289, 95.04979
241.3110, 91.94601
241.7931, 88.96620
242.2752, 86.05797
242.7574, 83.55276
243.2395, 81.51241
243.7216, 79.76163
244.2037, 78.23415
244.6858, 76.90447
245.1679, 75.72778
245.6501, 74.65831
246.1322, 73.70922
246.6143, 72.86093
247.0964, 72.10874
247.5785, 71.44455
248.0606, 70.77483
248.5428, 70.13490
249.0249, 69.77126
249.5070, 70.00710
249.9891, 70.98351
250.4712, 71.47398
250.9533, 71.01664
251.4355, 70.46482
251.9176, 70.42873
252.3997, 70.91282
252.8818, 71.51026
253.3639, 71.93208
253.8460, 72.15043
254.3282, 72.13346
254.8103, 71.66654
255.2924, 71.14050
255.7745, 70.86295
256.2566, 70.81895
256.7387, 70.74043
257.2209, 70.40525
257.7030, 69.86221
258.1851, 69.47210
258.6672, 69.39954
259.1493, 69.34736
259.6314, 69.04542
260.1136, 68.52710
260.5957, 68.14511
261.0778, 68.26118
261.5599, 68.60669
262.0420, 68.38364
262.5241, 67.15896
263.0063, 65.86931
263.4884, 65.16340
263.9705, 64.99548
264.4526, 64.98660
264.9347, 65.05319
265.4168, 65.11766
265.8990, 64.99607
266.3811, 64.51878
266.8632, 64.21766
267.3453, 64.63226
267.8275, 65.66245
268.3096, 66.52917
268.7917, 66.94027
269.2738, 67.04387
269.7559, 67.08046
270.2380, 67.05518
270.7202, 66.95539
271.2023, 66.61524
271.6844, 66.11243
272.1665, 66.03915
272.6486, 66.88341
273.1307, 67.84335
273.6129, 68.09531
274.0950, 67.64481
274.5771, 67.08842
275.0592, 66.78992
275.5413, 66.71413
276.0234, 66.64689
276.5056, 66.48506
276.9877, 66.43453
277.4698, 66.72747
277.9519, 67.28986
278.4340, 67.75031
278.9161, 67.80891
279.3983, 67.55934
279.8804, 67.40282
280.3625, 67.29978
280.8446, 67.41072
281.3267, 67.83509
281.8088, 68.51020
282.2910, 69.30360
282.7731, 70.17773
283.2552, 71.11198
283.7373, 72.07716
284.2194, 73.20253
284.7015, 74.09554
285.1837, 74.34584
285.6658, 74.32533
286.1479, 74.66493
286.6300, 75.87521
287.1121, 77.39389
287.5942, 77.83482
288.0764, 76.73758
288.5585, 75.62549
289.0406, 75.07694
289.5227, 74.79593
290.0048, 74.45350
290.4869, 73.89091
290.9691, 73.35989
291.4512, 73.38290
291.9333, 74.20243
292.4154, 74.80177
292.8975, 74.80544
293.3796, 74.55694
293.8618, 74.31960
294.3439, 74.16043
294.8260, 73.90880
295.3081, 73.21870
295.7902, 71.91553
296.2723, 71.01095
296.7545, 71.22423
297.2366, 71.49768
297.7187, 71.22813
298.2008, 70.36804
298.6829, 69.26341
299.1650, 68.27965
299.6472, 67.44236
300.1293, 66.45590
300.6114, 65.16610
301.0935, 63.84252
301.5756, 62.55610
302.0577, 61.33472
302.5399, 60.19744
303.0220, 59.12155
303.5041, 58.11870
303.9862, 57.43143
304.4683, 57.23574
304.9504, 57.18660
305.4326, 57.16789
305.9147, 57.19447
306.3968, 57.31923
306.8789, 57.60345
307.3610, 57.99388
307.8431, 58.24856
308.3253, 58.28610
308.8074, 58.30835
309.2895, 58.25053
309.7716, 58.25183
310.2537, 58.50904
310.7358, 59.12811
311.2180, 59.95208
311.7001, 60.62161
312.1822, 61.05796
312.6643, 61.52286
313.1464, 61.87083
313.6285, 62.37484
314.1107, 63.35863
314.5928, 64.89214
315.0749, 66.60515
315.5570, 67.90297
316.0392, 68.59612
316.5213, 69.56574
317.0034, 71.04487
317.4855, 72.71938
317.9676, 74.49229
318.4497, 76.32105
318.9319, 78.13181
319.4140, 79.75065
319.8961, 81.11108
320.3782, 82.91129
320.8603, 85.59643
321.3424, 88.32706
321.8246, 90.74693
322.3067, 92.94631
322.7888, 95.27262
323.2709, 98.13786
323.7530, 101.3643
324.2351, 103.5237
324.7173, 104.2393
325.1994, 104.3030
325.6815, 104.0631
326.1636, 103.3945
326.6457, 102.0606
327.1278, 99.89340
327.6100, 97.14478
328.0921, 94.34105
328.5742, 91.32037
329.0563, 88.60420
329.5384, 86.15979
330.0205, 84.10474
330.5027, 82.64870
330.9848, 81.84106
331.4669, 81.34785
331.9490, 80.65115
332.4311, 79.62465
332.9132, 78.95381
333.3954, 78.99893
333.8775, 79.24844
334.3596, 79.43253
334.8417, 79.54192
335.3238, 79.74704
335.8059, 80.28271
336.2881, 81.15737
336.7702, 81.83293
337.2523, 82.10920
337.7344, 82.39089
338.2165, 82.95539
338.6986, 83.67329
339.1808, 84.22243
339.6629, 84.29757
340.1450, 84.08035
340.6271, 84.31129
341.1092, 85.28716
341.5913, 86.13706
342.0735, 86.44686
342.5556, 86.48647
343.0377, 86.56876
343.5198, 86.80828
344.0019, 87.13950
344.4840, 87.49387
344.9662, 87.90999
345.4483, 88.19081
345.9304, 88.02747
346.4125, 87.85223
346.8946, 88.04662
347.3767, 88.66794
347.8589, 89.30451
348.3410, 89.56973
348.8231, 89.47095
349.3052, 89.22124
349.7873, 88.53416
350.2694, 88.08043
350.7516, 88.50217
351.2337, 89.59940
351.7158, 90.51067
352.1979, 90.69054
352.6800, 90.28780
353.1621, 89.71249
353.6443, 88.81235
354.1264, 88.10816
354.6085, 88.30184
355.0906, 88.81699
355.5727, 88.67706
356.0548, 87.29214
356.5370, 85.44193
357.0191, 84.12584
357.5012, 83.37952
357.9833, 82.85890
358.4654, 82.64648
358.9475, 82.46448
359.4297, 81.91386
359.9118, 80.86429
360.3939, 79.89787
360.8760, 79.46983
361.3581, 79.50838
361.8402, 79.64998
362.3224, 79.83340
362.8045, 80.06843
363.2866, 80.51189
363.7687, 81.12083
364.2508, 81.34039
364.7329, 80.60677
365.2151, 79.45232
365.6972, 78.81480
366.1793, 78.83292
366.6614, 78.98787
367.1436, 78.97311
367.6257, 78.78635
368.1078, 78.42032
368.5899, 77.61515
369.0720, 76.84215
369.5541, 76.48820
370.0363, 76.51916
370.5184, 76.72648
371.0005, 77.04031
371.4826, 77.45557
371.9647, 77.96935
372.4468, 78.63855
372.9290, 79.24841
373.4111, 79.61313
373.8932, 79.88029
374.3753, 80.34380
374.8574, 81.09866
375.3395, 81.93799
375.8217, 82.57655
376.3038, 82.98075
376.7859, 83.48260
377.2680, 84.21767
377.7501, 84.99148
378.2322, 85.58644
378.7144, 86.01842
379.1965, 86.53690
379.6786, 87.36203
380.1607, 88.45457
380.6428, 89.36897
381.1249, 90.04905
381.6071, 90.63680
382.0892, 91.15036
382.5713, 91.61299
383.0534, 92.14323
383.5355, 92.82177
384.0176, 93.39526
384.4998, 93.29402
384.9819, 91.83952
385.4640, 90.79762
385.9461, 90.38414
386.4282, 90.28870
386.9103, 90.36398
387.3925, 90.53019
387.8746, 90.61279
388.3567, 90.40118
388.8388, 89.83364
389.3209, 89.42079
389.8030, 89.20334
390.2852, 89.06809
390.7673, 89.05385
391.2494, 89.08327
391.7315, 88.99559
392.2136, 88.68387
392.6957, 88.23733
393.1779, 87.99909
393.6600, 87.97960
394.1421, 88.18909
394.6242, 88.73470
395.1063, 89.43050
395.5884, 90.11298
396.0706, 90.74199
396.5527, 91.36919
397.0348, 92.05992
397.5169, 92.80428
397.9990, 93.63602
398.4811, 94.56595
398.9633, 95.57011
399.4454, 96.81368
399.9275, 98.13768
400.4096, 99.14722
400.8917, 99.43436
401.3738, 99.26052
401.8560, 99.77404
402.3381, 101.2128
402.8202, 102.9197
403.3023, 104.7938
403.7844, 106.7589
404.2665, 108.7473
404.7487, 110.7396
405.2308, 112.7556
405.7129, 114.8254
406.1950, 116.9679
406.6771, 119.0408
407.1592, 120.8716
407.6414, 122.7736
408.1235, 124.9298
408.6056, 127.3362
409.0877, 129.9440
409.5698, 132.9365
410.0519, 136.0676
410.5341, 138.6833
411.0162, 140.6111
411.4983, 142.5902
411.9804, 145.1036
412.4625, 147.9540
412.9446, 150.8645
413.4268, 154.0151
413.9089, 156.8366
414.3910, 158.7830
414.8731, 159.9627
415.3553, 160.8751
415.8374, 161.6370
416.3195, 162.2630
416.8016, 162.6686
417.2837, 162.8155
417.7658, 163.2462
418.2480, 164.6027
418.7301, 166.0546
419.2122, 166.3694
419.6943, 165.4844
420.1764, 164.7956
420.6585, 165.4602
421.1407, 167.3712
421.6228, 168.9664
422.1049, 169.9004
422.5870, 170.9445
423.0691, 172.4028
423.5512, 174.1786
424.0334, 176.1389
424.5155, 178.2282
424.9976, 180.3765
425.4797, 182.4241
425.9618, 184.2180
426.4439, 186.2308
426.9261, 188.4790
427.4082, 190.9328
427.8903, 193.5818
428.3724, 196.4270
428.8545, 199.4764
429.3366, 202.7802
429.8188, 206.3378
430.3009, 209.6717
430.7830, 212.4695
431.2651, 215.4101
431.7472, 218.8634
432.2293, 222.4144
432.7115, 225.7015
433.1936, 228.5660
433.6757, 230.6931
434.1578, 231.4045
434.6399, 230.3363
435.1220, 229.1320
435.6042, 228.2962
436.0863, 226.9951
436.5684, 224.8446
437.0505, 221.8604
437.5326, 218.1934
438.0147, 213.8826
438.4969, 208.9993
438.9790, 203.7748
439.4611, 198.1774
439.9432, 192.3274
440.4253, 186.2891
440.9074, 179.9800
441.3896, 173.1526
441.8717, 165.6207
442.3538, 158.2295
442.8359, 151.8283
443.3180, 146.2563
443.8001, 140.8944
444.2823, 135.6290
444.7644, 130.4865
445.2465, 125.2577
445.7286, 120.0260
446.2107, 115.6100
446.6928, 112.7674
447.1750, 110.4705
447.6571, 107.6244
448.1392, 104.2900
448.6213, 101.2048
449.1034, 98.76450
449.5855, 96.84913
450.0677, 95.16286
450.5498, 93.83559
451.0319, 92.42297
451.5140, 90.75948
451.9961, 88.97688
452.4782, 87.09315
452.9604, 85.15329
453.4425, 83.57325
453.9246, 82.83809
454.4067, 83.04649
454.8888, 83.08723
455.3709, 82.93181
455.8531, 82.67480
456.3352, 82.21705
456.8173, 81.70925
457.2994, 81.42931
457.7815, 81.50935
458.2636, 81.74473
458.7458, 81.66370
459.2279, 80.93800
459.7100, 80.59373
460.1921, 80.95853
460.6742, 81.40910
461.1563, 81.61646
461.6385, 81.57133
462.1206, 81.39340
462.6027, 81.09951
463.0848, 80.76359
463.5669, 80.84937
464.0491, 81.70035
464.5312, 82.26469
465.0133, 81.82512
465.4954, 81.12369
465.9775, 80.92252
466.4597, 81.41219
466.9418, 82.15337
467.4239, 82.87817
467.9060, 83.54743
468.3881, 83.85964
468.8702, 83.62830
469.3524, 83.31442
469.8345, 83.18299
470.3166, 83.25730
470.7987, 83.69144
471.2808, 84.88345
471.7629, 86.17210
472.2451, 86.89871
472.7272, 87.16430
473.2093, 87.50163
473.6914, 88.16439
474.1735, 88.95672
474.6556, 89.47469
475.1378, 89.62691
475.6199, 89.86349
476.1020, 90.26121
476.5841, 90.76350
477.0662, 91.49883
477.5483, 92.36475
478.0305, 92.86973
478.5126, 92.57832
478.9947, 91.60509
479.4768, 90.97701
479.9589, 91.14836
480.4410, 91.10255
480.9232, 90.53288
481.4053, 89.77473
481.8874, 89.26535
482.3695, 89.06723
482.8516, 88.78922
483.3337, 87.95249
483.8159, 86.51501
484.2980, 84.86167
484.7801, 82.65981
485.2622, 80.62267
485.7443, 79.20464
486.2264, 78.06742
486.7086, 76.63806
487.1907, 74.63338
487.6728, 72.40346
488.1549, 70.32212
488.6370, 68.37488
489.1191, 66.90112
489.6013, 66.27596
490.0834, 65.81477
490.5655, 64.91233
491.0476, 63.61359
491.5297, 62.23410
492.0118, 60.61431
492.4940, 59.14032
492.9761, 58.51176
493.4582, 58.68584
493.9403, 58.67020
494.4224, 57.86131
494.9045, 56.62828
495.3867, 55.94221
495.8688, 55.96272
496.3509, 56.00001
496.8330, 55.85433
497.3151, 55.67003
497.7972, 55.63443
498.2794, 55.74898
498.7615, 55.83459
499.2436, 55.71999
499.7257, 55.42392
500.2078, 55.28794
500.6899, 55.47354
501.1721, 55.62417
501.6542, 55.66999
502.1363, 55.65943
502.6184, 55.63376
503.1005, 55.60986
503.5826, 55.60414
504.0648, 55.59646
504.5469, 55.56116
505.0290, 55.80358
505.5111, 56.63894
505.9932, 57.36433
506.4753, 57.57959
506.9575, 57.54371
507.4396, 57.68457
507.9217, 58.18587
508.4038, 58.81719
508.8859, 59.29813
509.3680, 59.63771
509.8502, 59.95875
510.3323, 60.20554
510.8144, 60.57523
511.2965, 61.35794
511.7786, 62.47129
512.2607, 63.50807
512.7429, 64.37171
513.2250, 65.11329
513.7071, 65.70657
514.1892, 66.20155
514.6713, 66.82623
515.1534, 67.71031
515.6356, 68.70358
516.1177, 69.49577
516.5998, 69.92705
517.0819, 70.53854
517.5640, 71.40047
518.0461, 72.40136
518.5283, 73.53145
519.0104, 74.74145
519.4925, 75.88096
519.9746, 76.82901
520.4567, 77.69852
520.9388, 78.94905
521.4210, 80.92454
521.9031, 82.63396
522.3852, 83.82970
522.8673, 84.85960
523.3494, 85.82088
523.8315, 86.80553
524.3137, 88.08119
524.7958, 90.07169
525.2779, 92.47945
525.7600, 94.15782
526.2421, 94.92731
526.7242, 95.63221
527.2064, 96.66734
527.6885, 97.82150
528.1706, 98.84946
528.6527, 99.72984
529.1348, 100.4948
529.6169, 101.2286
530.0991, 101.8376
530.5812, 102.1524
531.0633, 102.1547
531.5454, 101.9812
532.0275, 101.7547
532.5096, 101.4378
532.9918, 100.7635
533.4739, 99.11752
533.9560, 97.95934
534.4381, 98.05396
534.9202, 98.53580
535.4023, 98.43393
535.8845, 97.59422
536.3666, 96.50932
536.8487, 95.62933
537.3308, 94.95206
537.8129, 94.65388
538.2951, 95.35120
538.7772, 95.60592
539.2593, 94.69954
539.7415, 93.41393
540.2236, 92.61211
540.7057, 92.51145
541.1878, 92.61065
541.6699, 92.37749
542.1520, 91.87669
542.6342, 91.55259
543.1163, 91.43691
543.5984, 91.50054
544.0805, 91.93608
544.5626, 92.49771
545.0447, 92.65775
545.5269, 92.02822
546.0090, 91.60049
546.4911, 92.27394
546.9732, 93.48014
547.4553, 94.00647
547.9374, 93.59197
548.4196, 93.06335
548.9017, 93.25139
549.3838, 94.17834
549.8659, 94.78860
550.3480, 94.81290
550.8301, 94.90391
551.3123, 95.26010
551.7944, 95.77243
552.2765, 96.24020
552.7586, 96.63470
553.2407, 97.20210
553.7228, 98.36372
554.2050, 100.1839
554.6871, 101.3842
555.1692, 101.5640
555.6513, 101.6681
556.1334, 101.9816
556.6155, 102.4463
557.0977, 103.0130
557.5798, 103.6819
558.0619, 104.3479
558.5440, 104.9748
559.0261, 105.5264
559.5082, 105.9235
559.9904, 106.1962
560.4725, 106.1071
560.9546, 105.2948
561.4367, 103.9277
561.9188, 102.9185
562.4009, 102.5251
562.8831, 102.1811
563.3652, 101.7296
563.8473, 101.1790
564.3294, 100.5587
564.8115, 99.86755
565.2936, 99.03809
565.7758, 97.99239
566.2579, 96.72588
566.7400, 95.44830
567.2221, 94.27087
567.7042, 92.93641
568.1863, 91.34563
568.6685, 89.61527
569.1506, 87.79385
569.6327, 85.93047
570.1148, 84.20589
570.5969, 82.91512
571.0790, 81.96624
571.5612, 80.78270
572.0433, 79.30189
572.5254, 77.72881
573.0075, 75.96047
573.4896, 74.26315
573.9717, 73.11812
574.4539, 72.78626
574.9360, 72.22215
575.4181, 70.63154
575.9002, 68.65288
576.3823, 67.24846
576.8644, 66.48096
577.3466, 65.71153
577.8287, 64.42992
578.3108, 62.81568
578.7929, 61.75615
579.2750, 61.91097
579.7571, 61.76325
580.2393, 61.01913
580.7214, 60.10973
581.2035, 59.29978
581.6856, 58.65161
582.1677, 58.16680
582.6498, 57.89604
583.1320, 57.74380
583.6141, 57.35390
584.0962, 56.63553
584.5783, 55.98082
585.0604, 55.41928
585.5425, 55.03156
586.0247, 54.99022
586.5068, 55.25733
586.9889, 55.38041
587.4710, 55.03003
587.9531, 54.52181
588.4352, 54.21182
588.9174, 54.08549
589.3995, 54.00801
589.8816, 53.93002
