##NAMES=Variscite
##RRUFFID=R110139
##IDEAL CHEMISTRY=AlPO_4_&#183;2H_2_O
##LOCALITY=Boa Vista pegmatite, Conselheiro Pena, Doce valley, Minas Gerais, Brazil
##OWNER=RRUFF
##SOURCE=Luiz Menezes
##DESCRIPTION=Red blocky crystals on a matrix of white albite
##STATUS=The identification of this mineral has been confirmed by single-crystal X-ray diffraction.
##URL=rruff.info/R110139
179.2017, 35.44952
179.6838, 35.51725
180.1659, 35.84265
180.6480, 36.44599
181.1301, 37.06733
181.6122, 37.46557
182.0944, 37.68221
182.5765, 37.83969
183.0586, 37.89061
183.5407, 37.93489
184.0228, 38.20795
184.5049, 38.72413
184.9871, 39.37711
185.4692, 40.09931
185.9513, 40.87449
186.4334, 41.57317
186.9155, 42.12834
187.3976, 42.56356
187.8798, 42.92827
188.3619, 43.19501
188.8440, 43.49599
189.3261, 44.06828
189.8082, 44.89389
190.2903, 45.67604
190.7725, 46.17921
191.2546, 46.48030
191.7367, 47.03584
192.2188, 47.93870
192.7009, 48.91736
193.1830, 49.43076
193.6652, 49.47547
194.1473, 49.56859
194.6294, 50.01448
195.1115, 50.78632
195.5936, 51.58057
196.0757, 52.41040
196.5579, 53.20417
197.0400, 53.81805
197.5221, 54.24582
198.0042, 54.57442
198.4863, 54.77671
198.9684, 54.84789
199.4506, 55.17137
199.9327, 55.84826
200.4148, 56.68790
200.8969, 57.26129
201.3790, 57.54345
201.8611, 57.73181
202.3433, 57.90436
202.8254, 58.05166
203.3075, 58.30022
203.7896, 58.66906
204.2717, 59.13095
204.7538, 59.65367
205.2360, 60.27758
205.7181, 60.81189
206.2002, 61.10288
206.6823, 61.10308
207.1644, 61.16647
207.6465, 61.33132
208.1287, 61.56908
208.6108, 61.80033
209.0929, 62.01715
209.5750, 62.24828
210.0571, 62.55538
210.5392, 63.00422
211.0214, 63.20979
211.5035, 63.05154
211.9856, 62.65818
212.4677, 62.51231
212.9498, 62.74477
213.4319, 62.93542
213.9140, 62.76496
214.3962, 62.06467
214.8783, 61.61633
215.3604, 61.52704
215.8425, 61.73326
216.3246, 62.01283
216.8067, 62.42736
217.2889, 62.80095
217.7710, 63.02045
218.2531, 63.04205
218.7352, 63.03321
219.2173, 62.98941
219.6994, 62.92375
220.1816, 62.91671
220.6637, 63.02034
221.1458, 63.08974
221.6279, 63.01749
222.1100, 62.73004
222.5921, 62.50296
223.0743, 62.41497
223.5564, 62.40812
224.0385, 62.21054
224.5206, 61.83937
225.0027, 61.26631
225.4848, 60.44667
225.9670, 59.29065
226.4491, 58.13155
226.9312, 57.02809
227.4133, 55.94678
227.8954, 54.63297
228.3775, 52.97509
228.8597, 51.28622
229.3418, 49.76841
229.8239, 48.45722
230.3060, 47.23431
230.7881, 46.07982
231.2702, 45.00399
231.7524, 44.12164
232.2345, 43.52647
232.7166, 43.00335
233.1987, 42.42298
233.6808, 41.69883
234.1629, 41.11572
234.6451, 40.74371
235.1272, 40.52740
235.6093, 40.21594
236.0914, 39.77345
236.5735, 39.28585
237.0556, 38.79174
237.5378, 38.26138
238.0199, 37.78695
238.5020, 37.35427
238.9841, 36.97915
239.4662, 36.76262
239.9483, 36.83665
240.4305, 36.89085
240.9126, 36.74569
241.3947, 36.27682
241.8768, 35.88325
242.3589, 35.58673
242.8410, 35.37793
243.3232, 35.23316
243.8053, 35.22192
244.2874, 35.17908
244.7695, 35.01214
245.2516, 34.64631
245.7337, 34.30958
246.2159, 33.95239
246.6980, 33.63398
247.1801, 33.58014
247.6622, 33.97050
248.1443, 34.35169
248.6264, 34.49883
249.1086, 34.31630
249.5907, 34.11916
250.0728, 33.84525
250.5549, 33.57851
251.0370, 33.57928
251.5191, 34.04875
252.0013, 34.46812
252.4834, 34.57474
252.9655, 34.16759
253.4476, 33.98470
253.9297, 34.12194
254.4118, 34.44105
254.8940, 34.62355
255.3761, 34.58026
255.8582, 34.55864
256.3403, 34.67604
256.8224, 34.99422
257.3046, 35.23759
257.7867, 35.36731
258.2688, 35.44360
258.7509, 35.58396
259.2330, 35.80577
259.7151, 36.05222
260.1973, 36.32283
260.6794, 36.64149
261.1615, 36.84096
261.6436, 36.85597
262.1257, 36.80659
262.6078, 36.91777
263.0900, 37.27589
263.5721, 37.58792
264.0542, 37.74257
264.5363, 37.71915
265.0184, 37.67315
265.5005, 37.55190
265.9827, 37.46877
266.4648, 37.61358
266.9469, 38.06322
267.4290, 38.51942
267.9111, 38.92295
268.3932, 39.27722
268.8754, 39.45308
269.3575, 39.38148
269.8396, 39.23620
270.3217, 39.25013
270.8038, 39.46540
271.2859, 39.67859
271.7681, 39.87379
272.2502, 40.04439
272.7323, 39.93710
273.2144, 39.43174
273.6965, 38.89572
274.1786, 38.80099
274.6608, 39.25928
275.1429, 39.53931
275.6250, 39.40476
276.1071, 38.92393
276.5892, 38.61069
277.0714, 38.50067
277.5535, 38.47120
278.0356, 38.46606
278.5177, 38.50584
278.9998, 38.32732
279.4819, 37.77051
279.9641, 36.97375
280.4462, 36.60295
280.9283, 36.72510
281.4104, 36.98149
281.8925, 37.09457
282.3746, 37.06283
282.8568, 37.02038
283.3389, 36.99435
283.8210, 36.96896
284.3031, 36.90078
284.7852, 36.78933
285.2673, 36.64472
285.7495, 36.45831
286.2316, 36.23486
286.7137, 36.02839
287.1958, 35.84368
287.6779, 35.68286
288.1600, 35.54891
288.6422, 35.44159
289.1243, 35.36236
289.6064, 35.34962
290.0885, 35.37932
290.5706, 35.30312
291.0527, 35.07380
291.5349, 34.81574
292.0170, 34.74611
292.4991, 34.85093
292.9812, 34.97280
293.4633, 35.02024
293.9454, 35.01614
294.4276, 35.05338
294.9097, 35.15355
295.3918, 35.21965
295.8739, 35.13528
296.3560, 34.91140
296.8381, 34.59392
297.3203, 34.09024
297.8024, 33.53197
298.2845, 33.20732
298.7666, 33.13431
299.2487, 33.16101
299.7308, 33.22905
300.2130, 33.28638
300.6951, 33.18099
301.1772, 32.72657
301.6593, 32.13817
302.1414, 31.71771
302.6235, 31.46611
303.1057, 31.27468
303.5878, 31.02961
304.0699, 30.78526
304.5520, 30.65508
305.0341, 30.76720
305.5162, 30.92448
305.9984, 30.92640
306.4805, 30.78480
306.9626, 30.57986
307.4447, 30.25038
307.9268, 29.92645
308.4089, 29.80332
308.8911, 30.04177
309.3732, 30.32187
309.8553, 30.36313
310.3374, 30.22463
310.8195, 30.10616
311.3016, 30.12426
311.7838, 30.21207
312.2659, 30.33047
312.7480, 30.51483
313.2301, 30.62287
313.7122, 30.50120
314.1943, 30.24179
314.6765, 30.04077
315.1586, 29.97757
315.6407, 30.00616
316.1228, 30.12431
316.6049, 30.35990
317.0870, 30.56194
317.5692, 30.60963
318.0513, 30.59422
318.5334, 30.64299
319.0155, 30.92691
319.4976, 31.17256
319.9797, 31.22960
320.4619, 31.07146
320.9440, 30.93887
321.4261, 30.86568
321.9082, 30.86760
322.3903, 30.96034
322.8724, 31.26213
323.3546, 31.53835
323.8367, 31.71058
324.3188, 31.78187
324.8009, 31.87683
325.2830, 32.07457
325.7651, 32.26516
326.2473, 32.37712
326.7294, 32.27519
327.2115, 32.24436
327.6936, 32.32777
328.1757, 32.51009
328.6578, 32.71553
329.1400, 33.02330
329.6221, 33.28832
330.1042, 33.44218
330.5863, 33.34166
331.0684, 33.36855
331.5505, 33.56091
332.0327, 33.87251
332.5148, 34.21025
332.9969, 34.64610
333.4790, 35.00895
333.9611, 35.22997
334.4432, 35.26439
334.9254, 35.33300
335.4075, 35.45494
335.8896, 35.59216
336.3717, 35.67738
336.8538, 35.65701
337.3359, 35.71501
337.8180, 35.93126
338.3001, 36.30111
338.7823, 36.57585
339.2644, 36.72637
339.7465, 36.83558
340.2286, 37.01992
340.7107, 37.31907
341.1928, 37.43606
341.6750, 37.24780
342.1571, 36.85566
342.6392, 36.68767
343.1213, 36.77898
343.6034, 36.90100
344.0855, 36.85829
344.5677, 36.66116
345.0498, 36.55896
345.5319, 36.59087
346.0140, 36.71633
346.4961, 36.92134
346.9782, 37.19823
347.4604, 37.35962
347.9425, 37.20553
348.4246, 36.83393
348.9067, 36.60656
349.3888, 36.55097
349.8709, 36.59627
350.3531, 36.71662
350.8352, 36.88182
351.3173, 36.97962
351.7994, 36.91555
352.2815, 36.76943
352.7636, 36.65800
353.2458, 36.58113
353.7279, 36.55233
354.2100, 36.62089
354.6921, 36.73935
355.1742, 36.83222
355.6563, 36.92682
356.1385, 36.93242
356.6206, 36.70494
357.1027, 36.28491
357.5848, 35.88237
358.0669, 35.53524
358.5490, 35.30469
359.0312, 35.28797
359.5133, 35.61577
359.9954, 35.90182
360.4775, 35.87360
360.9596, 35.64193
361.4417, 35.44278
361.9239, 35.38559
362.4060, 35.37537
362.8881, 35.36437
363.3702, 35.34688
363.8523, 35.33263
364.3344, 35.30124
364.8166, 35.28295
365.2987, 35.31253
365.7808, 35.54017
366.2629, 35.67371
366.7450, 35.52233
367.2271, 35.08934
367.7093, 34.92662
368.1914, 35.39511
368.6735, 35.96617
369.1556, 36.29750
369.6377, 36.10671
370.1198, 36.00458
370.6020, 36.07544
371.0841, 36.25942
371.5662, 36.33259
372.0483, 36.17853
372.5304, 36.05335
373.0125, 36.06624
373.4947, 36.25826
373.9768, 36.48020
374.4589, 36.77564
374.9410, 37.06863
375.4231, 37.20829
375.9052, 37.11815
376.3874, 37.09619
376.8695, 37.25457
377.3516, 37.59066
377.8337, 37.86052
378.3158, 38.05410
378.7979, 38.22267
379.2801, 38.41949
379.7622, 38.64906
380.2443, 38.84983
380.7264, 39.00175
381.2085, 39.12688
381.6906, 39.29008
382.1728, 39.49099
382.6549, 39.69361
383.1370, 39.85285
383.6191, 39.98778
384.1012, 40.18348
384.5833, 40.46679
385.0655, 40.75348
385.5476, 40.93656
386.0297, 41.02921
386.5118, 41.07013
386.9939, 41.02818
387.4760, 40.96665
387.9582, 40.98873
388.4403, 41.09760
388.9224, 41.21937
389.4045, 41.26939
389.8866, 41.30047
390.3687, 41.39178
390.8509, 41.62525
391.3330, 41.86611
391.8151, 42.02625
392.2972, 42.11525
392.7793, 42.17505
393.2614, 42.21789
393.7436, 42.24451
394.2257, 42.23671
394.7078, 42.13615
395.1899, 42.13778
395.6720, 42.31329
396.1541, 42.63340
396.6363, 43.05134
397.1184, 43.78137
397.6005, 44.39693
398.0826, 44.69891
398.5647, 44.63259
399.0468, 44.64800
399.5290, 44.83588
400.0111, 45.09529
400.4932, 45.34344
400.9753, 45.50098
401.4574, 45.75533
401.9395, 46.14013
402.4217, 46.63736
402.9038, 47.16541
403.3859, 47.77174
403.8680, 48.33960
404.3501, 48.78596
404.8322, 49.02763
405.3144, 49.44585
405.7965, 50.10645
406.2786, 50.85904
406.7607, 51.41421
407.2428, 51.71094
407.7249, 52.15668
408.2071, 52.96579
408.6892, 54.05455
409.1713, 54.82921
409.6534, 55.25063
410.1355, 55.59891
410.6176, 56.07193
411.0998, 56.67717
411.5819, 57.48908
412.0640, 58.60364
412.5461, 59.79490
413.0282, 60.64520
413.5103, 61.21409
413.9925, 61.87141
414.4746, 62.96122
414.9567, 64.24371
415.4388, 65.31353
415.9209, 66.13191
416.4030, 66.89144
416.8852, 67.66901
417.3673, 68.52034
417.8494, 69.53568
418.3315, 70.96469
418.8136, 72.40061
419.2957, 73.58514
419.7779, 74.53807
420.2600, 75.46831
420.7421, 76.47857
421.2242, 77.49403
421.7063, 78.42383
422.1884, 79.19211
422.6706, 80.02206
423.1527, 81.05013
423.6348, 82.17348
424.1169, 83.20192
424.5990, 83.93995
425.0811, 84.75214
425.5633, 85.82777
426.0454, 87.24512
426.5275, 88.36340
427.0096, 88.99792
427.4917, 89.48751
427.9738, 90.11301
428.4560, 90.94132
428.9381, 91.76359
429.4202, 92.58021
429.9023, 93.35856
430.3844, 94.01896
430.8665, 94.53181
431.3487, 94.99886
431.8308, 95.50993
432.3129, 96.07644
432.7950, 96.42772
433.2771, 96.54318
433.7592, 96.48701
434.2414, 96.33665
434.7235, 96.09145
435.2056, 95.73858
435.6877, 95.29954
436.1698, 94.73759
436.6519, 93.85353
437.1341, 92.66975
437.6162, 91.58378
438.0983, 91.03005
438.5804, 90.72922
439.0625, 90.18591
439.5446, 89.28352
440.0268, 88.25072
440.5089, 87.22487
440.9910, 86.21629
441.4731, 85.26302
441.9552, 84.55131
442.4373, 83.75534
442.9195, 82.52684
443.4016, 80.87514
443.8837, 79.43861
444.3658, 78.65180
444.8479, 78.08507
445.3300, 77.41080
445.8122, 76.45385
446.2943, 75.51897
446.7764, 74.60001
447.2585, 73.73248
447.7406, 73.00913
448.2227, 72.65833
448.7049, 72.23008
449.1870, 71.56541
449.6691, 70.62315
450.1512, 69.72794
450.6333, 68.89425
451.1154, 68.10535
451.5976, 67.38219
452.0797, 66.80838
452.5618, 66.03613
453.0439, 64.94867
453.5260, 63.66723
454.0081, 62.43253
454.4903, 61.20897
454.9724, 60.24437
455.4545, 59.85974
455.9366, 59.93697
456.4187, 59.54895
456.9008, 58.61834
457.3830, 57.50366
457.8651, 56.65374
458.3472, 55.97926
458.8293, 55.22939
459.3114, 54.25913
459.7935, 53.22760
460.2757, 52.29145
460.7578, 51.45173
461.2399, 50.69323
461.7220, 50.05946
462.2041, 49.47209
462.6862, 48.87895
463.1684, 48.28619
463.6505, 47.63545
464.1326, 46.79648
464.6147, 45.92141
465.0968, 45.19361
465.5789, 44.80327
466.0611, 44.45246
466.5432, 44.09060
467.0253, 43.70951
467.5074, 43.23175
467.9895, 42.52644
468.4716, 41.82054
468.9538, 41.22402
469.4359, 40.77752
469.9180, 40.36052
470.4001, 39.93503
470.8822, 39.56042
471.3643, 39.34623
471.8465, 39.35943
472.3286, 39.33411
472.8107, 39.18518
473.2928, 38.94053
473.7749, 38.76128
474.2570, 38.66145
474.7392, 38.55677
475.2213, 38.36126
475.7034, 38.09389
476.1855, 37.87153
476.6676, 37.69490
477.1497, 37.60537
477.6319, 37.76227
478.1140, 38.07505
478.5961, 38.24369
479.0782, 37.98412
479.5603, 37.60752
480.0424, 37.49200
480.5246, 37.61087
481.0067, 37.74937
481.4888, 37.72341
481.9709, 37.68310
482.4530, 37.79324
482.9352, 38.18988
483.4173, 38.47431
483.8994, 38.38909
484.3815, 38.11398
484.8636, 37.92396
485.3457, 37.92130
485.8279, 37.96852
486.3100, 38.07677
486.7921, 38.24353
487.2742, 38.27789
487.7563, 38.03033
488.2384, 37.80357
488.7206, 37.79778
489.2027, 38.17694
489.6848, 38.32190
490.1669, 38.14948
490.6490, 37.82367
491.1311, 37.58487
491.6133, 37.43841
492.0954, 37.36217
492.5775, 37.38466
493.0596, 37.46288
493.5417, 37.40395
494.0238, 37.20504
494.5060, 37.03585
494.9881, 37.09072
495.4702, 37.26794
495.9523, 37.31074
496.4344, 37.17477
496.9165, 36.94944
497.3987, 36.67776
497.8808, 36.38391
498.3629, 36.11900
498.8450, 35.85744
499.3271, 35.67069
499.8092, 35.67046
500.2914, 35.81665
500.7735, 35.88916
501.2556, 35.76738
501.7377, 35.57422
502.2198, 35.36913
502.7019, 35.12872
503.1841, 34.95337
503.6662, 34.91704
504.1483, 34.92686
504.6304, 34.87931
505.1125, 34.78447
505.5946, 34.61367
506.0768, 34.32470
506.5589, 33.95148
507.0410, 33.66121
507.5231, 33.46746
508.0052, 33.31777
508.4873, 33.20986
508.9695, 33.14571
509.4516, 32.95948
509.9337, 32.61280
510.4158, 32.29915
510.8979, 32.35361
511.3800, 32.67010
511.8622, 32.74232
512.3443, 32.32129
512.8264, 31.76361
513.3085, 31.55672
513.7906, 31.62510
514.2728, 31.69778
514.7549, 31.62923
515.2370, 31.49496
515.7191, 31.32826
516.2012, 31.12704
516.6833, 31.00232
517.1655, 31.13735
517.6476, 31.30041
518.1297, 31.29139
518.6118, 30.87933
519.0939, 30.52975
519.5760, 30.39926
520.0582, 30.37555
520.5403, 30.18007
521.0224, 29.65454
521.5045, 29.18151
521.9866, 28.87494
522.4688, 28.73349
522.9509, 28.58564
523.4330, 28.43228
523.9151, 28.26761
524.3972, 28.05132
524.8793, 27.78071
525.3615, 27.67057
525.8436, 27.77583
526.3257, 27.94350
526.8078, 27.94463
527.2899, 27.80460
527.7720, 27.64031
528.2542, 27.48100
528.7363, 27.33713
529.2184, 27.23257
529.7005, 27.16086
530.1826, 27.08171
530.6647, 26.91052
531.1469, 26.75834
531.6290, 26.76755
532.1111, 27.01688
532.5932, 27.13289
533.0753, 26.81283
533.5574, 26.35341
534.0396, 26.06765
534.5217, 26.17300
535.0038, 26.26145
535.4859, 26.31207
535.9680, 26.30758
536.4501, 26.17105
536.9323, 25.77444
537.4144, 25.46655
537.8965, 25.41904
538.3786, 25.64106
538.8607, 25.70034
539.3428, 25.56263
539.8250, 25.36530
540.3071, 25.19979
540.7892, 25.07400
541.2713, 25.06308
541.7534, 25.19701
542.2355, 25.39883
542.7177, 25.64528
543.1998, 25.88655
543.6819, 25.95609
544.1640, 25.57557
544.6461, 25.13066
545.1282, 25.02131
545.6104, 25.19960
546.0925, 25.35744
546.5746, 25.27219
547.0567, 25.15607
547.5388, 25.15823
548.0209, 25.33313
548.5031, 25.51341
548.9852, 25.73856
549.4673, 25.91806
549.9494, 25.95287
550.4315, 25.73579
550.9136, 25.53583
551.3958, 25.35117
551.8779, 25.20785
552.3600, 25.20883
552.8421, 25.39964
553.3242, 25.57223
553.8063, 25.61015
554.2885, 25.54177
554.7706, 25.62593
555.2527, 25.87836
555.7348, 26.11773
556.2169, 26.14332
556.6990, 26.03456
557.1812, 26.00552
557.6633, 26.10468
558.1454, 26.23079
558.6275, 26.29044
559.1096, 26.30809
559.5917, 26.32802
560.0739, 26.40977
560.5560, 26.45846
561.0381, 26.35233
561.5202, 26.14949
562.0023, 26.10029
562.4844, 26.49785
562.9666, 26.86522
563.4487, 26.95445
563.9308, 26.68873
564.4129, 26.52194
564.8950, 26.48969
565.3771, 26.51703
565.8593, 26.54151
566.3414, 26.55494
566.8235, 26.60726
567.3056, 26.71960
567.7877, 26.84870
568.2698, 26.91144
568.7520, 26.91176
569.2341, 26.90304
569.7162, 26.88457
570.1983, 26.88443
570.6804, 27.00927
571.1625, 27.23135
571.6447, 27.36045
572.1268, 27.21426
572.6089, 26.94944
573.0910, 26.68638
573.5731, 26.42369
574.0552, 26.27098
574.5374, 26.32147
575.0195, 26.48188
575.5016, 26.66456
575.9837, 26.94921
576.4658, 27.13360
576.9479, 27.13528
577.4301, 27.04077
577.9122, 27.02658
578.3943, 27.15333
578.8764, 27.23750
579.3585, 27.22671
579.8406, 27.12971
580.3228, 26.98638
580.8049, 26.78268
581.2870, 26.62357
581.7691, 26.60075
582.2512, 26.68472
582.7333, 26.76450
583.2155, 26.83686
583.6975, 26.88060
584.1796, 26.83930
584.6617, 26.76601
585.1439, 26.76113
585.6260, 26.91852
586.1081, 27.03029
586.5902, 26.90853
587.0723, 26.65716
587.5544, 26.47901
588.0366, 26.44158
588.5187, 26.47225
589.0008, 26.57148
589.4829, 26.73418
589.9650, 26.88242
590.4471, 27.06084
590.9293, 27.16368
591.4114, 27.10016
591.8935, 26.82229
592.3756, 26.74091
592.8577, 26.90620
593.3398, 27.13236
593.8220, 27.21008
594.3041, 27.16230
594.7862, 27.19693
595.2683, 27.40067
595.7504, 27.56906
596.2325, 27.34348
596.7147, 26.86376
597.1968, 26.49737
597.6789, 26.45521
598.1610, 26.54053
598.6431, 26.66410
599.1252, 26.80871
599.6074, 26.90317
600.0895, 26.88243
600.5716, 26.84042
601.0537, 26.83203
601.5358, 26.88036
602.0179, 26.86008
602.5001, 26.69458
602.9822, 26.53498
603.4643, 26.52353
603.9464, 26.74063
604.4285, 26.75928
604.9106, 26.48322
605.3928, 26.13126
605.8749, 26.04456
606.3570, 26.20737
606.8391, 26.42853
607.3212, 26.71523
607.8033, 26.94570
608.2855, 26.87659
608.7676, 26.57472
609.2497, 26.28383
609.7318, 26.13184
610.2139, 26.05096
610.6960, 26.00135
611.1782, 25.97965
611.6603, 25.97215
612.1424, 25.98648
612.6245, 26.00430
613.1066, 26.01414
613.5887, 26.01171
614.0709, 26.01086
614.5530, 26.01807
615.0351, 26.02179
615.5172, 26.01870
615.9993, 26.02069
616.4814, 25.95092
616.9636, 25.77092
617.4457, 25.55593
617.9278, 25.45585
618.4099, 25.46201
618.8920, 25.48444
619.3741, 25.51169
619.8563, 25.51438
620.3384, 25.41683
620.8205, 25.24151
621.3026, 25.10196
621.7847, 25.12617
622.2668, 25.16568
622.7490, 25.09363
623.2311, 24.88688
623.7132, 24.71219
624.1953, 24.65409
624.6774, 24.61654
625.1595, 24.52842
625.6417, 24.32752
626.1238, 24.19546
626.6059, 24.13611
627.0880, 24.14328
627.5701, 24.22472
628.0522, 24.38887
628.5344, 24.55955
629.0165, 24.74924
629.4986, 24.89459
629.9807, 24.81523
630.4628, 24.55359
630.9449, 24.34209
631.4271, 24.36182
631.9092, 24.44496
632.3913, 24.37803
632.8734, 24.18915
633.3555, 24.06452
633.8376, 24.20099
634.3198, 24.34725
634.8019, 24.31422
635.2840, 24.02282
635.7661, 23.87925
636.2482, 24.06216
636.7303, 24.28997
637.2125, 24.35766
637.6946, 24.17317
638.1767, 24.10998
638.6588, 24.22100
639.1409, 24.38880
639.6230, 24.44065
640.1052, 24.38420
640.5873, 24.32377
641.0694, 24.28031
641.5515, 24.25600
642.0336, 24.25320
642.5157, 24.27253
642.9979, 24.31621
643.4800, 24.45380
643.9621, 24.55865
644.4442, 24.48270
644.9263, 24.26690
645.4084, 24.15577
645.8906, 24.33321
646.3727, 24.54209
646.8548, 24.67548
647.3369, 24.73311
647.8190, 24.70579
648.3011, 24.54880
648.7833, 24.37429
649.2654, 24.25021
649.7475, 24.17211
650.2296, 24.22045
650.7117, 24.43127
651.1938, 24.64528
651.6760, 24.62801
652.1581, 24.44625
652.6402, 24.30535
653.1223, 24.26157
653.6044, 24.26875
654.0865, 24.28842
654.5687, 24.32775
655.0508, 24.40015
655.5329, 24.57854
656.0150, 24.72198
656.4971, 24.81054
656.9792, 24.82917
657.4614, 24.69501
657.9435, 24.17558
658.4256, 23.83257
658.9077, 23.91316
659.3898, 24.39372
659.8719, 24.69272
660.3541, 24.79605
660.8362, 24.78385
661.3183, 24.68534
661.8004, 24.51485
662.2825, 24.28804
662.7646, 23.99821
663.2468, 23.78832
663.7289, 23.85421
664.2110, 24.04887
664.6931, 24.17842
665.1752, 24.17938
665.6573, 24.16976
666.1395, 24.20176
666.6216, 24.25260
667.1037, 24.29416
667.5858, 24.36596
668.0679, 24.36851
668.5500, 24.27111
669.0322, 24.11009
669.5143, 23.95455
669.9964, 23.79346
670.4785, 23.68794
670.9606, 23.66427
671.4427, 23.70326
671.9249, 23.76629
672.4070, 23.84984
672.8891, 23.92427
673.3712, 23.98804
673.8533, 24.02314
674.3354, 24.00226
674.8176, 23.92790
675.2997, 23.83020
675.7818, 23.67308
676.2639, 23.53752
