##NAMES=Vauquelinite
##RRUFFID=R060926
##IDEAL CHEMISTRY=Cu^2+^Pb^2+^_2_(Cr^6+^O_4_)(P^5+^O_4_)(OH)
##LOCALITY=Hardshell mine, Patagonia, Arizona, USA
##OWNER=RRUFF
##SOURCE=Bob Jenkins
##DESCRIPTION=Apple-green tabular crystals
##STATUS=The identification of this mineral has been confirmed only by single crystal X-ray diffraction.
##URL=rruff.info/R060926
117.6661, 2935.234
118.1482, 3074.810
118.6303, 3203.596
119.1124, 3314.151
119.5946, 3408.677
120.0767, 3490.817
120.5588, 3557.682
121.0409, 3614.716
121.5230, 3668.084
122.0051, 3721.886
122.4873, 3767.548
122.9694, 3796.147
123.4515, 3809.234
123.9336, 3814.110
124.4157, 3810.016
124.8979, 3801.813
125.3800, 3797.249
125.8621, 3796.180
126.3442, 3801.750
126.8263, 3822.519
127.3084, 3858.835
127.7905, 3896.012
128.2727, 3919.445
128.7548, 3931.525
129.2369, 3940.037
129.7190, 3942.867
130.2011, 3944.328
130.6832, 3958.276
131.1654, 3986.700
131.6475, 4022.331
132.1296, 4055.256
132.6117, 4085.703
133.0938, 4117.140
133.5759, 4155.614
134.0581, 4199.879
134.5402, 4229.995
135.0223, 4240.887
135.5044, 4240.776
135.9865, 4252.454
136.4686, 4278.949
136.9508, 4301.537
137.4329, 4304.662
137.9150, 4285.707
138.3971, 4267.843
138.8792, 4255.129
139.3613, 4246.468
139.8434, 4234.818
140.3256, 4220.802
140.8077, 4202.805
141.2898, 4178.399
141.7719, 4146.040
142.2540, 4112.048
142.7361, 4076.694
143.2183, 4039.097
143.7004, 4008.626
144.1825, 3990.166
144.6646, 3974.786
145.1467, 3950.616
145.6288, 3910.538
146.1110, 3871.045
146.5931, 3835.734
147.0752, 3802.778
147.5573, 3778.028
148.0394, 3767.561
148.5215, 3764.187
149.0037, 3753.047
149.4858, 3729.750
149.9679, 3702.782
150.4500, 3674.725
150.9321, 3645.320
151.4142, 3615.840
151.8964, 3584.598
152.3785, 3553.128
152.8606, 3526.588
153.3427, 3512.179
153.8248, 3498.185
154.3069, 3478.870
154.7890, 3443.215
155.2712, 3413.499
155.7533, 3394.167
156.2354, 3384.718
156.7175, 3377.971
157.1996, 3381.386
157.6817, 3382.476
158.1639, 3371.648
158.6460, 3331.072
159.1281, 3292.409
159.6102, 3265.497
160.0923, 3250.756
160.5744, 3239.808
161.0566, 3233.594
161.5387, 3228.223
162.0208, 3219.400
162.5029, 3203.708
162.9850, 3185.455
163.4671, 3166.448
163.9493, 3146.993
164.4314, 3126.716
164.9135, 3104.882
165.3956, 3082.246
165.8777, 3060.030
166.3598, 3038.145
166.8420, 3017.433
167.3241, 2998.963
167.8062, 2983.589
168.2883, 2968.540
168.7704, 2951.145
169.2525, 2932.555
169.7346, 2915.430
170.2168, 2906.632
170.6989, 2897.981
171.1810, 2880.206
171.6631, 2847.922
172.1452, 2812.867
172.6273, 2782.841
173.1095, 2757.952
173.5916, 2737.466
174.0737, 2722.274
174.5558, 2710.893
175.0379, 2702.090
175.5201, 2699.126
176.0022, 2694.348
176.4843, 2674.917
176.9664, 2642.592
177.4485, 2612.375
177.9306, 2599.905
178.4128, 2598.221
178.8949, 2591.827
179.3770, 2572.252
179.8591, 2547.319
180.3412, 2529.523
180.8233, 2518.772
181.3055, 2510.826
181.7876, 2503.454
182.2697, 2495.971
182.7518, 2485.704
183.2339, 2468.011
183.7160, 2447.285
184.1982, 2436.079
184.6803, 2435.409
185.1624, 2436.776
185.6445, 2429.999
186.1266, 2416.237
186.6087, 2402.331
187.0908, 2391.247
187.5730, 2382.438
188.0551, 2374.761
188.5372, 2368.469
189.0193, 2362.028
189.5014, 2351.425
189.9835, 2336.906
190.4657, 2325.782
190.9478, 2324.014
191.4299, 2330.080
191.9120, 2333.657
192.3941, 2335.029
192.8762, 2332.201
193.3584, 2317.848
193.8405, 2291.330
194.3226, 2268.670
194.8047, 2261.669
195.2868, 2269.691
195.7689, 2276.216
196.2511, 2280.631
196.7332, 2282.125
197.2153, 2278.000
197.6974, 2267.717
198.1795, 2255.705
198.6616, 2242.040
199.1438, 2226.052
199.6259, 2221.680
200.1080, 2235.680
200.5901, 2259.442
201.0722, 2261.763
201.5543, 2237.462
202.0364, 2211.900
202.5186, 2206.998
203.0007, 2226.356
203.4828, 2237.203
203.9649, 2232.749
204.4470, 2216.126
204.9291, 2201.891
205.4113, 2189.416
205.8934, 2180.506
206.3755, 2179.426
206.8576, 2189.444
207.3397, 2190.335
207.8218, 2174.112
208.3040, 2143.990
208.7861, 2130.779
209.2682, 2141.172
209.7503, 2155.896
210.2324, 2156.520
210.7145, 2139.794
211.1967, 2120.504
211.6788, 2098.827
212.1609, 2075.266
212.6430, 2066.397
213.1251, 2078.729
213.6072, 2096.304
214.0894, 2101.760
214.5715, 2090.362
215.0536, 2080.154
215.5357, 2077.323
216.0178, 2082.494
216.4999, 2077.265
216.9820, 2056.559
217.4642, 2031.251
217.9463, 2013.998
218.4284, 2007.129
218.9105, 2003.130
219.3926, 2001.177
219.8747, 2001.938
220.3569, 1998.247
220.8390, 1986.800
221.3211, 1973.940
221.8032, 1968.966
222.2853, 1977.158
222.7674, 1982.574
223.2496, 1979.555
223.7317, 1965.932
224.2138, 1956.066
224.6959, 1951.724
225.1780, 1949.835
225.6601, 1944.858
226.1423, 1933.188
226.6244, 1925.243
227.1065, 1925.265
227.5886, 1935.625
228.0707, 1944.383
228.5528, 1952.874
229.0350, 1958.954
229.5171, 1957.798
229.9992, 1942.699
230.4813, 1931.637
230.9634, 1932.601
231.4455, 1952.291
231.9276, 1961.543
232.4098, 1956.146
232.8919, 1942.318
233.3740, 1932.451
233.8561, 1928.815
234.3382, 1925.382
234.8203, 1919.526
235.3025, 1909.265
235.7846, 1902.328
236.2667, 1898.479
236.7488, 1898.067
237.2309, 1903.152
237.7130, 1920.579
238.1952, 1932.886
238.6773, 1931.735
239.1594, 1909.141
239.6415, 1894.894
240.1236, 1892.236
240.6057, 1896.786
241.0879, 1898.191
241.5700, 1893.111
242.0521, 1889.932
242.5342, 1892.841
243.0163, 1906.530
243.4984, 1914.352
243.9806, 1912.621
244.4627, 1906.084
244.9448, 1906.761
245.4269, 1920.192
245.9090, 1932.456
246.3911, 1937.470
246.8732, 1931.544
247.3554, 1926.810
247.8375, 1922.172
248.3196, 1918.978
248.8017, 1921.259
249.2838, 1932.406
249.7659, 1943.731
250.2481, 1951.890
250.7302, 1956.733
251.2123, 1958.776
251.6944, 1956.871
252.1765, 1952.714
252.6586, 1950.395
253.1408, 1950.897
253.6229, 1951.864
254.1050, 1952.503
254.5871, 1953.257
255.0692, 1952.590
255.5513, 1949.705
256.0334, 1945.759
256.5156, 1943.267
256.9977, 1941.760
257.4798, 1942.499
257.9619, 1945.845
258.4440, 1951.493
258.9261, 1961.091
259.4083, 1977.147
259.8904, 1995.975
260.3725, 2008.144
260.8546, 2011.304
261.3367, 2012.435
261.8188, 2014.548
262.3010, 2018.161
262.7831, 2021.037
263.2652, 2023.279
263.7473, 2024.671
264.2294, 2023.959
264.7115, 2018.998
265.1937, 2016.767
265.6758, 2021.003
266.1579, 2033.121
266.6400, 2046.801
267.1221, 2065.571
267.6042, 2083.026
268.0864, 2082.086
268.5685, 2054.803
269.0506, 2030.784
269.5327, 2024.409
270.0148, 2039.228
270.4969, 2053.578
270.9791, 2067.520
271.4612, 2080.960
271.9433, 2093.994
272.4254, 2107.380
272.9075, 2117.717
273.3896, 2121.954
273.8718, 2118.848
274.3539, 2120.233
274.8360, 2128.023
275.3181, 2137.812
275.8002, 2139.025
276.2823, 2128.477
276.7645, 2125.016
277.2466, 2140.883
277.7287, 2177.880
278.2108, 2204.018
278.6929, 2218.252
279.1750, 2223.855
279.6572, 2222.115
280.1393, 2211.317
280.6214, 2207.449
281.1035, 2221.124
281.5856, 2251.583
282.0677, 2272.628
282.5499, 2281.843
283.0320, 2287.515
283.5141, 2302.990
283.9962, 2328.751
284.4783, 2352.353
284.9604, 2366.982
285.4425, 2374.108
285.9247, 2386.089
286.4068, 2403.481
286.8889, 2423.435
287.3710, 2440.223
287.8531, 2454.358
288.3352, 2475.679
288.8174, 2514.303
289.2995, 2563.893
289.7816, 2594.986
290.2637, 2604.796
290.7458, 2609.712
291.2279, 2627.556
291.7101, 2656.830
292.1922, 2687.791
292.6743, 2716.662
293.1564, 2744.569
293.6385, 2774.384
294.1206, 2806.070
294.6028, 2838.478
295.0849, 2873.845
295.5670, 2910.155
296.0491, 2939.405
296.5312, 2954.825
297.0133, 2963.735
297.4955, 2977.503
297.9776, 2995.997
298.4597, 3022.313
298.9418, 3065.641
299.4239, 3118.979
299.9060, 3164.656
300.3882, 3192.538
300.8703, 3213.794
301.3524, 3244.160
301.8345, 3282.785
302.3166, 3321.361
302.7987, 3355.568
303.2809, 3385.169
303.7630, 3409.780
304.2451, 3424.965
304.7272, 3439.813
305.2093, 3466.188
305.6914, 3502.194
306.1736, 3535.606
306.6557, 3555.262
307.1378, 3569.536
307.6199, 3589.404
308.1020, 3619.819
308.5841, 3652.662
309.0663, 3679.895
309.5484, 3704.072
310.0305, 3732.130
310.5126, 3769.411
310.9947, 3812.073
311.4768, 3855.395
311.9590, 3895.973
312.4411, 3942.813
312.9232, 4007.082
313.4053, 4082.182
313.8874, 4150.952
314.3695, 4187.018
314.8517, 4227.922
315.3337, 4301.988
315.8159, 4421.237
316.2980, 4547.864
316.7801, 4660.098
317.2622, 4770.233
317.7443, 4900.989
318.2264, 5073.377
318.7086, 5256.426
319.1907, 5430.160
319.6728, 5585.468
320.1549, 5766.607
320.6370, 5989.883
321.1191, 6245.236
321.6013, 6521.029
322.0834, 6831.151
322.5655, 7142.395
323.0476, 7439.939
323.5297, 7719.665
324.0118, 8012.745
324.4940, 8319.734
324.9761, 8643.808
325.4582, 8987.980
325.9403, 9376.158
326.4224, 9759.804
326.9045, 10133.25
327.3867, 10496.14
327.8688, 10850.85
328.3509, 11196.95
328.8330, 11534.78
329.3151, 11868.96
329.7972, 12221.89
330.2794, 12541.99
330.7615, 12824.57
331.2436, 13072.08
331.7257, 13296.31
332.2078, 13514.81
332.6899, 13693.85
333.1721, 13810.46
333.6542, 13839.47
334.1363, 13857.73
334.6184, 13881.58
335.1005, 13896.39
335.5826, 13849.00
336.0648, 13717.36
336.5469, 13563.91
337.0290, 13412.17
337.5111, 13254.17
337.9932, 13124.76
338.4753, 13024.20
338.9575, 12952.69
339.4396, 12911.61
339.9217, 12902.79
340.4038, 12916.23
340.8859, 12943.56
341.3680, 12983.46
341.8502, 13067.01
342.3323, 13197.27
342.8144, 13360.77
343.2965, 13530.89
343.7786, 13708.47
344.2607, 13923.10
344.7429, 14204.12
345.2250, 14535.87
345.7071, 14837.58
346.1892, 15108.47
346.6713, 15379.68
347.1534, 15712.62
347.6355, 16090.92
348.1176, 16425.73
348.5998, 16678.17
349.0819, 16880.88
349.5640, 17118.95
350.0461, 17392.45
350.5282, 17620.92
351.0103, 17747.02
351.4925, 17782.10
351.9746, 17751.53
352.4567, 17660.08
352.9388, 17505.38
353.4209, 17278.70
353.9030, 16984.11
354.3852, 16639.30
354.8673, 16253.12
355.3494, 15824.72
355.8315, 15347.27
356.3136, 14812.12
356.7957, 14255.67
357.2779, 13692.79
357.7600, 13131.54
358.2421, 12599.55
358.7242, 12105.00
359.2063, 11641.27
359.6884, 11201.82
360.1706, 10784.11
360.6527, 10400.71
361.1348, 10054.54
361.6169, 9745.374
362.0990, 9477.310
362.5811, 9258.153
363.0633, 9070.497
363.5454, 8908.456
364.0275, 8771.601
364.5096, 8660.442
364.9917, 8569.349
365.4738, 8506.904
365.9560, 8480.057
366.4381, 8501.650
366.9202, 8546.951
367.4023, 8615.986
367.8844, 8707.659
368.3665, 8811.650
368.8487, 8910.961
369.3308, 9035.911
369.8129, 9202.777
370.2950, 9454.812
370.7771, 9680.986
371.2592, 9867.621
371.7414, 10028.37
372.2235, 10202.95
372.7056, 10389.59
373.1877, 10593.71
373.6698, 10823.44
374.1519, 11091.75
374.6341, 11326.00
375.1162, 11515.95
375.5983, 11679.24
376.0804, 11845.68
376.5625, 12021.64
377.0446, 12170.25
377.5267, 12281.03
378.0089, 12354.67
378.4910, 12382.96
378.9731, 12361.77
379.4552, 12311.42
379.9373, 12263.75
380.4194, 12216.97
380.9016, 12113.85
381.3837, 11934.87
381.8658, 11695.08
382.3479, 11428.45
382.8300, 11136.33
383.3121, 10811.99
383.7943, 10442.26
384.2764, 10039.75
384.7585, 9630.307
385.2406, 9219.478
385.7227, 8806.208
386.2048, 8389.279
386.6870, 7975.961
387.1691, 7589.441
387.6512, 7253.185
388.1333, 6951.775
388.6154, 6661.349
389.0975, 6380.112
389.5797, 6120.385
390.0618, 5902.792
390.5439, 5712.205
391.0260, 5531.076
391.5081, 5342.310
391.9902, 5169.650
392.4724, 5030.521
392.9545, 4924.687
393.4366, 4825.416
393.9187, 4719.707
394.4008, 4617.189
394.8829, 4523.223
395.3651, 4439.612
395.8472, 4365.531
396.3293, 4304.173
396.8114, 4253.000
397.2935, 4202.735
397.7756, 4145.995
398.2578, 4094.343
398.7399, 4053.305
399.2220, 4031.287
399.7041, 4003.917
400.1862, 3964.235
400.6683, 3921.224
401.1505, 3889.638
401.6326, 3877.669
402.1147, 3865.103
402.5968, 3844.677
403.0789, 3815.004
403.5610, 3797.163
404.0432, 3797.197
404.5253, 3800.802
405.0074, 3791.229
405.4895, 3762.380
405.9716, 3747.221
406.4537, 3758.570
406.9359, 3785.366
407.4180, 3782.036
407.9001, 3743.804
408.3822, 3702.378
408.8643, 3679.501
409.3464, 3673.475
409.8285, 3668.816
410.3106, 3665.431
410.7928, 3659.565
411.2749, 3644.041
411.7570, 3619.942
412.2391, 3594.803
412.7212, 3574.276
413.2033, 3554.417
413.6855, 3525.907
414.1676, 3488.241
414.6497, 3451.531
415.1318, 3427.408
415.6139, 3410.073
416.0960, 3390.231
416.5782, 3361.468
417.0603, 3331.756
417.5424, 3308.918
418.0245, 3291.434
418.5066, 3272.189
418.9887, 3247.503
419.4709, 3219.517
419.9530, 3188.981
420.4351, 3154.615
420.9172, 3121.510
421.3993, 3091.594
421.8814, 3064.420
422.3636, 3039.116
422.8457, 3013.692
423.3278, 2991.865
423.8099, 2978.208
424.2920, 2976.380
424.7741, 2963.531
425.2563, 2925.837
425.7384, 2884.265
426.2205, 2858.484
426.7026, 2863.401
427.1847, 2858.962
427.6668, 2835.782
428.1490, 2798.131
428.6311, 2770.923
429.1132, 2755.968
429.5953, 2747.337
430.0774, 2743.947
430.5595, 2747.585
431.0417, 2743.530
431.5238, 2729.455
432.0059, 2710.084
432.4880, 2692.862
432.9701, 2677.827
433.4522, 2664.000
433.9344, 2650.699
434.4165, 2638.301
434.8986, 2627.356
435.3807, 2617.872
435.8628, 2610.191
436.3449, 2605.530
436.8271, 2602.991
437.3092, 2599.862
437.7913, 2594.130
438.2734, 2589.520
438.7555, 2592.530
439.2376, 2601.038
439.7197, 2607.031
440.2018, 2606.318
440.6840, 2600.601
441.1661, 2589.567
441.6482, 2571.444
442.1303, 2556.487
442.6124, 2548.727
443.0945, 2547.655
443.5767, 2552.615
444.0588, 2572.468
444.5409, 2589.528
445.0230, 2596.943
445.5051, 2594.745
445.9872, 2591.250
446.4694, 2580.040
446.9515, 2573.296
447.4336, 2578.704
447.9157, 2610.721
448.3978, 2634.267
448.8799, 2645.525
449.3621, 2648.746
449.8442, 2653.326
450.3263, 2659.520
450.8084, 2666.611
451.2905, 2675.651
451.7726, 2687.085
452.2548, 2690.539
452.7369, 2682.928
453.2190, 2674.072
453.7011, 2675.171
454.1832, 2686.430
454.6653, 2699.038
455.1475, 2712.836
455.6296, 2725.211
456.1117, 2728.772
456.5938, 2723.935
457.0759, 2718.584
457.5580, 2721.427
458.0402, 2727.010
458.5223, 2721.258
459.0044, 2700.480
459.4865, 2681.234
459.9686, 2683.810
460.4507, 2698.646
460.9329, 2707.662
461.4150, 2705.627
461.8971, 2692.977
462.3792, 2663.152
462.8613, 2618.859
463.3434, 2581.732
463.8256, 2565.736
464.3077, 2558.445
464.7898, 2551.138
465.2719, 2542.851
465.7540, 2533.430
466.2361, 2525.687
466.7183, 2516.482
467.2004, 2499.503
467.6825, 2467.047
468.1646, 2434.479
468.6467, 2404.950
469.1288, 2378.623
469.6110, 2354.300
470.0930, 2332.594
470.5752, 2311.883
471.0573, 2289.501
471.5394, 2263.555
472.0215, 2244.635
472.5036, 2236.869
472.9857, 2234.735
473.4679, 2223.726
473.9500, 2203.559
474.4321, 2179.687
474.9142, 2152.444
475.3963, 2123.497
475.8784, 2099.734
476.3606, 2081.449
476.8427, 2067.716
477.3248, 2061.547
477.8069, 2059.352
478.2890, 2052.759
478.7711, 2038.635
479.2533, 2019.624
479.7354, 1992.771
480.2175, 1961.446
480.6996, 1939.183
481.1817, 1941.208
481.6638, 1950.339
482.1460, 1954.253
482.6281, 1950.403
483.1102, 1943.833
483.5923, 1932.334
484.0744, 1920.231
484.5565, 1912.755
485.0387, 1920.596
485.5208, 1922.723
486.0029, 1908.260
486.4850, 1880.035
486.9671, 1868.312
487.4492, 1884.870
487.9314, 1904.228
488.4135, 1914.155
488.8956, 1914.621
489.3777, 1904.262
489.8598, 1878.702
490.3419, 1848.016
490.8241, 1826.832
491.3062, 1815.504
491.7883, 1810.794
492.2704, 1814.445
492.7525, 1823.043
493.2346, 1824.557
493.7168, 1818.929
494.1989, 1811.715
494.6810, 1806.380
495.1631, 1802.693
495.6452, 1799.683
496.1273, 1796.708
496.6095, 1796.040
497.0916, 1802.800
497.5737, 1813.309
498.0558, 1820.437
498.5379, 1820.583
499.0201, 1816.647
499.5022, 1808.168
499.9843, 1795.625
500.4664, 1786.268
500.9485, 1785.928
501.4306, 1787.713
501.9127, 1786.900
502.3948, 1778.328
502.8770, 1774.224
503.3591, 1781.402
503.8412, 1792.130
504.3233, 1792.540
504.8054, 1773.624
505.2875, 1758.888
505.7697, 1755.688
506.2518, 1763.408
506.7339, 1765.886
507.2160, 1760.790
507.6981, 1756.606
508.1802, 1762.744
508.6624, 1778.906
509.1445, 1786.991
509.6266, 1783.839
510.1087, 1774.941
510.5908, 1766.923
511.0729, 1760.038
511.5551, 1755.458
512.0372, 1755.612
512.5193, 1757.532
513.0014, 1756.144
513.4835, 1751.865
513.9656, 1749.430
514.4478, 1754.843
514.9299, 1762.183
515.4120, 1765.741
515.8941, 1763.905
516.3762, 1758.979
516.8583, 1749.878
517.3405, 1738.637
517.8226, 1728.628
518.3047, 1719.128
518.7868, 1712.350
519.2689, 1710.340
519.7510, 1713.010
520.2332, 1712.899
520.7153, 1707.388
521.1974, 1702.266
521.6795, 1701.346
522.1616, 1706.024
522.6437, 1710.627
523.1259, 1716.351
523.6080, 1719.905
524.0901, 1712.056
524.5722, 1692.025
525.0543, 1680.942
525.5364, 1690.554
526.0186, 1711.450
526.5007, 1718.937
526.9828, 1713.608
527.4649, 1706.399
527.9470, 1707.413
528.4291, 1710.952
528.9113, 1706.658
529.3934, 1690.748
529.8755, 1677.313
530.3576, 1677.718
530.8397, 1686.589
531.3218, 1696.101
531.8040, 1710.009
532.2861, 1717.602
532.7682, 1711.147
533.2503, 1692.916
533.7324, 1678.305
534.2145, 1669.954
534.6967, 1665.347
535.1788, 1663.137
535.6609, 1662.568
536.1430, 1668.069
536.6251, 1685.700
537.1072, 1702.747
537.5894, 1701.098
538.0715, 1676.292
538.5536, 1656.823
539.0357, 1648.838
539.5178, 1649.676
539.9999, 1654.358
540.4821, 1662.723
540.9642, 1669.188
541.4463, 1668.692
541.9284, 1664.258
542.4105, 1663.580
542.8926, 1667.223
543.3748, 1668.917
543.8569, 1659.821
544.3390, 1646.652
544.8211, 1638.608
545.3032, 1641.107
545.7853, 1644.852
546.2675, 1644.180
546.7495, 1641.314
547.2316, 1641.353
547.7137, 1654.601
548.1959, 1662.513
548.6780, 1655.956
549.1601, 1632.656
549.6422, 1615.986
550.1243, 1608.362
550.6064, 1604.800
551.0886, 1601.527
551.5707, 1597.088
552.0528, 1599.255
552.5349, 1611.320
553.0170, 1626.040
553.4991, 1630.837
553.9813, 1625.725
554.4634, 1616.406
554.9455, 1601.254
555.4276, 1585.246
555.9097, 1582.429
556.3918, 1591.472
556.8740, 1599.953
557.3561, 1597.832
557.8382, 1590.938
558.3203, 1585.422
558.8024, 1581.691
559.2845, 1581.707
559.7667, 1591.261
560.2488, 1603.420
560.7309, 1610.186
561.2130, 1604.296
561.6951, 1598.464
562.1772, 1596.132
562.6594, 1596.296
563.1415, 1594.752
563.6236, 1591.658
564.1057, 1586.396
564.5878, 1576.852
565.0699, 1562.112
565.5521, 1557.262
566.0342, 1565.541
566.5163, 1575.961
566.9984, 1576.872
567.4805, 1568.905
567.9626, 1567.147
568.4448, 1576.046
568.9269, 1586.265
569.4090, 1581.398
569.8911, 1565.666
570.3732, 1553.313
570.8553, 1552.427
571.3375, 1557.190
571.8196, 1563.762
572.3017, 1571.686
572.7838, 1577.778
573.2659, 1581.214
573.7480, 1581.809
574.2302, 1578.949
574.7123, 1571.138
575.1944, 1563.952
575.6765, 1555.656
576.1586, 1549.823
576.6407, 1550.527
577.1229, 1563.082
577.6050, 1572.304
578.0871, 1575.131
578.5692, 1573.973
579.0513, 1577.332
579.5334, 1586.857
580.0156, 1591.881
580.4977, 1584.275
580.9798, 1567.693
581.4619, 1559.565
581.9440, 1560.037
582.4261, 1563.116
582.9083, 1562.009
583.3904, 1560.384
583.8725, 1566.456
584.3546, 1585.151
584.8367, 1600.142
585.3188, 1595.887
585.8010, 1581.416
586.2831, 1570.724
586.7652, 1569.548
587.2473, 1571.729
587.7294, 1579.040
588.2115, 1589.621
588.6937, 1591.485
589.1758, 1574.357
589.6579, 1560.232
590.1400, 1558.475
590.6221, 1571.129
591.1042, 1580.779
591.5864, 1586.836
592.0685, 1591.067
592.5506, 1595.218
593.0327, 1599.230
593.5148, 1601.333
593.9969, 1600.735
594.4791, 1599.499
594.9612, 1600.474
595.4433, 1603.261
595.9254, 1606.677
596.4075, 1612.434
596.8896, 1616.953
597.3718, 1615.381
597.8539, 1609.028
598.3360, 1604.669
598.8181, 1607.300
599.3002, 1611.298
599.7823, 1613.395
600.2645, 1612.774
600.7466, 1612.160
601.2287, 1612.327
601.7108, 1612.147
602.1929, 1609.312
602.6750, 1598.781
603.1572, 1600.690
603.6393, 1621.582
604.1214, 1650.531
604.6035, 1667.330
605.0856, 1671.863
605.5677, 1668.673
606.0499, 1654.304
606.5320, 1636.297
607.0141, 1633.203
607.4962, 1643.249
607.9783, 1653.207
608.4604, 1652.830
608.9425, 1648.579
609.4246, 1646.398
609.9067, 1646.860
610.3889, 1650.131
610.8710, 1658.404
611.3531, 1668.398
611.8352, 1677.129
612.3173, 1689.135
612.7994, 1693.183
613.2816, 1683.289
613.7637, 1667.269
614.2458, 1660.134
614.7279, 1664.428
615.2100, 1671.007
