##NAMES=Vauxite
##RRUFFID=R070421
##IDEAL CHEMISTRY=Fe^2+^Al_2_(PO_4_)_2_(OH)_2_&#183;6H_2_O
##LOCALITY=Llallagua, Bustillos Province, Potosi, Bolivia
##OWNER=RRUFF
##SOURCE=James Shigley
##DESCRIPTION=Aggregates of pale blue tabular crystals
##STATUS=The identification of this mineral is confirmed by single-crystal X-ray diffraction and chemical analysis.
##URL=rruff.info/R070421
##MEASURED CHEMISTRY=(Fe^2+^_0.98_Mn_0.02_)_Σ=1_Al_2.00_(P_1.00_O_4_)_2_(OH)_2_·5.7H_2_O; OH estimated by charge balance; H_2_O  by difference
161.0115, 14516.60
161.4936, 14609.68
161.9757, 14695.79
162.4578, 14764.84
162.9400, 14801.76
163.4221, 14843.58
163.9042, 14911.37
164.3863, 14997.22
164.8684, 15074.98
165.3505, 15126.85
165.8327, 15168.01
166.3148, 15209.98
166.7969, 15248.80
167.2790, 15296.46
167.7611, 15368.94
168.2433, 15462.81
168.7254, 15545.80
169.2075, 15587.24
169.6896, 15610.98
170.1717, 15644.76
170.6538, 15701.51
171.1360, 15770.46
171.6181, 15851.20
172.1002, 15944.71
172.5823, 16025.74
173.0644, 16055.32
173.5465, 16061.19
174.0287, 16093.69
174.5108, 16209.43
174.9929, 16347.72
175.4750, 16437.96
175.9571, 16469.34
176.4392, 16488.94
176.9214, 16544.45
177.4035, 16624.30
177.8856, 16697.18
178.3677, 16734.91
178.8498, 16757.33
179.3319, 16800.27
179.8141, 16875.23
180.2962, 16953.02
180.7783, 16997.25
181.2604, 17011.70
181.7425, 17020.68
182.2246, 17039.06
182.7068, 17063.40
183.1889, 17085.96
183.6710, 17104.40
184.1531, 17121.49
184.6352, 17142.27
185.1173, 17166.66
185.5995, 17189.58
186.0816, 17204.70
186.5637, 17214.41
187.0458, 17228.45
187.5279, 17251.66
188.0100, 17278.90
188.4922, 17294.66
188.9743, 17298.14
189.4564, 17304.13
189.9385, 17330.57
190.4206, 17374.73
190.9027, 17415.56
191.3849, 17445.37
191.8670, 17467.24
192.3491, 17493.20
192.8312, 17523.91
193.3133, 17556.63
193.7954, 17594.70
194.2776, 17637.68
194.7597, 17662.77
195.2418, 17647.94
195.7239, 17601.18
196.2060, 17590.16
196.6881, 17621.38
197.1703, 17672.41
197.6524, 17709.91
198.1345, 17732.08
198.6166, 17760.06
199.0987, 17805.65
199.5808, 17868.87
200.0630, 17930.82
200.5451, 17995.04
201.0272, 18051.79
201.5093, 18076.44
201.9914, 18061.46
202.4735, 18052.58
202.9557, 18078.04
203.4378, 18141.53
203.9199, 18195.34
204.4020, 18236.37
204.8841, 18267.07
205.3662, 18291.76
205.8484, 18308.83
206.3305, 18325.66
206.8126, 18348.10
207.2947, 18377.82
207.7768, 18403.57
208.2589, 18426.70
208.7411, 18444.38
209.2232, 18440.03
209.7053, 18400.30
210.1874, 18370.54
210.6695, 18388.29
211.1517, 18467.92
211.6338, 18533.66
212.1159, 18574.83
212.5980, 18594.18
213.0801, 18606.64
213.5622, 18609.81
214.0444, 18610.36
214.5265, 18612.96
215.0086, 18617.31
215.4907, 18624.24
215.9728, 18631.19
216.4549, 18639.28
216.9371, 18667.10
217.4192, 18724.86
217.9013, 18786.98
218.3834, 18827.91
218.8655, 18840.89
219.3476, 18850.12
219.8298, 18856.31
220.3119, 18859.23
220.7940, 18882.48
221.2761, 18939.73
221.7582, 19001.67
222.2403, 19032.64
222.7225, 19012.63
223.2046, 19006.71
223.6867, 19033.95
224.1688, 19098.28
224.6509, 19154.04
225.1330, 19200.16
225.6152, 19239.38
226.0973, 19273.92
226.5794, 19300.11
227.0615, 19328.69
227.5436, 19366.67
228.0257, 19420.10
228.5079, 19445.92
228.9900, 19429.61
229.4721, 19396.87
229.9542, 19385.02
230.4363, 19400.60
230.9184, 19425.25
231.4006, 19455.90
231.8827, 19495.40
232.3648, 19527.60
232.8469, 19548.84
233.3290, 19565.21
233.8111, 19588.22
234.2933, 19623.64
234.7754, 19655.98
235.2575, 19678.11
235.7396, 19683.69
236.2217, 19700.05
236.7038, 19732.36
237.1860, 19773.24
237.6681, 19809.80
238.1502, 19847.80
238.6323, 19872.19
239.1144, 19873.84
239.5965, 19837.64
240.0787, 19819.88
240.5608, 19825.70
241.0429, 19848.07
241.5250, 19870.90
242.0071, 19889.65
242.4892, 19915.91
242.9714, 19957.80
243.4535, 20034.13
243.9356, 20082.25
244.4177, 20090.96
244.8998, 20074.26
245.3819, 20069.01
245.8641, 20081.14
246.3462, 20096.09
246.8283, 20107.92
247.3104, 20117.63
247.7925, 20120.37
248.2746, 20107.27
248.7568, 20089.12
249.2389, 20100.99
249.7210, 20167.65
250.2031, 20226.79
250.6852, 20241.54
251.1674, 20175.13
251.6495, 20154.75
252.1316, 20203.69
252.6137, 20297.60
253.0958, 20356.47
253.5779, 20359.09
254.0601, 20359.69
254.5422, 20391.16
255.0243, 20476.34
255.5064, 20530.03
255.9885, 20531.49
256.4706, 20501.71
256.9528, 20516.93
257.4349, 20606.44
257.9170, 20692.67
258.3991, 20728.43
258.8812, 20684.80
259.3633, 20672.33
259.8455, 20708.68
260.3276, 20778.17
260.8097, 20824.42
261.2918, 20839.45
261.7739, 20846.57
262.2560, 20857.70
262.7382, 20872.37
263.2203, 20893.74
263.7024, 20925.88
264.1845, 20964.03
264.6666, 20991.30
265.1487, 21002.21
265.6309, 21013.04
266.1130, 21036.78
266.5951, 21082.34
267.0772, 21106.87
267.5593, 21097.49
268.0414, 21068.59
268.5236, 21072.83
269.0057, 21122.45
269.4878, 21175.74
269.9699, 21206.20
270.4520, 21207.55
270.9341, 21213.78
271.4163, 21227.95
271.8984, 21248.60
272.3805, 21272.32
272.8626, 21300.89
273.3447, 21328.01
273.8268, 21344.61
274.3090, 21345.97
274.7911, 21373.61
275.2732, 21443.81
275.7553, 21533.25
276.2374, 21567.34
276.7195, 21531.30
277.2017, 21498.58
277.6838, 21525.63
278.1659, 21619.60
278.6480, 21682.17
279.1301, 21698.14
279.6122, 21683.97
280.0944, 21672.74
280.5765, 21661.58
281.0586, 21670.48
281.5407, 21727.41
282.0228, 21833.04
282.5049, 21899.86
282.9871, 21912.67
283.4692, 21892.44
283.9513, 21881.15
284.4334, 21879.13
284.9155, 21881.97
285.3976, 21886.72
285.8798, 21893.63
286.3619, 21909.80
286.8440, 21942.50
287.3261, 21973.40
287.8082, 21953.39
288.2903, 21881.81
288.7725, 21830.04
289.2546, 21861.67
289.7367, 21958.58
290.2188, 22013.81
290.7009, 22010.91
291.1830, 21980.61
291.6652, 21972.09
292.1473, 21983.82
292.6294, 21995.59
293.1115, 21989.36
293.5936, 21972.97
294.0757, 21976.29
294.5579, 22005.41
295.0400, 22043.37
295.5221, 22066.96
296.0042, 22078.24
296.4863, 22087.98
296.9684, 22102.12
297.4506, 22119.07
297.9327, 22130.95
298.4148, 22134.12
298.8969, 22146.44
299.3790, 22206.86
299.8611, 22299.57
300.3433, 22368.18
300.8254, 22359.58
301.3075, 22314.47
301.7896, 22301.79
302.2717, 22328.57
302.7538, 22366.28
303.2360, 22386.69
303.7181, 22395.88
304.2002, 22409.07
304.6823, 22436.13
305.1644, 22469.76
305.6465, 22502.13
306.1287, 22533.36
306.6108, 22561.12
307.0929, 22586.49
307.5750, 22606.95
308.0571, 22618.93
308.5392, 22602.64
309.0214, 22588.26
309.5035, 22612.21
309.9856, 22676.73
310.4677, 22730.79
310.9498, 22722.46
311.4319, 22687.14
311.9141, 22674.00
312.3962, 22720.62
312.8783, 22780.85
313.3604, 22825.24
313.8426, 22853.62
314.3247, 22882.01
314.8068, 22917.20
315.2889, 22957.04
315.7710, 22999.51
316.2531, 23051.40
316.7353, 23099.63
317.2174, 23138.92
317.6995, 23169.41
318.1816, 23193.10
318.6637, 23200.19
319.1458, 23206.19
319.6280, 23223.55
320.1101, 23277.12
320.5922, 23320.39
321.0743, 23324.99
321.5564, 23300.92
322.0385, 23304.11
322.5207, 23379.75
323.0028, 23468.03
323.4849, 23531.07
323.9670, 23537.97
324.4491, 23549.95
324.9312, 23583.06
325.4134, 23630.05
325.8955, 23663.70
326.3776, 23668.26
326.8597, 23668.13
327.3418, 23674.52
327.8239, 23691.58
328.3061, 23710.18
328.7882, 23728.14
329.2703, 23747.45
329.7524, 23773.63
330.2345, 23818.42
330.7166, 23858.59
331.1988, 23886.62
331.6809, 23902.44
332.1630, 23903.70
332.6451, 23873.55
333.1272, 23834.89
333.6093, 23834.75
334.0915, 23908.16
334.5736, 23965.09
335.0557, 23970.13
335.5378, 23907.80
336.0199, 23867.98
336.5020, 23861.29
336.9842, 23866.48
337.4663, 23848.14
337.9484, 23788.89
338.4305, 23754.36
338.9126, 23770.93
339.3947, 23838.99
339.8769, 23888.22
340.3590, 23914.99
340.8411, 23931.17
341.3232, 23950.56
341.8053, 23974.09
342.2874, 23991.73
342.7696, 23996.73
343.2517, 23993.61
343.7338, 24008.98
344.2159, 24046.24
344.6980, 24084.84
345.1801, 24108.17
345.6623, 24116.44
346.1444, 24113.66
346.6265, 24095.04
347.1086, 24070.81
347.5907, 24061.63
348.0728, 24067.63
348.5550, 24090.39
349.0371, 24144.24
349.5192, 24217.47
350.0013, 24273.43
350.4834, 24304.85
350.9655, 24317.83
351.4477, 24311.34
351.9298, 24289.79
352.4119, 24275.47
352.8940, 24286.22
353.3761, 24311.92
353.8582, 24337.79
354.3404, 24363.21
354.8225, 24384.04
355.3046, 24389.66
355.7867, 24387.07
356.2688, 24393.10
356.7509, 24430.50
357.2331, 24472.07
357.7152, 24488.59
358.1973, 24475.38
358.6794, 24463.16
359.1615, 24469.27
359.6436, 24489.11
360.1258, 24516.18
360.6079, 24554.89
361.0900, 24594.48
361.5721, 24629.83
362.0542, 24660.75
362.5363, 24688.48
363.0185, 24717.92
363.5006, 24742.46
363.9827, 24755.89
364.4648, 24725.26
364.9469, 24715.85
365.4290, 24763.40
365.9112, 24857.33
366.3933, 24924.75
366.8754, 24928.75
367.3575, 24917.90
367.8396, 24919.70
368.3217, 24953.70
368.8039, 24979.42
369.2860, 24986.11
369.7681, 24981.93
370.2502, 24991.96
370.7323, 25034.62
371.2144, 25073.13
371.6966, 25092.76
372.1787, 25086.03
372.6608, 25078.08
373.1429, 25062.36
373.6250, 25049.04
374.1071, 25057.33
374.5893, 25099.58
375.0714, 25138.39
375.5535, 25158.08
376.0356, 25156.25
376.5177, 25171.92
376.9998, 25207.94
377.4820, 25256.44
377.9641, 25317.98
378.4462, 25400.25
378.9283, 25443.20
379.4104, 25412.53
379.8925, 25332.04
380.3747, 25321.44
380.8568, 25390.33
381.3389, 25468.97
381.8210, 25493.07
382.3031, 25469.51
382.7852, 25457.15
383.2674, 25468.82
383.7495, 25494.23
384.2316, 25517.77
384.7137, 25539.26
385.1958, 25553.58
385.6779, 25542.80
386.1601, 25524.29
386.6422, 25543.24
387.1243, 25615.55
387.6064, 25688.24
388.0885, 25689.31
388.5706, 25644.94
389.0528, 25622.82
389.5349, 25685.05
390.0170, 25769.14
390.4991, 25811.98
390.9812, 25807.30
391.4633, 25797.58
391.9455, 25806.95
392.4276, 25828.51
392.9097, 25853.55
393.3918, 25875.59
393.8739, 25903.28
394.3561, 25950.95
394.8382, 26014.51
395.3203, 26058.14
395.8024, 26049.44
396.2845, 26027.44
396.7667, 26018.63
397.2488, 26031.72
397.7309, 26053.47
398.2130, 26090.80
398.6951, 26136.61
399.1772, 26168.60
399.6594, 26172.13
400.1415, 26171.64
400.6236, 26175.42
401.1057, 26183.35
401.5878, 26196.16
402.0699, 26218.93
402.5521, 26244.10
403.0342, 26258.39
403.5163, 26247.79
403.9984, 26252.62
404.4805, 26294.03
404.9626, 26372.95
405.4448, 26404.67
405.9269, 26371.43
406.4090, 26323.60
406.8911, 26312.70
407.3732, 26345.28
407.8553, 26369.62
408.3375, 26372.26
408.8196, 26362.75
409.3017, 26372.86
409.7838, 26404.14
410.2659, 26437.77
410.7480, 26455.42
411.2302, 26462.18
411.7123, 26484.69
412.1944, 26527.87
412.6765, 26581.24
413.1586, 26639.79
413.6407, 26699.81
414.1229, 26743.90
414.6050, 26760.13
415.0871, 26756.83
415.5692, 26737.44
416.0513, 26700.63
416.5334, 26677.74
417.0156, 26703.95
417.4977, 26757.67
417.9798, 26806.22
418.4619, 26843.20
418.9440, 26867.07
419.4261, 26874.55
419.9083, 26866.98
420.3904, 26853.18
420.8725, 26809.13
421.3546, 26777.43
421.8367, 26794.77
422.3188, 26914.28
422.8010, 27002.09
423.2831, 26997.03
423.7652, 26939.03
424.2473, 26914.29
424.7294, 26967.03
425.2115, 27024.95
425.6937, 27067.12
426.1758, 27091.86
426.6579, 27104.30
427.1400, 27088.15
427.6221, 27070.73
428.1042, 27081.10
428.5864, 27132.77
429.0685, 27186.02
429.5506, 27239.16
430.0327, 27289.31
430.5148, 27312.23
430.9969, 27298.30
431.4791, 27279.71
431.9612, 27281.39
432.4433, 27305.04
432.9254, 27316.45
433.4075, 27305.64
433.8896, 27292.41
434.3718, 27323.06
434.8539, 27396.09
435.3360, 27459.40
435.8181, 27478.12
436.3002, 27467.31
436.7823, 27467.24
437.2645, 27478.99
437.7466, 27497.61
438.2287, 27519.19
438.7108, 27543.97
439.1929, 27573.06
439.6750, 27611.64
440.1572, 27649.54
440.6393, 27679.88
441.1214, 27701.95
441.6035, 27712.08
442.0856, 27675.89
442.5677, 27645.16
443.0499, 27671.56
443.5320, 27792.59
444.0141, 27900.79
444.4962, 27945.52
444.9783, 27950.95
445.4604, 27957.60
445.9426, 27994.37
446.4247, 28016.60
446.9068, 27994.68
447.3889, 27916.00
447.8710, 27884.54
448.3531, 27948.12
448.8353, 28033.68
449.3174, 28087.31
449.7995, 28085.72
450.2816, 28091.78
450.7637, 28116.80
451.2458, 28153.72
451.7280, 28170.38
452.2101, 28155.13
452.6922, 28147.26
453.1743, 28173.29
453.6564, 28238.24
454.1385, 28283.63
454.6207, 28308.04
455.1028, 28314.29
455.5849, 28295.65
456.0670, 28254.44
456.5491, 28230.42
457.0313, 28240.57
457.5134, 28276.17
457.9955, 28326.42
458.4776, 28390.69
458.9597, 28440.35
459.4418, 28435.03
459.9240, 28403.78
460.4061, 28398.03
460.8882, 28435.17
461.3703, 28484.06
461.8524, 28524.14
462.3345, 28555.56
462.8167, 28577.79
463.2988, 28588.07
463.7809, 28590.85
464.2630, 28582.72
464.7451, 28561.39
465.2272, 28555.01
465.7094, 28586.24
466.1915, 28630.51
466.6736, 28666.11
467.1557, 28684.65
467.6378, 28698.97
468.1199, 28705.92
468.6021, 28708.83
469.0842, 28722.69
469.5663, 28758.13
470.0484, 28792.07
470.5305, 28815.88
471.0126, 28829.27
471.4948, 28830.14
471.9769, 28809.66
472.4590, 28787.62
472.9411, 28797.31
473.4232, 28845.46
473.9053, 28880.36
474.3875, 28879.88
474.8696, 28856.50
475.3517, 28867.38
475.8338, 28914.64
476.3159, 28956.52
476.7981, 28940.54
477.2802, 28891.63
477.7623, 28890.62
478.2444, 28957.11
478.7265, 29049.39
479.2086, 29130.85
479.6908, 29200.48
480.1729, 29254.71
480.6550, 29290.08
481.1371, 29310.56
481.6192, 29312.10
482.1013, 29295.67
482.5835, 29286.21
483.0656, 29300.18
483.5477, 29324.56
484.0298, 29348.42
484.5119, 29365.11
484.9940, 29386.74
485.4762, 29427.04
485.9583, 29474.78
486.4404, 29501.07
486.9225, 29471.24
487.4046, 29451.11
487.8867, 29462.12
488.3689, 29510.84
488.8510, 29552.27
489.3331, 29585.29
489.8152, 29612.75
490.2973, 29634.31
490.7794, 29645.51
491.2616, 29672.55
491.7437, 29727.95
492.2258, 29795.13
492.7079, 29825.33
493.1900, 29817.04
493.6721, 29796.91
494.1543, 29770.17
494.6364, 29743.15
495.1185, 29737.63
495.6006, 29754.89
496.0827, 29791.54
496.5648, 29865.92
497.0470, 29955.95
497.5291, 30012.70
498.0112, 29993.07
498.4933, 29962.11
498.9754, 29983.74
499.4576, 30043.67
499.9397, 30086.72
500.4218, 30070.24
500.9039, 30040.58
501.3860, 30025.45
501.8681, 30029.77
502.3503, 30045.43
502.8324, 30085.85
503.3145, 30131.04
503.7966, 30156.68
504.2787, 30130.00
504.7608, 30123.53
505.2430, 30161.80
505.7251, 30234.12
506.2072, 30262.41
506.6893, 30220.04
507.1714, 30180.80
507.6535, 30190.70
508.1357, 30257.69
508.6178, 30306.93
509.0999, 30334.57
509.5820, 30348.21
510.0641, 30355.03
510.5462, 30355.61
511.0284, 30356.07
511.5105, 30354.93
511.9926, 30357.48
512.4747, 30373.85
512.9568, 30403.54
513.4389, 30442.56
513.9210, 30502.72
514.4031, 30564.65
514.8853, 30599.23
515.3674, 30595.87
515.8495, 30593.77
516.3316, 30621.70
516.8137, 30664.24
517.2958, 30700.05
517.7780, 30720.48
518.2601, 30735.12
518.7422, 30738.02
519.2244, 30732.44
519.7065, 30749.10
520.1886, 30818.26
520.6707, 30886.94
521.1528, 30929.23
521.6349, 30926.68
522.1171, 30947.10
522.5992, 31002.51
523.0813, 31068.90
523.5634, 31110.27
524.0455, 31118.85
524.5276, 31146.93
525.0098, 31221.03
525.4919, 31318.32
525.9740, 31352.39
526.4561, 31321.56
526.9382, 31294.72
527.4203, 31324.96
527.9025, 31393.44
528.3846, 31444.24
528.8667, 31464.72
529.3488, 31517.37
529.8309, 31733.51
530.3130, 32007.23
530.7952, 32169.00
531.2773, 32043.67
531.7594, 31886.49
532.2415, 31811.53
532.7236, 31814.55
533.2057, 31880.03
533.6879, 32129.86
534.1700, 32339.94
534.6521, 32382.13
535.1342, 32165.99
535.6163, 32007.52
536.0984, 31939.32
536.5806, 31913.40
537.0627, 31882.68
537.5448, 31845.68
538.0269, 31805.16
538.5090, 31756.68
538.9911, 31707.28
539.4733, 31686.15
539.9554, 31696.55
540.4375, 31710.21
540.9196, 31707.93
541.4017, 31694.93
541.8839, 31696.35
542.3660, 31713.48
542.8481, 31737.29
543.3302, 31772.36
543.8123, 31806.49
544.2944, 31812.77
544.7766, 31767.41
545.2587, 31718.57
545.7408, 31703.87
546.2229, 31715.55
546.7050, 31733.92
547.1871, 31764.80
547.6693, 31788.67
548.1514, 31783.75
548.6335, 31742.87
549.1156, 31740.24
549.5977, 31833.38
550.0798, 31937.25
550.5620, 31991.88
551.0441, 31965.50
551.5262, 31954.20
552.0083, 31970.16
552.4904, 31997.06
552.9725, 31996.61
553.4547, 31960.05
553.9368, 31942.49
554.4189, 31967.31
554.9010, 32025.34
555.3831, 32090.36
555.8652, 32162.89
556.3474, 32215.54
556.8295, 32207.16
557.3116, 32166.54
557.7937, 32156.54
558.2758, 32191.55
558.7579, 32232.38
559.2401, 32235.64
559.7222, 32224.66
560.2043, 32235.55
560.6864, 32320.55
561.1685, 32392.98
561.6506, 32397.62
562.1328, 32349.44
562.6149, 32330.79
563.0970, 32390.07
563.5791, 32452.98
564.0612, 32488.13
564.5433, 32486.77
565.0255, 32490.23
565.5076, 32496.91
565.9897, 32510.28
566.4718, 32538.80
566.9539, 32587.05
567.4360, 32618.29
567.9182, 32621.35
568.4003, 32610.57
568.8824, 32619.75
569.3645, 32646.77
569.8466, 32666.77
570.3287, 32653.06
570.8109, 32628.77
571.2930, 32633.78
571.7751, 32667.94
572.2572, 32713.61
572.7393, 32777.64
573.2214, 32837.92
573.7036, 32868.64
574.1857, 32850.12
574.6678, 32835.19
575.1499, 32849.68
575.6320, 32877.72
576.1141, 32896.33
576.5963, 32870.59
577.0784, 32871.81
577.5605, 32930.72
578.0426, 33032.98
578.5247, 33087.40
579.0068, 33074.39
579.4890, 33052.62
579.9711, 33053.71
580.4532, 33079.54
580.9353, 33089.43
581.4174, 33078.42
581.8995, 33072.02
582.3817, 33113.57
582.8638, 33186.60
583.3459, 33226.23
583.8280, 33204.16
584.3101, 33167.47
584.7922, 33172.59
585.2744, 33206.03
585.7565, 33233.11
586.2386, 33225.98
586.7207, 33217.07
587.2028, 33223.64
587.6849, 33246.32
588.1671, 33279.59
588.6492, 33332.81
589.1313, 33388.46
589.6134, 33437.97
590.0955, 33495.07
590.5776, 33514.73
591.0598, 33479.48
591.5419, 33422.48
592.0240, 33378.47
592.5061, 33340.64
592.9882, 33358.11
593.4703, 33464.60
593.9525, 33610.09
594.4346, 33655.20
594.9167, 33607.12
595.3988, 33567.04
595.8809, 33611.92
596.3630, 33694.85
596.8452, 33739.43
597.3273, 33742.49
597.8094, 33734.03
598.2915, 33709.24
598.7736, 33695.29
599.2557, 33724.64
599.7379, 33835.78
600.2200, 33924.91
600.7021, 33947.86
601.1842, 33934.17
601.6663, 33931.09
602.1484, 33956.55
602.6306, 33970.15
603.1127, 33950.61
603.5948, 33912.11
604.0769, 33940.18
604.5590, 34060.07
605.0411, 34162.48
605.5233, 34168.71
606.0054, 34093.96
606.4875, 34076.33
606.9696, 34119.71
607.4517, 34182.62
607.9338, 34240.11
608.4160, 34286.09
608.8981, 34300.28
609.3802, 34265.43
609.8623, 34234.74
610.3444, 34255.32
610.8265, 34305.88
611.3087, 34351.23
611.7908, 34376.84
612.2729, 34397.20
612.7550, 34416.57
613.2371, 34434.61
613.7192, 34447.40
614.2014, 34440.52
614.6835, 34446.38
615.1656, 34485.96
615.6477, 34566.49
616.1298, 34605.22
616.6119, 34589.44
617.0941, 34564.40
617.5762, 34574.01
618.0583, 34614.54
618.5404, 34656.11
619.0225, 34696.54
619.5046, 34729.48
619.9868, 34744.55
620.4689, 34745.93
620.9510, 34744.46
621.4331, 34725.09
621.9152, 34721.48
622.3973, 34784.50
622.8795, 34890.57
623.3616, 34943.07
623.8437, 34820.82
624.3258, 34715.35
624.8079, 34740.95
625.2900, 34934.06
625.7722, 35029.66
626.2543, 34976.89
626.7364, 34889.80
627.2185, 34851.57
627.7006, 34868.07
628.1827, 34900.25
628.6649, 34951.14
629.1470, 35002.39
629.6291, 35020.82
630.1112, 35013.08
630.5933, 35013.45
631.0754, 35035.73
631.5576, 35068.34
632.0397, 35098.40
632.5218, 35126.91
633.0039, 35156.81
633.4860, 35197.32
633.9681, 35232.80
634.4503, 35251.43
634.9324, 35252.25
635.4145, 35254.74
635.8966, 35252.89
636.3787, 35261.86
636.8608, 35292.50
637.3430, 35358.66
637.8251, 35408.20
638.3072, 35438.63
638.7893, 35455.48
639.2714, 35463.07
639.7535, 35461.27
640.2357, 35455.89
640.7178, 35445.02
641.1999, 35436.77
641.6820, 35440.07
642.1641, 35456.20
642.6462, 35489.26
643.1284, 35582.59
643.6105, 35662.54
644.0926, 35645.29
644.5747, 35547.68
645.0568, 35477.32
645.5389, 35497.41
646.0211, 35538.04
646.5032, 35558.61
646.9853, 35541.70
647.4674, 35563.81
647.9495, 35656.31
648.4316, 35752.21
648.9138, 35794.96
649.3959, 35774.65
649.8780, 35755.96
650.3601, 35741.84
650.8422, 35736.85
651.3243, 35756.67
651.8065, 35794.99
652.2886, 35819.51
652.7707, 35815.98
653.2528, 35798.29
653.7349, 35767.79
654.2170, 35734.05
