##NAMES=Vauxite
##RRUFFID=R070421
##IDEAL CHEMISTRY=Fe^2+^Al_2_(PO_4_)_2_(OH)_2_&#183;6H_2_O
##LOCALITY=Llallagua, Bustillos Province, Potosi, Bolivia
##OWNER=RRUFF
##SOURCE=James Shigley
##DESCRIPTION=Aggregates of pale blue tabular crystals
##STATUS=The identification of this mineral is confirmed by single-crystal X-ray diffraction and chemical analysis.
##URL=rruff.info/R070421
##MEASURED CHEMISTRY=(Fe^2+^_0.98_Mn_0.02_)_Σ=1_Al_2.00_(P_1.00_O_4_)_2_(OH)_2_·5.7H_2_O; OH estimated by charge balance; H_2_O  by difference
167.3124, 6801.756
167.7945, 6899.086
168.2766, 6992.605
168.7587, 7095.077
169.2408, 7212.912
169.7230, 7325.981
170.2051, 7422.350
170.6872, 7507.875
171.1693, 7591.232
171.6514, 7677.814
172.1335, 7764.167
172.6157, 7840.718
173.0978, 7903.676
173.5799, 7964.112
174.0620, 8021.863
174.5441, 8081.879
175.0262, 8153.232
175.5084, 8249.422
175.9905, 8354.689
176.4726, 8424.237
176.9547, 8442.221
177.4368, 8451.627
177.9189, 8467.419
178.4010, 8486.548
178.8832, 8506.908
179.3653, 8531.884
179.8474, 8553.581
180.3295, 8546.599
180.8116, 8495.314
181.2937, 8441.516
181.7759, 8404.119
182.2580, 8370.895
182.7401, 8324.951
183.2222, 8255.087
183.7043, 8172.095
184.1864, 8108.733
184.6686, 8080.988
185.1507, 8045.825
185.6328, 7998.144
186.1149, 7936.378
186.5970, 7853.589
187.0791, 7742.625
187.5613, 7619.967
188.0434, 7528.337
188.5255, 7483.896
189.0076, 7446.334
189.4897, 7407.848
189.9718, 7370.226
190.4540, 7334.732
190.9361, 7302.145
191.4182, 7272.561
191.9003, 7246.256
192.3824, 7223.190
192.8645, 7203.868
193.3467, 7189.806
193.8288, 7178.050
194.3109, 7164.272
194.7930, 7146.634
195.2751, 7129.980
195.7572, 7126.063
196.2394, 7144.223
196.7215, 7157.858
197.2036, 7162.090
197.6857, 7161.943
198.1678, 7160.548
198.6499, 7159.134
199.1321, 7159.110
199.6142, 7162.594
200.0963, 7167.729
200.5784, 7181.103
201.0605, 7210.255
201.5426, 7241.987
202.0248, 7262.782
202.5069, 7270.003
202.9890, 7275.665
203.4711, 7303.525
203.9532, 7376.653
204.4353, 7418.503
204.9175, 7415.748
205.3996, 7393.130
205.8817, 7362.023
206.3638, 7326.922
206.8459, 7292.162
207.3280, 7263.177
207.8102, 7240.689
208.2923, 7223.325
208.7744, 7223.534
209.2565, 7218.781
209.7386, 7191.771
210.2207, 7143.064
210.7029, 7088.627
211.1850, 7044.881
211.6671, 7010.313
212.1492, 6994.089
212.6313, 7015.146
213.1134, 7037.113
213.5956, 7040.653
214.0777, 7026.947
214.5598, 7009.925
215.0419, 7003.025
215.5240, 7007.465
216.0061, 7014.389
216.4883, 7026.458
216.9704, 7038.536
217.4525, 7049.069
217.9346, 7057.980
218.4167, 7065.666
218.8988, 7072.055
219.3810, 7077.047
219.8631, 7084.447
220.3452, 7091.577
220.8273, 7104.073
221.3094, 7124.382
221.7915, 7151.375
222.2737, 7183.818
222.7558, 7222.078
223.2379, 7265.022
223.7200, 7297.067
224.2021, 7308.932
224.6842, 7319.100
225.1664, 7330.375
225.6485, 7342.624
226.1306, 7356.615
226.6127, 7373.686
227.0948, 7390.639
227.5770, 7392.672
228.0591, 7357.777
228.5412, 7337.952
229.0233, 7352.265
229.5054, 7381.548
229.9875, 7404.497
230.4697, 7411.536
230.9518, 7407.243
231.4339, 7402.687
231.9160, 7398.845
232.3981, 7392.854
232.8802, 7382.589
233.3624, 7371.348
233.8445, 7360.756
234.3266, 7351.589
234.8087, 7345.729
235.2908, 7349.122
235.7729, 7372.315
236.2551, 7378.955
236.7372, 7360.822
237.2193, 7331.185
237.7014, 7295.815
238.1835, 7256.993
238.6656, 7217.409
239.1478, 7179.849
239.6299, 7144.081
240.1120, 7111.089
240.5941, 7088.684
241.0762, 7062.735
241.5583, 7016.088
242.0405, 6954.449
242.5226, 6905.521
243.0047, 6902.378
243.4868, 6950.172
243.9689, 6982.016
244.4510, 6991.032
244.9332, 6989.006
245.4153, 6970.110
245.8974, 6942.551
246.3795, 6925.048
246.8616, 6933.148
247.3437, 6964.074
247.8259, 6992.813
248.3080, 7022.950
248.7901, 7045.361
249.2722, 7049.612
249.7543, 7046.144
250.2364, 7052.438
250.7186, 7080.223
251.2007, 7121.328
251.6828, 7149.399
252.1649, 7150.712
252.6470, 7167.926
253.1291, 7225.246
253.6113, 7299.129
254.0934, 7366.251
254.5755, 7418.927
255.0576, 7459.091
255.5397, 7484.528
256.0219, 7487.505
256.5040, 7505.158
256.9861, 7564.649
257.4682, 7633.544
257.9503, 7686.597
258.4324, 7717.969
258.9146, 7748.023
259.3967, 7801.562
259.8788, 7879.982
260.3609, 7952.469
260.8430, 8020.422
261.3251, 8073.511
261.8073, 8095.414
262.2894, 8088.706
262.7715, 8090.965
263.2536, 8142.143
263.7357, 8231.016
264.2178, 8289.020
264.7000, 8295.846
265.1821, 8290.539
265.6642, 8305.429
266.1463, 8333.753
266.6284, 8352.398
267.1105, 8332.639
267.5927, 8299.038
268.0748, 8311.135
268.5569, 8383.907
269.0390, 8457.740
269.5211, 8488.064
270.0032, 8491.408
270.4854, 8493.224
270.9675, 8501.447
271.4496, 8509.632
271.9317, 8506.026
272.4138, 8490.018
272.8959, 8483.633
273.3781, 8497.805
273.8602, 8529.804
274.3423, 8573.125
274.8244, 8635.998
275.3065, 8694.883
275.7886, 8726.356
276.2708, 8738.190
276.7529, 8764.690
277.2350, 8823.168
277.7171, 8894.786
278.1992, 8951.387
278.6813, 8995.265
279.1635, 9020.966
279.6456, 9015.843
280.1277, 8993.444
280.6098, 8978.498
281.0919, 8977.559
281.5740, 8977.771
282.0562, 8969.143
282.5383, 8953.616
283.0204, 8904.926
283.5025, 8790.335
283.9846, 8660.051
284.4667, 8562.873
284.9489, 8500.876
285.4310, 8439.793
285.9131, 8351.992
286.3952, 8237.524
286.8773, 8126.014
287.3594, 8005.766
287.8416, 7899.151
288.3237, 7824.865
288.8058, 7773.573
289.2879, 7720.187
289.7700, 7649.720
290.2521, 7568.344
290.7343, 7503.729
291.2164, 7460.875
291.6985, 7427.027
292.1806, 7411.458
292.6627, 7399.982
293.1448, 7373.299
293.6270, 7324.844
294.1091, 7265.187
294.5912, 7212.973
295.0733, 7170.086
295.5554, 7131.979
296.0375, 7093.859
296.5197, 7063.674
297.0018, 7050.186
297.4839, 7052.424
297.9660, 7060.843
298.4481, 7066.613
298.9302, 7070.340
299.4124, 7066.756
299.8945, 7039.745
300.3766, 7021.667
300.8587, 7026.137
301.3408, 7048.409
301.8229, 7078.642
302.3050, 7112.527
302.7871, 7146.850
303.2693, 7163.935
303.7514, 7148.823
304.2335, 7137.916
304.7156, 7142.506
305.1977, 7153.055
305.6798, 7156.177
306.1620, 7146.431
306.6441, 7137.647
307.1262, 7154.957
307.6083, 7205.276
308.0904, 7255.708
308.5725, 7305.114
309.0547, 7349.521
309.5368, 7381.962
310.0189, 7403.437
310.5010, 7426.556
310.9831, 7463.293
311.4652, 7512.539
311.9474, 7561.735
312.4295, 7610.408
312.9116, 7658.140
313.3937, 7699.703
313.8758, 7739.760
314.3579, 7790.672
314.8401, 7865.697
315.3222, 7951.644
315.8043, 8023.666
316.2864, 8079.103
316.7685, 8135.516
317.2506, 8199.546
317.7328, 8271.266
318.2149, 8351.026
318.6970, 8440.920
319.1791, 8534.496
319.6612, 8627.188
320.1433, 8718.987
320.6255, 8811.338
321.1076, 8903.499
321.5897, 8997.313
322.0718, 9098.834
322.5539, 9209.041
323.0360, 9316.023
323.5182, 9412.301
324.0003, 9505.649
324.4824, 9607.782
324.9645, 9721.033
325.4466, 9835.697
325.9287, 9943.072
326.4109, 10042.28
326.8930, 10139.02
327.3751, 10242.49
327.8572, 10335.77
328.3393, 10415.35
328.8214, 10477.72
329.3036, 10514.17
329.7857, 10519.21
330.2678, 10495.75
330.7499, 10456.73
331.2320, 10413.98
331.7141, 10340.25
332.1963, 10220.87
332.6784, 10074.22
333.1605, 9914.585
333.6426, 9748.157
334.1247, 9581.335
334.6068, 9424.555
335.0890, 9288.594
335.5711, 9134.411
336.0532, 8927.757
336.5353, 8735.371
337.0174, 8603.693
337.4995, 8520.980
337.9817, 8438.849
338.4638, 8315.145
338.9459, 8157.571
339.4280, 8036.198
339.9101, 7967.332
340.3922, 7914.513
340.8744, 7873.409
341.3565, 7837.331
341.8386, 7796.755
342.3207, 7746.725
342.8028, 7696.894
343.2849, 7662.049
343.7671, 7643.520
344.2492, 7630.985
344.7313, 7631.836
345.2134, 7629.696
345.6955, 7607.637
346.1776, 7565.533
346.6598, 7526.222
347.1419, 7505.974
347.6240, 7499.475
348.1061, 7493.292
348.5882, 7487.431
349.0703, 7477.720
349.5525, 7457.963
350.0346, 7431.291
350.5167, 7406.895
350.9988, 7385.088
351.4809, 7367.042
351.9630, 7354.445
352.4452, 7346.695
352.9273, 7340.049
353.4094, 7331.600
353.8915, 7324.492
354.3736, 7328.187
354.8557, 7345.535
355.3379, 7364.674
355.8200, 7383.992
356.3021, 7403.273
356.7842, 7421.927
357.2663, 7439.939
357.7484, 7457.042
358.2306, 7471.332
358.7127, 7479.471
359.1948, 7505.627
359.6769, 7564.631
360.1590, 7623.950
360.6411, 7670.899
361.1233, 7706.656
361.6054, 7735.019
362.0875, 7757.524
362.5696, 7777.294
363.0517, 7806.575
363.5338, 7854.574
364.0160, 7897.386
364.4981, 7929.442
364.9802, 7957.470
365.4623, 7985.820
365.9444, 8015.805
366.4265, 8048.718
366.9087, 8085.788
367.3908, 8127.394
367.8729, 8172.021
368.3550, 8223.251
368.8371, 8273.361
369.3192, 8322.045
369.8014, 8367.028
370.2835, 8402.949
370.7656, 8427.131
371.2477, 8441.048
371.7298, 8443.813
372.2119, 8434.032
372.6941, 8427.108
373.1762, 8435.354
373.6583, 8446.259
374.1404, 8443.259
374.6225, 8426.397
375.1046, 8393.723
375.5868, 8337.166
376.0689, 8265.410
376.5510, 8196.448
377.0331, 8134.423
377.5152, 8071.094
377.9973, 7995.746
378.4795, 7906.904
378.9616, 7828.575
379.4437, 7772.000
379.9258, 7716.398
380.4079, 7646.044
380.8900, 7566.354
381.3722, 7494.646
381.8543, 7440.549
382.3364, 7399.780
382.8185, 7358.250
383.3006, 7296.779
383.7827, 7262.109
384.2649, 7286.141
384.7470, 7316.896
385.2291, 7303.743
385.7112, 7243.968
386.1933, 7180.187
386.6754, 7160.225
387.1576, 7187.266
387.6397, 7197.872
388.1218, 7175.353
388.6039, 7155.121
389.0860, 7147.419
389.5681, 7149.763
390.0503, 7158.257
390.5324, 7172.030
391.0145, 7189.042
391.4966, 7209.062
391.9787, 7233.355
392.4608, 7246.260
392.9430, 7227.408
393.4251, 7210.646
393.9072, 7232.132
394.3893, 7291.806
394.8714, 7349.654
395.3535, 7391.210
395.8357, 7416.753
396.3178, 7420.501
396.7999, 7400.518
397.2820, 7383.850
397.7641, 7391.416
398.2462, 7418.545
398.7284, 7437.230
399.2105, 7440.081
399.6926, 7442.809
400.1747, 7457.172
400.6568, 7474.073
401.1389, 7478.001
401.6211, 7463.791
402.1032, 7437.704
402.5853, 7407.764
403.0674, 7371.011
403.5495, 7340.108
404.0316, 7336.316
404.5138, 7317.728
404.9959, 7247.364
405.4780, 7143.494
405.9601, 7052.434
406.4422, 7003.576
406.9243, 6988.733
407.4065, 6983.222
407.8886, 6999.840
408.3707, 6998.863
408.8528, 6958.123
409.3349, 6907.845
409.8170, 6869.050
410.2992, 6845.621
410.7813, 6833.236
411.2634, 6833.753
411.7455, 6843.820
412.2276, 6846.674
412.7097, 6841.558
413.1919, 6828.403
413.6740, 6798.391
414.1561, 6760.770
414.6382, 6735.349
415.1203, 6730.220
415.6024, 6732.640
416.0846, 6735.950
416.5667, 6739.504
417.0488, 6741.552
417.5309, 6741.713
418.0130, 6739.226
418.4951, 6731.919
418.9773, 6716.759
419.4594, 6707.625
419.9415, 6711.183
420.4236, 6715.888
420.9057, 6711.971
421.3878, 6701.828
421.8700, 6695.662
422.3521, 6700.778
422.8342, 6713.379
423.3163, 6716.376
423.7984, 6697.448
424.2805, 6688.354
424.7627, 6698.348
425.2448, 6714.479
425.7269, 6729.367
426.2090, 6740.426
426.6911, 6744.190
427.1732, 6733.715
427.6554, 6710.537
428.1375, 6692.617
428.6196, 6675.793
429.1017, 6672.677
429.5838, 6700.678
430.0659, 6743.193
430.5481, 6775.801
431.0302, 6791.271
431.5123, 6799.035
431.9944, 6804.613
432.4765, 6808.580
432.9586, 6813.295
433.4408, 6819.721
433.9229, 6825.599
434.4050, 6825.730
434.8871, 6818.637
435.3692, 6824.600
435.8513, 6853.269
436.3335, 6887.607
436.8156, 6922.788
437.2977, 6955.124
437.7798, 6977.570
438.2619, 6986.188
438.7440, 6984.660
439.2262, 6981.474
439.7083, 6970.624
440.1904, 6969.343
440.6725, 6977.262
441.1546, 6993.993
441.6367, 7029.086
442.1189, 7075.028
442.6010, 7107.186
443.0831, 7102.451
443.5652, 7071.086
444.0473, 7051.414
444.5294, 7043.398
445.0116, 7047.297
445.4937, 7074.725
445.9758, 7108.522
446.4579, 7131.664
446.9400, 7141.051
447.4221, 7147.238
447.9043, 7155.456
448.3864, 7165.271
448.8685, 7178.232
449.3506, 7195.295
449.8327, 7204.705
450.3148, 7192.096
450.7970, 7161.611
451.2791, 7153.739
451.7612, 7194.083
452.2433, 7225.473
452.7254, 7221.512
453.2076, 7200.067
453.6897, 7186.438
454.1718, 7187.818
454.6539, 7193.779
455.1360, 7189.511
455.6181, 7171.042
456.1003, 7164.893
456.5824, 7193.003
457.0645, 7211.093
457.5466, 7195.968
458.0287, 7164.195
458.5108, 7142.641
458.9930, 7142.933
459.4751, 7155.754
459.9572, 7171.044
460.4393, 7188.870
460.9214, 7200.407
461.4035, 7201.293
461.8857, 7198.947
462.3678, 7203.569
462.8499, 7212.531
463.3320, 7210.351
463.8141, 7182.024
464.2962, 7149.257
464.7784, 7131.332
465.2605, 7126.014
465.7426, 7124.174
466.2247, 7122.806
466.7068, 7119.347
467.1889, 7107.780
467.6711, 7076.587
468.1532, 7062.600
468.6353, 7085.639
469.1174, 7108.369
469.5995, 7105.178
470.0816, 7080.817
470.5638, 7054.447
471.0459, 7037.910
471.5280, 7027.945
472.0101, 7013.045
472.4922, 6987.708
472.9743, 6972.794
473.4565, 6988.537
473.9386, 7004.865
474.4207, 6996.147
474.9028, 6964.622
475.3849, 6941.827
475.8670, 6948.311
476.3492, 6973.983
476.8313, 7009.229
477.3134, 7053.861
477.7955, 7079.851
478.2776, 7063.917
478.7597, 7028.060
479.2419, 7027.864
479.7240, 7075.035
480.2061, 7121.583
480.6882, 7161.613
481.1703, 7195.005
481.6524, 7221.394
482.1346, 7240.965
482.6167, 7252.644
483.0988, 7253.751
483.5809, 7248.517
484.0630, 7261.253
484.5451, 7302.875
485.0273, 7345.358
485.5094, 7388.645
485.9915, 7428.335
486.4736, 7454.295
486.9557, 7468.942
487.4378, 7493.722
487.9200, 7557.545
488.4021, 7643.874
488.8842, 7700.151
489.3663, 7722.085
489.8484, 7735.216
490.3305, 7744.884
490.8127, 7757.640
491.2948, 7787.629
491.7769, 7843.163
492.2590, 7891.783
492.7411, 7924.544
493.2232, 7943.227
493.7054, 7942.400
494.1875, 7925.607
494.6696, 7914.780
495.1517, 7928.397
495.6338, 7961.117
496.1159, 7978.868
496.5981, 7981.360
497.0802, 7967.339
497.5623, 7932.853
498.0444, 7885.404
498.5265, 7825.958
499.0086, 7757.761
499.4908, 7692.723
499.9729, 7643.360
500.4550, 7604.813
500.9371, 7559.223
501.4192, 7505.214
501.9013, 7449.073
502.3835, 7387.508
502.8656, 7328.986
503.3477, 7289.975
503.8298, 7277.994
504.3119, 7255.351
504.7940, 7195.088
505.2762, 7124.202
505.7583, 7072.672
506.2404, 7042.705
506.7225, 7026.401
507.2046, 7019.697
507.6867, 7020.429
508.1689, 7019.363
508.6510, 7018.208
509.1331, 7012.348
509.6152, 6988.632
510.0973, 6970.205
510.5794, 6978.332
511.0616, 7010.106
511.5437, 7044.161
512.0258, 7064.853
512.5079, 7076.970
512.9901, 7092.435
513.4722, 7110.619
513.9543, 7136.383
514.4364, 7178.548
514.9185, 7222.934
515.4006, 7244.735
515.8828, 7240.465
516.3649, 7258.341
516.8470, 7323.943
517.3291, 7409.848
517.8112, 7497.100
518.2933, 7582.506
518.7755, 7663.380
519.2576, 7737.496
519.7397, 7808.171
520.2218, 7883.672
520.7039, 7970.641
521.1860, 8050.076
521.6682, 8105.948
522.1503, 8169.848
522.6324, 8261.300
523.1145, 8375.256
523.5966, 8494.066
524.0787, 8608.620
524.5609, 8724.477
525.0430, 8850.804
525.5251, 8987.570
526.0072, 9129.917
526.4893, 9277.961
526.9714, 9429.540
527.4536, 9587.127
527.9357, 9749.351
528.4178, 9894.253
528.8999, 9992.229
529.3820, 10098.54
529.8641, 10263.98
530.3463, 10458.29
530.8284, 10621.35
531.3105, 10733.35
531.7926, 10814.07
532.2747, 10894.96
532.7568, 10985.35
533.2390, 11018.79
533.7211, 10958.05
534.2032, 10879.97
534.6853, 10809.29
535.1674, 10735.03
535.6495, 10645.43
536.1317, 10538.44
536.6138, 10399.06
537.0959, 10201.56
537.5780, 9960.394
538.0601, 9721.931
538.5422, 9493.135
539.0244, 9262.879
539.5065, 9018.746
539.9886, 8768.857
540.4707, 8557.262
540.9528, 8393.720
541.4349, 8247.479
541.9171, 8117.814
542.3992, 7999.245
542.8813, 7887.357
543.3634, 7780.751
543.8455, 7678.143
544.3276, 7576.804
544.8098, 7479.992
545.2919, 7403.653
545.7740, 7353.927
546.2561, 7308.081
546.7382, 7261.888
547.2203, 7216.861
547.7025, 7174.480
548.1846, 7134.646
548.6666, 7094.744
549.1487, 7045.529
549.6309, 7001.763
550.1130, 6984.709
550.5951, 6989.179
551.0772, 6992.783
551.5593, 6986.810
552.0414, 6974.664
552.5236, 6961.436
553.0057, 6946.260
553.4878, 6932.843
553.9699, 6919.477
554.4520, 6909.329
554.9341, 6902.886
555.4163, 6900.731
555.8984, 6905.306
556.3805, 6917.745
556.8626, 6930.487
557.3447, 6933.290
557.8268, 6927.454
558.3090, 6923.854
558.7911, 6924.157
559.2732, 6924.641
559.7553, 6923.880
560.2374, 6921.167
560.7195, 6913.738
561.2017, 6889.965
561.6838, 6881.760
562.1659, 6912.654
562.6480, 6955.796
563.1301, 6983.576
563.6122, 6993.603
564.0944, 6998.454
564.5765, 7008.104
565.0586, 7018.452
565.5407, 7011.358
566.0228, 6976.963
566.5049, 6950.106
566.9871, 6946.212
567.4692, 6943.977
567.9513, 6928.098
568.4334, 6901.109
568.9155, 6877.347
569.3976, 6860.334
569.8798, 6851.322
570.3619, 6858.824
570.8440, 6876.176
571.3261, 6878.312
571.8082, 6856.508
572.2903, 6828.330
572.7725, 6815.785
573.2546, 6821.408
573.7367, 6818.221
574.2188, 6800.736
574.7009, 6781.405
575.1830, 6761.160
575.6652, 6741.815
576.1473, 6724.428
576.6294, 6709.454
577.1115, 6698.246
577.5936, 6695.288
578.0757, 6697.025
578.5579, 6689.827
579.0400, 6672.292
579.5221, 6657.445
580.0042, 6654.518
580.4863, 6654.852
580.9684, 6638.169
581.4506, 6597.254
581.9327, 6571.774
582.4148, 6578.708
582.8969, 6592.429
583.3790, 6598.388
583.8611, 6597.255
584.3433, 6592.628
584.8254, 6586.086
585.3075, 6580.695
585.7896, 6582.565
586.2717, 6592.589
586.7538, 6599.318
587.2360, 6601.467
587.7181, 6601.555
588.2002, 6599.385
588.6823, 6596.547
589.1644, 6595.747
589.6465, 6597.703
590.1287, 6600.731
590.6108, 6608.908
591.0929, 6615.058
591.5750, 6605.967
592.0571, 6583.606
592.5392, 6565.212
593.0214, 6562.897
593.5035, 6570.763
593.9856, 6568.851
594.4677, 6546.794
594.9498, 6539.667
595.4319, 6564.471
595.9141, 6592.207
596.3962, 6605.909
596.8783, 6611.093
597.3604, 6624.521
597.8425, 6658.112
598.3246, 6690.439
598.8068, 6699.396
599.2889, 6692.268
599.7710, 6685.798
600.2531, 6683.167
600.7352, 6687.268
601.2173, 6701.160
601.6995, 6723.920
602.1816, 6748.161
602.6637, 6783.512
603.1458, 6806.640
603.6279, 6799.469
604.1100, 6792.508
604.5922, 6815.025
605.0743, 6861.113
605.5564, 6897.498
606.0385, 6897.860
606.5206, 6888.290
607.0027, 6914.938
607.4849, 6972.085
607.9670, 7010.126
608.4491, 7012.355
608.9312, 7011.056
609.4133, 7041.167
609.8954, 7102.901
610.3776, 7148.457
610.8597, 7171.564
611.3418, 7187.994
611.8239, 7190.563
612.3060, 7194.999
612.7881, 7220.691
613.2703, 7266.670
613.7524, 7313.379
614.2345, 7348.806
614.7166, 7372.232
615.1987, 7376.513
615.6808, 7360.404
616.1630, 7353.820
616.6451, 7367.459
617.1272, 7389.827
617.6093, 7408.138
618.0914, 7422.345
618.5735, 7441.529
619.0557, 7486.203
619.5378, 7512.609
620.0199, 7489.343
620.5020, 7445.438
620.9841, 7418.780
621.4662, 7415.333
621.9484, 7412.676
622.4305, 7387.834
622.9126, 7348.836
623.3947, 7330.385
623.8768, 7336.865
624.3589, 7338.905
624.8411, 7330.249
625.3232, 7310.466
625.8053, 7272.161
626.2874, 7216.596
626.7695, 7175.526
627.2516, 7157.054
627.7338, 7150.135
628.2159, 7158.913
628.6980, 7172.050
629.1801, 7173.094
629.6622, 7158.737
630.1443, 7137.550
630.6265, 7116.109
631.1086, 7095.333
631.5907, 7082.012
632.0728, 7079.607
632.5549, 7069.963
633.0370, 7038.313
633.5192, 7006.068
634.0013, 7003.717
634.4834, 7029.101
634.9655, 7036.552
635.4476, 6997.598
635.9297, 6958.961
636.4119, 6950.525
636.8940, 6958.251
637.3761, 6959.000
637.8582, 6947.545
638.3403, 6934.196
638.8224, 6928.085
639.3046, 6929.227
639.7867, 6941.560
640.2688, 6972.638
640.7509, 6987.952
641.2330, 6973.380
641.7151, 6942.669
642.1973, 6904.180
642.6794, 6859.305
643.1615, 6827.938
643.6436, 6830.091
644.1257, 6829.737
644.6078, 6800.342
645.0900, 6758.294
645.5721, 6730.485
646.0542, 6721.601
646.5363, 6715.904
647.0184, 6699.579
647.5005, 6673.932
647.9827, 6644.731
648.4648, 6612.331
648.9469, 6574.642
649.4290, 6522.502
649.9111, 6474.451
650.3932, 6450.046
650.8754, 6446.442
651.3575, 6444.061
651.8396, 6455.389
652.3217, 6449.358
652.8038, 6396.699
653.2859, 6325.076
653.7681, 6268.578
654.2502, 6233.951
654.7323, 6213.931
655.2144, 6205.700
655.6965, 6203.486
656.1786, 6186.364
656.6608, 6151.277
657.1429, 6120.742
657.6250, 6103.521
658.1071, 6086.410
658.5892, 6052.047
659.0714, 6006.075
659.5535, 5975.268
660.0356, 5978.604
660.5177, 5976.660
