##NAMES=Vayrynenite
##RRUFFID=R050590
##IDEAL CHEMISTRY=Mn^2+^Be(PO_4_)OH
##LOCALITY=Shengus, Pakistan
##OWNER=RRUFF
##SOURCE=Wayne Thompson
##DESCRIPTION=Pinkish brown fragment
##STATUS=The identification of this mineral has been confirmed by X-ray diffraction and chemical analysis
##URL=rruff.info/R050590
##MEASURED CHEMISTRY=(Mn^2+^_0.91_Fe^2+^_0.04_[box]_0.05_)Be(PO_4_)(OH_0.90_F_0.10_)
92.06543, 155.8206
92.54755, 164.8642
93.02966, 167.8157
93.51178, 158.5714
93.99390, 146.0348
94.47601, 130.1588
94.95813, 113.0594
95.44025, 97.79089
95.92236, 86.81068
96.40448, 80.35638
96.88660, 74.98823
97.36871, 70.43819
97.85082, 66.90062
98.33294, 64.66632
98.81506, 63.69204
99.29717, 63.25564
99.77929, 62.92714
100.2614, 62.70411
100.7435, 62.80059
101.2256, 63.59455
101.7078, 64.72353
102.1899, 65.29703
102.6720, 64.84744
103.1541, 64.18279
103.6362, 63.99207
104.1183, 64.26154
104.6005, 64.84185
105.0826, 65.67808
105.5647, 66.80108
106.0468, 67.93037
106.5289, 69.14849
107.0110, 70.24648
107.4931, 71.12639
107.9753, 71.76084
108.4574, 72.11022
108.9395, 72.03700
109.4216, 71.01467
109.9037, 70.39472
110.3858, 70.36407
110.8680, 70.73455
111.3501, 71.27246
111.8322, 71.84195
112.3143, 72.51283
112.7964, 73.80630
113.2785, 75.83899
113.7607, 78.28997
114.2428, 81.09480
114.7249, 84.25334
115.2070, 87.75872
115.6891, 91.45218
116.1712, 95.51876
116.6534, 100.9281
117.1355, 107.1262
117.6176, 114.9317
118.0997, 124.8836
118.5818, 137.0410
119.0639, 151.3784
119.5461, 169.4863
120.0282, 190.1365
120.5103, 209.5718
120.9924, 230.4258
121.4745, 249.1679
121.9566, 257.2682
122.4388, 251.7427
122.9209, 237.4569
123.4030, 217.1589
123.8851, 192.0803
124.3672, 166.1869
124.8493, 141.7446
125.3315, 118.5459
125.8136, 98.93478
126.2957, 84.93797
126.7778, 73.63464
127.2599, 64.46096
127.7420, 57.18896
128.2242, 51.29149
128.7063, 46.12749
129.1884, 41.49296
129.6705, 38.18965
130.1526, 36.87396
130.6347, 36.20504
131.1169, 35.17547
131.5990, 33.45525
132.0811, 31.43497
132.5632, 29.98039
133.0453, 29.58668
133.5274, 29.18531
134.0096, 28.67764
134.4917, 28.14359
134.9738, 27.72233
135.4559, 27.49679
135.9380, 27.38321
136.4201, 27.08903
136.9023, 26.46857
137.3844, 25.89820
137.8665, 25.59193
138.3486, 25.49723
138.8307, 25.37814
139.3128, 25.12062
139.7950, 24.73638
140.2771, 24.27462
140.7592, 23.60861
141.2413, 22.99526
141.7234, 22.72609
142.2055, 22.85064
142.6877, 23.07153
143.1698, 23.42087
143.6519, 23.72424
144.1340, 23.71955
144.6161, 23.16536
145.0982, 22.31837
145.5803, 21.85824
146.0625, 21.95591
146.5446, 22.20954
147.0267, 22.52211
147.5088, 22.85995
147.9909, 23.18835
148.4730, 23.50661
148.9552, 23.80691
149.4373, 23.92422
149.9194, 23.50275
150.4015, 23.21898
150.8836, 23.30368
151.3657, 23.68240
151.8479, 24.15263
152.3300, 24.54283
152.8121, 24.85632
153.2942, 25.07214
153.7763, 25.04342
154.2584, 25.06288
154.7406, 25.30747
155.2227, 25.77154
155.7048, 26.28784
156.1869, 26.61848
156.6690, 26.58335
157.1511, 27.20910
157.6333, 28.54912
158.1154, 30.49238
158.5975, 33.37017
159.0796, 37.29860
159.5617, 40.99567
160.0438, 42.31198
160.5260, 41.11541
161.0081, 40.58814
161.4902, 41.58099
161.9723, 43.68401
162.4544, 46.25934
162.9365, 49.29227
163.4187, 52.49493
163.9008, 55.68235
164.3829, 58.85315
164.8650, 61.57301
165.3471, 63.48819
165.8292, 64.67910
166.3113, 65.58281
166.7935, 65.84798
167.2756, 66.28578
167.7577, 67.50283
168.2398, 69.51662
168.7219, 71.92178
169.2040, 74.18727
169.6862, 76.16750
170.1683, 78.97587
170.6504, 83.17899
171.1325, 88.01629
171.6146, 93.51044
172.0967, 99.54075
172.5789, 105.4147
173.0610, 110.0307
173.5431, 112.7602
174.0252, 115.6049
174.5073, 118.2982
174.9894, 121.3931
175.4716, 125.0702
175.9537, 129.4355
176.4358, 134.8478
176.9179, 141.9783
177.4000, 150.5229
177.8821, 161.7166
178.3643, 174.8208
178.8464, 190.6733
179.3285, 210.1174
179.8106, 233.5524
180.2927, 260.5537
180.7748, 289.9931
181.2570, 330.4825
181.7391, 362.8181
182.2212, 389.2868
182.7033, 405.5735
183.1854, 403.1978
183.6675, 376.9291
184.1497, 332.6056
184.6318, 287.0268
185.1139, 235.7708
185.5960, 189.8187
186.0781, 153.5186
186.5602, 125.6990
187.0423, 103.2749
187.5245, 85.55616
188.0066, 72.39126
188.4887, 62.17181
188.9708, 55.55292
189.4529, 50.64246
189.9350, 46.58926
190.4172, 43.37934
190.8993, 40.70186
191.3814, 38.61203
191.8635, 36.93086
192.3456, 35.35559
192.8277, 33.87559
193.3099, 32.48058
193.7920, 31.04011
194.2741, 29.48674
194.7562, 28.38375
195.2383, 28.48565
195.7204, 28.94050
196.2026, 29.06051
196.6847, 28.64217
197.1668, 27.91018
197.6489, 27.10534
198.1310, 26.07689
198.6131, 25.43211
199.0953, 25.63459
199.5774, 26.12277
200.0595, 26.41618
200.5416, 26.32755
201.0237, 26.00329
201.5058, 25.76028
201.9880, 25.63112
202.4701, 25.53161
202.9522, 25.37170
203.4343, 25.25744
203.9164, 25.32715
204.3985, 25.64751
204.8807, 26.11868
205.3628, 26.43298
205.8449, 26.38215
206.3270, 26.44032
206.8091, 26.60186
207.2912, 26.91044
207.7733, 27.47053
208.2555, 28.34064
208.7376, 29.39923
209.2197, 30.19263
209.7018, 30.41259
210.1839, 30.69944
210.6660, 31.03252
211.1482, 31.48751
211.6303, 32.20420
212.1124, 33.27407
212.5945, 34.58368
213.0766, 35.69616
213.5587, 36.46417
214.0409, 37.22685
214.5230, 38.06535
215.0051, 38.94307
215.4872, 39.77550
215.9693, 40.49708
216.4514, 41.18112
216.9336, 42.12414
217.4157, 43.60753
217.8978, 44.93322
218.3799, 46.33209
218.8620, 47.45156
219.3441, 47.26820
219.8263, 45.00189
220.3084, 41.39174
220.7905, 38.49371
221.2726, 36.40890
221.7547, 34.70267
222.2368, 33.18354
222.7190, 31.86848
223.2011, 30.83295
223.6832, 30.13087
224.1653, 29.74577
224.6474, 29.59022
225.1295, 29.75862
225.6117, 29.92652
226.0938, 29.70905
226.5759, 29.18755
227.0580, 29.06551
227.5401, 29.66951
228.0222, 30.80541
228.5043, 32.14293
228.9865, 33.64438
229.4686, 35.41475
229.9507, 37.85273
230.4328, 40.94435
230.9149, 43.34169
231.3970, 44.69298
231.8792, 45.01886
232.3613, 44.32241
232.8434, 42.57497
233.3255, 40.05980
233.8076, 36.68673
234.2897, 32.32797
234.7719, 28.61454
235.2540, 26.22038
235.7361, 24.42680
236.2182, 22.85056
236.7003, 21.43130
237.1824, 20.26779
237.6646, 19.48738
238.1467, 19.12515
238.6288, 18.93230
239.1109, 19.01655
239.5930, 19.16717
240.0751, 19.27475
240.5573, 19.32833
241.0394, 19.39248
241.5215, 19.58335
242.0036, 19.97876
242.4857, 20.18056
242.9678, 19.91549
243.4500, 19.65298
243.9321, 19.68844
244.4142, 20.01192
244.8963, 20.35790
245.3784, 20.37011
245.8605, 19.87629
246.3427, 19.68842
246.8248, 20.08248
247.3069, 20.52872
247.7890, 20.82858
248.2711, 20.94071
248.7532, 20.87713
249.2354, 20.59301
249.7175, 19.94829
250.1996, 19.71102
250.6817, 20.13239
251.1638, 20.68007
251.6459, 21.19236
252.1281, 21.61754
252.6102, 21.91901
253.0923, 22.04795
253.5744, 21.96642
254.0565, 21.94100
254.5386, 21.67430
255.0208, 21.71294
255.5029, 22.49508
255.9850, 23.86594
256.4671, 25.27430
256.9492, 26.24135
257.4313, 26.71638
257.9135, 27.30390
258.3956, 27.95827
258.8777, 28.73595
259.3598, 29.71659
259.8419, 30.85452
260.3240, 32.01136
260.8062, 33.06475
261.2883, 34.01941
261.7704, 35.23401
262.2525, 37.18444
262.7346, 38.87318
263.2167, 39.94769
263.6989, 40.43834
264.1810, 40.49158
264.6631, 40.21066
265.1452, 39.57037
265.6273, 38.33335
266.1094, 36.09666
266.5916, 33.83907
267.0737, 31.88849
267.5558, 30.19162
268.0379, 28.55536
268.5200, 26.83960
269.0021, 25.14860
269.4843, 23.92682
269.9664, 23.42589
270.4485, 22.97256
270.9306, 22.24271
271.4127, 21.41171
271.8948, 20.89889
272.3770, 20.94621
272.8591, 21.31412
273.3412, 21.37989
273.8233, 21.11417
274.3054, 20.71065
274.7875, 20.09285
275.2697, 19.39221
275.7518, 18.86859
276.2339, 18.62684
276.7160, 18.56007
277.1981, 18.45518
277.6802, 18.25046
278.1623, 18.23508
278.6444, 18.74355
279.1266, 19.44156
279.6087, 19.65557
280.0908, 19.11519
280.5729, 18.43539
281.0550, 18.54377
281.5371, 19.41742
282.0193, 20.30079
282.5014, 21.05039
282.9835, 21.68400
283.4656, 22.20545
283.9477, 22.60256
284.4298, 22.95947
284.9120, 23.43838
285.3941, 24.00484
285.8762, 24.28376
286.3583, 24.13125
286.8404, 23.68074
287.3225, 23.02230
287.8047, 22.13965
288.2868, 21.25572
288.7689, 20.48801
289.2510, 19.86129
289.7331, 19.45535
290.2152, 19.46100
290.6974, 19.59213
291.1795, 19.52876
291.6616, 19.25825
292.1437, 19.04045
292.6258, 19.13846
293.1079, 19.37829
293.5901, 19.33493
294.0722, 18.72324
294.5543, 18.08889
295.0364, 17.94706
295.5185, 18.27136
296.0006, 18.61506
296.4828, 18.89251
296.9649, 18.97128
297.4470, 18.59293
297.9291, 17.47576
298.4112, 16.54389
298.8933, 16.61189
299.3755, 17.52228
299.8576, 18.31445
300.3397, 18.66079
300.8218, 18.75275
301.3039, 18.88138
301.7860, 19.05762
302.2682, 19.18945
302.7503, 19.10317
303.2324, 18.90970
303.7145, 19.08095
304.1966, 19.95952
304.6787, 20.81289
305.1609, 20.69260
305.6430, 19.72367
306.1251, 18.99300
306.6072, 19.05295
307.0893, 19.67072
307.5714, 20.38600
308.0536, 21.18432
308.5357, 21.97843
309.0178, 22.78750
309.4999, 23.55351
309.9820, 24.05512
310.4641, 23.86019
310.9463, 23.50026
311.4284, 23.86634
311.9105, 25.09533
312.3926, 26.37368
312.8747, 27.04743
313.3568, 27.42995
313.8390, 28.06312
314.3211, 29.01794
314.8032, 30.29606
315.2853, 32.13783
315.7674, 34.55651
316.2495, 36.58694
316.7317, 37.48159
317.2138, 37.89641
317.6959, 38.81517
318.1780, 40.36785
318.6601, 42.26593
319.1422, 44.50985
319.6243, 47.02320
320.1064, 49.14772
320.5886, 50.41009
321.0707, 51.50653
321.5528, 53.29586
322.0349, 55.80457
322.5170, 58.56043
322.9991, 61.45361
323.4813, 64.40491
323.9634, 67.13636
324.4455, 69.39179
324.9276, 71.83914
325.4097, 75.24537
325.8918, 79.44755
326.3740, 83.69632
326.8561, 87.69813
327.3382, 91.60744
327.8203, 95.77642
328.3024, 100.3074
328.7845, 104.7399
329.2667, 108.5966
329.7488, 112.0843
330.2309, 115.7295
330.7130, 119.5297
331.1951, 123.5862
331.6772, 127.9841
332.1594, 132.7232
332.6415, 137.8810
333.1236, 144.0376
333.6057, 150.3883
334.0878, 155.5192
334.5699, 159.6094
335.0521, 162.0184
335.5342, 162.7210
336.0163, 161.5093
336.4984, 157.3229
336.9805, 149.3083
337.4626, 138.7390
337.9448, 127.2968
338.4269, 114.6282
338.9090, 102.8797
339.3911, 92.86007
339.8732, 84.30935
340.3553, 76.87062
340.8375, 70.50001
341.3196, 65.14894
341.8017, 61.09551
342.2838, 58.22123
342.7659, 55.61911
343.2480, 52.99874
343.7302, 50.63496
344.2123, 48.89612
344.6944, 47.81051
345.1765, 47.01845
345.6586, 46.27919
346.1407, 45.63844
346.6229, 45.22501
347.1050, 45.01102
347.5871, 45.05530
348.0692, 45.58357
348.5513, 46.45443
349.0334, 47.15759
349.5156, 47.44891
349.9977, 47.39070
350.4798, 47.12049
350.9619, 46.51363
351.4440, 45.98709
351.9261, 45.65831
352.4083, 45.50130
352.8904, 45.52058
353.3725, 45.73698
353.8546, 45.99199
354.3367, 46.02680
354.8188, 45.75499
355.3010, 45.63843
355.7831, 45.71126
356.2652, 45.96019
356.7473, 46.32573
357.2294, 46.81995
357.7115, 47.58683
358.1937, 48.75402
358.6758, 50.34846
359.1579, 52.25671
359.6400, 54.51160
360.1221, 57.01105
360.6042, 59.87255
361.0863, 62.95387
361.5685, 65.86062
362.0506, 68.36716
362.5327, 70.57111
363.0148, 72.87305
363.4969, 75.09500
363.9790, 77.61935
364.4612, 80.64620
364.9433, 83.95699
365.4254, 87.19910
365.9075, 90.26846
366.3896, 93.40076
366.8717, 96.96018
367.3539, 100.9755
367.8360, 105.4439
368.3181, 110.2649
368.8002, 115.5555
369.2823, 121.4348
369.7644, 127.8666
370.2466, 134.7454
370.7287, 142.0169
371.2108, 149.6881
371.6929, 157.6659
372.1750, 165.3752
372.6571, 173.9976
373.1393, 184.3700
373.6214, 195.8727
374.1035, 207.6632
374.5856, 219.2570
375.0677, 230.6265
375.5498, 241.8919
376.0320, 254.5552
376.5141, 264.6604
376.9962, 272.3724
377.4783, 277.3720
377.9604, 279.3661
378.4425, 278.2885
378.9247, 274.2090
379.4068, 266.9005
379.8889, 255.6538
380.3710, 243.5999
380.8531, 230.3376
381.3352, 216.6137
381.8174, 202.6245
382.2995, 188.4280
382.7816, 173.9338
383.2637, 158.8261
383.7458, 143.3986
384.2279, 129.9030
384.7101, 118.6876
385.1922, 109.1012
385.6743, 101.0571
386.1564, 94.19920
386.6385, 88.09505
387.1206, 82.68053
387.6028, 77.72299
388.0849, 72.75027
388.5670, 67.65379
389.0491, 63.13004
389.5312, 59.46767
390.0133, 56.36697
390.4955, 53.85179
390.9776, 51.85991
391.4597, 49.86720
391.9418, 47.20986
392.4239, 44.08999
392.9060, 41.85279
393.3882, 40.96674
393.8703, 40.32061
394.3524, 39.13861
394.8345, 37.64330
395.3166, 36.32077
395.7987, 35.52487
396.2809, 34.85695
396.7630, 33.64573
397.2451, 31.82867
397.7272, 30.30146
398.2093, 29.56054
398.6914, 29.30086
399.1736, 28.99401
399.6557, 28.58689
400.1378, 28.24006
400.6199, 27.99607
401.1020, 27.88304
401.5841, 28.08500
402.0662, 28.77227
402.5483, 29.39139
403.0305, 29.18904
403.5126, 28.22564
403.9947, 27.22589
404.4768, 26.25673
404.9589, 25.34446
405.4410, 24.49114
405.9232, 23.70990
406.4053, 23.07635
406.8874, 22.66457
407.3695, 22.44111
407.8516, 22.20259
408.3337, 21.88293
408.8159, 21.62687
409.2980, 21.57201
409.7801, 21.58705
410.2622, 21.41733
410.7443, 20.96821
411.2264, 20.45134
411.7086, 20.21874
412.1907, 20.46437
412.6728, 20.51796
413.1549, 20.22312
413.6370, 19.86728
414.1191, 19.66166
414.6013, 19.59146
415.0834, 19.48965
415.5655, 19.20551
416.0476, 18.75887
416.5297, 18.51726
417.0118, 18.71306
417.4940, 18.85497
417.9761, 18.83926
418.4582, 18.73288
418.9403, 18.61156
419.4224, 18.50577
419.9045, 18.42187
420.3867, 18.35429
420.8688, 18.25240
421.3509, 18.30899
421.8330, 18.80168
422.3151, 19.21713
422.7972, 19.25138
423.2794, 18.93987
423.7615, 18.50793
424.2436, 18.08629
424.7257, 17.69110
425.2078, 17.42770
425.6899, 17.32151
426.1721, 17.31244
426.6542, 17.33980
427.1363, 17.45202
427.6184, 17.75656
428.1005, 18.32292
428.5826, 18.90424
429.0648, 19.14400
429.5469, 19.03774
430.0290, 19.04836
430.5111, 19.37885
430.9932, 19.74048
431.4753, 19.83247
431.9575, 19.69266
432.4396, 19.63257
432.9217, 19.87107
433.4038, 20.25863
433.8859, 20.52326
434.3680, 20.63593
434.8502, 20.76815
435.3323, 20.97855
435.8144, 21.30931
436.2965, 21.85130
436.7786, 22.78426
437.2607, 23.66091
437.7429, 24.18693
438.2250, 24.47844
438.7071, 24.74986
439.1892, 25.03748
439.6713, 25.47072
440.1534, 26.23792
440.6356, 27.38759
441.1177, 28.71099
441.5998, 30.19725
442.0819, 31.84912
442.5640, 33.71867
443.0461, 35.75996
443.5282, 37.87658
444.0103, 40.02073
444.4925, 42.14769
444.9746, 43.97620
445.4567, 45.02364
445.9388, 46.36460
446.4209, 48.38313
446.9030, 50.59692
447.3852, 52.55247
447.8673, 54.11853
448.3494, 55.44802
448.8315, 56.59513
449.3136, 57.32071
449.7957, 59.07517
450.2779, 62.55957
450.7600, 66.42703
451.2421, 70.27239
451.7242, 74.16909
452.2063, 78.27921
452.6884, 82.60525
453.1706, 87.34411
453.6527, 92.93028
454.1348, 99.43528
454.6169, 106.4817
455.0990, 114.1067
455.5811, 122.1884
456.0633, 130.8412
456.5454, 140.0145
457.0275, 149.2344
457.5096, 158.7652
457.9917, 168.1365
458.4738, 175.9356
458.9560, 182.2386
459.4381, 186.5370
459.9202, 188.6194
460.4023, 188.3813
460.8844, 185.1542
461.3665, 178.1209
461.8487, 169.0631
462.3308, 158.8941
462.8129, 147.7296
463.2950, 135.7294
463.7771, 122.5378
464.2592, 109.4210
464.7414, 98.16128
465.2235, 88.87928
465.7056, 80.18132
466.1877, 71.35477
466.6698, 63.38740
467.1519, 57.29644
467.6341, 52.88459
468.1162, 49.23449
468.5983, 45.81096
469.0804, 42.59880
469.5625, 39.66374
470.0446, 36.89244
470.5268, 34.56071
471.0089, 32.90244
471.4910, 31.57914
471.9731, 30.30768
472.4552, 29.02382
472.9373, 27.81123
473.4195, 26.75443
473.9016, 25.85501
474.3837, 25.10756
474.8658, 24.60641
475.3479, 24.16894
475.8300, 23.75222
476.3122, 23.36595
476.7943, 23.04973
477.2764, 22.83426
477.7585, 22.60373
478.2406, 22.06185
478.7227, 21.13077
479.2049, 20.62636
479.6870, 20.92514
480.1691, 21.47788
480.6512, 21.83890
481.1333, 22.06610
481.6154, 22.47357
482.0976, 23.55904
482.5797, 24.76172
483.0618, 24.99888
483.5439, 24.23172
484.0260, 23.70554
484.5081, 24.03426
484.9902, 24.99521
485.4724, 26.12988
485.9545, 27.60198
486.4366, 28.76689
486.9187, 28.83149
487.4008, 28.71923
487.8829, 29.86187
488.3651, 32.41943
488.8472, 35.20543
489.3293, 37.15942
489.8114, 38.29998
490.2935, 39.63243
490.7756, 41.39024
491.2578, 43.02733
491.7399, 44.26654
492.2220, 45.33564
492.7041, 46.51659
493.1862, 47.90708
493.6683, 49.45749
494.1505, 51.06153
494.6326, 52.62025
495.1147, 54.60558
495.5968, 57.09352
496.0789, 59.94075
496.5610, 63.18875
497.0432, 66.74895
497.5253, 70.46233
498.0074, 74.16914
498.4895, 78.11067
498.9716, 82.64706
499.4537, 87.75319
499.9359, 93.67134
500.4180, 100.6798
500.9001, 108.4705
501.3822, 116.8048
501.8643, 125.6743
502.3464, 134.7710
502.8286, 144.4563
503.3107, 154.1243
503.7928, 163.5119
504.2749, 172.5740
504.7570, 179.6146
505.2391, 184.2252
505.7213, 185.7720
506.2034, 182.5559
506.6855, 173.6159
507.1676, 163.0027
507.6497, 150.6868
508.1318, 137.8301
508.6140, 125.2132
509.0961, 113.2108
509.5782, 102.9632
510.0603, 95.54225
510.5424, 90.87296
511.0245, 87.71790
511.5067, 87.36391
511.9888, 86.98623
512.4709, 86.20052
512.9530, 85.11744
513.4351, 84.09799
513.9172, 83.14396
514.3994, 81.57435
514.8815, 78.35020
515.3636, 73.30745
515.8457, 68.61438
516.3278, 64.03665
516.8099, 60.15624
517.2921, 57.12300
517.7742, 54.88833
518.2563, 53.42433
518.7384, 52.77677
519.2205, 52.68375
519.7026, 52.90309
520.1848, 53.43379
520.6669, 54.29701
521.1490, 55.55665
521.6311, 57.02900
522.1132, 58.55344
522.5953, 60.12950
523.0775, 61.76120
523.5596, 63.48869
524.0417, 65.22755
524.5238, 66.63853
525.0059, 67.98377
525.4880, 70.02077
525.9702, 73.06425
526.4523, 76.83614
526.9344, 80.91685
527.4165, 85.22462
527.8986, 90.07925
528.3807, 95.21159
528.8629, 101.1116
529.3450, 108.0022
529.8271, 115.8679
530.3092, 124.5648
530.7913, 133.9908
531.2734, 144.2999
531.7556, 155.9683
532.2377, 169.0529
532.7198, 183.2699
533.2019, 200.2426
533.6840, 216.9860
534.1661, 232.9292
534.6483, 247.4848
535.1304, 259.1523
535.6125, 268.4997
536.0946, 273.6232
536.5767, 270.6679
537.0588, 259.4664
537.5410, 243.3154
538.0231, 221.9134
538.5052, 197.6981
538.9873, 173.9822
539.4694, 150.2707
539.9515, 129.5506
540.4337, 113.1697
540.9158, 99.70193
541.3979, 87.97085
541.8800, 77.83076
542.3621, 69.24909
542.8442, 62.31197
543.3264, 56.83158
543.8085, 52.17095
544.2906, 48.75037
544.7726, 45.67570
545.2548, 42.94735
545.7369, 40.55193
546.2190, 38.52791
546.7011, 36.84573
547.1832, 35.43644
547.6653, 34.30983
548.1475, 33.38197
548.6296, 32.29093
549.1117, 30.87553
549.5938, 29.72654
550.0759, 29.13142
550.5580, 28.80205
551.0402, 28.62145
551.5223, 28.55822
552.0044, 28.40567
552.4865, 27.91013
552.9686, 27.29556
553.4507, 26.97996
553.9329, 26.98142
554.4150, 27.02282
554.8971, 26.86798
555.3792, 26.73205
555.8613, 27.28132
556.3434, 28.95677
556.8256, 30.08543
557.3077, 29.87442
557.7898, 29.31377
558.2719, 29.22793
558.7540, 29.67915
559.2361, 30.40878
559.7183, 31.26048
560.2004, 32.20447
560.6825, 33.16386
561.1646, 34.33433
561.6467, 35.15262
562.1288, 35.16158
562.6110, 35.16544
563.0931, 35.74316
563.5752, 36.89097
564.0573, 38.24297
564.5394, 39.55395
565.0215, 40.88305
565.5037, 42.43866
565.9858, 44.28133
566.4679, 46.00251
566.9500, 47.49143
567.4321, 48.73893
567.9142, 49.83715
568.3964, 50.81054
568.8785, 51.32826
569.3606, 51.03887
569.8427, 50.40429
570.3248, 49.95710
570.8069, 49.64293
571.2891, 49.06401
571.7712, 48.03238
572.2533, 46.53123
572.7354, 44.49550
573.2175, 41.24247
573.6996, 38.66110
574.1818, 37.17675
574.6639, 35.93217
575.1460, 34.30606
575.6281, 32.46391
576.1102, 30.99701
576.5923, 30.28493
577.0745, 30.03206
577.5566, 29.59744
578.0387, 28.94458
578.5208, 28.29841
579.0029, 27.56009
579.4850, 27.00863
579.9672, 26.87734
580.4493, 27.10586
580.9314, 27.43099
581.4135, 27.85263
581.8956, 28.25051
582.3777, 28.37922
582.8599, 28.35707
583.3420, 28.72759
583.8241, 29.74497
584.3062, 30.89291
584.7883, 31.47283
585.2704, 31.36618
585.7526, 31.21702
586.2347, 30.72121
586.7168, 30.50666
587.1989, 30.90948
587.6810, 31.75275
588.1631, 32.76340
588.6453, 33.83361
