##NAMES=Vayrynenite
##RRUFFID=R050243
##IDEAL CHEMISTRY=Mn^2+^Be(PO_4_)OH
##LOCALITY=Viitaniemi pegmatite, Erajarvi, Orivesi, Finland
##OWNER=RRUFF
##SOURCE=Marcus Origlieri
##DESCRIPTION=Pink massive with defined cleavage planes
##STATUS=The identification of this mineral has been confirmed by X-ray diffraction and chemical analysis
##URL=rruff.info/R050243
##MEASURED CHEMISTRY=(Mn^2+^_0.95_Fe^2+^_0.05_)_Σ=1_Be_1.00_(P_1.00_O_4_)((OH)_0.94_F_0.06_)_Σ=1_ ; Be not measured but estimated by difference and charge balance.
92.35352, 25.67101
92.83563, 27.99843
93.31775, 28.78585
93.79987, 27.42476
94.28198, 24.73223
94.76410, 22.30868
95.24622, 20.27122
95.72833, 18.65166
96.21045, 17.47658
96.69257, 16.75069
97.17468, 16.33276
97.65680, 16.25816
98.13892, 16.37920
98.62103, 16.62173
99.10315, 16.94507
99.58527, 17.29533
100.0674, 17.55153
100.5495, 17.50753
101.0316, 17.63966
101.5137, 18.07264
101.9958, 18.70953
102.4780, 19.42068
102.9601, 20.12847
103.4422, 20.84520
103.9243, 21.37437
104.4064, 21.62460
104.8885, 21.83282
105.3707, 22.13427
105.8528, 22.52489
106.3349, 22.88286
106.8170, 23.07162
107.2991, 23.06407
107.7813, 23.04827
108.2634, 23.03863
108.7455, 23.02365
109.2276, 22.97472
109.7097, 22.86871
110.1918, 22.77732
110.6740, 22.74061
111.1561, 22.75163
111.6382, 22.90841
112.1203, 23.30502
112.6024, 23.91883
113.0845, 24.56396
113.5666, 25.18918
114.0488, 25.85347
114.5309, 26.59987
115.0130, 27.43388
115.4951, 28.31377
115.9772, 29.15195
116.4593, 29.84010
116.9415, 30.82024
117.4236, 32.12041
117.9057, 33.69258
118.3878, 35.51998
118.8699, 37.58688
119.3520, 39.91099
119.8342, 42.52577
120.3163, 46.20155
120.7984, 49.26715
121.2805, 52.00275
121.7626, 53.99688
122.2447, 54.65403
122.7269, 53.59374
123.2090, 50.95073
123.6911, 47.69205
124.1732, 43.49579
124.6553, 39.17836
125.1374, 34.82664
125.6196, 30.53820
126.1017, 26.61702
126.5838, 23.28964
127.0659, 20.62767
127.5480, 18.39028
128.0302, 16.67483
128.5123, 15.34486
128.9944, 14.36467
129.4765, 13.77563
129.9586, 13.28824
130.4407, 12.66206
130.9229, 11.96360
131.4050, 11.32873
131.8871, 10.80772
132.3692, 10.38955
132.8513, 10.04992
133.3334, 9.801025
133.8155, 9.624922
134.2977, 9.495616
134.7798, 9.417044
135.2619, 9.401094
135.7440, 9.483520
136.2261, 9.680484
136.7082, 9.819619
137.1904, 9.846735
137.6725, 9.857906
138.1546, 9.885238
138.6367, 9.932463
139.1188, 9.985738
139.6009, 10.01770
140.0831, 9.974520
140.5652, 10.05628
141.0473, 10.35918
141.5294, 10.69998
142.0115, 10.96133
142.4936, 11.10987
142.9758, 11.17355
143.4579, 11.19123
143.9400, 11.09628
144.4221, 11.07424
144.9042, 11.17382
145.3863, 11.34048
145.8685, 11.51346
146.3506, 11.67448
146.8327, 11.81763
147.3148, 11.91374
147.7969, 11.92651
148.2790, 11.99110
148.7612, 12.18644
149.2433, 12.48367
149.7254, 12.77368
150.2075, 12.98387
150.6896, 13.19599
151.1717, 13.54385
151.6539, 14.08201
152.1360, 14.62926
152.6181, 14.98075
153.1002, 15.11278
153.5823, 15.33399
154.0644, 15.88266
154.5466, 16.52979
155.0287, 17.08454
155.5108, 17.47431
155.9929, 17.81588
156.4750, 18.27458
156.9571, 18.78649
157.4393, 19.58881
157.9214, 20.71585
158.4035, 22.11635
158.8856, 23.78156
159.3677, 25.72578
159.8498, 27.87426
160.3320, 29.97983
160.8141, 32.62120
161.2962, 34.45470
161.7783, 35.08928
162.2604, 34.85116
162.7425, 34.15929
163.2247, 33.25820
163.7068, 32.15185
164.1889, 30.92212
164.6710, 29.31496
165.1531, 27.85892
165.6352, 26.66925
166.1174, 25.74351
166.5995, 25.07703
167.0816, 24.67015
167.5637, 24.53584
168.0458, 24.56516
168.5279, 24.72094
169.0101, 25.03802
169.4922, 25.57838
169.9743, 26.32586
170.4564, 27.16339
170.9385, 28.01519
171.4206, 28.88128
171.9028, 29.75663
172.3849, 30.73842
172.8670, 31.67267
173.3491, 32.36633
173.8312, 32.78164
174.3133, 33.15554
174.7955, 33.65588
175.2776, 34.26203
175.7597, 34.96342
176.2418, 35.67346
176.7239, 36.48880
177.2060, 37.56000
177.6882, 38.82217
178.1703, 40.53413
178.6524, 42.70886
179.1345, 45.37276
179.6166, 48.64117
180.0987, 52.88717
180.5809, 57.91943
181.0630, 62.64444
181.5451, 67.88171
182.0272, 71.63598
182.5093, 73.59441
182.9914, 73.61960
183.4736, 71.39070
183.9557, 66.14494
184.4378, 57.76135
184.9199, 50.07787
185.4020, 43.02514
185.8841, 36.82581
186.3663, 31.71815
186.8484, 27.60455
187.3305, 24.24795
187.8126, 21.43059
188.2947, 19.17359
188.7768, 17.40633
189.2590, 16.27931
189.7411, 15.43838
190.2232, 14.79883
190.7053, 14.32115
191.1874, 13.95865
191.6695, 13.67192
192.1517, 13.48146
192.6338, 13.29293
193.1159, 13.08595
193.5980, 12.89552
194.0801, 12.74135
194.5622, 12.62713
195.0444, 12.54762
195.5265, 12.50249
196.0086, 12.50439
196.4907, 12.49476
196.9728, 12.42728
197.4549, 12.37401
197.9371, 12.43315
198.4192, 12.62335
198.9013, 12.80988
199.3834, 12.80150
199.8655, 12.59495
200.3476, 12.48257
200.8298, 12.56003
201.3119, 12.74165
201.7940, 12.91886
202.2761, 13.07714
202.7582, 13.22379
203.2403, 13.34854
203.7225, 13.45910
204.2046, 13.59929
204.6867, 13.78157
205.1688, 14.00549
205.6509, 14.26711
206.1330, 14.55897
206.6152, 14.91056
207.0973, 15.32896
207.5794, 15.81502
208.0615, 16.37650
208.5436, 17.04540
209.0257, 17.80263
209.5079, 18.54214
209.9900, 19.16889
210.4721, 19.90963
210.9542, 20.96215
211.4363, 22.23160
211.9184, 23.44993
212.4006, 24.46333
212.8827, 25.27206
213.3648, 25.84434
213.8469, 26.06262
214.3290, 26.12948
214.8111, 26.05317
215.2933, 25.88889
215.7754, 25.74864
216.2575, 25.72118
216.7396, 25.80976
217.2217, 25.94891
217.7038, 26.13205
218.1859, 26.37897
218.6681, 26.77718
219.1502, 27.26096
219.6323, 27.66944
220.1144, 27.83911
220.5965, 27.73539
221.0786, 27.77698
221.5608, 27.96682
222.0429, 28.28939
222.5250, 28.83698
223.0071, 29.53588
223.4892, 30.18283
223.9713, 30.57499
224.4535, 30.65402
224.9356, 31.06893
225.4177, 31.87464
225.8998, 32.88971
226.3819, 33.97959
226.8640, 35.19189
227.3462, 36.66707
227.8283, 38.49667
228.3104, 40.68676
228.7925, 43.54501
229.2746, 47.37577
229.7567, 51.45989
230.2389, 56.05543
230.7210, 60.79573
231.2031, 64.46949
231.6852, 66.28282
232.1673, 66.03527
232.6494, 63.28114
233.1316, 56.55634
233.6137, 48.86837
234.0958, 41.35308
234.5779, 34.23494
235.0600, 28.09603
235.5421, 23.37098
236.0243, 20.14840
236.5064, 17.59670
236.9885, 16.00064
237.4706, 14.83635
237.9527, 13.79048
238.4348, 12.86332
238.9170, 12.16084
239.3991, 11.82459
239.8812, 11.77006
240.3633, 11.63253
240.8454, 11.33823
241.3275, 11.01172
241.8097, 10.72693
242.2918, 10.48375
242.7739, 10.31538
243.2560, 10.26821
243.7381, 10.30255
244.2202, 10.33889
244.7024, 10.38429
245.1845, 10.41057
245.6666, 10.39078
246.1487, 10.32452
246.6308, 10.23033
247.1129, 10.07385
247.5951, 9.916838
248.0772, 9.837604
248.5593, 9.859946
249.0414, 9.927927
249.5235, 9.988081
250.0056, 10.03879
250.4878, 10.10520
250.9699, 10.21810
251.4520, 10.33762
251.9341, 10.41964
252.4162, 10.45254
252.8983, 10.48449
253.3805, 10.57133
253.8626, 10.71918
254.3447, 10.86748
254.8268, 11.01943
255.3089, 11.15267
255.7910, 11.22920
256.2732, 11.24608
256.7553, 11.27675
257.2374, 11.41832
257.7195, 11.69116
258.2016, 11.92785
258.6837, 12.06223
259.1659, 12.18007
259.6480, 12.28619
260.1301, 12.39752
260.6122, 12.58933
261.0943, 13.00091
261.5764, 13.68781
262.0586, 14.20624
262.5407, 14.47982
263.0228, 14.60719
263.5049, 14.57992
263.9870, 14.42296
264.4691, 14.20775
264.9513, 14.00886
265.4334, 13.83748
265.9155, 13.58305
266.3976, 13.18617
266.8797, 12.75164
267.3618, 12.27884
267.8440, 11.79378
268.3261, 11.34798
268.8082, 10.98554
269.2903, 10.70738
269.7724, 10.48631
270.2545, 10.38524
270.7367, 10.28510
271.2188, 10.13331
271.7009, 9.955974
272.1830, 9.814548
272.6651, 9.756816
273.1472, 9.777588
273.6294, 9.786597
274.1115, 9.765551
274.5936, 9.750690
275.0757, 9.737829
275.5578, 9.737852
276.0399, 9.772068
276.5221, 9.856981
277.0042, 9.980407
277.4863, 10.06845
277.9684, 10.05546
278.4505, 10.07762
278.9326, 10.14845
279.4148, 10.26518
279.8969, 10.44303
280.3790, 10.69364
280.8611, 10.97107
281.3432, 11.12590
281.8253, 10.96682
282.3075, 10.91207
282.7896, 11.05427
283.2717, 11.28210
283.7538, 11.50258
284.2359, 11.67645
284.7180, 11.77867
285.2002, 11.75089
285.6823, 11.45576
286.1644, 11.21204
286.6465, 11.08048
287.1286, 10.96481
287.6107, 10.77733
288.0929, 10.49527
288.5750, 10.15893
289.0571, 9.816413
289.5392, 9.416814
290.0213, 9.147585
290.5034, 9.081601
290.9856, 9.086226
291.4677, 9.088233
291.9498, 9.067309
292.4319, 9.014299
292.9140, 8.912101
293.3961, 8.737974
293.8783, 8.618359
294.3604, 8.566499
294.8425, 8.549392
295.3246, 8.554091
295.8067, 8.577386
296.2888, 8.622726
296.7710, 8.701694
297.2531, 8.818088
297.7352, 8.857574
298.2173, 8.768836
298.6994, 8.669522
299.1815, 8.587136
299.6637, 8.533868
300.1458, 8.530719
300.6279, 8.596067
301.1100, 8.722013
301.5921, 8.846599
302.0742, 9.004169
302.5564, 9.122544
303.0385, 9.131749
303.5206, 9.093241
304.0027, 9.120825
304.4848, 9.273391
304.9669, 9.514691
305.4491, 9.740005
305.9312, 9.997568
306.4133, 10.17724
306.8954, 10.19054
307.3775, 10.14237
307.8596, 10.16577
308.3418, 10.30606
308.8239, 10.52172
309.3060, 10.74319
309.7881, 10.97990
310.2702, 11.20266
310.7523, 11.38420
311.2345, 11.56662
311.7166, 11.81137
312.1987, 12.12308
312.6808, 12.42067
313.1629, 12.60305
313.6451, 12.63098
314.1272, 12.69163
314.6093, 12.75446
315.0914, 12.87065
315.5735, 13.07928
316.0556, 13.37890
316.5378, 13.74508
317.0199, 14.17445
317.5020, 14.66702
317.9841, 15.10821
318.4662, 15.45314
318.9483, 15.79823
319.4305, 16.19198
319.9126, 16.62291
320.3947, 17.05443
320.8768, 17.46329
321.3589, 17.85695
321.8410, 18.27473
322.3232, 18.71390
322.8053, 19.17917
323.2874, 19.66432
323.7695, 20.17664
324.2516, 20.73077
324.7337, 21.32994
325.2159, 21.96472
325.6980, 22.60682
326.1801, 23.23861
326.6622, 23.90623
327.1443, 24.73046
327.6264, 25.53625
328.1086, 26.12632
328.5907, 26.45579
329.0728, 26.65193
329.5549, 26.87661
330.0370, 27.15995
330.5191, 27.36290
331.0013, 27.40114
331.4834, 27.42621
331.9655, 27.55722
332.4476, 27.78907
332.9297, 28.01975
333.4118, 28.15060
333.8940, 28.17196
334.3761, 28.31817
334.8582, 28.73166
335.3403, 29.09922
335.8224, 29.30991
336.3045, 29.37573
336.7867, 29.33322
337.2688, 29.19311
337.7509, 28.98222
338.2330, 28.83042
338.7151, 28.75445
339.1972, 28.71399
339.6793, 28.73867
340.1614, 28.78387
340.6436, 28.77847
341.1257, 28.69651
341.6078, 28.59603
342.0899, 28.58565
342.5720, 28.67759
343.0541, 28.85818
343.5363, 29.18851
344.0184, 29.56363
344.5005, 29.85558
344.9826, 30.06907
345.4647, 30.36688
345.9468, 30.95578
346.4290, 31.94153
346.9111, 32.72056
347.3932, 33.14400
347.8753, 33.54176
348.3574, 34.14392
348.8395, 34.86141
349.3217, 35.43811
349.8038, 35.68488
350.2859, 35.62026
350.7680, 35.43596
351.2501, 35.20868
351.7322, 34.76437
352.2144, 34.05145
352.6965, 33.10712
353.1786, 31.94186
353.6607, 30.55989
354.1428, 29.06354
354.6249, 27.67771
355.1071, 26.42834
355.5892, 25.27494
356.0713, 24.12297
356.5534, 23.11735
357.0355, 22.41113
357.5176, 22.01056
357.9998, 21.75979
358.4819, 21.45910
358.9640, 21.05783
359.4461, 20.82279
359.9282, 20.87676
360.4103, 20.97032
360.8925, 20.97136
361.3746, 20.91996
361.8567, 20.94930
362.3388, 21.17351
362.8209, 21.56586
363.3030, 21.87310
363.7852, 21.94698
364.2673, 22.12677
364.7494, 22.55479
365.2315, 23.10055
365.7136, 23.58759
366.1957, 23.93596
366.6779, 24.23778
367.1600, 24.68846
367.6421, 25.35419
368.1242, 26.00236
368.6063, 26.53687
369.0884, 27.08611
369.5706, 27.72296
370.0527, 28.46388
370.5348, 29.29432
371.0169, 30.22732
371.4990, 31.26486
371.9811, 32.29179
372.4633, 33.21149
372.9454, 34.22758
373.4275, 35.50895
373.9096, 36.95978
374.3917, 38.37883
374.8738, 39.66478
375.3560, 40.81799
375.8381, 41.82642
376.3202, 42.70958
376.8023, 43.40078
377.2844, 43.98631
377.7665, 44.33279
378.2487, 44.27974
378.7308, 43.78213
379.2129, 42.87704
379.6950, 41.53341
380.1771, 39.73783
380.6592, 37.81477
381.1414, 35.70347
381.6235, 33.60494
382.1056, 31.66186
382.5877, 29.87567
383.0698, 28.23417
383.5519, 26.71098
384.0341, 25.31271
384.5162, 24.07988
384.9983, 23.04571
385.4804, 22.08978
385.9625, 21.11199
386.4446, 20.14158
386.9268, 19.27515
387.4089, 18.54087
387.8910, 17.91836
388.3731, 17.41431
388.8552, 17.02663
389.3373, 16.66920
389.8195, 16.28120
390.3016, 15.92129
390.7837, 15.69374
391.2658, 15.63562
391.7479, 15.59764
392.2300, 15.51254
392.7122, 15.39567
393.1943, 15.26096
393.6764, 15.09699
394.1585, 14.97880
394.6406, 15.01256
395.1227, 15.20030
395.6049, 15.40582
396.0870, 15.64446
396.5691, 15.87064
397.0512, 15.99668
397.5333, 16.04357
398.0154, 16.18420
398.4976, 16.55937
398.9797, 17.12275
399.4618, 17.58887
399.9439, 17.98202
400.4260, 18.27064
400.9081, 18.42704
401.3903, 18.47794
401.8724, 18.47271
402.3545, 18.43040
402.8366, 18.31197
403.3187, 18.05389
403.8008, 17.63768
404.2830, 17.08853
404.7651, 16.29071
405.2472, 15.45425
405.7293, 14.70925
406.2114, 14.07214
406.6935, 13.50379
407.1757, 12.97570
407.6578, 12.49021
408.1399, 12.02361
408.6220, 11.48604
409.1041, 11.07163
409.5862, 10.91497
410.0684, 10.87560
410.5505, 10.74361
411.0326, 10.43081
411.5147, 10.06019
411.9968, 9.888779
412.4789, 10.03540
412.9611, 10.12182
413.4432, 10.11950
413.9253, 10.06854
414.4074, 9.953266
414.8895, 9.799180
415.3716, 9.688223
415.8538, 9.700233
416.3359, 9.828403
416.8180, 9.963171
417.3001, 10.13941
417.7822, 10.26891
418.2643, 10.31934
418.7465, 10.31208
419.2286, 10.26488
419.7107, 10.17476
420.1928, 10.08545
420.6749, 10.06329
421.1570, 10.11337
421.6392, 10.19677
422.1213, 10.35476
422.6034, 10.49999
423.0855, 10.56264
423.5676, 10.54346
424.0497, 10.49052
424.5319, 10.40762
425.0140, 10.31485
425.4961, 10.25694
425.9782, 10.22469
426.4603, 10.26875
426.9424, 10.52499
427.4246, 10.87318
427.9067, 11.05614
428.3888, 10.91525
428.8709, 10.74048
429.3530, 10.76494
429.8351, 10.95743
430.3173, 11.18377
430.7994, 11.41113
431.2815, 11.62154
431.7636, 11.78537
432.2457, 11.90775
432.7278, 11.98300
433.2100, 11.88490
433.6921, 11.80976
434.1742, 12.01928
434.6563, 12.51775
435.1384, 13.03946
435.6205, 13.36267
436.1027, 13.50276
436.5848, 13.74130
437.0669, 14.07018
437.5490, 14.48738
438.0311, 14.96722
438.5132, 15.54170
438.9954, 16.28665
439.4775, 17.22675
439.9596, 18.26788
440.4417, 19.22511
440.9238, 19.96273
441.4059, 20.95074
441.8881, 22.34054
442.3702, 23.81293
442.8523, 25.25056
443.3344, 26.60516
443.8165, 27.83158
444.2986, 28.87041
444.7808, 29.75994
445.2629, 30.73461
445.7450, 31.91456
446.2271, 32.99696
446.7092, 33.79745
447.1913, 34.55190
447.6735, 35.47032
448.1556, 36.61007
448.6377, 37.91691
449.1198, 39.34246
449.6019, 40.88433
450.0840, 42.54163
450.5662, 44.34631
451.0483, 46.25175
451.5304, 48.20260
452.0125, 50.21905
452.4946, 52.36367
452.9767, 54.65887
453.4589, 57.11492
453.9410, 59.74159
454.4231, 62.52380
454.9052, 65.54893
455.3873, 68.89403
455.8694, 72.48824
456.3516, 76.26018
456.8337, 80.24097
457.3158, 84.10105
457.7979, 87.84037
458.2800, 91.29559
458.7621, 94.33487
459.2443, 96.96501
459.7264, 98.64559
460.2085, 98.94300
460.6906, 97.77486
461.1727, 95.59368
461.6548, 92.34673
462.1370, 88.17917
462.6191, 82.79895
463.1012, 76.57979
463.5833, 70.15754
464.0654, 63.70131
464.5475, 57.42455
465.0297, 51.64421
465.5118, 46.35100
465.9939, 41.71003
466.4760, 37.86761
466.9581, 34.49194
467.4402, 31.42265
467.9224, 28.65051
468.4045, 26.28743
468.8866, 24.40146
469.3687, 22.93232
469.8508, 21.56569
470.3329, 20.28952
470.8151, 19.14230
471.2972, 18.10820
471.7793, 17.19675
472.2614, 16.41501
472.7435, 15.76368
473.2256, 15.22275
473.7078, 14.80883
474.1899, 14.51651
474.6720, 14.16438
475.1541, 13.64638
475.6362, 13.24069
476.1183, 13.16177
476.6005, 13.24449
477.0826, 13.23343
477.5647, 13.02619
478.0468, 12.75165
478.5289, 12.52791
479.0110, 12.35541
479.4932, 12.21992
479.9753, 12.09715
480.4574, 12.04709
480.9395, 12.17415
481.4216, 12.45912
481.9037, 12.73304
482.3859, 12.87389
482.8680, 13.03759
483.3501, 13.38880
483.8322, 13.91520
484.3143, 14.48411
484.7964, 15.00830
485.2786, 15.54990
485.7607, 16.31778
486.2428, 17.46161
486.7249, 18.54761
487.2070, 19.50229
487.6891, 20.39594
488.1713, 21.29576
488.6534, 22.20854
489.1355, 23.09506
489.6176, 23.91839
490.0997, 24.68254
490.5818, 25.36087
491.0640, 25.78195
491.5461, 26.31097
492.0282, 27.03114
492.5103, 27.87711
492.9924, 28.74773
493.4745, 29.61839
493.9567, 30.57581
494.4388, 31.77828
494.9209, 33.24898
495.4030, 34.63740
495.8851, 35.75517
496.3672, 37.01007
496.8494, 38.65503
497.3315, 40.55450
497.8136, 42.42508
498.2957, 44.05175
498.7778, 45.77546
499.2599, 48.02113
499.7421, 50.78246
500.2242, 53.84777
500.7063, 57.28389
501.1884, 60.87798
501.6705, 64.37114
502.1526, 67.78114
502.6348, 71.16436
503.1169, 75.08440
503.5990, 78.62697
504.0811, 81.15346
504.5632, 82.56800
505.0453, 82.73579
505.5274, 81.60237
506.0096, 79.13646
506.4917, 75.17464
506.9738, 68.67532
507.4559, 62.40487
507.9380, 56.29511
508.4201, 50.58509
508.9023, 45.39015
509.3844, 40.77267
509.8665, 36.76728
510.3486, 33.42448
510.8307, 30.71750
511.3128, 28.54649
511.7950, 27.19388
512.2771, 25.99553
512.7592, 24.88287
513.2413, 23.81859
513.7234, 22.82273
514.2056, 21.87871
514.6877, 20.87806
515.1698, 19.62152
515.6519, 18.16357
516.1340, 16.96543
516.6161, 16.11974
517.0983, 15.36508
517.5804, 14.50288
518.0625, 13.65207
518.5446, 12.99580
519.0267, 12.61136
519.5089, 12.33698
519.9910, 12.08095
520.4731, 11.84279
520.9552, 11.62352
521.4373, 11.42332
521.9194, 11.23394
522.4016, 11.03980
522.8837, 10.84207
523.3658, 10.68833
523.8479, 10.54630
524.3300, 10.48130
524.8121, 10.57323
525.2943, 10.75136
525.7764, 10.89043
526.2585, 10.94472
526.7406, 10.96931
527.2227, 11.04990
527.7048, 11.20609
528.1870, 11.34810
528.6691, 11.42493
529.1512, 11.54015
529.6333, 11.73262
530.1154, 11.99254
530.5975, 12.30228
531.0797, 12.65699
531.5618, 13.03609
532.0439, 13.39571
532.5260, 13.72554
533.0081, 14.12678
533.4902, 14.70881
533.9724, 15.25984
534.4545, 15.67979
534.9366, 15.95807
535.4187, 16.06185
535.9008, 16.00391
536.3829, 15.74698
536.8651, 15.17415
537.3472, 14.32483
537.8293, 13.49611
538.3114, 12.80968
538.7935, 12.16508
539.2756, 11.37552
539.7578, 10.36405
540.2399, 9.572766
540.7220, 9.188441
541.2041, 8.909707
541.6862, 8.518845
542.1683, 8.056066
542.6505, 7.685712
543.1326, 7.498859
543.6147, 7.429233
544.0968, 7.311054
544.5789, 7.083440
545.0610, 6.934074
545.5432, 6.910905
546.0253, 6.918916
546.5074, 6.919678
546.9895, 6.906901
547.4716, 6.876873
547.9537, 6.817811
548.4359, 6.756212
548.9180, 6.749854
549.4001, 6.802143
549.8822, 6.889740
550.3643, 7.044744
550.8464, 7.194739
551.3286, 7.260276
551.8107, 7.247714
552.2928, 7.239890
552.7749, 7.275062
553.2570, 7.324949
553.7391, 7.353123
554.2213, 7.364478
554.7034, 7.395195
555.1855, 7.465694
555.6676, 7.556060
556.1497, 7.627268
556.6318, 7.672441
557.1140, 7.711761
557.5961, 7.699395
558.0782, 7.721624
558.5603, 7.839423
559.0424, 8.040055
559.5245, 8.292380
560.0067, 8.585818
560.4888, 8.879336
560.9709, 9.049910
561.4530, 9.019856
561.9351, 9.084825
562.4172, 9.402180
562.8994, 9.717402
563.3815, 9.857160
563.8636, 9.875685
564.3457, 9.960707
564.8278, 10.22378
565.3099, 10.58406
565.7921, 10.95723
566.2742, 11.33886
566.7563, 11.61966
567.2384, 11.74260
567.7205, 11.78805
568.2026, 11.84212
568.6848, 11.90333
569.1669, 11.99657
569.6490, 12.19349
570.1311, 12.36183
570.6132, 12.40532
571.0953, 12.34912
571.5775, 12.24766
572.0596, 12.12259
572.5417, 12.01342
573.0238, 11.99439
573.5059, 12.09765
573.9880, 12.19364
574.4702, 12.19603
574.9523, 12.28017
575.4344, 12.50054
575.9165, 12.85621
576.3986, 13.34985
576.8807, 13.99137
577.3629, 14.70660
577.8450, 15.38510
578.3271, 16.02795
578.8092, 16.73980
579.2913, 17.58634
579.7734, 18.41513
580.2556, 19.07066
580.7377, 19.61465
581.2198, 20.21182
581.7019, 20.91252
582.1840, 21.64371
582.6661, 22.34018
583.1483, 23.04023
583.6304, 23.85389
584.1125, 24.80833
584.5946, 25.75574
585.0767, 26.50780
585.5588, 27.04388
586.0409, 27.94847
