##NAMES=Vayrynenite
##RRUFFID=R050243
##IDEAL CHEMISTRY=Mn^2+^Be(PO_4_)OH
##LOCALITY=Viitaniemi pegmatite, Erajarvi, Orivesi, Finland
##OWNER=RRUFF
##SOURCE=Marcus Origlieri
##DESCRIPTION=Pink massive with defined cleavage planes
##STATUS=The identification of this mineral has been confirmed by X-ray diffraction and chemical analysis
##URL=rruff.info/R050243
##MEASURED CHEMISTRY=(Mn^2+^_0.95_Fe^2+^_0.05_)_Σ=1_Be_1.00_(P_1.00_O_4_)((OH)_0.94_F_0.06_)_Σ=1_ ; Be not measured but estimated by difference and charge balance.
93.74609, 3.929108
94.22821, 3.848691
94.71033, 3.903291
95.19244, 4.063288
95.67456, 4.208979
96.15668, 4.230700
96.63879, 4.185619
97.12091, 4.283873
97.60303, 4.540734
98.08514, 4.911708
98.56726, 5.331550
99.04938, 5.801784
99.53149, 6.324823
100.0136, 6.904217
100.4957, 7.537749
100.9778, 8.180084
101.4600, 8.765518
101.9421, 9.397595
102.4242, 10.38607
102.9063, 11.81964
103.3884, 13.40129
103.8705, 14.94744
104.3527, 16.50983
104.8348, 17.92720
105.3169, 19.16309
105.7990, 20.22682
106.2811, 21.35021
106.7632, 22.54314
107.2454, 23.77687
107.7275, 25.02520
108.2096, 26.48200
108.6917, 27.70228
109.1738, 28.54346
109.6559, 28.93248
110.1381, 29.46723
110.6202, 30.11582
111.1023, 30.92822
111.5844, 31.95579
112.0665, 33.35089
112.5486, 34.83337
113.0308, 36.30805
113.5129, 37.71146
113.9950, 39.35002
114.4771, 41.25554
114.9592, 43.41323
115.4413, 45.83269
115.9235, 48.67169
116.4056, 51.65240
116.8877, 54.56957
117.3698, 57.29842
117.8519, 60.28126
118.3340, 63.51551
118.8162, 67.10254
119.2983, 71.27239
119.7804, 76.10850
120.2625, 81.64092
120.7446, 87.92688
121.2267, 95.51464
121.7089, 103.1727
122.1910, 111.2415
122.6731, 119.1886
123.1552, 124.6344
123.6373, 126.0266
124.1194, 124.1254
124.6016, 119.7166
125.0837, 111.9250
125.5658, 102.7270
126.0479, 93.66380
126.5300, 84.77200
127.0121, 76.66459
127.4943, 69.67917
127.9764, 63.88389
128.4585, 59.25763
128.9406, 56.30838
129.4227, 54.41721
129.9048, 52.53172
130.3869, 50.63240
130.8691, 48.93241
131.3512, 47.68573
131.8333, 46.86085
132.3154, 46.26780
132.7975, 45.90886
133.2796, 45.73649
133.7618, 45.53170
134.2439, 45.16488
134.7260, 44.63515
135.2081, 44.29963
135.6902, 44.26645
136.1723, 44.23955
136.6545, 44.02869
137.1366, 43.63809
137.6187, 43.43758
138.1008, 43.50188
138.5829, 43.67483
139.0650, 43.62514
139.5472, 43.31924
140.0293, 42.93520
140.5114, 42.52340
140.9935, 42.03927
141.4756, 41.73140
141.9577, 41.62581
142.4399, 41.69279
142.9220, 41.83247
143.4041, 42.04477
143.8862, 42.32698
144.3683, 42.69259
144.8504, 43.17993
145.3326, 43.64949
145.8147, 44.05943
146.2968, 44.42793
146.7789, 44.87238
147.2610, 45.48414
147.7431, 46.08384
148.2253, 46.54399
148.7074, 46.72048
149.1895, 46.96237
149.6716, 47.32270
150.1537, 47.80278
150.6358, 48.27947
151.1180, 48.70186
151.6001, 49.14636
152.0822, 49.67114
152.5643, 50.21806
153.0464, 50.90177
153.5285, 51.76058
154.0107, 52.80177
154.4928, 53.88873
154.9749, 55.03884
155.4570, 56.22979
155.9391, 57.43879
156.4212, 58.55350
156.9034, 59.80315
157.3855, 61.17073
157.8676, 62.57095
158.3497, 64.46981
158.8318, 66.95757
159.3139, 69.99810
159.7961, 73.55454
160.2782, 77.85114
160.7603, 82.46522
161.2424, 87.53001
161.7245, 93.44765
162.2066, 98.28224
162.6888, 101.6142
163.1709, 103.4271
163.6530, 103.6896
164.1351, 101.4115
164.6172, 98.26704
165.0993, 95.11347
165.5815, 91.96595
166.0636, 89.12453
166.5457, 86.57565
167.0278, 84.40852
167.5099, 82.81149
167.9920, 81.81906
168.4742, 81.45528
168.9563, 81.81987
169.4384, 83.11684
169.9205, 84.70676
170.4026, 86.01834
170.8847, 87.25326
171.3669, 88.94883
171.8490, 91.95641
172.3311, 95.35060
172.8132, 98.11605
173.2953, 99.87205
173.7774, 101.2937
174.2596, 102.9709
174.7417, 104.8358
175.2238, 106.6120
175.7059, 107.5982
176.1880, 108.4986
176.6701, 110.2486
177.1523, 112.9353
177.6344, 116.7506
178.1165, 121.8466
178.5986, 128.2648
179.0807, 135.9658
179.5628, 144.6378
180.0450, 154.6842
180.5271, 166.8809
181.0092, 182.0622
181.4913, 198.9320
181.9734, 217.2714
182.4555, 236.7191
182.9377, 252.4836
183.4198, 262.8232
183.9019, 266.9023
184.3840, 261.6553
184.8661, 243.8230
185.3482, 218.3441
185.8304, 192.2809
186.3125, 165.7323
186.7946, 141.5435
187.2767, 122.3748
187.7588, 107.6533
188.2409, 95.77507
188.7231, 86.57914
189.2052, 79.65372
189.6873, 74.07409
190.1694, 69.82496
190.6515, 66.45652
191.1336, 63.64620
191.6158, 61.37378
192.0979, 59.48901
192.5800, 57.98960
193.0621, 56.82515
193.5442, 55.83768
194.0263, 55.03630
194.5085, 54.30115
194.9906, 53.44889
195.4727, 52.48945
195.9548, 51.75344
196.4369, 51.38445
196.9190, 51.32212
197.4012, 51.27576
197.8833, 51.24281
198.3654, 51.23744
198.8475, 51.27332
199.3296, 51.35038
199.8117, 51.47119
200.2939, 51.65142
200.7760, 51.88020
201.2581, 52.07925
201.7402, 52.24073
202.2223, 52.39020
202.7044, 52.52132
203.1866, 52.61266
203.6687, 52.84336
204.1508, 53.30387
204.6329, 53.97590
205.1150, 54.56433
205.5971, 55.03468
206.0793, 55.49629
206.5614, 56.08086
207.0435, 56.79757
207.5256, 57.55447
208.0077, 58.28267
208.4898, 58.98716
208.9720, 59.95475
209.4541, 61.19720
209.9362, 62.67985
210.4183, 64.40042
210.9004, 66.39396
211.3825, 68.46713
211.8647, 70.64749
212.3468, 72.94113
212.8289, 74.93261
213.3110, 76.53054
213.7931, 77.96600
214.2752, 79.51663
214.7574, 81.27930
215.2395, 82.91122
215.7216, 84.32203
216.2037, 85.49377
216.6858, 86.67153
217.1679, 87.92488
217.6500, 89.10207
218.1322, 89.99569
218.6143, 90.54275
219.0964, 90.99492
219.5785, 91.47533
220.0606, 92.01439
220.5427, 92.00893
221.0249, 91.20808
221.5070, 90.14835
221.9891, 89.40416
222.4712, 88.90458
222.9533, 88.88087
223.4354, 89.50472
223.9176, 90.83111
224.3997, 91.89538
224.8818, 92.38802
225.3639, 92.96419
225.8460, 94.28948
226.3281, 96.25504
226.8103, 99.20148
227.2924, 103.2213
227.7745, 108.3938
228.2566, 113.9986
228.7387, 119.6214
229.2208, 126.1053
229.7030, 134.2979
230.1851, 144.7844
230.6672, 156.1226
231.1493, 168.9110
231.6314, 183.3315
232.1135, 194.4726
232.5957, 204.0356
233.0778, 208.5686
233.5599, 203.9877
234.0420, 186.8303
234.5241, 167.2661
235.0062, 145.8097
235.4884, 122.6124
235.9705, 103.8636
236.4526, 90.26286
236.9347, 80.15059
237.4168, 72.11825
237.8989, 66.69820
238.3811, 62.34828
238.8632, 58.96159
239.3453, 56.52447
239.8274, 54.69657
240.3095, 53.64689
240.7916, 52.99575
241.2738, 52.44663
241.7559, 52.02909
242.2380, 51.65723
242.7201, 51.32984
243.2022, 51.04417
243.6843, 50.77149
244.1665, 50.51455
244.6486, 50.26661
245.1307, 50.03817
245.6128, 49.90297
246.0949, 49.62328
246.5770, 49.05084
247.0592, 48.24898
247.5413, 47.85622
248.0234, 48.07226
248.5055, 48.44944
248.9876, 48.66356
249.4697, 48.59298
249.9519, 48.63179
250.4340, 48.84199
250.9161, 49.19883
251.3982, 49.57605
251.8803, 50.04280
252.3624, 50.42640
252.8446, 50.57151
253.3267, 50.28944
253.8088, 50.22990
254.2909, 50.50795
254.7730, 51.04753
255.2551, 51.52391
255.7373, 51.90732
256.2194, 52.27586
256.7015, 52.64800
257.1836, 52.97249
257.6657, 53.45463
258.1478, 54.16636
258.6299, 55.02546
259.1121, 55.76805
259.5942, 56.26102
260.0763, 56.88284
260.5584, 57.87746
261.0405, 59.39944
261.5226, 60.78941
262.0048, 62.04586
262.4869, 63.15467
262.9690, 64.13810
263.4511, 65.05272
263.9332, 65.70260
264.4153, 66.01024
264.8975, 65.97463
265.3796, 65.59898
265.8617, 64.84219
266.3438, 63.78017
266.8259, 62.46999
267.3080, 60.80638
267.7902, 59.20124
268.2723, 57.86249
268.7544, 56.80646
269.2365, 55.74613
269.7186, 54.64266
270.2007, 53.58557
270.6829, 52.72689
271.1650, 52.08060
271.6471, 51.59150
272.1292, 51.30030
272.6113, 51.21350
273.0934, 50.99111
273.5756, 50.55589
274.0577, 50.12684
274.5398, 49.99555
275.0219, 50.21205
275.5040, 50.48880
275.9861, 50.76977
276.4683, 51.05015
276.9504, 51.25174
277.4325, 51.35010
277.9146, 51.43299
278.3967, 51.59861
278.8788, 51.85387
279.3610, 52.12019
279.8431, 52.39649
280.3252, 52.66623
280.8073, 52.82276
281.2894, 52.83332
281.7715, 52.86654
282.2537, 53.05719
282.7358, 53.40574
283.2179, 53.92104
283.7000, 54.70808
284.1821, 55.60223
284.6642, 56.06240
285.1464, 56.06750
285.6285, 55.86036
286.1106, 55.58506
286.5927, 55.24341
287.0748, 54.87365
287.5569, 54.50700
288.0391, 54.07927
288.5212, 53.36876
289.0033, 52.36808
289.4854, 51.46653
289.9675, 50.98045
290.4496, 50.84025
290.9318, 50.63599
291.4139, 50.30436
291.8960, 49.95350
292.3781, 49.83493
292.8602, 49.91811
293.3423, 49.88434
293.8245, 49.38726
294.3066, 48.62209
294.7887, 48.26497
295.2708, 48.40649
295.7529, 48.72223
296.2350, 48.83865
296.7172, 48.78194
297.1993, 48.68201
297.6814, 48.55999
298.1635, 48.44117
298.6456, 48.37094
299.1277, 48.34750
299.6099, 48.39389
300.0920, 48.57118
300.5741, 48.84115
301.0562, 49.09624
301.5383, 49.28371
302.0204, 49.44416
302.5026, 49.68293
302.9847, 49.99429
303.4668, 50.19675
303.9489, 50.00808
304.4310, 49.62984
304.9131, 49.40684
305.3953, 49.43076
305.8774, 49.66813
306.3595, 50.20832
306.8416, 50.98744
307.3237, 51.68700
307.8058, 52.01113
308.2880, 52.15862
308.7701, 52.36668
309.2522, 52.69576
309.7343, 53.08718
310.2164, 53.51494
310.6985, 53.97422
311.1807, 54.43855
311.6628, 54.80761
312.1449, 55.22704
312.6270, 55.82768
313.1091, 56.66031
313.5912, 57.56917
314.0734, 58.57779
314.5555, 59.59590
315.0376, 60.46880
315.5197, 60.99752
316.0018, 61.46029
316.4839, 62.00303
316.9661, 62.64425
317.4482, 63.33611
317.9303, 63.91062
318.4124, 64.56730
318.8945, 65.55021
319.3766, 67.20768
319.8588, 68.96065
320.3409, 70.61914
320.8230, 72.18211
321.3051, 73.60223
321.7872, 74.60821
322.2693, 75.60367
322.7515, 76.90646
323.2336, 78.81429
323.7157, 80.78624
324.1978, 82.63560
324.6799, 84.40726
325.1620, 86.46311
325.6442, 89.26859
326.1263, 92.07510
326.6084, 94.48294
327.0905, 95.90105
327.5726, 97.68396
328.0547, 100.5221
328.5369, 103.8064
329.0190, 106.0038
329.5011, 106.1896
329.9832, 106.1371
330.4653, 106.4466
330.9474, 107.3721
331.4296, 108.0143
331.9117, 108.4062
332.3938, 108.5010
332.8759, 108.1774
333.3580, 106.9206
333.8401, 106.0280
334.3223, 105.9240
334.8044, 106.6901
335.2865, 107.3041
335.7686, 107.7434
336.2507, 108.0493
336.7328, 108.2626
337.2150, 108.4078
337.6971, 108.3759
338.1792, 108.0484
338.6613, 107.5108
339.1434, 107.3304
339.6255, 107.6330
340.1077, 107.9962
340.5898, 108.0898
341.0719, 107.8587
341.5540, 107.7362
342.0361, 107.7288
342.5182, 107.8879
343.0003, 108.3754
343.4825, 109.2121
343.9646, 110.1891
344.4467, 111.1066
344.9288, 111.9841
345.4109, 113.3143
345.8930, 115.1380
346.3752, 117.3016
346.8573, 119.5849
347.3394, 122.0076
347.8215, 124.5727
348.3036, 127.4714
348.7857, 130.4917
349.2679, 133.0861
349.7500, 135.2520
350.2321, 136.9298
350.7142, 138.1520
351.1963, 138.8314
351.6784, 138.7010
352.1606, 137.5861
352.6427, 135.7226
353.1248, 133.4281
353.6069, 130.6656
354.0890, 127.3270
354.5711, 122.9021
355.0533, 118.0016
355.5354, 113.3952
356.0175, 109.2166
356.4996, 105.4527
356.9817, 101.9933
357.4638, 98.89286
357.9460, 96.28240
358.4281, 94.31629
358.9102, 92.80537
359.3923, 91.67456
359.8744, 90.93349
360.3565, 90.39324
360.8387, 89.75412
361.3208, 89.31388
361.8029, 89.44755
362.2850, 90.82375
362.7671, 92.30998
363.2492, 93.35547
363.7314, 93.99146
364.2135, 94.75578
364.6956, 95.83318
365.1777, 97.08957
365.6598, 98.42970
366.1419, 99.80428
366.6241, 101.3061
367.1062, 102.8554
367.5883, 104.5257
368.0704, 106.5181
368.5525, 108.9905
369.0346, 111.6758
369.5168, 114.4472
369.9989, 117.1157
370.4810, 120.3491
370.9631, 124.5536
371.4452, 129.1712
371.9273, 133.4140
372.4095, 136.5599
372.8916, 140.3413
373.3737, 145.2957
373.8558, 151.4857
374.3379, 157.5649
374.8200, 163.5056
375.3022, 169.4590
375.7843, 175.6538
376.2664, 182.5313
376.7485, 188.3947
377.2306, 193.0711
377.7127, 196.5768
378.1949, 198.9499
378.6770, 200.2436
379.1591, 200.1086
379.6412, 198.2871
380.1233, 194.7579
380.6054, 189.8622
381.0876, 183.4562
381.5697, 176.1138
382.0518, 168.2992
382.5339, 160.1133
383.0160, 152.0788
383.4981, 144.3235
383.9803, 136.9231
384.4624, 130.3678
384.9445, 124.6664
385.4266, 119.5749
385.9087, 114.8906
386.3908, 110.6139
386.8730, 106.7163
387.3551, 103.1960
387.8372, 99.97240
388.3193, 96.81703
388.8014, 93.81395
389.2835, 91.30837
389.7657, 89.77522
390.2478, 88.71836
390.7299, 87.60764
391.2120, 86.33616
391.6941, 85.18893
392.1762, 84.42610
392.6584, 83.92007
393.1405, 83.45439
393.6226, 82.90805
394.1047, 82.40976
394.5868, 81.94429
395.0689, 81.52403
395.5511, 81.43611
396.0332, 81.91573
396.5153, 82.69458
396.9974, 83.56965
397.4795, 84.60921
397.9616, 85.61447
398.4438, 86.45014
398.9259, 87.21021
399.4080, 88.18825
399.8901, 89.73475
400.3722, 91.22742
400.8543, 92.43550
401.3365, 93.31905
401.8186, 94.07077
402.3007, 94.88406
402.7828, 95.44749
403.2649, 95.35706
403.7470, 94.41260
404.2292, 93.19350
404.7113, 91.87336
405.1934, 90.41724
405.6755, 88.38413
406.1576, 85.62115
406.6397, 82.67307
407.1219, 79.82741
407.6040, 77.03882
408.0861, 74.77956
408.5682, 73.17665
409.0503, 72.00478
409.5324, 70.75590
410.0146, 69.42488
410.4967, 68.23656
410.9788, 67.34554
411.4609, 66.70039
411.9430, 66.03615
412.4251, 65.33741
412.9073, 64.70307
413.3894, 64.23775
413.8715, 63.90183
414.3536, 63.57945
414.8357, 63.17904
415.3178, 62.83573
415.8000, 62.84568
416.2821, 63.12056
416.7642, 63.24596
417.2463, 62.75937
417.7284, 62.08894
418.2105, 61.72190
418.6927, 61.79075
419.1748, 61.89357
419.6569, 61.71662
420.1390, 61.42785
420.6211, 61.28912
421.1032, 61.63511
421.5854, 61.93084
422.0675, 61.84079
422.5496, 61.38131
423.0317, 61.11927
423.5138, 61.35768
423.9959, 61.74195
424.4781, 62.04483
424.9602, 62.15914
425.4423, 62.28332
425.9244, 62.49409
426.4065, 62.71953
426.8886, 62.78740
427.3708, 62.45626
427.8529, 62.26909
428.3350, 62.42474
428.8171, 62.97785
429.2992, 63.50383
429.7813, 64.03470
430.2635, 64.49538
430.7456, 64.79732
431.2277, 64.90159
431.7098, 64.99047
432.1919, 65.05967
432.6740, 65.15285
433.1562, 65.44483
433.6383, 65.95708
434.1204, 66.47793
434.6025, 66.82797
435.0846, 67.05339
435.5667, 67.45419
436.0489, 68.06678
436.5310, 68.76359
437.0131, 69.30257
437.4952, 69.77345
437.9773, 70.49086
438.4594, 71.74465
438.9416, 73.16989
439.4236, 74.20741
439.9058, 74.92344
440.3879, 75.73428
440.8700, 76.86610
441.3521, 78.26853
441.8342, 79.88951
442.3163, 81.71862
442.7985, 83.77013
443.2806, 86.06032
443.7627, 88.56981
444.2448, 91.31743
444.7269, 94.57728
445.2090, 97.78855
445.6912, 100.5923
446.1733, 102.9791
446.6554, 105.7098
447.1375, 109.2209
447.6196, 112.9018
448.1017, 116.3719
448.5839, 119.0190
449.0660, 122.2132
449.5481, 126.1041
450.0302, 130.4860
450.5123, 134.8696
450.9944, 138.9471
451.4766, 143.4893
451.9587, 148.7368
452.4408, 154.7534
452.9229, 161.1317
453.4050, 167.8777
453.8871, 175.1728
454.3693, 183.2528
454.8514, 192.1596
455.3335, 201.7917
455.8156, 212.3331
456.2977, 223.4798
456.7798, 234.8597
457.2620, 246.5305
457.7441, 257.9086
458.2262, 269.0840
458.7083, 279.7352
459.1904, 289.8651
459.6725, 299.4789
460.1547, 307.1250
460.6368, 312.1138
461.1189, 314.1918
461.6010, 312.8321
462.0831, 307.7661
462.5652, 299.4235
463.0474, 287.3734
463.5295, 272.1741
464.0116, 255.6425
464.4937, 237.2119
464.9758, 218.9243
465.4579, 202.0559
465.9401, 186.8384
466.4222, 172.7096
466.9043, 159.2777
467.3864, 147.1197
467.8685, 136.7791
468.3506, 129.2822
468.8328, 122.4807
469.3149, 116.0974
469.7970, 110.2606
470.2791, 105.3951
470.7612, 101.9456
471.2433, 98.84838
471.7255, 95.59039
472.2076, 92.01958
472.6897, 89.26897
473.1718, 87.47095
473.6539, 86.13953
474.1360, 84.72515
474.6182, 83.21889
475.1003, 81.81126
475.5824, 80.50986
476.0645, 79.36316
476.5466, 78.55917
477.0287, 78.07458
477.5109, 77.67006
477.9930, 77.23566
478.4751, 76.76937
478.9572, 76.22132
479.4393, 75.57339
479.9214, 75.02048
480.4036, 74.80972
480.8857, 74.79167
481.3678, 74.73386
481.8499, 74.36163
482.3320, 74.15718
482.8141, 74.52788
483.2963, 75.32563
483.7784, 76.08897
484.2605, 76.60658
484.7426, 77.06931
485.2247, 77.49973
485.7068, 77.80630
486.1890, 78.47858
486.6711, 79.72887
487.1532, 81.30070
487.6353, 82.96951
488.1174, 84.72536
488.5995, 86.52845
489.0817, 88.32903
489.5638, 90.17160
490.0459, 92.27174
490.5280, 94.67947
491.0101, 97.23544
491.4922, 99.93091
491.9744, 102.7902
492.4565, 105.5268
492.9386, 108.1291
493.4207, 110.7714
493.9028, 113.5878
494.3849, 116.5930
494.8671, 119.6842
495.3492, 122.7927
495.8313, 126.1267
496.3134, 129.9310
496.7955, 134.2067
497.2776, 139.0667
497.7598, 144.5563
498.2419, 150.6338
498.7240, 157.0593
499.2061, 163.8818
499.6882, 171.5186
500.1703, 180.3963
500.6525, 190.1333
501.1346, 200.3523
501.6167, 211.2200
502.0988, 222.3649
502.5809, 233.8510
503.0630, 245.5846
503.5452, 257.1737
504.0273, 269.8625
504.5094, 280.9024
504.9915, 290.1970
505.4736, 297.8312
505.9557, 300.7146
506.4379, 298.6407
506.9200, 292.0157
507.4021, 280.6070
507.8842, 263.4021
508.3663, 244.9729
508.8484, 224.8180
509.3306, 204.6641
509.8127, 187.0988
510.2948, 172.1742
510.7769, 159.6379
511.2590, 149.9341
511.7411, 142.3970
512.2233, 135.7648
512.7054, 129.9994
513.1875, 125.0470
513.6696, 121.2908
514.1517, 118.1659
514.6339, 114.8783
515.1160, 111.2628
515.5981, 107.6739
516.0802, 104.4210
516.5623, 101.2833
517.0444, 97.96594
517.5266, 93.83079
518.0087, 90.04637
518.4908, 87.02013
518.9729, 84.69151
519.4550, 82.75662
519.9371, 81.47308
520.4193, 80.32111
520.9014, 79.04079
521.3835, 77.46727
521.8656, 76.48183
522.3477, 76.35148
522.8298, 76.51443
523.3120, 76.41512
523.7941, 75.98105
524.2762, 75.61504
524.7583, 75.34433
525.2404, 75.20535
525.7225, 75.32980
526.2047, 75.71614
526.6868, 76.13646
527.1689, 76.39118
527.6510, 76.61610
528.1331, 77.25599
528.6152, 78.30443
529.0974, 79.31438
529.5795, 79.82621
530.0616, 80.13183
530.5437, 80.62103
531.0258, 81.38213
531.5079, 82.32534
531.9901, 83.44569
532.4722, 84.71864
532.9543, 86.08797
533.4364, 87.66244
533.9185, 89.21561
534.4006, 90.76357
534.8828, 92.26747
535.3649, 93.53324
535.8470, 94.92249
536.3291, 95.67439
536.8112, 95.40942
537.2933, 93.94656
537.7755, 92.16714
538.2576, 90.03837
538.7397, 87.65701
539.2218, 85.02895
539.7039, 82.12851
540.1860, 79.56447
540.6682, 77.48447
541.1503, 75.79701
541.6324, 74.35343
542.1145, 73.14642
542.5966, 72.03452
543.0787, 70.85666
543.5609, 69.76157
544.0430, 69.05755
544.5251, 68.73176
545.0072, 68.46581
545.4893, 68.03490
545.9714, 67.55415
546.4536, 67.12479
546.9357, 66.73332
547.4178, 66.48526
547.8999, 66.51653
548.3820, 66.68986
548.8641, 66.81583
549.3463, 66.86403
549.8284, 66.85179
550.3105, 66.65263
550.7926, 66.35368
551.2747, 66.45642
551.7568, 67.22541
552.2390, 67.96519
552.7211, 68.34288
553.2032, 68.32073
553.6853, 68.38851
554.1674, 68.55748
554.6495, 68.78130
555.1317, 69.00082
555.6138, 69.22387
556.0959, 69.56469
556.5780, 70.09348
557.0601, 70.62135
557.5422, 70.75632
558.0244, 70.65923
558.5065, 70.79855
558.9886, 71.61590
559.4707, 72.60131
559.9528, 73.28139
560.4349, 73.71074
560.9171, 74.22786
561.3992, 75.07915
561.8813, 76.00056
562.3634, 76.81192
562.8455, 77.45788
563.3276, 78.12470
563.8098, 78.84843
564.2919, 79.59590
564.7740, 80.34830
565.2561, 81.12048
565.7382, 81.85833
566.2203, 82.52434
566.7025, 83.18281
567.1846, 84.00434
567.6667, 85.02845
568.1488, 86.00294
568.6309, 86.90391
569.1130, 87.66420
569.5952, 87.92890
570.0773, 87.70726
570.5594, 87.36991
571.0415, 87.16534
571.5236, 87.03509
572.0057, 86.89368
572.4879, 86.73168
572.9700, 86.54276
573.4521, 86.33372
573.9342, 86.08977
574.4163, 85.79369
574.8984, 85.23664
575.3806, 84.85910
575.8627, 84.72102
576.3448, 84.84695
576.8269, 85.30497
577.3090, 86.32272
577.7911, 87.40733
578.2733, 88.38611
578.7554, 89.25623
579.2375, 90.51500
579.7196, 92.19611
580.2017, 94.17243
580.6838, 96.42870
581.1660, 98.94958
581.6481, 101.3538
582.1302, 103.5887
582.6123, 105.8039
583.0944, 108.0531
583.5765, 110.3908
584.0587, 113.0094
584.5408, 115.9929
585.0229, 119.1879
585.5050, 122.3884
585.9871, 125.6934
586.4692, 129.2813
586.9514, 133.0713
587.4335, 137.3469
