##NAMES=Veatchite
##RRUFFID=R060348
##IDEAL CHEMISTRY=Sr_2_[B_5_O_8_(OH)]_2_B(OH)_3_&#183;H_2_O
##LOCALITY=1360' level, 2S Drift, Billie mine, Death Valley, Inyo County, California, USA
##OWNER=RRUFF
##SOURCE=Michael Scott
##DESCRIPTION=Transparent white fibrous and platy mass
##STATUS=The identification of this mineral is confirmed by single-crystal X-ray diffraction and chemical analysis.
##URL=rruff.info/R060348
##MEASURED CHEMISTRY=(Sr_1.98_Ca_0.02_)_Σ=2_[B_5_O_8_(OH)]_2_B(OH)_3_·H_2_O; B and H not measured but assumed by stoichiometry
91.53320, 448.0113
92.01532, 462.8213
92.49744, 467.2825
92.97955, 463.8852
93.46167, 451.1088
93.94379, 433.8810
94.42590, 414.8470
94.90802, 395.9901
95.39014, 378.3500
95.87225, 362.0662
96.35437, 346.4340
96.83649, 330.6059
97.31860, 315.5402
97.80072, 302.4967
98.28284, 292.2037
98.76495, 283.7194
99.24707, 273.9095
99.72919, 260.4164
100.2113, 248.2600
100.6934, 238.6756
101.1755, 231.2294
101.6577, 225.0330
102.1398, 219.2068
102.6219, 213.5700
103.1040, 209.3034
103.5861, 207.2382
104.0682, 205.4130
104.5504, 202.8088
105.0325, 199.2565
105.5146, 195.1557
105.9967, 191.0574
106.4788, 187.0906
106.9609, 182.6553
107.4431, 176.9271
107.9252, 170.8777
108.4073, 165.8696
108.8894, 162.4006
109.3715, 160.0053
109.8536, 158.0865
110.3358, 156.8614
110.8179, 155.1656
111.3000, 151.9129
111.7821, 147.3004
112.2642, 143.2659
112.7463, 140.6546
113.2285, 138.9803
113.7106, 137.7478
114.1927, 136.8927
114.6748, 136.4573
115.1569, 136.7162
115.6390, 138.1709
116.1212, 139.0012
116.6033, 138.5327
117.0854, 137.3341
117.5675, 135.7932
118.0496, 133.9984
118.5317, 132.1447
119.0139, 131.1968
119.4960, 132.0265
119.9781, 132.9414
120.4602, 133.2653
120.9423, 133.4599
121.4244, 134.5189
121.9066, 137.4029
122.3887, 142.3968
122.8708, 145.0698
123.3529, 144.4695
123.8350, 143.0364
124.3171, 141.4643
124.7993, 139.9757
125.2814, 138.9443
125.7635, 138.9441
126.2456, 140.3406
126.7277, 140.5439
127.2098, 138.3598
127.6920, 135.4806
128.1741, 133.9386
128.6562, 134.3594
129.1383, 135.0430
129.6204, 133.2014
130.1025, 129.1168
130.5847, 126.1217
131.0668, 126.4877
131.5489, 129.2112
132.0310, 130.6431
132.5131, 129.0390
132.9952, 127.0057
133.4774, 127.0227
133.9595, 129.1135
134.4416, 131.4274
134.9237, 132.1231
135.4058, 130.9038
135.8879, 130.1636
136.3701, 131.5995
136.8522, 132.8593
137.3343, 132.3330
137.8164, 129.6568
138.2985, 125.9980
138.7806, 123.3447
139.2628, 122.3881
139.7449, 121.2351
140.2270, 119.4458
140.7091, 117.5201
141.1912, 115.6978
141.6733, 114.0989
142.1555, 112.9759
142.6376, 113.2471
143.1197, 117.1592
143.6018, 120.0379
144.0839, 121.2443
144.5660, 121.1096
145.0482, 120.0851
145.5303, 118.3342
146.0124, 115.9914
146.4945, 114.0442
146.9766, 112.4391
147.4587, 111.1753
147.9409, 110.5810
148.4230, 110.4693
148.9051, 110.0120
149.3872, 108.5168
149.8693, 106.1242
150.3514, 104.0129
150.8336, 102.3661
151.3157, 100.9072
151.7978, 99.39070
152.2799, 97.79333
152.7620, 96.20641
153.2441, 94.53470
153.7263, 92.92095
154.2084, 91.65450
154.6905, 91.11740
155.1726, 90.96474
155.6547, 90.30000
156.1368, 88.62173
156.6190, 87.38205
157.1011, 87.89608
157.5832, 89.36059
158.0653, 90.17434
158.5474, 88.86052
159.0295, 85.65507
159.5117, 83.76846
159.9938, 84.97451
160.4759, 85.79826
160.9580, 84.52904
161.4401, 81.73366
161.9222, 79.06316
162.4044, 78.16716
162.8865, 79.49606
163.3686, 79.91894
163.8507, 78.59025
164.3328, 77.15536
164.8149, 76.29612
165.2971, 76.05481
165.7792, 76.09434
166.2613, 75.98206
166.7434, 75.46033
167.2255, 75.63791
167.7076, 77.37415
168.1898, 79.13100
168.6719, 79.53364
169.1540, 78.40195
169.6361, 76.97468
170.1182, 77.13796
170.6003, 80.08281
171.0825, 81.52389
171.5646, 79.98858
172.0467, 77.34987
172.5288, 75.78593
173.0109, 75.96877
173.4930, 76.97144
173.9752, 77.34298
174.4573, 77.05910
174.9394, 76.69485
175.4215, 76.44491
175.9036, 76.23330
176.3857, 75.86967
176.8679, 75.23515
177.3500, 74.52093
177.8321, 73.93786
178.3142, 73.46617
178.7963, 73.18426
179.2784, 73.30016
179.7606, 73.74358
180.2427, 73.90718
180.7248, 73.36565
181.2069, 72.71130
181.6890, 72.48418
182.1711, 72.73399
182.6533, 73.13438
183.1354, 73.39828
183.6175, 73.51464
184.0996, 73.58321
184.5817, 73.87773
185.0638, 73.96375
185.5460, 73.35734
186.0281, 71.98606
186.5102, 70.53059
186.9923, 70.17704
187.4744, 71.75082
187.9565, 72.17696
188.4387, 69.54447
188.9208, 66.69557
189.4029, 66.06924
189.8850, 68.31071
190.3671, 71.70741
190.8492, 72.91854
191.3314, 70.03850
191.8135, 67.94236
192.2956, 67.47232
192.7777, 67.55348
193.2598, 67.13111
193.7419, 65.80976
194.2241, 64.10445
194.7062, 63.26040
195.1883, 64.85791
195.6704, 65.50011
196.1525, 64.24784
196.6346, 62.28263
197.1168, 61.10457
197.5989, 61.39454
198.0810, 62.51835
198.5631, 62.60361
199.0452, 60.12726
199.5273, 58.67447
200.0095, 59.86993
200.4916, 62.31557
200.9737, 63.59755
201.4558, 62.48535
201.9379, 59.87722
202.4200, 58.34051
202.9022, 58.11965
203.3843, 58.23313
203.8664, 58.45001
204.3485, 58.75470
204.8306, 59.21911
205.3127, 60.13202
205.7949, 60.89876
206.2770, 60.15504
206.7591, 57.06773
207.2412, 54.37678
207.7233, 54.07185
208.2054, 55.77657
208.6876, 57.16203
209.1697, 57.15516
209.6518, 56.41677
210.1339, 55.88891
210.6160, 55.50515
211.0981, 55.62579
211.5803, 57.17341
212.0624, 60.15498
212.5445, 61.80133
213.0266, 59.79400
213.5087, 56.77161
213.9908, 55.25417
214.4730, 55.75691
214.9551, 56.95697
215.4372, 57.59094
215.9193, 57.65966
216.4014, 57.17026
216.8836, 54.93461
217.3657, 52.80420
217.8478, 52.24453
218.3299, 53.63099
218.8120, 55.78918
219.2941, 57.13749
219.7763, 57.45254
220.2584, 57.67242
220.7405, 58.32909
221.2226, 58.74195
221.7047, 58.13018
222.1868, 56.33935
222.6690, 54.33341
223.1511, 53.81282
223.6332, 55.76820
224.1153, 56.94838
224.5974, 56.48313
225.0795, 55.61255
225.5617, 55.18221
226.0438, 55.44099
226.5259, 56.12201
227.0080, 56.81544
227.4901, 57.72437
227.9722, 58.22686
228.4544, 58.18727
228.9365, 57.87456
229.4186, 57.38686
229.9007, 56.79007
230.3828, 56.23775
230.8649, 56.01612
231.3471, 56.42148
231.8292, 56.70060
232.3113, 56.71436
232.7934, 56.69279
233.2755, 56.83200
233.7576, 57.18263
234.2398, 57.66593
234.7219, 58.18827
235.2040, 59.22462
235.6861, 59.32311
236.1682, 57.40631
236.6503, 55.15129
237.1325, 54.00365
237.6146, 54.35722
238.0967, 55.82463
238.5788, 58.05468
239.0609, 62.09499
239.5430, 64.21513
240.0252, 63.01930
240.5073, 60.45788
240.9894, 58.18430
241.4715, 56.59029
241.9536, 55.73755
242.4357, 55.89384
242.9179, 57.36651
243.4000, 58.48840
243.8821, 59.10958
244.3642, 59.30185
244.8463, 58.98828
245.3284, 58.12602
245.8106, 57.20757
246.2927, 56.92953
246.7748, 57.33103
247.2569, 57.35106
247.7390, 56.40841
248.2211, 55.18559
248.7033, 54.62843
249.1854, 54.95230
249.6675, 55.33811
250.1496, 54.84108
250.6317, 53.59714
251.1138, 52.50557
251.5960, 51.70283
252.0781, 51.16729
252.5602, 50.91896
253.0423, 50.99293
253.5244, 51.16792
254.0065, 51.14047
254.4887, 51.04240
254.9708, 51.30781
255.4529, 52.38313
255.9350, 53.74743
256.4171, 54.82574
256.8992, 55.68829
257.3813, 55.86430
257.8635, 53.97779
258.3456, 51.22902
258.8277, 49.75640
259.3098, 51.07393
259.7919, 53.46282
260.2740, 54.47913
260.7562, 53.93595
261.2383, 52.82508
261.7204, 50.84483
262.2025, 48.83858
262.6846, 48.00920
263.1667, 49.10622
263.6489, 51.03172
264.1310, 52.27462
264.6131, 52.72328
265.0952, 52.97309
265.5773, 53.23563
266.0594, 53.44873
266.5416, 53.44482
267.0237, 53.04603
267.5058, 52.77738
267.9879, 53.49651
268.4700, 55.44006
268.9521, 57.27161
269.4343, 58.67004
269.9164, 59.70032
270.3985, 60.29531
270.8806, 60.41878
271.3627, 60.31559
271.8448, 60.13598
272.3270, 59.76077
272.8091, 59.93164
273.2912, 61.28071
273.7733, 62.96836
274.2554, 64.65248
274.7375, 66.25597
275.2197, 67.56501
275.7018, 68.24932
276.1839, 68.19759
276.6660, 68.22886
277.1481, 68.63406
277.6302, 69.01534
278.1124, 68.87484
278.5945, 68.32624
279.0766, 68.22012
279.5587, 69.68073
280.0408, 72.94963
280.5229, 75.62112
281.0051, 77.02669
281.4872, 78.26408
281.9693, 79.82882
282.4514, 81.64760
282.9335, 83.36000
283.4156, 84.67265
283.8978, 85.58294
284.3799, 86.22246
284.8620, 86.35388
285.3441, 86.42955
285.8262, 86.27933
286.3083, 86.18326
286.7905, 86.83874
287.2726, 89.17036
287.7547, 92.79648
288.2368, 93.89007
288.7189, 90.49866
289.2010, 86.66470
289.6832, 83.37713
290.1653, 80.42232
290.6474, 77.28356
291.1295, 73.60690
291.6116, 69.66853
292.0938, 66.69614
292.5759, 65.72179
293.0580, 64.26864
293.5401, 61.08464
294.0222, 57.49361
294.5043, 55.23425
294.9865, 55.12825
295.4686, 56.08526
295.9507, 55.24712
296.4328, 50.67694
296.9149, 47.82499
297.3970, 48.89165
297.8792, 50.83799
298.3613, 50.65754
298.8434, 47.54647
299.3255, 43.53255
299.8076, 42.22488
300.2897, 45.42190
300.7719, 47.27062
301.2540, 46.39551
301.7361, 45.10473
302.2182, 44.97362
302.7003, 46.18411
303.1824, 47.73483
303.6646, 48.45433
304.1467, 48.19316
304.6288, 47.59240
305.1109, 45.91747
305.5930, 44.55385
306.0751, 44.44114
306.5573, 45.34821
307.0394, 46.26183
307.5215, 46.19347
308.0036, 45.04313
308.4857, 44.37453
308.9678, 44.42830
309.4500, 44.75407
309.9321, 45.17001
310.4142, 45.77007
310.8963, 46.89950
311.3784, 48.96066
311.8605, 51.67836
312.3427, 52.84391
312.8248, 51.12676
313.3069, 49.27877
313.7890, 47.25704
314.2711, 45.55944
314.7532, 44.99056
315.2354, 46.01316
315.7175, 47.86264
316.1996, 48.20765
316.6817, 45.36529
317.1638, 43.69304
317.6459, 44.25579
318.1281, 45.73750
318.6102, 47.25124
319.0923, 48.43935
319.5744, 49.01511
320.0565, 48.16522
320.5386, 44.37724
321.0208, 42.75642
321.5029, 45.74088
321.9850, 48.92566
322.4671, 49.14239
322.9492, 46.30707
323.4313, 42.93895
323.9135, 42.05072
324.3956, 44.45639
324.8777, 45.18622
325.3598, 41.66076
325.8419, 38.84721
326.3240, 39.25172
326.8062, 42.12062
327.2883, 44.99250
327.7704, 45.91195
328.2525, 45.00690
328.7346, 44.62123
329.2167, 45.23914
329.6989, 45.86663
330.1810, 46.34739
330.6631, 46.66576
331.1452, 46.70898
331.6273, 46.34829
332.1094, 45.90303
332.5916, 46.52067
333.0737, 49.41616
333.5558, 51.25650
334.0379, 51.21760
334.5200, 50.17803
335.0021, 48.59248
335.4843, 46.65878
335.9664, 45.08015
336.4485, 45.24530
336.9306, 47.98415
337.4127, 49.98850
337.8948, 50.55667
338.3770, 50.63429
338.8591, 50.53685
339.3412, 50.40871
339.8233, 50.49869
340.3055, 51.33222
340.7876, 53.07953
341.2697, 53.77683
341.7518, 51.79921
342.2339, 50.34654
342.7160, 51.10283
343.1982, 53.40633
343.6803, 55.59335
344.1624, 56.66261
344.6445, 56.69134
345.1266, 55.88838
345.6087, 53.26974
346.0909, 51.46585
346.5730, 51.58921
347.0551, 52.79086
347.5372, 54.18060
348.0193, 55.53843
348.5014, 56.47692
348.9836, 56.11456
349.4657, 54.02097
349.9478, 52.07526
350.4299, 50.02705
350.9120, 48.76624
351.3941, 49.49274
351.8763, 52.36407
352.3584, 55.46751
352.8405, 56.76365
353.3226, 56.21073
353.8047, 55.51110
354.2868, 54.55741
354.7690, 53.85535
355.2511, 53.80324
355.7332, 54.29610
356.2153, 54.86936
356.6974, 55.29867
357.1795, 55.57906
357.6617, 55.77012
358.1438, 56.09624
358.6259, 55.83609
359.1080, 53.72876
359.5901, 50.95265
360.0722, 49.59172
360.5544, 51.25580
361.0365, 53.64734
361.5186, 52.85763
362.0007, 48.32165
362.4828, 45.16198
362.9649, 46.77308
363.4471, 50.13601
363.9292, 51.77543
364.4113, 51.09998
364.8934, 49.80272
365.3755, 49.19554
365.8576, 49.11474
366.3398, 48.53355
366.8219, 46.79258
367.3040, 45.13027
367.7861, 45.35929
368.2682, 47.24732
368.7503, 48.09184
369.2325, 45.66193
369.7146, 41.84133
370.1967, 40.07318
370.6788, 40.89794
371.1609, 42.23680
371.6430, 42.72016
372.1252, 42.44195
372.6073, 41.72079
373.0894, 39.74496
373.5715, 38.01595
374.0536, 38.16909
374.5357, 39.86824
375.0179, 40.99819
375.5000, 40.22997
375.9821, 38.53802
376.4642, 38.35863
376.9463, 40.44645
377.4284, 42.09544
377.9106, 41.95963
378.3927, 40.80816
378.8748, 39.97688
379.3569, 39.83989
379.8390, 39.90731
380.3211, 39.46401
380.8033, 38.33570
381.2854, 37.78659
381.7675, 38.26630
382.2496, 39.10030
382.7317, 40.05343
383.2138, 40.97359
383.6960, 41.22131
384.1781, 40.10049
384.6602, 37.78431
385.1423, 36.80864
385.6244, 38.25884
386.1065, 39.56521
386.5887, 39.46279
387.0708, 38.72271
387.5529, 38.88205
388.0350, 40.66038
388.5171, 43.13037
388.9992, 44.24214
389.4814, 42.69384
389.9635, 41.70677
390.4456, 41.68191
390.9277, 41.94236
391.4098, 41.89566
391.8919, 41.49247
392.3741, 41.10832
392.8562, 41.11098
393.3383, 41.50260
393.8204, 42.29895
394.3025, 45.01616
394.7846, 46.55499
395.2668, 44.87366
395.7489, 41.33781
396.2310, 38.48358
396.7131, 37.79850
397.1952, 38.79187
397.6773, 39.82856
398.1595, 41.33193
398.6416, 42.12644
399.1237, 41.31404
399.6058, 40.27486
400.0879, 40.34422
400.5700, 41.76370
401.0522, 43.53325
401.5343, 44.37809
402.0164, 44.09292
402.4985, 44.08717
402.9806, 44.98150
403.4627, 45.60549
403.9449, 45.21208
404.4270, 44.11774
404.9091, 43.13106
405.3912, 42.58426
405.8733, 42.59102
406.3554, 43.76128
406.8376, 46.80900
407.3197, 49.24970
407.8018, 49.82749
408.2839, 49.43536
408.7660, 48.89624
409.2481, 48.41833
409.7303, 47.71181
410.2124, 46.32422
410.6945, 44.31068
411.1766, 42.42470
411.6587, 40.51933
412.1408, 39.22093
412.6230, 39.45125
413.1051, 40.97086
413.5872, 41.98112
414.0693, 41.66171
414.5514, 40.39504
415.0335, 38.58537
415.5157, 36.19693
415.9978, 33.86240
416.4799, 31.68115
416.9620, 29.96865
417.4441, 29.49632
417.9262, 31.10909
418.4084, 32.88105
418.8905, 33.85180
419.3726, 34.14188
419.8547, 33.91128
420.3368, 33.09250
420.8189, 32.18299
421.3011, 32.03217
421.7832, 32.79467
422.2653, 33.60179
422.7474, 34.72242
423.2295, 35.60888
423.7116, 35.61516
424.1938, 34.80347
424.6759, 33.93566
425.1580, 33.64597
425.6401, 33.87924
426.1222, 33.58131
426.6043, 32.25912
427.0865, 31.06603
427.5686, 29.83912
428.0507, 29.04957
428.5328, 29.63667
429.0149, 31.92023
429.4970, 34.77521
429.9792, 36.22875
430.4613, 35.74683
430.9434, 34.94515
431.4255, 33.41432
431.9076, 31.97486
432.3897, 30.91204
432.8719, 30.33547
433.3540, 30.41841
433.8361, 31.43809
434.3182, 33.20558
434.8003, 34.40441
435.2824, 35.21059
435.7646, 35.06772
436.2467, 32.74437
436.7288, 30.04812
437.2109, 29.04595
437.6930, 30.39547
438.1751, 32.72655
438.6573, 34.54847
439.1394, 35.86405
439.6215, 36.51780
440.1036, 35.90504
440.5857, 35.26066
441.0678, 35.59045
441.5500, 36.62691
442.0321, 37.31888
442.5142, 36.64346
442.9963, 35.48389
443.4784, 35.45262
443.9605, 36.62096
444.4427, 38.45560
444.9248, 41.55101
445.4069, 44.69233
445.8890, 45.62636
446.3711, 43.45050
446.8532, 41.35054
447.3354, 41.33515
447.8175, 42.63477
448.2996, 43.53274
448.7817, 43.60014
449.2638, 43.55548
449.7459, 44.27612
450.2281, 45.82290
450.7102, 46.82255
451.1923, 46.84844
451.6744, 46.64863
452.1565, 46.43197
452.6386, 46.35437
453.1208, 46.86190
453.6029, 48.25569
454.0850, 50.15635
454.5671, 51.50645
455.0492, 51.42149
455.5313, 51.99929
456.0135, 53.50438
456.4956, 55.51708
456.9777, 57.98856
457.4598, 60.73617
457.9419, 63.20966
458.4240, 64.82526
458.9062, 65.56310
459.3883, 66.64661
459.8704, 68.29189
460.3525, 70.07929
460.8346, 72.19228
461.3167, 74.29494
461.7989, 76.31370
462.2810, 78.25426
462.7631, 79.11560
463.2452, 76.82382
463.7273, 70.70046
464.2094, 65.43504
464.6916, 61.67102
465.1737, 58.93429
465.6558, 57.26261
466.1379, 56.42772
466.6200, 55.67568
467.1021, 54.44429
467.5843, 53.09875
468.0664, 52.52034
468.5485, 52.83440
469.0306, 52.96431
469.5127, 52.15031
469.9948, 51.03877
470.4770, 50.74804
470.9591, 51.58615
471.4412, 52.21859
471.9233, 51.29283
472.4054, 49.87634
472.8875, 50.29547
473.3697, 53.06511
473.8518, 56.03733
474.3339, 57.33199
474.8160, 56.88868
475.2981, 56.17223
475.7802, 54.12780
476.2624, 52.92036
476.7445, 54.44540
477.2266, 57.34968
477.7087, 58.94071
478.1908, 58.14624
478.6729, 56.15716
479.1551, 55.23189
479.6372, 56.64115
480.1193, 56.01865
480.6014, 51.35710
481.0835, 46.73949
481.5656, 44.48365
482.0478, 44.27310
482.5299, 44.56771
483.0120, 44.30346
483.4941, 43.87529
483.9762, 45.20491
484.4583, 50.56662
484.9405, 52.92847
485.4226, 48.18340
485.9047, 42.02895
486.3868, 38.86984
486.8689, 39.23610
487.3510, 40.76448
487.8332, 41.85740
488.3153, 42.51279
488.7974, 42.54538
489.2795, 41.49886
489.7616, 40.94244
490.2437, 42.40921
490.7259, 44.86139
491.2080, 46.77738
491.6901, 47.77869
492.1722, 48.39991
492.6543, 48.82762
493.1364, 49.16569
493.6186, 49.70441
494.1007, 50.52077
494.5828, 51.57767
495.0649, 52.94497
495.5470, 54.67425
496.0291, 56.00132
496.5113, 57.28592
496.9934, 57.81183
497.4755, 56.62722
497.9576, 54.35501
498.4397, 52.70038
498.9218, 52.55791
499.4040, 52.83876
499.8861, 50.96110
500.3682, 44.57422
500.8503, 40.41234
501.3324, 39.29564
501.8145, 39.40474
502.2967, 40.21142
502.7788, 41.28440
503.2609, 41.90936
503.7430, 41.54041
504.2251, 40.40310
504.7072, 39.29350
505.1894, 37.98954
505.6715, 37.22741
506.1536, 37.41380
506.6357, 38.05492
507.1178, 38.91606
507.5999, 39.93434
508.0821, 40.85550
508.5642, 42.04715
509.0463, 42.98850
509.5284, 41.54513
510.0105, 36.91171
510.4926, 32.98797
510.9748, 32.85963
511.4569, 35.01012
511.9390, 35.63248
512.4211, 33.31432
512.9032, 31.69726
513.3853, 33.81295
513.8674, 37.48763
514.3495, 38.53719
514.8317, 36.04340
515.3138, 32.94244
515.7959, 32.33482
516.2780, 34.46443
516.7601, 35.39022
517.2422, 34.16563
517.7244, 33.00780
518.2065, 33.17644
518.6886, 33.70724
519.1707, 32.86903
519.6528, 30.13041
520.1349, 26.95753
520.6171, 25.66440
521.0992, 26.70676
521.5813, 27.77531
522.0634, 29.36250
522.5455, 30.45882
523.0276, 30.53813
523.5098, 29.88057
523.9919, 28.95026
524.4740, 27.84034
524.9561, 26.85455
525.4382, 26.52045
525.9203, 26.85249
526.4025, 27.06489
526.8846, 26.65220
527.3667, 26.51206
527.8488, 28.02721
528.3309, 30.84270
528.8130, 32.58102
529.2952, 31.38766
529.7773, 29.70962
530.2594, 29.97721
530.7415, 31.85554
531.2236, 33.71593
531.7057, 34.94181
532.1879, 35.46362
532.6700, 35.04868
533.1521, 32.98389
533.6342, 31.59993
534.1163, 31.30398
534.5984, 31.39232
535.0806, 31.38906
535.5627, 31.36267
536.0448, 31.78945
536.5269, 33.04965
537.0090, 34.59536
537.4911, 34.59229
537.9733, 32.00053
538.4554, 30.14851
538.9375, 29.62516
539.4196, 29.74974
539.9017, 30.52670
540.3839, 31.68295
540.8660, 32.33818
541.3481, 31.49454
541.8302, 30.01087
542.3123, 29.97972
542.7944, 31.57255
543.2766, 33.12767
543.7587, 34.13538
544.2408, 34.63816
544.7229, 34.69186
545.2050, 34.25793
545.6871, 33.76908
546.1693, 32.92878
546.6514, 32.38266
547.1335, 33.14912
547.6156, 35.07051
548.0977, 36.80724
548.5798, 37.49642
549.0620, 37.48988
549.5441, 37.97034
550.0262, 39.86543
550.5083, 40.99596
550.9904, 41.43099
551.4725, 41.03734
551.9547, 38.80608
552.4368, 35.45441
552.9189, 33.42917
553.4010, 34.84143
553.8831, 38.67798
554.3652, 40.73894
554.8474, 40.24249
555.3295, 39.92237
555.8116, 40.75906
556.2937, 41.82297
556.7758, 42.69085
557.2579, 43.24930
557.7401, 43.07539
558.2222, 41.04039
558.7043, 38.45925
559.1864, 37.99348
559.6685, 39.72318
560.1506, 40.99903
560.6328, 40.30347
561.1149, 38.58943
561.5970, 38.01916
562.0791, 38.97375
562.5612, 39.60553
563.0433, 38.89769
563.5255, 38.23915
564.0076, 39.13104
564.4897, 41.28560
564.9718, 43.28025
565.4539, 44.26083
565.9360, 44.24091
566.4182, 43.17830
566.9003, 40.29991
567.3824, 37.81029
567.8645, 35.59868
568.3466, 33.98275
568.8287, 33.69396
569.3109, 34.28274
569.7930, 34.17106
570.2751, 31.79116
570.7572, 28.70610
571.2393, 29.06696
571.7214, 33.33652
572.2036, 35.17500
572.6857, 30.77353
573.1678, 25.05861
573.6499, 24.50274
574.1320, 28.94095
574.6141, 31.98270
575.0963, 30.43718
575.5784, 27.94372
576.0605, 27.83057
576.5426, 29.56200
577.0247, 30.84143
577.5068, 30.58759
577.9890, 29.60235
578.4711, 29.42999
578.9532, 30.65991
579.4353, 31.19390
579.9174, 30.32972
580.3995, 29.56107
580.8817, 29.96522
581.3638, 30.93954
581.8459, 31.13464
582.3280, 29.84238
582.8101, 28.09653
583.2922, 27.63825
583.7744, 28.55786
584.2565, 29.50083
