##NAMES=Vergasovaite
##RRUFFID=R061141
##IDEAL CHEMISTRY=Cu^2+^_3_O(Mo^6+^O_4_)(S^6+^O_4_)
##LOCALITY=Tolbachik Volcano, Kamchatka, Russia
##OWNER=RRUFF
##SOURCE=Michael Scott
##DESCRIPTION=Dark green prismatic, co-type material, associated with apple green euchlorine
##STATUS=The identification of this mineral is confirmed by single-crystal X-ray diffraction and chemical analysis.
##URL=rruff.info/R061141
##MEASURED CHEMISTRY=(Cu_2.97_Zn_0.03_)_Σ=3_O(Mo_0.98_S_0.02_)_Σ=1_O_4_(S_1.00_O_4_); trace amounts of Fe
131.8679, 5022.283
132.3500, 5181.364
132.8322, 5341.979
133.3143, 5504.194
133.7964, 5658.943
134.2785, 5806.210
134.7606, 5947.042
135.2427, 6078.208
135.7249, 6195.714
136.2070, 6326.007
136.6891, 6490.347
137.1712, 6699.506
137.6533, 6891.300
138.1354, 7069.134
138.6176, 7226.998
139.0997, 7335.098
139.5818, 7364.527
140.0639, 7395.068
140.5460, 7489.641
141.0281, 7677.585
141.5103, 7860.833
141.9924, 8023.707
142.4745, 8167.716
142.9566, 8301.283
143.4387, 8379.278
143.9208, 8430.010
144.4030, 8489.539
144.8851, 8558.192
145.3672, 8634.062
145.8493, 8721.837
146.3314, 8840.253
146.8135, 8920.479
147.2957, 8924.304
147.7778, 8896.020
148.2599, 8921.963
148.7420, 9077.479
149.2241, 9223.541
149.7062, 9313.773
150.1883, 9312.005
150.6705, 9303.535
151.1526, 9295.184
151.6347, 9284.604
152.1168, 9260.652
152.5989, 9227.868
153.0810, 9178.503
153.5632, 9108.302
154.0453, 9026.782
154.5274, 8913.938
155.0095, 8749.065
155.4916, 8533.101
155.9737, 8333.717
156.4559, 8184.278
156.9380, 8051.635
157.4201, 7904.771
157.9022, 7713.163
158.3843, 7523.506
158.8664, 7352.520
159.3486, 7203.697
159.8307, 7070.498
160.3128, 6956.372
160.7949, 6855.618
161.2770, 6758.666
161.7591, 6666.088
162.2413, 6573.265
162.7234, 6472.823
163.2055, 6350.985
163.6876, 6248.471
164.1697, 6200.047
164.6518, 6191.891
165.1339, 6179.894
165.6161, 6130.285
166.0982, 6070.125
166.5803, 6026.594
167.0624, 6019.658
167.5445, 6019.750
168.0266, 5997.443
168.5088, 5955.903
168.9909, 5929.669
169.4730, 5959.584
169.9551, 6016.412
170.4372, 6056.497
170.9193, 6048.417
171.4015, 6022.913
171.8836, 6012.274
172.3657, 6018.022
172.8478, 6024.477
173.3299, 6012.546
173.8120, 5989.823
174.2942, 5974.976
174.7763, 5978.174
175.2584, 5994.578
175.7405, 6020.261
176.2226, 6058.375
176.7047, 6094.047
177.1869, 6106.260
177.6690, 6099.427
178.1511, 6094.293
178.6332, 6108.578
179.1153, 6133.917
179.5974, 6151.124
180.0796, 6155.688
180.5617, 6153.207
181.0438, 6150.165
181.5259, 6146.852
182.0080, 6145.811
182.4901, 6144.149
182.9722, 6145.072
183.4544, 6162.916
183.9365, 6212.370
184.4186, 6274.916
184.9007, 6304.657
185.3828, 6298.920
185.8649, 6287.155
186.3471, 6303.044
186.8292, 6342.492
187.3113, 6373.124
187.7934, 6374.917
188.2755, 6357.075
188.7576, 6365.052
189.2398, 6404.818
189.7219, 6447.556
190.2040, 6449.740
190.6861, 6411.240
191.1682, 6376.755
191.6503, 6371.434
192.1325, 6392.465
192.6146, 6395.276
193.0967, 6370.139
193.5788, 6343.533
194.0609, 6381.196
194.5430, 6492.838
195.0252, 6580.848
195.5073, 6578.606
195.9894, 6483.458
196.4715, 6399.974
196.9536, 6335.887
197.4357, 6288.102
197.9178, 6250.971
198.4000, 6226.086
198.8821, 6204.306
199.3642, 6178.744
199.8463, 6148.139
200.3284, 6120.262
200.8105, 6095.604
201.2927, 6074.218
201.7748, 6059.938
202.2569, 6057.486
202.7390, 6049.830
203.2211, 6019.313
203.7032, 5961.479
204.1854, 5902.002
204.6675, 5844.649
205.1496, 5789.411
205.6317, 5745.796
206.1138, 5717.197
206.5959, 5693.816
207.0781, 5661.755
207.5602, 5615.435
208.0423, 5579.098
208.5244, 5560.806
209.0065, 5561.387
209.4886, 5569.466
209.9708, 5591.096
210.4529, 5613.287
210.9350, 5613.214
211.4171, 5581.006
211.8992, 5550.745
212.3813, 5535.149
212.8635, 5536.926
213.3456, 5539.889
213.8277, 5540.950
214.3098, 5545.200
214.7919, 5566.508
215.2740, 5614.230
215.7561, 5659.815
216.2383, 5686.430
216.7204, 5680.142
217.2025, 5696.402
217.6846, 5743.766
218.1667, 5812.938
218.6488, 5876.566
219.1310, 5933.983
219.6131, 5985.783
220.0952, 6031.120
220.5773, 6064.799
221.0594, 6102.561
221.5415, 6144.159
222.0237, 6190.466
222.5058, 6244.853
222.9879, 6310.915
223.4700, 6380.602
223.9521, 6449.550
224.4342, 6517.247
224.9164, 6584.237
225.3985, 6651.022
225.8806, 6717.141
226.3627, 6780.646
226.8448, 6840.774
227.3270, 6898.545
227.8091, 6954.403
228.2912, 7009.599
228.7733, 7060.375
229.2554, 7104.188
229.7375, 7140.515
230.2197, 7184.141
230.7018, 7243.847
231.1839, 7302.750
231.6660, 7340.074
232.1481, 7338.247
232.6302, 7347.244
233.1123, 7382.811
233.5945, 7450.468
234.0766, 7503.973
234.5587, 7545.167
235.0408, 7570.296
235.5229, 7571.274
236.0050, 7530.844
236.4872, 7495.311
236.9693, 7483.779
237.4514, 7509.207
237.9335, 7502.505
238.4156, 7452.817
238.8977, 7377.178
239.3799, 7303.280
239.8620, 7233.286
240.3441, 7161.349
240.8262, 7086.179
241.3083, 7006.842
241.7904, 6925.257
242.2726, 6836.718
242.7547, 6747.921
243.2368, 6676.271
243.7189, 6640.684
244.2010, 6593.309
244.6831, 6510.071
245.1653, 6366.345
245.6474, 6249.033
246.1295, 6172.400
246.6116, 6118.667
247.0937, 6036.127
247.5758, 5899.857
248.0579, 5771.362
248.5401, 5682.760
249.0222, 5661.688
249.5043, 5615.500
249.9864, 5529.806
250.4685, 5417.386
250.9506, 5325.643
251.4328, 5258.160
251.9149, 5204.764
252.3970, 5162.949
252.8791, 5143.301
253.3612, 5109.683
253.8433, 5054.666
254.3255, 4983.951
254.8076, 4919.379
255.2897, 4860.066
255.7718, 4808.196
256.2539, 4765.260
256.7360, 4733.372
257.2181, 4704.838
257.7003, 4679.685
258.1824, 4657.056
258.6645, 4631.015
259.1466, 4595.272
259.6287, 4565.795
260.1108, 4557.757
260.5930, 4583.247
261.0751, 4593.919
261.5572, 4577.327
262.0393, 4538.520
262.5214, 4519.319
263.0035, 4529.280
263.4857, 4541.738
263.9678, 4532.291
264.4499, 4492.420
264.9320, 4459.659
265.4141, 4441.677
265.8962, 4436.865
266.3784, 4434.344
266.8605, 4436.941
267.3426, 4436.571
267.8247, 4424.524
268.3068, 4398.118
268.7889, 4370.888
269.2711, 4341.673
269.7532, 4312.734
270.2353, 4308.781
270.7174, 4338.309
271.1995, 4374.580
271.6816, 4391.482
272.1638, 4386.575
272.6459, 4375.009
273.1280, 4354.870
273.6101, 4329.107
274.0922, 4326.756
274.5743, 4354.991
275.0565, 4387.689
275.5386, 4396.802
276.0207, 4380.090
276.5028, 4358.237
276.9849, 4334.470
277.4670, 4309.718
277.9492, 4287.887
278.4313, 4268.755
278.9134, 4253.688
279.3955, 4246.085
279.8776, 4246.411
280.3597, 4245.252
280.8419, 4240.568
281.3240, 4232.294
281.8061, 4218.162
282.2882, 4196.556
282.7703, 4175.854
283.2524, 4165.459
283.7346, 4165.246
284.2167, 4169.392
284.6988, 4176.262
285.1809, 4186.092
285.6630, 4200.095
286.1451, 4218.743
286.6273, 4239.073
287.1094, 4255.324
287.5915, 4268.528
288.0736, 4288.880
288.5557, 4320.035
289.0378, 4360.944
289.5199, 4410.121
290.0020, 4468.298
290.4842, 4529.808
290.9663, 4595.312
291.4484, 4661.250
291.9305, 4712.515
292.4126, 4738.843
292.8947, 4747.636
293.3769, 4756.348
293.8590, 4765.173
294.3411, 4771.564
294.8232, 4764.140
295.3053, 4750.143
295.7874, 4753.519
296.2696, 4795.236
296.7517, 4856.394
297.2338, 4895.853
297.7159, 4913.073
298.1980, 4939.093
298.6801, 5007.159
299.1623, 5106.730
299.6444, 5211.085
300.1265, 5309.050
300.6086, 5406.884
301.0907, 5514.832
301.5728, 5631.028
302.0550, 5754.686
302.5371, 5892.842
303.0192, 6036.405
303.5013, 6166.431
303.9834, 6262.393
304.4655, 6349.585
304.9477, 6452.339
305.4298, 6570.575
305.9119, 6689.986
306.3940, 6796.549
306.8761, 6899.392
307.3582, 7009.529
307.8404, 7124.427
308.3225, 7253.390
308.8046, 7407.836
309.2867, 7585.004
309.7688, 7765.687
310.2509, 7931.650
310.7331, 8095.347
311.2152, 8270.150
311.6973, 8469.756
312.1794, 8676.231
312.6615, 8884.249
313.1436, 9094.007
313.6258, 9295.247
314.1079, 9509.121
314.5900, 9705.027
315.0721, 9855.340
315.5542, 9960.982
316.0363, 10011.12
316.5185, 9995.400
317.0006, 9915.750
317.4827, 9797.759
317.9648, 9653.099
318.4469, 9471.581
318.9290, 9245.245
319.4112, 8918.963
319.8933, 8602.829
320.3754, 8321.568
320.8575, 8073.869
321.3396, 7841.724
321.8217, 7619.116
322.3038, 7415.072
322.7859, 7236.041
323.2681, 7084.633
323.7502, 6955.603
324.2323, 6851.990
324.7144, 6772.199
325.1965, 6707.983
325.6786, 6674.895
326.1608, 6646.963
326.6429, 6610.180
327.1250, 6538.311
327.6071, 6492.405
328.0892, 6481.506
328.5714, 6500.355
329.0535, 6522.662
329.5356, 6549.177
330.0177, 6578.263
330.4998, 6610.218
330.9819, 6649.351
331.4641, 6681.991
331.9462, 6701.435
332.4283, 6714.340
332.9104, 6743.871
333.3925, 6794.419
333.8746, 6853.520
334.3568, 6917.140
334.8389, 6987.012
335.3210, 7054.199
335.8031, 7121.477
336.2852, 7183.900
336.7673, 7225.786
337.2495, 7238.146
337.7316, 7259.223
338.2137, 7320.783
338.6958, 7429.904
339.1779, 7488.708
339.6600, 7478.362
340.1422, 7439.322
340.6243, 7452.525
341.1064, 7523.294
341.5885, 7587.043
342.0706, 7599.838
342.5527, 7570.058
343.0349, 7571.935
343.5170, 7611.340
343.9991, 7670.358
344.4812, 7724.814
344.9633, 7775.567
345.4454, 7834.790
345.9276, 7918.645
346.4097, 8015.037
346.8918, 8084.353
347.3739, 8122.984
347.8560, 8160.075
348.3381, 8232.745
348.8203, 8332.043
349.3024, 8427.375
349.7845, 8499.286
350.2666, 8561.420
350.7487, 8629.534
351.2308, 8703.417
351.7130, 8790.850
352.1951, 8913.606
352.6772, 9052.618
353.1593, 9175.034
353.6414, 9238.360
354.1235, 9300.120
354.6056, 9421.163
355.0877, 9596.590
355.5699, 9762.169
356.0520, 9880.621
356.5341, 9967.393
357.0162, 10039.37
357.4983, 10094.92
357.9804, 10142.58
358.4626, 10192.76
358.9447, 10242.08
359.4268, 10268.41
359.9089, 10250.92
360.3910, 10214.12
360.8731, 10176.03
361.3553, 10152.30
361.8374, 10113.60
362.3195, 10048.70
362.8016, 9962.039
363.2837, 9869.483
363.7658, 9761.781
364.2480, 9657.969
364.7301, 9566.230
365.2122, 9476.021
365.6943, 9414.579
366.1764, 9411.023
366.6585, 9436.588
367.1407, 9421.731
367.6228, 9335.685
368.1049, 9239.975
368.5870, 9151.514
369.0691, 9063.583
369.5512, 9002.354
370.0334, 8988.096
370.5155, 8990.348
370.9976, 8959.574
371.4797, 8886.234
371.9618, 8797.856
372.4439, 8699.937
372.9261, 8590.885
373.4082, 8485.143
373.8903, 8388.912
374.3724, 8286.667
374.8545, 8157.716
375.3366, 7996.536
375.8188, 7833.595
376.3009, 7672.628
376.7830, 7516.157
377.2651, 7375.896
377.7472, 7256.608
378.2293, 7135.771
378.7115, 6984.150
379.1936, 6806.191
379.6757, 6634.604
380.1578, 6478.111
380.6399, 6334.784
381.1220, 6198.646
381.6042, 6070.274
382.0863, 5948.999
382.5684, 5834.074
383.0505, 5725.346
383.5326, 5627.298
384.0147, 5546.440
384.4969, 5466.718
384.9790, 5359.607
385.4611, 5235.213
385.9432, 5126.887
386.4253, 5070.489
386.9074, 5035.840
387.3895, 4987.061
387.8716, 4913.595
388.3538, 4841.836
388.8359, 4797.028
389.3180, 4766.746
389.8001, 4727.197
390.2822, 4650.286
390.7643, 4573.500
391.2465, 4523.639
391.7286, 4508.438
392.2107, 4487.503
392.6928, 4440.253
393.1749, 4380.581
393.6570, 4326.228
394.1392, 4299.501
394.6213, 4260.429
395.1034, 4187.576
395.5855, 4076.696
396.0676, 3988.840
396.5497, 3949.815
397.0319, 3924.245
397.5140, 3882.860
397.9961, 3804.330
398.4782, 3738.984
398.9603, 3699.802
399.4424, 3681.535
399.9246, 3644.682
400.4067, 3578.549
400.8888, 3507.924
401.3709, 3447.429
401.8530, 3401.239
402.3351, 3353.910
402.8173, 3303.843
403.2994, 3252.532
403.7815, 3203.576
404.2636, 3156.833
404.7457, 3112.439
405.2278, 3066.962
405.7100, 3020.902
406.1921, 2991.097
406.6742, 2981.304
407.1563, 2978.777
407.6384, 2967.439
408.1205, 2947.443
408.6027, 2920.384
409.0848, 2879.729
409.5669, 2833.365
410.0490, 2806.414
410.5311, 2799.814
411.0132, 2794.306
411.4954, 2768.850
411.9775, 2731.408
412.4596, 2698.056
412.9417, 2669.020
413.4238, 2651.228
413.9059, 2658.865
414.3881, 2687.718
414.8702, 2711.349
415.3523, 2706.018
415.8344, 2690.987
416.3165, 2685.379
416.7986, 2700.394
417.2808, 2714.077
417.7629, 2710.637
418.2450, 2697.288
418.7271, 2692.044
419.2092, 2705.410
419.6913, 2724.658
420.1734, 2744.709
420.6555, 2766.984
421.1377, 2784.907
421.6198, 2795.229
422.1019, 2801.247
422.5840, 2807.589
423.0661, 2811.121
423.5482, 2818.900
424.0304, 2832.722
424.5125, 2853.115
424.9946, 2876.042
425.4767, 2901.033
425.9588, 2928.905
426.4409, 2961.112
426.9231, 3000.597
427.4052, 3035.861
427.8873, 3065.506
428.3694, 3089.787
428.8515, 3109.365
429.3336, 3123.137
429.8158, 3136.520
430.2979, 3149.828
430.7800, 3163.656
431.2621, 3192.497
431.7442, 3242.002
432.2263, 3297.413
432.7085, 3334.132
433.1906, 3353.800
433.6727, 3369.285
434.1548, 3386.061
434.6369, 3403.627
435.1190, 3424.360
435.6012, 3449.381
436.0833, 3465.685
436.5654, 3452.600
437.0475, 3423.787
437.5296, 3403.692
438.0117, 3428.109
438.4939, 3444.002
438.9760, 3406.274
439.4581, 3320.526
439.9402, 3230.548
440.4223, 3151.360
440.9044, 3080.095
441.3866, 3015.759
441.8687, 2962.463
442.3508, 2908.585
442.8329, 2843.522
443.3150, 2775.193
443.7971, 2725.336
444.2793, 2710.777
444.7614, 2703.434
445.2435, 2693.174
445.7256, 2677.740
446.2077, 2665.626
446.6898, 2656.751
447.1720, 2651.214
447.6541, 2648.913
448.1362, 2649.360
448.6183, 2654.294
449.1004, 2665.727
449.5826, 2682.877
450.0647, 2695.158
450.5468, 2700.449
451.0289, 2707.201
451.5110, 2726.292
451.9931, 2757.929
452.4753, 2776.305
452.9574, 2771.587
453.4395, 2760.530
453.9216, 2780.536
454.4037, 2829.378
454.8858, 2878.461
455.3679, 2910.540
455.8500, 2931.375
456.3322, 2952.339
456.8143, 2973.998
457.2964, 2997.458
457.7785, 3024.470
458.2606, 3053.847
458.7427, 3083.868
459.2249, 3117.104
459.7070, 3147.943
460.1891, 3169.495
460.6712, 3182.533
461.1533, 3198.886
461.6354, 3222.461
462.1176, 3252.226
462.5997, 3287.598
463.0818, 3339.741
463.5639, 3382.613
464.0460, 3408.118
464.5281, 3420.384
465.0103, 3432.373
465.4924, 3440.045
465.9745, 3452.231
466.4566, 3474.160
466.9387, 3512.163
467.4208, 3536.675
467.9030, 3544.253
468.3851, 3541.749
468.8672, 3537.471
469.3493, 3531.788
469.8314, 3523.668
470.3135, 3513.475
470.7957, 3500.801
471.2778, 3482.177
471.7599, 3457.125
472.2420, 3430.703
472.7241, 3406.541
473.2062, 3384.733
473.6884, 3365.049
474.1705, 3348.456
474.6526, 3331.624
475.1347, 3304.391
475.6168, 3271.153
476.0989, 3248.772
476.5811, 3260.484
477.0632, 3280.360
477.5453, 3274.597
478.0274, 3239.912
478.5095, 3209.280
478.9916, 3211.432
479.4738, 3226.221
479.9559, 3230.545
480.4380, 3202.523
480.9201, 3177.416
481.4022, 3166.082
481.8843, 3167.630
482.3665, 3177.598
482.8486, 3205.526
483.3307, 3233.805
483.8128, 3253.192
484.2949, 3258.511
484.7770, 3265.080
485.2592, 3268.013
485.7413, 3274.654
486.2234, 3298.348
486.7055, 3347.404
487.1876, 3393.810
487.6697, 3427.134
488.1518, 3449.172
488.6339, 3487.361
489.1161, 3545.334
489.5982, 3604.864
490.0803, 3649.378
490.5624, 3680.530
491.0445, 3712.122
491.5266, 3745.781
492.0088, 3782.711
492.4909, 3825.069
492.9730, 3872.381
493.4551, 3926.133
493.9372, 3990.923
494.4193, 4060.499
494.9015, 4124.239
495.3836, 4181.296
495.8657, 4242.681
496.3478, 4317.575
496.8299, 4400.651
497.3120, 4487.845
497.7942, 4582.942
498.2763, 4675.368
498.7584, 4763.329
499.2405, 4846.235
499.7226, 4923.111
500.2047, 4977.428
500.6869, 5039.480
501.1690, 5126.599
501.6511, 5259.649
502.1332, 5372.546
502.6153, 5454.265
503.0974, 5522.659
503.5796, 5605.886
504.0617, 5709.769
504.5438, 5811.601
505.0259, 5903.746
505.5080, 5988.004
505.9901, 6074.910
506.4723, 6163.858
506.9544, 6257.318
507.4365, 6362.777
507.9186, 6476.401
508.4007, 6576.161
508.8828, 6653.268
509.3650, 6727.527
509.8471, 6825.848
510.3292, 6941.963
510.8113, 7056.108
511.2934, 7162.398
511.7755, 7259.234
512.2576, 7347.948
512.7397, 7427.667
513.2219, 7489.314
513.7040, 7509.174
514.1861, 7517.815
514.6682, 7542.768
515.1503, 7610.635
515.6324, 7671.862
516.1146, 7716.211
516.5967, 7746.471
517.0788, 7772.292
517.5609, 7789.404
518.0430, 7808.252
518.5251, 7836.725
519.0073, 7881.148
519.4894, 7896.576
519.9715, 7872.356
520.4536, 7835.351
520.9357, 7816.570
521.4178, 7819.586
521.9000, 7809.156
522.3821, 7777.176
522.8642, 7728.378
523.3463, 7674.750
523.8284, 7615.918
524.3105, 7549.288
524.7927, 7477.796
525.2748, 7397.109
525.7569, 7294.772
526.2390, 7167.563
526.7211, 7034.496
527.2032, 6909.525
527.6854, 6788.000
528.1675, 6662.711
528.6496, 6531.652
529.1317, 6394.676
529.6138, 6251.938
530.0959, 6103.600
530.5781, 5943.411
531.0602, 5752.452
531.5423, 5564.020
532.0244, 5398.750
532.5065, 5274.463
532.9886, 5132.668
533.4708, 4956.006
533.9529, 4772.022
534.4350, 4615.294
534.9171, 4489.610
535.3992, 4378.473
535.8813, 4283.535
536.3635, 4199.230
536.8456, 4088.961
537.3277, 3947.652
537.8098, 3814.541
538.2919, 3724.404
538.7740, 3665.531
539.2562, 3595.619
539.7383, 3509.048
540.2204, 3419.025
540.7025, 3335.867
541.1846, 3258.324
541.6667, 3182.963
542.1489, 3099.213
542.6310, 3024.467
543.1131, 2977.510
543.5952, 2954.094
544.0773, 2929.205
544.5594, 2897.885
545.0416, 2858.277
545.5237, 2807.254
546.0058, 2736.363
546.4879, 2672.040
546.9700, 2611.537
547.4521, 2560.621
547.9343, 2529.771
548.4164, 2533.737
548.8985, 2527.262
549.3806, 2496.500
549.8627, 2446.997
550.3448, 2414.204
550.8270, 2401.565
551.3091, 2389.869
551.7912, 2362.160
552.2733, 2322.459
552.7554, 2296.268
553.2375, 2287.530
553.7197, 2282.978
554.2018, 2268.496
554.6839, 2246.055
555.1660, 2220.705
555.6481, 2190.534
556.1302, 2161.729
556.6124, 2138.625
557.0945, 2121.114
557.5766, 2108.564
558.0587, 2105.274
558.5408, 2103.671
559.0229, 2099.978
559.5051, 2095.034
559.9872, 2084.229
560.4693, 2060.098
560.9514, 2032.877
561.4335, 2014.095
561.9156, 2009.554
562.3978, 2003.056
562.8799, 1992.525
563.3620, 1977.947
563.8441, 1955.515
564.3262, 1921.324
564.8083, 1896.923
565.2905, 1904.265
565.7726, 1935.775
566.2547, 1942.514
566.7368, 1920.151
567.2189, 1889.341
567.7010, 1869.869
568.1831, 1858.869
568.6652, 1850.051
569.1473, 1841.141
569.6295, 1834.176
570.1116, 1830.556
570.5937, 1830.184
571.0758, 1832.943
571.5579, 1844.946
572.0400, 1854.910
572.5222, 1855.661
573.0043, 1844.119
573.4864, 1835.708
573.9685, 1833.349
574.4506, 1833.596
574.9327, 1834.045
575.4149, 1835.476
575.8970, 1834.559
576.3791, 1828.274
576.8612, 1821.411
577.3433, 1828.839
577.8254, 1852.614
578.3076, 1871.158
578.7897, 1856.400
579.2718, 1879.430
579.7539, 1894.641
580.2360, 1902.451
580.7181, 1880.697
581.2003, 1897.120
581.6824, 1898.243
582.1645, 1898.738
582.6466, 1920.534
583.1287, 1903.080
583.6108, 1924.537
584.0930, 1930.463
584.5751, 1943.496
585.0572, 1941.136
585.5393, 1943.531
586.0214, 1961.324
586.5035, 1970.591
586.9857, 1966.460
587.4678, 1972.443
587.9499, 1987.484
588.4320, 2001.703
588.9141, 2015.875
589.3962, 2024.627
589.8784, 2025.906
590.3605, 2025.560
590.8426, 2032.128
591.3247, 2045.055
591.8068, 2058.984
592.2889, 2073.499
592.7711, 2086.878
593.2532, 2097.365
593.7353, 2104.588
594.2174, 2107.052
594.6995, 2097.449
595.1816, 2086.843
595.6638, 2088.991
596.1459, 2108.026
596.6280, 2115.296
597.1101, 2086.312
597.5922, 2047.428
598.0743, 2022.869
598.5565, 2024.862
599.0386, 2030.377
599.5207, 2043.475
600.0028, 2057.734
600.4849, 2055.594
600.9670, 2029.922
601.4492, 2007.923
601.9313, 2001.561
602.4134, 2007.998
602.8955, 2005.875
603.3776, 1994.840
603.8597, 1980.094
604.3419, 1956.713
604.8240, 1933.672
605.3061, 1934.065
605.7882, 1964.599
606.2703, 2006.222
606.7524, 2053.713
607.2346, 2098.342
607.7167, 2125.002
608.1988, 2108.956
608.6809, 2093.632
609.1630, 2093.074
609.6451, 2106.927
610.1273, 2132.052
610.6094, 2187.993
611.0915, 2235.133
611.5736, 2254.873
612.0557, 2239.433
612.5378, 2242.599
613.0200, 2268.320
613.5021, 2304.735
613.9842, 2341.511
614.4663, 2378.306
614.9484, 2412.708
615.4305, 2442.120
615.9127, 2474.341
616.3948, 2526.262
616.8769, 2592.213
617.3590, 2654.199
617.8411, 2694.124
618.3232, 2732.199
618.8054, 2789.895
619.2875, 2865.151
619.7696, 2935.831
620.2517, 2995.894
620.7338, 3047.050
621.2159, 3087.861
621.6981, 3106.060
622.1802, 3143.979
622.6623, 3221.874
623.1444, 3305.765
623.6265, 3356.286
624.1086, 3364.736
624.5908, 3368.340
625.0729, 3369.343
625.5550, 3372.655
