##NAMES=Vermiculite
##RRUFFID=R050490
##IDEAL CHEMISTRY=Mg_0.7_(Mg,Fe^3+^,Al)_6_(Si,Al)_8_O_20_(OH)_4_&#183;8H_2_O
##LOCALITY=near Tonopah, Nevada, USA
##OWNER=RRUFF
##SOURCE=California Institute of Technology
##DESCRIPTION=Dark green micaceous fragment
##STATUS=The identification of this mineral has been confirmed by X-ray diffraction and chemical analysis
##URL=rruff.info/R050490
##MEASURED CHEMISTRY=(Mg_2.26_Fe^3+^_0.25_Al_0.25_Ca_0.24_)_Σ=3_(Si_3.50_Al_0.50_)_Σ=4_O_10_((OH)_1.90_F_0.10_)_Σ=2_·4H_2_O
90.52570, 0.0000000E+00
91.00781, 17.65447
91.48993, 17.48631
91.97205, 17.41961
92.45416, 17.48931
92.93628, 17.65833
93.41840, 17.85550
93.90051, 18.08303
94.38263, 18.31009
94.86475, 18.18986
95.34686, 17.73244
95.82898, 17.90373
96.31110, 19.84418
96.79321, 23.38531
97.27533, 26.72877
97.75745, 29.52857
98.23956, 31.78992
98.72168, 33.33162
99.20380, 34.05510
99.68591, 34.32254
100.1680, 34.37632
100.6501, 34.11762
101.1323, 34.12620
101.6144, 34.57894
102.0965, 35.49322
102.5786, 36.50776
103.0607, 37.20507
103.5428, 38.37254
104.0250, 41.67051
104.5071, 48.61764
104.9892, 55.09944
105.4713, 59.58111
105.9534, 61.64511
106.4355, 62.50252
106.9177, 60.82612
107.3998, 57.88099
107.8819, 57.62737
108.3640, 61.14816
108.8461, 66.48979
109.3282, 72.85445
109.8104, 79.37330
110.2925, 87.73781
110.7746, 99.80576
111.2567, 114.7568
111.7388, 126.6466
112.2209, 131.8271
112.7031, 135.2451
113.1852, 140.3782
113.6673, 149.7803
114.1494, 159.0795
114.6315, 167.0706
115.1136, 173.7468
115.5958, 180.2908
116.0779, 186.9500
116.5600, 193.7188
117.0421, 200.5617
117.5242, 206.9947
118.0063, 213.9245
118.4885, 221.9734
118.9706, 231.2899
119.4527, 241.1953
119.9348, 251.4044
120.4169, 261.8957
120.8990, 272.8046
121.3812, 283.9551
121.8633, 295.6131
122.3454, 308.0845
122.8275, 321.8487
123.3096, 335.5475
123.7917, 347.8831
124.2739, 359.1017
124.7560, 370.1067
125.2381, 381.4674
125.7202, 393.0482
126.2023, 404.4284
126.6844, 415.5401
127.1666, 426.5318
127.6487, 437.8148
128.1308, 449.3926
128.6129, 460.4768
129.0950, 470.5470
129.5771, 479.7033
130.0593, 488.3043
130.5414, 496.1667
131.0235, 503.5775
131.5056, 510.8118
131.9877, 515.9943
132.4698, 518.5824
132.9520, 520.3536
133.4341, 521.3856
133.9162, 522.9838
134.3983, 525.5345
134.8804, 528.9850
135.3625, 533.2614
135.8447, 538.5471
136.3268, 544.2420
136.8089, 549.4677
137.2910, 554.0990
137.7731, 559.1679
138.2552, 565.3963
138.7374, 572.9788
139.2195, 579.7995
139.7016, 585.8365
140.1837, 591.2354
140.6658, 596.0623
141.1479, 600.0553
141.6301, 604.1388
142.1122, 608.9340
142.5943, 615.0970
143.0764, 620.1419
143.5585, 623.6679
144.0406, 626.0991
144.5228, 629.1303
145.0049, 633.2625
145.4870, 637.3307
145.9691, 640.6418
146.4512, 642.8582
146.9333, 644.9617
147.4155, 646.9709
147.8976, 648.9261
148.3797, 650.9698
148.8618, 653.3350
149.3439, 655.6551
149.8260, 657.6902
150.3082, 658.8798
150.7903, 660.4209
151.2724, 662.5241
151.7545, 665.1860
152.2366, 667.8630
152.7188, 670.4100
153.2009, 673.0055
153.6830, 675.7629
154.1651, 679.6482
154.6472, 682.7542
155.1293, 684.2086
155.6115, 683.7435
156.0936, 683.8583
156.5757, 685.4636
157.0578, 687.6974
157.5399, 689.5997
158.0220, 690.5062
158.5042, 691.4649
158.9863, 692.9367
159.4684, 695.0916
159.9505, 697.1771
160.4326, 698.7025
160.9147, 700.0656
161.3969, 701.8520
161.8790, 704.8411
162.3611, 707.8992
162.8432, 710.4684
163.3253, 712.4443
163.8074, 713.9339
164.2896, 714.4193
164.7717, 714.4296
165.2538, 715.0308
165.7359, 717.1686
166.2180, 719.7838
166.7001, 722.0071
167.1823, 723.3757
167.6644, 724.9387
168.1465, 727.7237
168.6286, 731.2943
169.1107, 734.4332
169.5928, 736.0417
170.0750, 737.0549
170.5571, 738.4936
171.0392, 740.7347
171.5213, 743.1854
172.0034, 745.4523
172.4855, 747.5511
172.9677, 749.4714
173.4498, 751.0539
173.9319, 752.5204
174.4140, 754.1788
174.8961, 756.1320
175.3782, 758.2900
175.8604, 760.7972
176.3425, 763.6016
176.8246, 766.1631
177.3067, 767.7361
177.7888, 768.8174
178.2709, 770.4515
178.7531, 773.4568
179.2352, 776.7914
179.7173, 778.9171
180.1994, 779.8723
180.6815, 780.2390
181.1636, 780.2902
181.6458, 780.1212
182.1279, 779.9955
182.6100, 779.8380
183.0921, 779.8450
183.5742, 780.6832
184.0563, 782.3846
184.5385, 783.9720
185.0206, 784.1575
185.5027, 783.2333
185.9848, 782.6271
186.4669, 783.1500
186.9490, 784.3138
187.4312, 784.5825
187.9133, 783.8613
188.3954, 782.8220
188.8775, 782.2765
189.3596, 782.1678
189.8417, 781.9382
190.3239, 781.4940
190.8060, 780.7862
191.2881, 779.3755
191.7702, 777.1172
192.2523, 774.8111
192.7344, 773.7443
193.2166, 773.9259
193.6987, 773.7224
194.1808, 772.3038
194.6629, 769.7914
195.1450, 767.5640
195.6271, 765.7188
196.1093, 763.9128
196.5914, 761.4160
197.0735, 758.1305
197.5556, 755.3138
198.0377, 753.8369
198.5198, 753.6967
199.0020, 752.6322
199.4841, 750.4099
199.9662, 747.6506
200.4483, 745.2927
200.9304, 743.3734
201.4125, 741.5944
201.8947, 739.9756
202.3768, 738.5730
202.8589, 736.5527
203.3410, 733.7546
203.8231, 730.5399
204.3052, 727.6053
204.7874, 724.9753
205.2695, 722.4730
205.7516, 719.8625
206.2337, 716.9993
206.7158, 715.1489
207.1979, 714.6730
207.6801, 714.8730
208.1622, 714.3634
208.6443, 713.0807
209.1264, 711.2994
209.6085, 708.9380
210.0906, 705.7208
210.5728, 703.1985
211.0549, 701.5233
211.5370, 700.4780
212.0191, 699.7020
212.5012, 699.3377
212.9833, 698.8932
213.4655, 698.0785
213.9476, 696.7195
214.4297, 695.6467
214.9118, 694.9080
215.3939, 694.4550
215.8760, 694.1341
216.3581, 693.9024
216.8403, 693.8914
217.3224, 694.2830
217.8045, 695.4007
218.2866, 695.8488
218.7687, 695.3054
219.2508, 694.1648
219.7330, 693.5648
220.2151, 693.7973
220.6972, 693.9918
221.1793, 693.5908
221.6614, 692.0407
222.1435, 691.4092
222.6257, 692.1410
223.1078, 693.6776
223.5899, 694.4781
224.0720, 694.2874
224.5541, 693.7807
225.0362, 693.2213
225.5184, 692.5256
226.0005, 692.0479
226.4826, 691.9200
226.9647, 692.0000
227.4468, 691.8316
227.9289, 691.2041
228.4111, 690.6885
228.8932, 690.5629
229.3753, 690.9648
229.8574, 691.5060
230.3395, 692.4503
230.8216, 693.4711
231.3038, 693.5294
231.7859, 691.7845
232.2680, 690.3043
232.7501, 690.1337
233.2322, 692.1271
233.7143, 693.4483
234.1965, 693.7443
234.6786, 693.4276
235.1607, 693.6979
235.6428, 694.9290
236.1249, 696.1804
236.6070, 696.9999
237.0892, 697.0736
237.5713, 697.4244
238.0534, 698.3627
238.5355, 699.4879
239.0176, 699.6854
239.4997, 698.2679
239.9819, 696.9068
240.4640, 696.3690
240.9461, 697.0856
241.4282, 697.5732
241.9103, 697.6154
242.3924, 697.5030
242.8746, 698.0385
243.3567, 699.9161
243.8388, 701.3993
244.3209, 701.6336
244.8030, 699.8382
245.2851, 698.9335
245.7673, 699.2682
246.2494, 700.3619
246.7315, 701.1946
247.2136, 701.7101
247.6957, 702.0609
248.1778, 702.2477
248.6600, 702.1155
249.1421, 702.2972
249.6242, 702.8445
250.1063, 703.6749
250.5884, 704.6122
251.0705, 705.5536
251.5527, 706.7773
252.0348, 708.4708
252.5169, 710.9006
252.9990, 712.8549
253.4811, 714.2338
253.9632, 715.2139
254.4454, 716.0060
254.9275, 716.3217
255.4096, 717.0091
255.8917, 718.5566
256.3738, 721.3358
256.8560, 723.1367
257.3381, 723.5280
257.8202, 723.3217
258.3023, 723.7620
258.7844, 725.0224
259.2665, 726.5596
259.7487, 728.3384
260.2308, 730.4533
260.7129, 732.0405
261.1950, 732.8723
261.6771, 733.4164
262.1592, 734.3214
262.6414, 735.7117
263.1235, 737.1238
263.6056, 738.4127
264.0877, 739.5809
264.5698, 740.7438
265.0519, 741.8489
265.5341, 743.0161
266.0162, 744.4506
266.4983, 746.2616
266.9804, 747.9769
267.4625, 749.4844
267.9446, 750.7753
268.4268, 752.1201
268.9089, 753.6459
269.3910, 754.9567
269.8731, 755.4000
270.3552, 754.5712
270.8373, 754.5776
271.3195, 756.3375
271.8016, 759.5490
272.2837, 760.8978
272.7658, 759.7894
273.2479, 758.1747
273.7300, 757.9983
274.2122, 759.5536
274.6943, 760.7090
275.1764, 760.9407
275.6585, 760.4434
276.1406, 760.2347
276.6227, 760.3831
277.1049, 760.6196
277.5870, 760.8547
278.0691, 761.1351
278.5512, 760.8349
279.0333, 759.5897
279.5154, 757.8336
279.9976, 757.1675
280.4797, 757.7753
280.9618, 758.5120
281.4439, 758.6203
281.9260, 758.0904
282.4081, 757.2203
282.8903, 755.9293
283.3724, 754.4377
283.8545, 753.2648
284.3366, 752.4218
284.8187, 751.7609
285.3008, 751.3884
285.7830, 751.2411
286.2651, 750.5113
286.7472, 748.9528
287.2293, 747.1080
287.7114, 745.9651
288.1935, 745.5174
288.6757, 745.3115
289.1578, 745.1097
289.6399, 744.9318
290.1220, 744.9316
290.6041, 745.1473
291.0862, 745.4288
291.5684, 745.6534
292.0505, 745.8005
292.5326, 745.6932
293.0147, 745.0676
293.4968, 744.1173
293.9789, 743.4258
294.4611, 743.0427
294.9432, 742.7715
295.4253, 742.4465
295.9074, 742.0627
296.3895, 741.5932
296.8716, 740.8513
297.3538, 740.0583
297.8359, 739.7672
298.3180, 739.9994
298.8001, 740.2336
299.2822, 739.8772
299.7643, 739.1263
300.2465, 738.4798
300.7286, 737.8934
301.2107, 737.6525
301.6928, 738.4352
302.1749, 740.1677
302.6570, 741.8119
303.1392, 742.4807
303.6213, 742.5047
304.1034, 742.4182
304.5855, 742.3073
305.0676, 742.2335
305.5497, 742.2661
306.0319, 742.3942
306.5140, 742.5596
306.9961, 742.4668
307.4782, 742.4762
307.9603, 743.0778
308.4424, 744.5904
308.9246, 746.3038
309.4067, 747.7439
309.8888, 748.9380
310.3709, 750.0032
310.8530, 750.8932
311.3351, 751.7206
311.8173, 752.6906
312.2994, 754.0420
312.7815, 754.9240
313.2636, 754.1453
313.7457, 752.6005
314.2278, 751.8965
314.7100, 753.4268
315.1921, 755.5163
315.6742, 757.2183
316.1563, 758.4055
316.6384, 759.4176
317.1205, 760.1625
317.6027, 760.8666
318.0848, 761.8115
318.5669, 763.4446
319.0490, 765.0120
319.5311, 766.1882
320.0132, 766.9427
320.4954, 767.6052
320.9775, 767.9879
321.4596, 768.4376
321.9417, 769.2455
322.4238, 771.0287
322.9059, 772.5893
323.3881, 773.2899
323.8702, 773.2552
324.3523, 774.0688
324.8344, 777.1100
325.3165, 780.3136
325.7986, 782.4887
326.2808, 782.2672
326.7629, 782.5323
327.2450, 783.5810
327.7271, 785.2877
328.2092, 787.1517
328.6913, 789.3934
329.1735, 791.5924
329.6556, 793.5917
330.1377, 795.1506
330.6198, 796.9769
331.1019, 799.4240
331.5840, 802.0143
332.0662, 803.8113
332.5483, 803.9772
333.0304, 804.5463
333.5125, 806.2566
333.9946, 809.3976
334.4767, 812.1498
334.9589, 814.2069
335.4410, 816.1328
335.9231, 818.7220
336.4052, 822.2810
336.8873, 825.6475
337.3694, 828.4993
337.8515, 830.8576
338.3336, 833.1461
338.8158, 835.2979
339.2979, 837.5683
339.7800, 840.2883
340.2621, 843.5110
340.7442, 846.7676
341.2263, 849.9606
341.7085, 853.1085
342.1906, 855.9206
342.6727, 858.3065
343.1548, 861.0821
343.6369, 865.2151
344.1190, 870.5477
344.6012, 875.0731
345.0833, 878.3886
345.5654, 881.0871
346.0475, 884.1774
346.5296, 887.6171
347.0117, 891.0837
347.4939, 894.5293
347.9760, 897.8292
348.4581, 900.5196
348.9402, 902.4766
349.4223, 904.3372
349.9044, 907.1023
350.3866, 910.4733
350.8687, 913.4552
351.3508, 915.5362
351.8329, 917.0629
352.3150, 918.5637
352.7971, 920.0419
353.2793, 921.3749
353.7614, 922.6643
354.2435, 923.7336
354.7256, 924.3116
355.2077, 924.3260
355.6898, 923.8116
356.1720, 922.6564
356.6541, 920.9362
357.1362, 919.0110
357.6183, 916.8924
358.1004, 914.7455
358.5826, 912.7371
359.0647, 910.9539
359.5468, 909.1633
360.0289, 907.5551
360.5110, 905.8326
360.9931, 903.4202
361.4753, 899.8237
361.9574, 895.7284
362.4395, 891.2601
362.9216, 886.2920
363.4037, 881.8975
363.8858, 879.1287
364.3680, 876.8182
364.8501, 873.7234
365.3322, 868.4196
365.8143, 863.5647
366.2964, 860.1480
366.7785, 858.1292
367.2607, 855.5290
367.7428, 851.4316
368.2249, 847.1777
368.7070, 843.5651
369.1891, 840.9075
369.6712, 838.5266
370.1534, 836.4445
370.6355, 834.6044
371.1176, 832.8568
371.5997, 831.3024
372.0818, 829.6644
372.5639, 827.7352
373.0461, 825.2507
373.5282, 823.2402
374.0103, 821.7228
374.4924, 820.5897
374.9745, 819.7631
375.4566, 819.3505
375.9388, 818.9128
376.4209, 818.4711
376.9030, 817.9827
377.3851, 816.6071
377.8672, 814.1019
378.3493, 811.4977
378.8315, 809.7861
379.3136, 808.9763
379.7957, 808.6221
380.2778, 808.8527
380.7599, 809.2938
381.2420, 808.9045
381.7242, 807.6917
382.2063, 806.4069
382.6884, 805.4750
383.1705, 804.8488
383.6526, 804.4714
384.1347, 804.3661
384.6169, 804.3119
385.0990, 803.9363
385.5811, 803.3478
386.0632, 802.9446
386.5453, 803.4006
387.0274, 803.9220
387.5096, 803.0781
387.9917, 800.8835
388.4738, 799.0394
388.9559, 799.4703
389.4380, 800.9196
389.9201, 801.7264
390.4023, 801.1349
390.8844, 800.0324
391.3665, 798.5729
391.8486, 796.9714
392.3307, 796.0609
392.8128, 796.7701
393.2950, 797.9473
393.7771, 798.8972
394.2592, 799.6074
394.7413, 799.7804
395.2234, 798.8140
395.7055, 797.3289
396.1877, 796.2901
396.6698, 796.1060
397.1519, 796.2058
397.6340, 796.6096
398.1161, 797.4092
398.5982, 797.6542
399.0804, 796.5620
399.5625, 795.3522
400.0446, 794.9474
400.5267, 796.4249
401.0088, 797.1561
401.4909, 796.5959
401.9731, 795.1163
402.4552, 794.1775
402.9373, 793.8832
403.4194, 793.9737
403.9015, 794.4066
404.3836, 795.3173
404.8658, 795.9623
405.3479, 796.1702
405.8300, 796.3143
406.3121, 797.1163
406.7942, 798.7136
407.2763, 799.8939
407.7585, 800.0795
408.2406, 799.4866
408.7227, 799.2908
409.2048, 799.4775
409.6869, 800.0834
410.1690, 801.3683
410.6512, 803.1701
411.1333, 804.7668
411.6154, 806.0128
412.0975, 807.0257
412.5796, 808.0570
413.0617, 809.0598
413.5439, 809.8098
414.0260, 809.9427
414.5081, 809.8533
414.9902, 810.1688
415.4723, 810.9799
415.9544, 811.7805
416.4366, 811.8522
416.9187, 811.7126
417.4008, 812.1316
417.8829, 814.1227
418.3650, 816.1348
418.8471, 816.9373
419.3293, 816.7845
419.8114, 817.2640
420.2935, 820.0472
420.7756, 823.0588
421.2577, 824.7371
421.7398, 823.9797
422.2220, 823.6176
422.7041, 824.5764
423.1862, 826.2787
423.6683, 827.6810
424.1504, 828.3431
424.6325, 829.0294
425.1147, 830.0078
425.5968, 831.3610
426.0789, 832.3665
426.5610, 832.6933
427.0431, 832.9743
427.5252, 833.7446
428.0074, 835.2387
428.4895, 836.6780
428.9716, 838.0057
429.4537, 839.1851
429.9358, 840.1800
430.4179, 841.1032
430.9001, 841.4219
431.3822, 840.5284
431.8643, 838.3929
432.3464, 837.1224
432.8285, 836.8582
433.3106, 837.0204
433.7928, 836.9196
434.2749, 836.5881
434.7570, 836.3035
435.2391, 836.1988
435.7212, 836.1600
436.2033, 835.9260
436.6855, 835.5231
437.1676, 835.1544
437.6497, 835.3564
438.1318, 835.5795
438.6139, 834.8631
439.0960, 832.8781
439.5782, 830.6060
440.0603, 828.6675
440.5424, 827.0213
441.0245, 825.6182
441.5066, 824.2736
441.9887, 823.2740
442.4709, 823.0072
442.9530, 823.4376
443.4351, 823.6055
443.9172, 823.3436
444.3993, 822.5490
444.8814, 821.1151
445.3636, 818.0844
445.8457, 815.6557
446.3278, 814.4642
446.8099, 814.0916
447.2920, 813.4759
447.7741, 812.7176
448.2563, 811.5648
448.7384, 809.7509
449.2205, 807.0650
449.7026, 805.4094
450.1847, 805.4245
450.6668, 805.7076
451.1490, 804.7875
451.6311, 802.1741
452.1132, 800.3210
452.5953, 799.7350
453.0774, 800.0127
453.5595, 800.0829
454.0417, 799.9318
454.5238, 799.6700
455.0059, 799.4509
455.4880, 799.1940
455.9701, 798.2918
456.4522, 796.6135
456.9344, 795.0372
457.4165, 794.6381
457.8986, 795.1097
458.3807, 795.6160
458.8628, 795.8839
459.3449, 796.0764
459.8271, 796.5427
460.3092, 797.1604
460.7913, 797.4144
461.2734, 796.4954
461.7555, 795.3937
462.2376, 795.0089
462.7198, 795.6011
463.2019, 796.2844
463.6840, 796.8916
464.1661, 797.2678
464.6482, 797.2248
465.1303, 796.1288
465.6125, 795.2001
466.0946, 794.8287
466.5767, 794.9561
467.0588, 795.0508
467.5409, 795.2706
468.0230, 795.2802
468.5052, 794.8770
468.9873, 793.7514
469.4694, 793.0214
469.9515, 792.8561
470.4336, 792.9545
470.9157, 792.8981
471.3979, 792.6631
471.8800, 792.3934
472.3621, 792.1464
472.8442, 791.9011
473.3263, 791.4989
473.8084, 790.9207
474.2906, 790.3231
474.7727, 789.6558
475.2548, 789.0100
475.7369, 788.9640
476.2190, 789.6854
476.7011, 790.5414
477.1833, 790.5377
477.6654, 790.0283
478.1475, 789.9979
478.6296, 791.4903
479.1117, 793.2205
479.5938, 793.6122
480.0760, 792.8854
480.5581, 792.4906
481.0402, 793.8228
481.5223, 795.4984
482.0044, 796.3056
482.4865, 795.6451
482.9687, 795.1486
483.4508, 795.5306
483.9329, 796.3666
484.4150, 797.0442
484.8971, 797.4763
485.3792, 797.7178
485.8614, 797.6234
486.3435, 797.2354
486.8256, 797.1600
487.3077, 797.0807
487.7898, 797.6808
488.2719, 799.6168
488.7541, 803.6904
489.2362, 806.3685
489.7183, 807.4077
490.2004, 807.3438
490.6825, 806.6693
491.1646, 805.2595
491.6468, 804.4859
492.1289, 804.8478
492.6110, 806.0687
493.0931, 807.5289
493.5752, 809.2284
494.0573, 810.7963
494.5395, 811.8904
495.0216, 812.6815
495.5037, 813.5967
495.9858, 814.7050
496.4679, 815.7286
496.9500, 816.2448
497.4322, 816.5247
497.9143, 817.0077
498.3964, 818.0724
498.8785, 819.2145
499.3606, 820.2137
499.8427, 821.0760
500.3249, 821.7549
500.8070, 821.6057
501.2891, 821.7763
501.7712, 823.0506
502.2533, 826.1434
502.7354, 828.5016
503.2176, 829.5075
503.6997, 829.8918
504.1818, 830.3159
504.6639, 830.4755
505.1460, 831.2330
505.6281, 832.8251
506.1103, 835.0775
506.5924, 837.3879
507.0745, 839.8664
507.5566, 841.9747
508.0387, 843.1091
508.5208, 843.3553
509.0030, 844.6787
509.4851, 847.2210
509.9672, 850.0490
510.4493, 852.2534
510.9314, 853.9406
511.4135, 855.4289
511.8957, 856.7055
512.3778, 857.9863
512.8599, 859.4940
513.3420, 861.2176
513.8242, 863.0932
514.3063, 865.2797
514.7884, 867.5177
515.2705, 869.5459
515.7526, 871.3389
516.2347, 873.2462
516.7169, 875.3821
517.1990, 877.6859
517.6811, 880.1057
518.1632, 882.5475
518.6453, 885.1915
519.1274, 888.0084
519.6096, 891.0433
520.0917, 894.3928
520.5738, 898.3578
521.0559, 902.0779
521.5380, 905.1697
522.0201, 907.7010
522.5023, 910.9621
522.9844, 915.2070
523.4665, 919.5215
523.9486, 923.2429
524.4307, 926.4144
524.9128, 929.4286
525.3950, 932.2134
525.8771, 935.1115
526.3592, 938.6960
526.8413, 942.7756
527.3234, 946.8163
527.8055, 950.6981
528.2877, 954.2926
528.7698, 957.7203
529.2519, 960.8191
529.7340, 963.0534
530.2161, 962.9933
530.6982, 962.7080
531.1804, 964.0757
531.6625, 967.6744
532.1446, 970.6289
532.6267, 971.1246
533.1088, 970.9748
533.5909, 971.8431
534.0731, 975.1262
534.5552, 978.0197
535.0373, 980.3928
535.5194, 982.2447
536.0015, 983.6541
536.4836, 984.5243
536.9658, 985.1019
537.4479, 985.3486
537.9300, 985.2814
538.4121, 985.5694
538.8942, 986.2925
539.3763, 986.9716
539.8585, 987.0202
540.3406, 986.5897
540.8227, 986.6881
541.3048, 987.5625
541.7869, 988.5302
542.2690, 988.6757
542.7512, 988.2438
543.2333, 987.8546
543.7154, 987.9728
544.1975, 988.0687
544.6796, 987.7872
545.1617, 987.1349
545.6439, 986.1384
546.1260, 983.9955
546.6081, 982.1415
547.0902, 981.8007
547.5723, 983.7872
548.0544, 984.4036
548.5366, 982.1834
549.0187, 978.9113
549.5008, 976.1572
549.9829, 974.2835
550.4650, 972.2941
550.9471, 970.1555
551.4293, 967.8393
551.9114, 965.0765
552.3935, 961.7000
552.8756, 958.7148
553.3577, 956.6356
553.8398, 955.2603
554.3220, 953.6464
554.8041, 951.7800
555.2862, 949.9142
555.7683, 948.1918
556.2504, 946.6068
556.7325, 945.2953
557.2147, 944.4175
557.6968, 943.0145
558.1789, 939.6993
558.6610, 935.4639
559.1431, 931.8083
559.6252, 929.4027
560.1074, 927.5306
560.5895, 926.4993
561.0716, 925.8741
561.5537, 924.2496
562.0358, 920.2228
562.5179, 916.2079
563.0001, 913.1926
563.4822, 911.3317
563.9643, 908.9335
564.4464, 905.7146
564.9285, 902.3614
565.4106, 899.2990
565.8928, 896.5119
566.3749, 894.1674
566.8570, 892.3964
567.3391, 890.7657
567.8212, 888.5102
568.3033, 885.7064
568.7855, 883.0999
569.2676, 881.1523
569.7497, 879.2929
570.2318, 876.3772
570.7139, 872.6927
571.1960, 869.2605
571.6782, 866.8937
572.1603, 864.9220
572.6424, 862.9700
573.1245, 861.0052
573.6066, 858.7026
574.0887, 855.5833
574.5709, 852.2683
575.0530, 849.2070
575.5351, 846.2989
576.0172, 843.8506
576.4993, 841.9621
576.9814, 840.4865
577.4636, 839.2620
577.9457, 838.3997
578.4278, 837.5148
578.9099, 836.5789
579.3920, 835.5509
579.8741, 834.1266
580.3563, 832.2653
580.8384, 830.6145
581.3205, 829.7975
581.8026, 829.4655
582.2847, 828.6024
582.7668, 827.1637
583.2490, 825.6437
583.7311, 824.4070
584.2131, 823.3589
