##NAMES=Verplanckite
##RRUFFID=R050265
##IDEAL CHEMISTRY=Ba_4_Mn^2+^_2_Si_4_O_12_(OH,H_2_O)_3_Cl_3_
##LOCALITY=Big Creek, Fresno County, California, USA
##OWNER=RRUFF
##SOURCE=Marcus Origlieri
##DESCRIPTION=Brownish orange disseminated grains
##STATUS=The identification of this mineral is confirmed by single-crystal X-ray diffraction and chemical analysis.
##URL=rruff.info/R050265
##MEASURED CHEMISTRY=(Ba_3.93_Na_0.06_Ca_0.01_)_Σ=4_(Mn^2+^_1.27_Fe_0.39_Ti_0.27_Mg_0.07_)_Σ=2_(Si_3.95_Al_0.05_)_Σ=4_O_12_((H_2_O)_1.57_(OH)_1.43_)_Σ=3_(Cl_2.17_(OH)_0.83_)_Σ=3_; (OH) estimated by charge balance; H_2_O by difference
285.626, 29480.000
286.993, 28940.000
288.361, 29280.000
289.728, 29070.000
291.095, 29230.000
292.462, 29370.000
293.828, 28990.000
295.195, 29260.000
296.561, 28960.000
297.927, 29150.000
299.292, 29180.000
300.658, 28960.000
302.023, 29100.000
303.388, 28810.000
304.753, 29490.000
306.117, 28850.000
307.481, 29160.000
308.846, 29390.000
310.209, 28690.000
311.573, 29310.000
312.936, 28780.000
314.300, 29270.000
315.663, 29050.000
317.025, 29120.000
318.388, 29330.000
319.750, 28950.000
321.112, 29550.000
322.474, 29130.000
323.836, 29400.000
325.197, 29370.000
326.558, 29350.000
327.919, 29780.000
329.280, 29460.000
330.640, 29770.000
332.001, 29560.000
333.361, 29730.000
334.721, 29900.000
336.080, 29540.000
337.440, 29850.000
338.799, 29640.000
340.158, 30070.000
341.517, 29800.000
342.875, 29660.000
344.233, 30050.000
345.591, 29580.000
346.949, 30020.000
348.307, 29800.000
349.664, 30200.000
351.022, 30720.000
352.379, 29880.000
353.735, 30480.000
355.092, 29910.000
356.448, 30330.000
357.804, 30310.000
359.160, 30240.000
360.516, 30680.000
361.871, 30040.000
363.226, 30460.000
364.581, 30340.000
365.936, 30250.000
367.291, 30770.000
368.645, 30420.000
369.999, 30920.000
371.353, 30500.000
372.707, 30860.000
374.060, 30880.000
375.413, 30430.000
376.766, 30940.000
378.119, 30410.000
379.472, 30900.000
380.824, 30880.000
382.176, 30810.000
383.528, 31330.000
384.880, 30640.000
386.231, 31090.000
387.582, 31050.000
388.933, 30920.000
390.284, 31390.000
391.635, 31010.000
392.985, 31630.000
394.335, 31310.000
395.685, 31560.000
397.035, 31590.000
398.384, 31470.000
399.733, 31940.000
401.083, 31270.000
402.431, 32220.000
403.780, 31680.000
405.128, 31860.000
406.476, 32590.000
407.824, 32170.000
409.172, 33120.000
410.520, 32740.000
411.867, 33170.000
413.214, 33880.000
414.561, 33520.000
415.907, 34390.000
417.254, 33900.000
418.600, 34230.000
419.946, 34080.000
421.292, 33730.000
422.637, 34220.000
423.983, 33510.000
425.328, 34180.000
426.673, 33800.000
428.017, 33490.000
429.362, 34040.000
430.706, 33490.000
432.050, 33880.000
433.394, 33410.000
434.737, 33880.000
436.081, 33810.000
437.424, 33770.000
438.767, 34220.000
440.109, 33640.000
441.452, 34660.000
442.794, 34200.000
444.136, 34510.000
445.478, 35250.000
446.820, 34820.000
448.161, 35460.000
449.502, 35540.000
450.843, 36160.000
452.184, 36620.000
453.524, 36940.000
454.865, 37980.000
456.205, 38340.000
457.545, 39790.000
458.884, 40500.000
460.224, 40830.000
461.563, 42640.000
462.902, 41640.000
464.241, 42360.000
465.579, 40960.000
466.918, 39920.000
468.256, 39610.000
469.594, 38040.000
470.931, 37640.000
472.269, 37350.000
473.606, 36990.000
474.943, 36699.750
476.280, 36479.992
477.617, 36160.000
478.953, 36100.000
480.289, 35890.000
481.625, 35740.000
482.961, 35720.000
484.297, 35990.000
485.632, 35560.000
486.967, 35840.000
488.302, 35670.000
489.637, 35510.000
490.971, 36140.000
492.305, 35170.000
493.639, 36190.000
494.973, 35810.000
496.307, 35910.000
497.640, 36170.000
498.973, 35970.000
500.306, 36880.000
501.639, 36770.000
502.971, 36380.000
504.304, 37690.000
505.636, 36390.000
506.968, 37890.000
508.299, 37540.000
509.631, 38130.000
510.962, 37810.000
512.293, 38180.000
513.624, 38810.000
514.954, 38430.000
516.285, 39210.000
517.615, 39160.000
518.945, 38930.000
520.275, 39280.000
521.604, 39020.000
522.933, 39670.000
524.262, 39270.000
525.591, 39190.000
526.920, 39400.000
528.248, 38440.000
529.577, 38720.000
530.905, 38750.000
532.232, 38340.000
533.560, 38500.000
534.887, 37790.000
536.214, 38120.000
537.541, 37620.000
538.868, 37300.000
540.195, 37980.000
541.521, 37150.000
542.847, 37610.000
544.173, 37320.000
545.498, 37370.000
546.824, 37730.000
548.149, 37936.250
549.474, 38339.949
550.799, 38590.000
552.124, 38900.000
553.448, 38670.000
554.772, 38140.000
556.096, 39100.000
557.420, 38360.000
558.743, 39360.000
560.067, 39640.000
561.390, 39060.000
562.712, 39910.000
564.035, 39420.000
565.358, 39890.000
566.680, 40870.000
568.002, 39940.000
569.324, 40620.000
570.645, 40640.000
571.967, 41450.000
573.288, 41290.000
574.609, 42040.000
575.929, 43540.000
577.250, 42960.000
578.570, 44600.000
579.890, 45010.000
581.210, 45770.000
582.530, 44660.000
583.850, 43430.000
585.169, 42980.000
586.488, 41090.000
587.807, 40280.000
589.125, 39270.000
590.444, 38290.000
591.762, 38860.000
593.080, 37670.000
594.398, 38030.000
595.715, 38370.000
597.033, 37480.000
598.350, 37680.000
599.667, 37700.000
600.983, 37260.000
602.300, 37420.000
603.616, 37020.000
604.932, 37710.000
606.248, 37210.000
607.564, 37450.000
608.879, 37470.000
610.194, 37720.000
611.509, 37900.000
612.824, 37380.000
614.139, 37750.000
615.453, 37700.000
616.767, 37590.000
618.081, 38110.000
619.395, 37630.000
620.709, 37600.000
622.022, 38040.000
623.335, 37770.000
624.648, 38350.000
625.961, 37610.000
627.273, 38420.000
628.586, 38230.000
629.898, 37740.000
631.209, 38760.000
632.521, 38220.000
633.833, 38670.000
635.144, 38960.000
636.455, 38640.000
637.766, 39190.000
639.076, 38480.000
640.387, 39000.000
641.697, 38880.000
643.007, 39000.000
644.316, 39250.000
645.626, 38700.000
646.935, 39630.000
648.244, 39450.000
649.553, 39060.000
650.862, 39970.000
652.171, 39170.000
653.479, 39860.000
654.787, 39540.000
656.095, 39220.000
657.403, 40210.000
658.710, 39580.000
660.017, 39890.000
661.324, 40380.000
662.631, 39880.000
663.938, 40500.000
665.244, 39820.000
666.550, 40110.000
667.856, 40190.000
669.162, 39850.000
670.468, 40200.000
671.773, 40110.000
673.078, 40110.000
674.383, 40430.000
675.688, 40140.000
676.992, 40540.000
678.297, 40080.000
679.601, 40840.000
680.905, 40330.000
682.208, 40190.000
683.512, 41010.000
684.815, 40250.000
686.118, 41100.000
687.421, 41070.000
688.724, 40540.000
690.026, 41640.000
691.328, 40950.000
692.630, 42090.000
693.932, 41620.000
695.234, 41700.000
696.535, 41800.000
697.836, 41390.000
699.137, 42230.000
700.438, 42460.000
701.739, 41970.000
703.039, 43060.000
704.339, 41730.000
705.639, 42560.000
706.939, 42290.000
708.238, 41830.000
709.538, 42960.000
710.837, 42000.000
712.136, 43030.000
713.434, 41980.000
714.733, 41840.000
716.031, 43360.000
717.329, 41940.000
718.627, 41950.000
719.925, 42630.000
721.222, 41930.000
722.519, 42660.000
723.816, 42280.000
725.113, 42320.000
726.410, 42290.000
727.706, 42150.000
729.003, 43350.000
730.299, 42230.000
731.594, 42870.000
732.890, 42760.000
734.185, 42280.000
735.480, 43080.000
736.775, 42850.000
738.070, 42520.000
739.365, 42920.000
740.659, 42720.000
741.953, 43400.000
743.247, 42790.000
744.541, 43110.000
745.834, 43670.000
747.128, 42670.000
748.421, 43250.000
749.714, 43230.000
751.006, 43490.000
752.299, 43900.000
753.591, 43824.477
754.883, 43960.000
756.175, 43860.000
757.467, 43870.000
758.758, 43830.000
760.050, 44030.000
761.341, 44000.000
762.632, 44030.000
763.922, 44460.000
765.213, 44140.000
766.503, 43740.000
767.793, 44630.000
769.083, 44140.000
770.372, 44580.000
771.662, 44910.000
772.951, 44070.000
774.240, 44420.000
775.529, 44190.000
776.817, 44110.000
778.106, 44860.000
779.394, 44450.000
780.682, 44850.000
781.970, 44260.000
783.257, 44780.000
784.545, 45170.000
785.832, 44660.000
787.119, 45260.000
788.405, 45030.000
789.692, 44650.000
790.978, 45270.000
792.264, 45150.000
793.550, 45360.000
794.836, 45110.000
796.122, 45040.000
797.407, 46190.000
798.692, 45100.000
799.977, 46090.000
801.262, 46260.000
802.546, 46070.000
803.830, 46250.000
805.115, 45860.000
806.398, 46380.000
807.682, 46720.000
808.966, 45960.000
810.249, 46990.000
811.532, 46440.000
812.815, 46770.000
814.097, 47300.000
815.380, 46400.000
816.662, 47380.000
817.944, 47110.000
819.226, 46500.000
820.508, 47990.000
821.789, 46840.000
823.070, 47440.000
824.351, 47290.000
825.632, 46560.000
826.913, 47660.000
828.193, 47170.000
829.474, 47380.000
830.754, 47620.000
832.033, 47410.000
833.313, 47770.000
834.592, 47230.000
835.872, 47680.000
837.151, 47840.000
838.429, 47200.000
839.708, 47670.000
840.986, 48050.000
842.265, 47430.000
843.543, 48400.000
844.820, 46910.000
846.098, 49110.000
847.375, 47610.000
848.653, 48130.000
849.930, 48620.000
851.206, 47960.000
852.483, 48830.000
853.759, 48290.000
855.035, 48630.000
856.311, 49000.000
857.587, 48440.000
858.863, 48800.000
860.138, 48710.000
861.413, 47750.000
862.688, 49120.000
863.963, 48050.000
865.238, 49000.000
866.512, 48690.000
867.786, 47810.000
869.060, 48830.000
870.334, 48450.000
871.607, 48090.000
872.881, 48730.000
874.154, 48260.000
875.427, 48660.000
876.700, 48760.000
877.972, 48470.000
879.244, 49390.000
880.517, 48300.000
881.788, 49350.000
883.060, 47880.000
884.332, 48420.000
885.603, 49600.000
886.874, 47930.000
888.145, 49070.000
889.416, 49390.000
890.686, 48570.000
891.957, 49650.000
893.227, 48830.000
894.497, 49060.000
895.767, 49420.000
897.036, 48790.000
898.305, 49410.000
899.575, 49890.000
900.843, 49080.000
902.112, 50230.000
903.381, 49440.000
904.649, 49840.000
905.917, 50010.000
907.185, 49720.000
908.453, 50420.000
909.720, 49610.000
910.988, 50170.000
912.255, 50000.000
913.522, 49890.000
914.788, 51030.000
916.055, 50000.000
917.321, 50270.000
918.587, 51080.000
919.853, 50260.000
921.119, 51040.000
922.385, 50450.000
923.650, 50540.000
924.915, 51160.000
926.180, 50860.000
927.445, 50990.000
928.709, 51640.000
929.974, 51170.000
931.238, 52520.000
932.502, 51470.000
933.765, 51880.000
935.029, 52870.000
936.292, 51470.000
937.555, 52590.000
938.818, 51940.000
940.081, 52550.000
941.344, 53410.000
942.606, 52030.000
943.868, 53000.000
945.130, 53290.000
946.392, 52540.000
947.653, 53040.000
948.915, 53000.000
950.176, 52720.000
951.437, 53370.000
952.697, 53290.000
953.958, 53720.000
955.218, 52940.000
956.478, 53570.000
957.738, 53480.000
958.998, 53630.000
960.258, 54310.000
961.517, 53830.000
962.776, 53860.000
964.035, 55150.000
965.294, 54240.000
966.553, 54530.000
967.811, 55390.000
969.069, 53920.000
970.327, 55740.000
971.585, 54910.000
972.842, 55040.000
974.100, 56140.000
975.357, 55710.000
976.614, 56610.000
977.871, 55840.000
979.127, 56950.000
980.384, 57450.000
981.640, 57130.000
982.896, 58920.000
984.152, 58310.000
985.407, 59060.000
986.663, 60160.000
987.918, 59410.000
989.173, 60100.000
990.428, 60340.000
991.682, 59690.000
992.937, 61040.000
994.191, 60110.000
995.445, 60030.000
996.699, 60050.000
997.952, 59230.000
999.206, 59240.000
1000.459, 59690.000
1001.712, 57640.000
1002.965, 60110.000
1004.218, 59230.000
1005.470, 57210.000
1006.722, 57740.000
1007.974, 56610.000
1009.226, 57520.000
1010.478, 56460.000
1011.729, 56900.000
1012.981, 57540.000
1014.232, 56440.000
1015.483, 56990.000
1016.733, 57140.000
1017.984, 56570.000
1019.234, 57470.000
1020.484, 56920.000
1021.734, 57640.000
1022.984, 57730.000
1024.233, 56430.000
1025.483, 57800.000
1026.732, 57750.000
1027.981, 56720.000
1029.229, 58210.000
1030.478, 57370.000
1031.726, 57640.000
1032.974, 58130.000
1034.222, 56770.000
1035.470, 58240.000
1036.718, 57910.000
1037.965, 57270.000
1039.212, 57750.000
1040.459, 57210.000
1041.706, 57460.000
1042.952, 57590.000
1044.199, 56620.000
1045.445, 58290.000
1046.691, 56800.000
1047.937, 57110.000
1049.182, 58490.000
1050.428, 57040.000
1051.673, 57900.000
1052.918, 57740.000
1054.163, 57640.000
1055.407, 58550.000
1056.652, 57080.000
1057.896, 57920.000
1059.140, 59060.000
1060.384, 57570.000
1061.628, 58230.000
1062.871, 57930.000
1064.114, 57020.000
1065.357, 57810.000
1066.600, 56840.000
1067.843, 57270.000
1069.085, 57650.000
1070.328, 57030.000
1071.570, 58030.000
1072.812, 57100.000
1074.053, 57600.000
1075.295, 58140.000
1076.536, 56820.000
1077.777, 57910.000
1079.018, 57790.000
1080.259, 57760.000
1081.499, 57860.000
1082.740, 57500.000
1083.980, 57680.000
1085.220, 57510.000
1086.460, 57140.000
1087.699, 58080.000
1088.939, 57480.000
1090.178, 57030.000
1091.417, 57980.000
1092.656, 57120.000
1093.894, 57820.000
1095.133, 57880.000
1096.371, 56770.000
1097.609, 58390.000
1098.847, 57320.000
1100.084, 57330.000
1101.322, 58560.000
1102.559, 58090.000
1103.796, 58200.000
1105.033, 57400.000
1106.270, 57540.000
1107.506, 58430.000
1108.742, 57760.000
1109.978, 58150.000
1111.214, 57900.000
1112.450, 57630.000
1113.686, 58550.000
1114.921, 58140.000
1116.156, 58060.000
1117.391, 59240.000
1118.626, 57920.000
1119.860, 58480.000
1121.095, 58610.000
1122.329, 57940.000
1123.563, 59230.000
1124.797, 58380.000
1126.030, 58160.000
1127.264, 59510.000
1128.497, 58410.000
1129.730, 59120.000
1130.963, 59090.000
1132.195, 58420.000
1133.428, 59670.000
1134.660, 58580.000
1135.892, 58770.000
1137.124, 59880.000
1138.355, 58190.000
1139.587, 59800.000
1140.818, 59390.000
1142.049, 58680.000
1143.280, 59830.000
1144.511, 59090.000
1145.741, 59410.000
1146.972, 59560.000
1148.202, 58930.000
1149.432, 59570.000
1150.662, 59760.000
1151.891, 59280.000
1153.121, 60440.000
1154.350, 59520.000
1155.579, 59960.000
1156.808, 60070.000
1158.036, 59760.000
1159.265, 60270.000
1160.493, 60240.000
1161.721, 59630.000
1162.949, 60400.000
1164.176, 60200.000
1165.404, 60130.000
1166.631, 60900.000
1167.858, 59990.000
1169.085, 60710.000
1170.312, 60670.000
1171.538, 60150.000
1172.765, 60560.000
1173.991, 60360.000
1175.217, 60470.000
1176.442, 61270.000
1177.668, 60090.000
1178.893, 61360.000
1180.118, 60830.000
1181.343, 60910.000
1182.568, 61380.000
1183.793, 61000.000
1185.017, 60810.000
1186.241, 61870.000
1187.465, 60740.000
1188.689, 61910.000
1189.913, 61570.000
1191.136, 61110.000
1192.360, 62080.000
1193.583, 61340.000
1194.806, 61100.000
1196.028, 62790.000
1197.251, 61590.000
1198.473, 62390.000
1199.695, 62340.000
1200.917, 61430.000
1202.139, 62590.000
1203.361, 62060.000
1204.582, 61970.000
1205.803, 62880.000
1207.024, 61980.000
1208.245, 62490.000
1209.466, 62930.000
1210.686, 61980.000
1211.906, 63310.000
1213.126, 62490.000
1214.346, 62380.000
1215.566, 63680.000
1216.785, 62310.000
1218.005, 63390.000
1219.224, 63010.000
1220.443, 62830.000
1221.661, 63510.000
1222.880, 63360.000
1224.098, 63110.000
1225.316, 63860.000
1226.534, 63080.000
1227.752, 63610.000
1228.970, 63910.000
1230.187, 62480.000
1231.404, 64400.000
1232.621, 63590.000
1233.838, 63640.000
1235.055, 64500.000
1236.271, 64080.000
1237.488, 64070.000
1238.704, 64800.000
1239.920, 63650.000
1241.135, 64680.000
1242.351, 64480.000
1243.566, 63770.000
1244.781, 65240.000
1245.996, 63940.000
1247.211, 65020.000
1248.426, 64900.000
1249.640, 64280.000
1250.854, 64930.000
1252.068, 65160.000
1253.282, 64530.000
1254.496, 65540.000
##END=



