##NAMES=Vesuvianite
##RRUFFID=R060902
##IDEAL CHEMISTRY=(Ca,Na)_19_(Al,Mg,Fe^3+^)_13_(SiO_4_)_10_(Si_2_O_7_)_4_(OH,F,O)_10_
##LOCALITY=Jeffrey mine, Asbestos, Quebec, Canada
##OWNER=RRUFF
##SOURCE=Michael Scott
##DESCRIPTION=Purple equant, doubly terminated prismatic single crystals.
##STATUS=The identification of this mineral has been confirmed by single-crystal X-ray diffraction.
##URL=rruff.info/R060902
175.7892, 17341.10
176.2713, 17345.20
176.7534, 17363.03
177.2355, 17413.68
177.7177, 17508.16
178.1998, 17565.65
178.6819, 17551.92
179.1640, 17526.50
179.6461, 17534.13
180.1282, 17578.08
180.6104, 17633.24
181.0925, 17678.77
181.5746, 17713.42
182.0567, 17747.76
182.5388, 17778.41
183.0209, 17811.32
183.5031, 17850.69
183.9852, 17896.79
184.4673, 17949.61
184.9494, 18015.66
185.4315, 18091.03
185.9136, 18138.71
186.3958, 18129.04
186.8779, 18113.40
187.3600, 18129.07
187.8421, 18176.17
188.3242, 18238.70
188.8063, 18317.63
189.2885, 18402.52
189.7706, 18453.36
190.2527, 18447.71
190.7348, 18425.11
191.2169, 18413.31
191.6990, 18411.22
192.1812, 18405.60
192.6633, 18387.31
193.1454, 18360.22
193.6275, 18337.20
194.1096, 18323.48
194.5917, 18308.03
195.0739, 18274.96
195.5560, 18227.69
196.0381, 18198.14
196.5202, 18209.14
197.0023, 18243.56
197.4844, 18263.31
197.9666, 18260.97
198.4487, 18257.99
198.9308, 18273.89
199.4129, 18305.21
199.8950, 18326.09
200.3771, 18323.69
200.8593, 18308.33
201.3414, 18296.88
201.8235, 18289.96
202.3056, 18284.50
202.7877, 18274.08
203.2698, 18261.56
203.7520, 18264.58
204.2341, 18298.07
204.7162, 18337.60
205.1983, 18350.00
205.6804, 18333.25
206.1625, 18323.42
206.6447, 18346.00
207.1268, 18394.01
207.6089, 18441.52
208.0910, 18487.42
208.5731, 18525.04
209.0552, 18549.78
209.5374, 18562.47
210.0195, 18564.89
210.5016, 18547.46
210.9837, 18519.51
211.4658, 18509.77
211.9479, 18523.19
212.4301, 18553.12
212.9122, 18600.28
213.3943, 18659.76
213.8764, 18714.93
214.3585, 18759.68
214.8406, 18794.78
215.3228, 18820.52
215.8049, 18832.94
216.2870, 18845.53
216.7691, 18864.32
217.2512, 18889.52
217.7333, 18923.18
218.2155, 18966.46
218.6976, 19018.39
219.1797, 19081.04
219.6618, 19159.36
220.1439, 19230.92
220.6260, 19279.04
221.1082, 19314.23
221.5903, 19347.19
222.0724, 19377.17
222.5545, 19411.51
223.0366, 19464.41
223.5187, 19539.80
224.0009, 19609.81
224.4830, 19659.62
224.9651, 19698.50
225.4472, 19733.51
225.9293, 19765.05
226.4114, 19796.75
226.8936, 19835.12
227.3757, 19880.91
227.8578, 19919.59
228.3399, 19947.71
228.8220, 19965.05
229.3041, 19969.14
229.7863, 19958.91
230.2684, 19946.22
230.7505, 19945.16
231.2326, 19953.96
231.7147, 19947.62
232.1968, 19910.93
232.6790, 19868.09
233.1611, 19838.08
233.6432, 19820.79
234.1253, 19810.21
234.6074, 19814.80
235.0895, 19826.53
235.5717, 19803.17
236.0538, 19717.90
236.5359, 19633.27
237.0180, 19599.22
237.5001, 19603.50
237.9822, 19608.38
238.4644, 19579.45
238.9465, 19539.26
239.4286, 19551.76
239.9107, 19639.08
240.3928, 19725.96
240.8749, 19765.72
241.3571, 19773.53
241.8392, 19771.42
242.3213, 19765.25
242.8034, 19754.16
243.2855, 19736.53
243.7676, 19712.00
244.2498, 19682.72
244.7319, 19641.46
245.2140, 19599.13
245.6961, 19568.94
246.1782, 19553.23
246.6603, 19550.53
247.1425, 19569.84
247.6246, 19611.07
248.1067, 19630.83
248.5888, 19601.21
249.0709, 19550.68
249.5530, 19507.63
250.0352, 19471.45
250.5173, 19455.97
250.9994, 19481.82
251.4815, 19541.22
251.9636, 19592.75
252.4457, 19622.36
252.9279, 19647.81
253.4100, 19687.74
253.8921, 19741.13
254.3742, 19796.45
254.8563, 19845.73
255.3384, 19893.17
255.8206, 19950.96
256.3027, 20024.09
256.7848, 20097.28
257.2669, 20158.22
257.7490, 20209.00
258.2311, 20252.47
258.7133, 20292.00
259.1954, 20323.52
259.6775, 20342.99
260.1596, 20350.69
260.6417, 20342.75
261.1238, 20314.85
261.6060, 20268.33
262.0881, 20207.32
262.5702, 20125.34
263.0523, 20036.59
263.5344, 19950.24
264.0165, 19866.21
264.4987, 19787.26
264.9808, 19716.26
265.4629, 19649.38
265.9450, 19576.94
266.4271, 19493.73
266.9092, 19417.60
267.3914, 19356.78
267.8735, 19309.54
268.3556, 19271.57
268.8377, 19241.80
269.3198, 19220.89
269.8019, 19217.43
270.2841, 19233.45
270.7662, 19235.32
271.2483, 19199.69
271.7304, 19151.30
272.2125, 19125.85
272.6946, 19129.71
273.1768, 19138.40
273.6589, 19127.72
274.1410, 19097.19
274.6231, 19072.35
275.1052, 19052.42
275.5873, 19040.31
276.0695, 19040.71
276.5516, 19052.27
277.0337, 19067.95
277.5158, 19085.96
277.9979, 19103.59
278.4800, 19106.22
278.9622, 19058.23
279.4443, 19035.79
279.9264, 19090.50
280.4085, 19189.43
280.8906, 19263.61
281.3727, 19281.74
281.8549, 19265.17
282.3370, 19262.87
282.8191, 19281.52
283.3012, 19301.69
283.7833, 19328.45
284.2654, 19352.40
284.7476, 19359.30
285.2297, 19346.99
285.7118, 19330.46
286.1939, 19327.20
286.6760, 19336.90
287.1581, 19366.69
287.6403, 19445.13
288.1224, 19518.08
288.6045, 19542.25
289.0866, 19526.05
289.5687, 19513.40
290.0508, 19540.91
290.5330, 19607.03
291.0151, 19652.95
291.4972, 19667.37
291.9793, 19675.58
292.4614, 19672.60
292.9435, 19669.84
293.4257, 19692.15
293.9078, 19753.40
294.3899, 19827.84
294.8720, 19840.04
295.3541, 19725.71
295.8362, 19642.84
296.3184, 19606.62
296.8005, 19599.50
297.2826, 19620.91
297.7647, 19664.45
298.2468, 19700.67
298.7289, 19684.14
299.2111, 19590.18
299.6932, 19530.46
300.1753, 19523.73
300.6574, 19532.99
301.1395, 19554.76
301.6216, 19580.54
302.1038, 19593.24
302.5859, 19575.70
303.0680, 19532.70
303.5501, 19508.13
304.0322, 19517.51
304.5143, 19524.29
304.9965, 19517.64
305.4786, 19502.53
305.9607, 19484.12
306.4428, 19463.54
306.9249, 19444.53
307.4070, 19432.63
307.8892, 19426.98
308.3713, 19431.68
308.8534, 19461.96
309.3355, 19493.99
309.8176, 19508.20
310.2997, 19502.60
310.7819, 19497.58
311.2640, 19511.35
311.7461, 19542.63
312.2282, 19579.85
312.7103, 19632.83
313.1924, 19674.89
313.6746, 19683.45
314.1567, 19667.21
314.6388, 19651.68
315.1209, 19649.20
315.6030, 19654.35
316.0851, 19655.48
316.5673, 19650.53
317.0494, 19653.80
317.5315, 19676.54
318.0136, 19712.09
318.4957, 19749.63
318.9778, 19789.46
319.4600, 19828.46
319.9421, 19868.84
320.4242, 19907.88
320.9063, 19932.96
321.3884, 19935.54
321.8705, 19929.50
322.3527, 19937.76
322.8348, 19961.77
323.3169, 19980.60
323.7990, 19979.25
324.2811, 19973.62
324.7632, 19983.41
325.2454, 20011.36
325.7275, 20051.86
326.2096, 20108.13
326.6917, 20178.53
327.1738, 20207.98
327.6559, 20162.02
328.1381, 20110.33
328.6202, 20081.21
329.1023, 20074.85
329.5844, 20090.82
330.0665, 20131.39
330.5486, 20186.41
331.0308, 20225.73
331.5129, 20242.39
331.9950, 20251.85
332.4771, 20250.56
332.9592, 20244.77
333.4413, 20241.27
333.9235, 20241.18
334.4056, 20239.12
334.8877, 20226.65
335.3698, 20197.67
335.8519, 20186.94
336.3340, 20223.83
336.8162, 20248.21
337.2983, 20228.85
337.7804, 20176.77
338.2625, 20118.39
338.7446, 20069.87
339.2267, 20030.47
339.7089, 19998.43
340.1910, 19985.78
340.6731, 19960.41
341.1552, 19913.00
341.6373, 19854.26
342.1194, 19791.26
342.6016, 19726.73
343.0837, 19664.67
343.5658, 19611.04
344.0479, 19566.71
344.5300, 19522.80
345.0121, 19476.83
345.4943, 19433.38
345.9764, 19387.71
346.4585, 19344.96
346.9406, 19321.58
347.4227, 19341.68
347.9048, 19383.44
348.3870, 19385.52
348.8691, 19334.13
349.3512, 19295.71
349.8333, 19318.74
350.3154, 19369.96
350.7975, 19408.26
351.2797, 19428.55
351.7618, 19432.84
352.2439, 19407.63
352.7260, 19363.76
353.2081, 19347.83
353.6902, 19377.76
354.1724, 19428.33
354.6545, 19471.66
355.1366, 19508.77
355.6187, 19536.89
356.1008, 19542.71
356.5829, 19547.39
357.0651, 19577.53
357.5472, 19632.19
358.0293, 19685.99
358.5114, 19726.92
358.9935, 19751.55
359.4756, 19736.07
359.9578, 19619.90
360.4399, 19542.04
360.9220, 19565.89
361.4041, 19643.59
361.8862, 19711.63
362.3683, 19747.59
362.8505, 19759.06
363.3326, 19755.65
363.8147, 19728.86
364.2968, 19708.83
364.7789, 19694.79
365.2610, 19687.09
365.7432, 19690.78
366.2253, 19701.68
366.7074, 19707.83
367.1895, 19698.91
367.6716, 19679.14
368.1537, 19675.09
368.6359, 19702.61
369.1180, 19722.01
369.6001, 19726.33
370.0822, 19719.26
370.5643, 19699.91
371.0464, 19668.64
371.5286, 19639.06
372.0107, 19630.52
372.4928, 19644.36
372.9749, 19653.74
373.4570, 19655.69
373.9391, 19652.54
374.4213, 19650.23
374.9034, 19645.28
375.3855, 19627.02
375.8676, 19585.15
376.3497, 19529.86
376.8318, 19468.48
377.3140, 19398.31
377.7961, 19357.71
378.2782, 19382.75
378.7603, 19438.96
379.2424, 19462.07
379.7245, 19445.88
380.2067, 19413.66
380.6888, 19369.24
381.1709, 19317.63
381.6530, 19264.21
382.1351, 19209.32
382.6172, 19165.44
383.0994, 19148.74
383.5815, 19162.74
384.0636, 19168.14
384.5457, 19160.44
385.0278, 19148.77
385.5099, 19129.99
385.9921, 19111.09
386.4742, 19108.08
386.9563, 19129.54
387.4384, 19167.92
387.9205, 19204.48
388.4026, 19252.36
388.8848, 19276.57
389.3669, 19249.05
389.8490, 19219.87
390.3311, 19223.89
390.8132, 19263.60
391.2953, 19323.37
391.7775, 19395.78
392.2596, 19478.76
392.7417, 19526.75
393.2238, 19495.29
393.7059, 19494.03
394.1880, 19587.70
394.6702, 19713.18
395.1523, 19784.46
395.6344, 19767.94
396.1165, 19736.83
396.5986, 19786.62
397.0807, 19916.92
397.5629, 20038.63
398.0450, 20137.02
398.5271, 20221.01
399.0092, 20293.60
399.4913, 20358.04
399.9734, 20427.89
400.4556, 20511.45
400.9377, 20601.59
401.4198, 20690.51
401.9019, 20778.13
402.3840, 20862.65
402.8661, 20940.28
403.3483, 21016.50
403.8304, 21108.99
404.3125, 21228.17
404.7946, 21337.25
405.2767, 21440.48
405.7589, 21522.15
406.2410, 21557.17
406.7231, 21544.47
407.2052, 21513.32
407.6873, 21491.34
408.1694, 21479.73
408.6516, 21453.96
409.1337, 21420.62
409.6158, 21367.13
410.0979, 21280.87
410.5800, 21175.01
411.0621, 21066.18
411.5443, 20960.79
412.0264, 20856.27
412.5085, 20744.16
412.9906, 20616.05
413.4727, 20509.30
413.9548, 20447.83
414.4370, 20389.44
414.9191, 20315.14
415.4012, 20227.68
415.8833, 20138.30
416.3654, 20047.77
416.8475, 19963.05
417.3297, 19904.64
417.8118, 19877.84
418.2939, 19837.48
418.7760, 19752.62
419.2581, 19655.49
419.7402, 19591.68
420.2224, 19567.15
420.7045, 19539.88
421.1866, 19491.52
421.6687, 19427.80
422.1508, 19351.63
422.6329, 19263.75
423.1151, 19184.51
423.5972, 19131.74
424.0793, 19103.19
424.5614, 19071.26
425.0435, 19037.90
425.5256, 18999.58
426.0078, 18952.71
426.4899, 18901.42
426.9720, 18850.70
427.4541, 18802.02
427.9362, 18756.48
428.4183, 18717.43
428.9005, 18690.24
429.3826, 18643.59
429.8647, 18539.96
430.3468, 18455.97
430.8289, 18434.39
431.3110, 18447.59
431.7932, 18445.67
432.2753, 18404.06
432.7574, 18340.82
433.2395, 18283.32
433.7216, 18229.54
434.2037, 18193.33
434.6859, 18186.13
435.1680, 18189.70
435.6501, 18194.98
436.1322, 18199.98
436.6143, 18194.61
437.0964, 18158.24
437.5786, 18117.05
438.0607, 18122.09
438.5428, 18171.34
439.0249, 18188.43
439.5070, 18119.94
439.9891, 18008.73
440.4713, 17961.78
440.9534, 17996.34
441.4355, 18038.16
441.9176, 18085.99
442.3997, 18124.98
442.8818, 18142.30
443.3640, 18135.73
443.8461, 18102.39
444.3282, 18033.06
444.8103, 17934.45
445.2924, 17886.17
445.7745, 17954.63
446.2567, 17993.11
446.7388, 17956.28
447.2209, 17896.17
447.7030, 17862.83
448.1851, 17868.08
448.6672, 17894.21
449.1494, 17937.44
449.6315, 17996.50
450.1136, 18000.87
450.5957, 17916.20
451.0778, 17833.48
451.5599, 17803.42
452.0421, 17803.58
452.5242, 17801.43
453.0063, 17786.62
453.4884, 17773.43
453.9705, 17776.85
454.4526, 17791.93
454.9348, 17800.81
455.4169, 17797.53
455.8990, 17795.35
456.3811, 17811.41
456.8632, 17847.52
457.3453, 17868.44
457.8275, 17862.46
458.3096, 17852.63
458.7917, 17857.71
459.2738, 17866.14
459.7559, 17849.66
460.2380, 17796.91
460.7202, 17733.54
461.2023, 17705.21
461.6844, 17724.25
462.1665, 17743.43
462.6486, 17785.20
463.1307, 17805.07
463.6129, 17762.58
464.0950, 17685.25
464.5771, 17631.64
465.0592, 17635.23
465.5413, 17669.09
466.0234, 17688.87
466.5056, 17694.05
466.9877, 17689.45
467.4698, 17663.92
467.9519, 17642.80
468.4340, 17651.93
468.9161, 17688.33
469.3983, 17728.32
469.8804, 17773.54
470.3625, 17812.04
470.8446, 17829.47
471.3267, 17828.14
471.8088, 17822.99
472.2910, 17822.61
472.7731, 17817.63
473.2552, 17785.08
473.7373, 17683.83
474.2194, 17638.68
474.7015, 17690.16
475.1837, 17764.22
475.6658, 17820.65
476.1479, 17856.47
476.6300, 17881.89
477.1121, 17903.73
477.5942, 17918.57
478.0764, 17910.68
478.5585, 17861.35
479.0406, 17839.13
479.5227, 17874.15
480.0048, 17927.72
480.4869, 17987.28
480.9691, 18047.22
481.4512, 18089.20
481.9333, 18093.08
482.4154, 18076.35
482.8975, 18068.18
483.3796, 18068.64
483.8618, 18067.52
484.3439, 18062.74
484.8260, 18051.26
485.3081, 18022.81
485.7902, 17970.84
486.2723, 17930.00
486.7545, 17911.75
487.2366, 17903.06
487.7187, 17897.76
488.2008, 17892.62
488.6829, 17883.00
489.1650, 17866.77
489.6472, 17841.47
490.1293, 17796.75
490.6114, 17715.11
491.0935, 17647.33
491.5756, 17600.05
492.0577, 17564.35
492.5399, 17540.47
493.0220, 17524.01
493.5041, 17500.93
493.9862, 17451.82
494.4683, 17397.19
494.9504, 17391.03
495.4326, 17439.02
495.9147, 17471.95
496.3968, 17458.83
496.8789, 17424.12
497.3610, 17403.16
497.8431, 17397.65
498.3253, 17386.31
498.8074, 17355.83
499.2895, 17322.71
499.7716, 17300.65
500.2537, 17289.60
500.7358, 17286.20
501.2180, 17289.54
501.7001, 17295.58
502.1822, 17293.26
502.6643, 17270.86
503.1464, 17261.45
503.6285, 17280.75
504.1107, 17297.23
504.5928, 17286.02
505.0749, 17256.09
505.5570, 17235.66
506.0391, 17243.25
506.5212, 17264.40
507.0034, 17266.38
507.4855, 17246.17
507.9676, 17245.87
508.4497, 17294.88
508.9318, 17344.22
509.4139, 17332.80
509.8961, 17269.00
510.3782, 17226.80
510.8603, 17239.03
511.3424, 17267.56
511.8245, 17292.58
512.3066, 17309.45
512.7888, 17304.69
513.2709, 17271.88
513.7530, 17228.11
514.2351, 17200.74
514.7172, 17194.79
515.1993, 17189.59
515.6815, 17188.30
516.1636, 17184.41
516.6457, 17173.16
517.1278, 17158.03
517.6099, 17149.00
518.0920, 17151.70
518.5742, 17145.91
519.0563, 17087.63
519.5384, 16979.42
520.0205, 16926.07
520.5026, 16967.54
520.9847, 17013.90
521.4669, 16980.31
521.9490, 16898.11
522.4311, 16849.43
522.9132, 16877.47
523.3953, 16899.61
523.8774, 16855.87
524.3596, 16781.55
524.8417, 16741.25
525.3238, 16747.80
525.8059, 16762.81
526.2880, 16746.22
526.7701, 16698.26
527.2523, 16666.36
527.7344, 16681.15
528.2165, 16674.66
528.6986, 16606.90
529.1807, 16529.94
529.6628, 16501.86
530.1450, 16529.97
530.6271, 16564.96
531.1092, 16558.85
531.5913, 16524.50
532.0734, 16507.70
532.5555, 16510.78
533.0377, 16522.64
533.5198, 16546.45
534.0019, 16570.24
534.4840, 16567.70
534.9661, 16528.35
535.4482, 16502.86
535.9304, 16519.71
536.4125, 16545.22
536.8946, 16548.97
537.3767, 16532.11
537.8588, 16510.28
538.3409, 16492.55
538.8231, 16476.71
539.3052, 16454.40
539.7873, 16412.53
540.2694, 16395.55
540.7515, 16429.88
541.2336, 16468.11
541.7158, 16493.09
542.1979, 16502.45
542.6800, 16493.32
543.1621, 16457.54
543.6442, 16414.63
544.1263, 16383.62
544.6085, 16365.20
545.0906, 16367.08
545.5727, 16395.86
546.0548, 16427.62
546.5369, 16434.79
547.0190, 16416.54
547.5012, 16417.21
547.9833, 16474.69
548.4654, 16506.61
548.9475, 16460.44
549.4296, 16383.82
549.9117, 16338.65
550.3939, 16338.31
550.8760, 16349.40
551.3581, 16336.46
551.8402, 16301.65
552.3223, 16272.30
552.8044, 16242.98
553.2866, 16230.40
553.7687, 16263.87
554.2508, 16304.55
554.7329, 16307.83
555.2150, 16266.78
555.6971, 16236.75
556.1793, 16273.96
556.6614, 16318.70
557.1435, 16275.69
557.6256, 16159.60
558.1077, 16079.04
558.5898, 16092.51
559.0720, 16161.35
559.5541, 16204.12
560.0362, 16216.50
560.5183, 16210.71
561.0004, 16178.41
561.4825, 16138.83
561.9647, 16089.04
562.4468, 16041.15
562.9289, 16016.67
563.4110, 16027.04
563.8931, 16051.02
564.3752, 16063.28
564.8574, 16065.15
565.3395, 16068.19
565.8216, 16075.58
566.3037, 16078.29
566.7858, 16065.15
567.2679, 16041.55
567.7501, 16032.57
568.2322, 16055.81
568.7143, 16068.09
569.1964, 16048.82
569.6785, 16018.05
570.1606, 15989.06
570.6428, 15968.03
571.1249, 15968.81
571.6070, 16006.22
572.0891, 16065.82
572.5712, 16094.06
573.0533, 16083.76
573.5355, 16062.99
574.0176, 16021.41
574.4997, 15985.22
574.9818, 15979.59
575.4639, 15998.00
575.9460, 16007.98
576.4282, 15985.90
576.9103, 15961.68
577.3924, 15962.29
577.8745, 15981.07
578.3566, 16001.84
578.8387, 16020.11
579.3209, 16037.82
579.8030, 16057.40
580.2851, 16079.02
580.7672, 16098.39
581.2493, 16108.33
581.7314, 16124.99
582.2136, 16165.30
582.6957, 16204.84
583.1778, 16212.85
583.6599, 16188.67
584.1420, 16169.15
584.6241, 16188.52
585.1063, 16229.86
585.5884, 16255.90
586.0705, 16266.68
586.5526, 16278.09
587.0347, 16295.88
587.5168, 16318.33
587.9990, 16344.05
588.4811, 16375.15
588.9632, 16400.14
589.4453, 16418.30
589.9274, 16430.85
590.4095, 16438.48
590.8917, 16440.85
591.3738, 16433.91
591.8559, 16417.35
592.3380, 16403.13
592.8201, 16411.24
593.3022, 16438.82
593.7844, 16448.03
594.2665, 16435.62
594.7486, 16413.33
595.2307, 16381.12
595.7128, 16345.21
596.1949, 16316.13
596.6771, 16295.15
597.1592, 16274.98
597.6413, 16257.82
598.1234, 16237.23
598.6055, 16203.40
599.0876, 16161.30
599.5698, 16128.23
600.0519, 16112.48
600.5340, 16096.95
601.0161, 16045.87
601.4982, 15946.74
601.9803, 15879.41
602.4625, 15856.24
602.9446, 15848.76
603.4267, 15857.14
603.9088, 15867.29
604.3909, 15855.12
604.8730, 15810.90
605.3552, 15772.04
605.8373, 15766.03
606.3194, 15773.65
606.8015, 15769.71
607.2836, 15753.34
607.7657, 15733.91
608.2479, 15716.11
608.7300, 15700.14
609.2121, 15686.68
609.6942, 15677.98
610.1763, 15666.25
610.6584, 15650.10
611.1406, 15632.29
611.6227, 15605.44
612.1048, 15579.89
612.5869, 15576.35
613.0690, 15605.24
613.5511, 15634.19
614.0333, 15630.86
614.5154, 15609.92
614.9975, 15604.97
615.4796, 15618.72
615.9617, 15629.59
616.4438, 15624.06
616.9260, 15607.47
617.4081, 15594.95
617.8902, 15590.56
618.3723, 15582.82
618.8544, 15566.80
619.3365, 15552.61
619.8187, 15551.73
620.3008, 15555.36
620.7829, 15543.53
621.2650, 15506.14
621.7471, 15467.78
622.2292, 15460.39
622.7114, 15473.68
623.1935, 15473.64
623.6756, 15456.30
624.1577, 15428.63
624.6398, 15391.28
625.1219, 15349.88
625.6041, 15321.47
626.0862, 15313.32
626.5683, 15306.29
627.0504, 15290.78
627.5325, 15285.21
628.0146, 15314.63
628.4968, 15359.84
628.9789, 15381.28
629.4610, 15361.26
629.9431, 15320.20
630.4252, 15274.83
630.9073, 15228.37
631.3895, 15195.82
631.8716, 15178.92
632.3537, 15175.41
632.8358, 15189.76
633.3179, 15212.68
633.8000, 15217.15
634.2822, 15194.29
634.7643, 15172.35
635.2464, 15153.08
635.7285, 15135.22
636.2106, 15114.84
636.6927, 15095.83
637.1749, 15086.31
637.6570, 15089.86
638.1391, 15100.54
638.6212, 15118.07
639.1033, 15138.27
639.5854, 15131.74
640.0676, 15090.63
640.5497, 15058.37
641.0318, 15067.14
641.5139, 15095.02
641.9960, 15085.36
642.4781, 15015.30
642.9603, 14970.79
643.4424, 14962.00
643.9245, 14976.96
644.4066, 15034.60
644.8887, 15104.37
645.3708, 15127.92
645.8530, 15083.88
646.3351, 15023.13
646.8172, 15010.77
647.2993, 15034.72
647.7814, 15027.47
648.2635, 14980.89
648.7457, 14943.04
649.2278, 14942.95
649.7099, 14959.59
650.1920, 14951.58
650.6741, 14910.95
651.1563, 14873.95
651.6384, 14836.65
652.1205, 14808.98
652.6026, 14803.80
653.0847, 14808.71
653.5668, 14807.04
654.0490, 14793.36
654.5311, 14768.64
655.0132, 14723.89
655.4953, 14669.00
655.9774, 14643.76
656.4595, 14650.47
656.9417, 14656.51
657.4238, 14650.74
657.9059, 14634.83
658.3880, 14609.05
658.8701, 14570.24
659.3522, 14539.08
659.8344, 14515.96
660.3165, 14499.66
660.7986, 14502.03
661.2807, 14504.31
661.7628, 14475.63
662.2449, 14415.58
662.7271, 14366.32
663.2092, 14368.69
663.6913, 14400.99
664.1734, 14413.21
664.6555, 14407.11
665.1376, 14415.67
665.6198, 14453.66
666.1019, 14493.02
666.5840, 14500.38
667.0661, 14474.36
667.5482, 14458.95
668.0303, 14451.28
668.5125, 14457.09
668.9946, 14496.00
669.4767, 14535.41
669.9588, 14542.52
670.4409, 14520.15
670.9230, 14497.02
671.4052, 14486.47
671.8873, 14487.97
672.3694, 14507.33
