##NAMES=Vesuvianite
##RRUFFID=R060170
##IDEAL CHEMISTRY=(Ca,Na)_19_(Al,Mg,Fe^3+^)_13_(SiO_4_)_10_(Si_2_O_7_)_4_(OH,F,O)_10_
##LOCALITY=Jeffrey mine, Asbestos, Quebec, Canada
##OWNER=RRUFF
##SOURCE=Guy Ouellet
##DESCRIPTION=Violet prismatic crystals on diopside, R060171
##STATUS=The identification of this mineral is confirmed by single-crystal X-ray diffraction and chemical analysis.
##URL=rruff.info/R060170
##MEASURED CHEMISTRY=Ca_19.00_(Al_10.85_Mg_1.38_Mn_0.54_Fe^2+^_0.21_Cr_0.02_)_Σ=13_Si_18.00_O_68_((OH)_9.13_O_0.87_)_Σ=10_ ; B not measured.
92.02539, 1629.449
92.50751, 1612.049
92.98962, 1615.622
93.47174, 1628.504
93.95386, 1650.055
94.43597, 1668.181
94.91809, 1680.883
95.40021, 1689.954
95.88232, 1694.613
96.36444, 1693.920
96.84656, 1690.223
97.32867, 1684.972
97.81078, 1678.752
98.29290, 1671.903
98.77502, 1663.408
99.25713, 1650.359
99.73925, 1639.210
100.2214, 1630.686
100.7035, 1623.417
101.1856, 1616.512
101.6677, 1609.832
102.1498, 1603.991
102.6320, 1599.844
103.1141, 1598.034
103.5962, 1596.291
104.0783, 1594.070
104.5604, 1591.914
105.0425, 1590.461
105.5247, 1589.871
106.0068, 1589.847
106.4889, 1589.549
106.9710, 1588.821
107.4531, 1588.125
107.9352, 1587.625
108.4173, 1587.265
108.8995, 1586.860
109.3816, 1586.080
109.8637, 1585.348
110.3458, 1584.970
110.8279, 1584.883
111.3100, 1585.417
111.7922, 1587.344
112.2743, 1591.330
112.7564, 1594.470
113.2385, 1595.555
113.7206, 1595.691
114.2027, 1595.790
114.6849, 1596.280
115.1670, 1596.922
115.6491, 1596.843
116.1312, 1594.736
116.6133, 1593.404
117.0954, 1593.800
117.5776, 1595.179
118.0597, 1596.291
118.5418, 1596.164
119.0239, 1594.752
119.5060, 1594.969
119.9881, 1597.907
120.4703, 1601.056
120.9524, 1603.965
121.4345, 1606.335
121.9166, 1607.426
122.3987, 1606.178
122.8808, 1602.082
123.3630, 1599.557
123.8451, 1599.489
124.3272, 1600.517
124.8093, 1601.474
125.2914, 1602.203
125.7735, 1602.705
126.2557, 1602.812
126.7378, 1602.613
127.2199, 1602.527
127.7020, 1603.166
128.1841, 1604.120
128.6662, 1603.923
129.1483, 1601.511
129.6305, 1598.899
130.1126, 1597.591
130.5947, 1597.534
131.0768, 1598.009
131.5589, 1598.774
132.0410, 1600.003
132.5232, 1600.138
133.0053, 1597.796
133.4874, 1595.096
133.9695, 1592.769
134.4516, 1591.072
134.9337, 1590.258
135.4159, 1590.946
135.8980, 1594.601
136.3801, 1596.965
136.8622, 1597.303
137.3443, 1596.768
137.8264, 1596.039
138.3086, 1595.418
138.7907, 1595.137
139.2728, 1595.859
139.7549, 1599.868
140.2370, 1602.260
140.7191, 1602.109
141.2013, 1600.217
141.6834, 1597.576
142.1655, 1594.579
142.6476, 1591.435
143.1297, 1589.125
143.6118, 1588.204
144.0939, 1587.359
144.5761, 1585.689
145.0582, 1583.483
145.5403, 1582.109
146.0224, 1582.776
146.5045, 1584.826
146.9866, 1586.051
147.4688, 1585.929
147.9509, 1585.319
148.4330, 1585.190
148.9151, 1585.695
149.3972, 1585.706
149.8793, 1583.588
150.3615, 1580.720
150.8436, 1578.888
151.3257, 1579.214
151.8078, 1580.728
152.2899, 1581.115
152.7720, 1579.593
153.2542, 1578.290
153.7363, 1577.986
154.2184, 1578.422
154.7005, 1579.257
155.1826, 1580.377
155.6647, 1581.736
156.1469, 1582.854
156.6290, 1583.953
157.1111, 1584.511
157.5932, 1583.813
158.0753, 1582.416
158.5574, 1581.445
159.0396, 1581.896
159.5217, 1583.937
160.0038, 1585.905
160.4859, 1587.665
160.9680, 1589.485
161.4501, 1591.841
161.9323, 1594.511
162.4144, 1596.613
162.8965, 1597.088
163.3786, 1595.303
163.8607, 1594.704
164.3428, 1596.275
164.8250, 1598.246
165.3071, 1599.114
165.7892, 1598.699
166.2713, 1598.264
166.7534, 1599.547
167.2355, 1602.893
167.7177, 1605.413
168.1998, 1606.010
168.6819, 1605.910
169.1640, 1606.897
169.6461, 1609.563
170.1282, 1612.471
170.6104, 1613.679
171.0925, 1613.407
171.5746, 1613.037
172.0567, 1613.088
172.5388, 1613.448
173.0209, 1613.744
173.5031, 1613.725
173.9852, 1613.917
174.4673, 1614.857
174.9494, 1616.471
175.4315, 1618.092
175.9136, 1619.230
176.3958, 1619.901
176.8779, 1620.517
177.3600, 1621.208
177.8421, 1621.778
178.3242, 1622.012
178.8063, 1621.946
179.2885, 1621.896
179.7706, 1622.279
180.2527, 1623.271
180.7348, 1623.939
181.2169, 1623.967
181.6990, 1623.858
182.1812, 1623.814
182.6633, 1623.892
183.1454, 1624.084
183.6275, 1624.610
184.1096, 1626.560
184.5917, 1626.327
185.0738, 1622.249
185.5560, 1617.515
186.0381, 1614.687
186.5202, 1614.281
187.0023, 1614.609
187.4844, 1612.775
187.9665, 1606.983
188.4487, 1601.667
188.9308, 1596.536
189.4129, 1592.025
189.8950, 1588.932
190.3771, 1587.502
190.8592, 1586.644
191.3414, 1584.162
191.8235, 1579.035
192.3056, 1574.230
192.7877, 1569.696
193.2698, 1565.769
193.7519, 1563.162
194.2341, 1562.309
194.7162, 1562.200
195.1983, 1560.570
195.6804, 1557.004
196.1625, 1553.811
196.6446, 1551.905
197.1268, 1550.871
197.6089, 1549.762
198.0910, 1548.242
198.5731, 1546.548
199.0552, 1545.044
199.5373, 1543.722
200.0195, 1542.512
200.5016, 1541.362
200.9837, 1540.283
201.4658, 1539.295
201.9479, 1538.254
202.4300, 1537.506
202.9122, 1537.393
203.3943, 1537.955
203.8764, 1538.823
204.3585, 1539.984
204.8406, 1541.438
205.3227, 1542.187
205.8048, 1541.028
206.2870, 1539.801
206.7691, 1539.822
207.2512, 1541.235
207.7333, 1543.350
208.2154, 1545.662
208.6975, 1548.289
209.1797, 1550.398
209.6618, 1551.418
210.1439, 1552.151
210.6260, 1553.164
211.1081, 1554.496
211.5902, 1555.553
212.0724, 1555.343
212.5545, 1553.191
213.0366, 1551.825
213.5187, 1551.739
214.0008, 1552.193
214.4829, 1552.942
214.9651, 1553.854
215.4472, 1554.722
215.9293, 1555.322
216.4114, 1555.941
216.8935, 1555.564
217.3756, 1553.148
217.8578, 1550.643
218.3399, 1549.544
218.8220, 1550.108
219.3041, 1551.344
219.7862, 1551.730
220.2683, 1550.674
220.7505, 1549.867
221.2326, 1549.234
221.7147, 1548.861
222.1968, 1548.932
222.6789, 1549.448
223.1610, 1550.082
223.6432, 1550.291
224.1253, 1549.432
224.6074, 1549.592
225.0895, 1551.128
225.5716, 1553.456
226.0537, 1556.308
226.5358, 1559.584
227.0180, 1562.806
227.5001, 1565.341
227.9822, 1567.128
228.4643, 1568.203
228.9464, 1568.700
229.4285, 1568.417
229.9107, 1566.932
230.3928, 1564.133
230.8749, 1560.714
231.3570, 1557.431
231.8391, 1554.263
232.3212, 1551.458
232.8034, 1549.225
233.2855, 1547.331
233.7676, 1545.575
234.2497, 1543.965
234.7318, 1542.259
235.2139, 1540.019
235.6961, 1537.329
236.1782, 1534.853
236.6603, 1532.572
237.1424, 1530.665
237.6245, 1529.550
238.1066, 1529.467
238.5888, 1529.513
239.0709, 1528.739
239.5530, 1527.370
240.0351, 1526.050
240.5172, 1525.531
240.9993, 1525.081
241.4815, 1522.888
241.9636, 1517.993
242.4457, 1513.559
242.9278, 1512.720
243.4099, 1514.043
243.8920, 1514.627
244.3742, 1512.976
244.8563, 1509.804
245.3384, 1506.476
245.8205, 1502.531
246.3026, 1499.547
246.7847, 1498.641
247.2668, 1499.148
247.7490, 1500.167
248.2311, 1501.619
248.7132, 1503.165
249.1953, 1503.906
249.6774, 1503.488
250.1595, 1502.959
250.6417, 1502.454
251.1238, 1502.192
251.6059, 1502.537
252.0880, 1503.777
252.5701, 1505.574
253.0522, 1506.977
253.5344, 1507.364
254.0165, 1508.640
254.4986, 1512.251
254.9807, 1516.579
255.4628, 1519.706
255.9449, 1520.642
256.4271, 1520.492
256.9092, 1521.992
257.3913, 1526.353
257.8734, 1530.084
258.3555, 1533.117
258.8376, 1535.037
259.3198, 1535.394
259.8019, 1533.998
260.2840, 1531.174
260.7661, 1527.456
261.2482, 1522.223
261.7303, 1517.240
262.2125, 1513.031
262.6946, 1508.886
263.1767, 1504.115
263.6588, 1498.501
264.1409, 1492.572
264.6230, 1487.158
265.1052, 1482.199
265.5873, 1477.959
266.0694, 1474.618
266.5515, 1471.745
267.0336, 1469.327
267.5157, 1467.239
267.9979, 1464.954
268.4800, 1461.523
268.9621, 1455.821
269.4442, 1451.509
269.9263, 1449.444
270.4084, 1447.862
270.8906, 1445.428
271.3727, 1442.094
271.8548, 1438.964
272.3369, 1437.494
272.8190, 1438.439
273.3011, 1438.618
273.7833, 1437.746
274.2654, 1436.528
274.7475, 1435.225
275.2296, 1433.930
275.7117, 1432.705
276.1938, 1431.570
276.6760, 1430.455
277.1581, 1429.957
277.6402, 1430.884
278.1223, 1431.543
278.6044, 1430.620
279.0865, 1428.582
279.5686, 1427.129
280.0508, 1427.758
280.5329, 1430.526
281.0150, 1432.235
281.4971, 1432.039
281.9792, 1431.860
282.4613, 1432.762
282.9435, 1434.272
283.4256, 1435.093
283.9077, 1434.276
284.3898, 1432.083
284.8719, 1430.975
285.3540, 1431.811
285.8362, 1432.561
286.3183, 1432.463
286.8004, 1431.932
287.2825, 1431.746
287.7646, 1432.313
288.2467, 1433.474
288.7289, 1434.712
289.2110, 1436.101
289.6931, 1437.475
290.1752, 1439.279
290.6573, 1440.934
291.1394, 1441.498
291.6216, 1440.579
292.1037, 1438.753
292.5858, 1437.127
293.0679, 1435.720
293.5500, 1434.515
294.0321, 1433.718
294.5143, 1433.042
294.9964, 1432.182
295.4785, 1431.052
295.9606, 1429.731
296.4427, 1428.296
296.9248, 1426.663
297.4070, 1425.180
297.8891, 1424.072
298.3712, 1422.990
298.8533, 1421.624
299.3354, 1419.934
299.8175, 1418.042
300.2997, 1416.052
300.7818, 1413.942
301.2639, 1411.828
301.7460, 1409.310
302.2281, 1407.107
302.7102, 1405.839
303.1924, 1405.446
303.6745, 1405.284
304.1566, 1404.972
304.6387, 1404.458
305.1208, 1403.362
305.6029, 1400.681
306.0851, 1398.424
306.5672, 1397.778
307.0493, 1398.438
307.5314, 1399.471
308.0135, 1400.532
308.4956, 1401.414
308.9778, 1401.195
309.4599, 1399.247
309.9420, 1397.206
310.4241, 1395.185
310.9062, 1393.465
311.3883, 1392.889
311.8705, 1394.010
312.3526, 1395.811
312.8347, 1395.833
313.3168, 1393.136
313.7989, 1391.186
314.2810, 1391.019
314.7632, 1391.859
315.2453, 1392.736
315.7274, 1393.392
316.2095, 1394.014
316.6916, 1394.964
317.1737, 1396.471
317.6559, 1397.242
318.1380, 1396.675
318.6201, 1395.625
319.1022, 1394.636
319.5843, 1393.833
320.0664, 1393.664
320.5485, 1394.836
321.0306, 1397.474
321.5128, 1398.713
321.9949, 1397.300
322.4770, 1395.595
322.9591, 1395.331
323.4412, 1396.277
323.9233, 1396.918
324.4055, 1396.198
324.8876, 1394.299
325.3697, 1392.725
325.8518, 1391.414
326.3339, 1390.418
326.8160, 1389.984
327.2982, 1389.876
327.7803, 1389.542
328.2624, 1388.698
328.7445, 1387.560
329.2266, 1386.766
329.7087, 1386.973
330.1909, 1386.327
330.6730, 1383.718
331.1551, 1380.338
331.6372, 1377.819
332.1193, 1376.641
332.6014, 1376.020
333.0836, 1374.868
333.5657, 1373.074
334.0478, 1370.960
334.5299, 1367.944
335.0120, 1365.008
335.4941, 1363.220
335.9763, 1362.593
336.4584, 1361.950
336.9405, 1360.166
337.4226, 1357.103
337.9047, 1354.278
338.3868, 1351.910
338.8690, 1349.515
339.3511, 1346.724
339.8332, 1343.664
340.3153, 1340.826
340.7974, 1338.583
341.2795, 1336.781
341.7617, 1334.426
342.2438, 1330.356
342.7259, 1327.187
343.2080, 1326.217
343.6901, 1326.345
344.1722, 1325.940
344.6544, 1324.331
345.1365, 1321.964
345.6186, 1319.745
346.1007, 1317.595
346.5828, 1315.768
347.0649, 1314.081
347.5471, 1312.841
348.0292, 1312.350
348.5113, 1312.652
348.9934, 1313.597
349.4755, 1315.170
349.9576, 1317.856
350.4398, 1318.990
350.9219, 1317.698
351.4040, 1315.904
351.8861, 1314.103
352.3682, 1312.612
352.8503, 1311.974
353.3325, 1312.693
353.8146, 1314.660
354.2967, 1316.291
354.7788, 1318.069
355.2609, 1318.953
355.7430, 1317.666
356.2252, 1315.620
356.7073, 1314.929
357.1894, 1316.622
357.6715, 1319.718
358.1536, 1321.814
358.6357, 1322.920
359.1179, 1322.836
359.5999, 1320.073
360.0821, 1317.168
360.5642, 1316.491
361.0463, 1318.347
361.5284, 1321.005
362.0105, 1322.265
362.4926, 1321.661
362.9748, 1321.477
363.4569, 1322.760
363.9390, 1323.479
364.4211, 1322.527
364.9032, 1320.213
365.3853, 1317.498
365.8675, 1315.006
366.3496, 1312.765
366.8317, 1311.071
367.3138, 1310.260
367.7959, 1309.610
368.2780, 1308.738
368.7602, 1307.999
369.2423, 1308.084
369.7244, 1309.339
370.2065, 1310.834
370.6886, 1310.606
371.1707, 1307.945
371.6529, 1305.298
372.1350, 1302.888
372.6171, 1300.682
373.0992, 1298.487
373.5813, 1296.364
374.0634, 1294.730
374.5456, 1294.314
375.0277, 1295.204
375.5098, 1295.454
375.9919, 1294.877
376.4740, 1293.725
376.9561, 1291.916
377.4383, 1289.658
377.9204, 1287.403
378.4025, 1285.322
378.8846, 1283.453
379.3667, 1281.982
379.8488, 1281.130
380.3310, 1280.096
380.8131, 1278.473
381.2952, 1276.546
381.7773, 1274.636
382.2594, 1272.873
382.7415, 1270.902
383.2237, 1268.088
383.7058, 1264.434
384.1879, 1261.321
384.6700, 1258.986
385.1521, 1257.475
385.6342, 1256.920
386.1164, 1257.256
386.5985, 1257.610
387.0806, 1257.847
387.5627, 1257.723
388.0448, 1256.319
388.5269, 1253.117
389.0091, 1250.163
389.4912, 1249.297
389.9733, 1249.813
390.4554, 1250.267
390.9375, 1250.590
391.4196, 1250.552
391.9018, 1249.552
392.3839, 1247.745
392.8660, 1246.641
393.3481, 1247.067
393.8302, 1248.451
394.3123, 1249.690
394.7945, 1250.851
395.2766, 1251.696
395.7587, 1251.489
396.2408, 1251.058
396.7229, 1252.154
397.2050, 1255.315
397.6872, 1258.666
398.1693, 1260.021
398.6514, 1259.151
399.1335, 1258.755
399.6156, 1258.328
400.0977, 1258.900
400.5798, 1261.665
401.0620, 1266.256
401.5441, 1271.056
402.0262, 1275.088
402.5083, 1278.515
402.9904, 1282.055
403.4725, 1285.742
403.9547, 1289.483
404.4368, 1293.580
404.9189, 1297.606
405.4010, 1301.067
405.8831, 1303.789
406.3652, 1305.811
406.8474, 1307.171
407.3295, 1307.781
407.8116, 1307.852
408.2937, 1307.277
408.7758, 1306.335
409.2579, 1304.939
409.7401, 1303.280
410.2222, 1301.949
410.7043, 1301.529
411.1864, 1301.741
411.6685, 1300.093
412.1506, 1294.570
412.6328, 1289.585
413.1149, 1286.239
413.5970, 1283.552
414.0791, 1280.551
414.5612, 1276.878
415.0433, 1272.566
415.5255, 1267.391
416.0076, 1260.745
416.4897, 1255.270
416.9718, 1252.542
417.4539, 1249.837
417.9360, 1245.755
418.4182, 1240.488
418.9003, 1235.166
419.3824, 1230.568
419.8645, 1226.552
420.3466, 1222.237
420.8287, 1217.039
421.3109, 1212.829
421.7930, 1211.624
422.2751, 1211.238
422.7572, 1209.021
423.2393, 1204.000
423.7214, 1198.261
424.2036, 1194.131
424.6857, 1191.550
425.1678, 1188.738
425.6499, 1185.322
426.1320, 1181.540
426.6141, 1177.535
427.0963, 1173.351
427.5784, 1169.218
428.0605, 1164.919
428.5426, 1160.859
429.0247, 1157.745
429.5068, 1155.623
429.9890, 1154.076
430.4711, 1153.374
430.9532, 1152.913
431.4353, 1150.935
431.9174, 1146.621
432.3995, 1141.993
432.8817, 1137.575
433.3638, 1133.625
433.8459, 1130.852
434.3280, 1129.579
434.8101, 1128.929
435.2922, 1127.652
435.7744, 1125.456
436.2565, 1123.843
436.7386, 1123.234
437.2207, 1122.911
437.7028, 1122.729
438.1849, 1122.451
438.6671, 1121.353
439.1492, 1118.822
439.6313, 1115.199
440.1134, 1112.543
440.5955, 1111.610
441.0776, 1110.733
441.5598, 1109.523
442.0418, 1108.408
442.5240, 1108.088
443.0061, 1108.641
443.4882, 1109.205
443.9703, 1108.471
444.4524, 1105.914
444.9345, 1104.565
445.4167, 1105.793
445.8988, 1106.901
446.3809, 1107.251
446.8630, 1106.734
447.3451, 1105.153
447.8272, 1102.210
448.3094, 1098.599
448.7915, 1096.016
449.2736, 1094.526
449.7557, 1093.875
450.2378, 1094.941
450.7199, 1096.188
451.2021, 1096.328
451.6842, 1095.282
452.1663, 1094.292
452.6484, 1094.881
453.1305, 1096.475
453.6126, 1096.254
454.0948, 1093.356
454.5769, 1090.311
455.0590, 1089.152
455.5411, 1089.001
456.0232, 1088.278
456.5053, 1086.062
456.9875, 1083.995
457.4696, 1083.831
457.9517, 1085.140
458.4338, 1085.855
458.9159, 1085.132
459.3980, 1083.855
459.8802, 1083.518
460.3623, 1084.271
460.8444, 1084.331
461.3265, 1082.647
461.8086, 1080.633
462.2907, 1079.477
462.7729, 1079.234
463.2550, 1079.585
463.7371, 1080.460
464.2192, 1081.660
464.7013, 1082.038
465.1834, 1080.846
465.6656, 1079.847
466.1477, 1079.608
466.6298, 1079.524
467.1119, 1078.784
467.5940, 1077.274
468.0761, 1075.724
468.5583, 1075.037
469.0404, 1075.345
469.5225, 1075.635
470.0046, 1075.926
470.4867, 1076.180
470.9688, 1075.756
471.4510, 1075.423
471.9331, 1076.722
472.4152, 1080.558
472.8973, 1085.210
473.3794, 1087.106
473.8615, 1085.443
474.3437, 1084.432
474.8258, 1085.551
475.3079, 1086.973
475.7900, 1087.683
476.2721, 1087.661
476.7542, 1087.280
477.2364, 1086.602
477.7185, 1085.757
478.2006, 1084.994
478.6827, 1084.309
479.1648, 1083.804
479.6469, 1083.689
480.1291, 1083.728
480.6112, 1083.490
481.0933, 1082.890
481.5754, 1082.224
482.0575, 1081.708
482.5396, 1081.218
483.0217, 1080.494
483.5038, 1079.481
483.9860, 1078.377
484.4681, 1077.524
484.9502, 1076.917
485.4323, 1075.103
485.9144, 1070.792
486.3965, 1066.723
486.8787, 1064.015
487.3608, 1062.353
487.8429, 1061.176
488.3250, 1060.253
488.8071, 1059.483
489.2892, 1058.787
489.7714, 1058.640
490.2535, 1057.304
490.7356, 1053.463
491.2177, 1049.860
491.6998, 1048.120
492.1819, 1047.803
492.6641, 1047.633
493.1462, 1046.872
493.6283, 1045.578
494.1104, 1043.726
494.5925, 1040.822
495.0746, 1038.722
495.5568, 1038.750
496.0389, 1039.131
496.5210, 1038.631
497.0031, 1037.173
497.4852, 1035.469
497.9673, 1033.952
498.4495, 1032.577
498.9316, 1031.277
499.4137, 1030.092
499.8958, 1028.758
500.3779, 1026.818
500.8600, 1024.724
501.3422, 1023.466
501.8243, 1023.482
502.3064, 1023.467
502.7885, 1022.977
503.2706, 1021.963
503.7527, 1020.025
504.2349, 1017.063
504.7170, 1014.310
505.1991, 1013.147
505.6812, 1013.694
506.1633, 1013.220
506.6454, 1010.839
507.1276, 1008.544
507.6097, 1007.085
508.0918, 1006.181
508.5739, 1005.391
509.0560, 1004.545
509.5381, 1003.709
510.0203, 1002.961
510.5024, 1002.225
510.9845, 1001.844
511.4666, 1002.615
511.9487, 1002.947
512.4308, 1002.160
512.9130, 1000.473
513.3951, 998.2532
513.8772, 995.5208
514.3593, 992.8358
514.8414, 991.4004
515.3235, 991.4033
515.8057, 991.1676
516.2878, 990.3002
516.7699, 989.0579
517.2520, 987.5330
517.7341, 985.7892
518.2162, 984.2591
518.6984, 983.2488
519.1805, 982.4676
519.6626, 981.6298
520.1447, 980.7134
520.6268, 979.4777
521.1089, 977.6157
521.5911, 975.5907
522.0732, 974.7074
522.5553, 975.6205
523.0374, 975.5780
523.5195, 973.4648
524.0016, 970.6751
524.4838, 968.2760
524.9659, 966.4026
525.4480, 964.8305
525.9301, 963.4180
526.4122, 962.1730
526.8943, 961.1169
527.3765, 960.5869
527.8586, 959.7689
528.3407, 958.3030
528.8228, 956.7375
529.3049, 955.4368
529.7870, 954.4886
530.2692, 953.9023
530.7513, 953.8640
531.2334, 954.2188
531.7155, 953.9482
532.1976, 952.7291
532.6797, 951.6469
533.1619, 951.4850
533.6440, 951.5389
534.1261, 951.0957
534.6082, 950.0301
535.0903, 948.6511
535.5724, 946.8669
536.0546, 944.9679
536.5367, 943.5624
537.0188, 942.7332
537.5009, 942.3089
537.9830, 942.4153
538.4651, 942.8179
538.9473, 942.2912
539.4294, 939.8448
539.9115, 937.7933
540.3936, 937.1992
540.8757, 937.1450
541.3578, 936.3060
541.8400, 934.5219
542.3221, 932.8572
542.8042, 932.4273
543.2863, 933.2496
543.7684, 934.2652
544.2505, 937.0439
544.7326, 938.0311
545.2147, 935.1748
545.6968, 930.8972
546.1790, 927.6696
546.6611, 926.1590
547.1432, 925.7490
547.6253, 926.5344
548.1074, 928.2726
548.5895, 927.7740
549.0717, 923.8422
549.5538, 919.9958
550.0359, 918.4227
550.5180, 918.2631
551.0001, 918.4570
551.4822, 919.0792
551.9644, 919.4373
552.4465, 918.8499
552.9286, 917.7326
553.4107, 916.9818
553.8928, 916.7753
554.3749, 916.6379
554.8571, 916.1286
555.3392, 915.2560
555.8213, 914.5479
556.3034, 914.2737
556.7855, 913.8080
557.2676, 912.9509
557.7498, 911.8292
558.2319, 910.4911
558.7140, 909.0009
559.1961, 907.6453
559.6782, 906.7709
560.1603, 906.3900
560.6425, 905.9328
561.1246, 905.6230
561.6067, 904.8876
562.0888, 903.2536
562.5709, 901.3058
563.0530, 899.6719
563.5352, 898.5081
564.0173, 897.6056
564.4994, 896.7906
564.9815, 896.0956
565.4636, 895.7648
565.9457, 895.9464
566.4279, 895.7542
566.9100, 894.0186
567.3921, 891.5576
567.8742, 891.2240
568.3563, 894.7686
568.8384, 897.5067
569.3206, 897.4851
569.8027, 895.9746
570.2848, 894.2336
570.7669, 892.5932
571.2490, 891.2474
571.7311, 890.4557
572.2133, 890.1231
572.6954, 889.2170
573.1775, 886.5350
573.6596, 884.9638
574.1417, 885.5355
574.6238, 886.8632
575.1060, 887.8950
575.5881, 888.4315
576.0702, 888.6669
576.5523, 888.6390
577.0344, 888.4525
577.5165, 888.4536
577.9987, 888.6164
578.4808, 889.1285
578.9629, 890.5160
579.4450, 891.9869
579.9271, 892.2477
580.4092, 891.0410
580.8914, 890.3336
581.3735, 891.1545
581.8556, 892.6672
582.3377, 894.1667
582.8198, 895.5159
583.3019, 896.4525
583.7841, 896.7751
584.2662, 896.6986
584.7483, 896.8083
