##NAMES=Vesuvianite
##RRUFFID=R070226
##IDEAL CHEMISTRY=(Ca,Na)_19_(Al,Mg,Fe^3+^)_13_(SiO_4_)_10_(Si_2_O_7_)_4_(OH,F,O)_10_
##LOCALITY=Lupikko Mine, Pitkyaranta (Pitkäranta) District, Ladoga Region, Karelia Republic,  Northern Region, Russia
##OWNER=RRUFF
##SOURCE=Michael Scott
##DESCRIPTION=Aggregate of gray prismatic crystals associated with calcite
##STATUS=The identification of this mineral is confirmed by single-crystal X-ray diffraction and chemical analysis.
##URL=rruff.info/R070226
##MEASURED CHEMISTRY=(Ca_18.48_Mn_0.10_[box]_0.32_)_Σ=19_(Al_9.84_Mg_1.77_Fe^2+^_1.39_)_Σ=13_(Si_1.00_O_4_)_10_(Si_2.00_O_7_)_4_O((OH)_5.53_F_3.11_Cl_0.36_)_Σ=9_; 
167.5002, 6509.380
167.9823, 6562.323
168.4644, 6608.385
168.9465, 6646.435
169.4286, 6679.024
169.9107, 6705.308
170.3929, 6727.245
170.8750, 6749.661
171.3571, 6778.861
171.8392, 6807.854
172.3213, 6828.274
172.8034, 6837.493
173.2856, 6842.676
173.7677, 6845.879
174.2498, 6849.228
174.7319, 6859.844
175.2140, 6881.756
175.6961, 6913.616
176.1783, 6956.410
176.6604, 7016.353
177.1425, 7075.496
177.6246, 7105.109
178.1067, 7109.350
178.5888, 7117.246
179.0710, 7156.959
179.5531, 7215.515
180.0352, 7263.374
180.5173, 7290.375
180.9994, 7306.095
181.4815, 7320.882
181.9637, 7335.131
182.4458, 7357.022
182.9279, 7406.277
183.4100, 7472.634
183.8921, 7517.831
184.3742, 7525.494
184.8564, 7507.471
185.3385, 7487.932
185.8206, 7466.458
186.3027, 7446.510
186.7848, 7432.250
187.2669, 7423.076
187.7491, 7414.034
188.2312, 7405.042
188.7133, 7394.968
189.1954, 7376.750
189.6775, 7348.561
190.1596, 7320.938
190.6418, 7310.958
191.1239, 7318.073
191.6060, 7318.566
192.0881, 7301.718
192.5702, 7268.972
193.0524, 7230.000
193.5345, 7181.952
194.0166, 7135.293
194.4987, 7106.122
194.9808, 7094.803
195.4629, 7095.542
195.9451, 7112.045
196.4272, 7144.005
196.9093, 7162.456
197.3914, 7164.173
197.8735, 7156.024
198.3556, 7150.063
198.8378, 7146.532
199.3199, 7143.736
199.8020, 7140.178
200.2841, 7135.633
200.7662, 7134.285
201.2483, 7136.827
201.7305, 7142.279
202.2126, 7149.175
202.6947, 7158.401
203.1768, 7165.765
203.6589, 7165.163
204.1410, 7153.613
204.6232, 7156.023
205.1053, 7177.300
205.5874, 7212.761
206.0695, 7247.794
206.5516, 7282.767
207.0337, 7316.343
207.5159, 7347.259
207.9980, 7374.135
208.4801, 7402.404
208.9622, 7433.611
209.4443, 7466.675
209.9264, 7496.353
210.4086, 7522.364
210.8907, 7545.639
211.3728, 7564.663
211.8549, 7576.035
212.3370, 7596.072
212.8191, 7630.995
213.3013, 7677.917
213.7834, 7712.242
214.2655, 7724.475
214.7476, 7739.527
215.2297, 7783.951
215.7118, 7875.594
216.1940, 7946.437
216.6761, 7973.517
217.1582, 7960.356
217.6403, 7991.555
218.1224, 8097.030
218.6045, 8206.424
219.0867, 8245.077
219.5688, 8178.248
220.0509, 8122.500
220.5330, 8107.853
221.0151, 8135.358
221.4972, 8142.221
221.9794, 8118.893
222.4615, 8085.678
222.9436, 8063.583
223.4257, 8055.332
223.9078, 8053.238
224.3899, 8060.252
224.8721, 8078.696
225.3542, 8075.673
225.8363, 8041.637
226.3184, 7995.197
226.8005, 7957.114
227.2827, 7928.984
227.7648, 7906.963
228.2469, 7892.099
228.7290, 7886.080
229.2111, 7873.347
229.6932, 7846.787
230.1754, 7819.418
230.6575, 7809.581
231.1396, 7827.958
231.6217, 7845.115
232.1038, 7852.316
232.5859, 7847.192
233.0681, 7844.674
233.5502, 7844.490
234.0323, 7847.086
234.5144, 7852.553
234.9965, 7857.860
235.4786, 7871.372
235.9608, 7898.183
236.4429, 7942.360
236.9250, 7979.178
237.4071, 8006.270
237.8892, 8027.181
238.3713, 8047.514
238.8535, 8068.300
239.3356, 8086.766
239.8177, 8101.812
240.2998, 8112.824
240.7819, 8121.959
241.2640, 8124.289
241.7462, 8127.744
242.2283, 8147.776
242.7104, 8196.095
243.1925, 8241.688
243.6746, 8273.131
244.1567, 8285.011
244.6389, 8301.524
245.1210, 8323.675
245.6031, 8349.774
246.0852, 8376.209
246.5673, 8400.173
247.0494, 8429.294
247.5316, 8467.086
248.0137, 8516.273
248.4958, 8565.560
248.9779, 8616.201
249.4600, 8665.989
249.9421, 8708.259
250.4243, 8736.648
250.9064, 8769.411
251.3885, 8814.004
251.8706, 8874.256
252.3527, 8935.360
252.8348, 9001.003
253.3170, 9065.114
253.7991, 9115.827
254.2812, 9151.044
254.7633, 9175.841
255.2454, 9190.039
255.7275, 9189.632
256.2097, 9193.795
256.6918, 9206.470
257.1739, 9220.976
257.6560, 9225.680
258.1381, 9220.816
258.6202, 9205.584
259.1024, 9179.929
259.5845, 9144.827
260.0666, 9094.501
260.5487, 9020.790
261.0308, 8938.151
261.5129, 8870.378
261.9951, 8821.955
262.4772, 8779.045
262.9593, 8735.780
263.4414, 8689.367
263.9235, 8655.926
264.4056, 8641.195
264.8878, 8633.707
265.3699, 8611.786
265.8520, 8570.606
266.3341, 8528.140
266.8162, 8488.780
267.2983, 8451.600
267.7805, 8426.361
268.2626, 8415.608
268.7447, 8414.280
269.2268, 8415.877
269.7089, 8422.620
270.1910, 8424.152
270.6732, 8411.157
271.1553, 8380.114
271.6374, 8372.928
272.1195, 8396.585
272.6016, 8433.873
273.0837, 8453.115
273.5659, 8449.210
274.0480, 8453.861
274.5301, 8485.479
275.0122, 8545.462
275.4943, 8584.264
275.9764, 8594.959
276.4586, 8597.500
276.9407, 8622.289
277.4228, 8670.777
277.9049, 8725.792
278.3870, 8784.737
278.8691, 8846.918
279.3513, 8893.942
279.8334, 8922.289
280.3155, 8944.534
280.7976, 8976.276
281.2798, 9017.357
281.7619, 9065.431
282.2440, 9124.962
282.7261, 9192.958
283.2082, 9242.938
283.6903, 9270.955
284.1725, 9295.494
284.6546, 9345.091
285.1367, 9418.059
285.6188, 9480.904
286.1009, 9518.935
286.5830, 9536.923
287.0652, 9554.890
287.5473, 9572.928
288.0294, 9589.401
288.5115, 9602.368
288.9936, 9612.018
289.4757, 9619.406
289.9579, 9623.551
290.4400, 9626.057
290.9221, 9637.925
291.4042, 9660.949
291.8863, 9670.929
292.3684, 9628.235
292.8506, 9546.403
293.3327, 9484.749
293.8148, 9474.434
294.2969, 9488.188
294.7790, 9469.289
295.2611, 9417.542
295.7433, 9361.389
296.2254, 9331.465
296.7075, 9316.794
297.1896, 9286.665
297.6717, 9221.642
298.1538, 9145.018
298.6360, 9092.662
299.1181, 9062.886
299.6002, 9041.349
300.0823, 9018.250
300.5644, 8995.143
301.0465, 8974.993
301.5287, 8959.863
302.0108, 8946.397
302.4929, 8929.777
302.9750, 8910.817
303.4571, 8895.117
303.9392, 8888.759
304.4214, 8887.108
304.9035, 8883.565
305.3856, 8875.457
305.8677, 8867.000
306.3498, 8859.930
306.8319, 8855.108
307.3141, 8855.554
307.7962, 8864.566
308.2783, 8879.007
308.7604, 8895.259
309.2425, 8910.134
309.7246, 8931.529
310.2068, 8977.818
310.6889, 9036.337
311.1710, 9074.864
311.6531, 9055.218
312.1352, 9023.492
312.6173, 9014.552
313.0995, 9039.343
313.5816, 9071.533
314.0637, 9102.293
314.5458, 9131.836
315.0279, 9160.824
315.5100, 9183.953
315.9922, 9210.776
316.4743, 9251.722
316.9564, 9315.494
317.4385, 9362.103
317.9206, 9350.551
318.4027, 9320.228
318.8849, 9326.178
319.3670, 9430.141
319.8491, 9531.572
320.3312, 9590.293
320.8133, 9596.912
321.2954, 9600.856
321.7776, 9607.251
322.2597, 9617.468
322.7418, 9632.969
323.2239, 9659.566
323.7060, 9685.875
324.1881, 9708.624
324.6703, 9727.297
325.1524, 9747.892
325.6345, 9775.792
326.1166, 9802.898
326.5987, 9822.889
327.0808, 9828.455
327.5630, 9835.374
328.0451, 9843.061
328.5272, 9851.905
329.0093, 9871.887
329.4914, 9920.605
329.9735, 9964.087
330.4557, 9977.584
330.9378, 9932.939
331.4199, 9907.967
331.9020, 9915.840
332.3841, 9949.121
332.8662, 9972.488
333.3484, 9986.329
333.8305, 9989.311
334.3126, 9975.601
334.7947, 9932.052
335.2768, 9914.125
335.7589, 9931.493
336.2411, 9972.195
336.7232, 10009.72
337.2053, 10046.59
337.6874, 10072.06
338.1695, 10076.44
338.6516, 10056.09
339.1338, 10046.32
339.6159, 10048.75
340.0980, 10060.42
340.5801, 10077.82
341.0622, 10101.65
341.5443, 10126.62
342.0265, 10153.78
342.5086, 10181.77
342.9907, 10197.91
343.4728, 10199.69
343.9549, 10198.79
344.4370, 10211.34
344.9192, 10235.76
345.4013, 10257.67
345.8834, 10269.91
346.3655, 10276.37
346.8476, 10286.65
347.3297, 10300.75
347.8119, 10316.70
348.2940, 10329.60
348.7761, 10342.42
349.2582, 10364.31
349.7403, 10402.91
350.2225, 10447.12
350.7046, 10478.52
351.1867, 10499.26
351.6688, 10523.86
352.1509, 10574.17
352.6331, 10632.17
353.1152, 10667.09
353.5973, 10659.54
354.0794, 10651.03
354.5615, 10680.49
355.0436, 10739.89
355.5258, 10804.79
356.0079, 10863.59
356.4900, 10920.99
356.9721, 10982.03
357.4542, 11049.25
357.9363, 11114.09
358.4185, 11171.87
358.9006, 11224.00
359.3827, 11272.94
359.8648, 11304.83
360.3469, 11345.52
360.8290, 11417.36
361.3112, 11529.20
361.7933, 11621.75
362.2754, 11653.70
362.7575, 11665.83
363.2396, 11702.64
363.7217, 11798.00
364.2039, 11894.65
364.6860, 11979.15
365.1681, 12051.31
365.6502, 12117.66
366.1323, 12184.70
366.6144, 12243.33
367.0966, 12287.14
367.5787, 12287.63
368.0608, 12307.81
368.5429, 12361.91
369.0250, 12442.33
369.5071, 12510.13
369.9893, 12573.46
370.4714, 12614.70
370.9535, 12622.24
371.4356, 12579.06
371.9177, 12541.68
372.3998, 12517.26
372.8820, 12495.51
373.3641, 12451.65
373.8462, 12377.75
374.3283, 12302.79
374.8104, 12241.11
375.2925, 12194.19
375.7747, 12136.14
376.2568, 12064.42
376.7389, 11985.66
377.2210, 11910.20
377.7031, 11838.58
378.1852, 11762.11
378.6674, 11673.29
379.1495, 11577.61
379.6316, 11497.45
380.1137, 11434.95
380.5958, 11374.62
381.0779, 11293.53
381.5601, 11198.69
382.0422, 11133.59
382.5243, 11117.34
383.0064, 11121.19
383.4885, 11093.73
383.9706, 11038.96
384.4528, 10988.29
384.9349, 10969.10
385.4170, 10966.12
385.8991, 10953.10
386.3812, 10924.30
386.8633, 10890.75
387.3455, 10861.52
387.8276, 10835.44
388.3097, 10809.35
388.7918, 10780.42
389.2739, 10751.94
389.7560, 10722.86
390.2382, 10691.91
390.7203, 10674.92
391.2024, 10694.23
391.6845, 10727.51
392.1666, 10749.29
392.6487, 10746.06
393.1309, 10734.28
393.6130, 10710.04
394.0951, 10676.33
394.5772, 10665.46
395.0593, 10709.41
395.5414, 10763.73
396.0236, 10800.19
396.5057, 10785.56
396.9878, 10787.92
397.4699, 10819.93
397.9520, 10874.33
398.4341, 10928.36
398.9163, 10994.12
399.3984, 11046.77
399.8805, 11074.14
400.3626, 11063.49
400.8447, 11064.57
401.3268, 11074.81
401.8090, 11098.71
402.2911, 11149.34
402.7732, 11244.20
403.2553, 11317.85
403.7374, 11345.11
404.2195, 11329.47
404.7017, 11336.64
405.1838, 11371.68
405.6659, 11416.18
406.1480, 11456.50
406.6301, 11492.92
407.1122, 11519.98
407.5944, 11534.95
408.0765, 11541.83
408.5586, 11550.10
409.0407, 11559.73
409.5228, 11566.71
410.0049, 11568.93
410.4871, 11566.42
410.9692, 11559.90
411.4513, 11550.04
411.9334, 11533.51
412.4155, 11502.82
412.8976, 11461.39
413.3798, 11420.52
413.8619, 11392.61
414.3440, 11362.98
414.8261, 11309.96
415.3082, 11233.12
415.7903, 11161.92
416.2725, 11130.89
416.7546, 11109.94
417.2367, 11063.79
417.7188, 10965.38
418.2009, 10858.39
418.6830, 10762.31
419.1652, 10673.95
419.6473, 10585.41
420.1294, 10490.20
420.6115, 10396.14
421.0937, 10304.72
421.5758, 10213.37
422.0579, 10134.76
422.5400, 10083.20
423.0221, 10042.60
423.5042, 9985.048
423.9864, 9880.555
424.4685, 9792.702
424.9506, 9743.167
425.4327, 9737.512
425.9148, 9704.666
426.3969, 9627.546
426.8791, 9542.753
427.3612, 9483.473
427.8433, 9457.192
428.3254, 9433.892
428.8075, 9411.585
429.2896, 9388.776
429.7718, 9360.887
430.2539, 9327.639
430.7360, 9290.795
431.2181, 9248.879
431.7002, 9202.670
432.1823, 9163.357
432.6645, 9131.446
433.1466, 9106.499
433.6287, 9089.382
434.1108, 9079.406
434.5929, 9073.466
435.0750, 9073.334
435.5572, 9075.219
436.0393, 9073.426
436.5214, 9067.916
437.0035, 9057.856
437.4856, 9036.555
437.9677, 9012.166
438.4499, 8996.638
438.9320, 8995.909
439.4141, 8999.784
439.8962, 9002.848
440.3783, 9005.029
440.8604, 9006.228
441.3426, 8993.743
441.8247, 8989.839
442.3068, 9015.872
442.7889, 9085.379
443.2710, 9130.260
443.7531, 9106.856
444.2353, 9059.475
444.7174, 9036.705
445.1995, 9076.273
445.6816, 9107.312
446.1637, 9111.009
446.6458, 9090.981
447.1280, 9087.302
447.6101, 9109.966
448.0922, 9138.052
448.5743, 9159.826
449.0564, 9172.388
449.5385, 9188.011
450.0207, 9211.123
450.5028, 9233.669
450.9849, 9235.290
451.4670, 9209.897
451.9491, 9194.729
452.4312, 9209.388
452.9134, 9248.870
453.3955, 9273.557
453.8776, 9282.135
454.3597, 9284.934
454.8418, 9289.718
455.3239, 9296.666
455.8061, 9306.971
456.2882, 9322.993
456.7703, 9339.413
457.2524, 9341.106
457.7345, 9333.877
458.2166, 9336.338
458.6988, 9352.901
459.1809, 9362.986
459.6630, 9366.941
460.1451, 9346.408
460.6272, 9357.496
461.1093, 9355.912
461.5915, 9357.448
462.0736, 9357.785
462.5557, 9340.414
463.0378, 9320.912
463.5199, 9300.104
464.0020, 9279.872
464.4842, 9272.479
464.9663, 9294.597
465.4484, 9319.932
465.9305, 9335.930
466.4126, 9350.493
466.8947, 9339.905
467.3769, 9282.288
467.8590, 9209.207
468.3411, 9173.480
468.8232, 9192.325
469.3053, 9215.412
469.7874, 9231.907
470.2696, 9241.762
470.7517, 9242.981
471.2338, 9234.030
471.7159, 9221.242
472.1980, 9207.079
472.6801, 9191.755
473.1623, 9188.904
473.6444, 9206.256
474.1265, 9225.410
474.6086, 9207.037
475.0907, 9157.168
475.5728, 9114.817
476.0550, 9102.022
476.5371, 9109.401
477.0192, 9127.187
477.5013, 9155.314
477.9834, 9178.311
478.4655, 9181.133
478.9477, 9172.612
479.4298, 9163.813
479.9119, 9153.183
480.3940, 9149.040
480.8761, 9160.670
481.3582, 9182.921
481.8404, 9200.872
482.3225, 9209.220
482.8046, 9212.517
483.2867, 9211.922
483.7688, 9205.892
484.2509, 9201.701
484.7331, 9198.084
485.2152, 9197.596
485.6973, 9202.847
486.1794, 9216.211
486.6615, 9231.647
487.1436, 9250.435
487.6258, 9270.831
488.1079, 9282.996
488.5900, 9283.175
489.0721, 9285.323
489.5542, 9297.054
490.0363, 9318.434
490.5185, 9345.995
491.0006, 9381.996
491.4827, 9415.579
491.9648, 9429.815
492.4470, 9427.608
492.9291, 9424.143
493.4112, 9424.007
493.8933, 9425.944
494.3754, 9423.685
494.8575, 9419.396
495.3397, 9426.813
495.8218, 9472.732
496.3039, 9526.697
496.7860, 9552.854
497.2681, 9540.866
497.7502, 9523.021
498.2324, 9511.928
498.7145, 9506.604
499.1966, 9505.522
499.6787, 9510.154
500.1608, 9517.114
500.6429, 9526.631
501.1251, 9538.396
501.6072, 9548.299
502.0893, 9555.104
502.5714, 9560.971
503.0535, 9567.454
503.5356, 9577.599
504.0178, 9580.145
504.4999, 9570.144
504.9820, 9557.040
505.4641, 9556.011
505.9462, 9569.200
506.4283, 9584.134
506.9105, 9601.481
507.3926, 9616.808
507.8747, 9606.015
508.3568, 9567.460
508.8389, 9532.247
509.3210, 9530.598
509.8032, 9549.743
510.2853, 9551.306
510.7674, 9526.697
511.2495, 9500.788
511.7316, 9503.010
512.2137, 9522.602
512.6959, 9537.602
513.1780, 9543.991
513.6601, 9538.585
514.1422, 9510.133
514.6243, 9463.220
515.1064, 9428.521
515.5886, 9427.013
516.0707, 9435.113
516.5528, 9438.635
517.0349, 9433.112
517.5170, 9428.629
517.9991, 9430.825
518.4813, 9432.761
518.9634, 9425.524
519.4455, 9406.689
519.9276, 9382.263
520.4097, 9349.468
520.8918, 9311.433
521.3740, 9285.091
521.8561, 9271.291
522.3382, 9266.382
522.8203, 9275.088
523.3024, 9295.589
523.7845, 9293.438
524.2667, 9262.174
524.7488, 9225.462
525.2309, 9212.695
525.7130, 9218.584
526.1951, 9225.245
526.6772, 9228.949
527.1594, 9228.035
527.6415, 9216.563
528.1236, 9197.326
528.6057, 9182.315
529.0878, 9176.841
529.5699, 9179.398
530.0521, 9192.706
530.5342, 9221.801
531.0163, 9240.493
531.4984, 9231.172
531.9805, 9211.331
532.4626, 9199.568
532.9448, 9210.146
533.4269, 9214.437
533.9090, 9202.751
534.3911, 9181.748
534.8732, 9180.144
535.3553, 9211.345
535.8375, 9236.557
536.3196, 9232.721
536.8017, 9197.226
537.2838, 9190.481
537.7659, 9218.148
538.2480, 9255.764
538.7302, 9279.138
539.2123, 9289.571
539.6944, 9294.004
540.1765, 9292.558
540.6586, 9288.344
541.1407, 9284.037
541.6229, 9280.275
542.1050, 9279.235
542.5871, 9285.218
543.0692, 9292.395
543.5513, 9292.668
544.0334, 9285.783
544.5156, 9286.085
544.9977, 9312.789
545.4798, 9342.270
545.9619, 9354.962
546.4440, 9332.229
546.9261, 9314.916
547.4083, 9306.095
547.8904, 9306.766
548.3725, 9320.368
548.8546, 9363.183
549.3367, 9391.838
549.8188, 9391.141
550.3010, 9364.267
550.7831, 9348.810
551.2652, 9346.909
551.7473, 9349.294
552.2294, 9351.064
552.7115, 9351.979
553.1937, 9348.703
553.6758, 9340.260
554.1579, 9330.577
554.6400, 9322.295
555.1221, 9316.477
555.6042, 9316.644
556.0864, 9329.519
556.5685, 9343.344
557.0506, 9345.743
557.5327, 9339.122
558.0148, 9332.333
558.4969, 9331.741
558.9791, 9330.749
559.4612, 9322.210
559.9433, 9301.561
560.4254, 9293.685
560.9075, 9316.682
561.3896, 9346.805
561.8718, 9363.018
562.3539, 9354.543
562.8360, 9350.820
563.3181, 9357.094
563.8002, 9367.956
564.2823, 9368.249
564.7645, 9354.470
565.2466, 9346.181
565.7287, 9354.672
566.2108, 9375.274
566.6929, 9381.213
567.1750, 9371.611
567.6572, 9366.157
568.1393, 9387.484
568.6214, 9423.831
569.1035, 9450.260
569.5856, 9461.379
570.0677, 9469.491
570.5499, 9483.002
571.0320, 9500.784
571.5141, 9521.121
571.9962, 9536.597
572.4783, 9561.227
572.9604, 9611.787
573.4426, 9680.349
573.9247, 9727.479
574.4068, 9733.493
574.8889, 9728.018
575.3710, 9716.362
575.8531, 9691.811
576.3353, 9698.117
576.8174, 9744.217
577.2995, 9807.844
577.7816, 9875.101
578.2637, 9947.931
578.7458, 9995.871
579.2280, 10007.15
579.7101, 10005.19
580.1922, 10034.44
580.6743, 10089.84
581.1564, 10142.70
581.6385, 10178.01
582.1207, 10204.31
582.6028, 10226.82
583.0849, 10247.04
583.5670, 10278.01
584.0491, 10349.84
584.5313, 10421.16
585.0134, 10454.89
585.4955, 10431.32
585.9776, 10416.59
586.4597, 10427.09
586.9418, 10455.31
587.4240, 10493.80
587.9061, 10559.75
588.3882, 10608.43
588.8703, 10631.90
589.3524, 10635.90
589.8345, 10634.17
590.3167, 10623.35
590.7988, 10619.81
591.2809, 10631.10
591.7630, 10655.57
592.2451, 10688.85
592.7272, 10731.48
593.2094, 10769.74
593.6915, 10790.39
594.1736, 10798.91
594.6557, 10802.87
595.1378, 10800.50
595.6199, 10806.16
596.1021, 10834.68
596.5842, 10876.99
597.0663, 10920.32
597.5485, 10959.25
598.0306, 10999.13
598.5127, 11048.72
598.9948, 11102.48
599.4769, 11136.30
599.9590, 11121.10
600.4412, 11119.97
600.9233, 11155.98
601.4054, 11231.71
601.8875, 11310.05
602.3696, 11397.40
602.8517, 11470.21
603.3339, 11479.60
603.8160, 11379.78
604.2981, 11497.93
604.7802, 11585.35
605.2623, 11643.70
605.7444, 11585.88
606.2266, 11678.07
606.7087, 11710.14
607.1908, 11739.75
607.6729, 11813.44
608.1550, 11880.31
608.6371, 11961.62
609.1193, 12026.42
609.6014, 12037.84
610.0835, 12050.32
610.5656, 12092.59
611.0477, 12171.22
611.5298, 12242.43
612.0120, 12306.35
612.4941, 12360.33
612.9762, 12399.24
613.4583, 12416.03
613.9404, 12445.67
614.4225, 12496.47
614.9047, 12547.85
615.3868, 12559.68
615.8689, 12536.58
616.3510, 12539.45
616.8331, 12593.00
617.3152, 12672.27
617.7974, 12750.63
618.2795, 12824.30
618.7616, 12883.01
619.2437, 12901.22
619.7258, 12916.75
620.2079, 12965.68
620.6901, 13049.12
621.1722, 13118.47
621.6543, 13132.81
622.1364, 13144.60
622.6185, 13190.96
623.1006, 13301.71
623.5828, 13383.94
624.0649, 13420.21
624.5470, 13443.98
625.0291, 13495.98
625.5112, 13580.67
625.9933, 13672.79
626.4755, 13773.22
626.9576, 13869.88
627.4397, 13932.18
627.9218, 13963.61
628.4039, 13990.81
628.8860, 14026.16
629.3682, 14065.33
629.8503, 14100.35
630.3324, 14132.38
630.8145, 14169.58
631.2966, 14218.83
631.7787, 14273.00
632.2609, 14334.22
632.7430, 14414.03
633.2251, 14455.84
633.7072, 14405.45
634.1893, 14338.58
634.6714, 14320.64
635.1536, 14385.39
635.6357, 14423.72
636.1178, 14421.56
636.5999, 14395.76
637.0820, 14378.75
637.5641, 14371.46
638.0463, 14350.39
638.5284, 14305.33
639.0105, 14243.92
639.4926, 14176.40
639.9747, 14103.61
640.4568, 14032.68
640.9390, 13978.00
641.4211, 13919.52
641.9032, 13831.75
642.3853, 13713.35
642.8674, 13603.59
643.3495, 13532.41
643.8317, 13466.06
644.3138, 13377.92
644.7959, 13239.85
645.2780, 13130.89
645.7601, 13064.32
646.2422, 13015.48
646.7244, 12958.18
647.2065, 12894.70
647.6886, 12810.54
648.1707, 12696.25
648.6528, 12571.16
649.1349, 12474.76
649.6171, 12403.91
650.0992, 12333.40
650.5813, 12240.61
651.0634, 12148.43
651.5455, 12087.62
652.0276, 12053.88
652.5098, 12027.09
652.9919, 12011.29
653.4740, 11987.55
653.9561, 11939.28
654.4382, 11859.21
654.9203, 11789.72
655.4025, 11736.60
655.8846, 11694.97
656.3667, 11664.40
656.8488, 11651.19
657.3309, 11629.79
