##NAMES=Vesuvianite
##RRUFFID=R050056
##IDEAL CHEMISTRY=(Ca,Na)_19_(Al,Mg,Fe^3+^)_13_(SiO_4_)_10_(Si_2_O_7_)_4_(OH,F,O)_10_
##LOCALITY=Jeffrey Quarry, Asbestos, Quebec, Canada
##OWNER=RRUFF
##SOURCE=Tony Gordian
##DESCRIPTION=Green prismatic single crystal
##STATUS=The identification of this mineral has been confirmed by X-ray diffraction and chemical analysis
##URL=rruff.info/R050056
##MEASURED CHEMISTRY=Ca_19_(Al_.804_Mg_.149_Fe_.045_Mn_.002_)_13_Si_18_O_68_(OH)_10_
113.5031, 57.05567
113.9852, 60.26973
114.4673, 64.03792
114.9494, 67.72385
115.4315, 71.38454
115.9136, 75.75089
116.3958, 81.25436
116.8779, 87.55006
117.3600, 94.29514
117.8421, 102.1136
118.3242, 109.8044
118.8063, 116.6094
119.2885, 122.4337
119.7706, 127.9558
120.2527, 131.9859
120.7348, 136.0415
121.2169, 142.9285
121.6990, 155.2861
122.1812, 170.5182
122.6633, 185.9931
123.1454, 201.2668
123.6275, 217.0371
124.1096, 233.3179
124.5917, 250.4166
125.0739, 269.5872
125.5560, 292.0538
126.0381, 317.0590
126.5202, 343.6735
127.0023, 371.9311
127.4844, 401.4190
127.9666, 431.9500
128.4487, 463.5090
128.9308, 495.0317
129.4129, 525.7729
129.8950, 555.7872
130.3772, 583.5757
130.8593, 607.3392
131.3414, 628.7965
131.8235, 654.5234
132.3056, 684.8010
132.7877, 717.0427
133.2699, 746.6630
133.7520, 773.5156
134.2341, 804.5075
134.7162, 844.8650
135.1983, 894.7775
135.6804, 939.5540
136.1626, 978.8444
136.6447, 1012.787
137.1268, 1040.581
137.6089, 1061.011
138.0910, 1078.813
138.5731, 1096.980
139.0553, 1117.361
139.5374, 1130.074
140.0195, 1132.469
140.5016, 1127.054
140.9837, 1123.321
141.4658, 1121.689
141.9480, 1121.022
142.4301, 1120.699
142.9122, 1121.078
143.3943, 1120.908
143.8764, 1118.984
144.3585, 1115.432
144.8407, 1115.968
145.3228, 1120.520
145.8049, 1129.235
146.2870, 1142.425
146.7691, 1162.077
147.2512, 1183.343
147.7334, 1205.125
148.2155, 1227.405
148.6976, 1251.226
149.1797, 1275.073
149.6618, 1300.985
150.1439, 1331.377
150.6261, 1370.295
151.1082, 1409.712
151.5903, 1446.667
152.0724, 1477.748
152.5545, 1513.704
153.0366, 1555.283
153.5188, 1602.095
154.0009, 1653.152
154.4830, 1712.787
154.9651, 1773.841
155.4472, 1833.909
155.9293, 1893.467
156.4115, 1950.550
156.8936, 2000.688
157.3757, 2047.140
157.8578, 2101.845
158.3399, 2172.056
158.8221, 2249.335
159.3042, 2328.928
159.7863, 2420.471
160.2684, 2503.553
160.7505, 2571.055
161.2326, 2624.241
161.7148, 2667.858
162.1969, 2704.078
162.6790, 2731.840
163.1611, 2749.762
163.6432, 2755.851
164.1253, 2753.550
164.6075, 2743.187
165.0896, 2724.721
165.5717, 2702.620
166.0538, 2675.339
166.5359, 2646.670
167.0180, 2621.952
167.5002, 2606.492
167.9823, 2593.645
168.4644, 2577.361
168.9465, 2556.394
169.4286, 2537.603
169.9107, 2524.172
170.3929, 2516.598
170.8750, 2515.607
171.3571, 2531.005
171.8392, 2549.141
172.3213, 2553.764
172.8034, 2540.104
173.2856, 2521.828
173.7677, 2512.230
174.2498, 2508.841
174.7319, 2503.377
175.2140, 2487.126
175.6961, 2466.475
176.1783, 2451.163
176.6604, 2443.424
177.1425, 2440.987
177.6246, 2443.481
178.1067, 2450.131
178.5888, 2456.066
179.0710, 2458.474
179.5531, 2457.522
180.0352, 2453.303
180.5173, 2445.482
180.9994, 2434.793
181.4815, 2422.758
181.9637, 2409.244
182.4458, 2393.433
182.9279, 2374.049
183.4100, 2351.530
183.8921, 2327.255
184.3742, 2301.583
184.8564, 2274.362
185.3385, 2244.791
185.8206, 2212.302
186.3027, 2181.246
186.7848, 2158.309
187.2669, 2142.098
187.7491, 2121.050
188.2312, 2086.723
188.7133, 2044.366
189.1954, 2013.344
189.6775, 1994.941
190.1596, 1983.119
190.6418, 1970.335
191.1239, 1956.763
191.6060, 1946.666
192.0881, 1941.553
192.5702, 1941.354
193.0524, 1946.369
193.5345, 1957.559
194.0166, 1971.400
194.4987, 1981.352
194.9808, 1986.986
195.4629, 1995.270
195.9451, 2010.597
196.4272, 2032.992
196.9093, 2054.164
197.3914, 2074.691
197.8735, 2092.682
198.3556, 2102.883
198.8378, 2103.970
199.3199, 2105.479
199.8020, 2111.491
200.2841, 2121.863
200.7662, 2138.031
201.2483, 2160.268
201.7305, 2188.172
202.2126, 2222.069
202.6947, 2263.370
203.1768, 2305.402
203.6589, 2344.538
204.1410, 2380.233
204.6232, 2414.028
205.1053, 2444.989
205.5874, 2474.583
206.0695, 2508.390
206.5516, 2547.954
207.0337, 2587.669
207.5159, 2622.811
207.9980, 2650.815
208.4801, 2683.685
208.9622, 2724.527
209.4443, 2771.295
209.9264, 2813.807
210.4086, 2851.002
210.8907, 2886.223
211.3728, 2922.926
211.8549, 2964.250
212.3370, 2996.840
212.8191, 3016.340
213.3013, 3024.535
213.7834, 3039.230
214.2655, 3065.040
214.7476, 3089.990
215.2297, 3102.469
215.7118, 3097.965
216.1940, 3094.015
216.6761, 3095.089
217.1582, 3100.691
217.6403, 3099.534
218.1224, 3091.527
218.6045, 3076.948
219.0867, 3052.918
219.5688, 3010.388
220.0509, 2980.743
220.5330, 2974.511
221.0151, 2992.230
221.4972, 3002.729
221.9794, 3002.735
222.4615, 2999.287
222.9436, 3000.707
223.4257, 3011.495
223.9078, 3017.642
224.3899, 3013.981
224.8721, 2999.213
225.3542, 2991.392
225.8363, 2993.096
226.3184, 2999.224
226.8005, 3004.188
227.2827, 3008.542
227.7648, 3010.682
228.2469, 3011.031
228.7290, 3010.291
229.2111, 3001.425
229.6932, 2978.120
230.1754, 2951.910
230.6575, 2938.919
231.1396, 2948.265
231.6217, 2954.836
232.1038, 2950.920
232.5859, 2934.144
233.0681, 2919.493
233.5502, 2906.968
234.0323, 2896.604
234.5144, 2888.405
234.9965, 2882.837
235.4786, 2878.830
235.9608, 2876.860
236.4429, 2878.194
236.9250, 2875.829
237.4071, 2869.081
237.8892, 2859.052
238.3713, 2846.644
238.8535, 2827.999
239.3356, 2813.544
239.8177, 2808.302
240.2998, 2816.546
240.7819, 2817.024
241.2640, 2805.759
241.7462, 2789.051
242.2283, 2776.557
242.7104, 2764.670
243.1925, 2763.072
243.6746, 2777.210
244.1567, 2813.482
244.6389, 2843.189
245.1210, 2860.642
245.6031, 2874.838
246.0852, 2901.236
246.5673, 2941.276
247.0494, 2991.150
247.5316, 3050.709
248.0137, 3122.544
248.4958, 3194.640
248.9779, 3260.748
249.4600, 3330.347
249.9421, 3422.954
250.4243, 3557.047
250.9064, 3682.011
251.3885, 3774.696
251.8706, 3819.299
252.3527, 3888.001
252.8348, 3994.629
253.3170, 4116.544
253.7991, 4211.361
254.2812, 4275.405
254.7633, 4317.645
255.2454, 4341.489
255.7275, 4347.894
256.2097, 4329.980
256.6918, 4280.549
257.1739, 4211.995
257.6560, 4145.417
258.1381, 4080.068
258.6202, 4018.053
259.1024, 3961.448
259.5845, 3914.448
260.0666, 3855.946
260.5487, 3777.699
261.0308, 3694.349
261.5129, 3631.269
261.9951, 3596.237
262.4772, 3564.140
262.9593, 3523.831
263.4414, 3470.580
263.9235, 3429.875
264.4056, 3401.652
264.8878, 3385.669
265.3699, 3383.223
265.8520, 3399.076
266.3341, 3414.710
266.8162, 3419.804
267.2983, 3410.055
267.7805, 3419.525
268.2626, 3455.885
268.7447, 3502.887
269.2268, 3528.836
269.7089, 3525.573
270.1910, 3530.539
270.6732, 3563.145
271.1553, 3627.497
271.6374, 3678.201
272.1195, 3714.371
272.6016, 3738.257
273.0837, 3750.145
273.5659, 3748.108
274.0480, 3744.326
274.5301, 3743.527
275.0122, 3745.867
275.4943, 3747.045
275.9764, 3747.378
276.4586, 3745.949
276.9407, 3740.232
277.4228, 3729.655
277.9049, 3720.240
278.3870, 3712.305
278.8691, 3706.214
279.3513, 3710.475
279.8334, 3725.514
280.3155, 3749.813
280.7976, 3782.888
281.2798, 3824.661
281.7619, 3870.557
282.2440, 3922.555
282.7261, 3978.708
283.2082, 4023.603
283.6903, 4056.274
284.1725, 4081.239
284.6546, 4101.350
285.1367, 4116.718
285.6188, 4135.038
286.1009, 4162.984
286.5830, 4196.447
287.0652, 4218.222
287.5473, 4227.861
288.0294, 4227.364
288.5115, 4218.840
288.9936, 4202.033
289.4757, 4175.388
289.9579, 4133.685
290.4400, 4082.857
290.9221, 4039.726
291.4042, 4005.001
291.8863, 3969.124
292.3684, 3917.189
292.8506, 3854.121
293.3327, 3800.849
293.8148, 3767.807
294.2969, 3746.032
294.7790, 3713.081
295.2611, 3668.813
295.7433, 3633.462
296.2254, 3632.595
296.7075, 3655.248
297.1896, 3669.993
297.6717, 3662.804
298.1538, 3647.679
298.6360, 3647.491
299.1181, 3661.041
299.6002, 3674.167
300.0823, 3673.341
300.5644, 3664.769
301.0465, 3659.910
301.5287, 3661.048
302.0108, 3667.995
302.4929, 3684.302
302.9750, 3708.273
303.4571, 3729.267
303.9392, 3739.677
304.4214, 3743.082
304.9035, 3744.032
305.3856, 3742.167
305.8677, 3740.382
306.3498, 3744.784
306.8319, 3752.489
307.3141, 3753.294
307.7962, 3732.635
308.2783, 3706.130
308.7604, 3690.001
309.2425, 3692.152
309.7246, 3695.591
310.2068, 3686.270
310.6889, 3669.347
311.1710, 3658.103
311.6531, 3663.634
312.1352, 3674.418
312.6173, 3680.531
313.0995, 3676.634
313.5816, 3678.863
314.0637, 3702.445
314.5458, 3737.007
315.0279, 3763.195
315.5100, 3763.508
315.9922, 3761.101
316.4743, 3768.886
316.9564, 3790.531
317.4385, 3813.338
317.9206, 3836.566
318.4027, 3857.674
318.8849, 3873.115
319.3670, 3879.721
319.8491, 3882.445
320.3312, 3880.229
320.8133, 3870.826
321.2954, 3870.163
321.7776, 3885.944
322.2597, 3910.139
322.7418, 3934.190
323.2239, 3958.446
323.7060, 3980.876
324.1881, 4000.512
324.6703, 4017.113
325.1524, 4033.803
325.6345, 4050.470
326.1166, 4067.286
326.5987, 4084.488
327.0808, 4098.068
327.5630, 4116.812
328.0451, 4145.219
328.5272, 4182.533
329.0093, 4212.162
329.4914, 4227.886
329.9735, 4240.914
330.4557, 4258.054
330.9378, 4279.240
331.4199, 4305.595
331.9020, 4343.921
332.3841, 4388.718
332.8662, 4411.597
333.3484, 4402.478
333.8305, 4386.386
334.3126, 4378.173
334.7947, 4384.066
335.2768, 4378.300
335.7589, 4356.490
336.2411, 4324.056
336.7232, 4293.476
337.2053, 4265.173
337.6874, 4238.127
338.1695, 4213.528
338.6516, 4192.842
339.1338, 4161.851
339.6159, 4116.915
340.0980, 4067.439
340.5801, 4029.898
341.0622, 4004.507
341.5443, 3985.305
342.0265, 3968.661
342.5086, 3955.274
342.9907, 3950.854
343.4728, 3955.983
343.9549, 3967.978
344.4370, 3986.154
344.9192, 4009.676
345.4013, 4031.332
345.8834, 4046.342
346.3655, 4058.025
346.8476, 4073.079
347.3297, 4091.307
347.8119, 4115.765
348.2940, 4155.812
348.7761, 4205.257
349.2582, 4243.564
349.7403, 4258.525
350.2225, 4267.269
350.7046, 4297.172
351.1867, 4345.979
351.6688, 4394.202
352.1509, 4423.965
352.6331, 4445.260
353.1152, 4473.765
353.5973, 4515.857
354.0794, 4560.505
354.5615, 4599.242
355.0436, 4632.730
355.5258, 4662.994
356.0079, 4683.993
356.4900, 4706.218
356.9721, 4740.664
357.4542, 4792.640
357.9363, 4844.557
358.4185, 4886.504
358.9006, 4921.724
359.3827, 4955.828
359.8648, 4986.593
360.3469, 5020.302
360.8290, 5064.936
361.3112, 5124.563
361.7933, 5170.520
362.2754, 5181.246
362.7575, 5178.693
363.2396, 5186.750
363.7217, 5222.488
364.2039, 5257.553
364.6860, 5281.155
365.1681, 5293.065
365.6502, 5314.796
366.1323, 5358.945
366.6144, 5407.663
367.0966, 5448.818
367.5787, 5478.203
368.0608, 5504.024
368.5429, 5522.899
369.0250, 5537.459
369.5071, 5561.116
369.9893, 5601.137
370.4714, 5641.649
370.9535, 5676.148
371.4356, 5707.242
371.9177, 5725.151
372.3998, 5726.718
372.8820, 5716.534
373.3641, 5704.055
373.8462, 5688.629
374.3283, 5672.772
374.8104, 5659.048
375.2925, 5648.158
375.7747, 5629.541
376.2568, 5602.613
376.7389, 5568.829
377.2210, 5529.767
377.7031, 5485.287
378.1852, 5437.596
378.6674, 5385.794
379.1495, 5331.344
379.6316, 5280.502
380.1137, 5234.679
380.5958, 5183.548
381.0779, 5115.101
381.5601, 5031.725
382.0422, 4950.152
382.5243, 4871.307
383.0064, 4797.252
383.4885, 4733.513
383.9706, 4678.407
384.4528, 4624.011
384.9349, 4561.175
385.4170, 4495.993
385.8991, 4436.190
386.3812, 4381.418
386.8633, 4335.175
387.3455, 4300.724
387.8276, 4277.208
388.3097, 4262.239
388.7918, 4259.963
389.2739, 4262.613
389.7560, 4263.500
390.2382, 4261.738
390.7203, 4262.735
391.2024, 4267.302
391.6845, 4276.892
392.1666, 4293.309
392.6487, 4320.155
393.1309, 4351.159
393.6130, 4382.240
394.0951, 4414.045
394.5772, 4453.239
395.0593, 4504.164
395.5414, 4561.392
396.0236, 4621.088
396.5057, 4686.472
396.9878, 4750.150
397.4699, 4808.104
397.9520, 4863.180
398.4341, 4923.759
398.9163, 4994.979
399.3984, 5066.403
399.8805, 5135.979
400.3626, 5207.935
400.8447, 5264.978
401.3268, 5303.059
401.8090, 5329.135
402.2911, 5353.788
402.7732, 5378.495
403.2553, 5397.436
403.7374, 5409.653
404.2195, 5415.032
404.7017, 5410.691
405.1838, 5395.236
405.6659, 5373.601
406.1480, 5350.943
406.6301, 5327.276
407.1122, 5297.178
407.5944, 5260.085
408.0765, 5215.372
408.5586, 5162.122
409.0407, 5100.181
409.5228, 5030.742
410.0049, 4950.848
410.4871, 4864.712
410.9692, 4785.992
411.4513, 4718.851
411.9334, 4646.865
412.4155, 4538.296
412.8976, 4405.942
413.3798, 4290.908
413.8619, 4228.005
414.3440, 4180.250
414.8261, 4107.245
415.3082, 4007.755
415.7903, 3903.086
416.2725, 3797.587
416.7546, 3697.460
417.2367, 3607.765
417.7188, 3539.280
418.2009, 3473.981
418.6830, 3403.010
419.1652, 3328.371
419.6473, 3260.198
420.1294, 3203.799
420.6115, 3152.693
421.0937, 3102.996
421.5758, 3056.521
422.0579, 3008.594
422.5400, 2956.402
423.0221, 2902.771
423.5042, 2851.135
423.9864, 2798.012
424.4685, 2751.605
424.9506, 2716.285
425.4327, 2694.036
425.9148, 2662.386
426.3969, 2614.985
426.8791, 2565.446
427.3612, 2526.228
427.8433, 2499.973
428.3254, 2476.348
428.8075, 2455.247
429.2896, 2435.420
429.7718, 2411.651
430.2539, 2382.499
430.7360, 2356.694
431.2181, 2340.188
431.7002, 2332.539
432.1823, 2329.198
432.6645, 2331.802
433.1466, 2332.470
433.6287, 2315.053
434.1108, 2283.906
434.5929, 2260.834
435.0750, 2257.871
435.5572, 2267.513
436.0393, 2280.075
436.5214, 2295.235
437.0035, 2306.213
437.4856, 2304.290
437.9677, 2295.807
438.4499, 2289.205
438.9320, 2285.766
439.4141, 2286.170
439.8962, 2293.079
440.3783, 2304.403
440.8604, 2314.962
441.3426, 2318.434
441.8247, 2323.416
442.3068, 2337.053
442.7889, 2363.232
443.2710, 2382.946
443.7531, 2383.847
444.2353, 2378.510
444.7174, 2380.863
445.1995, 2402.277
445.6816, 2421.147
446.1637, 2432.774
446.6458, 2437.819
447.1280, 2444.273
447.6101, 2451.710
448.0922, 2461.074
448.5743, 2474.090
449.0564, 2495.879
449.5385, 2507.205
450.0207, 2504.302
450.5028, 2493.734
450.9849, 2487.323
451.4670, 2485.510
451.9491, 2485.960
452.4312, 2488.743
452.9134, 2493.365
453.3955, 2497.292
453.8776, 2501.076
454.3597, 2500.298
454.8418, 2486.579
455.3239, 2463.419
455.8061, 2446.108
456.2882, 2438.954
456.7703, 2437.508
457.2524, 2437.063
457.7345, 2437.257
458.2166, 2436.593
458.6988, 2426.206
459.1809, 2418.522
459.6630, 2431.082
460.1451, 2468.684
460.6272, 2504.740
461.1093, 2521.303
461.5915, 2526.772
462.0736, 2531.177
462.5557, 2533.808
463.0378, 2539.917
463.5199, 2550.214
464.0020, 2565.027
464.4842, 2587.075
464.9663, 2623.209
465.4484, 2661.942
465.9305, 2697.238
466.4126, 2725.941
466.8947, 2757.016
467.3769, 2790.313
467.8590, 2825.888
468.3411, 2864.934
468.8232, 2909.903
469.3053, 2952.713
469.7874, 2988.582
470.2696, 3018.565
470.7517, 3065.316
471.2338, 3133.699
471.7159, 3203.442
472.1980, 3255.021
472.6801, 3289.036
473.1623, 3323.917
473.6444, 3363.237
474.1265, 3403.200
474.6086, 3441.304
475.0907, 3476.136
475.5728, 3498.562
476.0550, 3490.845
476.5371, 3472.128
477.0192, 3478.091
477.5013, 3510.269
477.9834, 3539.973
478.4655, 3549.537
478.9477, 3541.914
479.4298, 3520.113
479.9119, 3474.037
480.3940, 3427.650
480.8761, 3401.293
481.3582, 3385.763
481.8404, 3354.806
482.3225, 3280.090
482.8046, 3204.335
483.2867, 3148.615
483.7688, 3122.304
484.2509, 3089.712
484.7331, 3044.932
485.2152, 2994.161
485.6973, 2941.009
486.1794, 2877.432
486.6615, 2825.629
487.1436, 2792.149
487.6258, 2772.719
488.1079, 2745.687
488.5900, 2707.284
489.0721, 2672.157
489.5542, 2649.436
490.0363, 2639.094
490.5185, 2630.388
491.0006, 2623.945
491.4827, 2616.390
491.9648, 2599.649
492.4470, 2576.323
492.9291, 2561.822
493.4112, 2567.700
493.8933, 2580.083
494.3754, 2572.852
494.8575, 2549.654
495.3397, 2533.850
495.8218, 2549.707
496.3039, 2576.583
496.7860, 2590.980
497.2681, 2586.942
497.7502, 2581.113
498.2324, 2582.127
498.7145, 2586.761
499.1966, 2590.655
499.6787, 2593.754
500.1608, 2594.654
500.6429, 2590.413
501.1251, 2581.710
501.6072, 2579.033
502.0893, 2589.781
502.5714, 2600.743
503.0535, 2604.830
503.5356, 2595.376
504.0178, 2596.067
504.4999, 2613.234
504.9820, 2634.764
505.4641, 2641.695
505.9462, 2631.740
506.4283, 2618.614
506.9105, 2603.834
507.3926, 2589.472
507.8747, 2587.332
508.3568, 2598.249
508.8389, 2605.634
509.3210, 2592.311
509.8032, 2565.980
510.2853, 2548.895
510.7674, 2545.421
511.2495, 2544.394
511.7316, 2534.864
512.2137, 2519.242
512.6959, 2502.644
513.1780, 2485.514
513.6601, 2469.371
514.1422, 2457.061
514.6243, 2447.611
515.1064, 2434.452
515.5886, 2411.827
516.0707, 2386.846
516.5528, 2363.322
517.0349, 2338.677
517.5170, 2321.463
517.9991, 2321.709
518.4813, 2326.360
518.9634, 2318.558
519.4455, 2291.409
519.9276, 2263.190
520.4097, 2234.743
520.8918, 2207.872
521.3740, 2192.602
521.8561, 2191.179
522.3382, 2193.929
522.8203, 2197.335
523.3024, 2200.924
523.7845, 2195.519
524.2667, 2179.014
524.7488, 2159.368
525.2309, 2142.279
525.7130, 2129.144
526.1951, 2125.466
526.6772, 2138.143
527.1594, 2156.336
527.6415, 2169.092
528.1236, 2176.658
528.6057, 2180.337
529.0878, 2176.432
529.5699, 2171.752
530.0521, 2172.104
530.5342, 2179.535
531.0163, 2186.029
531.4984, 2185.281
531.9805, 2183.953
532.4626, 2189.110
532.9448, 2211.876
533.4269, 2228.721
533.9090, 2231.772
534.3911, 2226.420
534.8732, 2235.076
535.3553, 2267.180
535.8375, 2295.726
536.3196, 2305.600
536.8017, 2295.475
537.2838, 2300.064
537.7659, 2323.232
538.2480, 2348.519
538.7302, 2357.493
539.2123, 2352.128
539.6944, 2345.260
540.1765, 2339.323
540.6586, 2333.733
541.1407, 2329.132
541.6229, 2324.447
542.1050, 2315.816
542.5871, 2298.762
543.0692, 2278.397
543.5513, 2258.706
544.0334, 2240.093
544.5156, 2222.762
544.9977, 2207.022
545.4798, 2192.490
545.9619, 2178.850
546.4440, 2163.091
546.9261, 2152.599
547.4083, 2153.016
547.8904, 2158.430
548.3725, 2158.435
548.8546, 2152.597
549.3367, 2141.736
549.8188, 2123.397
550.3010, 2098.840
550.7831, 2083.975
551.2652, 2081.088
551.7473, 2080.253
552.2294, 2072.831
552.7115, 2059.953
553.1937, 2054.189
553.6758, 2057.503
554.1579, 2063.914
554.6400, 2066.422
555.1221, 2066.063
555.6042, 2065.796
556.0864, 2067.253
556.5685, 2068.679
557.0506, 2064.616
557.5327, 2058.012
558.0148, 2060.022
558.4969, 2089.095
558.9791, 2118.705
559.4612, 2128.640
559.9433, 2110.841
560.4254, 2104.653
560.9075, 2132.661
561.3896, 2166.582
561.8718, 2181.502
562.3539, 2164.265
562.8360, 2150.031
563.3181, 2140.863
563.8002, 2136.586
564.2823, 2136.884
564.7645, 2141.893
565.2466, 2151.104
565.7287, 2166.570
566.2108, 2186.205
566.6929, 2197.923
567.1750, 2201.277
567.6572, 2204.747
568.1393, 2214.829
568.6214, 2230.135
569.1035, 2248.592
569.5856, 2271.088
570.0677, 2292.369
570.5499, 2304.281
571.0320, 2313.114
571.5141, 2328.883
571.9962, 2363.177
572.4783, 2397.206
572.9604, 2421.985
573.4426, 2439.187
573.9247, 2458.683
574.4068, 2481.117
574.8889, 2506.915
575.3710, 2536.777
575.8531, 2571.266
576.3353, 2605.658
576.8174, 2642.335
577.2995, 2674.886
577.7816, 2693.436
578.2637, 2695.494
578.7458, 2710.580
579.2280, 2745.322
579.7101, 2790.564
580.1922, 2830.214
580.6743, 2865.543
581.1564, 2903.745
581.6385, 2949.325
582.1207, 2999.105
582.6028, 3048.326
583.0849, 3096.903
583.5670, 3147.500
584.0491, 3207.196
584.5313, 3265.898
585.0134, 3314.471
585.4955, 3347.744
585.9776, 3382.988
586.4597, 3429.928
586.9418, 3478.622
587.4240, 3516.758
587.9061, 3532.103
588.3882, 3556.281
588.8703, 3596.495
589.3524, 3646.660
589.8345, 3689.019
590.3167, 3722.542
590.7988, 3752.163
591.2809, 3775.996
591.7630, 3796.862
592.2451, 3833.483
592.7272, 3886.751
593.2094, 3934.000
593.6915, 3947.154
594.1736, 3942.742
594.6557, 3954.284
595.1378, 3990.133
595.6199, 4028.388
596.1021, 4052.498
596.5842, 4068.608
597.0663, 4085.553
597.5485, 4109.937
598.0306, 4131.507
598.5127, 4142.813
598.9948, 4147.431
599.4769, 4161.472
599.9590, 4198.810
600.4412, 4230.111
600.9233, 4242.902
601.4054, 4235.459
601.8875, 4238.963
602.3696, 4256.808
602.8517, 4277.248
603.3339, 4289.554
603.8160, 4294.481
604.2981, 4298.667
604.7802, 4301.098
605.2623, 4309.037
605.7444, 4340.107
606.2266, 4384.930
606.7087, 4416.731
607.1908, 4419.026
607.6729, 4412.290
608.1550, 4408.319
