##NAMES=Vesuvianite
##RRUFFID=R050035
##IDEAL CHEMISTRY=(Ca,Na)_19_(Al,Mg,Fe^3+^)_13_(SiO_4_)_10_(Si_2_O_7_)_4_(OH,F,O)_10_
##LOCALITY=Olmsteadville, New York, USA
##OWNER=RRUFF
##SOURCE=University of Arizona Mineral Museum
##DESCRIPTION=Brown single crystal fragment
##STATUS=The identification of this mineral has been confirmed by X-ray diffraction and chemical analysis
##URL=rruff.info/R050035
##MEASURED CHEMISTRY=(Ca_18.66_Na_0.34_)_Σ=19_(Al_9.16_Mg_1.28_Ti_1.21_Fe^3+^_0.89_Fe^2+^_0.46_)_Σ=13_Si_18_O_68_((OH)_4.70_F_3.18_O_2.12_)_Σ=10_
168.9465, 4460.417
169.4286, 4489.297
169.9107, 4522.711
170.3929, 4557.506
170.8750, 4587.909
171.3571, 4605.990
171.8392, 4619.969
172.3213, 4639.561
172.8034, 4667.398
173.2856, 4695.484
173.7677, 4710.287
174.2498, 4717.244
174.7319, 4734.608
175.2140, 4786.088
175.6961, 4852.036
176.1783, 4901.275
176.6604, 4923.915
177.1425, 4934.889
177.6246, 4949.272
178.1067, 4966.840
178.5888, 4987.157
179.0710, 5011.984
179.5531, 5039.038
180.0352, 5062.626
180.5173, 5079.988
180.9994, 5094.444
181.4815, 5113.029
181.9637, 5135.635
182.4458, 5153.778
182.9279, 5155.846
183.4100, 5146.291
183.8921, 5142.284
184.3742, 5151.626
184.8564, 5168.387
185.3385, 5180.344
185.8206, 5187.765
186.3027, 5188.364
186.7848, 5177.328
187.2669, 5155.909
187.7491, 5133.537
188.2312, 5114.943
188.7133, 5098.111
189.1954, 5074.537
189.6775, 5043.701
190.1596, 5009.021
190.6418, 4969.402
191.1239, 4925.424
191.6060, 4892.187
192.0881, 4881.131
192.5702, 4889.249
193.0524, 4890.477
193.5345, 4884.461
194.0166, 4872.555
194.4987, 4852.244
194.9808, 4822.390
195.4629, 4801.275
195.9451, 4803.545
196.4272, 4828.567
196.9093, 4839.840
197.3914, 4832.832
197.8735, 4817.400
198.3556, 4811.271
198.8378, 4815.013
199.3199, 4824.322
199.8020, 4838.981
200.2841, 4859.438
200.7662, 4876.559
201.2483, 4889.362
201.7305, 4898.961
202.2126, 4906.552
202.6947, 4910.604
203.1768, 4918.372
203.6589, 4935.019
204.1410, 4961.357
204.6232, 4989.909
205.1053, 5020.579
205.5874, 5052.796
206.0695, 5085.645
206.5516, 5120.596
207.0337, 5152.310
207.5159, 5176.999
207.9980, 5193.388
208.4801, 5205.514
208.9622, 5209.456
209.4443, 5209.565
209.9264, 5230.081
210.4086, 5278.964
210.8907, 5332.452
211.3728, 5372.209
211.8549, 5396.427
212.3370, 5413.014
212.8191, 5417.680
213.3013, 5413.727
213.7834, 5432.524
214.2655, 5484.333
214.7476, 5542.587
215.2297, 5582.924
215.7118, 5599.114
216.1940, 5615.557
216.6761, 5635.857
217.1582, 5660.036
217.6403, 5688.405
218.1224, 5725.182
218.6045, 5760.092
219.0867, 5782.382
219.5688, 5787.399
220.0509, 5790.628
220.5330, 5797.134
221.0151, 5807.343
221.4972, 5803.943
221.9794, 5781.521
222.4615, 5751.529
222.9436, 5725.589
223.4257, 5704.763
223.9078, 5685.977
224.3899, 5671.855
224.8721, 5663.721
225.3542, 5637.957
225.8363, 5580.087
226.3184, 5518.084
226.8005, 5487.422
227.2827, 5508.042
227.7648, 5522.207
228.2469, 5512.883
228.7290, 5475.968
229.2111, 5447.438
229.6932, 5427.366
230.1754, 5415.936
230.6575, 5414.123
231.1396, 5425.911
231.6217, 5440.512
232.1038, 5456.485
232.5859, 5475.315
233.0681, 5486.390
233.5502, 5482.890
234.0323, 5476.488
234.5144, 5485.628
234.9965, 5520.901
235.4786, 5553.641
235.9608, 5573.486
236.4429, 5575.527
236.9250, 5587.458
237.4071, 5617.240
237.8892, 5651.880
238.3713, 5670.862
238.8535, 5670.450
239.3356, 5660.267
239.8177, 5638.730
240.2998, 5596.958
240.7819, 5579.233
241.2640, 5595.048
241.7462, 5629.086
242.2283, 5655.288
242.7104, 5670.155
243.1925, 5682.948
243.6746, 5697.051
244.1567, 5714.088
244.6389, 5726.670
245.1210, 5732.509
245.6031, 5735.241
246.0852, 5740.801
246.5673, 5748.385
247.0494, 5760.246
247.5316, 5778.581
248.0137, 5807.043
248.4958, 5828.932
248.9779, 5839.354
249.4600, 5845.853
249.9421, 5862.627
250.4243, 5894.147
250.9064, 5928.207
251.3885, 5962.592
251.8706, 6001.897
252.3527, 6024.550
252.8348, 6021.118
253.3170, 6006.873
253.7991, 6013.222
254.2812, 6052.975
254.7633, 6088.646
255.2454, 6105.537
255.7275, 6098.934
256.2097, 6090.137
256.6918, 6078.571
257.1739, 6065.311
257.6560, 6053.496
258.1381, 6047.338
258.6202, 6033.723
259.1024, 6004.958
259.5845, 5955.788
260.0666, 5914.023
260.5487, 5879.124
261.0308, 5852.167
261.5129, 5835.959
261.9951, 5836.103
262.4772, 5833.895
262.9593, 5820.493
263.4414, 5792.062
263.9235, 5769.764
264.4056, 5752.852
264.8878, 5742.573
265.3699, 5741.673
265.8520, 5752.395
266.3341, 5766.161
266.8162, 5782.061
267.2983, 5801.838
267.7805, 5809.333
268.2626, 5797.688
268.7447, 5781.332
269.2268, 5788.272
269.7089, 5825.559
270.1910, 5860.831
270.6732, 5882.506
271.1553, 5889.740
271.6374, 5885.683
272.1195, 5861.454
272.6016, 5838.978
273.0837, 5861.754
273.5659, 5939.917
274.0480, 6011.707
274.5301, 6050.653
275.0122, 6055.196
275.4943, 6064.438
275.9764, 6077.402
276.4586, 6096.909
276.9407, 6129.810
277.4228, 6177.135
277.9049, 6225.149
278.3870, 6269.065
278.8691, 6308.903
279.3513, 6343.235
279.8334, 6369.685
280.3155, 6396.740
280.7976, 6439.624
281.2798, 6498.869
281.7619, 6552.830
282.2440, 6590.656
282.7261, 6614.839
283.2082, 6645.841
283.6903, 6685.554
284.1725, 6725.117
284.6546, 6753.349
285.1367, 6770.304
285.6188, 6783.660
286.1009, 6796.844
286.5830, 6808.663
287.0652, 6814.083
287.5473, 6812.973
288.0294, 6805.996
288.5115, 6791.785
288.9936, 6771.044
289.4757, 6750.289
289.9579, 6731.368
290.4400, 6713.980
290.9221, 6697.183
291.4042, 6681.059
291.8863, 6664.468
292.3684, 6649.480
292.8506, 6634.104
293.3327, 6609.240
293.8148, 6567.483
294.2969, 6516.955
294.7790, 6470.605
295.2611, 6428.270
295.7433, 6392.194
296.2254, 6368.776
296.7075, 6353.115
297.1896, 6332.051
297.6717, 6298.233
298.1538, 6259.585
298.6360, 6226.988
299.1181, 6200.127
299.6002, 6178.798
300.0823, 6166.726
300.5644, 6159.397
301.0465, 6147.158
301.5287, 6122.314
302.0108, 6098.040
302.4929, 6094.114
302.9750, 6106.972
303.4571, 6116.403
303.9392, 6097.810
304.4214, 6070.868
304.9035, 6063.245
305.3856, 6088.749
305.8677, 6123.885
306.3498, 6150.996
306.8319, 6171.038
307.3141, 6187.901
307.7962, 6203.447
308.2783, 6216.833
308.7604, 6225.850
309.2425, 6225.684
309.7246, 6230.340
310.2068, 6249.493
310.6889, 6280.625
311.1710, 6317.269
311.6531, 6367.925
312.1352, 6415.870
312.6173, 6446.138
313.0995, 6450.395
313.5816, 6453.489
314.0637, 6463.206
314.5458, 6480.117
315.0279, 6505.268
315.5100, 6545.455
315.9922, 6589.172
316.4743, 6629.392
316.9564, 6663.431
317.4385, 6701.765
317.9206, 6751.830
318.4027, 6807.357
318.8849, 6859.583
319.3670, 6914.557
319.8491, 6958.449
320.3312, 6979.899
320.8133, 6972.437
321.2954, 6978.093
321.7776, 7018.193
322.2597, 7070.359
322.7418, 7110.742
323.2239, 7131.565
323.7060, 7144.642
324.1881, 7149.407
324.6703, 7144.875
325.1524, 7145.432
325.6345, 7154.569
326.1166, 7167.842
326.5987, 7181.750
327.0808, 7194.688
327.5630, 7210.188
328.0451, 7231.956
328.5272, 7259.307
329.0093, 7277.562
329.4914, 7287.483
329.9735, 7287.334
330.4557, 7274.417
330.9378, 7236.290
331.4199, 7207.539
331.9020, 7195.939
332.3841, 7196.524
332.8662, 7183.430
333.3484, 7147.317
333.8305, 7111.878
334.3126, 7089.834
334.7947, 7084.167
335.2768, 7084.410
335.7589, 7094.097
336.2411, 7107.186
336.7232, 7105.445
337.2053, 7081.912
337.6874, 7063.954
338.1695, 7068.117
338.6516, 7097.955
339.1338, 7118.820
339.6159, 7129.636
340.0980, 7131.856
340.5801, 7123.465
341.0622, 7102.455
341.5443, 7088.769
342.0265, 7093.058
342.5086, 7113.306
342.9907, 7131.282
343.4728, 7146.550
343.9549, 7160.651
344.4370, 7177.377
344.9192, 7195.821
345.4013, 7207.478
345.8834, 7205.134
346.3655, 7194.861
346.8476, 7191.751
347.3297, 7195.815
347.8119, 7205.991
348.2940, 7221.335
348.7761, 7242.075
349.2582, 7269.252
349.7403, 7308.599
350.2225, 7349.604
350.7046, 7375.912
351.1867, 7389.148
351.6688, 7400.005
352.1509, 7409.271
352.6331, 7422.886
353.1152, 7453.009
353.5973, 7512.410
354.0794, 7569.925
354.5615, 7587.528
355.0436, 7578.164
355.5258, 7581.227
356.0079, 7630.282
356.4900, 7694.630
356.9721, 7747.994
357.4542, 7784.831
357.9363, 7815.811
358.4185, 7844.636
358.9006, 7871.888
359.3827, 7898.578
359.8648, 7916.929
360.3469, 7941.296
360.8290, 7982.420
361.3112, 8044.051
361.7933, 8102.408
362.2754, 8147.836
362.7575, 8187.331
363.2396, 8228.674
363.7217, 8270.470
364.2039, 8316.858
364.6860, 8374.027
365.1681, 8442.338
365.6502, 8497.782
366.1323, 8528.220
366.6144, 8551.125
367.0966, 8578.653
367.5787, 8621.004
368.0608, 8655.679
368.5429, 8682.136
369.0250, 8700.126
369.5071, 8707.973
369.9893, 8704.091
370.4714, 8692.015
370.9535, 8671.975
371.4356, 8638.019
371.9177, 8611.378
372.3998, 8599.510
372.8820, 8591.316
373.3641, 8560.089
373.8462, 8497.676
374.3283, 8433.720
374.8104, 8381.813
375.2925, 8343.053
375.7747, 8297.957
376.2568, 8245.334
376.7389, 8187.994
377.2210, 8129.970
377.7031, 8071.322
378.1852, 8011.424
378.6674, 7949.304
379.1495, 7885.738
379.6316, 7817.812
380.1137, 7744.768
380.5958, 7679.404
381.0779, 7639.075
381.5601, 7618.875
382.0422, 7597.703
382.5243, 7570.492
383.0064, 7539.666
383.4885, 7507.389
383.9706, 7473.903
384.4528, 7443.247
384.9349, 7420.293
385.4170, 7401.174
385.8991, 7375.681
386.3812, 7337.390
386.8633, 7307.936
387.3455, 7317.747
387.8276, 7352.236
388.3097, 7378.208
388.7918, 7369.844
389.2739, 7351.786
389.7560, 7342.079
390.2382, 7342.181
390.7203, 7349.790
391.2024, 7369.812
391.6845, 7394.510
392.1666, 7415.229
392.6487, 7420.783
393.1309, 7429.497
393.6130, 7451.259
394.0951, 7484.899
394.5772, 7514.974
395.0593, 7533.400
395.5414, 7549.693
396.0236, 7569.606
396.5057, 7590.390
396.9878, 7619.163
397.4699, 7659.385
397.9520, 7708.417
398.4341, 7757.551
398.9163, 7808.742
399.3984, 7857.958
399.8805, 7903.645
400.3626, 7945.063
400.8447, 7985.452
401.3268, 8027.056
401.8090, 8065.919
402.2911, 8096.144
402.7732, 8113.923
403.2553, 8132.070
403.7374, 8153.052
404.2195, 8176.973
404.7017, 8207.488
405.1838, 8247.496
405.6659, 8286.598
406.1480, 8316.653
406.6301, 8337.839
407.1122, 8348.932
407.5944, 8347.189
408.0765, 8337.817
408.5586, 8333.874
409.0407, 8335.211
409.5228, 8334.840
410.0049, 8333.442
410.4871, 8326.956
410.9692, 8300.179
411.4513, 8247.827
411.9334, 8189.867
412.4155, 8152.033
412.8976, 8126.869
413.3798, 8094.495
413.8619, 8038.160
414.3440, 7973.871
414.8261, 7922.228
415.3082, 7883.233
415.7903, 7833.299
416.2725, 7745.849
416.7546, 7642.740
417.2367, 7546.597
417.7188, 7467.410
418.2009, 7396.027
418.6830, 7334.155
419.1652, 7278.432
419.6473, 7218.947
420.1294, 7145.313
420.6115, 7071.715
421.0937, 7005.881
421.5758, 6956.648
422.0579, 6901.067
422.5400, 6826.547
423.0221, 6745.796
423.5042, 6678.222
423.9864, 6635.594
424.4685, 6594.372
424.9506, 6548.774
425.4327, 6498.973
425.9148, 6450.153
426.3969, 6402.119
426.8791, 6355.309
427.3612, 6310.075
427.8433, 6265.340
428.3254, 6226.198
428.8075, 6194.816
429.2896, 6169.122
429.7718, 6142.731
430.2539, 6115.336
430.7360, 6088.629
431.2181, 6061.324
431.7002, 6034.120
432.1823, 6021.346
432.6645, 6028.074
433.1466, 6034.627
433.6287, 6004.536
434.1108, 5946.364
434.5929, 5903.209
435.0750, 5906.182
435.5572, 5929.884
436.0393, 5926.302
436.5214, 5896.735
437.0035, 5868.680
437.4856, 5871.027
437.9677, 5886.287
438.4499, 5888.182
438.9320, 5859.644
439.4141, 5833.941
439.8962, 5844.633
440.3783, 5877.576
440.8604, 5896.617
441.3426, 5860.977
441.8247, 5825.485
442.3068, 5826.770
442.7889, 5878.465
443.2710, 5920.199
443.7531, 5931.376
444.2353, 5926.095
444.7174, 5920.127
445.1995, 5911.688
445.6816, 5907.042
446.1637, 5903.954
446.6458, 5903.465
447.1280, 5919.270
447.6101, 5967.790
448.0922, 6014.610
448.5743, 6039.269
449.0564, 6032.421
449.5385, 6028.193
450.0207, 6026.330
450.5028, 6028.494
450.9849, 6041.147
451.4670, 6067.620
451.9491, 6086.870
452.4312, 6087.389
452.9134, 6072.242
453.3955, 6064.702
453.8776, 6064.852
454.3597, 6071.908
454.8418, 6093.057
455.3239, 6122.715
455.8061, 6134.260
456.2882, 6113.553
456.7703, 6085.063
457.2524, 6088.292
457.7345, 6116.043
458.2166, 6139.039
458.6988, 6129.646
459.1809, 6111.359
459.6630, 6112.655
460.1451, 6139.276
460.6272, 6164.299
461.1093, 6178.375
461.5915, 6178.566
462.0736, 6160.717
462.5557, 6095.937
463.0378, 6039.892
463.5199, 6015.223
464.0020, 6019.408
464.4842, 6030.596
464.9663, 6058.713
465.4484, 6082.050
465.9305, 6088.809
466.4126, 6069.662
466.8947, 6049.637
467.3769, 6027.994
467.8590, 6005.882
468.3411, 5984.154
468.8232, 5959.973
469.3053, 5942.359
469.7874, 5935.340
470.2696, 5938.211
470.7517, 5939.151
471.2338, 5939.393
471.7159, 5934.004
472.1980, 5916.498
472.6801, 5887.080
473.1623, 5858.064
473.6444, 5829.334
474.1265, 5804.932
474.6086, 5795.910
475.0907, 5799.801
475.5728, 5800.641
476.0550, 5784.273
476.5371, 5761.415
477.0192, 5752.030
477.5013, 5756.913
477.9834, 5760.727
478.4655, 5742.586
478.9477, 5719.064
479.4298, 5713.409
479.9119, 5752.932
480.3940, 5785.971
480.8761, 5775.898
481.3582, 5736.673
481.8404, 5708.461
482.3225, 5714.834
482.8046, 5726.554
483.2867, 5728.850
483.7688, 5715.321
484.2509, 5710.288
484.7331, 5719.374
485.2152, 5736.072
485.6973, 5754.852
486.1794, 5775.888
486.6615, 5799.042
487.1436, 5826.054
487.6258, 5855.369
488.1079, 5878.686
488.5900, 5893.425
489.0721, 5908.933
489.5542, 5934.447
490.0363, 5970.314
490.5185, 5985.693
491.0006, 5974.480
491.4827, 5960.084
491.9648, 5979.045
492.4470, 6024.740
492.9291, 6059.774
493.4112, 6062.521
493.8933, 6054.737
494.3754, 6073.563
494.8575, 6115.006
495.3397, 6152.808
495.8218, 6166.224
496.3039, 6169.113
496.7860, 6175.279
497.2681, 6186.301
497.7502, 6202.969
498.2324, 6232.666
498.7145, 6266.366
499.1966, 6292.372
499.6787, 6295.550
500.1608, 6301.991
500.6429, 6323.376
501.1251, 6358.478
501.6072, 6385.132
502.0893, 6391.695
502.5714, 6398.793
503.0535, 6416.819
503.5356, 6452.409
504.0178, 6483.430
504.4999, 6511.077
504.9820, 6532.723
505.4641, 6542.434
505.9462, 6537.359
506.4283, 6535.169
506.9105, 6541.763
507.3926, 6554.908
507.8747, 6568.719
508.3568, 6583.693
508.8389, 6590.237
509.3210, 6570.117
509.8032, 6536.177
510.2853, 6528.937
510.7674, 6559.433
511.2495, 6590.963
511.7316, 6577.222
512.2137, 6537.074
512.6959, 6509.134
513.1780, 6520.106
513.6601, 6539.568
514.1422, 6550.157
514.6243, 6552.242
515.1064, 6550.173
515.5886, 6552.365
516.0707, 6546.163
516.5528, 6519.816
517.0349, 6448.261
517.5170, 6405.562
517.9991, 6428.237
518.4813, 6472.317
518.9634, 6481.228
519.4455, 6432.055
519.9276, 6386.563
520.4097, 6354.917
520.8918, 6337.056
521.3740, 6330.829
521.8561, 6338.405
522.3382, 6350.431
522.8203, 6365.594
523.3024, 6382.806
523.7845, 6381.652
524.2667, 6357.155
524.7488, 6328.834
525.2309, 6325.511
525.7130, 6339.215
526.1951, 6341.533
526.6772, 6312.495
527.1594, 6276.919
527.6415, 6265.451
528.1236, 6273.924
528.6057, 6283.873
529.0878, 6289.041
529.5699, 6288.819
530.0521, 6278.880
530.5342, 6253.823
531.0163, 6241.012
531.4984, 6261.699
531.9805, 6293.596
532.4626, 6313.075
532.9448, 6299.926
533.4269, 6294.999
533.9090, 6309.908
534.3911, 6337.119
534.8732, 6344.646
535.3553, 6319.916
535.8375, 6299.262
536.3196, 6301.505
536.8017, 6328.219
537.2838, 6344.566
537.7659, 6349.577
538.2480, 6347.869
538.7302, 6340.838
539.2123, 6329.901
539.6944, 6326.000
540.1765, 6333.476
540.6586, 6345.364
541.1407, 6351.435
541.6229, 6353.462
542.1050, 6357.899
542.5871, 6374.795
543.0692, 6391.356
543.5513, 6392.154
544.0334, 6376.601
544.5156, 6366.380
544.9977, 6378.052
545.4798, 6395.555
545.9619, 6406.206
546.4440, 6405.354
546.9261, 6400.959
547.4083, 6387.907
547.8904, 6373.201
548.3725, 6370.552
548.8546, 6391.575
549.3367, 6405.361
549.8188, 6402.471
550.3010, 6384.500
550.7831, 6370.987
551.2652, 6363.923
551.7473, 6354.606
552.2294, 6331.923
552.7115, 6298.314
553.1937, 6282.337
553.6758, 6289.273
554.1579, 6301.283
554.6400, 6296.044
555.1221, 6277.872
555.6042, 6259.351
556.0864, 6246.200
556.5685, 6233.140
557.0506, 6213.238
557.5327, 6188.638
558.0148, 6167.630
558.4969, 6155.825
558.9791, 6147.636
559.4612, 6140.200
559.9433, 6133.391
560.4254, 6126.500
560.9075, 6126.707
561.3896, 6122.495
561.8718, 6102.604
562.3539, 6045.490
562.8360, 6010.377
563.3181, 6010.082
563.8002, 6030.630
564.2823, 6038.718
564.7645, 6032.365
565.2466, 6021.647
565.7287, 6006.040
566.2108, 5988.992
566.6929, 5992.891
567.1750, 6018.671
567.6572, 6043.448
568.1393, 6043.568
568.6214, 6029.364
569.1035, 6020.726
569.5856, 6020.611
570.0677, 6026.610
570.5499, 6040.876
571.0320, 6059.102
571.5141, 6074.563
571.9962, 6085.997
572.4783, 6093.012
572.9604, 6090.884
573.4426, 6082.421
573.9247, 6081.895
574.4068, 6094.171
574.8889, 6112.759
575.3710, 6137.109
575.8531, 6169.397
576.3353, 6194.645
576.8174, 6212.163
577.2995, 6223.296
577.7816, 6225.055
578.2637, 6215.278
578.7458, 6221.828
579.2280, 6253.338
579.7101, 6294.432
580.1922, 6314.982
580.6743, 6318.822
581.1564, 6327.606
581.6385, 6359.743
582.1207, 6398.044
582.6028, 6414.204
583.0849, 6411.594
583.5670, 6417.675
584.0491, 6460.130
584.5313, 6510.385
585.0134, 6545.179
585.4955, 6556.000
585.9776, 6567.549
586.4597, 6586.167
586.9418, 6608.592
587.4240, 6630.989
587.9061, 6653.395
588.3882, 6675.533
588.8703, 6696.572
589.3524, 6717.540
589.8345, 6740.777
590.3167, 6765.500
590.7988, 6796.176
591.2809, 6838.944
591.7630, 6889.623
592.2451, 6921.453
592.7272, 6933.728
593.2094, 6944.427
593.6915, 6966.625
594.1736, 6998.267
594.6557, 7037.881
595.1378, 7086.766
595.6199, 7133.687
596.1021, 7174.144
596.5842, 7206.046
597.0663, 7226.490
597.5485, 7216.549
598.0306, 7213.676
598.5127, 7229.682
598.9948, 7262.623
599.4769, 7304.094
599.9590, 7367.941
600.4412, 7422.934
600.9233, 7453.895
601.4054, 7458.315
601.8875, 7482.513
602.3696, 7531.734
602.8517, 7587.559
603.3339, 7639.511
603.8160, 7686.849
604.2981, 7707.538
604.7802, 7693.752
605.2623, 7671.319
605.7444, 7669.942
606.2266, 7686.524
606.7087, 7713.185
607.1908, 7758.704
607.6729, 7801.381
608.1550, 7823.108
608.6371, 7827.704
609.1193, 7828.326
609.6014, 7816.115
610.0835, 7813.268
610.5656, 7836.677
611.0477, 7892.733
611.5298, 7931.275
612.0120, 7944.288
612.4941, 7945.632
612.9762, 7942.490
613.4583, 7932.267
613.9404, 7927.870
614.4225, 7932.125
614.9047, 7938.271
615.3868, 7938.078
615.8689, 7931.485
616.3510, 7916.983
616.8331, 7890.936
617.3152, 7861.031
617.7974, 7836.409
618.2795, 7817.564
618.7616, 7804.964
619.2437, 7808.310
619.7258, 7811.064
620.2079, 7796.840
620.6901, 7765.131
621.1722, 7740.233
621.6543, 7741.819
622.1364, 7745.032
622.6185, 7732.975
623.1006, 7696.324
623.5828, 7662.821
624.0649, 7632.075
624.5470, 7604.834
625.0291, 7583.124
625.5112, 7568.348
625.9933, 7551.055
626.4755, 7528.495
626.9576, 7504.241
627.4397, 7488.392
627.9218, 7479.420
628.4039, 7465.674
628.8860, 7427.393
629.3682, 7388.325
629.8503, 7394.934
630.3324, 7439.398
630.8145, 7462.419
631.2966, 7405.576
631.7787, 7331.383
632.2609, 7285.620
632.7430, 7281.919
633.2251, 7275.890
633.7072, 7255.165
634.1893, 7231.273
634.6714, 7214.405
635.1536, 7211.509
635.6357, 7199.684
636.1178, 7174.891
636.5999, 7143.153
637.0820, 7115.228
637.5641, 7091.380
638.0463, 7068.302
638.5284, 7046.403
639.0105, 7023.111
639.4926, 6990.743
639.9747, 6950.646
640.4568, 6911.696
640.9390, 6878.254
641.4211, 6848.568
641.9032, 6823.175
642.3853, 6802.179
642.8674, 6776.345
643.3495, 6741.009
643.8317, 6700.261
644.3138, 6655.667
644.7959, 6601.503
645.2780, 6555.293
645.7601, 6517.140
646.2422, 6486.957
646.7244, 6467.753
647.2065, 6463.945
647.6886, 6447.890
648.1707, 6411.590
648.6528, 6365.458
649.1349, 6331.401
649.6171, 6307.484
650.0992, 6279.080
650.5813, 6236.896
651.0634, 6188.032
651.5455, 6137.669
652.0276, 6086.760
652.5098, 6042.882
652.9919, 6012.170
653.4740, 5987.996
653.9561, 5966.559
654.4382, 5947.392
654.9203, 5931.678
655.4025, 5927.085
655.8846, 5919.824
656.3667, 5898.729
656.8488, 5855.001
657.3309, 5825.022
657.8130, 5813.625
658.2952, 5809.317
658.7773, 5791.489
659.2594, 5762.250
659.7415, 5750.720
660.2236, 5771.417
660.7057, 5801.723
661.1879, 5811.766
661.6700, 5805.041
