##NAMES=Vesuvianite
##RRUFFID=R050233
##IDEAL CHEMISTRY=(Ca,Na)_19_(Al,Mg,Fe^3+^)_13_(SiO_4_)_10_(Si_2_O_7_)_4_(OH,F,O)_10_
##LOCALITY=Ludwig, Nevada, USA
##OWNER=RRUFF
##SOURCE=Marcus Origlieri
##DESCRIPTION=Pale green euhedral single crystal
##STATUS=The identification of this mineral has been confirmed by X-ray diffraction and chemical analysis
##URL=rruff.info/R050233
##MEASURED CHEMISTRY=Ca_19.00_(Al_10.04_Mg_2.54_Fe^2+^_0.42_)_Σ=13_(Si_17.96_Al_0.04_)_Σ=18_O_68_((OH)_9.66_F_0.34_)_Σ=10_ ; Boron not analyzed.
134.1349, 889.0850
134.6170, 893.2860
135.0991, 897.6143
135.5812, 901.3204
136.0633, 904.4178
136.5455, 907.1917
137.0276, 909.6525
137.5097, 911.9282
137.9918, 914.6470
138.4739, 918.5892
138.9560, 922.6024
139.4382, 925.4709
139.9203, 927.0715
140.4024, 927.7960
140.8845, 927.6374
141.3666, 926.8402
141.8487, 925.7223
142.3309, 923.9845
142.8130, 921.9697
143.2951, 921.0261
143.7772, 922.3688
144.2593, 923.0585
144.7414, 921.6978
145.2236, 918.6407
145.7057, 914.7792
146.1878, 910.4791
146.6699, 905.6740
147.1520, 901.6888
147.6341, 899.6096
148.1163, 897.4852
148.5984, 894.4725
149.0805, 890.6777
149.5626, 886.7526
150.0447, 883.3704
150.5268, 880.4793
151.0090, 878.3686
151.4911, 876.8568
151.9732, 876.0491
152.4553, 875.9853
152.9374, 876.6793
153.4195, 878.1627
153.9017, 880.5054
154.3838, 884.0430
154.8659, 887.9842
155.3480, 892.2808
155.8301, 896.9992
156.3122, 902.2510
156.7944, 908.0680
157.2765, 914.3419
157.7586, 921.0673
158.2407, 928.5006
158.7228, 935.4762
159.2049, 941.2536
159.6871, 946.3196
160.1692, 951.7589
160.6513, 957.9237
161.1334, 964.6486
161.6155, 971.7342
162.0976, 979.3187
162.5798, 986.5695
163.0619, 992.9459
163.5440, 998.4717
164.0261, 1003.414
164.5082, 1007.523
164.9903, 1011.223
165.4725, 1014.934
165.9546, 1018.699
166.4367, 1022.354
166.9188, 1025.537
167.4009, 1028.075
167.8830, 1030.915
168.3652, 1034.771
168.8473, 1038.744
169.3294, 1042.264
169.8115, 1045.152
170.2936, 1047.520
170.7757, 1049.463
171.2579, 1050.301
171.7400, 1052.022
172.2221, 1055.301
172.7042, 1059.230
173.1863, 1063.179
173.6684, 1066.866
174.1506, 1070.096
174.6327, 1072.255
175.1148, 1071.738
175.5969, 1071.905
176.0790, 1073.920
176.5611, 1076.519
177.0433, 1077.983
177.5254, 1077.355
178.0075, 1075.105
178.4896, 1073.503
178.9717, 1073.903
179.4538, 1073.381
179.9360, 1071.215
180.4181, 1067.634
180.9002, 1062.935
181.3823, 1057.039
181.8644, 1050.358
182.3465, 1044.957
182.8287, 1042.052
183.3108, 1039.055
183.7929, 1034.865
184.2750, 1029.566
184.7571, 1023.463
185.2392, 1016.281
185.7214, 1008.561
186.2035, 1001.864
186.6856, 997.0240
187.1677, 992.4433
187.6498, 986.4799
188.1319, 979.0351
188.6141, 972.1307
189.0962, 967.0870
189.5783, 963.2422
190.0604, 959.7208
190.5425, 956.3781
191.0246, 953.2528
191.5068, 950.3895
191.9889, 947.8163
192.4710, 945.4271
192.9531, 943.0986
193.4352, 940.9550
193.9173, 939.1257
194.3995, 937.6298
194.8816, 936.5305
195.3637, 936.0276
195.8458, 936.4643
196.3279, 936.9073
196.8100, 937.0706
197.2922, 937.0891
197.7743, 937.0507
198.2564, 936.9501
198.7385, 936.9142
199.2206, 937.4377
199.7027, 938.7352
200.1849, 940.3951
200.6670, 942.3089
201.1491, 944.4981
201.6312, 947.0250
202.1133, 949.9234
202.5954, 953.1462
203.0776, 956.4481
203.5597, 958.9596
204.0418, 962.5037
204.5239, 967.9375
205.0060, 974.5477
205.4881, 981.1815
205.9703, 987.1474
206.4524, 992.5285
206.9345, 997.7758
207.4166, 1002.894
207.8987, 1007.909
208.3808, 1012.451
208.8630, 1016.856
209.3451, 1021.870
209.8272, 1028.047
210.3093, 1035.177
210.7914, 1041.807
211.2735, 1047.763
211.7557, 1053.482
212.2378, 1059.155
212.7199, 1064.719
213.2020, 1070.084
213.6841, 1075.296
214.1662, 1080.197
214.6484, 1084.336
215.1305, 1087.761
215.6126, 1090.488
216.0947, 1092.604
216.5768, 1094.078
217.0589, 1094.663
217.5410, 1094.153
218.0232, 1092.569
218.5053, 1090.457
218.9874, 1088.065
219.4695, 1084.842
219.9516, 1079.960
220.4337, 1073.455
220.9159, 1066.977
221.3980, 1061.026
221.8801, 1055.751
222.3622, 1051.575
222.8443, 1049.039
223.3264, 1046.706
223.8086, 1042.889
224.2907, 1037.410
224.7728, 1032.163
225.2549, 1028.106
225.7370, 1024.603
226.2191, 1021.182
226.7013, 1017.786
227.1834, 1014.330
227.6655, 1010.719
228.1476, 1006.945
228.6297, 1003.030
229.1118, 998.4772
229.5940, 994.0848
230.0761, 990.4724
230.5582, 987.8596
231.0403, 985.8372
231.5224, 983.9732
232.0045, 982.5070
232.4867, 980.4746
232.9688, 977.4330
233.4509, 973.9627
233.9330, 970.3396
234.4151, 966.6634
234.8972, 963.0760
235.3794, 959.6990
235.8615, 956.1625
236.3436, 953.7703
236.8257, 953.2484
237.3078, 953.3115
237.7899, 953.2497
238.2721, 952.8115
238.7542, 951.9184
239.2363, 950.2941
239.7184, 947.0133
240.2005, 944.8846
240.6826, 943.5986
241.1648, 943.4851
241.6469, 945.4426
242.1290, 949.3828
242.6111, 953.7487
243.0932, 956.0076
243.5753, 954.3196
244.0575, 954.2838
244.5396, 956.0841
245.0217, 959.1517
245.5038, 963.2377
245.9859, 968.2395
246.4680, 973.9648
246.9502, 980.2564
247.4323, 987.4037
247.9144, 994.3840
248.3965, 1000.432
248.8786, 1006.828
249.3607, 1014.879
249.8429, 1024.621
250.3250, 1034.644
250.8071, 1043.256
251.2892, 1049.815
251.7713, 1056.958
252.2534, 1064.679
252.7356, 1072.882
253.2177, 1082.592
253.6998, 1093.478
254.1819, 1102.712
254.6640, 1107.285
255.1461, 1106.277
255.6283, 1104.562
256.1104, 1103.059
256.5925, 1100.245
257.0746, 1094.855
257.5567, 1086.844
258.0388, 1077.134
258.5210, 1066.103
259.0031, 1053.723
259.4852, 1042.077
259.9673, 1031.197
260.4494, 1020.975
260.9315, 1010.997
261.4137, 1001.327
261.8958, 993.0727
262.3779, 987.3494
262.8600, 983.8729
263.3421, 980.0383
263.8242, 975.0366
264.3064, 970.2713
264.7885, 966.7848
265.2706, 964.5246
265.7527, 962.9012
266.2348, 961.5657
266.7169, 960.7284
267.1991, 960.6664
267.6812, 961.3691
268.1633, 962.8661
268.6454, 965.2914
269.1275, 968.6065
269.6096, 972.5715
270.0918, 977.6963
270.5739, 982.9780
271.0560, 986.5479
271.5381, 987.5939
272.0202, 988.7439
272.5023, 992.3361
272.9845, 998.0239
273.4666, 1002.954
273.9487, 1005.642
274.4308, 1007.598
274.9129, 1010.694
275.3951, 1014.998
275.8772, 1020.121
276.3593, 1026.334
276.8414, 1033.391
277.3235, 1039.623
277.8056, 1044.086
278.2878, 1048.170
278.7699, 1053.155
279.2520, 1059.059
279.7341, 1065.318
280.2162, 1071.915
280.6983, 1078.702
281.1805, 1084.712
281.6626, 1089.374
282.1447, 1093.825
282.6268, 1099.372
283.1089, 1105.631
283.5910, 1110.973
284.0732, 1113.686
284.5553, 1114.601
285.0374, 1116.943
285.5195, 1121.474
286.0016, 1126.404
286.4837, 1130.986
286.9659, 1135.140
287.4480, 1138.657
287.9301, 1141.477
288.4122, 1143.583
288.8943, 1145.073
289.3764, 1146.394
289.8586, 1146.015
290.3407, 1142.325
290.8228, 1136.908
291.3049, 1131.801
291.7870, 1127.917
292.2691, 1124.706
292.7513, 1121.190
293.2334, 1117.477
293.7155, 1113.163
294.1976, 1107.830
294.6797, 1102.001
295.1618, 1095.908
295.6440, 1089.570
296.1261, 1083.445
296.6082, 1078.348
297.0903, 1074.549
297.5724, 1070.633
298.0545, 1065.806
298.5367, 1060.961
299.0188, 1056.751
299.5009, 1053.288
299.9830, 1050.141
300.4651, 1046.861
300.9472, 1043.418
301.4294, 1039.918
301.9115, 1036.162
302.3936, 1032.509
302.8757, 1029.287
303.3578, 1026.421
303.8399, 1023.452
304.3221, 1019.720
304.8042, 1015.206
305.2863, 1011.485
305.7684, 1009.730
306.2505, 1007.550
306.7326, 1003.324
307.2148, 997.7421
307.6969, 992.7080
308.1790, 989.9522
308.6611, 988.9620
309.1432, 986.2181
309.6253, 979.9284
310.1075, 974.4770
310.5896, 971.9196
311.0717, 971.0573
311.5538, 970.0582
312.0359, 967.8975
312.5180, 965.1511
313.0002, 963.3724
313.4823, 962.8928
313.9644, 962.7461
314.4465, 962.8846
314.9286, 963.0594
315.4107, 962.9498
315.8929, 962.4189
316.3750, 961.8134
316.8571, 961.6992
317.3392, 962.1729
317.8213, 962.8196
318.3034, 963.6964
318.7856, 964.6229
319.2677, 965.4222
319.7498, 966.0887
320.2319, 966.8500
320.7140, 968.0572
321.1961, 969.7969
321.6783, 971.2848
322.1604, 972.4800
322.6425, 973.3549
323.1246, 973.7528
323.6067, 973.7642
324.0888, 973.7130
324.5710, 973.8102
325.0531, 974.0555
325.5352, 974.4702
326.0173, 975.1635
326.4994, 975.9024
326.9815, 976.7872
327.4637, 977.6302
327.9458, 978.0626
328.4279, 977.7606
328.9100, 977.0055
329.3921, 976.7797
329.8742, 977.6469
330.3564, 977.8670
330.8385, 976.6940
331.3206, 974.7526
331.8027, 972.5455
332.2848, 970.1838
332.7669, 967.9669
333.2491, 966.5276
333.7312, 966.1553
334.2133, 965.3915
334.6954, 963.3389
335.1775, 961.1234
335.6596, 959.2768
336.1418, 957.9152
336.6239, 957.2990
337.1060, 958.0737
337.5881, 960.2991
338.0702, 961.7720
338.5523, 961.6531
339.0345, 961.3162
339.5165, 961.3987
339.9987, 961.9177
340.4808, 962.7883
340.9629, 964.1627
341.4450, 965.9005
341.9271, 967.1061
342.4092, 967.1854
342.8914, 967.8062
343.3735, 969.8889
343.8556, 972.9475
344.3377, 976.3198
344.8198, 979.9309
345.3019, 983.4604
345.7841, 986.0726
346.2662, 987.3631
346.7483, 989.3119
347.2304, 993.0601
347.7125, 997.7001
348.1946, 1002.610
348.6768, 1007.679
349.1589, 1012.912
349.6410, 1018.646
350.1231, 1024.849
350.6052, 1030.037
351.0873, 1033.011
351.5695, 1035.678
352.0516, 1039.299
352.5337, 1043.925
353.0158, 1049.778
353.4979, 1057.752
353.9800, 1067.144
354.4622, 1075.338
354.9443, 1081.567
355.4264, 1087.807
355.9085, 1095.850
356.3906, 1105.013
356.8727, 1113.837
357.3549, 1121.932
357.8370, 1129.341
358.3191, 1135.848
358.8012, 1141.320
359.2833, 1147.108
359.7654, 1154.810
360.2476, 1162.815
360.7297, 1168.477
361.2118, 1170.974
361.6939, 1172.250
362.1760, 1173.438
362.6581, 1174.564
363.1403, 1175.877
363.6224, 1177.836
364.1045, 1179.475
364.5866, 1179.627
365.0687, 1178.331
365.5508, 1176.121
366.0330, 1173.150
366.5151, 1169.431
366.9972, 1164.931
367.4793, 1159.635
367.9614, 1153.656
368.4435, 1146.726
368.9257, 1139.031
369.4078, 1131.657
369.8899, 1125.276
370.3720, 1118.924
370.8541, 1111.809
371.3362, 1103.918
371.8184, 1095.682
372.3005, 1087.158
372.7826, 1078.507
373.2647, 1070.311
373.7468, 1062.540
374.2289, 1055.107
374.7111, 1048.154
375.1932, 1041.476
375.6753, 1034.528
376.1574, 1027.118
376.6395, 1019.622
377.1216, 1012.671
377.6038, 1006.376
378.0859, 1000.208
378.5680, 994.3716
379.0501, 988.4684
379.5322, 981.9489
380.0143, 974.8451
380.4965, 967.9442
380.9786, 961.9579
381.4607, 956.9010
381.9428, 951.9838
382.4249, 947.3162
382.9070, 942.6500
383.3892, 937.7452
383.8713, 932.7782
384.3534, 928.0994
384.8355, 923.8801
385.3176, 920.2083
385.7997, 917.3735
386.2819, 915.8010
386.7640, 914.6326
387.2461, 914.1627
387.7282, 913.9325
388.2103, 913.4772
388.6924, 912.7110
389.1746, 911.8735
389.6567, 911.1339
390.1388, 910.1422
390.6209, 910.7595
391.1030, 913.8342
391.5851, 917.3991
392.0673, 920.7268
392.5494, 923.8187
393.0315, 926.8711
393.5136, 929.9495
393.9957, 933.1865
394.4778, 937.3381
394.9600, 943.1145
395.4421, 948.9633
395.9242, 954.5114
396.4063, 960.0685
396.8884, 965.9433
397.3705, 972.2432
397.8527, 978.9848
398.3348, 986.2630
398.8169, 994.3436
399.2990, 1002.127
399.7811, 1009.542
400.2632, 1016.702
400.7454, 1023.868
401.2275, 1030.847
401.7096, 1037.076
402.1917, 1042.008
402.6738, 1045.780
403.1559, 1049.180
403.6381, 1051.883
404.1202, 1054.766
404.6023, 1058.737
405.0844, 1062.855
405.5665, 1065.973
406.0486, 1067.655
406.5308, 1068.340
407.0129, 1068.692
407.4950, 1068.755
407.9771, 1067.760
408.4592, 1064.803
408.9413, 1061.287
409.4235, 1058.794
409.9056, 1057.242
410.3877, 1054.808
410.8698, 1050.063
411.3519, 1043.671
411.8340, 1037.343
412.3162, 1031.306
412.7983, 1024.892
413.2804, 1017.382
413.7625, 1009.118
414.2446, 1000.936
414.7267, 993.2367
415.2089, 985.3842
415.6910, 976.7766
416.1731, 967.5378
416.6552, 958.3330
417.1373, 949.4425
417.6194, 940.6934
418.1016, 931.7938
418.5837, 922.7930
419.0658, 913.5270
419.5479, 903.7296
420.0300, 893.7243
420.5121, 883.9105
420.9943, 874.3320
421.4764, 865.0093
421.9585, 855.9708
422.4406, 847.2668
422.9227, 838.6066
423.4048, 829.8984
423.8870, 821.3583
424.3691, 813.2198
424.8512, 805.3693
425.3333, 797.5046
425.8154, 789.4651
426.2975, 781.5297
426.7797, 774.2277
427.2618, 768.1174
427.7439, 761.9300
428.2260, 755.2711
428.7081, 748.8398
429.1902, 742.9742
429.6724, 737.7982
430.1545, 733.4185
430.6366, 730.0704
431.1187, 727.8043
431.6008, 724.9406
432.0829, 720.7640
432.5651, 716.6995
433.0472, 712.9113
433.5293, 709.4509
434.0114, 706.2968
434.4935, 703.4550
434.9756, 700.9806
435.4578, 699.1332
435.9399, 698.2559
436.4220, 696.8997
436.9041, 693.9730
437.3862, 691.2202
437.8683, 689.8366
438.3505, 689.6658
438.8326, 689.5562
439.3147, 688.5834
439.7968, 686.9686
440.2789, 685.6122
440.7610, 684.4799
441.2432, 683.7022
441.7253, 683.2216
442.2074, 683.1677
442.6895, 683.9375
443.1716, 685.9441
443.6537, 687.8754
444.1359, 688.4421
444.6180, 687.8067
445.1001, 686.9656
445.5822, 686.0089
446.0643, 685.1806
446.5464, 684.8193
447.0286, 684.8746
447.5107, 684.9973
447.9928, 685.2618
448.4749, 685.4453
448.9570, 685.1216
449.4391, 684.3477
449.9213, 683.9925
450.4034, 684.8669
450.8855, 686.3837
451.3676, 686.1688
451.8497, 682.4212
452.3318, 679.9833
452.8140, 681.0484
453.2961, 683.7048
453.7782, 685.6383
454.2603, 686.2687
454.7424, 686.1650
455.2245, 685.8956
455.7067, 685.3500
456.1888, 685.3106
456.6709, 686.5820
457.1530, 687.4360
457.6351, 686.6778
458.1172, 685.0537
458.5994, 684.0063
459.0815, 684.2975
459.5636, 685.4835
460.0457, 686.5010
460.5278, 687.4949
461.0099, 687.9866
461.4921, 687.3788
461.9742, 686.7765
462.4563, 686.9916
462.9384, 687.9813
463.4205, 689.1123
463.9026, 689.9661
464.3848, 690.5251
464.8669, 690.3806
465.3490, 688.5090
465.8311, 687.9451
466.3132, 690.8203
466.7953, 695.1529
467.2775, 698.7227
467.7596, 700.8876
468.2417, 702.5383
468.7238, 704.6198
469.2059, 707.0187
469.6880, 708.6315
470.1702, 708.7916
470.6523, 708.9568
471.1344, 710.8613
471.6165, 714.0661
472.0986, 716.7607
472.5807, 718.4959
473.0629, 719.5336
473.5450, 719.8187
474.0271, 719.5054
474.5092, 719.3926
474.9913, 719.8415
475.4734, 720.7527
475.9556, 722.0445
476.4377, 724.2659
476.9198, 725.5031
477.4019, 724.7270
477.8840, 723.2994
478.3661, 722.5937
478.8483, 722.6669
479.3304, 722.6667
479.8125, 721.9088
480.2946, 720.4125
480.7767, 718.4542
481.2589, 715.7692
481.7410, 712.9286
482.2231, 709.6410
482.7052, 706.4119
483.1873, 704.0377
483.6694, 702.6364
484.1516, 701.2507
484.6337, 698.5424
485.1158, 694.2709
485.5979, 690.0135
486.0800, 685.5531
486.5621, 681.3631
487.0443, 677.6386
487.5264, 674.3011
488.0085, 671.2631
488.4906, 668.5603
488.9727, 665.9930
489.4548, 663.2715
489.9370, 660.4085
490.4191, 657.4277
490.9012, 654.0952
491.3833, 650.9326
491.8654, 648.5687
492.3475, 646.9442
492.8297, 645.0471
493.3118, 642.0986
493.7939, 638.8554
494.2760, 636.2362
494.7581, 634.2708
495.2402, 632.9196
495.7224, 632.4454
496.2045, 632.3613
496.6866, 631.0751
497.1687, 627.8007
497.6508, 625.1217
498.1329, 623.9935
498.6151, 623.5515
499.0972, 622.9904
499.5793, 622.1269
500.0614, 620.9260
500.5435, 619.2984
501.0256, 617.2436
501.5078, 615.6048
501.9899, 614.9504
502.4720, 614.0402
502.9541, 611.8917
503.4362, 609.7051
503.9183, 609.2736
504.4004, 610.9808
504.8825, 613.0587
505.3647, 613.0619
505.8468, 610.6837
506.3289, 608.6145
506.8110, 606.9442
507.2931, 605.5272
507.7752, 604.2927
508.2574, 603.2471
508.7395, 602.4689
509.2216, 602.0639
509.7037, 601.7442
510.1858, 601.2285
510.6679, 600.5123
511.1501, 599.3597
511.6322, 597.4081
512.1143, 595.4576
512.5964, 594.7698
513.0786, 595.1094
513.5607, 594.5184
514.0428, 591.4717
514.5249, 588.0697
515.0070, 586.2785
515.4891, 585.8701
515.9713, 585.7698
516.4534, 585.6291
516.9355, 585.0785
517.4176, 583.2312
517.8997, 579.1005
518.3818, 575.6547
518.8640, 573.2631
519.3461, 571.3109
519.8282, 569.3796
520.3103, 567.4661
520.7924, 565.7937
521.2745, 564.5497
521.7567, 563.5959
522.2388, 562.3899
522.7209, 560.8563
523.2030, 559.1881
523.6851, 557.1718
524.1672, 555.2228
524.6494, 553.7315
525.1315, 552.6705
525.6136, 551.6194
526.0957, 550.0607
526.5778, 548.2532
527.0599, 547.3098
527.5421, 547.6025
528.0242, 547.4550
528.5063, 545.3981
528.9884, 542.8235
529.4705, 541.7573
529.9526, 542.7129
530.4348, 543.4943
530.9169, 542.9109
531.3990, 541.4217
531.8811, 539.3778
532.3632, 536.8415
532.8453, 535.2310
533.3275, 535.9590
533.8096, 538.6047
534.2917, 539.7913
534.7738, 538.9430
535.2559, 537.6407
535.7380, 535.5709
536.2202, 533.5695
536.7023, 532.5651
537.1844, 532.7318
537.6665, 533.6956
538.1486, 535.2512
538.6307, 537.4116
539.1129, 538.4926
539.5950, 537.6323
540.0771, 536.7650
540.5592, 536.1169
541.0413, 535.8184
541.5234, 536.0677
542.0056, 536.9053
542.4877, 538.0002
542.9698, 539.3455
543.4519, 540.7892
543.9340, 541.0026
544.4161, 539.3599
544.8983, 537.7737
545.3804, 537.7963
545.8625, 538.6961
546.3446, 539.0858
546.8267, 538.5436
547.3088, 537.9017
547.7910, 537.7507
548.2731, 537.8182
548.7552, 537.3817
549.2373, 536.2792
549.7194, 535.4539
550.2015, 536.0163
550.6837, 538.0290
551.1658, 538.8644
551.6479, 537.4151
552.1300, 536.3091
552.6121, 536.8180
553.0942, 537.8290
553.5764, 537.8889
554.0585, 536.6221
554.5406, 534.7155
555.0227, 532.7281
555.5048, 530.5610
555.9869, 529.9124
556.4691, 532.3596
556.9512, 534.1165
557.4333, 533.1155
557.9154, 531.0277
558.3975, 530.0060
558.8796, 530.6902
559.3618, 532.0169
559.8439, 533.3730
560.3260, 534.6189
560.8081, 535.1438
561.2902, 534.7764
561.7723, 534.0773
562.2545, 533.4468
562.7366, 532.8222
563.2187, 531.9179
563.7008, 529.9498
564.1829, 528.7131
564.6650, 529.4097
565.1472, 531.0353
565.6293, 532.2859
566.1114, 532.8664
566.5935, 533.1443
567.0756, 533.4896
567.5577, 533.8994
568.0399, 533.9942
568.5220, 532.8403
569.0041, 532.5252
569.4862, 534.0052
569.9683, 536.1257
570.4504, 537.6659
570.9326, 538.4183
571.4147, 539.0791
571.8968, 540.3726
572.3789, 542.1940
572.8610, 543.8358
573.3431, 545.1392
573.8253, 546.7148
574.3074, 549.1936
574.7895, 551.9819
575.2716, 554.1363
575.7537, 555.3746
576.2358, 556.8766
576.7180, 559.3098
577.2001, 562.2817
577.6822, 565.3016
578.1643, 568.3040
578.6464, 571.3226
579.1285, 574.3897
579.6107, 577.4838
580.0928, 580.5066
580.5749, 582.7148
581.0570, 585.8772
581.5391, 591.3827
582.0212, 596.9094
582.5034, 600.5426
582.9855, 602.3674
583.4676, 603.5206
583.9497, 604.6237
584.4318, 605.9449
584.9139, 608.5168
585.3961, 612.7516
585.8782, 616.8640
586.3602, 620.5532
586.8423, 623.8162
587.3245, 626.5297
587.8066, 628.7341
588.2887, 630.7712
588.7708, 633.2007
589.2529, 635.2648
589.7350, 635.5224
590.2172, 634.3546
590.6993, 634.0275
591.1814, 635.4847
591.6635, 638.0580
592.1456, 640.7744
592.6277, 643.7863
593.1099, 646.3433
593.5920, 648.5303
594.0741, 650.1984
594.5562, 650.9167
595.0383, 651.1409
595.5204, 651.7787
596.0026, 653.2101
596.4847, 654.7712
596.9668, 655.0250
597.4489, 653.5148
597.9310, 654.1771
598.4131, 659.3492
598.8953, 663.7299
599.3774, 663.8730
599.8595, 661.7945
600.3416, 660.9785
600.8237, 662.6239
601.3058, 664.7338
601.7880, 665.7853
602.2701, 666.1229
602.7522, 666.6301
603.2343, 667.4596
603.7164, 668.2137
604.1985, 668.5519
604.6807, 668.5252
605.1628, 668.5656
605.6449, 668.8828
606.1270, 668.9814
606.6091, 668.6255
607.0912, 668.1185
607.5734, 667.6799
608.0555, 667.3768
608.5376, 667.2885
609.0197, 667.5831
609.5018, 668.0534
609.9839, 667.7615
610.4661, 666.4469
610.9482, 665.1404
611.4303, 664.0042
611.9124, 663.0637
612.3945, 662.2897
612.8766, 661.7050
613.3588, 661.4445
613.8409, 661.8558
614.3230, 662.4141
614.8051, 662.2986
615.2872, 661.7401
615.7693, 661.9547
616.2515, 663.5140
616.7336, 665.3710
617.2157, 665.9127
617.6978, 664.6312
618.1799, 664.4479
618.6620, 666.3371
619.1442, 668.1230
619.6263, 668.6094
620.1084, 668.6090
620.5905, 669.3694
621.0726, 671.2674
621.5547, 673.5990
622.0369, 675.4527
622.5190, 676.8657
623.0011, 678.8293
623.4832, 681.4873
623.9653, 684.3885
624.4474, 687.3227
624.9296, 690.3611
625.4117, 693.5952
625.8938, 697.0245
626.3759, 700.6917
626.8580, 704.7800
627.3401, 709.0384
627.8223, 713.3253
