##NAMES=Vesuvianite
##RRUFFID=R050035
##IDEAL CHEMISTRY=(Ca,Na)_19_(Al,Mg,Fe^3+^)_13_(SiO_4_)_10_(Si_2_O_7_)_4_(OH,F,O)_10_
##LOCALITY=Olmsteadville, New York, USA
##OWNER=RRUFF
##SOURCE=University of Arizona Mineral Museum
##DESCRIPTION=Brown single crystal fragment
##STATUS=The identification of this mineral has been confirmed by X-ray diffraction and chemical analysis
##URL=rruff.info/R050035
##MEASURED CHEMISTRY=(Ca_18.66_Na_0.34_)_Σ=19_(Al_9.16_Mg_1.28_Ti_1.21_Fe^3+^_0.89_Fe^2+^_0.46_)_Σ=13_Si_18_O_68_((OH)_4.70_F_3.18_O_2.12_)_Σ=10_
161.9993, 1465.254
162.4814, 1494.413
162.9636, 1525.846
163.4457, 1552.071
163.9278, 1563.073
164.4099, 1569.168
164.8920, 1592.593
165.3741, 1641.111
165.8563, 1684.872
166.3384, 1701.612
166.8205, 1701.570
167.3026, 1700.582
167.7847, 1702.998
168.2668, 1709.166
168.7490, 1720.276
169.2311, 1737.592
169.7132, 1757.356
170.1953, 1781.964
170.6774, 1807.018
171.1595, 1824.744
171.6417, 1828.405
172.1238, 1823.780
172.6059, 1825.312
173.0880, 1834.711
173.5701, 1847.281
174.0522, 1861.565
174.5344, 1877.189
175.0165, 1893.713
175.4986, 1911.814
175.9807, 1930.233
176.4628, 1945.186
176.9449, 1954.107
177.4271, 1964.314
177.9092, 1978.339
178.3913, 1995.148
178.8734, 2013.674
179.3555, 2034.234
179.8376, 2055.655
180.3197, 2074.936
180.8019, 2092.573
181.2840, 2106.739
181.7661, 2115.486
182.2482, 2121.550
182.7303, 2128.173
183.2124, 2136.941
183.6946, 2147.252
184.1767, 2157.793
184.6588, 2170.215
185.1409, 2179.582
185.6230, 2183.958
186.1051, 2185.344
186.5873, 2185.541
187.0694, 2185.030
187.5515, 2184.799
188.0336, 2188.470
188.5157, 2201.967
188.9978, 2208.582
189.4800, 2201.650
189.9621, 2188.536
190.4442, 2176.712
190.9263, 2169.601
191.4084, 2165.068
191.8905, 2158.241
192.3727, 2149.485
192.8548, 2137.244
193.3369, 2114.143
193.8190, 2091.250
194.3011, 2080.624
194.7832, 2087.195
195.2654, 2103.413
195.7475, 2113.607
196.2296, 2117.611
196.7117, 2115.062
197.1938, 2098.333
197.6759, 2080.299
198.1581, 2072.547
198.6402, 2078.872
199.1223, 2094.000
199.6044, 2109.044
200.0865, 2126.190
200.5686, 2138.463
201.0508, 2141.768
201.5329, 2143.114
202.0150, 2148.837
202.4971, 2160.391
202.9792, 2172.933
203.4613, 2177.382
203.9435, 2166.305
204.4256, 2164.170
204.9077, 2177.225
205.3898, 2194.501
205.8719, 2208.612
206.3540, 2218.130
206.8362, 2226.597
207.3183, 2239.348
207.8004, 2258.793
208.2825, 2276.164
208.7646, 2290.469
209.2467, 2303.726
209.7289, 2318.416
210.2110, 2333.981
210.6931, 2346.711
211.1752, 2351.532
211.6573, 2345.926
212.1395, 2341.443
212.6216, 2335.774
213.1037, 2333.049
213.5858, 2336.182
214.0679, 2344.634
214.5500, 2355.548
215.0322, 2366.379
215.5143, 2377.128
215.9964, 2387.577
216.4785, 2399.454
216.9606, 2409.498
217.4427, 2416.771
217.9249, 2421.141
218.4070, 2422.240
218.8891, 2418.438
219.3712, 2409.368
219.8533, 2408.929
220.3354, 2428.243
220.8176, 2445.789
221.2997, 2458.676
221.7818, 2465.254
222.2639, 2462.750
222.7460, 2447.840
223.2281, 2422.069
223.7103, 2403.430
224.1924, 2398.208
224.6745, 2393.857
225.1566, 2389.668
225.6387, 2384.326
226.1208, 2376.035
226.6030, 2363.592
227.0851, 2347.880
227.5672, 2332.337
228.0493, 2313.695
228.5314, 2300.036
229.0135, 2294.814
229.4957, 2294.188
229.9778, 2293.746
230.4599, 2291.473
230.9420, 2288.728
231.4241, 2288.925
231.9062, 2293.300
232.3884, 2298.796
232.8705, 2307.311
233.3526, 2315.356
233.8347, 2318.480
234.3168, 2315.466
234.7989, 2311.427
235.2811, 2316.438
235.7632, 2337.192
236.2453, 2350.997
236.7274, 2351.581
237.2095, 2348.665
237.6916, 2347.532
238.1738, 2349.656
238.6559, 2354.807
239.1380, 2364.289
239.6201, 2380.930
240.1022, 2391.277
240.5843, 2386.976
241.0665, 2382.741
241.5486, 2387.424
242.0307, 2400.113
242.5128, 2412.502
242.9949, 2414.971
243.4770, 2406.147
243.9592, 2404.185
244.4413, 2420.573
244.9234, 2433.028
245.4055, 2427.799
245.8876, 2411.094
246.3697, 2399.894
246.8519, 2408.858
247.3340, 2435.115
247.8161, 2451.674
248.2982, 2450.211
248.7803, 2449.854
249.2624, 2459.132
249.7446, 2473.572
250.2267, 2485.229
250.7088, 2488.706
251.1909, 2487.992
251.6730, 2495.128
252.1551, 2513.716
252.6373, 2533.159
253.1194, 2552.423
253.6015, 2569.711
254.0836, 2582.495
254.5657, 2589.419
255.0478, 2593.233
255.5300, 2598.784
256.0121, 2607.210
256.4942, 2612.945
256.9763, 2614.230
257.4584, 2612.206
257.9406, 2606.033
258.4227, 2595.352
258.9048, 2585.018
259.3869, 2583.081
259.8690, 2590.274
260.3511, 2587.886
260.8333, 2564.800
261.3154, 2537.253
261.7975, 2514.510
262.2796, 2497.426
262.7617, 2487.185
263.2438, 2491.595
263.7260, 2506.354
264.2081, 2503.965
264.6902, 2470.762
265.1723, 2436.748
265.6544, 2425.936
266.1365, 2432.639
266.6187, 2438.671
267.1008, 2434.467
267.5829, 2423.972
268.0650, 2414.265
268.5471, 2404.373
269.0292, 2399.022
269.5114, 2406.312
269.9935, 2420.082
270.4756, 2430.048
270.9577, 2433.062
271.4398, 2431.608
271.9219, 2425.818
272.4041, 2415.428
272.8862, 2409.900
273.3683, 2414.721
273.8504, 2427.540
274.3325, 2443.395
274.8146, 2465.162
275.2968, 2484.378
275.7789, 2492.709
276.2610, 2492.898
276.7431, 2496.593
277.2252, 2508.766
277.7073, 2525.170
278.1895, 2537.885
278.6716, 2545.302
279.1537, 2556.648
279.6358, 2579.830
280.1179, 2608.068
280.6000, 2627.967
281.0822, 2635.596
281.5643, 2641.276
282.0464, 2659.094
282.5285, 2690.389
283.0106, 2715.417
283.4927, 2727.332
283.9749, 2734.973
284.4570, 2744.895
284.9391, 2758.031
285.4212, 2776.088
285.9033, 2803.802
286.3854, 2840.050
286.8676, 2856.043
287.3497, 2834.656
287.8318, 2811.633
288.3139, 2805.526
288.7960, 2811.988
289.2781, 2818.609
289.7603, 2819.211
290.2424, 2813.651
290.7245, 2800.845
291.2066, 2778.208
291.6887, 2752.138
292.1708, 2716.223
292.6530, 2679.974
293.1351, 2656.484
293.6172, 2650.196
294.0993, 2653.660
294.5814, 2654.585
295.0635, 2657.677
295.5457, 2647.741
296.0278, 2615.679
296.5099, 2578.297
296.9920, 2545.927
297.4741, 2520.428
297.9562, 2500.016
298.4384, 2483.538
298.9205, 2472.100
299.4026, 2456.570
299.8847, 2428.606
300.3668, 2404.984
300.8489, 2393.294
301.3311, 2390.463
301.8131, 2389.917
302.2953, 2387.988
302.7774, 2384.128
303.2595, 2374.769
303.7416, 2352.010
304.2237, 2335.678
304.7058, 2333.825
305.1880, 2338.004
305.6701, 2338.350
306.1522, 2331.057
306.6343, 2322.060
307.1164, 2321.830
307.5985, 2332.875
308.0807, 2343.355
308.5628, 2350.759
309.0449, 2357.266
309.5270, 2365.514
310.0091, 2375.189
310.4912, 2381.203
310.9734, 2375.725
311.4555, 2360.331
311.9376, 2352.697
312.4197, 2355.725
312.9018, 2364.806
313.3839, 2381.731
313.8661, 2402.257
314.3482, 2414.612
314.8303, 2405.384
315.3124, 2388.314
315.7945, 2390.476
316.2766, 2415.391
316.7588, 2438.863
317.2409, 2446.634
317.7230, 2444.820
318.2051, 2443.280
318.6872, 2442.787
319.1693, 2443.335
319.6515, 2446.102
320.1336, 2450.298
320.6157, 2451.483
321.0978, 2446.149
321.5799, 2440.342
322.0620, 2444.461
322.5442, 2459.097
323.0263, 2475.648
323.5084, 2493.478
323.9905, 2511.183
324.4726, 2528.127
324.9547, 2544.236
325.4369, 2555.755
325.9190, 2557.164
326.4011, 2547.096
326.8832, 2546.257
327.3653, 2563.135
327.8474, 2581.070
328.3296, 2591.670
328.8117, 2595.545
329.2938, 2594.739
329.7759, 2589.257
330.2580, 2582.104
330.7401, 2587.150
331.2223, 2628.366
331.7044, 2652.048
332.1865, 2640.329
332.6686, 2614.045
333.1507, 2592.706
333.6328, 2583.102
334.1150, 2584.498
334.5971, 2597.947
335.0792, 2632.008
335.5613, 2654.493
336.0434, 2659.549
336.5255, 2659.707
337.0077, 2658.215
337.4898, 2657.052
337.9719, 2659.350
338.4540, 2668.697
338.9361, 2683.893
339.4182, 2693.852
339.9004, 2694.672
340.3825, 2695.734
340.8646, 2702.366
341.3467, 2709.934
341.8288, 2711.246
342.3109, 2702.538
342.7931, 2691.866
343.2752, 2688.161
343.7573, 2690.117
344.2394, 2709.907
344.7215, 2772.084
345.2036, 2836.023
345.6858, 2868.087
346.1679, 2867.154
346.6500, 2858.152
347.1321, 2855.350
347.6142, 2856.509
348.0963, 2854.592
348.5785, 2847.513
349.0606, 2841.699
349.5427, 2841.969
350.0248, 2847.553
350.5069, 2857.032
350.9890, 2872.356
351.4712, 2889.813
351.9533, 2908.234
352.4354, 2926.884
352.9175, 2940.901
353.3996, 2945.762
353.8817, 2947.141
354.3639, 2961.902
354.8460, 2998.486
355.3281, 3027.698
355.8102, 3037.925
356.2923, 3039.677
356.7744, 3043.617
357.2566, 3052.413
357.7387, 3065.709
358.2208, 3083.273
358.7029, 3105.575
359.1850, 3130.379
359.6671, 3162.503
360.1493, 3191.917
360.6314, 3211.686
361.1135, 3225.303
361.5956, 3240.426
362.0777, 3261.626
362.5598, 3287.789
363.0420, 3315.427
363.5241, 3348.409
364.0062, 3376.309
364.4883, 3396.154
364.9704, 3412.157
365.4525, 3427.184
365.9347, 3442.034
366.4168, 3457.058
366.8989, 3472.739
367.3810, 3489.287
367.8631, 3505.087
368.3452, 3521.200
368.8274, 3535.078
369.3095, 3545.713
369.7916, 3553.418
370.2737, 3559.075
370.7558, 3564.158
371.2379, 3566.583
371.7201, 3562.219
372.2022, 3550.668
372.6843, 3536.414
373.1664, 3521.989
373.6485, 3505.204
374.1306, 3482.557
374.6128, 3452.306
375.0949, 3422.153
375.5770, 3399.779
376.0591, 3379.900
376.5412, 3350.129
377.0233, 3306.934
377.5055, 3261.669
377.9876, 3225.767
378.4697, 3200.514
378.9518, 3175.702
379.4339, 3152.847
379.9160, 3129.037
380.3982, 3100.234
380.8803, 3068.931
381.3624, 3043.396
381.8445, 3028.839
382.3266, 3020.448
382.8087, 3003.203
383.2909, 2968.113
383.7730, 2935.570
384.2551, 2902.359
384.7372, 2874.240
385.2193, 2859.203
385.7014, 2856.499
386.1836, 2854.813
386.6657, 2841.340
387.1478, 2815.274
387.6299, 2793.844
388.1120, 2776.659
388.5941, 2765.102
389.0763, 2764.986
389.5584, 2769.314
390.0405, 2766.309
390.5226, 2749.234
391.0047, 2727.682
391.4868, 2718.539
391.9690, 2723.607
392.4511, 2723.787
392.9332, 2708.957
393.4153, 2692.010
393.8974, 2686.973
394.3795, 2693.796
394.8617, 2698.086
395.3438, 2688.328
395.8259, 2673.076
396.3080, 2667.314
396.7901, 2672.706
397.2722, 2680.777
397.7544, 2685.419
398.2365, 2687.918
398.7186, 2694.782
399.2007, 2716.632
399.6828, 2730.888
400.1649, 2721.424
400.6471, 2700.310
401.1292, 2687.810
401.6113, 2690.573
402.0934, 2701.515
402.5755, 2710.669
403.0576, 2718.038
403.5398, 2723.156
404.0219, 2728.780
404.5040, 2730.030
404.9861, 2720.197
405.4682, 2703.774
405.9503, 2691.379
406.4325, 2689.817
406.9146, 2696.987
407.3967, 2706.637
407.8788, 2723.189
408.3609, 2732.840
408.8430, 2728.110
409.3252, 2719.269
409.8073, 2715.305
410.2894, 2717.231
410.7715, 2717.456
411.2536, 2706.541
411.7357, 2687.395
412.2179, 2676.252
412.7000, 2676.926
413.1821, 2679.046
413.6642, 2678.591
414.1463, 2674.255
414.6284, 2661.622
415.1106, 2631.753
415.5927, 2603.221
416.0748, 2593.243
416.5569, 2596.114
417.0390, 2593.933
417.5211, 2580.238
418.0033, 2560.911
418.4854, 2545.486
418.9675, 2537.720
419.4496, 2520.072
419.9317, 2479.920
420.4138, 2439.696
420.8960, 2414.990
421.3781, 2403.910
421.8602, 2396.794
422.3423, 2387.805
422.8244, 2376.860
423.3065, 2363.780
423.7887, 2349.409
424.2708, 2331.144
424.7529, 2304.425
425.2350, 2276.939
425.7171, 2253.046
426.1992, 2234.254
426.6814, 2222.910
427.1635, 2226.499
427.6456, 2242.893
428.1277, 2245.003
428.6098, 2226.415
429.0919, 2205.741
429.5741, 2190.908
430.0562, 2180.515
430.5383, 2173.513
431.0204, 2171.200
431.5025, 2168.862
431.9846, 2162.101
432.4668, 2151.987
432.9489, 2142.243
433.4310, 2133.767
433.9131, 2125.953
434.3952, 2116.702
434.8773, 2105.346
435.3595, 2102.423
435.8416, 2118.573
436.3237, 2134.282
436.8058, 2135.460
437.2879, 2126.283
437.7701, 2119.167
438.2522, 2120.625
438.7343, 2126.897
439.2164, 2128.415
439.6985, 2122.611
440.1806, 2116.385
440.6628, 2104.691
441.1449, 2096.827
441.6270, 2102.500
442.1091, 2118.649
442.5912, 2132.285
443.0733, 2132.487
443.5555, 2122.966
444.0376, 2118.175
444.5197, 2119.482
445.0018, 2121.685
445.4839, 2122.199
445.9660, 2123.020
446.4482, 2127.659
446.9303, 2137.476
447.4124, 2143.488
447.8945, 2135.731
448.3766, 2121.125
448.8587, 2113.758
449.3409, 2115.548
449.8230, 2123.683
450.3051, 2138.353
450.7872, 2158.294
451.2693, 2171.128
451.7514, 2172.356
452.2336, 2172.318
452.7157, 2173.594
453.1978, 2175.906
453.6799, 2179.605
454.1620, 2184.531
454.6441, 2188.179
455.1263, 2186.459
455.6084, 2177.449
456.0905, 2173.986
456.5726, 2184.364
457.0547, 2191.937
457.5368, 2189.578
458.0190, 2181.558
458.5011, 2174.210
458.9832, 2169.683
459.4653, 2169.257
459.9474, 2178.953
460.4295, 2199.053
460.9117, 2206.385
461.3938, 2189.940
461.8759, 2168.343
462.3580, 2158.124
462.8401, 2157.461
463.3222, 2157.380
463.8044, 2154.938
464.2865, 2152.448
464.7686, 2152.633
465.2507, 2154.750
465.7328, 2155.813
466.2149, 2154.530
466.6971, 2151.520
467.1792, 2148.024
467.6613, 2144.244
468.1434, 2139.378
468.6255, 2132.601
469.1076, 2125.470
469.5898, 2118.259
470.0719, 2111.535
470.5540, 2107.101
471.0361, 2106.678
471.5182, 2107.643
472.0003, 2101.368
472.4825, 2084.499
472.9646, 2069.650
473.4467, 2059.800
473.9288, 2052.752
474.4109, 2047.810
474.8930, 2044.734
475.3752, 2042.481
475.8573, 2043.221
476.3394, 2043.325
476.8215, 2033.949
477.3036, 2014.832
477.7857, 1999.866
478.2679, 1997.409
478.7500, 2002.339
479.2321, 2002.023
479.7142, 1994.368
480.1963, 1987.674
480.6784, 1982.723
481.1606, 1979.933
481.6427, 1981.251
482.1248, 1985.698
482.6069, 1988.611
483.0890, 1986.145
483.5711, 1979.635
484.0533, 1976.439
484.5354, 1977.463
485.0175, 1980.574
485.4996, 1990.634
485.9817, 1998.804
486.4638, 1995.263
486.9460, 1980.488
487.4281, 1966.851
487.9102, 1965.030
488.3923, 1971.717
488.8744, 1976.273
489.3565, 1977.736
489.8387, 1982.661
490.3208, 1998.698
490.8029, 2017.885
491.2850, 2023.479
491.7671, 2010.931
492.2492, 1998.318
492.7314, 1990.307
493.2135, 1986.242
493.6956, 1987.425
494.1777, 1992.864
494.6598, 1996.664
495.1419, 1993.873
495.6241, 1985.895
496.1062, 1981.782
496.5883, 1983.695
497.0704, 1986.745
497.5525, 1992.097
498.0346, 1997.209
498.5168, 2000.025
498.9989, 2000.328
499.4810, 1999.142
499.9631, 1996.819
500.4452, 1993.698
500.9273, 1991.020
501.4095, 1988.751
501.8916, 1986.826
502.3737, 1982.728
502.8558, 1980.660
503.3379, 1988.251
503.8200, 2008.702
504.3022, 2025.659
504.7843, 2032.075
505.2664, 2032.282
505.7485, 2029.107
506.2306, 2023.797
506.7127, 2020.568
507.1949, 2022.593
507.6770, 2028.418
508.1591, 2031.950
508.6412, 2038.260
509.1233, 2034.088
509.6054, 2001.335
510.0876, 1971.711
510.5697, 1974.598
511.0518, 2005.834
511.5339, 2035.326
512.0161, 2040.225
512.4982, 2028.664
512.9803, 2023.102
513.4624, 2024.892
513.9445, 2024.257
514.4266, 2014.256
514.9088, 2003.370
515.3909, 2004.193
515.8730, 2017.897
516.3551, 2027.708
516.8372, 2029.221
517.3193, 2024.190
517.8015, 2009.571
518.2836, 1988.870
518.7657, 1974.859
519.2478, 1974.924
519.7299, 1983.218
520.2120, 1985.723
520.6942, 1978.382
521.1763, 1972.900
521.6584, 1968.091
522.1405, 1965.987
522.6226, 1969.346
523.1047, 1976.315
523.5869, 1982.804
524.0690, 1987.487
524.5511, 1988.880
525.0332, 1983.013
525.5153, 1969.942
525.9974, 1958.270
526.4796, 1950.042
526.9617, 1943.774
527.4438, 1936.606
527.9259, 1929.015
528.4080, 1927.992
528.8901, 1939.841
529.3723, 1953.281
529.8544, 1964.009
530.3365, 1971.082
530.8186, 1970.614
531.3007, 1961.653
531.7828, 1953.293
532.2650, 1960.133
532.7471, 1986.858
533.2292, 1999.512
533.7113, 1983.256
534.1934, 1969.629
534.6755, 1968.245
535.1577, 1975.092
535.6398, 1987.435
536.1219, 2005.851
536.6040, 2016.978
537.0861, 1997.764
537.5682, 1960.878
538.0504, 1951.987
538.5325, 1979.735
539.0146, 2010.035
539.4967, 2019.314
539.9788, 2011.100
540.4609, 2003.553
540.9431, 1994.162
541.4252, 1988.643
541.9073, 1991.022
542.3894, 1995.925
542.8715, 1999.381
543.3536, 2000.281
543.8358, 1996.983
544.3179, 1986.097
544.8000, 1971.992
545.2821, 1977.083
545.7642, 2012.379
546.2463, 2036.603
546.7285, 2031.121
547.2106, 2016.430
547.6927, 2006.547
548.1748, 2002.038
548.6569, 1999.557
549.1390, 1996.251
549.6211, 1995.305
550.1032, 2002.629
550.5853, 2016.129
551.0674, 2027.161
551.5496, 2032.651
552.0317, 2032.565
552.5138, 2026.426
552.9959, 2012.097
553.4780, 1998.741
553.9601, 1983.716
554.4423, 1972.245
554.9244, 1969.809
555.4065, 1971.257
555.8886, 1968.298
556.3707, 1957.792
556.8528, 1944.634
557.3350, 1933.972
557.8171, 1925.720
558.2992, 1919.921
558.7813, 1917.812
559.2634, 1914.098
559.7455, 1903.380
560.2277, 1888.607
560.7098, 1879.279
561.1919, 1877.444
561.6740, 1877.523
562.1561, 1880.874
562.6382, 1883.402
563.1204, 1879.600
563.6025, 1869.916
564.0846, 1859.268
564.5667, 1850.623
565.0488, 1844.749
565.5309, 1845.642
566.0131, 1857.893
566.4952, 1865.304
566.9773, 1862.058
567.4594, 1855.422
567.9415, 1848.545
568.4236, 1841.967
568.9058, 1836.776
569.3879, 1833.269
569.8700, 1831.470
570.3521, 1830.513
570.8342, 1831.150
571.3163, 1837.174
571.7985, 1850.215
572.2806, 1864.069
572.7627, 1870.489
573.2448, 1868.077
573.7269, 1871.760
574.2090, 1889.781
574.6912, 1903.797
575.1733, 1906.717
575.6554, 1904.571
576.1375, 1904.776
576.6196, 1908.721
577.1017, 1911.311
577.5839, 1904.474
578.0660, 1892.619
578.5481, 1893.646
579.0302, 1909.880
579.5123, 1919.469
579.9944, 1907.619
580.4766, 1887.579
580.9587, 1886.831
581.4408, 1909.872
581.9229, 1928.962
582.4050, 1941.643
582.8871, 1947.964
583.3693, 1941.328
583.8514, 1929.144
584.3335, 1928.215
584.8156, 1946.360
585.2977, 1971.225
585.7798, 1981.711
586.2620, 1976.025
586.7441, 1977.747
587.2262, 1994.451
587.7083, 2008.005
588.1904, 2000.795
588.6725, 1985.593
589.1547, 1985.576
589.6368, 2011.830
590.1189, 2031.988
590.6010, 2021.888
591.0831, 2001.596
591.5652, 1996.547
592.0474, 2008.033
592.5295, 2025.128
593.0116, 2041.177
593.4937, 2056.021
593.9758, 2070.020
594.4579, 2085.957
594.9401, 2094.252
595.4222, 2087.408
595.9043, 2078.653
596.3864, 2071.306
596.8685, 2067.373
597.3506, 2071.828
597.8328, 2091.000
598.3149, 2110.282
598.7970, 2114.218
599.2791, 2108.186
599.7612, 2105.268
600.2433, 2107.971
600.7255, 2115.312
601.2076, 2126.868
601.6897, 2142.288
602.1718, 2158.792
602.6539, 2181.863
603.1360, 2198.235
603.6182, 2206.800
604.1003, 2208.547
604.5824, 2197.963
605.0645, 2180.014
605.5466, 2172.133
606.0287, 2188.336
606.5109, 2214.479
606.9930, 2230.763
607.4751, 2237.816
607.9572, 2239.176
608.4393, 2234.255
608.9214, 2229.869
609.4036, 2234.604
609.8857, 2248.490
610.3678, 2251.964
610.8499, 2234.122
611.3320, 2220.710
611.8141, 2217.029
612.2963, 2220.998
612.7784, 2234.270
613.2605, 2254.294
613.7426, 2270.593
614.2247, 2273.652
614.7068, 2268.713
615.1890, 2269.127
615.6711, 2275.201
616.1532, 2280.118
616.6353, 2282.996
617.1174, 2281.906
617.5995, 2270.530
618.0817, 2248.592
618.5638, 2242.091
619.0459, 2265.069
619.5280, 2288.534
620.0101, 2306.190
620.4922, 2315.616
620.9744, 2312.267
621.4565, 2296.679
621.9386, 2276.199
622.4207, 2254.000
622.9028, 2233.626
623.3849, 2234.149
623.8671, 2261.144
624.3492, 2275.328
624.8313, 2257.658
625.3134, 2230.397
625.7955, 2221.678
626.2776, 2230.240
626.7598, 2234.202
627.2419, 2224.427
627.7240, 2216.044
628.2061, 2220.659
628.6882, 2229.900
629.1703, 2230.277
629.6525, 2219.376
630.1346, 2206.083
630.6167, 2199.000
631.0988, 2197.021
631.5809, 2193.877
632.0630, 2189.280
632.5452, 2184.781
633.0273, 2182.458
633.5094, 2178.785
633.9915, 2167.866
634.4736, 2150.271
634.9557, 2137.664
635.4379, 2137.041
635.9200, 2137.157
636.4021, 2130.665
636.8842, 2121.169
637.3663, 2115.194
637.8484, 2113.913
638.3306, 2112.751
638.8127, 2107.632
639.2948, 2098.594
639.7769, 2084.662
640.2590, 2063.078
640.7411, 2046.476
641.2233, 2041.299
641.7054, 2040.003
642.1875, 2035.116
642.6696, 2026.853
643.1517, 2017.678
643.6339, 2005.231
644.1160, 1995.055
644.5981, 1993.659
645.0802, 1995.125
645.5623, 1991.254
646.0444, 1979.982
646.5266, 1962.437
647.0087, 1938.124
647.4908, 1909.443
647.9729, 1887.348
648.4550, 1872.067
648.9371, 1863.583
649.4193, 1866.273
649.9014, 1871.110
650.3835, 1870.811
650.8656, 1865.458
651.3477, 1854.634
651.8298, 1833.616
652.3120, 1812.363
652.7941, 1795.024
653.2762, 1780.380
653.7583, 1766.253
654.2404, 1752.674
654.7225, 1742.625
