##NAMES=Vesuvianite
##RRUFFID=R050233
##IDEAL CHEMISTRY=(Ca,Na)_19_(Al,Mg,Fe^3+^)_13_(SiO_4_)_10_(Si_2_O_7_)_4_(OH,F,O)_10_
##LOCALITY=Ludwig, Nevada, USA
##OWNER=RRUFF
##SOURCE=Marcus Origlieri
##DESCRIPTION=Pale green euhedral single crystal
##STATUS=The identification of this mineral has been confirmed by X-ray diffraction and chemical analysis
##URL=rruff.info/R050233
##MEASURED CHEMISTRY=Ca_19.00_(Al_10.04_Mg_2.54_Fe^2+^_0.42_)_Σ=13_(Si_17.96_Al_0.04_)_Σ=18_O_68_((OH)_9.66_F_0.34_)_Σ=10_ ; Boron not analyzed.
136.4139, 3845.893
136.8960, 3859.447
137.3782, 3872.716
137.8603, 3885.991
138.3424, 3898.264
138.8245, 3909.400
139.3066, 3919.886
139.7887, 3926.879
140.2709, 3929.469
140.7530, 3928.782
141.2351, 3928.451
141.7172, 3928.694
142.1993, 3928.732
142.6814, 3928.008
143.1636, 3926.300
143.6457, 3924.093
144.1278, 3920.823
144.6099, 3916.686
145.0920, 3914.206
145.5741, 3913.652
146.0563, 3914.123
146.5384, 3914.961
147.0205, 3916.290
147.5026, 3917.599
147.9847, 3918.855
148.4668, 3920.054
148.9490, 3920.983
149.4311, 3921.022
149.9132, 3921.210
150.3953, 3922.477
150.8774, 3923.105
151.3595, 3926.736
151.8417, 3935.078
152.3238, 3949.301
152.8059, 3961.666
153.2880, 3969.619
153.7701, 3976.527
154.2522, 3986.117
154.7344, 3999.962
155.2165, 4015.181
155.6986, 4031.802
156.1807, 4051.115
156.6628, 4067.264
157.1449, 4075.832
157.6271, 4081.321
158.1092, 4089.897
158.5913, 4105.005
159.0734, 4121.563
159.5555, 4137.436
160.0376, 4151.826
160.5198, 4167.240
161.0019, 4185.655
161.4840, 4205.495
161.9661, 4223.507
162.4482, 4238.255
162.9303, 4251.214
163.4125, 4263.130
163.8946, 4273.997
164.3767, 4284.204
164.8588, 4293.804
165.3409, 4302.819
165.8230, 4311.530
166.3052, 4319.974
166.7873, 4328.158
167.2694, 4336.062
167.7515, 4343.610
168.2336, 4350.903
168.7157, 4358.083
169.1978, 4364.999
169.6800, 4371.459
170.1621, 4377.753
170.6442, 4383.313
171.1263, 4387.311
171.6084, 4387.935
172.0905, 4389.213
172.5727, 4395.643
173.0548, 4406.234
173.5369, 4416.233
174.0190, 4422.853
174.5011, 4427.054
174.9832, 4430.040
175.4654, 4431.571
175.9475, 4432.688
176.4296, 4434.649
176.9117, 4437.388
177.3938, 4440.106
177.8759, 4443.224
178.3581, 4445.867
178.8402, 4446.163
179.3223, 4442.407
179.8044, 4436.968
180.2865, 4433.545
180.7686, 4432.063
181.2508, 4430.189
181.7329, 4426.034
182.2150, 4419.933
182.6971, 4412.759
183.1792, 4404.654
183.6613, 4395.724
184.1435, 4385.789
184.6256, 4374.681
185.1077, 4364.353
185.5898, 4357.188
186.0719, 4352.594
186.5540, 4347.489
187.0362, 4341.086
187.5183, 4333.417
188.0004, 4324.348
188.4825, 4313.659
188.9646, 4302.902
189.4467, 4293.584
189.9289, 4285.647
190.4110, 4278.511
190.8931, 4271.576
191.3752, 4265.259
191.8573, 4260.932
192.3394, 4258.525
192.8216, 4258.313
193.3037, 4261.949
193.7858, 4269.299
194.2679, 4274.988
194.7500, 4276.282
195.2321, 4273.999
195.7143, 4273.383
196.1964, 4274.590
196.6785, 4276.889
197.1606, 4279.328
197.6427, 4281.884
198.1248, 4285.075
198.6070, 4289.102
199.0891, 4293.940
199.5712, 4299.517
200.0533, 4305.939
200.5354, 4312.761
201.0175, 4319.104
201.4997, 4324.845
201.9818, 4331.128
202.4639, 4338.036
202.9460, 4345.578
203.4281, 4355.946
203.9102, 4369.983
204.3924, 4385.387
204.8745, 4398.801
205.3566, 4409.919
205.8387, 4420.669
206.3208, 4431.292
206.8029, 4441.768
207.2851, 4453.804
207.7672, 4467.657
208.2493, 4482.727
208.7314, 4498.084
209.2135, 4513.603
209.6956, 4529.942
210.1778, 4547.595
210.6599, 4566.950
211.1420, 4584.640
211.6241, 4600.016
212.1062, 4614.172
212.5883, 4628.457
213.0705, 4642.513
213.5526, 4657.730
214.0347, 4675.002
214.5168, 4695.237
214.9989, 4712.268
215.4810, 4726.072
215.9632, 4736.661
216.4453, 4743.827
216.9274, 4747.327
217.4095, 4748.026
217.8916, 4745.849
218.3737, 4740.437
218.8559, 4734.431
219.3380, 4728.356
219.8201, 4721.317
220.3022, 4711.746
220.7843, 4699.074
221.2664, 4685.362
221.7486, 4670.597
222.2307, 4654.379
222.7128, 4641.111
223.1949, 4632.004
223.6770, 4625.068
224.1591, 4617.237
224.6413, 4607.321
225.1234, 4598.868
225.6055, 4593.499
226.0876, 4592.329
226.5697, 4588.794
227.0518, 4581.928
227.5340, 4573.433
228.0161, 4565.918
228.4982, 4559.387
228.9803, 4553.594
229.4624, 4548.397
229.9445, 4543.618
230.4267, 4539.856
230.9088, 4537.009
231.3909, 4535.111
231.8730, 4534.522
232.3551, 4536.806
232.8372, 4537.521
233.3194, 4534.806
233.8015, 4527.575
234.2836, 4522.690
234.7657, 4520.164
235.2478, 4519.919
235.7299, 4522.249
236.2121, 4529.115
236.6942, 4535.144
237.1763, 4538.465
237.6584, 4538.382
238.1405, 4540.483
238.6226, 4545.134
239.1048, 4551.637
239.5869, 4559.332
240.0690, 4568.990
240.5511, 4578.438
241.0332, 4587.521
241.5153, 4596.340
241.9975, 4603.270
242.4796, 4606.967
242.9617, 4609.879
243.4438, 4614.556
243.9259, 4620.750
244.4080, 4629.217
244.8902, 4640.487
245.3723, 4654.729
245.8544, 4669.175
246.3365, 4682.599
246.8186, 4697.434
247.3007, 4716.940
247.7829, 4744.952
248.2650, 4770.167
248.7471, 4789.224
249.2292, 4801.978
249.7113, 4818.325
250.1934, 4839.162
250.6756, 4862.685
251.1577, 4887.756
251.6398, 4915.084
252.1219, 4942.592
252.6040, 4971.269
253.0861, 5000.595
253.5683, 5024.097
254.0504, 5040.316
254.5325, 5052.535
255.0146, 5064.027
255.4967, 5077.528
255.9788, 5084.077
256.4609, 5081.522
256.9431, 5070.602
257.4252, 5057.038
257.9073, 5040.646
258.3894, 5021.767
258.8715, 5000.414
259.3536, 4975.534
259.8358, 4950.190
260.3179, 4923.092
260.8000, 4895.382
261.2821, 4874.776
261.7642, 4864.278
262.2463, 4855.411
262.7285, 4841.875
263.2106, 4820.552
263.6927, 4804.843
264.1748, 4796.885
264.6569, 4795.163
265.1390, 4794.220
265.6212, 4794.299
266.1033, 4794.725
266.5854, 4794.986
267.0675, 4794.761
267.5496, 4795.514
268.0317, 4797.120
268.5139, 4799.845
268.9960, 4804.382
269.4781, 4810.818
269.9602, 4818.733
270.4423, 4828.611
270.9244, 4841.353
271.4066, 4850.763
271.8887, 4855.060
272.3708, 4857.589
272.8529, 4865.453
273.3350, 4879.889
273.8171, 4895.065
274.2993, 4908.208
274.7814, 4918.655
275.2635, 4931.883
275.7456, 4948.521
276.2277, 4966.831
276.7098, 4984.028
277.1920, 5000.091
277.6741, 5014.896
278.1562, 5027.854
278.6383, 5039.124
279.1204, 5051.131
279.6025, 5063.831
280.0847, 5077.536
280.5668, 5093.378
281.0489, 5111.688
281.5310, 5128.719
282.0131, 5142.670
282.4952, 5154.171
282.9774, 5168.158
283.4595, 5185.573
283.9416, 5202.191
284.4237, 5212.730
284.9058, 5217.247
285.3879, 5221.583
285.8701, 5226.932
286.3522, 5233.336
286.8343, 5241.752
287.3164, 5252.441
287.7985, 5262.314
288.2806, 5268.433
288.7628, 5270.989
289.2449, 5272.211
289.7270, 5272.483
290.2091, 5271.723
290.6912, 5270.040
291.1733, 5267.485
291.6555, 5263.050
292.1376, 5254.845
292.6197, 5243.765
293.1018, 5234.185
293.5839, 5227.551
294.0660, 5221.689
294.5482, 5212.842
295.0303, 5201.236
295.5124, 5188.718
295.9945, 5174.852
296.4766, 5160.849
296.9587, 5150.758
297.4409, 5145.603
297.9230, 5142.385
298.4051, 5137.248
298.8872, 5130.623
299.3693, 5124.227
299.8514, 5118.549
300.3336, 5113.823
300.8157, 5111.114
301.2978, 5110.787
301.7799, 5110.248
302.2620, 5106.274
302.7441, 5099.800
303.2263, 5093.404
303.7084, 5088.120
304.1905, 5083.437
304.6726, 5078.540
305.1547, 5073.396
305.6368, 5068.468
306.1190, 5064.916
306.6011, 5061.799
307.0832, 5057.614
307.5653, 5051.157
308.0474, 5043.974
308.5295, 5037.446
309.0117, 5031.565
309.4938, 5026.231
309.9759, 5021.455
310.4580, 5017.224
310.9401, 5013.592
311.4222, 5010.219
311.9044, 5007.935
312.3865, 5007.980
312.8686, 5009.813
313.3507, 5011.458
313.8328, 5011.198
314.3149, 5010.588
314.7971, 5010.889
315.2792, 5012.377
315.7613, 5014.522
316.2434, 5016.813
316.7255, 5019.495
317.2076, 5023.155
317.6898, 5029.184
318.1719, 5035.406
318.6540, 5040.412
319.1361, 5043.646
319.6182, 5047.017
320.1003, 5052.005
320.5825, 5057.335
321.0646, 5061.251
321.5467, 5061.450
322.0288, 5061.829
322.5109, 5063.884
322.9930, 5067.833
323.4752, 5072.162
323.9573, 5077.656
324.4394, 5082.881
324.9215, 5086.538
325.4036, 5087.540
325.8857, 5087.877
326.3679, 5087.444
326.8500, 5086.309
327.3321, 5086.004
327.8142, 5086.725
328.2963, 5088.260
328.7784, 5090.508
329.2606, 5096.173
329.7427, 5099.269
330.2248, 5098.712
330.7069, 5095.309
331.1890, 5092.165
331.6711, 5089.354
332.1533, 5086.735
332.6354, 5084.100
333.1175, 5080.722
333.5996, 5079.030
334.0817, 5079.997
334.5638, 5082.182
335.0460, 5082.924
335.5281, 5081.988
336.0102, 5079.847
336.4923, 5075.706
336.9744, 5068.699
337.4565, 5066.426
337.9387, 5070.740
338.4208, 5077.214
338.9029, 5080.341
339.3850, 5079.216
339.8671, 5078.134
340.3492, 5077.704
340.8313, 5078.119
341.3134, 5081.214
341.7956, 5087.875
342.2777, 5094.789
342.7598, 5098.629
343.2419, 5099.208
343.7240, 5102.001
344.2061, 5108.413
344.6883, 5117.104
345.1704, 5123.658
345.6525, 5127.907
346.1346, 5134.355
346.6167, 5148.031
347.0988, 5167.423
347.5810, 5181.424
348.0631, 5188.221
348.5452, 5192.754
349.0273, 5202.527
349.5094, 5216.780
349.9915, 5230.662
350.4737, 5240.341
350.9558, 5248.171
351.4379, 5259.647
351.9200, 5275.023
352.4021, 5290.757
352.8842, 5303.501
353.3664, 5314.168
353.8485, 5324.917
354.3306, 5335.454
354.8127, 5347.495
355.2948, 5363.987
355.7769, 5384.408
356.2591, 5404.316
356.7412, 5420.073
357.2233, 5433.969
357.7054, 5449.071
358.1875, 5467.049
358.6696, 5484.531
359.1518, 5498.562
359.6339, 5510.117
360.1160, 5521.396
360.5981, 5533.480
361.0802, 5545.551
361.5623, 5557.395
362.0445, 5569.281
362.5266, 5579.270
363.0087, 5585.528
363.4908, 5589.539
363.9729, 5593.159
364.4550, 5597.187
364.9372, 5600.582
365.4193, 5603.931
365.9014, 5607.259
366.3835, 5606.676
366.8656, 5599.710
367.3477, 5589.528
367.8299, 5578.329
368.3120, 5563.747
368.7941, 5551.202
369.2762, 5543.616
369.7583, 5539.258
370.2404, 5530.163
370.7226, 5512.440
371.2047, 5493.962
371.6868, 5477.690
372.1689, 5464.143
372.6510, 5451.839
373.1331, 5441.888
373.6153, 5432.551
374.0974, 5420.497
374.5795, 5403.783
375.0616, 5388.642
375.5437, 5377.616
376.0258, 5370.866
376.5080, 5361.755
376.9901, 5348.851
377.4722, 5336.177
377.9543, 5328.185
378.4364, 5325.786
378.9185, 5321.806
379.4007, 5314.633
379.8828, 5305.266
380.3649, 5296.569
380.8470, 5288.534
381.3291, 5281.626
381.8112, 5277.462
382.2934, 5275.345
382.7755, 5269.798
383.2576, 5259.577
383.7397, 5248.276
384.2218, 5241.474
384.7039, 5238.401
385.1861, 5235.146
385.6682, 5227.760
386.1503, 5219.510
386.6324, 5217.428
387.1145, 5221.676
387.5966, 5227.022
388.0788, 5229.005
388.5609, 5229.005
389.0430, 5229.370
389.5251, 5230.030
390.0072, 5232.216
390.4893, 5238.272
390.9715, 5247.116
391.4536, 5255.118
391.9357, 5259.880
392.4178, 5263.079
392.8999, 5265.683
393.3820, 5267.293
393.8642, 5270.409
394.3463, 5276.436
394.8284, 5284.829
395.3105, 5294.620
395.7926, 5306.892
396.2747, 5319.439
396.7569, 5330.782
397.2390, 5340.785
397.7211, 5352.799
398.2032, 5369.083
398.6853, 5386.775
399.1674, 5403.573
399.6496, 5419.187
400.1317, 5434.035
400.6138, 5447.570
401.0959, 5460.184
401.5780, 5473.525
402.0602, 5489.271
402.5423, 5503.628
403.0244, 5514.655
403.5065, 5521.246
403.9886, 5528.494
404.4707, 5536.850
404.9529, 5545.415
405.4350, 5552.875
405.9171, 5558.921
406.3992, 5565.149
406.8813, 5572.793
407.3634, 5581.173
407.8456, 5585.678
408.3277, 5585.999
408.8098, 5583.871
409.2919, 5580.527
409.7740, 5575.975
410.2561, 5569.972
410.7383, 5562.130
411.2204, 5553.460
411.7025, 5545.723
412.1846, 5538.710
412.6667, 5530.636
413.1488, 5520.528
413.6310, 5508.789
414.1131, 5495.956
414.5952, 5482.067
415.0773, 5468.121
415.5594, 5456.018
416.0415, 5444.304
416.5237, 5429.923
417.0058, 5410.329
417.4879, 5389.632
417.9700, 5370.937
418.4521, 5354.061
418.9342, 5337.991
419.4164, 5324.225
419.8985, 5309.676
420.3806, 5291.228
420.8627, 5266.161
421.3448, 5243.776
421.8269, 5228.873
422.3091, 5218.258
422.7912, 5207.376
423.2733, 5195.993
423.7554, 5183.359
424.2375, 5168.414
424.7196, 5151.259
425.2018, 5135.403
425.6839, 5122.970
426.1660, 5110.974
426.6481, 5097.363
427.1302, 5079.238
427.6123, 5064.933
428.0945, 5056.137
428.5766, 5050.819
429.0587, 5044.072
429.5408, 5035.165
430.0229, 5026.438
430.5050, 5018.673
430.9872, 5011.924
431.4693, 5005.745
431.9514, 4999.992
432.4335, 4994.805
432.9156, 4990.554
433.3977, 4987.210
433.8799, 4983.112
434.3620, 4977.132
434.8441, 4970.940
435.3262, 4969.083
435.8083, 4971.341
436.2904, 4973.786
436.7726, 4974.744
437.2547, 4974.032
437.7368, 4970.424
438.2189, 4963.456
438.7010, 4956.759
439.1831, 4953.980
439.6652, 4954.022
440.1473, 4954.757
440.6295, 4956.710
441.1116, 4958.045
441.5937, 4955.766
442.0758, 4950.933
442.5579, 4948.770
443.0400, 4954.003
443.5222, 4961.625
444.0043, 4968.196
444.4864, 4973.209
444.9685, 4976.644
445.4506, 4976.299
445.9327, 4974.815
446.4149, 4976.018
446.8970, 4985.132
447.3791, 4992.302
447.8612, 4993.724
448.3433, 4989.167
448.8254, 4987.586
449.3076, 4990.520
449.7897, 4994.956
450.2718, 4999.243
450.7539, 5003.337
451.2360, 5007.459
451.7181, 5012.077
452.2003, 5016.479
452.6824, 5018.958
453.1645, 5019.091
453.6466, 5018.948
454.1287, 5018.587
454.6108, 5018.312
455.0930, 5021.944
455.5751, 5030.163
456.0572, 5037.929
456.5393, 5039.551
457.0214, 5036.188
457.5035, 5034.026
457.9857, 5034.394
458.4678, 5035.838
458.9499, 5036.550
459.4320, 5036.634
459.9141, 5036.423
460.3962, 5035.384
460.8784, 5034.632
461.3605, 5035.733
461.8426, 5038.821
462.3247, 5042.321
462.8068, 5045.348
463.2889, 5048.288
463.7711, 5051.483
464.2532, 5054.976
464.7353, 5058.793
465.2174, 5062.271
465.6995, 5065.968
466.1816, 5071.357
466.6638, 5081.031
467.1459, 5090.200
467.6280, 5096.896
468.1101, 5100.321
468.5922, 5104.136
469.0743, 5108.888
469.5565, 5113.686
470.0386, 5117.661
470.5207, 5119.946
471.0028, 5123.207
471.4849, 5127.933
471.9670, 5133.766
472.4492, 5140.205
472.9313, 5147.931
473.4134, 5153.931
473.8955, 5156.090
474.3776, 5154.669
474.8597, 5154.927
475.3419, 5156.933
475.8240, 5160.144
476.3061, 5164.966
476.7882, 5170.784
477.2703, 5174.795
477.7524, 5176.208
478.2346, 5175.727
478.7167, 5173.957
479.1988, 5171.057
479.6809, 5167.625
480.1630, 5162.116
480.6451, 5157.340
481.1273, 5157.605
481.6094, 5163.426
482.0915, 5167.138
482.5736, 5161.793
483.0557, 5153.372
483.5378, 5147.732
484.0200, 5150.121
484.5021, 5150.835
484.9842, 5146.268
485.4663, 5137.874
485.9484, 5129.709
486.4305, 5122.195
486.9127, 5115.094
487.3948, 5108.542
487.8769, 5102.818
488.3590, 5095.927
488.8411, 5086.882
489.3232, 5077.797
489.8054, 5070.626
490.2875, 5065.922
490.7696, 5061.707
491.2517, 5058.233
491.7338, 5054.944
492.2159, 5050.284
492.6981, 5044.175
493.1802, 5038.563
493.6623, 5034.519
494.1444, 5031.728
494.6265, 5028.822
495.1086, 5025.700
495.5908, 5023.715
496.0729, 5025.247
496.5550, 5028.466
497.0371, 5029.410
497.5192, 5026.397
498.0013, 5022.692
498.4835, 5021.733
498.9656, 5022.119
499.4477, 5021.071
499.9298, 5014.915
500.4119, 5008.984
500.8940, 5007.174
501.3762, 5009.386
501.8583, 5010.157
502.3404, 5007.093
502.8225, 5002.751
503.3046, 4998.690
503.7867, 4994.577
504.2689, 4991.711
504.7510, 4990.843
505.2331, 4991.000
505.7152, 4990.850
506.1973, 4990.881
506.6794, 4989.577
507.1616, 4986.143
507.6437, 4980.926
508.1258, 4976.688
508.6079, 4973.481
509.0900, 4970.939
509.5721, 4968.835
510.0543, 4967.174
510.5364, 4966.176
511.0185, 4965.972
511.5006, 4965.964
511.9827, 4964.851
512.4648, 4963.277
512.9470, 4963.417
513.4291, 4967.577
513.9112, 4972.026
514.3933, 4972.372
514.8754, 4969.390
515.3575, 4965.940
515.8397, 4962.097
516.3218, 4959.333
516.8039, 4959.653
517.2860, 4963.942
517.7681, 4965.981
518.2502, 4961.614
518.7324, 4955.036
519.2145, 4949.999
519.6966, 4946.478
520.1787, 4945.212
520.6608, 4947.839
521.1429, 4952.525
521.6251, 4954.892
522.1072, 4954.762
522.5893, 4952.669
523.0714, 4948.047
523.5535, 4940.979
524.0356, 4936.555
524.5178, 4935.262
524.9999, 4935.082
525.4820, 4934.444
525.9641, 4933.465
526.4462, 4932.607
526.9283, 4931.780
527.4105, 4931.718
527.8926, 4933.869
528.3747, 4937.722
528.8568, 4941.532
529.3389, 4945.601
529.8210, 4948.486
530.3032, 4947.409
530.7853, 4943.178
531.2674, 4940.006
531.7495, 4940.663
532.2316, 4942.824
532.7137, 4944.858
533.1959, 4946.437
533.6780, 4948.149
534.1601, 4950.446
534.6422, 4952.776
535.1243, 4954.614
535.6064, 4955.980
536.0886, 4956.767
536.5707, 4956.761
537.0528, 4956.260
537.5349, 4955.897
538.0170, 4955.239
538.4991, 4956.068
538.9813, 4959.698
539.4634, 4966.000
539.9455, 4971.209
540.4276, 4975.526
540.9097, 4977.849
541.3918, 4974.875
541.8740, 4968.526
542.3561, 4966.973
542.8382, 4972.175
543.3203, 4979.965
543.8024, 4987.494
544.2845, 4993.869
544.7667, 4996.942
545.2488, 4991.740
545.7309, 4986.134
546.2130, 4986.077
546.6951, 4990.594
547.1772, 4995.161
547.6594, 4999.254
548.1415, 5001.874
548.6236, 5001.889
549.1057, 4997.990
549.5878, 4996.062
550.0699, 4998.638
550.5521, 5002.065
551.0342, 5003.181
551.5163, 5000.649
551.9984, 4998.848
552.4805, 4998.458
552.9626, 4998.885
553.4448, 4998.602
553.9269, 4997.449
554.4090, 4996.907
554.8911, 4997.794
555.3732, 4999.669
555.8553, 5001.083
556.3375, 5002.004
556.8196, 5002.497
557.3017, 5002.427
557.7838, 5001.985
558.2659, 5001.450
558.7480, 5000.817
559.2302, 5000.184
559.7123, 4998.682
560.1944, 4997.503
560.6765, 4998.188
561.1586, 5002.989
561.6407, 5007.804
562.1229, 5011.320
562.6050, 5013.836
563.0871, 5016.324
563.5692, 5021.013
564.0513, 5023.483
564.5334, 5021.434
565.0156, 5014.620
565.4977, 5011.445
565.9798, 5013.080
566.4619, 5016.310
566.9440, 5019.173
567.4261, 5021.678
567.9083, 5023.573
568.3904, 5024.612
568.8725, 5025.747
569.3546, 5028.115
569.8367, 5031.649
570.3188, 5036.171
570.8010, 5041.599
571.2831, 5047.948
571.7652, 5055.789
572.2473, 5064.699
572.7294, 5072.834
573.2115, 5078.239
573.6937, 5083.461
574.1758, 5090.679
574.6579, 5100.044
575.1400, 5108.757
575.6221, 5114.692
576.1042, 5120.696
576.5864, 5128.866
577.0685, 5141.668
577.5506, 5152.296
578.0327, 5159.404
578.5148, 5165.417
578.9969, 5173.487
579.4791, 5183.946
579.9612, 5195.469
580.4433, 5207.659
580.9254, 5220.547
581.4075, 5235.009
581.8896, 5250.897
582.3718, 5265.816
582.8539, 5279.335
583.3360, 5290.739
583.8181, 5296.953
584.3002, 5298.148
584.7823, 5299.690
585.2645, 5306.979
585.7466, 5315.925
586.2287, 5321.887
586.7108, 5322.845
587.1929, 5325.150
587.6750, 5331.687
588.1571, 5341.163
588.6392, 5352.134
589.1213, 5369.724
589.6035, 5382.330
590.0856, 5385.682
590.5677, 5383.626
591.0498, 5386.860
591.5319, 5397.485
592.0140, 5408.523
592.4962, 5417.250
592.9783, 5424.024
593.4604, 5432.169
593.9425, 5441.731
594.4246, 5451.243
594.9067, 5458.522
595.3889, 5464.767
595.8710, 5474.606
596.3531, 5488.845
596.8352, 5502.577
597.3173, 5511.399
597.7994, 5516.911
598.2816, 5521.233
598.7637, 5524.225
599.2458, 5527.642
599.7279, 5532.628
600.2100, 5538.701
600.6921, 5544.924
601.1743, 5552.377
601.6564, 5558.814
602.1385, 5563.465
602.6206, 5566.596
603.1027, 5569.548
603.5848, 5571.628
604.0670, 5574.838
604.5491, 5581.020
605.0312, 5590.188
605.5133, 5595.480
605.9954, 5596.173
606.4775, 5596.083
606.9597, 5599.808
607.4418, 5605.776
607.9239, 5608.185
608.4060, 5605.002
608.8881, 5601.919
609.3702, 5606.451
609.8524, 5614.755
610.3345, 5620.183
610.8166, 5616.630
611.2987, 5613.380
611.7808, 5615.526
612.2629, 5621.472
612.7451, 5626.235
613.2272, 5627.145
613.7093, 5628.707
614.1914, 5633.076
614.6735, 5640.288
615.1556, 5644.239
615.6378, 5643.512
616.1199, 5642.277
616.6020, 5643.129
617.0841, 5646.073
617.5662, 5648.549
618.0483, 5650.087
618.5305, 5652.846
619.0126, 5660.104
619.4947, 5670.494
619.9768, 5680.582
620.4589, 5689.761
620.9410, 5698.005
621.4232, 5704.069
621.9053, 5709.505
622.3874, 5717.166
622.8695, 5730.734
623.3516, 5744.310
623.8337, 5754.851
624.3159, 5763.339
624.7980, 5774.204
625.2801, 5789.563
625.7622, 5805.616
626.2443, 5820.836
626.7264, 5835.144
627.2086, 5852.343
627.6907, 5873.416
628.1728, 5894.567
628.6549, 5912.827
629.1370, 5928.377
629.6191, 5943.644
630.1013, 5958.705
