##NAMES=Vesuvianite
##RRUFFID=R050056
##IDEAL CHEMISTRY=(Ca,Na)_19_(Al,Mg,Fe^3+^)_13_(SiO_4_)_10_(Si_2_O_7_)_4_(OH,F,O)_10_
##LOCALITY=Jeffrey Quarry, Asbestos, Quebec, Canada
##OWNER=RRUFF
##SOURCE=Tony Gordian
##DESCRIPTION=Green prismatic single crystal
##STATUS=The identification of this mineral has been confirmed by X-ray diffraction and chemical analysis
##URL=rruff.info/R050056
##MEASURED CHEMISTRY=Ca_19_(Al_.804_Mg_.149_Fe_.045_Mn_.002_)_13_Si_18_O_68_(OH)_10_
148.0179, 1571.788
148.5001, 1625.077
148.9822, 1675.899
149.4643, 1724.465
149.9464, 1771.077
150.4285, 1815.620
150.9106, 1858.757
151.3928, 1899.837
151.8749, 1936.863
152.3570, 1980.131
152.8391, 2012.906
153.3212, 2013.740
153.8033, 1980.219
154.2855, 1941.910
154.7676, 1920.343
155.2497, 1913.369
155.7318, 1911.818
156.2139, 1911.191
156.6960, 1916.908
157.1782, 1937.819
157.6603, 1975.972
158.1424, 2017.860
158.6245, 2051.141
159.1066, 2079.893
159.5887, 2114.544
160.0709, 2160.103
160.5530, 2212.053
161.0351, 2264.209
161.5172, 2316.378
161.9993, 2368.064
162.4814, 2418.449
162.9636, 2467.884
163.4457, 2518.010
163.9278, 2571.577
164.4099, 2625.275
164.8920, 2671.743
165.3741, 2708.828
165.8563, 2744.377
166.3384, 2789.286
166.8205, 2835.794
167.3026, 2869.519
167.7847, 2882.483
168.2668, 2879.780
168.7490, 2870.305
169.2311, 2849.702
169.7132, 2832.257
170.1953, 2828.805
170.6774, 2832.703
171.1595, 2833.846
171.6417, 2827.838
172.1238, 2816.029
172.6059, 2801.423
173.0880, 2783.224
173.5701, 2763.597
174.0522, 2746.759
174.5344, 2728.673
175.0165, 2702.092
175.4986, 2658.169
175.9807, 2606.568
176.4628, 2575.898
176.9449, 2579.550
177.4271, 2579.823
177.9092, 2552.769
178.3913, 2516.175
178.8734, 2495.802
179.3555, 2508.302
179.8376, 2541.136
180.3197, 2555.510
180.8019, 2537.361
181.2840, 2525.477
181.7661, 2536.143
182.2482, 2557.874
182.7303, 2577.329
183.2124, 2588.740
183.6946, 2592.708
184.1767, 2590.608
184.6588, 2581.066
185.1409, 2567.159
185.6230, 2552.074
186.1051, 2533.306
186.5873, 2507.442
187.0694, 2472.421
187.5515, 2430.722
188.0336, 2387.439
188.5157, 2340.643
188.9978, 2296.322
189.4800, 2253.528
189.9621, 2214.552
190.4442, 2181.483
190.9263, 2155.632
191.4084, 2135.803
191.8905, 2119.380
192.3727, 2107.200
192.8548, 2097.259
193.3369, 2087.071
193.8190, 2079.397
194.3011, 2076.663
194.7832, 2079.820
195.2654, 2088.533
195.7475, 2103.437
196.2296, 2132.526
196.7117, 2152.528
197.1938, 2154.938
197.6759, 2151.667
198.1581, 2152.519
198.6402, 2160.864
199.1223, 2173.995
199.6044, 2186.448
200.0865, 2194.831
200.5686, 2209.958
201.0508, 2237.458
201.5329, 2267.875
202.0150, 2293.849
202.4971, 2313.457
202.9792, 2329.406
203.4613, 2346.233
203.9435, 2365.403
204.4256, 2381.905
204.9077, 2388.112
205.3898, 2397.002
205.8719, 2419.812
206.3540, 2457.665
206.8362, 2500.615
207.3183, 2536.102
207.8004, 2563.306
208.2825, 2583.633
208.7646, 2587.383
209.2467, 2592.595
209.7289, 2612.490
210.2110, 2646.859
210.6931, 2683.969
211.1752, 2709.969
211.6573, 2721.759
212.1395, 2733.023
212.6216, 2745.387
213.1037, 2755.873
213.5858, 2760.482
214.0679, 2760.799
214.5500, 2763.138
215.0322, 2774.752
215.5143, 2797.717
215.9964, 2815.924
216.4785, 2823.109
216.9606, 2831.490
217.4427, 2845.849
217.9249, 2865.591
218.4070, 2887.790
218.8891, 2910.374
219.3712, 2933.383
219.8533, 2955.317
220.3354, 2971.754
220.8176, 2991.510
221.2997, 3019.699
221.7818, 3053.105
222.2639, 3084.818
222.7460, 3109.055
223.2281, 3127.236
223.7103, 3152.620
224.1924, 3197.708
224.6745, 3236.575
225.1566, 3262.475
225.6387, 3279.181
226.1208, 3292.932
226.6030, 3307.427
227.0851, 3321.210
227.5672, 3327.823
228.0493, 3321.029
228.5314, 3315.022
229.0135, 3317.278
229.4957, 3319.791
229.9778, 3312.934
230.4599, 3292.246
230.9420, 3261.778
231.4241, 3231.239
231.9062, 3202.495
232.3884, 3170.296
232.8705, 3131.472
233.3526, 3090.955
233.8347, 3051.425
234.3168, 3014.119
234.7989, 2980.557
235.2811, 2954.603
235.7632, 2940.539
236.2453, 2923.813
236.7274, 2903.491
237.2095, 2880.165
237.6916, 2851.250
238.1738, 2817.505
238.6559, 2785.741
239.1380, 2765.853
239.6201, 2762.083
240.1022, 2754.380
240.5843, 2742.999
241.0665, 2726.795
241.5486, 2698.935
242.0307, 2662.859
242.5128, 2632.947
242.9949, 2624.706
243.4770, 2639.971
243.9592, 2655.138
244.4413, 2673.925
244.9234, 2688.917
245.4055, 2693.513
245.8876, 2691.573
246.3697, 2692.561
246.8519, 2702.605
247.3340, 2721.523
247.8161, 2747.716
248.2982, 2789.573
248.7803, 2827.635
249.2624, 2848.441
249.7446, 2862.525
250.2267, 2887.261
250.7088, 2933.803
251.1909, 2995.261
251.6730, 3051.929
252.1551, 3101.490
252.6373, 3151.277
253.1194, 3212.802
253.6015, 3272.141
254.0836, 3312.084
254.5657, 3324.475
255.0478, 3322.824
255.5300, 3331.186
256.0121, 3355.715
256.4942, 3366.527
256.9763, 3348.815
257.4584, 3317.314
257.9406, 3279.738
258.4227, 3237.516
258.9048, 3192.649
259.3869, 3144.396
259.8690, 3092.218
260.3511, 3047.656
260.8333, 3015.071
261.3154, 2989.166
261.7975, 2966.878
262.2796, 2947.831
262.7617, 2929.723
263.2438, 2909.699
263.7260, 2888.630
264.2081, 2872.445
264.6902, 2864.499
265.1723, 2857.349
265.6544, 2843.862
266.1365, 2826.178
266.6187, 2811.762
267.1008, 2803.775
267.5829, 2801.483
268.0650, 2804.481
268.5471, 2814.200
269.0292, 2824.469
269.5114, 2828.947
269.9935, 2831.195
270.4756, 2837.733
270.9577, 2851.409
271.4398, 2869.098
271.9219, 2890.327
272.4041, 2915.417
272.8862, 2932.894
273.3683, 2930.206
273.8504, 2919.475
274.3325, 2924.045
274.8146, 2950.398
275.2968, 2982.325
275.7789, 3011.742
276.2610, 3038.366
276.7431, 3061.638
277.2252, 3082.194
277.7073, 3097.869
278.1895, 3103.256
278.6716, 3095.730
279.1537, 3092.182
279.6358, 3096.663
280.1179, 3109.544
280.6000, 3133.304
281.0822, 3169.552
281.5643, 3210.421
282.0464, 3247.125
282.5285, 3279.073
283.0106, 3311.994
283.4927, 3348.388
283.9749, 3384.807
284.4570, 3418.165
284.9391, 3448.296
285.4212, 3477.782
285.9033, 3510.231
286.3854, 3544.853
286.8676, 3566.562
287.3497, 3570.417
287.8318, 3567.551
288.3139, 3559.880
288.7960, 3549.526
289.2781, 3542.295
289.7603, 3542.503
290.2424, 3546.443
290.7245, 3538.102
291.2066, 3507.228
291.6887, 3477.681
292.1708, 3452.671
292.6530, 3431.019
293.1351, 3411.646
293.6172, 3394.125
294.0993, 3377.708
294.5814, 3361.336
295.0635, 3346.064
295.5457, 3328.522
296.0278, 3301.220
296.5099, 3277.246
296.9920, 3267.713
297.4741, 3272.606
297.9562, 3283.198
298.4384, 3291.119
298.9205, 3296.445
299.4026, 3298.405
299.8847, 3289.042
300.3668, 3284.324
300.8489, 3290.933
301.3311, 3306.591
301.8131, 3325.570
302.2953, 3344.082
302.7774, 3362.913
303.2595, 3386.970
303.7416, 3425.495
304.2237, 3455.091
304.7058, 3465.766
305.1880, 3468.364
305.6701, 3475.472
306.1522, 3491.939
306.6343, 3510.348
307.1164, 3518.231
307.5985, 3513.440
308.0807, 3505.964
308.5628, 3497.828
309.0449, 3487.139
309.5270, 3469.479
310.0091, 3445.635
310.4912, 3425.778
310.9734, 3419.760
311.4555, 3426.540
311.9376, 3435.746
312.4197, 3449.922
312.9018, 3461.612
313.3839, 3462.834
313.8661, 3457.928
314.3482, 3458.435
314.8303, 3474.055
315.3124, 3496.288
315.7945, 3509.581
316.2766, 3512.630
316.7588, 3513.878
317.2409, 3511.213
317.7230, 3512.157
318.2051, 3531.598
318.6872, 3583.293
319.1693, 3632.391
319.6515, 3648.314
320.1336, 3637.633
320.6157, 3629.947
321.0978, 3635.211
321.5799, 3647.744
322.0620, 3659.065
322.5442, 3668.849
323.0263, 3679.301
323.5084, 3690.710
323.9905, 3703.317
324.4726, 3715.586
324.9547, 3727.370
325.4369, 3744.708
325.9190, 3773.173
326.4011, 3813.957
326.8832, 3862.589
327.3653, 3939.148
327.8474, 4005.239
328.3296, 4028.260
328.8117, 4021.042
329.2938, 4024.735
329.7759, 4065.321
330.2580, 4132.313
330.7401, 4176.837
331.2223, 4172.797
331.7044, 4178.760
332.1865, 4213.825
332.6686, 4255.904
333.1507, 4283.472
333.6328, 4289.296
334.1150, 4276.464
334.5971, 4247.791
335.0792, 4197.375
335.5613, 4146.873
336.0434, 4099.580
336.5255, 4049.474
337.0077, 3996.089
337.4898, 3937.760
337.9719, 3869.687
338.4540, 3785.541
338.9361, 3688.089
339.4182, 3601.673
339.9004, 3526.101
340.3825, 3464.265
340.8646, 3422.977
341.3467, 3391.588
341.8288, 3356.113
342.3109, 3310.322
342.7931, 3262.728
343.2752, 3225.771
343.7573, 3200.173
344.2394, 3179.984
344.7215, 3165.962
345.2036, 3155.473
345.6858, 3145.163
346.1679, 3135.049
346.6500, 3130.084
347.1321, 3134.716
347.6142, 3146.831
348.0963, 3162.202
348.5785, 3182.381
349.0606, 3199.687
349.5427, 3202.895
350.0248, 3197.708
350.5069, 3201.612
350.9890, 3224.116
351.4712, 3251.744
351.9533, 3275.125
352.4354, 3294.462
352.9175, 3310.307
353.3996, 3321.258
353.8817, 3330.772
354.3639, 3349.331
354.8460, 3382.494
355.3281, 3410.894
355.8102, 3428.109
356.2923, 3439.241
356.7744, 3447.533
357.2566, 3454.376
357.7387, 3465.451
358.2208, 3488.930
358.7029, 3529.696
359.1850, 3554.931
359.6671, 3552.214
360.1493, 3548.683
360.6314, 3559.274
361.1135, 3578.497
361.5956, 3591.541
362.0777, 3588.890
362.5598, 3576.561
363.0420, 3577.631
363.5241, 3607.250
364.0062, 3625.760
364.4883, 3624.293
364.9704, 3613.819
365.4525, 3601.308
365.9347, 3589.125
366.4168, 3579.181
366.8989, 3574.859
367.3810, 3576.593
367.8631, 3575.787
368.3452, 3568.077
368.8274, 3562.785
369.3095, 3569.180
369.7916, 3581.510
370.2737, 3585.472
370.7558, 3569.558
371.2379, 3545.426
371.7201, 3533.739
372.2022, 3535.763
372.6843, 3538.373
373.1664, 3537.716
373.6485, 3533.355
374.1306, 3524.909
374.6128, 3511.620
375.0949, 3496.926
375.5770, 3479.856
376.0591, 3463.183
376.5412, 3454.752
377.0233, 3457.244
377.5055, 3459.432
377.9876, 3448.623
378.4697, 3423.113
378.9518, 3402.781
379.4339, 3391.513
379.9160, 3382.238
380.3982, 3368.275
380.8803, 3352.654
381.3624, 3344.665
381.8445, 3349.724
382.3266, 3364.366
382.8087, 3378.343
383.2909, 3391.622
383.7730, 3404.027
384.2551, 3406.998
384.7372, 3414.581
385.2193, 3444.592
385.7014, 3495.991
386.1836, 3546.273
386.6657, 3567.984
387.1478, 3558.467
387.6299, 3570.589
388.1120, 3627.845
388.5941, 3680.393
389.0763, 3703.497
389.5584, 3713.352
390.0405, 3734.960
390.5226, 3779.280
391.0047, 3839.819
391.4868, 3911.245
391.9690, 3995.116
392.4511, 4072.108
392.9332, 4132.415
393.4153, 4187.556
393.8974, 4245.475
394.3795, 4306.717
394.8617, 4376.224
395.3438, 4458.301
395.8259, 4549.417
396.3080, 4646.323
396.7901, 4748.909
397.2722, 4851.068
397.7544, 4950.059
398.2365, 5044.551
398.7186, 5132.093
399.2007, 5205.372
399.6828, 5279.136
400.1649, 5366.898
400.6471, 5456.927
401.1292, 5530.501
401.6113, 5581.780
402.0934, 5615.778
402.5755, 5639.678
403.0576, 5650.948
403.5398, 5658.520
404.0219, 5669.263
404.5040, 5670.681
404.9861, 5655.803
405.4682, 5626.166
405.9503, 5587.184
406.4325, 5542.531
406.9146, 5490.612
407.3967, 5425.395
407.8788, 5340.978
408.3609, 5255.211
408.8430, 5172.032
409.3252, 5088.224
409.8073, 5003.110
410.2894, 4915.955
410.7715, 4821.303
411.2536, 4707.748
411.7357, 4580.495
412.2179, 4469.672
412.7000, 4378.895
413.1821, 4301.576
413.6642, 4251.001
414.1463, 4209.647
414.6284, 4141.017
415.1106, 4023.366
415.5927, 3894.446
416.0748, 3779.115
416.5569, 3674.606
417.0390, 3571.975
417.5211, 3467.618
418.0033, 3367.533
418.4854, 3281.901
418.9675, 3216.150
419.4496, 3147.732
419.9317, 3069.558
420.4138, 2994.313
420.8960, 2933.807
421.3781, 2884.227
421.8602, 2831.266
422.3423, 2764.574
422.8244, 2688.845
423.3065, 2624.666
423.7887, 2577.941
424.2708, 2534.041
424.7529, 2492.114
425.2350, 2451.553
425.7171, 2412.454
426.1992, 2374.485
426.6814, 2336.954
427.1635, 2299.510
427.6456, 2261.829
428.1277, 2223.145
428.6098, 2181.969
429.0919, 2142.792
429.5741, 2104.778
430.0562, 2070.721
430.5383, 2047.520
431.0204, 2042.671
431.5025, 2036.211
431.9846, 2005.198
432.4668, 1957.736
432.9489, 1924.606
433.4310, 1916.018
433.9131, 1915.708
434.3952, 1904.683
434.8773, 1881.706
435.3595, 1860.932
435.8416, 1837.907
436.3237, 1822.036
436.8058, 1823.058
437.2879, 1836.008
437.7701, 1848.533
438.2522, 1854.402
438.7343, 1855.407
439.2164, 1856.216
439.6985, 1859.326
440.1806, 1857.475
440.6628, 1844.343
441.1449, 1831.892
441.6270, 1827.076
442.1091, 1830.198
442.5912, 1838.864
443.0733, 1853.498
443.5555, 1871.412
444.0376, 1880.787
444.5197, 1877.578
445.0018, 1877.189
445.4839, 1888.023
445.9660, 1903.412
446.4482, 1917.911
446.9303, 1931.042
447.4124, 1941.386
447.8945, 1948.706
448.3766, 1952.482
448.8587, 1949.253
449.3409, 1937.870
449.8230, 1929.015
450.3051, 1931.531
450.7872, 1944.604
451.2693, 1957.056
451.7514, 1971.727
452.2336, 1982.565
452.7157, 1985.105
453.1978, 1983.470
453.6799, 1982.860
454.1620, 1984.915
454.6441, 1988.984
455.1263, 1994.672
455.6084, 2002.684
456.0905, 2008.278
456.5726, 2006.349
457.0547, 2007.206
457.5368, 2017.795
458.0190, 2032.342
458.5011, 2040.733
458.9832, 2037.886
459.4653, 2031.459
459.9474, 2031.341
460.4295, 2037.546
460.9117, 2049.325
461.3938, 2068.636
461.8759, 2090.791
462.3580, 2111.934
462.8401, 2132.278
463.3222, 2153.234
463.8044, 2176.111
464.2865, 2199.152
464.7686, 2223.052
465.2507, 2246.238
465.7328, 2260.960
466.2149, 2262.227
466.6971, 2259.018
467.1792, 2268.824
467.6613, 2298.360
468.1434, 2327.902
468.6255, 2355.821
469.1076, 2385.185
469.5898, 2420.677
470.0719, 2459.374
470.5540, 2492.595
471.0361, 2514.525
471.5182, 2528.745
472.0003, 2545.683
472.4825, 2564.980
472.9646, 2587.714
473.4467, 2624.197
473.9288, 2656.686
474.4109, 2668.883
474.8930, 2662.435
475.3752, 2659.063
475.8573, 2675.867
476.3394, 2701.787
476.8215, 2719.217
477.3036, 2727.673
477.7857, 2728.741
478.2679, 2721.226
478.7500, 2708.413
479.2321, 2698.701
479.7142, 2695.377
480.1963, 2686.892
480.6784, 2669.589
481.1606, 2647.175
481.6427, 2620.399
482.1248, 2591.016
482.6069, 2565.588
483.0890, 2550.284
483.5711, 2541.421
484.0533, 2517.256
484.5354, 2465.915
485.0175, 2418.333
485.4996, 2379.330
485.9817, 2345.030
486.4638, 2312.370
486.9460, 2281.045
487.4281, 2253.509
487.9102, 2233.206
488.3923, 2218.057
488.8744, 2201.607
489.3565, 2183.489
489.8387, 2165.819
490.3208, 2148.019
490.8029, 2132.476
491.2850, 2123.893
491.7671, 2124.442
492.2492, 2125.451
492.7314, 2123.444
493.2135, 2120.714
493.6956, 2120.209
494.1777, 2121.974
494.6598, 2123.528
495.1419, 2122.704
495.6241, 2120.240
496.1062, 2120.949
496.5883, 2126.790
497.0704, 2133.253
497.5525, 2140.722
498.0346, 2148.055
498.5168, 2153.453
498.9989, 2157.248
499.4810, 2162.506
499.9631, 2174.004
500.4452, 2188.921
500.9273, 2195.947
501.4095, 2193.922
501.8916, 2188.572
502.3737, 2179.207
502.8558, 2169.826
503.3379, 2167.331
503.8200, 2173.792
504.3022, 2178.895
504.7843, 2177.402
505.2664, 2173.314
505.7485, 2172.123
506.2306, 2173.601
506.7127, 2173.218
507.1949, 2168.234
507.6770, 2158.550
508.1591, 2143.584
508.6412, 2115.339
509.1233, 2093.517
509.6054, 2080.477
510.0876, 2072.834
510.5697, 2070.749
511.0518, 2072.381
511.5339, 2072.678
512.0161, 2069.323
512.4982, 2061.220
512.9803, 2042.980
513.4624, 2012.565
513.9445, 1985.113
514.4266, 1966.881
514.9088, 1953.441
515.3909, 1939.047
515.8730, 1923.625
516.3551, 1908.060
516.8372, 1890.507
517.3193, 1874.440
517.8015, 1864.516
518.2836, 1859.363
518.7657, 1852.254
519.2478, 1839.320
519.7299, 1823.874
520.2120, 1814.202
520.6942, 1815.521
521.1763, 1812.581
521.6584, 1808.085
522.1405, 1797.456
522.6226, 1772.466
523.1047, 1739.272
523.5869, 1712.787
524.0690, 1700.718
524.5511, 1699.109
525.0332, 1704.454
525.5153, 1716.689
525.9974, 1724.944
526.4796, 1725.561
526.9617, 1723.192
527.4438, 1721.732
527.9259, 1721.193
528.4080, 1722.759
528.8901, 1731.713
529.3723, 1737.764
529.8544, 1730.818
530.3365, 1717.335
530.8186, 1710.127
531.3007, 1713.501
531.7828, 1722.282
532.2650, 1729.211
532.7471, 1733.458
533.2292, 1741.164
533.7113, 1752.192
534.1934, 1767.266
534.6755, 1792.645
535.1577, 1819.781
535.6398, 1835.310
536.1219, 1834.327
536.6040, 1832.533
537.0861, 1848.657
537.5682, 1875.863
538.0504, 1891.773
538.5325, 1893.253
539.0146, 1886.565
539.4967, 1872.678
539.9788, 1854.382
540.4609, 1845.679
540.9431, 1854.065
541.4252, 1860.514
541.9073, 1861.057
542.3894, 1858.060
542.8715, 1854.218
543.3536, 1849.414
543.8358, 1841.157
544.3179, 1827.165
544.8000, 1808.407
545.2821, 1788.441
545.7642, 1765.680
546.2463, 1746.152
546.7285, 1734.283
547.2106, 1724.221
547.6927, 1712.480
548.1748, 1698.719
548.6569, 1681.727
549.1390, 1657.147
549.6211, 1631.889
550.1032, 1614.779
550.5853, 1604.202
551.0674, 1591.940
551.5496, 1573.900
552.0317, 1556.377
552.5138, 1550.368
552.9959, 1561.464
553.4780, 1565.073
553.9601, 1559.603
554.4423, 1549.544
554.9244, 1530.648
555.4065, 1510.220
555.8886, 1499.296
556.3707, 1501.979
556.8528, 1512.102
557.3350, 1525.147
557.8171, 1540.197
558.2992, 1548.992
558.7813, 1549.306
559.2634, 1548.089
559.7455, 1550.627
560.2277, 1554.936
560.7098, 1554.528
561.1919, 1544.591
561.6740, 1538.285
562.1561, 1541.353
562.6382, 1549.087
563.1204, 1557.112
563.6025, 1564.710
564.0846, 1572.911
564.5667, 1582.870
565.0488, 1593.485
565.5309, 1599.913
566.0131, 1599.300
566.4952, 1601.696
566.9773, 1608.880
567.4594, 1619.772
567.9415, 1635.743
568.4236, 1655.480
568.9058, 1673.514
569.3879, 1687.130
569.8700, 1698.509
570.3521, 1709.618
570.8342, 1720.414
571.3163, 1729.256
571.7985, 1735.097
572.2806, 1744.989
572.7627, 1769.874
573.2448, 1813.393
573.7269, 1837.814
574.2090, 1821.111
574.6912, 1812.902
575.1733, 1830.757
575.6554, 1860.782
576.1375, 1888.259
576.6196, 1909.586
577.1017, 1928.213
577.5839, 1944.453
578.0660, 1960.556
578.5481, 1984.507
579.0302, 2016.777
579.5123, 2054.125
579.9944, 2098.689
580.4766, 2144.204
580.9587, 2176.740
581.4408, 2193.558
581.9229, 2212.235
582.4050, 2232.965
582.8871, 2258.016
583.3693, 2289.707
583.8514, 2326.696
584.3335, 2368.378
584.8156, 2414.303
585.2977, 2458.853
585.7798, 2493.087
586.2620, 2516.359
586.7441, 2534.542
587.2262, 2541.677
587.7083, 2554.383
588.1904, 2592.035
588.6725, 2638.891
589.1547, 2667.878
589.6368, 2670.292
590.1189, 2668.700
590.6010, 2675.203
591.0831, 2683.148
591.5652, 2680.976
592.0474, 2670.081
592.5295, 2665.544
593.0116, 2678.968
593.4937, 2701.145
593.9758, 2700.868
594.4579, 2660.753
594.9401, 2639.574
595.4222, 2661.707
595.9043, 2686.277
596.3864, 2694.173
596.8685, 2688.220
597.3506, 2677.200
597.8328, 2660.807
598.3149, 2647.350
598.7970, 2649.823
599.2791, 2660.608
599.7612, 2658.032
600.2433, 2637.865
600.7255, 2614.459
601.2076, 2598.796
601.6897, 2590.791
602.1718, 2589.928
602.6539, 2609.965
603.1360, 2618.078
603.6182, 2603.102
604.1003, 2582.422
604.5824, 2567.188
605.0645, 2558.429
605.5466, 2553.757
606.0287, 2554.063
606.5109, 2554.561
606.9930, 2547.996
607.4751, 2534.806
607.9572, 2518.007
608.4393, 2497.487
608.9214, 2476.747
609.4036, 2460.494
609.8857, 2448.704
610.3678, 2428.986
610.8499, 2387.063
611.3320, 2356.104
611.8141, 2354.086
612.2963, 2360.169
612.7784, 2352.301
613.2605, 2329.224
613.7426, 2305.310
614.2247, 2289.563
614.7068, 2282.183
615.1890, 2285.557
615.6711, 2300.123
616.1532, 2315.744
616.6353, 2329.686
617.1174, 2343.200
617.5995, 2356.857
618.0817, 2370.700
618.5638, 2388.473
619.0459, 2408.621
619.5280, 2434.625
620.0101, 2466.706
620.4922, 2506.010
620.9744, 2555.124
621.4565, 2613.791
621.9386, 2677.104
622.4207, 2737.892
622.9028, 2801.031
623.3849, 2887.374
623.8671, 3000.561
624.3492, 3115.640
624.8313, 3223.833
625.3134, 3332.394
625.7955, 3445.439
626.2776, 3562.935
626.7598, 3697.262
627.2419, 3853.917
627.7240, 4023.124
628.2061, 4203.587
628.6882, 4390.913
629.1703, 4577.468
629.6525, 4761.541
630.1346, 4949.076
630.6167, 5150.818
631.0988, 5359.934
631.5809, 5539.674
632.0630, 5688.057
632.5452, 5818.377
633.0273, 5944.999
633.5094, 6044.954
633.9915, 6095.900
634.4736, 6099.354
634.9557, 6064.583
635.4379, 5991.017
635.9200, 5882.126
636.4021, 5736.168
636.8842, 5557.516
637.3663, 5345.647
637.8484, 5103.958
638.3306, 4850.879
638.8127, 4602.822
639.2948, 4360.268
639.7769, 4133.500
640.2590, 3924.698
640.7411, 3721.563
641.2233, 3520.050
641.7054, 3324.961
642.1875, 3134.895
642.6696, 2950.721
