##NAMES=Vesuvianite
##RRUFFID=R060170
##IDEAL CHEMISTRY=(Ca,Na)_19_(Al,Mg,Fe^3+^)_13_(SiO_4_)_10_(Si_2_O_7_)_4_(OH,F,O)_10_
##LOCALITY=Jeffrey mine, Asbestos, Quebec, Canada
##OWNER=RRUFF
##SOURCE=Guy Ouellet
##DESCRIPTION=Violet prismatic crystals on diopside, R060171
##STATUS=The identification of this mineral is confirmed by single-crystal X-ray diffraction and chemical analysis.
##URL=rruff.info/R060170
##MEASURED CHEMISTRY=Ca_19.00_(Al_10.85_Mg_1.38_Mn_0.54_Fe^2+^_0.21_Cr_0.02_)_Σ=13_Si_18.00_O_68_((OH)_9.13_O_0.87_)_Σ=10_ ; B not measured.
90.26367, 18.58524
90.74579, 18.78440
91.22791, 18.71319
91.71002, 18.39911
92.19214, 18.08175
92.67426, 18.03781
93.15637, 18.15364
93.63850, 18.12039
94.12061, 17.67811
94.60273, 17.05919
95.08485, 16.82729
95.56696, 17.01130
96.04908, 17.40078
96.53120, 17.85872
97.01331, 18.36664
97.49543, 18.71001
97.97755, 18.65555
98.45966, 18.23913
98.94178, 18.21446
99.42390, 18.74890
99.90602, 19.43920
100.3881, 19.41366
100.8703, 18.46278
101.3524, 17.53567
101.8345, 17.16584
102.3166, 17.51742
102.7987, 17.72725
103.2808, 17.68365
103.7630, 17.45830
104.2451, 17.36701
104.7272, 17.44136
105.2093, 17.60713
105.6914, 17.86039
106.1735, 18.45516
106.6557, 18.68050
107.1378, 18.22827
107.6199, 17.05812
108.1020, 16.47864
108.5841, 16.80597
109.0662, 17.55656
109.5484, 18.30013
110.0305, 19.02248
110.5126, 19.76034
110.9947, 20.56238
111.4768, 21.49019
111.9590, 22.23178
112.4411, 22.47677
112.9232, 22.59302
113.4053, 23.04611
113.8874, 23.94852
114.3695, 25.17757
114.8517, 26.73559
115.3338, 28.74669
115.8159, 30.75838
116.2980, 32.50682
116.7801, 34.17485
117.2622, 36.14085
117.7444, 38.52423
118.2265, 41.28241
118.7086, 44.35438
119.1907, 47.65219
119.6728, 51.43465
120.1549, 55.98254
120.6371, 61.19284
121.1192, 66.67138
121.6013, 72.26772
122.0834, 77.93597
122.5655, 83.58555
123.0477, 89.01751
123.5298, 94.57011
124.0119, 100.5602
124.4940, 106.9754
124.9761, 113.6688
125.4582, 120.8366
125.9404, 128.1525
126.4225, 134.9122
126.9046, 140.7617
127.3867, 145.9121
127.8688, 150.4796
128.3509, 154.4013
128.8331, 158.3523
129.3152, 163.1176
129.7973, 168.6089
130.2794, 174.2508
130.7615, 179.5589
131.2436, 184.7820
131.7258, 190.7123
132.2079, 197.4167
132.6900, 204.7197
133.1721, 212.4322
133.6542, 220.5235
134.1364, 228.9243
134.6185, 237.8809
135.1006, 247.3954
135.5827, 256.3633
136.0648, 264.5963
136.5469, 272.4545
137.0291, 281.0069
137.5112, 290.4345
137.9933, 299.5741
138.4754, 307.9078
138.9575, 315.3951
139.4396, 321.8553
139.9218, 327.0993
140.4039, 331.2734
140.8860, 334.8652
141.3681, 337.6232
141.8502, 340.2037
142.3323, 343.0684
142.8145, 346.4171
143.2966, 349.5897
143.7787, 352.1633
144.2608, 354.1915
144.7429, 357.5194
145.2251, 362.6970
145.7072, 368.7261
146.1893, 374.6632
146.6714, 380.0804
147.1535, 386.0337
147.6356, 392.7669
148.1178, 400.3455
148.5999, 408.0879
149.0820, 416.2588
149.5641, 424.4532
150.0462, 432.0979
150.5283, 437.8314
151.0105, 444.2745
151.4926, 448.1029
151.9747, 453.2507
152.4568, 458.1373
152.9389, 462.5848
153.4210, 466.7646
153.9032, 470.9922
154.3853, 475.1651
154.8674, 479.4273
155.3495, 483.8032
155.8316, 488.3519
156.3138, 492.9833
156.7959, 497.9984
157.2780, 503.0697
157.7601, 507.5574
158.2422, 510.7630
158.7243, 513.8139
159.2065, 517.2671
159.6886, 521.2219
160.1707, 525.5199
160.6528, 530.2850
161.1349, 535.3683
161.6170, 540.3849
162.0992, 545.4227
162.5813, 550.2128
163.0634, 554.5574
163.5455, 558.1874
164.0276, 561.6785
164.5097, 565.5588
164.9919, 569.6141
165.4740, 572.9936
165.9561, 574.6029
166.4382, 575.6632
166.9203, 577.3213
167.4025, 580.4952
167.8846, 583.7454
168.3667, 586.2567
168.8488, 588.0889
169.3309, 589.5928
169.8130, 590.8436
170.2952, 591.9293
170.7773, 592.9345
171.2594, 593.6060
171.7415, 594.4186
172.2236, 596.0306
172.7057, 598.3712
173.1879, 600.4647
173.6700, 601.3436
174.1521, 601.5038
174.6342, 601.7952
175.1163, 603.1208
175.5984, 604.4518
176.0806, 604.3977
176.5627, 602.9532
177.0448, 601.1556
177.5269, 600.0756
178.0090, 599.3661
178.4911, 598.1672
178.9733, 596.1748
179.4554, 593.4836
179.9375, 589.8309
180.4196, 585.1346
180.9017, 580.6712
181.3839, 578.6999
181.8660, 578.3914
182.3481, 576.6833
182.8302, 571.1293
183.3123, 563.3077
183.7944, 556.9064
184.2766, 552.1049
184.7587, 547.9962
185.2408, 543.5881
185.7229, 538.9249
186.2050, 533.9883
186.6871, 528.5178
187.1693, 522.6974
187.6514, 517.5821
188.1335, 513.1904
188.6156, 509.2797
189.0977, 505.3223
189.5798, 501.3547
190.0620, 497.8835
190.5441, 495.2851
191.0262, 493.4438
191.5083, 491.6508
191.9904, 489.8426
192.4725, 488.0377
192.9547, 486.1399
193.4368, 484.1193
193.9189, 482.4556
194.4010, 481.5576
194.8831, 481.3763
195.3652, 481.0385
195.8474, 480.3805
196.3295, 479.7216
196.8116, 479.7850
197.2937, 480.6324
197.7758, 481.6019
198.2579, 482.1897
198.7401, 482.3755
199.2222, 483.0545
199.7043, 484.3565
200.1864, 486.0799
200.6685, 487.8098
201.1507, 489.5240
201.6328, 491.2820
202.1149, 493.1238
202.5970, 495.0527
203.0791, 496.9933
203.5612, 498.8755
204.0434, 500.7926
204.5255, 502.9919
205.0076, 505.5108
205.4897, 508.1931
205.9718, 511.0510
206.4539, 514.1785
206.9361, 516.8023
207.4182, 518.4058
207.9003, 519.6636
208.3824, 523.3023
208.8645, 530.4155
209.3466, 537.0923
209.8288, 540.7205
210.3109, 540.5604
210.7930, 540.5658
211.2751, 541.0061
211.7572, 541.8714
212.2393, 543.2101
212.7215, 545.1298
213.2036, 547.2446
213.6857, 549.4579
214.1678, 552.0394
214.6499, 553.7523
215.1321, 554.2496
215.6142, 553.8224
216.0963, 553.8417
216.5784, 554.6890
217.0605, 555.2572
217.5426, 554.8926
218.0248, 553.6078
218.5069, 551.3662
218.9890, 548.0648
219.4711, 543.7996
219.9532, 538.8124
220.4353, 532.4916
220.9175, 526.3907
221.3996, 521.4191
221.8817, 517.8635
222.3638, 514.8136
222.8459, 512.2596
223.3280, 510.1511
223.8102, 508.4457
224.2923, 507.2364
224.7744, 506.2319
225.2565, 505.1766
225.7386, 503.7389
226.2208, 503.0948
226.7029, 503.7188
227.1850, 505.2729
227.6671, 505.9229
228.1492, 505.1700
228.6313, 504.2207
229.1135, 503.8239
229.5956, 504.2407
230.0777, 504.6299
230.5598, 504.9779
231.0419, 505.2634
231.5240, 505.2274
232.0062, 504.1083
232.4883, 503.7109
232.9704, 505.4405
233.4525, 511.0423
233.9346, 514.8536
234.4167, 515.7287
234.8989, 514.3930
235.3810, 514.2940
235.8631, 516.1033
236.3452, 518.2585
236.8273, 519.7639
237.3095, 519.8118
237.7916, 520.9943
238.2737, 524.0109
238.7558, 528.3002
239.2379, 531.5337
239.7200, 533.2332
240.2022, 534.5150
240.6843, 535.9456
241.1664, 537.4818
241.6485, 539.2663
242.1306, 541.3403
242.6127, 543.6815
243.0949, 546.1307
243.5770, 548.7379
244.0591, 551.4177
244.5412, 554.0685
245.0233, 556.5310
245.5054, 559.3818
245.9876, 562.6741
246.4697, 566.3611
246.9518, 570.3889
247.4339, 574.7437
247.9160, 579.4835
248.3981, 584.6125
248.8803, 590.2769
249.3624, 596.0518
249.8445, 601.9786
250.3266, 607.9869
250.8087, 613.8610
251.2909, 619.2737
251.7730, 624.9741
252.2551, 631.2909
252.7372, 638.5895
253.2193, 645.7107
253.7014, 652.7831
254.1836, 659.5617
254.6657, 665.4408
255.1478, 670.4530
255.6299, 674.5263
256.1120, 677.7623
256.5941, 680.3559
257.0763, 681.4277
257.5584, 680.9221
258.0405, 678.9532
258.5226, 675.6598
259.0047, 670.6602
259.4868, 665.0830
259.9690, 659.4132
260.4511, 653.7751
260.9332, 647.4446
261.4153, 640.1050
261.8974, 632.2715
262.3795, 624.8467
262.8617, 617.6781
263.3438, 611.1277
263.8259, 605.3223
264.3080, 600.3752
264.7901, 595.5625
265.2722, 590.9001
265.7544, 586.3483
266.2365, 581.7480
266.7186, 576.7697
267.2007, 572.7985
267.6829, 570.5681
268.1650, 570.1769
268.6471, 569.2362
269.1292, 567.3753
269.6113, 565.5231
270.0934, 564.8038
270.5756, 565.3186
271.0577, 566.5834
271.5398, 568.5961
272.0219, 571.3544
272.5040, 574.0997
272.9861, 576.7277
273.4683, 579.4912
273.9504, 582.7794
274.4325, 586.6911
274.9146, 590.4969
275.3967, 594.0955
275.8788, 597.4770
276.3610, 600.2443
276.8431, 602.2535
277.3252, 604.0070
277.8073, 605.9899
278.2894, 608.2415
278.7715, 610.2972
279.2537, 612.0489
279.7358, 613.5623
280.2179, 615.0281
280.7000, 616.3851
281.1821, 618.0278
281.6642, 620.3098
282.1464, 623.2347
282.6285, 626.6359
283.1106, 630.8414
283.5927, 635.2119
284.0748, 637.6046
284.5569, 637.7957
285.0391, 638.0526
285.5212, 640.2471
286.0033, 644.1873
286.4854, 647.7272
286.9675, 650.6376
287.4496, 652.9420
287.9318, 654.6680
288.4139, 655.8195
288.8960, 656.4523
289.3781, 656.5561
289.8602, 656.1732
290.3424, 655.4808
290.8245, 654.4747
291.3066, 653.2333
291.7887, 651.9923
292.2708, 650.7151
292.7530, 649.0308
293.2351, 646.6105
293.7172, 643.6217
294.1993, 640.6305
294.6814, 637.6480
295.1635, 634.6550
295.6457, 631.5457
296.1278, 628.3802
296.6099, 625.4674
297.0920, 623.1268
297.5741, 621.1351
298.0562, 618.9828
298.5384, 616.6443
299.0205, 614.6165
299.5026, 614.1702
299.9847, 614.5293
300.4668, 613.5842
300.9489, 609.7979
301.4311, 604.6293
301.9132, 599.8679
302.3953, 595.4877
302.8774, 591.8267
303.3595, 589.2674
303.8416, 587.5693
304.3238, 586.2723
304.8059, 585.4615
305.2880, 584.8080
305.7701, 584.1234
306.2522, 583.3668
306.7343, 582.3370
307.2165, 580.4836
307.6986, 578.4030
308.1807, 576.8496
308.6628, 576.0973
309.1449, 575.7280
309.6270, 575.6505
310.1092, 575.7281
310.5913, 575.5328
311.0734, 574.5333
311.5555, 573.3076
312.0376, 572.3355
312.5197, 571.6726
313.0019, 571.3353
313.4840, 571.3143
313.9661, 571.6176
314.4482, 572.2585
314.9304, 573.7850
315.4125, 575.2711
315.8946, 576.0408
316.3767, 575.8760
316.8588, 575.7507
317.3409, 575.9291
317.8231, 576.4254
318.3052, 577.2530
318.7873, 578.8562
319.2694, 580.4219
319.7515, 581.4953
320.2336, 582.0031
320.7158, 582.7833
321.1979, 584.3385
321.6800, 586.1374
322.1621, 587.6939
322.6442, 588.5312
323.1263, 589.5013
323.6085, 590.8001
324.0906, 592.4199
324.5727, 594.1940
325.0548, 596.4043
325.5369, 598.5540
326.0190, 600.3385
326.5012, 602.0082
326.9833, 603.0087
327.4654, 602.7971
327.9475, 601.7487
328.4296, 601.3671
328.9117, 602.2733
329.3939, 603.2991
329.8760, 603.9668
330.3581, 604.0003
330.8402, 604.1711
331.3223, 604.6151
331.8044, 605.1429
332.2866, 605.3740
332.7687, 605.1961
333.2508, 604.8369
333.7329, 604.1804
334.2150, 602.9484
334.6971, 602.8243
335.1793, 604.3256
335.6614, 606.4357
336.1435, 607.6371
336.6256, 607.2625
337.1077, 607.8430
337.5899, 610.2224
338.0720, 614.3364
338.5541, 618.1527
339.0362, 621.7164
339.5183, 625.0048
340.0005, 627.7520
340.4826, 629.8285
340.9647, 632.5536
341.4468, 636.2522
341.9289, 640.6862
342.4110, 645.3145
342.8932, 650.1530
343.3753, 654.7894
343.8574, 658.3523
344.3395, 661.0154
344.8216, 665.3390
345.3037, 671.9012
345.7859, 679.5344
346.2680, 686.2586
346.7501, 692.1649
347.2322, 697.9006
347.7143, 703.8674
348.1964, 709.9726
348.6786, 715.9065
349.1607, 721.6845
349.6428, 727.5856
350.1249, 734.2194
350.6070, 741.3434
351.0891, 748.3240
351.5713, 754.5729
352.0534, 760.6035
352.5355, 767.4980
353.0176, 775.1381
353.4997, 782.6157
353.9818, 788.9367
354.4640, 794.6523
354.9461, 800.7438
355.4282, 807.7746
355.9103, 814.8392
356.3924, 821.1097
356.8745, 826.7441
357.3567, 832.2077
357.8388, 838.5237
358.3209, 844.4186
358.8030, 848.8186
359.2851, 851.3279
359.7672, 852.7780
360.2494, 853.4706
360.7315, 853.4260
361.2136, 852.6798
361.6957, 851.0578
362.1779, 848.8892
362.6600, 846.4681
363.1421, 843.9005
363.6242, 840.3478
364.1063, 834.8032
364.5884, 828.4205
365.0706, 822.4266
365.5527, 818.2156
366.0348, 813.2271
366.5169, 806.5085
366.9990, 798.1634
367.4811, 790.1700
367.9633, 782.6590
368.4454, 775.5547
368.9275, 768.8741
369.4096, 763.3421
369.8917, 757.2562
370.3738, 750.0614
370.8560, 742.2855
371.3381, 735.5522
371.8202, 730.2753
372.3023, 725.4014
372.7844, 720.7310
373.2665, 716.5505
373.7487, 711.4063
374.2308, 704.7589
374.7129, 697.6980
375.1950, 691.6715
375.6771, 686.9838
376.1592, 682.3035
376.6414, 677.0862
377.1235, 671.4761
377.6056, 666.8947
378.0877, 663.6115
378.5698, 660.3639
379.0519, 655.7623
379.5341, 649.8372
380.0162, 644.3408
380.4983, 639.6694
380.9804, 635.5103
381.4625, 631.3234
381.9446, 627.0609
382.4268, 623.1102
382.9089, 619.6293
383.3910, 616.6241
383.8731, 614.1810
384.3553, 612.4476
384.8374, 610.6449
385.3195, 607.5266
385.8016, 603.5436
386.2837, 599.9714
386.7658, 597.7134
387.2480, 596.0555
387.7301, 593.9678
388.2122, 591.4861
388.6943, 589.2744
389.1764, 588.0803
389.6585, 587.3738
390.1407, 586.4815
390.6228, 584.9498
391.1049, 583.5647
391.5870, 582.9984
392.0691, 583.0353
392.5512, 583.0292
393.0334, 582.7210
393.5155, 582.2490
393.9976, 581.5158
394.4797, 580.2035
394.9618, 579.7043
395.4439, 580.8547
395.9261, 582.9637
396.4082, 585.1044
396.8903, 587.3407
397.3724, 589.3624
397.8545, 590.8510
398.3366, 591.7636
398.8188, 593.3768
399.3009, 596.4393
399.7830, 599.7911
400.2651, 602.6906
400.7472, 604.7247
401.2293, 606.9335
401.7115, 609.4898
402.1936, 612.2499
402.6757, 614.8178
403.1578, 617.2987
403.6399, 619.4035
404.1220, 620.9202
404.6042, 621.7472
405.0863, 622.6589
405.5684, 623.7745
406.0505, 624.7647
406.5326, 625.1841
407.0147, 624.9988
407.4969, 624.4824
407.9790, 623.5999
408.4611, 622.4708
408.9432, 621.6360
409.4254, 621.1384
409.9075, 620.5694
410.3896, 619.6867
410.8717, 618.4803
411.3538, 616.9156
411.8359, 615.0374
412.3181, 612.7201
412.8002, 609.8393
413.2823, 606.4159
413.7644, 602.3223
414.2465, 596.7247
414.7286, 590.7698
415.2108, 586.0704
415.6929, 582.7700
416.1750, 579.5712
416.6571, 575.4979
417.1392, 570.9562
417.6213, 566.3519
418.1035, 561.8867
418.5856, 557.3861
419.0677, 552.6555
419.5498, 547.7805
420.0319, 543.2662
420.5140, 539.3689
420.9962, 535.7999
421.4783, 532.4459
421.9604, 529.4706
422.4425, 526.2458
422.9246, 522.3568
423.4067, 518.2559
423.8889, 514.5104
424.3710, 511.4721
424.8531, 508.5258
425.3352, 505.5954
425.8173, 502.6807
426.2994, 499.8297
426.7816, 497.0201
427.2637, 494.3217
427.7458, 491.7717
428.2279, 489.2862
428.7100, 487.1103
429.1921, 485.4054
429.6743, 483.9417
430.1564, 482.2159
430.6385, 480.1566
431.1206, 478.1080
431.6028, 476.1516
432.0849, 474.2817
432.5670, 472.7438
433.0491, 471.5338
433.5312, 470.6642
434.0133, 470.3194
434.4955, 470.4054
434.9776, 470.2484
435.4597, 469.5786
435.9418, 468.7191
436.4239, 468.2173
436.9060, 468.0524
437.3882, 468.0537
437.8703, 468.0934
438.3524, 468.2372
438.8345, 468.6439
439.3166, 469.3690
439.7987, 470.0617
440.2809, 470.2762
440.7630, 470.3032
441.2451, 470.5956
441.7272, 471.5906
442.2093, 472.6565
442.6914, 473.2643
443.1736, 473.5365
443.6557, 474.3022
444.1378, 476.4990
444.6199, 478.8658
445.1020, 480.5873
445.5841, 481.2789
446.0663, 481.8602
446.5484, 482.4633
447.0305, 483.0347
447.5126, 483.4684
447.9947, 483.2667
448.4768, 483.5328
448.9590, 484.6604
449.4411, 486.6654
449.9232, 488.4078
450.4053, 489.8387
450.8874, 491.0880
451.3695, 492.2404
451.8517, 493.3168
452.3338, 494.1786
452.8159, 494.7321
453.2980, 495.1349
453.7801, 495.7010
454.2622, 496.4261
454.7444, 497.2770
455.2265, 498.3398
455.7086, 499.5295
456.1907, 500.4099
456.6729, 500.9795
457.1550, 501.4222
457.6371, 501.7696
458.1192, 502.1363
458.6013, 502.8618
459.0834, 504.1788
459.5656, 505.5927
460.0477, 506.2941
460.5298, 506.6000
461.0119, 507.4041
461.4940, 509.4185
461.9761, 511.9654
462.4583, 514.6262
462.9404, 517.4066
463.4225, 520.0231
463.9046, 522.4032
464.3867, 524.5538
464.8688, 526.4249
465.3510, 527.0422
465.8331, 528.4890
466.3152, 531.7050
466.7973, 536.1848
467.2794, 540.0795
467.7615, 542.7158
468.2437, 545.3558
468.7258, 548.4747
469.2079, 552.1752
469.6900, 555.6732
470.1721, 558.7870
470.6542, 561.8608
471.1364, 565.3625
471.6185, 569.5143
472.1006, 573.1996
472.5827, 576.1872
473.0648, 578.6057
473.5469, 580.7735
474.0291, 582.6765
474.5112, 584.5186
474.9933, 586.7081
475.4754, 589.0001
475.9575, 590.2569
476.4396, 590.3906
476.9218, 589.8774
477.4039, 589.0980
477.8860, 588.0627
478.3681, 586.8158
478.8503, 585.4710
479.3324, 583.7882
479.8145, 581.5411
480.2966, 578.7266
480.7787, 575.4782
481.2608, 571.9641
481.7430, 567.9037
482.2251, 562.8601
482.7072, 556.5606
483.1893, 550.6133
483.6714, 545.7152
484.1535, 541.3766
484.6357, 537.0991
485.1178, 532.7970
485.5999, 528.5277
486.0820, 524.1006
486.5641, 519.7007
487.0462, 515.9307
487.5284, 513.2773
488.0105, 510.6064
488.4926, 507.3050
488.9747, 503.1810
489.4568, 499.8657
489.9389, 497.4807
490.4211, 495.7357
490.9032, 494.5508
491.3853, 493.9708
491.8674, 493.0132
492.3495, 491.3379
492.8316, 489.3431
493.3138, 487.9171
493.7959, 487.0143
494.2780, 486.2336
494.7601, 485.5005
495.2422, 484.6887
495.7243, 483.4305
496.2065, 481.6689
496.6886, 480.0946
497.1707, 479.3471
497.6528, 479.0677
498.1349, 478.7632
498.6170, 478.2576
499.0992, 477.7414
499.5813, 477.2848
500.0634, 476.8917
500.5455, 476.5671
501.0276, 476.2458
501.5097, 476.0539
501.9919, 476.1413
502.4740, 476.5989
502.9561, 476.7436
503.4382, 476.2425
503.9203, 475.6170
504.4025, 475.2194
504.8846, 475.1595
505.3667, 475.1205
505.8488, 475.1093
506.3309, 475.0982
506.8130, 474.9655
507.2952, 474.6339
507.7773, 474.5529
508.2594, 475.0675
508.7415, 476.0003
509.2236, 476.3613
509.7057, 476.1386
510.1879, 475.5207
510.6700, 474.3354
511.1521, 472.8609
511.6342, 471.9512
512.1163, 471.8239
512.5984, 472.0055
513.0806, 472.2409
513.5627, 472.4085
514.0448, 472.2538
514.5269, 471.5804
515.0090, 470.6119
515.4911, 469.2902
515.9733, 467.6976
516.4554, 466.4102
516.9375, 465.9515
517.4196, 465.6227
517.9017, 464.9785
518.3839, 463.7644
518.8660, 462.7212
519.3481, 462.2267
519.8302, 461.8036
520.3123, 460.9266
520.7944, 459.2345
521.2766, 457.7540
521.7587, 456.6995
522.2408, 455.9754
522.7229, 455.0841
523.2050, 453.9048
523.6871, 453.0357
524.1693, 452.9362
524.6514, 453.5396
525.1335, 453.9828
525.6156, 454.2886
526.0977, 454.3022
526.5798, 453.6931
527.0620, 452.6470
527.5441, 451.7110
528.0262, 450.9904
528.5083, 450.4607
528.9904, 450.1535
529.4725, 450.0203
529.9547, 449.9543
530.4368, 449.8806
530.9189, 449.8635
531.4010, 449.9438
531.8831, 450.1196
532.3652, 450.3537
532.8474, 450.9022
533.3295, 451.3204
533.8116, 451.3233
534.2937, 450.6866
534.7758, 449.9403
535.2579, 448.7980
535.7401, 447.7110
536.2222, 447.4107
536.7043, 448.2511
537.1865, 449.0698
537.6686, 449.6490
538.1507, 450.0266
538.6328, 450.2812
539.1149, 450.3880
539.5970, 450.5773
540.0792, 451.0883
540.5613, 451.8283
541.0434, 452.3361
541.5255, 452.5901
542.0076, 452.6389
542.4897, 452.2850
542.9719, 451.7845
543.4540, 451.6857
543.9361, 452.3075
544.4182, 453.0601
544.9003, 453.3732
545.3824, 453.4583
545.8646, 453.7917
546.3467, 455.0688
546.8288, 456.1789
547.3109, 456.5755
547.7930, 456.2193
548.2751, 455.6552
548.7573, 454.4435
549.2394, 453.4557
549.7215, 453.1940
550.2036, 454.0356
550.6857, 454.7864
551.1678, 455.5032
551.6500, 456.0842
552.1321, 456.3991
552.6142, 456.4595
553.0963, 456.1849
553.5784, 455.4094
554.0605, 454.4210
554.5427, 454.0179
555.0248, 454.1757
555.5069, 454.4365
555.9890, 454.0276
556.4711, 453.4876
556.9532, 454.9232
557.4354, 455.7674
557.9175, 456.0519
558.3996, 454.1004
558.8817, 455.0362
559.3638, 454.8149
559.8459, 454.5462
560.3281, 455.8884
560.8102, 454.2621
561.2923, 455.5787
561.7744, 455.7206
562.2565, 456.4001
562.7386, 455.9153
563.2208, 455.7902
563.7029, 455.1784
564.1850, 455.2108
564.6671, 454.6636
565.1492, 454.4270
565.6313, 453.4077
566.1135, 454.3913
566.5956, 455.0301
567.0777, 455.3430
567.5598, 454.3531
568.0419, 455.0453
568.5240, 455.0635
569.0062, 455.0541
569.4883, 455.9831
569.9704, 455.1827
570.4525, 456.0969
570.9346, 456.3266
571.4167, 456.8695
571.8989, 456.7343
572.3810, 457.1748
572.8631, 457.9491
573.3452, 459.7593
573.8273, 461.4664
574.3094, 462.5587
574.7916, 463.4895
575.2737, 464.4605
575.7558, 465.4242
576.2379, 466.6464
576.7200, 468.3159
577.2021, 470.0734
577.6843, 471.5585
578.1664, 472.5319
578.6485, 473.9802
579.1306, 476.2565
579.6127, 478.7883
580.0948, 480.3723
580.5770, 480.9999
581.0591, 481.6551
581.5412, 482.7039
582.0233, 484.0365
582.5054, 485.5319
582.9875, 487.1369
