##NAMES=Vesuvianite
##RRUFFID=R060532
##IDEAL CHEMISTRY=(Ca,Na)_19_(Al,Mg,Fe^3+^)_13_(SiO_4_)_10_(Si_2_O_7_)_4_(OH,F,O)_10_
##LOCALITY=Jeffrey mine, Asbestos, Quebec, Canada
##OWNER=RRUFF
##SOURCE=Michael Scott
##DESCRIPTION=Green prismatic single crystal
##STATUS=The identification of this mineral has been confirmed by single-crystal X-ray diffraction.
##URL=rruff.info/R060532
153.824, 16112.900
154.306, 16162.160
154.788, 16247.160
155.270, 16329.230
155.752, 16392.789
156.234, 16457.490
156.716, 16542.689
157.198, 16643.480
157.680, 16772.600
158.163, 16939.221
158.645, 17151.029
159.127, 17368.070
159.609, 17580.199
160.091, 17790.020
160.573, 18002.590
161.055, 18216.240
161.538, 18431.301
162.020, 18645.631
162.502, 18859.510
162.984, 19068.039
163.466, 19255.090
163.948, 19431.730
164.430, 19629.699
164.912, 19883.811
165.394, 20151.770
165.876, 20402.410
166.359, 20642.670
166.841, 20846.020
167.323, 20994.090
167.805, 21090.600
168.287, 21154.480
168.769, 21182.330
169.251, 21188.641
169.733, 21189.840
170.216, 21172.869
170.698, 21166.529
171.180, 21190.510
171.662, 21245.381
172.144, 21330.529
172.626, 21458.369
173.108, 21615.529
173.590, 21780.750
174.072, 21940.070
174.555, 22104.301
175.037, 22289.141
175.519, 22496.340
176.001, 22716.510
176.483, 22944.520
176.965, 23178.779
177.447, 23408.590
177.929, 23645.420
178.412, 23870.340
178.894, 24051.490
179.376, 24181.980
179.858, 24272.490
180.340, 24346.270
180.822, 24396.301
181.304, 24386.689
181.786, 24279.119
182.268, 24094.670
182.751, 23874.811
183.233, 23609.660
183.715, 23339.221
184.197, 23164.051
184.679, 23077.471
185.161, 22961.100
185.643, 22677.641
186.125, 22273.141
186.607, 21917.270
187.090, 21664.949
187.572, 21481.721
188.054, 21282.711
188.536, 21067.311
189.018, 20863.080
189.500, 20700.189
189.982, 20578.010
190.464, 20475.660
190.947, 20406.760
191.429, 20354.090
191.911, 20238.170
192.393, 20048.070
192.875, 19844.020
193.357, 19699.789
193.839, 19617.311
194.321, 19539.051
194.803, 19432.650
195.286, 19303.930
195.768, 19218.961
196.250, 19185.590
196.732, 19178.279
197.214, 19155.961
197.696, 19116.080
198.178, 19087.250
198.661, 19081.801
199.143, 19100.010
199.625, 19137.650
200.107, 19202.000
200.589, 19277.420
201.071, 19323.840
201.553, 19332.109
202.035, 19355.051
202.517, 19431.510
202.999, 19568.430
203.482, 19682.670
203.964, 19755.070
204.446, 19808.199
204.928, 19907.510
205.410, 20057.131
205.892, 20238.670
206.374, 20444.971
206.857, 20682.160
207.339, 20909.141
207.821, 21112.250
208.303, 21301.141
208.785, 21530.490
209.267, 21818.279
209.749, 22110.359
210.231, 22359.520
210.713, 22554.279
211.195, 22761.600
211.678, 23000.869
212.160, 23268.600
212.642, 23508.949
213.124, 23722.711
213.606, 23914.279
214.088, 24081.320
214.570, 24217.051
215.052, 24353.750
215.535, 24495.020
216.017, 24641.230
216.499, 24814.680
216.981, 25038.070
217.463, 25260.529
217.945, 25421.490
218.427, 25499.721
218.909, 25557.660
219.391, 25609.279
219.874, 25655.510
220.356, 25678.160
220.838, 25661.119
221.320, 25634.539
221.802, 25639.750
222.284, 25679.410
222.766, 25745.961
223.248, 25836.920
223.731, 25953.490
224.213, 26099.811
224.695, 26296.990
225.177, 26511.779
225.659, 26698.400
226.141, 26873.779
226.623, 26989.840
227.105, 27029.920
227.587, 26990.391
228.070, 26883.891
228.552, 26689.859
229.034, 26437.311
229.516, 26190.850
229.998, 25952.510
230.480, 25715.311
230.962, 25472.900
231.444, 25212.189
231.926, 24977.680
232.409, 24765.570
232.891, 24582.590
233.373, 24445.199
233.855, 24365.090
234.337, 24315.770
234.819, 24284.820
235.301, 24268.420
235.783, 24280.090
236.266, 24327.811
236.748, 24403.580
237.230, 24481.721
237.712, 24570.211
238.194, 24652.471
238.676, 24720.779
239.158, 24779.400
239.640, 24816.971
240.122, 24833.900
240.605, 24829.789
241.087, 24802.061
241.569, 24748.301
242.051, 24673.490
242.533, 24576.641
243.015, 24435.551
243.497, 24318.580
243.980, 24237.449
244.462, 24186.020
244.944, 24123.100
245.426, 24010.529
245.908, 23932.699
246.390, 23947.730
246.872, 24084.480
247.354, 24255.061
247.836, 24472.971
248.318, 24724.670
248.801, 24895.680
249.283, 24931.859
249.765, 24954.539
250.247, 25051.740
250.729, 25247.199
251.211, 25465.400
251.693, 25703.119
252.176, 25959.170
252.658, 26208.289
253.140, 26453.580
253.622, 26691.189
254.104, 26926.619
254.586, 27174.939
255.068, 27387.061
255.550, 27564.160
256.032, 27704.801
256.514, 27765.740
256.997, 27738.930
257.479, 27643.580
257.961, 27489.359
258.443, 27258.600
258.925, 27004.430
259.407, 26718.420
259.889, 26406.391
260.371, 26128.230
260.854, 25893.551
261.336, 25676.570
261.818, 25447.010
262.300, 25191.600
262.782, 24963.240
263.264, 24779.461
263.746, 24635.230
264.228, 24477.141
264.711, 24299.109
265.193, 24114.180
265.675, 23926.199
266.157, 23728.119
266.639, 23554.449
267.121, 23415.359
267.603, 23309.830
268.085, 23229.160
268.567, 23179.770
269.050, 23145.801
269.532, 23108.760
270.014, 23061.801
270.496, 23042.189
270.978, 23059.330
271.460, 23111.760
271.942, 23193.199
272.424, 23313.961
272.906, 23441.039
273.389, 23539.020
273.871, 23600.080
274.353, 23673.189
274.835, 23769.189
275.317, 23885.980
275.799, 24013.439
276.281, 24154.369
276.763, 24295.971
277.246, 24430.240
277.728, 24558.119
278.210, 24661.070
278.692, 24723.381
279.174, 24754.340
279.656, 24815.580
280.138, 24912.850
280.620, 25017.730
281.103, 25088.230
281.585, 25121.221
282.067, 25201.520
282.549, 25362.590
283.031, 25583.891
283.513, 25785.381
283.995, 25962.840
284.477, 26143.000
284.959, 26367.311
285.441, 26632.570
285.924, 26857.840
286.406, 27013.971
286.888, 27120.500
287.370, 27234.680
287.852, 27357.551
288.334, 27485.240
288.816, 27620.330
289.298, 27759.689
289.781, 27886.529
290.263, 27992.100
290.745, 28085.510
291.227, 28197.330
291.709, 28329.561
292.191, 28440.211
292.673, 28490.029
293.155, 28487.240
293.638, 28465.500
294.120, 28428.520
294.602, 28381.529
295.084, 28341.881
295.566, 28309.070
296.048, 28256.551
296.530, 28161.221
297.012, 28029.510
297.494, 27878.051
297.977, 27700.109
298.459, 27516.301
298.941, 27358.609
299.423, 27224.189
299.905, 27096.539
300.387, 26956.779
300.869, 26815.100
301.351, 26686.641
301.833, 26570.631
302.316, 26473.270
302.798, 26413.180
303.280, 26382.820
303.762, 26345.340
304.244, 26259.770
304.726, 26154.721
305.208, 26075.381
305.690, 26042.590
306.172, 26015.990
306.655, 25950.131
307.137, 25855.680
307.619, 25773.170
308.101, 25737.590
308.583, 25721.850
309.065, 25698.180
309.547, 25658.891
310.030, 25617.420
310.512, 25584.039
310.994, 25557.090
311.476, 25530.891
311.958, 25537.189
312.440, 25523.750
312.922, 25435.740
313.404, 25229.609
313.886, 25038.971
314.369, 24942.900
314.851, 24912.779
315.333, 24891.760
315.815, 24872.881
316.297, 24843.680
316.779, 24791.381
317.261, 24703.789
317.743, 24627.500
318.225, 24578.539
318.708, 24553.029
319.190, 24544.820
319.672, 24547.340
320.154, 24570.859
320.636, 24624.170
321.118, 24715.051
321.600, 24808.990
322.082, 24906.061
322.565, 25000.010
323.047, 25081.090
323.529, 25119.410
324.011, 25170.680
324.493, 25255.080
324.975, 25380.391
325.457, 25502.400
325.939, 25613.051
326.422, 25719.359
326.904, 25829.400
327.386, 25949.141
327.868, 26064.980
328.350, 26179.051
328.832, 26293.150
329.314, 26384.770
329.796, 26431.230
330.278, 26469.859
330.760, 26536.221
331.243, 26674.141
331.725, 26773.131
332.207, 26804.980
332.689, 26771.949
333.171, 26758.660
333.653, 26777.641
334.135, 26802.461
334.617, 26813.721
335.100, 26810.770
335.582, 26795.430
336.064, 26760.199
336.546, 26712.350
337.028, 26695.449
337.510, 26724.061
337.992, 26752.949
338.474, 26744.961
338.957, 26688.000
339.439, 26653.770
339.921, 26651.619
340.403, 26673.260
340.885, 26680.471
341.367, 26657.830
341.849, 26694.881
342.331, 26720.008
342.813, 26879.660
343.296, 27006.680
343.778, 27102.783
344.260, 27075.436
344.742, 27207.498
345.224, 27275.674
345.706, 27341.229
346.188, 27460.570
346.670, 27552.061
347.152, 27692.520
347.635, 27881.480
348.117, 28104.010
348.599, 28358.770
349.081, 28638.641
349.563, 28897.869
350.045, 29079.529
350.527, 29234.250
351.009, 29460.789
351.491, 29763.590
351.974, 30095.100
352.456, 30420.910
352.938, 30743.301
353.420, 31071.359
353.902, 31397.020
354.384, 31736.660
354.866, 32112.779
355.349, 32520.650
355.831, 32932.000
356.313, 33338.629
356.795, 33734.180
357.277, 34108.660
357.759, 34456.371
358.241, 34792.699
358.723, 35150.129
359.205, 35514.090
359.688, 35824.230
360.170, 36028.512
360.652, 36178.879
361.134, 36320.000
361.616, 36497.801
362.098, 36611.000
362.580, 36585.930
363.062, 36462.859
363.544, 36351.422
364.027, 36343.922
364.509, 36308.730
364.991, 36171.512
365.473, 35868.051
365.955, 35580.230
366.437, 35355.461
366.919, 35158.648
367.401, 34931.840
367.884, 34659.941
368.366, 34366.359
368.848, 34045.109
369.330, 33680.930
369.812, 33364.039
370.294, 33131.441
370.776, 32924.480
371.258, 32678.301
371.741, 32345.961
372.223, 32046.189
372.705, 31812.070
373.187, 31645.650
373.669, 31456.141
374.151, 31226.449
374.633, 30995.561
375.115, 30795.891
375.597, 30637.400
376.079, 30475.189
376.562, 30300.199
377.044, 30114.570
377.526, 29933.420
378.008, 29756.301
378.490, 29579.330
378.972, 29388.660
379.454, 29188.350
379.936, 29017.949
380.419, 28887.359
380.901, 28783.070
381.383, 28690.430
381.865, 28608.609
382.347, 28521.490
382.829, 28395.301
383.311, 28255.240
383.793, 28192.381
384.276, 28222.279
384.758, 28272.930
385.240, 28254.400
385.722, 28186.561
386.204, 28129.260
386.686, 28111.980
387.168, 28118.381
387.650, 28129.500
388.132, 28144.270
388.615, 28162.461
389.097, 28190.471
389.579, 28219.131
390.061, 28235.539
390.543, 28218.260
391.025, 28203.211
391.507, 28211.539
391.989, 28241.990
392.471, 28287.539
392.954, 28360.971
393.436, 28440.609
393.918, 28509.400
394.400, 28553.230
394.882, 28607.160
395.364, 28684.930
395.846, 28780.920
396.328, 28883.051
396.810, 28992.830
397.293, 29104.461
397.775, 29220.180
398.257, 29351.660
398.739, 29453.740
399.221, 29486.051
399.703, 29499.350
400.185, 29554.539
400.668, 29681.430
401.150, 29809.689
401.632, 29923.381
402.114, 30021.461
402.596, 30129.461
403.078, 30251.570
403.560, 30379.150
404.042, 30507.330
404.524, 30635.141
405.007, 30761.461
405.489, 30876.570
405.971, 30993.580
406.453, 31166.619
406.935, 31406.561
407.417, 31661.100
407.899, 31890.900
408.381, 32099.039
408.863, 32340.730
409.346, 32629.721
409.828, 32932.391
410.310, 33208.602
410.792, 33459.078
411.274, 33681.230
411.756, 33870.520
412.238, 34031.891
412.720, 34172.859
413.203, 34292.148
413.685, 34395.090
414.167, 34507.270
414.649, 34604.738
415.131, 34639.461
415.613, 34576.191
416.095, 34459.551
416.577, 34324.609
417.060, 34170.828
417.542, 33988.961
418.024, 33765.680
418.506, 33515.320
418.988, 33255.680
419.470, 32981.020
419.952, 32706.260
420.434, 32439.260
420.916, 32175.949
421.398, 31900.619
421.881, 31571.990
422.363, 31265.250
422.845, 31017.770
423.327, 30843.730
423.809, 30688.340
424.291, 30571.580
424.773, 30460.641
425.255, 30320.779
425.738, 30125.760
426.220, 29937.359
426.702, 29766.600
427.184, 29614.641
427.666, 29465.311
428.148, 29321.391
428.630, 29177.061
429.112, 29030.619
429.595, 28883.061
430.077, 28719.721
430.559, 28531.000
431.041, 28332.920
431.523, 28157.850
432.005, 28009.430
432.487, 27862.400
432.969, 27682.230
433.451, 27481.180
433.934, 27381.670
434.416, 27405.010
434.898, 27434.539
435.380, 27301.840
435.862, 27047.830
436.344, 26838.430
436.826, 26752.320
437.308, 26730.410
437.790, 26693.641
438.273, 26642.811
438.755, 26586.711
439.237, 26512.961
439.719, 26443.770
440.201, 26410.920
440.683, 26438.740
441.165, 26467.529
441.647, 26449.039
442.129, 26402.270
442.612, 26370.480
443.094, 26387.529
443.576, 26410.051
444.058, 26415.311
444.540, 26397.971
445.022, 26381.301
445.504, 26362.010
445.987, 26349.801
446.469, 26354.150
446.951, 26357.461
447.433, 26340.951
447.915, 26350.291
448.397, 26353.355
448.879, 26350.482
449.361, 26323.887
449.843, 26327.924
450.326, 26319.684
450.808, 26310.941
451.290, 26312.529
451.772, 26314.199
452.254, 26341.119
452.736, 26365.199
453.218, 26385.240
453.700, 26409.840
454.182, 26450.070
454.665, 26499.580
455.147, 26506.730
455.629, 26466.340
456.111, 26429.910
456.593, 26459.400
457.075, 26537.580
457.557, 26600.949
458.039, 26626.721
458.522, 26643.240
459.004, 26682.900
459.486, 26745.109
459.968, 26826.420
460.450, 26953.270
460.932, 27083.750
461.414, 27174.971
461.896, 27215.961
462.379, 27245.301
462.861, 27259.660
463.343, 27282.330
463.825, 27344.350
464.307, 27477.471
464.789, 27629.590
465.271, 27797.039
465.753, 27976.539
466.235, 28133.270
466.717, 28218.740
467.200, 28308.930
467.682, 28446.131
468.164, 28677.900
468.646, 28881.449
469.128, 29045.609
469.610, 29186.529
470.092, 29339.520
470.574, 29512.170
471.057, 29679.131
471.539, 29829.270
472.021, 29961.980
472.503, 30111.910
472.985, 30284.330
473.467, 30453.609
473.949, 30588.061
474.431, 30690.500
474.914, 30805.051
475.396, 30950.150
475.878, 31099.930
476.360, 31199.250
476.842, 31255.439
477.324, 31314.391
477.806, 31416.689
478.288, 31535.561
478.770, 31636.289
479.253, 31717.051
479.735, 31778.520
480.217, 31841.070
480.699, 31880.400
481.181, 31861.760
481.663, 31723.590
482.145, 31569.119
482.627, 31454.789
483.109, 31369.730
483.592, 31257.711
484.074, 31072.980
484.556, 30876.221
485.038, 30695.811
485.520, 30529.250
486.002, 30384.461
486.484, 30247.029
486.966, 30137.279
487.448, 30002.139
487.931, 29914.645
488.413, 29815.600
488.895, 29705.613
489.377, 29551.873
489.859, 29454.629
490.341, 29334.746
490.823, 29213.908
491.306, 29124.607
491.788, 28977.236
492.270, 28884.350
492.752, 28773.961
493.234, 28681.461
493.716, 28610.619
494.198, 28557.580
494.680, 28505.211
495.162, 28437.359
495.645, 28366.869
496.127, 28311.641
496.609, 28271.641
497.091, 28239.430
497.573, 28229.369
498.055, 28216.039
498.537, 28165.650
499.019, 28038.520
499.501, 27926.910
499.984, 27886.980
500.466, 27894.539
500.948, 27896.961
501.430, 27868.439
501.912, 27842.971
502.394, 27837.561
502.876, 27858.449
503.358, 27867.109
503.841, 27844.199
504.323, 27823.631
504.805, 27835.920
505.287, 27907.930
505.769, 27948.131
506.251, 27934.461
506.733, 27889.740
507.215, 27870.590
507.698, 27876.990
508.180, 27908.020
508.662, 27978.510
509.144, 28079.811
509.626, 28143.510
510.108, 28167.359
510.590, 28177.301
511.072, 28200.150
511.554, 28230.811
512.036, 28256.289
512.519, 28277.840
513.001, 28286.680
513.483, 28268.910
513.965, 28230.189
514.447, 28186.770
514.929, 28123.660
515.411, 28075.730
515.893, 28088.150
516.375, 28177.961
516.858, 28211.689
517.340, 28075.711
517.822, 27896.260
518.304, 27787.760
518.786, 27870.221
519.268, 27898.039
519.750, 27814.949
520.232, 27659.930
520.715, 27560.320
521.197, 27534.730
521.679, 27534.340
522.161, 27553.670
522.643, 27597.949
523.125, 27575.961
523.607, 27469.910
524.089, 27346.699
524.571, 27278.830
525.054, 27262.789
525.536, 27259.439
526.018, 27266.590
526.500, 27272.830
526.982, 27255.211
527.464, 27217.721
527.946, 27181.029
528.429, 27157.830
528.911, 27140.320
529.393, 27120.689
529.875, 27098.330
530.357, 27073.270
530.839, 27043.180
531.321, 27011.230
531.803, 26979.850
532.286, 26938.160
532.768, 26911.391
533.250, 26921.480
533.732, 26952.260
534.214, 26958.490
534.696, 26903.039
535.178, 26861.080
535.660, 26860.100
536.142, 26905.439
536.625, 26931.840
537.107, 26929.170
537.589, 26924.920
538.071, 26945.449
538.553, 26993.260
539.035, 27036.221
539.517, 27068.080
539.999, 27096.330
540.481, 27135.631
540.964, 27184.670
541.446, 27234.900
541.928, 27279.461
542.410, 27322.910
542.892, 27372.170
543.374, 27426.600
543.856, 27485.689
544.338, 27539.240
544.820, 27600.891
545.303, 27689.641
545.785, 27829.189
546.267, 27951.311
546.749, 28021.770
547.231, 28057.240
547.713, 28085.141
548.195, 28126.090
548.677, 28144.039
549.159, 28113.170
549.642, 28039.369
550.124, 28013.641
550.606, 28066.631
551.088, 28123.400
551.570, 28140.971
552.052, 28114.461
552.534, 28072.369
553.016, 28009.680
553.499, 27943.490
553.981, 27893.061
554.463, 27858.391
554.945, 27845.381
555.427, 27866.420
555.909, 27899.770
556.391, 27903.010
556.873, 27881.869
557.356, 27868.789
557.838, 27898.070
558.320, 27937.570
558.802, 27950.420
559.284, 27929.100
559.766, 27915.760
560.248, 27933.529
560.730, 27968.580
561.213, 28006.141
561.695, 28047.990
562.177, 28087.051
562.659, 28119.029
563.141, 28147.080
563.623, 28178.869
564.105, 28204.721
564.587, 28250.180
565.069, 28332.850
565.552, 28453.240
566.034, 28531.131
566.516, 28556.119
566.998, 28574.881
567.480, 28639.869
567.962, 28742.391
568.444, 28805.520
568.926, 28808.699
569.408, 28799.830
569.891, 28849.471
570.373, 28937.961
570.855, 29014.270
571.337, 29053.381
571.819, 29071.980
572.301, 29076.750
572.783, 29069.830
573.265, 29063.561
573.747, 29036.160
574.230, 29030.830
574.712, 29081.150
575.194, 29222.289
575.676, 29333.410
576.158, 29382.020
576.640, 29411.240
577.122, 29463.641
577.604, 29548.660
578.086, 29639.221
578.569, 29734.770
579.051, 29832.680
579.533, 29919.461
580.015, 29993.980
580.497, 30072.461
580.979, 30167.510
581.461, 30273.279
581.943, 30366.131
582.426, 30445.570
582.908, 30527.910
583.390, 30619.350
583.872, 30723.900
584.354, 30848.689
584.836, 31001.711
585.318, 31157.410
585.800, 31299.650
586.282, 31434.711
586.765, 31570.131
587.247, 31728.439
587.729, 31865.789
588.211, 31961.260
588.693, 32018.051
589.175, 32081.010
589.657, 32151.840
590.140, 32227.100
590.622, 32311.100
591.104, 32409.900
591.586, 32471.340
592.068, 32486.000
592.550, 32488.711
593.032, 32524.689
593.514, 32587.439
593.996, 32627.760
594.479, 32636.480
594.961, 32618.369
595.443, 32557.830
595.925, 32472.170
596.407, 32414.170
596.889, 32456.730
597.371, 32499.980
597.853, 32461.500
598.335, 32346.830
598.818, 32229.711
599.300, 32120.680
599.782, 32031.500
600.264, 31976.830
600.746, 31989.830
601.228, 31958.250
601.710, 31848.570
602.192, 31719.420
602.674, 31632.350
603.157, 31595.760
603.639, 31573.840
604.121, 31567.350
604.603, 31565.580
605.085, 31526.221
605.567, 31451.430
606.049, 31418.279
606.531, 31514.920
607.013, 31661.391
607.496, 31686.779
607.978, 31598.930
608.460, 31520.980
608.942, 31544.730
609.424, 31615.240
609.906, 31682.109
610.388, 31736.510
610.870, 31789.340
611.353, 31850.900
611.835, 31910.250
612.317, 31956.189
612.799, 31971.160
613.281, 31993.000
613.763, 32018.990
614.245, 32056.199
614.727, 32114.539
615.209, 32177.789
615.692, 32326.500
616.174, 32359.191
616.656, 32477.785
617.138, 32575.533
617.620, 32653.547
618.102, 32652.715
618.584, 32753.711
619.067, 32813.891
619.549, 32894.262
620.031, 32936.020
620.513, 33035.680
620.995, 33144.352
621.477, 33251.852
621.959, 33345.820
622.441, 33389.680
622.923, 33454.988
623.406, 33569.719
623.888, 33719.340
624.370, 33860.199
624.852, 33972.680
625.334, 34102.219
625.816, 34259.250
626.298, 34443.699
626.780, 34663.988
627.263, 34930.340
627.745, 35194.449
628.227, 35410.629
628.709, 35593.969
629.191, 35816.539
629.673, 36083.609
630.155, 36388.539
630.637, 36737.031
631.119, 37115.480
631.602, 37507.031
632.084, 37905.750
632.566, 38320.219
633.048, 38757.441
633.530, 39211.219
634.012, 39666.039
634.494, 40053.781
634.976, 40516.211
635.458, 41117.410
635.941, 41839.570
636.423, 42505.059
636.905, 43099.512
637.387, 43666.129
637.869, 44226.352
638.351, 44781.820
638.833, 45343.422
639.315, 45911.180
639.797, 46469.469
640.280, 47013.078
640.762, 47528.801
641.244, 47983.051
641.726, 48371.789
642.208, 48678.559
642.690, 48873.328
643.172, 48974.109
643.654, 49004.820
644.137, 48936.828
644.619, 48840.602
645.101, 48759.570
645.583, 48676.879
646.065, 48516.738
646.547, 48270.199
647.029, 47954.891
647.511, 47561.230
647.994, 47090.500
648.476, 46596.430
648.958, 46069.191
649.440, 45533.129
649.922, 45011.969
650.404, 44492.891
650.886, 43911.750
