##NAMES=Veszelyite
##RRUFFID=R070312
##IDEAL CHEMISTRY=Cu^2+^_3_PO_4_(OH)_3_&#183;2H_2_O
##LOCALITY=Black Pine mine, Flint Creek Valley, near Philipsburg, Granite County, Montana, USA
##OWNER=RRUFF
##SOURCE=James Shigley
##DESCRIPTION=Blue prismatic crystals associated with pyromorphite and quartz
##STATUS=The identification of this mineral is confirmed by single-crystal X-ray diffraction and chemical analysis.
##URL=rruff.info/R070312
##MEASURED CHEMISTRY=(Cu^2+^_1.79_Zn_1.21_)_Σ=3_(P_1.00_O_4_)(OH)_3_·2H_2_O; H_2_O estimated by difference; OH by charge balance
126.0381, 2140.261
126.5202, 2379.978
127.0023, 2625.182
127.4844, 2862.171
127.9666, 3075.915
128.4487, 3266.250
128.9308, 3421.127
129.4129, 3525.197
129.8950, 3582.280
130.3772, 3605.978
130.8593, 3593.185
131.3414, 3550.907
131.8235, 3499.367
132.3056, 3436.963
132.7877, 3374.408
133.2699, 3322.550
133.7520, 3281.142
134.2341, 3253.335
134.7162, 3243.177
135.1983, 3250.594
135.6804, 3259.886
136.1626, 3269.106
136.6447, 3282.685
137.1268, 3310.264
137.6089, 3353.719
138.0910, 3403.947
138.5731, 3456.726
139.0553, 3513.805
139.5374, 3567.611
140.0195, 3615.549
140.5016, 3660.142
140.9837, 3709.939
141.4658, 3768.650
141.9480, 3827.495
142.4301, 3877.838
142.9122, 3908.743
143.3943, 3954.813
143.8764, 4026.614
144.3585, 4122.790
144.8407, 4206.538
145.3228, 4265.932
145.8049, 4321.412
146.2870, 4391.747
146.7691, 4485.352
147.2512, 4581.326
147.7334, 4670.127
148.2155, 4745.008
148.6976, 4847.369
149.1797, 4989.751
149.6618, 5156.490
150.1439, 5325.343
150.6261, 5498.655
151.1082, 5670.034
151.5903, 5840.419
152.0724, 6022.601
152.5545, 6173.973
153.0366, 6277.761
153.5188, 6348.279
154.0009, 6413.388
154.4830, 6512.893
154.9651, 6581.803
155.4472, 6589.682
155.9293, 6495.414
156.4115, 6395.307
156.8936, 6300.844
157.3757, 6213.188
157.8578, 6134.733
158.3399, 6084.825
158.8221, 6033.751
159.3042, 5961.564
159.7863, 5839.543
160.2684, 5719.237
160.7505, 5614.052
161.2326, 5523.092
161.7148, 5447.228
162.1969, 5394.839
162.6790, 5354.277
163.1611, 5314.895
163.6432, 5266.495
164.1253, 5223.182
164.6075, 5192.508
165.0896, 5174.749
165.5717, 5164.936
166.0538, 5153.925
166.5359, 5150.326
167.0180, 5166.141
167.5002, 5217.279
167.9823, 5282.866
168.4644, 5348.317
168.9465, 5412.475
169.4286, 5477.146
169.9107, 5543.724
170.3929, 5611.496
170.8750, 5680.731
171.3571, 5755.896
171.8392, 5829.900
172.3213, 5895.686
172.8034, 5952.085
173.2856, 5998.951
173.7677, 6040.322
174.2498, 6073.263
174.7319, 6087.221
175.2140, 6072.941
175.6961, 6036.591
176.1783, 5981.119
176.6604, 5894.229
177.1425, 5812.655
177.6246, 5786.577
178.1067, 5810.794
178.5888, 5850.059
179.0710, 5871.649
179.5531, 5889.112
180.0352, 5933.012
180.5173, 6013.111
180.9994, 6120.179
181.4815, 6240.981
181.9637, 6376.394
182.4458, 6520.120
182.9279, 6673.362
183.4100, 6833.056
183.8921, 6990.610
184.3742, 7145.766
184.8564, 7296.620
185.3385, 7434.983
185.8206, 7562.021
186.3027, 7676.838
186.7848, 7782.014
187.2669, 7876.406
187.7491, 7955.697
188.2312, 8021.702
188.7133, 8071.436
189.1954, 8094.568
189.6775, 8090.397
190.1596, 8061.577
190.6418, 8009.413
191.1239, 7934.090
191.6060, 7839.024
192.0881, 7715.781
192.5702, 7568.668
193.0524, 7438.455
193.5345, 7330.087
194.0166, 7226.620
194.4987, 7098.706
194.9808, 6944.158
195.4629, 6797.611
195.9451, 6687.006
196.4272, 6609.808
196.9093, 6503.046
197.3914, 6357.033
197.8735, 6193.561
198.3556, 6054.434
198.8378, 5943.134
199.3199, 5836.868
199.8020, 5723.194
200.2841, 5602.206
200.7662, 5487.643
201.2483, 5381.231
201.7305, 5280.852
202.2126, 5179.498
202.6947, 5074.741
203.1768, 4978.078
203.6589, 4899.223
204.1410, 4841.887
204.6232, 4780.326
205.1053, 4709.662
205.5874, 4634.495
206.0695, 4572.541
206.5516, 4528.995
207.0337, 4485.027
207.5159, 4423.569
207.9980, 4339.448
208.4801, 4268.327
208.9622, 4216.950
209.4443, 4181.900
209.9264, 4146.775
210.4086, 4111.167
210.8907, 4076.154
211.3728, 4042.804
211.8549, 4010.689
212.3370, 3980.790
212.8191, 3953.261
213.3013, 3928.132
213.7834, 3903.319
214.2655, 3878.021
214.7476, 3854.240
215.2297, 3833.010
215.7118, 3812.129
216.1940, 3800.015
216.6761, 3801.653
217.1582, 3816.058
217.6403, 3820.168
218.1224, 3809.836
218.6045, 3794.712
219.0867, 3783.196
219.5688, 3774.678
220.0509, 3771.756
220.5330, 3776.971
221.0151, 3790.660
221.4972, 3799.048
221.9794, 3799.880
222.4615, 3798.016
222.9436, 3796.801
223.4257, 3790.249
223.9078, 3797.485
224.3899, 3826.805
224.8721, 3881.052
225.3542, 3924.512
225.8363, 3953.114
226.3184, 3975.162
226.8005, 4000.021
227.2827, 4025.341
227.7648, 4057.760
228.2469, 4099.228
228.7290, 4149.981
229.2111, 4205.815
229.6932, 4263.474
230.1754, 4328.155
230.6575, 4408.626
231.1396, 4510.410
231.6217, 4617.339
232.1038, 4724.303
232.5859, 4829.585
233.0681, 4944.440
233.5502, 5071.021
234.0323, 5205.057
234.5144, 5344.235
234.9965, 5496.329
235.4786, 5638.998
235.9608, 5768.489
236.4429, 5885.957
236.9250, 5977.641
237.4071, 6038.505
237.8892, 6075.917
238.3713, 6099.962
238.8535, 6105.015
239.3356, 6106.273
239.8177, 6111.002
240.2998, 6125.303
240.7819, 6118.966
241.2640, 6087.290
241.7462, 6037.628
242.2283, 5981.710
242.7104, 5917.736
243.1925, 5850.497
243.6746, 5782.218
244.1567, 5714.546
244.6389, 5638.960
245.1210, 5554.974
245.6031, 5463.640
246.0852, 5366.924
246.5673, 5263.112
247.0494, 5156.687
247.5316, 5046.664
248.0137, 4927.127
248.4958, 4824.371
248.9779, 4744.347
249.4600, 4678.316
249.9421, 4611.208
250.4243, 4537.342
250.9064, 4471.692
251.3885, 4420.097
251.8706, 4384.685
252.3527, 4355.485
252.8348, 4330.461
253.3170, 4312.873
253.7991, 4309.917
254.2812, 4325.042
254.7633, 4348.260
255.2454, 4377.704
255.7275, 4415.938
256.2097, 4449.179
256.6918, 4473.431
257.1739, 4495.055
257.6560, 4526.895
258.1381, 4573.033
258.6202, 4621.211
259.1024, 4668.274
259.5845, 4714.671
260.0666, 4757.296
260.5487, 4800.122
261.0308, 4836.014
261.5129, 4853.575
261.9951, 4851.495
262.4772, 4833.685
262.9593, 4798.432
263.4414, 4740.568
263.9235, 4688.357
264.4056, 4641.883
264.8878, 4600.401
265.3699, 4561.258
265.8520, 4523.400
266.3341, 4489.871
266.8162, 4460.027
267.2983, 4432.793
267.7805, 4419.428
268.2626, 4424.874
268.7447, 4438.862
269.2268, 4442.729
269.7089, 4433.247
270.1910, 4425.274
270.6732, 4426.479
271.1553, 4438.572
271.6374, 4442.625
272.1195, 4437.429
272.6016, 4425.950
273.0837, 4410.671
273.5659, 4389.521
274.0480, 4374.771
274.5301, 4373.888
275.0122, 4387.576
275.4943, 4395.805
275.9764, 4399.174
276.4586, 4395.958
276.9407, 4379.644
277.4228, 4348.345
277.9049, 4322.228
278.3870, 4314.288
278.8691, 4323.121
279.3513, 4313.715
279.8334, 4281.790
280.3155, 4242.633
280.7976, 4220.569
281.2798, 4216.927
281.7619, 4203.716
282.2440, 4165.868
282.7261, 4107.258
283.2082, 4057.052
283.6903, 4015.851
284.1725, 3980.845
284.6546, 3952.595
285.1367, 3930.829
285.6188, 3901.418
286.1009, 3853.590
286.5830, 3793.543
287.0652, 3751.215
287.5473, 3729.608
288.0294, 3710.094
288.5115, 3667.637
288.9936, 3605.382
289.4757, 3551.324
289.9579, 3518.002
290.4400, 3498.530
290.9221, 3473.622
291.4042, 3443.080
291.8863, 3409.576
292.3684, 3373.613
292.8506, 3336.321
293.3327, 3302.055
293.8148, 3272.212
294.2969, 3245.986
294.7790, 3219.884
295.2611, 3193.814
295.7433, 3172.962
296.2254, 3164.805
296.7075, 3165.531
297.1896, 3164.733
297.6717, 3159.091
298.1538, 3150.599
298.6360, 3142.613
299.1181, 3134.891
299.6002, 3125.475
300.0823, 3106.220
300.5644, 3084.839
301.0465, 3076.986
301.5287, 3093.517
302.0108, 3116.710
302.4929, 3126.806
302.9750, 3125.434
303.4571, 3121.375
303.9392, 3118.374
304.4214, 3116.927
304.9035, 3118.795
305.3856, 3128.606
305.8677, 3134.949
306.3498, 3123.382
306.8319, 3098.556
307.3141, 3076.602
307.7962, 3065.358
308.2783, 3062.643
308.7604, 3067.534
309.2425, 3082.934
309.7246, 3098.973
310.2068, 3110.334
310.6889, 3117.561
311.1710, 3122.249
311.6531, 3124.491
312.1352, 3124.913
312.6173, 3123.157
313.0995, 3117.731
313.5816, 3114.431
314.0637, 3117.034
314.5458, 3123.587
315.0279, 3130.407
315.5100, 3133.829
315.9922, 3138.847
316.4743, 3148.646
316.9564, 3164.584
317.4385, 3181.187
317.9206, 3197.836
318.4027, 3213.802
318.8849, 3228.061
319.3670, 3239.099
319.8491, 3249.476
320.3312, 3258.254
320.8133, 3263.970
321.2954, 3277.146
321.7776, 3310.829
322.2597, 3348.833
322.7418, 3373.905
323.2239, 3369.561
323.7060, 3366.043
324.1881, 3371.288
324.6703, 3386.376
325.1524, 3399.571
325.6345, 3405.819
326.1166, 3411.989
326.5987, 3423.704
327.0808, 3446.844
327.5630, 3468.625
328.0451, 3487.325
328.5272, 3503.072
329.0093, 3519.212
329.4914, 3541.582
329.9735, 3558.740
330.4557, 3561.830
330.9378, 3537.512
331.4199, 3522.323
331.9020, 3519.979
332.3841, 3529.021
332.8662, 3543.957
333.3484, 3571.113
333.8305, 3594.345
334.3126, 3603.917
334.7947, 3595.154
335.2768, 3586.599
335.7589, 3578.430
336.2411, 3571.385
336.7232, 3568.112
337.2053, 3570.531
337.6874, 3571.163
338.1695, 3563.828
338.6516, 3546.526
339.1338, 3541.190
339.6159, 3552.437
340.0980, 3569.058
340.5801, 3570.019
341.0622, 3553.479
341.5443, 3538.197
342.0265, 3530.729
342.5086, 3530.883
342.9907, 3539.483
343.4728, 3559.053
343.9549, 3576.870
344.4370, 3571.720
344.9192, 3546.467
345.4013, 3528.528
345.8834, 3531.733
346.3655, 3548.161
346.8476, 3554.195
347.3297, 3549.279
347.8119, 3548.774
348.2940, 3570.090
348.7761, 3607.911
349.2582, 3646.092
349.7403, 3682.302
350.2225, 3715.411
350.7046, 3740.020
351.1867, 3757.905
351.6688, 3781.073
352.1509, 3818.844
352.6331, 3867.299
353.1152, 3921.686
353.5973, 3983.956
354.0794, 4046.238
354.5615, 4099.084
355.0436, 4145.644
355.5258, 4195.496
356.0079, 4256.672
356.4900, 4321.913
356.9721, 4385.146
357.4542, 4445.308
357.9363, 4503.922
358.4185, 4558.333
358.9006, 4612.144
359.3827, 4671.589
359.8648, 4745.714
360.3469, 4820.859
360.8290, 4890.091
361.3112, 4952.645
361.7933, 5012.145
362.2754, 5069.606
362.7575, 5125.188
363.2396, 5179.294
363.7217, 5231.800
364.2039, 5282.311
364.6860, 5329.408
365.1681, 5373.256
365.6502, 5419.121
366.1323, 5470.314
366.6144, 5522.413
367.0966, 5572.501
367.5787, 5612.138
368.0608, 5659.498
368.5429, 5720.419
369.0250, 5791.705
369.5071, 5855.048
369.9893, 5903.450
370.4714, 5951.766
370.9535, 6007.193
371.4356, 6070.997
371.9177, 6138.505
372.3998, 6213.582
372.8820, 6290.619
373.3641, 6356.447
373.8462, 6409.857
374.3283, 6454.790
374.8104, 6490.145
375.2925, 6515.173
375.7747, 6543.959
376.2568, 6578.843
376.7389, 6613.332
377.2210, 6640.067
377.7031, 6659.268
378.1852, 6668.160
378.6674, 6669.711
379.1495, 6660.201
379.6316, 6613.435
380.1137, 6525.585
380.5958, 6438.726
381.0779, 6406.304
381.5601, 6414.330
382.0422, 6394.081
382.5243, 6320.536
383.0064, 6223.097
383.4885, 6147.333
383.9706, 6091.079
384.4528, 6043.625
384.9349, 6004.994
385.4170, 5968.094
385.8991, 5918.330
386.3812, 5849.737
386.8633, 5778.966
387.3455, 5723.655
387.8276, 5678.249
388.3097, 5629.040
388.7918, 5568.522
389.2739, 5502.355
389.7560, 5435.336
390.2382, 5368.077
390.7203, 5297.011
391.2024, 5209.323
391.6845, 5120.746
392.1666, 5048.363
392.6487, 5020.054
393.1309, 4988.831
393.6130, 4930.362
394.0951, 4847.311
394.5772, 4776.001
395.0593, 4733.996
395.5414, 4701.269
396.0236, 4665.750
396.5057, 4625.997
396.9878, 4582.926
397.4699, 4532.292
397.9520, 4477.960
398.4341, 4432.611
398.9163, 4402.725
399.3984, 4375.165
399.8805, 4345.156
400.3626, 4311.161
400.8447, 4279.240
401.3268, 4249.323
401.8090, 4221.571
402.2911, 4196.656
402.7732, 4177.515
403.2553, 4153.973
403.7374, 4121.747
404.2195, 4081.512
404.7017, 4046.741
405.1838, 4019.540
405.6659, 3991.708
406.1480, 3955.526
406.6301, 3910.775
407.1122, 3863.514
407.5944, 3814.425
408.0765, 3763.650
408.5586, 3711.769
409.0407, 3658.601
409.5228, 3606.063
410.0049, 3551.075
410.4871, 3498.106
410.9692, 3462.461
411.4513, 3449.080
411.9334, 3438.997
412.4155, 3408.174
412.8976, 3362.125
413.3798, 3318.166
413.8619, 3284.214
414.3440, 3255.522
414.8261, 3224.996
415.3082, 3192.457
415.7903, 3166.644
416.2725, 3161.384
416.7546, 3162.723
417.2367, 3154.361
417.7188, 3119.169
418.2009, 3086.755
418.6830, 3074.719
419.1652, 3077.786
419.6473, 3077.099
420.1294, 3058.902
420.6115, 3040.728
421.0937, 3032.456
421.5758, 3040.171
422.0579, 3047.869
422.5400, 3054.038
423.0221, 3058.859
423.5042, 3062.671
423.9864, 3061.627
424.4685, 3063.925
424.9506, 3073.106
425.4327, 3089.942
425.9148, 3101.626
426.3969, 3104.228
426.8791, 3106.150
427.3612, 3115.659
427.8433, 3136.469
428.3254, 3152.659
428.8075, 3160.006
429.2896, 3161.975
429.7718, 3171.270
430.2539, 3189.399
430.7360, 3206.903
431.2181, 3216.325
431.7002, 3218.481
432.1823, 3227.167
432.6645, 3245.171
433.1466, 3262.713
433.6287, 3262.646
434.1108, 3248.561
434.5929, 3238.405
435.0750, 3242.895
435.5572, 3254.567
436.0393, 3261.394
436.5214, 3263.431
437.0035, 3261.837
437.4856, 3255.364
437.9677, 3246.473
438.4499, 3238.299
438.9320, 3230.558
439.4141, 3225.566
439.8962, 3225.216
440.3783, 3228.937
440.8604, 3235.251
441.3426, 3246.615
441.8247, 3257.964
442.3068, 3266.147
442.7889, 3270.212
443.2710, 3274.049
443.7531, 3277.771
444.2353, 3282.140
444.7174, 3288.062
445.1995, 3300.563
445.6816, 3309.172
446.1637, 3310.121
446.6458, 3304.324
447.1280, 3301.202
447.6101, 3298.304
448.0922, 3300.827
448.5743, 3312.923
449.0564, 3340.542
449.5385, 3361.235
450.0207, 3370.234
450.5028, 3375.800
450.9849, 3394.364
451.4670, 3427.731
451.9491, 3464.097
452.4312, 3499.664
452.9134, 3534.447
453.3955, 3569.009
453.8776, 3602.854
454.3597, 3639.044
454.8418, 3676.003
455.3239, 3716.557
455.8061, 3771.923
456.2882, 3848.940
456.7703, 3936.292
457.2524, 4020.567
457.7345, 4101.758
458.2166, 4181.931
458.6988, 4248.375
459.1809, 4320.720
459.6630, 4422.437
460.1451, 4559.762
460.6272, 4705.354
461.1093, 4846.717
461.5915, 4984.255
462.0736, 5115.602
462.5557, 5222.123
463.0378, 5340.045
463.5199, 5490.381
464.0020, 5667.467
464.4842, 5834.084
464.9663, 5974.661
465.4484, 6106.983
465.9305, 6241.701
466.4126, 6391.466
466.8947, 6524.563
467.3769, 6632.216
467.8590, 6726.593
468.3411, 6832.220
468.8232, 6966.292
469.3053, 7075.097
469.7874, 7137.106
470.2696, 7155.704
470.7517, 7197.022
471.2338, 7268.076
471.7159, 7339.870
472.1980, 7383.080
472.6801, 7398.629
473.1623, 7420.154
473.6444, 7452.698
474.1265, 7492.974
474.6086, 7540.669
475.0907, 7593.682
475.5728, 7638.428
476.0550, 7659.207
476.5371, 7670.200
477.0192, 7688.320
477.5013, 7713.940
477.9834, 7760.876
478.4655, 7856.662
478.9477, 7975.316
479.4298, 8081.386
479.9119, 8158.891
480.3940, 8230.051
480.8761, 8303.004
481.3582, 8377.907
481.8404, 8454.389
482.3225, 8533.778
482.8046, 8613.470
483.2867, 8694.411
483.7688, 8779.505
484.2509, 8855.888
484.7331, 8937.270
485.2152, 9001.287
485.6973, 9026.739
486.1794, 8995.667
486.6615, 8956.992
487.1436, 8921.179
487.6258, 8883.062
488.1079, 8814.786
488.5900, 8708.983
489.0721, 8594.244
489.5542, 8487.213
490.0363, 8387.572
490.5185, 8280.665
491.0006, 8167.530
491.4827, 8045.374
491.9648, 7910.079
492.4470, 7762.962
492.9291, 7612.140
493.4112, 7458.300
493.8933, 7307.387
494.3754, 7176.974
494.8575, 7063.133
495.3397, 6949.022
495.8218, 6813.778
496.3039, 6675.064
496.7860, 6554.876
497.2681, 6457.728
497.7502, 6366.462
498.2324, 6275.623
498.7145, 6183.489
499.1966, 6085.938
499.6787, 5981.243
500.1608, 5872.487
500.6429, 5757.975
501.1251, 5638.375
501.6072, 5523.838
502.0893, 5409.948
502.5714, 5304.254
503.0535, 5211.404
503.5356, 5139.523
504.0178, 5060.974
504.4999, 4971.796
504.9820, 4880.215
505.4641, 4797.216
505.9462, 4723.954
506.4283, 4654.320
506.9105, 4585.957
507.3926, 4520.591
507.8747, 4468.026
508.3568, 4428.758
508.8389, 4389.705
509.3210, 4337.544
509.8032, 4277.410
510.2853, 4220.634
510.7674, 4166.836
511.2495, 4124.163
511.7316, 4111.575
512.2137, 4115.704
512.6959, 4109.605
513.1780, 4072.495
513.6601, 4029.258
514.1422, 3993.552
514.6243, 3965.340
515.1064, 3942.802
515.5886, 3927.779
516.0707, 3916.369
516.5528, 3905.281
517.0349, 3887.850
517.5170, 3883.582
517.9991, 3909.559
518.4813, 3943.803
518.9634, 3956.612
519.4455, 3926.775
519.9276, 3912.779
520.4097, 3933.381
520.8918, 3981.144
521.3740, 4006.465
521.8561, 4002.778
522.3382, 3998.383
522.8203, 4015.074
523.3024, 4051.021
523.7845, 4075.352
524.2667, 4084.400
524.7488, 4089.832
525.2309, 4104.920
525.7130, 4128.602
526.1951, 4156.972
526.6772, 4191.415
527.1594, 4227.672
527.6415, 4264.294
528.1236, 4299.319
528.6057, 4324.839
529.0878, 4324.355
529.5699, 4320.182
530.0521, 4329.967
530.5342, 4358.830
531.0163, 4388.968
531.4984, 4420.434
531.9805, 4448.119
532.4626, 4466.778
532.9448, 4472.127
533.4269, 4472.321
533.9090, 4464.910
534.3911, 4452.635
534.8732, 4447.304
535.3553, 4453.805
535.8375, 4457.949
536.3196, 4452.601
536.8017, 4437.141
537.2838, 4426.324
537.7659, 4423.009
538.2480, 4414.513
538.7302, 4380.465
539.2123, 4325.316
539.6944, 4283.404
540.1765, 4266.353
540.6586, 4257.987
541.1407, 4232.523
541.6229, 4195.040
542.1050, 4163.410
542.5871, 4157.292
543.0692, 4154.702
543.5513, 4134.870
544.0334, 4096.957
544.5156, 4055.911
544.9977, 4014.791
545.4798, 3975.672
545.9619, 3940.252
546.4440, 3903.422
546.9261, 3878.338
547.4083, 3876.355
547.8904, 3885.400
548.3725, 3882.602
548.8546, 3853.467
549.3367, 3836.889
549.8188, 3847.764
550.3010, 3882.632
550.7831, 3897.872
551.2652, 3887.391
551.7473, 3877.624
552.2294, 3891.663
552.7115, 3926.455
553.1937, 3952.897
553.6758, 3969.917
554.1579, 3973.445
554.6400, 3954.969
555.1221, 3918.402
555.6042, 3875.559
556.0864, 3831.375
556.5685, 3781.387
557.0506, 3724.231
557.5327, 3658.667
558.0148, 3580.670
558.4969, 3475.284
558.9791, 3366.267
559.4612, 3269.485
559.9433, 3189.250
560.4254, 3109.085
560.9075, 3018.676
561.3896, 2931.645
561.8718, 2858.712
562.3539, 2806.670
562.8360, 2757.197
563.3181, 2709.181
563.8002, 2663.344
564.2823, 2620.680
564.7645, 2581.688
565.2466, 2545.198
565.7287, 2511.154
566.2108, 2479.480
566.6929, 2449.339
567.1750, 2420.799
567.6572, 2397.786
568.1393, 2388.547
568.6214, 2386.787
569.1035, 2378.771
569.5856, 2360.161
570.0677, 2343.889
570.5499, 2346.264
571.0320, 2356.768
571.5141, 2358.782
571.9962, 2338.846
572.4783, 2316.618
572.9604, 2298.834
573.4426, 2285.294
573.9247, 2273.802
574.4068, 2261.765
574.8889, 2254.101
575.3710, 2254.167
575.8531, 2264.376
576.3353, 2269.585
576.8174, 2268.807
577.2995, 2264.416
577.7816, 2257.594
578.2637, 2247.966
578.7458, 2240.792
579.2280, 2237.841
579.7101, 2235.820
580.1922, 2225.282
580.6743, 2208.696
581.1564, 2200.002
581.6385, 2213.115
582.1207, 2233.773
582.6028, 2244.177
583.0849, 2244.872
583.5670, 2240.911
584.0491, 2229.698
584.5313, 2218.559
585.0134, 2213.589
585.4955, 2217.231
585.9776, 2222.030
586.4597, 2225.524
586.9418, 2229.486
587.4240, 2236.138
587.9061, 2250.595
588.3882, 2259.781
588.8703, 2260.718
589.3524, 2255.921
589.8345, 2252.895
590.3167, 2252.304
590.7988, 2250.656
591.2809, 2243.257
591.7630, 2233.090
592.2451, 2239.104
592.7272, 2261.902
593.2094, 2286.158
593.6915, 2299.051
594.1736, 2304.346
594.6557, 2308.370
595.1378, 2311.333
595.6199, 2316.218
596.1021, 2327.903
596.5842, 2342.209
597.0663, 2353.224
597.5485, 2354.812
598.0306, 2357.036
598.5127, 2362.627
598.9948, 2371.369
599.4769, 2382.224
599.9590, 2395.842
600.4412, 2410.714
600.9233, 2426.005
601.4054, 2441.652
601.8875, 2460.201
602.3696, 2482.463
602.8517, 2505.351
603.3339, 2524.096
603.8160, 2539.503
604.2981, 2560.754
604.7802, 2589.081
605.2623, 2622.039
605.7444, 2658.837
606.2266, 2697.875
606.7087, 2732.861
607.1908, 2757.302
607.6729, 2782.068
608.1550, 2817.526
608.6371, 2860.839
609.1193, 2904.011
609.6014, 2944.514
610.0835, 2983.281
610.5656, 3017.843
611.0477, 3046.565
611.5298, 3084.223
612.0120, 3137.399
612.4941, 3193.046
612.9762, 3241.433
613.4583, 3279.225
613.9404, 3322.650
614.4225, 3375.615
614.9047, 3428.155
615.3868, 3462.482
615.8689, 3480.660
616.3510, 3506.707
616.8331, 3550.682
617.3152, 3602.014
617.7974, 3650.175
618.2795, 3693.020
