##NAMES=Veszelyite
##RRUFFID=R150143
##IDEAL CHEMISTRY=Cu^2+^_3_PO_4_(OH)_3_&#183;2H_2_O
##LOCALITY=Katanga, Democratic Republic of the Congo
##OWNER=University of Arizona Mineral Museum
##SOURCE=University of Arizona Mineral Museum
##DESCRIPTION=Blue single crystals scattered in matrix
##STATUS=The identification of this mineral has been confirmed by single-crystal X-ray diffraction.
##URL=rruff.info/R150143
135.3370, 23459.67
136.1770, 23694.33
137.0180, 24206.33
137.8580, 24739.33
138.6990, 25227.33
139.5390, 25979.67
140.3790, 26502.00
141.2200, 27136.00
142.0600, 27633.67
142.9000, 27955.33
143.7390, 28239.33
144.5790, 28266.00
145.4190, 28423.67
146.2580, 28250.00
147.0980, 28311.33
147.9370, 28433.67
148.7760, 28268.67
149.6150, 28464.67
150.4540, 28772.67
151.2930, 28752.67
152.1320, 29265.00
152.9710, 29679.00
153.8090, 30050.00
154.6480, 30433.67
155.4860, 30991.00
156.3250, 31189.67
157.1630, 31087.67
158.0010, 31160.33
158.8390, 30836.00
159.6770, 30497.33
160.5150, 29680.67
161.3530, 29159.00
162.1900, 28648.33
163.0280, 28003.00
163.8650, 27730.67
164.7020, 27188.33
165.5400, 27129.00
166.3770, 26910.33
167.2140, 26986.33
168.0510, 26814.00
168.8870, 26860.33
169.7240, 26858.33
170.5610, 26811.00
171.3970, 26886.33
172.2340, 26861.00
173.0700, 27058.67
173.9060, 27028.33
174.7420, 27404.33
175.5780, 27639.00
176.4140, 27918.67
177.2500, 28530.00
178.0860, 28923.33
178.9210, 29378.33
179.7570, 30037.67
180.5920, 30586.67
181.4270, 30992.33
182.2630, 31600.33
183.0980, 31948.67
183.9330, 32711.67
184.7680, 32873.33
185.6020, 33510.33
186.4370, 33577.00
187.2720, 33860.33
188.1060, 34259.33
188.9410, 34143.00
189.7750, 34285.33
190.6090, 34202.67
191.4430, 34240.33
192.2770, 33860.00
193.1110, 33670.33
193.9450, 33526.33
194.7790, 33029.00
195.6120, 32696.00
196.4460, 32562.33
197.2790, 32150.33
198.1120, 31690.00
198.9450, 31430.00
199.7790, 31030.33
200.6120, 30699.33
201.4440, 30428.33
202.2770, 30274.33
203.1100, 29963.33
203.9430, 29623.00
204.7750, 29495.67
205.6070, 29160.00
206.4400, 29087.33
207.2720, 29085.33
208.1040, 28834.00
208.9360, 28710.00
209.7680, 28662.00
210.6000, 28543.00
211.4310, 28617.00
212.2630, 28414.00
213.0940, 28449.33
213.9260, 28267.67
214.7570, 28044.33
215.5880, 28047.00
216.4190, 27878.33
217.2500, 27840.67
218.0810, 27579.00
218.9120, 27457.67
219.7430, 27574.00
220.5730, 27287.00
221.4040, 27077.67
222.2340, 27095.67
223.0640, 27063.33
223.8950, 27061.00
224.7250, 27061.00
225.5550, 27068.00
226.3850, 27182.67
227.2140, 27346.00
228.0440, 27682.33
228.8740, 27934.67
229.7030, 28190.00
230.5330, 28544.67
231.3620, 28850.92
232.1910, 29161.00
233.0200, 29557.67
233.8490, 29893.00
234.6780, 30257.67
235.5070, 30267.67
236.3350, 30579.33
237.1640, 30795.33
237.9920, 30742.33
238.8210, 30848.67
239.6490, 30661.67
240.4770, 30858.67
241.3050, 30636.33
242.1330, 30475.67
242.9610, 30197.00
243.7890, 29964.67
244.6170, 29512.00
245.4440, 29194.67
246.2720, 28783.33
247.0990, 28324.33
247.9270, 27724.67
248.7540, 27472.00
249.5810, 26967.00
250.4080, 26701.00
251.2350, 26281.67
252.0620, 26101.33
252.8880, 25855.67
253.7150, 25793.00
254.5410, 25556.33
255.3680, 25394.67
256.1940, 25551.33
257.0200, 25460.33
257.8460, 25391.00
258.6720, 25401.33
259.4980, 25331.67
260.3240, 25312.64
261.1500, 25338.00
261.9750, 25259.67
262.8010, 25337.67
263.6260, 25317.00
264.4520, 25210.24
265.2770, 25037.33
266.1020, 24947.33
266.9270, 24882.00
267.7520, 24682.33
268.5770, 24773.00
269.4010, 24655.33
270.2260, 24502.33
271.0500, 24366.67
271.8750, 24530.67
272.6990, 24453.33
273.5230, 24328.00
274.3470, 24212.00
275.1710, 24036.00
275.9950, 24130.00
276.8190, 24090.00
277.6430, 23906.67
278.4660, 23884.00
279.2900, 23657.00
280.1130, 23695.67
280.9370, 23606.67
281.7600, 23507.00
282.5830, 23333.67
283.4060, 23221.67
284.2290, 23170.67
285.0520, 23168.33
285.8740, 22932.33
286.6970, 22822.33
287.5200, 22651.00
288.3420, 22584.00
289.1640, 22467.63
289.9870, 22397.67
290.8090, 22273.33
291.6310, 22226.67
292.4530, 22108.00
293.2740, 22010.33
294.0960, 21944.01
294.9180, 21832.67
295.7390, 21789.67
296.5610, 21703.33
297.3820, 21620.00
298.2030, 21571.62
299.0250, 21510.29
299.8460, 21471.00
300.6660, 21421.67
301.4870, 21400.33
302.3080, 21359.33
303.1290, 21347.67
303.9490, 21313.21
304.7700, 21288.59
305.5900, 21277.00
306.4100, 21243.67
307.2300, 21273.33
308.0500, 21266.00
308.8700, 21199.00
309.6900, 21318.33
310.5100, 21295.33
311.3300, 21396.67
312.1490, 21276.67
312.9690, 21327.67
313.7880, 21440.33
314.6070, 21516.67
315.4260, 21529.33
316.2450, 21603.00
317.0640, 21682.92
317.8830, 21753.17
318.7020, 21855.51
319.5210, 21921.00
320.3390, 21990.33
321.1580, 22035.67
321.9760, 22126.09
322.7940, 22185.67
323.6130, 22321.33
324.4310, 22392.00
325.2490, 22540.33
326.0660, 22536.33
326.8840, 22771.00
327.7020, 22782.00
328.5190, 22904.33
329.3370, 23115.00
330.1540, 23102.67
330.9720, 23293.33
331.7890, 23269.33
332.6060, 23548.67
333.4230, 23672.00
334.2400, 23787.67
335.0560, 23807.67
335.8730, 23733.33
336.6900, 23919.33
337.5060, 24139.33
338.3230, 24038.67
339.1390, 24177.33
339.9550, 24221.00
340.7710, 24209.67
341.5870, 24139.00
342.4030, 24316.00
343.2190, 24449.33
344.0350, 24465.33
344.8500, 24658.33
345.6660, 24546.33
346.4810, 24776.33
347.2960, 24769.67
348.1120, 25230.67
348.9270, 25259.33
349.7420, 25439.67
350.5570, 25516.67
351.3720, 25769.33
352.1860, 26062.00
353.0010, 26453.00
353.8150, 26668.67
354.6300, 27168.67
355.4440, 27254.33
356.2580, 27771.67
357.0730, 27898.33
357.8870, 28266.67
358.7000, 28450.67
359.5140, 28827.33
360.3280, 29205.00
361.1420, 29254.67
361.9550, 29352.00
362.7690, 29651.67
363.5820, 29698.00
364.3950, 29811.33
365.2080, 29902.67
366.0210, 29905.69
366.8340, 29882.00
367.6470, 29930.00
368.4600, 29980.33
369.2730, 30034.67
370.0850, 30030.33
370.8980, 30045.67
371.7100, 30136.33
372.5220, 30110.67
373.3340, 30115.37
374.1460, 30101.88
374.9580, 30043.00
375.7700, 30012.67
376.5820, 29924.33
377.3940, 29853.67
378.2050, 29741.67
379.0170, 29509.67
379.8280, 29310.33
380.6400, 29179.00
381.4510, 29056.00
382.2620, 28735.67
383.0730, 28493.67
383.8840, 28129.67
384.6940, 27817.67
385.5050, 27673.67
386.3160, 27453.33
387.1260, 27059.33
387.9370, 26776.67
388.7470, 26718.67
389.5570, 26271.33
390.3670, 26103.00
391.1770, 25917.00
391.9870, 25850.00
392.7970, 25614.33
393.6070, 25477.33
394.4160, 25508.00
395.2260, 25230.00
396.0350, 25182.00
396.8450, 25331.67
397.6540, 25088.00
398.4630, 24973.67
399.2720, 25037.67
400.0810, 24846.67
400.8900, 24808.33
401.6980, 24635.00
402.5070, 24695.00
403.3160, 24594.33
404.1240, 24428.67
404.9320, 24303.00
405.7410, 24190.60
406.5490, 23978.67
407.3570, 23996.00
408.1650, 23781.33
408.9730, 23740.67
409.7800, 23610.67
410.5880, 23530.00
411.3960, 23383.00
412.2030, 23449.00
413.0110, 23353.33
413.8180, 23248.00
414.6250, 23283.33
415.4320, 23197.33
416.2390, 23223.67
417.0460, 23172.67
417.8530, 23228.33
418.6590, 23317.33
419.4660, 23341.33
420.2720, 23449.33
421.0790, 23582.33
421.8850, 23575.33
422.6910, 23707.67
423.4970, 23590.00
424.3030, 23959.00
425.1090, 24092.67
425.9150, 24068.00
426.7210, 24196.33
427.5260, 24216.33
428.3320, 24400.67
429.1370, 24287.00
429.9430, 24328.67
430.7480, 24312.67
431.5530, 24264.62
432.3580, 24335.00
433.1630, 24188.33
433.9680, 24179.33
434.7730, 24103.54
435.5770, 24160.33
436.3820, 24052.00
437.1860, 23967.33
437.9910, 23946.33
438.7950, 23876.00
439.5990, 23789.67
440.4030, 23794.67
441.2070, 23806.00
442.0110, 23689.33
442.8150, 23752.33
443.6180, 23812.67
444.4220, 23732.67
445.2250, 23729.33
446.0290, 23858.67
446.8320, 23942.67
447.6350, 24002.67
448.4380, 24113.00
449.2410, 24221.87
450.0440, 24271.00
450.8470, 24468.33
451.6500, 24628.33
452.4520, 24744.00
453.2550, 24987.33
454.0570, 25318.67
454.8590, 25540.67
455.6620, 25827.00
456.4640, 26344.00
457.2660, 26642.67
458.0680, 27168.67
458.8690, 27691.33
459.6710, 28218.33
460.4730, 28708.33
461.2740, 29124.67
462.0760, 29889.33
462.8770, 30687.33
463.6780, 31117.33
464.4790, 31750.33
465.2810, 32327.33
466.0820, 32937.67
466.8820, 33543.67
467.6830, 34107.33
468.4840, 34762.33
469.2840, 35051.67
470.0850, 35821.33
470.8850, 35920.33
471.6850, 36501.00
472.4860, 36903.67
473.2860, 37224.33
474.0860, 37529.67
474.8860, 38164.33
475.6850, 38220.33
476.4850, 38738.00
477.2850, 38936.33
478.0840, 39658.00
478.8830, 39884.33
479.6830, 40377.00
480.4820, 40762.33
481.2810, 41091.33
482.0800, 41468.33
482.8790, 41767.76
483.6780, 42022.33
484.4770, 42297.33
485.2750, 42365.00
486.0740, 42482.67
486.8720, 42272.00
487.6700, 41919.67
488.4690, 41655.67
489.2670, 41405.67
490.0650, 40777.33
490.8630, 39949.33
491.6610, 40053.33
492.4580, 39176.33
493.2560, 38632.67
494.0540, 38090.67
494.8510, 37612.33
495.6490, 36899.33
496.4460, 36616.33
497.2430, 36044.67
498.0400, 35555.00
498.8370, 35230.00
499.6340, 34595.33
500.4310, 34113.33
501.2270, 33796.33
502.0240, 33358.67
502.8200, 32866.33
503.6170, 32578.67
504.4130, 32091.67
505.2090, 31595.67
506.0060, 31482.67
506.8010, 31128.00
507.5970, 30811.33
508.3930, 30467.67
509.1890, 30205.69
509.9850, 29959.67
510.7800, 29719.33
511.5760, 29598.00
512.3710, 29405.33
513.1660, 29358.33
513.9610, 29201.33
514.7560, 29163.33
515.5510, 29164.67
516.3460, 29096.00
517.1410, 29137.00
517.9360, 28985.00
518.7300, 29141.67
519.5250, 29051.33
520.3190, 29096.67
521.1130, 28956.33
521.9080, 28945.93
522.7020, 28916.67
523.4960, 28874.67
524.2890, 28891.33
525.0830, 28883.33
525.8770, 28812.67
526.6710, 28701.20
527.4640, 28548.00
528.2570, 28356.00
529.0510, 28204.67
529.8440, 27961.33
530.6370, 27830.67
531.4300, 27605.67
532.2230, 27226.00
533.0160, 27197.33
533.8090, 26855.67
534.6010, 26652.33
535.3940, 26405.00
536.1860, 26091.00
536.9790, 25911.33
537.7710, 25656.00
538.5630, 25377.00
539.3550, 25078.33
540.1470, 24881.00
540.9390, 24797.33
541.7310, 24527.67
542.5230, 24416.33
543.3140, 24355.67
544.1060, 24126.33
544.8970, 24091.00
545.6880, 23927.67
546.4800, 23774.33
547.2710, 23957.33
548.0620, 24021.67
548.8530, 23974.33
549.6430, 24088.67
550.4340, 24236.33
551.2250, 24418.33
552.0150, 24502.00
552.8060, 24822.67
553.5960, 24913.00
554.3860, 25154.33
555.1760, 25043.33
555.9670, 25192.00
556.7570, 25067.67
557.5460, 25054.67
558.3360, 24772.33
559.1260, 24469.67
559.9150, 24294.67
560.7050, 23948.33
561.4940, 23603.67
562.2830, 23200.00
563.0730, 23097.67
563.8620, 22810.33
564.6510, 22514.00
565.4400, 22441.67
566.2280, 22103.67
567.0170, 22063.33
567.8060, 21876.33
568.5940, 21810.33
569.3830, 21810.67
570.1710, 21624.00
570.9590, 21589.33
571.7470, 21526.00
572.5360, 21485.00
573.3240, 21448.33
574.1110, 21405.67
574.8990, 21251.33
575.6870, 21185.67
576.4740, 21197.33
577.2620, 21147.33
578.0490, 21194.33
578.8360, 21162.48
579.6240, 21132.00
580.4110, 21132.67
581.1980, 21084.67
581.9850, 21064.00
582.7710, 20975.33
583.5580, 20956.33
584.3450, 20977.67
585.1310, 21045.67
585.9180, 20897.33
586.7040, 20980.67
587.4900, 20919.00
588.2760, 21037.00
589.0620, 20926.00
589.8480, 21052.67
590.6340, 21070.33
591.4200, 21086.00
592.2060, 21031.33
592.9910, 21017.00
593.7770, 20993.67
594.5620, 21109.33
595.3470, 21165.33
596.1320, 21151.00
596.9180, 21237.45
597.7030, 21197.67
598.4870, 21325.67
599.2720, 21370.33
600.0570, 21413.33
600.8420, 21496.00
601.6260, 21577.33
602.4100, 21666.01
603.1950, 21762.33
603.9790, 21907.00
604.7630, 22107.67
605.5470, 22315.00
606.3310, 22443.00
607.1150, 22694.00
607.8990, 22841.67
608.6820, 23078.37
609.4660, 23369.67
610.2490, 23572.00
611.0330, 23824.67
611.8160, 24112.00
612.5990, 24421.00
613.3820, 24595.00
614.1650, 24661.00
614.9480, 24786.00
615.7310, 25076.00
616.5140, 25070.67
617.2960, 25220.00
618.0790, 25370.00
618.8610, 25193.33
619.6440, 25122.67
620.4260, 25089.33
621.2080, 24894.67
621.9900, 24912.67
622.7720, 24607.67
623.5540, 24451.00
624.3350, 24251.67
625.1170, 23992.00
625.8990, 23783.33
626.6800, 23556.20
627.4620, 23329.00
628.2430, 23097.00
629.0240, 22874.33
629.8050, 22622.00
630.5860, 22510.33
631.3670, 22155.67
632.1480, 21995.67
632.9290, 21708.67
633.7090, 21620.33
634.4900, 21495.33
635.2700, 21372.67
636.0500, 21120.67
636.8310, 21088.67
637.6110, 20885.33
638.3910, 20918.33
639.1710, 20629.00
639.9510, 20577.33
640.7300, 20513.33
641.5100, 20393.00
642.2900, 20239.33
643.0690, 20270.00
643.8480, 20313.67
644.6280, 20223.67
645.4070, 20111.67
646.1860, 19996.33
646.9650, 19915.00
647.7440, 19946.67
648.5230, 19851.33
649.3020, 19779.33
650.0800, 19874.00
650.8590, 19699.33
651.6370, 19812.67
652.4150, 19725.00
653.1940, 19774.33
653.9720, 19634.67
654.7500, 19644.00
655.5280, 19522.33
656.3060, 19506.33
657.0840, 19659.33
657.8610, 19533.67
658.6390, 19473.00
659.4160, 19604.67
660.1940, 19500.00
660.9710, 19517.33
661.7480, 19540.67
662.5250, 19493.00
663.3020, 19516.82
664.0790, 19470.00
664.8560, 19498.33
665.6330, 19463.67
666.4090, 19413.67
667.1860, 19385.33
667.9620, 19489.33
668.7390, 19358.67
669.5150, 19422.33
670.2910, 19263.33
671.0670, 19368.67
671.8430, 19402.67
672.6190, 19370.33
673.3950, 19273.67
674.1710, 19288.00
674.9460, 19286.00
675.7220, 19242.67
676.4970, 19332.67
677.2720, 19141.00
678.0480, 19293.33
678.8230, 19298.33
679.5980, 19207.00
680.3730, 19185.67
681.1480, 19254.67
681.9220, 19213.67
682.6970, 19220.67
683.4720, 19318.67
684.2460, 19120.33
685.0200, 19292.33
685.7950, 19207.67
686.5690, 19179.00
687.3430, 19133.67
688.1170, 19138.67
688.8910, 19137.97
689.6650, 19151.67
690.4380, 19163.67
691.2120, 19189.00
691.9860, 19180.33
692.7590, 19195.22
693.5320, 19128.67
694.3060, 19161.67
695.0790, 19168.67
695.8520, 19057.00
696.6250, 19052.00
697.3980, 19103.00
698.1700, 19115.67
698.9430, 19147.00
699.7160, 19093.67
700.4880, 19134.33
701.2610, 19160.00
702.0330, 19096.67
702.8050, 19152.67
703.5770, 19005.67
704.3490, 19158.00
705.1210, 19002.67
705.8930, 19109.33
706.6650, 19062.00
707.4360, 19066.00
708.2080, 19133.00
708.9790, 19055.33
709.7510, 19066.00
710.5220, 19064.67
711.2930, 19088.00
712.0640, 19089.67
712.8350, 19150.00
713.6060, 19028.00
714.3770, 19053.00
715.1480, 19043.00
715.9180, 19145.00
716.6890, 19074.67
717.4590, 19192.33
718.2290, 19032.67
719.0000, 19186.67
719.7700, 19041.33
720.5400, 19140.67
721.3100, 19115.33
722.0800, 19191.67
722.8500, 19011.33
723.6190, 19237.67
724.3890, 18977.00
725.1580, 19008.33
725.9280, 19132.67
726.6970, 19073.00
727.4660, 19044.67
728.2350, 19104.00
729.0040, 19216.33
729.7730, 19070.33
730.5420, 19200.00
731.3110, 19176.00
732.0790, 19089.33
732.8480, 19209.00
733.6160, 19142.33
734.3850, 19182.33
735.1530, 19172.67
735.9210, 19144.69
736.6890, 19091.33
737.4570, 19122.67
738.2250, 19190.33
738.9930, 19222.67
739.7610, 19265.92
740.5280, 19291.67
741.2960, 19313.67
742.0630, 19322.92
742.8310, 19278.67
743.5980, 19340.67
744.3650, 19259.33
745.1320, 19232.33
745.8990, 19251.67
746.6660, 19345.67
747.4330, 19216.67
748.1990, 19365.00
748.9660, 19232.00
749.7320, 19396.67
750.4990, 19259.33
751.2650, 19408.33
752.0310, 19280.67
752.7970, 19319.33
753.5640, 19407.67
754.3290, 19304.67
755.0950, 19315.00
755.8610, 19445.67
756.6270, 19283.67
757.3920, 19408.67
758.1580, 19399.67
758.9230, 19425.33
759.6880, 19354.67
760.4540, 19325.33
761.2190, 19420.00
761.9840, 19407.33
762.7490, 19364.67
763.5130, 19434.67
764.2780, 19432.33
765.0430, 19352.00
765.8070, 19416.67
766.5720, 19445.33
767.3360, 19442.33
768.1000, 19407.67
768.8640, 19440.67
769.6280, 19505.67
770.3920, 19451.33
771.1560, 19530.67
771.9200, 19488.33
772.6840, 19418.00
773.4470, 19552.67
774.2110, 19493.33
774.9740, 19482.33
775.7380, 19435.67
776.5010, 19537.33
777.2640, 19568.33
778.0270, 19605.33
778.7900, 19631.33
779.5530, 19586.33
780.3160, 19604.33
781.0780, 19496.67
781.8410, 19595.33
782.6030, 19631.33
783.3660, 19540.33
784.1280, 19628.00
784.8900, 19585.00
785.6520, 19659.67
786.4140, 19630.33
787.1760, 19646.39
787.9380, 19633.67
788.7000, 19685.00
789.4620, 19700.33
790.2230, 19762.67
790.9850, 19674.00
791.7460, 19745.33
792.5070, 19676.67
793.2680, 19920.33
794.0300, 19725.33
794.7910, 19866.67
795.5510, 19813.00
796.3120, 19803.33
797.0730, 19877.67
797.8340, 19866.33
798.5940, 19885.33
799.3550, 19960.67
800.1150, 19858.00
800.8750, 20002.00
801.6350, 19965.00
802.3950, 19939.00
803.1550, 19980.33
803.9150, 20020.67
804.6750, 20057.33
805.4350, 20087.33
806.1940, 20117.33
806.9540, 20085.33
807.7130, 20164.33
808.4730, 20132.67
809.2320, 20214.33
809.9910, 20285.67
810.7500, 20343.00
811.5090, 20313.00
812.2680, 20300.67
813.0270, 20283.67
813.7850, 20450.00
814.5440, 20410.33
815.3020, 20487.33
816.0610, 20437.67
816.8190, 20612.33
817.5770, 20577.33
818.3350, 20534.00
819.0930, 20755.33
819.8510, 20745.00
820.6090, 20776.00
821.3670, 20711.00
822.1250, 20871.67
822.8820, 20968.33
823.6400, 21039.00
824.3970, 21152.67
825.1540, 20945.67
825.9120, 21251.00
826.6690, 21121.00
827.4260, 21359.00
828.1830, 21272.67
828.9390, 21460.00
829.6960, 21517.67
830.4530, 21441.00
831.2090, 21536.67
831.9660, 21522.00
832.7220, 21543.00
833.4780, 21592.00
834.2350, 21729.00
834.9910, 21669.00
835.7470, 21731.00
836.5030, 21717.00
837.2580, 21653.67
838.0140, 21754.67
838.7700, 21603.67
839.5250, 21795.34
840.2810, 21792.04
841.0360, 21760.28
841.7910, 21701.79
842.5470, 21765.86
843.3020, 21668.48
844.0570, 21835.43
844.8120, 21739.59
845.5660, 21706.68
846.3210, 21732.00
847.0760, 21796.92
847.8300, 21768.22
848.5850, 21800.85
849.3390, 21798.54
850.0930, 21899.40
850.8470, 21823.23
851.6010, 21885.96
852.3550, 21880.04
853.1090, 21882.13
853.8630, 21950.06
854.6170, 21950.69
855.3700, 22059.65
856.1240, 21985.24
856.8770, 22053.91
857.6310, 22030.99
858.3840, 22121.99
859.1370, 22110.73
859.8900, 22176.31
860.6430, 22264.16
861.3960, 22151.87
862.1490, 22164.30
862.9010, 22142.42
863.6540, 22250.89
864.4060, 22289.00
865.1590, 22318.62
865.9110, 22301.32
866.6630, 22314.01
867.4150, 22306.18
868.1670, 22456.81
868.9190, 22313.93
869.6710, 22427.67
870.4230, 22465.06
871.1750, 22412.20
871.9260, 22346.26
872.6780, 22394.34
873.4290, 22355.55
874.1800, 22423.67
874.9320, 22396.85
875.6830, 22468.04
876.4340, 22356.00
877.1850, 22406.98
877.9360, 22366.14
878.6860, 22392.19
879.4370, 22407.34
880.1880, 22467.38
880.9380, 22300.87
881.6880, 22445.52
882.4390, 22357.94
883.1890, 22414.24
883.9390, 22373.81
884.6890, 22358.43
885.4390, 22433.44
886.1890, 22429.17
886.9390, 22363.00
887.6880, 22391.58
888.4380, 22420.15
889.1870, 22394.34
889.9370, 22463.90
890.6860, 22457.95
891.4350, 22524.53
892.1840, 22444.62
892.9330, 22523.02
893.6820, 22502.78
894.4310, 22546.99
895.1800, 22496.35
895.9280, 22610.69
896.6770, 22636.29
897.4250, 22608.69
898.1740, 22685.02
898.9220, 22630.30
899.6700, 22793.68
900.4180, 22704.30
901.1660, 22794.63
901.9140, 22869.63
902.6620, 22823.39
903.4100, 22899.40
904.1570, 22977.03
904.9050, 23140.78
905.6520, 22994.51
906.4000, 23172.66
907.1470, 23077.39
907.8940, 23206.44
908.6410, 23356.43
909.3880, 23259.71
910.1350, 23293.01
910.8820, 23363.01
911.6290, 23507.08
912.3750, 23451.85
913.1220, 23602.93
913.8680, 23560.77
914.6150, 23643.49
915.3610, 23581.84
916.1070, 23787.77
916.8530, 23833.01
917.5990, 23811.94
918.3450, 23860.17
919.0910, 24100.67
919.8360, 24031.72
920.5820, 24114.91
921.3280, 24151.06
922.0730, 24116.92
922.8180, 24221.93
923.5640, 24299.71
924.3090, 24370.37
925.0540, 24483.26
925.7990, 24510.28
926.5440, 24788.71
927.2890, 24518.29
928.0330, 24665.17
928.7780, 24888.15
929.5220, 24805.25
930.2670, 24689.41
931.0110, 24972.93
931.7550, 24908.15
932.5000, 25120.01
933.2440, 25071.84
933.9880, 25315.06
934.7320, 25239.25
935.4750, 25348.43
936.2190, 25417.84
936.9630, 25504.56
937.7060, 25577.66
938.4500, 25653.29
939.1930, 25759.71
939.9360, 25936.02
940.6790, 25954.20
941.4230, 26006.97
942.1660, 26207.87
942.9080, 26291.43
943.6510, 26484.59
944.3940, 26663.31
945.1370, 26755.66
945.8790, 26992.07
946.6210, 27084.90
947.3640, 27418.45
948.1060, 27689.62
948.8480, 27935.01
