##NAMES=Viitaniemiite
##RRUFFID=R060052
##IDEAL CHEMISTRY=NaCaAlPO_4_F_3_
##LOCALITY=Paprook, Afghanistan
##OWNER=RRUFF
##SOURCE=Marcus Origlieri
##DESCRIPTION=Clear, colorless fragment
##STATUS=The identification of this mineral has been confirmed by X-ray diffraction and chemical analysis
##URL=rruff.info/R060052
##MEASURED CHEMISTRY=Na_1.00_(Ca_0.97_Mn^2+^_0.03_)_Σ=1_Al_1.00_P_1.00_O_4_(F_1.60_(OH)_1.40_)_Σ=3_
117.7236, 162.9529
118.2057, 163.2338
118.6879, 163.5328
119.1700, 163.9719
119.6521, 164.5259
120.1342, 164.9977
120.6163, 165.1835
121.0984, 165.4888
121.5806, 166.3579
122.0627, 167.4568
122.5448, 168.0817
123.0269, 167.5367
123.5090, 165.5545
123.9911, 164.0301
124.4732, 162.7943
124.9554, 162.0184
125.4375, 161.9321
125.9196, 162.4936
126.4017, 163.3450
126.8838, 164.0574
127.3659, 164.4953
127.8481, 165.2532
128.3302, 166.5222
128.8123, 168.0425
129.2944, 169.6100
129.7765, 171.2088
130.2586, 172.6863
130.7408, 173.6440
131.2229, 174.0424
131.7050, 174.6708
132.1871, 175.8755
132.6692, 177.5733
133.1513, 179.4466
133.6335, 181.3447
134.1156, 183.4930
134.5977, 186.1431
135.0798, 189.3536
135.5619, 192.6803
136.0440, 195.6047
136.5262, 198.0306
137.0083, 200.7537
137.4904, 204.2803
137.9725, 208.0212
138.4546, 211.6196
138.9367, 214.9519
139.4189, 218.1145
139.9010, 221.1496
140.3831, 223.3890
140.8652, 226.7910
141.3473, 232.1621
141.8294, 238.4019
142.3116, 244.2728
142.7937, 249.1713
143.2758, 253.4962
143.7579, 259.1734
144.2400, 267.9438
144.7221, 276.2430
145.2043, 283.5298
145.6864, 290.0237
146.1685, 296.1025
146.6506, 302.0648
147.1327, 307.8540
147.6148, 312.9096
148.0970, 317.8942
148.5791, 321.7493
149.0612, 324.1063
149.5433, 324.9474
150.0254, 324.4191
150.5075, 322.8047
150.9896, 319.6922
151.4718, 314.2664
151.9539, 305.2969
152.4360, 294.6889
152.9181, 284.0296
153.4002, 273.4830
153.8823, 262.6193
154.3645, 250.5638
154.8466, 237.8539
155.3287, 226.0249
155.8108, 215.7787
156.2929, 206.6982
156.7750, 197.7265
157.2572, 188.4872
157.7393, 180.0012
158.2214, 172.9707
158.7035, 167.0527
159.1856, 161.4932
159.6677, 155.7138
160.1499, 149.7721
160.6320, 144.4750
161.1141, 139.9102
161.5962, 136.0567
162.0783, 133.2487
162.5604, 131.2127
163.0426, 129.2612
163.5247, 126.6607
164.0068, 123.2090
164.4889, 120.2238
164.9710, 117.4301
165.4531, 115.2703
165.9353, 114.1962
166.4174, 114.1116
166.8995, 114.4470
167.3816, 114.5424
167.8637, 114.3950
168.3458, 113.9400
168.8280, 112.6092
169.3101, 111.3811
169.7922, 111.0060
170.2743, 111.6301
170.7564, 112.8231
171.2385, 114.0135
171.7207, 115.2367
172.2028, 116.3406
172.6849, 117.3026
173.1670, 118.1457
173.6491, 118.7580
174.1312, 119.0492
174.6133, 119.4391
175.0955, 120.8385
175.5776, 123.3733
176.0597, 125.7838
176.5418, 127.5121
177.0239, 128.8555
177.5060, 130.4804
177.9882, 132.5416
178.4703, 135.0621
178.9524, 138.1438
179.4345, 141.8387
179.9166, 145.5048
180.3987, 148.7298
180.8809, 151.5655
181.3630, 154.3365
181.8451, 157.2545
182.3272, 159.9987
182.8093, 162.0818
183.2914, 163.4198
183.7736, 164.9680
184.2557, 167.6968
184.7378, 171.7081
185.2199, 176.0331
185.7020, 180.6454
186.1841, 185.3963
186.6663, 190.1775
187.1484, 194.9717
187.6305, 199.8963
188.1126, 205.0836
188.5947, 210.3380
189.0768, 216.3436
189.5590, 223.4893
190.0411, 231.0882
190.5232, 238.6315
191.0053, 245.9832
191.4874, 253.5486
191.9695, 262.1950
192.4517, 272.3128
192.9338, 282.9523
193.4159, 294.3433
193.8980, 306.0844
194.3801, 317.9697
194.8622, 329.9562
195.3443, 341.8459
195.8265, 353.2155
196.3086, 363.8432
196.7907, 374.1951
197.2728, 384.9471
197.7549, 395.1924
198.2370, 403.9224
198.7192, 410.7031
199.2013, 415.7990
199.6834, 419.7219
200.1655, 423.0233
200.6476, 424.5294
201.1297, 424.5554
201.6119, 422.5826
202.0940, 417.5905
202.5761, 409.0289
203.0582, 397.5123
203.5403, 384.3658
204.0224, 369.4289
204.5046, 353.7480
204.9867, 337.1655
205.4688, 320.1270
205.9509, 303.5710
206.4330, 287.7988
206.9151, 273.0594
207.3973, 259.6092
207.8794, 247.5511
208.3615, 236.3862
208.8436, 225.6248
209.3257, 215.4232
209.8078, 206.5766
210.2900, 199.5969
210.7721, 194.1908
211.2542, 189.7891
211.7363, 186.5360
212.2184, 183.6805
212.7005, 180.4654
213.1827, 176.8809
213.6648, 174.0404
214.1469, 172.4435
214.6290, 171.7036
215.1111, 171.4599
215.5932, 171.6604
216.0754, 172.4862
216.5575, 174.2596
217.0396, 177.0827
217.5217, 180.1195
218.0038, 182.6102
218.4859, 185.6373
218.9680, 189.8513
219.4502, 195.3950
219.9323, 202.1091
220.4144, 209.7400
220.8965, 218.1282
221.3786, 228.1440
221.8607, 240.1203
222.3429, 253.4911
222.8250, 268.4214
223.3071, 284.8536
223.7892, 301.7565
224.2713, 317.7677
224.7534, 333.0075
225.2356, 346.9526
225.7177, 359.2621
226.1998, 370.8134
226.6819, 381.9300
227.1640, 392.7319
227.6461, 403.4923
228.1283, 414.4552
228.6104, 425.3133
229.0925, 437.1411
229.5746, 449.5504
230.0567, 462.9669
230.5388, 477.8004
231.0210, 494.0975
231.5031, 511.5605
231.9852, 529.8671
232.4673, 547.8685
232.9494, 569.3705
233.4315, 595.2917
233.9137, 623.6760
234.3958, 652.7617
234.8779, 682.2271
235.3600, 713.6750
235.8421, 749.2609
236.3242, 789.6355
236.8064, 833.9945
237.2885, 881.1432
237.7706, 933.0470
238.2527, 990.2133
238.7348, 1053.083
239.2169, 1123.450
239.6991, 1202.532
240.1812, 1291.379
240.6633, 1392.950
241.1454, 1509.579
241.6275, 1637.938
242.1096, 1781.949
242.5918, 1940.993
243.0739, 2100.101
243.5560, 2247.200
244.0381, 2383.791
244.5202, 2473.351
245.0023, 2516.000
245.4845, 2508.551
245.9666, 2440.093
246.4487, 2307.845
246.9308, 2138.353
247.4129, 1943.617
247.8950, 1726.343
248.3772, 1523.278
248.8593, 1336.768
249.3414, 1168.487
249.8235, 1022.499
250.3056, 899.4686
250.7877, 793.5726
251.2699, 704.8955
251.7520, 631.2578
252.2341, 566.8655
252.7162, 512.7272
253.1983, 466.4397
253.6804, 426.7240
254.1626, 393.8223
254.6447, 364.9201
255.1268, 338.5880
255.6089, 314.8935
256.0910, 294.3828
256.5731, 278.0607
257.0552, 264.4129
257.5374, 251.5736
258.0195, 239.5656
258.5016, 228.2703
258.9837, 217.6436
259.4658, 207.6722
259.9479, 198.4227
260.4301, 189.8089
260.9122, 182.0640
261.3943, 175.7763
261.8764, 171.2082
262.3585, 166.7183
262.8406, 161.4164
263.3228, 155.9319
263.8049, 150.7260
264.2870, 145.8190
264.7691, 141.5241
265.2512, 138.5613
265.7333, 137.2522
266.2155, 135.6517
266.6976, 132.8115
267.1797, 129.6012
267.6618, 126.6190
268.1439, 124.0184
268.6260, 121.5376
269.1082, 118.7271
269.5903, 115.4089
270.0724, 112.6525
270.5545, 110.9606
271.0366, 109.7556
271.5187, 108.8725
272.0009, 108.2467
272.4830, 107.6374
272.9651, 106.7183
273.4472, 105.4074
273.9293, 104.2625
274.4114, 103.5482
274.8936, 102.8622
275.3757, 101.9377
275.8578, 100.8052
276.3399, 99.73988
276.8220, 99.03282
277.3041, 98.72662
277.7863, 98.48474
278.2684, 98.50036
278.7505, 98.41367
279.2326, 98.14266
279.7147, 97.65495
280.1968, 96.88148
280.6790, 95.61116
281.1611, 93.80457
281.6432, 92.67862
282.1253, 92.91169
282.6074, 93.22676
283.0895, 93.19884
283.5717, 92.95198
284.0538, 92.81467
284.5359, 93.04086
285.0180, 93.59565
285.5001, 94.08678
285.9822, 94.67536
286.4644, 94.98547
286.9465, 94.67449
287.4286, 94.07747
287.9107, 93.66062
288.3928, 93.67542
288.8749, 94.10510
289.3571, 94.91618
289.8392, 96.75585
290.3213, 98.11703
290.8034, 98.36083
291.2855, 98.18176
291.7676, 98.40348
292.2498, 99.40598
292.7319, 100.8871
293.2140, 102.0576
293.6961, 102.6018
294.1782, 103.3311
294.6603, 104.2523
295.1425, 105.3952
295.6246, 106.8513
296.1067, 108.6292
296.5888, 110.5525
297.0709, 112.3405
297.5530, 113.9677
298.0351, 115.4758
298.5172, 116.8482
298.9994, 118.1338
299.4815, 119.4629
299.9636, 120.8112
300.4457, 121.9569
300.9278, 122.6030
301.4099, 122.5904
301.8921, 122.5730
302.3742, 122.5913
302.8563, 122.5718
303.3384, 122.3463
303.8205, 122.0054
304.3026, 121.8648
304.7848, 122.2466
305.2669, 123.2154
305.7490, 124.0715
306.2311, 124.5929
306.7132, 125.2311
307.1953, 126.1549
307.6775, 127.3216
308.1596, 128.5869
308.6417, 129.8377
309.1238, 131.1013
309.6059, 132.6746
310.0880, 134.8948
310.5702, 137.0733
311.0523, 139.0396
311.5344, 140.8945
312.0165, 142.7646
312.4986, 144.7091
312.9807, 146.7746
313.4629, 149.1646
313.9450, 151.9344
314.4271, 154.9917
314.9092, 158.3247
315.3913, 161.9176
315.8734, 165.7144
316.3556, 169.7130
316.8377, 174.0025
317.3198, 178.7999
317.8019, 184.5376
318.2840, 189.9923
318.7661, 195.1095
319.2483, 200.0278
319.7304, 204.7076
320.2125, 209.2218
320.6946, 213.8555
321.1767, 218.9396
321.6588, 224.5852
322.1410, 230.3891
322.6231, 236.7686
323.1052, 242.9294
323.5873, 248.8074
324.0694, 254.2087
324.5515, 258.6367
325.0337, 261.6803
325.5158, 263.3297
325.9979, 264.5162
326.4800, 265.8507
326.9621, 266.0584
327.4442, 264.2552
327.9264, 261.1631
328.4085, 258.0486
328.8906, 255.6769
329.3727, 253.6700
329.8548, 250.4732
330.3369, 244.9621
330.8191, 239.6197
331.3012, 234.5256
331.7833, 229.7967
332.2654, 225.6593
332.7475, 222.1805
333.2296, 218.9415
333.7118, 215.0665
334.1939, 209.7580
334.6760, 205.3890
335.1581, 202.0631
335.6402, 199.4981
336.1223, 197.8352
336.6045, 196.8927
337.0866, 195.9252
337.5687, 193.8931
338.0508, 190.3372
338.5329, 188.0020
339.0150, 187.8992
339.4972, 188.0170
339.9793, 187.7668
340.4614, 187.0777
340.9435, 185.9961
341.4256, 184.4888
341.9077, 182.6134
342.3898, 181.1017
342.8719, 180.7136
343.3541, 179.7866
343.8362, 177.6708
344.3183, 174.9061
344.8004, 172.3124
345.2825, 170.3190
345.7646, 168.5033
346.2468, 165.6918
346.7289, 161.2099
347.2110, 156.9653
347.6931, 153.1233
348.1752, 149.6298
348.6573, 146.4929
349.1395, 143.6907
349.6216, 141.1133
350.1037, 138.5512
350.5858, 135.9274
351.0679, 133.6776
351.5500, 132.3950
352.0322, 131.0318
352.5143, 128.7606
352.9964, 125.8517
353.4785, 123.3753
353.9606, 122.4490
354.4427, 122.9712
354.9249, 122.7044
355.4070, 120.9138
355.8891, 119.2472
356.3712, 118.1583
356.8533, 117.5798
357.3354, 117.4489
357.8176, 117.8481
358.2997, 118.4690
358.7818, 118.4726
359.2639, 117.5171
359.7460, 116.7933
360.2281, 116.7830
360.7103, 117.0526
361.1924, 117.1698
361.6745, 117.0180
362.1566, 117.0139
362.6387, 117.7626
363.1208, 119.3432
363.6030, 120.8062
364.0851, 122.2986
364.5672, 123.3281
365.0493, 123.1895
365.5314, 122.1195
366.0135, 121.4340
366.4957, 122.4209
366.9778, 124.6548
367.4599, 126.0961
367.9420, 126.2453
368.4241, 126.4279
368.9063, 127.7123
369.3884, 129.5092
369.8705, 130.7724
370.3526, 130.9130
370.8347, 130.5332
371.3168, 130.4961
371.7990, 130.8379
372.2811, 131.2221
372.7632, 131.3717
373.2453, 131.5832
373.7274, 132.2615
374.2095, 133.5378
374.6917, 134.8806
375.1738, 135.6753
375.6559, 136.1191
376.1380, 137.2427
376.6201, 139.4762
377.1022, 142.1550
377.5844, 144.5609
378.0665, 146.7252
378.5486, 149.0861
379.0307, 151.6836
379.5128, 154.6083
379.9949, 157.9480
380.4771, 161.7125
380.9592, 166.0072
381.4413, 170.9043
381.9234, 176.4644
382.4055, 182.6538
382.8876, 189.9345
383.3698, 197.4602
383.8519, 204.5026
384.3340, 211.2443
384.8161, 218.6537
385.2982, 227.2781
385.7803, 236.5393
386.2624, 244.9051
386.7445, 252.1371
387.2267, 259.5081
387.7088, 267.6099
388.1909, 275.9884
388.6730, 283.9386
389.1551, 291.3452
389.6372, 298.5894
390.1194, 306.0844
390.6015, 313.8577
391.0836, 321.6822
391.5657, 328.8471
392.0478, 336.6393
392.5299, 345.6853
393.0121, 356.0259
393.4942, 367.5692
393.9763, 380.3449
394.4584, 394.2820
394.9405, 409.2192
395.4226, 424.6989
395.9048, 441.5357
396.3869, 460.0438
396.8690, 479.9470
397.3511, 500.7456
397.8332, 522.2628
398.3153, 545.6646
398.7975, 572.5863
399.2796, 604.4609
399.7617, 637.1345
400.2438, 669.7120
400.7259, 703.6905
401.2080, 740.5755
401.6902, 779.7705
402.1723, 819.2895
402.6544, 858.2084
403.1365, 896.0844
403.6186, 927.4237
404.1007, 952.5085
404.5829, 969.6353
405.0650, 978.9529
405.5471, 980.0894
406.0292, 972.3873
406.5113, 955.5594
406.9934, 930.6570
407.4756, 898.0367
407.9577, 855.1608
408.4398, 812.2538
408.9219, 768.8605
409.4040, 726.6437
409.8861, 685.8414
410.3683, 646.8292
410.8504, 610.9003
411.3325, 579.2447
411.8146, 551.5377
412.2967, 526.5200
412.7788, 504.9056
413.2610, 484.7651
413.7431, 465.2743
414.2252, 446.4282
414.7073, 428.3130
415.1894, 411.0346
415.6715, 394.0575
416.1537, 376.5423
416.6358, 358.4485
417.1179, 340.6449
417.6000, 322.9966
418.0821, 306.0459
418.5642, 290.1732
419.0464, 275.3812
419.5285, 261.1002
420.0106, 246.5743
420.4927, 232.3909
420.9748, 220.0682
421.4569, 209.8651
421.9391, 200.7295
422.4212, 192.0232
422.9033, 183.7572
423.3854, 175.9560
423.8675, 168.5230
424.3496, 161.6894
424.8318, 155.7724
425.3139, 150.6208
425.7960, 145.7010
426.2781, 140.7695
426.7602, 136.0557
427.2423, 132.0792
427.7245, 128.9135
428.2066, 126.0288
428.6887, 123.4544
429.1708, 121.0631
429.6529, 118.7649
430.1350, 116.5409
430.6172, 114.2857
431.0992, 111.8077
431.5814, 109.1118
432.0635, 107.2583
432.5456, 106.7478
433.0277, 106.3363
433.5098, 105.5036
433.9919, 104.5331
434.4741, 103.9268
434.9562, 103.8948
435.4383, 104.2158
435.9204, 104.4230
436.4025, 104.2046
436.8846, 104.4975
437.3668, 105.6396
437.8489, 106.9327
438.3310, 107.9409
438.8131, 108.6822
439.2952, 109.3923
439.7773, 110.1955
440.2595, 111.1348
440.7416, 112.6861
441.2237, 115.2886
441.7058, 117.8850
442.1879, 119.9569
442.6700, 121.9717
443.1522, 124.6156
443.6343, 128.1376
444.1164, 131.7523
444.5985, 134.2948
445.0806, 135.6278
445.5627, 137.5249
446.0449, 140.4425
446.5270, 143.7818
447.0091, 147.0482
447.4912, 150.3457
447.9733, 154.1306
448.4554, 158.9242
448.9376, 164.2486
449.4197, 169.0659
449.9018, 173.2666
450.3839, 178.0575
450.8660, 184.0784
451.3481, 191.0967
451.8303, 198.5133
452.3124, 206.2888
452.7945, 214.6250
453.2766, 223.4917
453.7587, 233.0070
454.2408, 243.5285
454.7230, 255.1468
455.2051, 267.6284
455.6872, 280.8453
456.1693, 294.9030
456.6514, 309.1314
457.1335, 323.2293
457.6157, 337.8488
458.0978, 353.9834
458.5799, 370.9548
459.0620, 387.2602
459.5441, 402.2889
460.0262, 415.5146
460.5084, 425.3578
460.9905, 431.3713
461.4726, 434.1175
461.9547, 433.1240
462.4368, 429.3070
462.9189, 422.7353
463.4011, 413.8288
463.8832, 403.5841
464.3653, 392.6922
464.8474, 381.2184
465.3295, 370.1831
465.8116, 358.8744
466.2938, 349.0499
466.7759, 341.2272
467.2580, 334.9537
467.7401, 329.5371
468.2222, 324.8275
468.7043, 321.5737
469.1865, 321.0437
469.6686, 323.3898
470.1507, 326.3504
470.6328, 329.3301
471.1149, 333.4906
471.5970, 339.3293
472.0792, 346.7383
472.5613, 355.3593
473.0434, 364.6922
473.5255, 375.5266
474.0076, 389.2315
474.4897, 405.8409
474.9719, 423.9319
475.4540, 442.6202
475.9361, 462.9906
476.4182, 486.2613
476.9003, 512.5803
477.3824, 540.4955
477.8645, 569.5660
478.3466, 600.0569
478.8288, 632.9377
479.3109, 668.2874
479.7930, 702.6841
480.2751, 734.6927
480.7572, 763.5253
481.2393, 785.2194
481.7215, 802.0866
482.2036, 810.0668
482.6857, 808.2805
483.1678, 796.9150
483.6499, 774.9996
484.1320, 742.6191
484.6142, 703.0753
485.0963, 660.1599
485.5784, 613.1525
486.0605, 566.1692
486.5426, 515.8400
487.0247, 468.6796
487.5069, 427.0075
487.9890, 390.2148
488.4711, 356.9497
488.9532, 326.7811
489.4353, 299.5556
489.9174, 275.4752
490.3996, 254.9006
490.8817, 236.5703
491.3638, 221.3875
491.8459, 207.7036
492.3280, 194.6984
492.8102, 182.4358
493.2923, 171.3988
493.7744, 161.9081
494.2565, 153.8035
494.7386, 146.8165
495.2207, 141.0940
495.7029, 135.6400
496.1850, 129.6571
496.6671, 123.9259
497.1492, 119.6495
497.6313, 117.1787
498.1134, 114.8884
498.5956, 112.0697
499.0777, 108.9323
499.5598, 105.7180
500.0419, 102.4661
500.5240, 99.38672
501.0061, 96.65830
501.4883, 94.28292
501.9704, 92.15469
502.4525, 90.24316
502.9346, 88.59724
503.4167, 87.46209
503.8988, 86.52322
504.3810, 85.31304
504.8631, 83.70702
505.3452, 82.02659
505.8273, 80.71413
506.3094, 79.87105
506.7915, 78.87678
507.2737, 77.41332
507.7558, 76.13383
508.2379, 75.33936
508.7200, 74.85238
509.2021, 74.39842
509.6842, 73.86009
510.1664, 73.24351
510.6485, 72.48885
511.1306, 71.54250
511.6127, 70.86598
512.0948, 70.78315
512.5769, 70.72334
513.0590, 70.26042
513.5411, 69.49270
514.0233, 68.79115
514.5054, 68.33117
514.9875, 68.01968
515.4696, 67.78154
515.9517, 67.61115
516.4338, 67.37988
516.9160, 67.00555
517.3981, 66.58562
517.8802, 66.30202
518.3623, 66.18307
518.8444, 66.00514
519.3265, 65.63171
519.8087, 65.24014
520.2908, 65.01260
520.7729, 64.93509
521.2550, 64.85293
521.7371, 64.65819
522.2192, 64.39650
522.7014, 64.24962
523.1835, 64.29244
523.6656, 64.36067
524.1477, 64.46181
524.6298, 64.57686
525.1119, 64.67947
525.5941, 64.77680
526.0762, 64.91441
526.5583, 65.15531
527.0404, 65.46878
527.5225, 65.57361
528.0046, 65.10235
528.4868, 65.16106
528.9689, 66.83633
529.4510, 68.72441
529.9331, 69.38847
530.4152, 68.59120
530.8973, 67.54056
531.3795, 67.13322
531.8616, 67.19579
532.3437, 67.24218
532.8258, 67.24162
533.3079, 67.18694
533.7900, 67.05000
534.2722, 66.85600
534.7543, 66.65644
535.2364, 66.21443
535.7185, 66.17020
536.2006, 67.05036
536.6827, 68.38956
537.1649, 69.53006
537.6470, 70.34202
538.1291, 71.00607
538.6112, 71.69407
539.0933, 72.40714
539.5754, 73.05760
540.0576, 73.51761
540.5397, 74.06992
541.0218, 74.87548
541.5039, 75.75954
541.9860, 76.48776
542.4681, 77.01303
542.9503, 77.51575
543.4324, 78.12109
543.9145, 78.81802
544.3966, 80.02152
544.8787, 81.92294
545.3608, 84.06628
545.8430, 86.53673
546.3251, 89.01694
546.8072, 90.92902
547.2893, 91.96241
547.7714, 93.10493
548.2535, 95.43315
548.7357, 98.58297
549.2178, 101.3174
549.6999, 103.3423
550.1820, 105.2554
550.6641, 107.5832
551.1462, 110.2713
551.6284, 112.8081
552.1105, 114.9369
552.5926, 117.2056
553.0747, 120.2082
553.5568, 123.3605
554.0389, 125.6606
554.5211, 126.9018
555.0032, 127.8275
555.4853, 129.2896
555.9674, 131.3350
556.4495, 133.3584
556.9316, 135.4676
557.4138, 137.4456
557.8959, 138.5714
558.3780, 139.8301
558.8601, 142.4725
559.3422, 146.8438
559.8243, 152.0989
560.3065, 157.1155
560.7886, 161.9948
561.2707, 167.9289
561.7528, 174.8238
562.2349, 183.1417
562.7170, 193.0214
563.1992, 204.5529
563.6813, 217.9229
564.1634, 232.6894
564.6455, 250.3645
565.1276, 272.3975
565.6097, 297.8193
566.0919, 325.4441
566.5740, 355.0424
567.0561, 384.6726
567.5382, 413.1316
568.0203, 440.3032
568.5024, 464.6025
568.9846, 485.8660
569.4667, 504.9325
569.9488, 521.9524
570.4309, 537.0622
570.9130, 550.0663
571.3951, 561.1510
571.8773, 570.9788
572.3594, 580.1248
572.8415, 588.6255
573.3236, 596.9423
573.8057, 604.2094
574.2878, 612.8610
574.7700, 621.5611
575.2521, 633.1121
575.7342, 649.8624
576.2163, 672.2153
576.6984, 700.6797
577.1805, 734.1628
577.6627, 774.2713
578.1448, 823.2687
578.6269, 881.0147
579.1090, 952.4708
579.5911, 1039.072
580.0732, 1142.186
580.5554, 1269.363
581.0375, 1421.893
581.5196, 1590.125
582.0017, 1790.131
582.4838, 1992.257
582.9659, 2186.698
583.4481, 2359.928
583.9302, 2478.847
584.4123, 2523.168
584.8944, 2491.652
585.3765, 2373.532
585.8586, 2132.821
586.3408, 1879.625
586.8229, 1599.822
587.3050, 1335.816
587.7871, 1109.384
588.2692, 922.1638
588.7513, 768.0603
589.2334, 648.1985
589.7155, 555.1154
590.1976, 479.5088
590.6797, 420.9472
591.1619, 372.7549
591.6440, 334.6323
592.1261, 303.4431
592.6082, 276.0525
593.0903, 252.2265
593.5724, 231.8909
594.0546, 215.9723
594.5367, 202.6627
595.0188, 191.5757
595.5009, 182.0455
595.9830, 172.8604
596.4651, 163.5080
596.9473, 154.6808
597.4294, 147.4965
597.9115, 142.2955
598.3936, 137.1552
598.8757, 131.7909
599.3578, 126.8577
599.8400, 122.7218
600.3221, 119.0879
600.8042, 115.4604
601.2863, 111.6781
601.7684, 108.1715
602.2505, 105.6718
602.7327, 103.8974
603.2148, 101.4614
603.6969, 98.01109
604.1790, 94.73774
604.6611, 92.43224
605.1432, 90.91590
605.6254, 89.44689
606.1075, 88.07821
606.5896, 86.65723
607.0717, 85.06660
607.5538, 83.44534
608.0359, 81.95318
608.5181, 80.60311
609.0002, 79.28737
609.4823, 77.89790
609.9644, 76.53262
610.4465, 75.67088
610.9286, 75.84248
611.4108, 75.47761
611.8929, 73.81215
612.3750, 72.09688
612.8571, 71.26546
613.3392, 71.14357
613.8214, 70.82362
