##NAMES=Vishnevite
##RRUFFID=R061139
##IDEAL CHEMISTRY=Na_8_(Al_6_Si_6_)O_24_(S^6+^O_4_)&#183;2H_2_O
##LOCALITY=Vishnevyite Mountains, Urals, U.S.S.R.
##OWNER=RRUFF
##SOURCE=Michael Scott
##DESCRIPTION=Light blue irregular granular masses
##STATUS=The identification of this mineral has been confirmed only by single crystal X-ray diffraction.
##URL=rruff.info/R061139
158.8590, 2836.654
159.3411, 2846.190
159.8233, 2858.838
160.3054, 2874.566
160.7875, 2893.377
161.2696, 2922.196
161.7517, 2947.814
162.2338, 2962.537
162.7160, 2967.373
163.1981, 2974.909
163.6802, 2993.545
164.1623, 3016.985
164.6444, 3038.524
165.1265, 3052.473
165.6087, 3066.247
166.0908, 3084.957
166.5729, 3109.189
167.0550, 3133.286
167.5371, 3155.125
168.0192, 3174.421
168.5014, 3190.772
168.9835, 3200.189
169.4656, 3208.523
169.9477, 3219.988
170.4298, 3234.706
170.9119, 3254.064
171.3941, 3286.557
171.8762, 3325.517
172.3583, 3354.983
172.8404, 3355.415
173.3225, 3344.924
173.8046, 3347.763
174.2868, 3371.474
174.7689, 3400.623
175.2510, 3418.928
175.7331, 3428.470
176.2152, 3438.502
176.6973, 3456.339
177.1795, 3478.954
177.6616, 3500.456
178.1437, 3519.186
178.6258, 3536.660
179.1079, 3555.698
179.5900, 3576.145
180.0722, 3593.794
180.5543, 3604.900
181.0364, 3610.657
181.5185, 3613.947
182.0006, 3612.701
182.4827, 3611.143
182.9649, 3618.545
183.4470, 3635.115
183.9291, 3654.753
184.4112, 3673.682
184.8933, 3691.340
185.3754, 3703.902
185.8576, 3706.759
186.3397, 3703.570
186.8218, 3706.640
187.3039, 3716.671
187.7860, 3729.240
188.2681, 3739.836
188.7503, 3748.425
189.2324, 3755.769
189.7145, 3760.131
190.1966, 3762.648
190.6787, 3770.931
191.1608, 3786.091
191.6430, 3804.254
192.1251, 3821.043
192.6072, 3836.424
193.0893, 3848.531
193.5714, 3853.663
194.0535, 3852.532
194.5357, 3857.660
195.0178, 3870.476
195.4999, 3888.467
195.9820, 3908.870
196.4641, 3932.354
196.9462, 3952.544
197.4284, 3962.806
197.9105, 3962.664
198.3926, 3969.662
198.8747, 3988.487
199.3568, 4013.233
199.8389, 4025.979
200.3211, 4024.530
200.8032, 4020.139
201.2853, 4019.536
201.7674, 4022.646
202.2495, 4031.080
202.7316, 4047.650
203.2138, 4069.168
203.6959, 4081.271
204.1780, 4082.376
204.6601, 4078.416
205.1422, 4072.522
205.6243, 4063.405
206.1065, 4059.369
206.5886, 4064.170
207.0707, 4076.176
207.5528, 4079.539
208.0349, 4069.483
208.5170, 4059.990
208.9992, 4068.666
209.4813, 4104.168
209.9634, 4127.509
210.4455, 4127.462
210.9276, 4104.485
211.4097, 4084.576
211.8919, 4068.700
212.3740, 4054.491
212.8561, 4038.158
213.3382, 4017.335
213.8203, 4001.179
214.3024, 3994.088
214.7846, 3997.391
215.2667, 3992.909
215.7488, 3975.195
216.2309, 3955.529
216.7130, 3950.971
217.1951, 3969.734
217.6773, 3985.065
218.1594, 3988.401
218.6415, 3977.653
219.1236, 3965.783
219.6057, 3951.797
220.0878, 3937.260
220.5700, 3924.692
221.0521, 3913.554
221.5342, 3905.263
222.0163, 3901.000
222.4984, 3902.604
222.9805, 3901.364
223.4627, 3895.504
223.9448, 3887.822
224.4269, 3884.376
224.9090, 3887.852
225.3911, 3890.868
225.8732, 3889.758
226.3554, 3881.100
226.8375, 3878.561
227.3196, 3887.146
227.8017, 3900.031
228.2838, 3900.433
228.7659, 3882.469
229.2481, 3861.124
229.7302, 3842.121
230.2123, 3823.613
230.6944, 3812.175
231.1765, 3811.116
231.6587, 3816.669
232.1408, 3817.763
232.6229, 3810.734
233.1050, 3804.404
233.5871, 3803.212
234.0692, 3809.305
234.5514, 3816.183
235.0335, 3824.850
235.5156, 3834.080
235.9977, 3839.106
236.4798, 3835.572
236.9619, 3833.748
237.4441, 3840.805
237.9262, 3866.983
238.4083, 3879.755
238.8904, 3870.579
239.3725, 3845.833
239.8546, 3834.927
240.3368, 3841.601
240.8189, 3857.319
241.3010, 3879.071
241.7831, 3915.436
242.2652, 3939.346
242.7473, 3942.040
243.2295, 3928.879
243.7116, 3933.135
244.1937, 3969.623
244.6758, 4004.524
245.1579, 4013.784
245.6400, 3979.382
246.1222, 3957.249
246.6043, 3956.663
247.0864, 3974.019
247.5685, 3983.713
248.0506, 3980.842
248.5327, 3976.736
249.0149, 3979.605
249.4970, 3993.962
249.9791, 4005.612
250.4612, 4012.917
250.9433, 4016.148
251.4254, 4017.742
251.9076, 4018.786
252.3897, 4016.774
252.8718, 4008.715
253.3539, 3990.055
253.8360, 3976.573
254.3181, 3973.350
254.8003, 3978.363
255.2824, 3972.777
255.7645, 3951.371
256.2466, 3926.827
256.7287, 3909.145
257.2108, 3900.757
257.6930, 3893.206
258.1751, 3887.724
258.6572, 3883.143
259.1393, 3867.469
259.6214, 3835.839
260.1035, 3801.100
260.5857, 3773.644
261.0678, 3754.982
261.5499, 3738.633
262.0320, 3723.161
262.5141, 3708.877
262.9962, 3701.046
263.4784, 3705.740
263.9605, 3706.524
264.4426, 3686.274
264.9247, 3634.262
265.4068, 3597.218
265.8889, 3587.029
266.3711, 3599.085
266.8532, 3596.803
267.3353, 3573.933
267.8174, 3548.845
268.2995, 3536.881
268.7816, 3541.510
269.2638, 3545.358
269.7459, 3545.750
270.2280, 3543.082
270.7101, 3538.455
271.1922, 3529.968
271.6743, 3524.065
272.1565, 3527.750
272.6386, 3543.241
273.1207, 3555.231
273.6028, 3558.981
274.0849, 3557.406
274.5670, 3564.871
275.0492, 3582.481
275.5313, 3605.975
276.0134, 3635.396
276.4955, 3672.378
276.9776, 3697.406
277.4597, 3702.066
277.9419, 3693.656
278.4240, 3701.232
278.9061, 3726.973
279.3882, 3759.624
279.8703, 3791.071
280.3524, 3821.443
280.8346, 3851.106
281.3167, 3880.191
281.7988, 3908.567
282.2809, 3936.997
282.7630, 3966.083
283.2451, 3991.070
283.7273, 4010.439
284.2094, 4023.728
284.6915, 4024.424
285.1736, 4009.856
285.6557, 3983.509
286.1378, 3952.156
286.6200, 3915.555
287.1021, 3877.686
287.5842, 3839.418
288.0663, 3801.750
288.5484, 3770.504
289.0305, 3749.111
289.5127, 3731.347
289.9948, 3702.883
290.4769, 3663.869
290.9590, 3624.298
291.4411, 3587.361
291.9232, 3554.911
292.4054, 3535.339
292.8875, 3532.775
293.3696, 3538.054
293.8517, 3537.761
294.3338, 3532.065
294.8159, 3522.294
295.2981, 3506.070
295.7802, 3486.348
296.2623, 3471.574
296.7444, 3463.684
297.2265, 3459.361
297.7086, 3454.663
298.1908, 3449.818
298.6729, 3445.764
299.1550, 3446.802
299.6371, 3448.379
300.1192, 3439.447
300.6013, 3415.067
301.0835, 3391.264
301.5656, 3391.802
302.0477, 3409.585
302.5298, 3421.056
303.0119, 3404.968
303.4940, 3377.820
303.9762, 3361.900
304.4583, 3361.075
304.9404, 3365.781
305.4225, 3368.808
305.9046, 3370.932
306.3867, 3374.021
306.8689, 3382.272
307.3510, 3390.246
307.8331, 3390.782
308.3152, 3381.976
308.7973, 3374.247
309.2794, 3380.239
309.7616, 3391.943
310.2437, 3395.564
310.7258, 3371.139
311.2079, 3345.695
311.6900, 3340.303
312.1721, 3358.457
312.6543, 3379.311
313.1364, 3394.355
313.6185, 3404.733
314.1006, 3411.717
314.5827, 3410.789
315.0648, 3410.680
315.5470, 3415.575
316.0291, 3425.682
316.5112, 3439.466
316.9933, 3465.873
317.4754, 3491.941
317.9576, 3504.290
318.4397, 3482.745
318.9218, 3462.207
319.4039, 3453.289
319.8860, 3456.340
320.3681, 3467.580
320.8503, 3495.532
321.3324, 3526.338
321.8145, 3549.073
322.2966, 3556.761
322.7787, 3561.498
323.2608, 3562.569
323.7430, 3560.856
324.2251, 3565.426
324.7072, 3588.741
325.1893, 3611.392
325.6714, 3621.646
326.1535, 3599.540
326.6357, 3587.195
327.1178, 3594.324
327.5999, 3616.539
328.0820, 3628.673
328.5641, 3619.751
329.0462, 3610.367
329.5284, 3610.950
330.0105, 3636.631
330.4926, 3648.134
330.9747, 3635.881
331.4568, 3609.618
331.9389, 3599.922
332.4211, 3620.257
332.9032, 3638.689
333.3853, 3639.981
333.8674, 3613.919
334.3495, 3598.636
334.8316, 3596.737
335.3138, 3603.846
335.7959, 3611.713
336.2780, 3620.449
336.7601, 3629.676
337.2422, 3640.412
337.7243, 3653.749
338.2065, 3659.582
338.6886, 3655.900
339.1707, 3647.923
339.6528, 3643.159
340.1349, 3642.033
340.6170, 3641.355
341.0992, 3639.480
341.5813, 3636.767
342.0634, 3639.101
342.5455, 3648.593
343.0276, 3655.510
343.5097, 3643.497
343.9919, 3613.204
344.4740, 3593.781
344.9561, 3598.716
345.4382, 3618.469
345.9203, 3622.991
346.4024, 3611.592
346.8846, 3596.832
347.3667, 3590.381
347.8488, 3590.190
348.3309, 3588.015
348.8130, 3580.095
349.2951, 3571.345
349.7773, 3572.153
350.2594, 3581.354
350.7415, 3588.729
351.2236, 3578.798
351.7057, 3563.392
352.1878, 3568.427
352.6700, 3608.138
353.1521, 3648.045
353.6342, 3647.687
354.1163, 3616.300
354.5984, 3583.481
355.0806, 3562.226
355.5627, 3549.777
356.0448, 3545.079
356.5269, 3549.774
357.0090, 3554.868
357.4911, 3551.043
357.9733, 3543.710
358.4554, 3542.543
358.9375, 3558.889
359.4196, 3577.316
359.9017, 3589.049
360.3839, 3592.991
360.8660, 3592.716
361.3481, 3585.774
361.8302, 3576.711
362.3123, 3570.626
362.7944, 3568.879
363.2766, 3570.382
363.7587, 3578.915
364.2408, 3594.336
364.7229, 3599.656
365.2050, 3577.753
365.6871, 3552.468
366.1693, 3540.757
366.6514, 3556.078
367.1335, 3571.873
367.6156, 3586.958
368.0977, 3600.877
368.5798, 3610.396
369.0620, 3609.214
369.5441, 3609.330
370.0262, 3617.174
370.5083, 3643.511
370.9904, 3658.490
371.4725, 3655.413
371.9547, 3642.528
372.4368, 3641.100
372.9189, 3655.440
373.4010, 3673.155
373.8831, 3691.469
374.3652, 3712.215
374.8474, 3721.224
375.3295, 3713.833
375.8116, 3700.728
376.2937, 3697.968
376.7758, 3707.150
377.2579, 3717.862
377.7401, 3725.859
378.2222, 3732.001
378.7043, 3744.496
379.1864, 3764.247
379.6685, 3786.002
380.1506, 3806.109
380.6328, 3824.188
381.1149, 3835.253
381.5970, 3834.961
382.0791, 3829.602
382.5612, 3835.182
383.0433, 3851.235
383.5255, 3865.608
384.0076, 3869.717
384.4897, 3865.389
384.9718, 3854.609
385.4539, 3833.463
385.9360, 3816.047
386.4182, 3825.143
386.9003, 3853.262
387.3824, 3875.038
387.8645, 3871.372
388.3466, 3856.698
388.8287, 3846.005
389.3109, 3841.249
389.7930, 3838.080
390.2751, 3833.838
390.7572, 3829.281
391.2393, 3825.597
391.7214, 3816.757
392.2036, 3814.252
392.6857, 3828.633
393.1678, 3860.293
393.6499, 3886.634
394.1320, 3900.216
394.6141, 3904.666
395.0963, 3902.847
395.5784, 3884.554
396.0605, 3871.695
396.5426, 3868.207
397.0247, 3873.802
397.5068, 3887.039
397.9890, 3921.956
398.4711, 3953.528
398.9532, 3969.480
399.4353, 3957.000
399.9174, 3950.000
400.3995, 3950.518
400.8817, 3955.975
401.3638, 3961.595
401.8459, 3969.101
402.3280, 3973.765
402.8101, 3972.258
403.2922, 3962.655
403.7744, 3962.012
404.2565, 3974.184
404.7386, 3989.668
405.2207, 3996.527
405.7028, 3992.924
406.1849, 3992.614
406.6671, 4002.205
407.1492, 4017.467
407.6313, 4014.862
408.1134, 3991.844
408.5955, 3969.687
409.0776, 3967.406
409.5598, 3981.970
410.0419, 3995.170
410.5240, 4002.417
411.0061, 4010.339
411.4882, 4034.216
411.9703, 4070.492
412.4525, 4100.804
412.9346, 4107.252
413.4167, 4102.995
413.8988, 4109.780
414.3809, 4130.789
414.8630, 4152.013
415.3452, 4156.448
415.8273, 4153.239
416.3094, 4158.104
416.7915, 4188.465
417.2736, 4220.635
417.7557, 4235.664
418.2379, 4234.763
418.7200, 4236.872
419.2021, 4248.916
419.6842, 4268.809
420.1663, 4295.220
420.6484, 4337.295
421.1306, 4374.039
421.6127, 4393.722
422.0948, 4402.819
422.5769, 4421.644
423.0590, 4464.527
423.5411, 4508.284
424.0233, 4543.603
424.5054, 4567.535
424.9875, 4588.810
425.4696, 4603.362
425.9517, 4617.121
426.4338, 4638.800
426.9160, 4673.368
427.3981, 4706.712
427.8802, 4735.583
428.3623, 4760.121
428.8444, 4785.682
429.3265, 4815.900
429.8087, 4839.168
430.2908, 4840.068
430.7729, 4814.840
431.2550, 4807.535
431.7371, 4829.369
432.2192, 4866.627
432.7014, 4887.431
433.1835, 4891.992
433.6656, 4893.749
434.1477, 4899.466
434.6298, 4908.492
435.1119, 4920.258
435.5941, 4935.627
436.0762, 4948.443
436.5583, 4948.797
437.0404, 4941.417
437.5225, 4937.816
438.0046, 4948.871
438.4868, 4961.823
438.9689, 4960.112
439.4510, 4945.673
439.9331, 4936.417
440.4152, 4948.192
440.8973, 4967.679
441.3795, 4981.373
441.8616, 4978.517
442.3437, 4982.657
442.8258, 5008.081
443.3079, 5047.491
443.7900, 5084.953
444.2722, 5115.671
444.7543, 5143.572
445.2364, 5170.531
445.7185, 5197.166
446.2006, 5219.753
446.6827, 5228.940
447.1649, 5238.791
447.6470, 5263.284
448.1291, 5313.725
448.6112, 5360.506
449.0933, 5400.982
449.5754, 5434.485
450.0576, 5456.061
450.5397, 5457.368
451.0218, 5463.991
451.5039, 5499.221
451.9860, 5570.864
452.4681, 5608.280
452.9503, 5600.630
453.4324, 5572.764
453.9145, 5567.070
454.3966, 5583.086
454.8787, 5594.985
455.3608, 5590.066
455.8430, 5573.484
456.3251, 5557.617
456.8072, 5542.467
457.2893, 5532.175
457.7714, 5538.880
458.2535, 5552.092
458.7357, 5549.777
459.2178, 5518.129
459.6999, 5482.981
460.1820, 5469.010
460.6641, 5470.297
461.1462, 5468.979
461.6284, 5454.326
462.1105, 5435.158
462.5926, 5418.000
463.0747, 5404.271
463.5568, 5387.529
464.0389, 5365.445
464.5211, 5339.283
465.0032, 5310.745
465.4853, 5280.021
465.9674, 5247.083
466.4495, 5207.757
466.9316, 5163.745
467.4138, 5132.634
467.8959, 5130.777
468.3780, 5124.364
468.8601, 5094.543
469.3422, 5027.650
469.8243, 4973.010
470.3065, 4933.940
470.7886, 4903.852
471.2707, 4872.995
471.7528, 4841.060
472.2349, 4809.131
472.7170, 4775.347
473.1992, 4741.522
473.6813, 4717.905
474.1634, 4705.016
474.6455, 4696.979
475.1276, 4692.688
475.6097, 4689.614
476.0919, 4678.138
476.5740, 4653.964
477.0561, 4626.625
477.5382, 4606.207
478.0203, 4591.928
478.5024, 4581.424
478.9846, 4572.209
479.4667, 4566.989
479.9488, 4570.145
480.4309, 4582.182
480.9130, 4593.622
481.3951, 4600.563
481.8773, 4603.954
482.3594, 4604.638
482.8415, 4594.985
483.3236, 4591.246
483.8057, 4600.597
484.2878, 4619.542
484.7700, 4635.773
485.2521, 4644.772
485.7342, 4654.022
486.2163, 4664.737
486.6984, 4675.005
487.1805, 4695.362
487.6627, 4732.146
488.1448, 4772.111
488.6269, 4799.699
489.1090, 4811.383
489.5911, 4824.686
490.0732, 4843.154
490.5554, 4865.765
491.0375, 4891.639
491.5196, 4921.625
492.0017, 4947.430
492.4838, 4957.911
492.9659, 4959.413
493.4481, 4980.275
493.9302, 5026.195
494.4123, 5070.835
494.8944, 5071.509
495.3765, 5048.522
495.8586, 5048.921
496.3408, 5118.368
496.8229, 5196.295
497.3050, 5229.623
497.7871, 5224.792
498.2692, 5218.609
498.7513, 5229.596
499.2335, 5245.868
499.7156, 5258.929
500.1977, 5265.407
500.6798, 5273.707
501.1619, 5293.242
501.6440, 5313.505
502.1262, 5319.692
502.6083, 5287.745
503.0904, 5268.485
503.5725, 5279.026
504.0546, 5316.096
504.5367, 5327.150
505.0189, 5302.601
505.5010, 5268.476
505.9831, 5240.149
506.4652, 5218.879
506.9473, 5196.021
507.4294, 5170.734
507.9116, 5144.487
508.3937, 5120.108
508.8758, 5097.339
509.3579, 5069.874
509.8400, 5032.615
510.3221, 4990.424
510.8043, 4954.436
511.2864, 4924.371
511.7685, 4892.883
512.2506, 4853.427
512.7327, 4809.948
513.2148, 4765.372
513.6970, 4716.815
514.1791, 4678.031
514.6612, 4669.356
515.1433, 4673.979
515.6254, 4664.742
516.1075, 4610.164
516.5897, 4562.019
517.0718, 4544.801
517.5539, 4558.068
518.0360, 4560.537
518.5181, 4539.505
519.0002, 4512.552
519.4824, 4488.643
519.9645, 4467.858
520.4466, 4449.579
520.9287, 4435.351
521.4108, 4422.305
521.8929, 4404.822
522.3751, 4381.550
522.8572, 4360.802
523.3393, 4344.334
523.8214, 4332.541
524.3035, 4330.741
524.7856, 4339.368
525.2678, 4345.741
525.7499, 4339.918
526.2320, 4324.530
526.7141, 4302.851
527.1962, 4273.105
527.6783, 4249.094
528.1605, 4247.125
528.6426, 4260.114
529.1247, 4275.060
529.6068, 4292.706
530.0889, 4305.445
530.5710, 4305.417
531.0532, 4294.847
531.5353, 4288.075
532.0174, 4301.658
532.4995, 4311.435
532.9816, 4301.232
533.4637, 4251.105
533.9459, 4223.093
534.4280, 4231.437
534.9101, 4254.829
535.3922, 4267.850
535.8743, 4264.909
536.3564, 4265.073
536.8386, 4273.677
537.3207, 4287.627
537.8028, 4292.996
538.2849, 4288.213
538.7670, 4284.140
539.2491, 4288.188
539.7313, 4298.739
540.2134, 4309.675
540.6955, 4321.555
541.1776, 4328.224
541.6597, 4318.722
542.1418, 4299.643
542.6240, 4284.876
543.1061, 4279.924
543.5882, 4279.147
544.0703, 4278.466
544.5524, 4278.381
545.0345, 4280.352
545.5167, 4290.295
545.9988, 4298.132
546.4809, 4295.373
546.9630, 4278.387
547.4451, 4271.506
547.9272, 4291.217
548.4094, 4314.277
548.8915, 4322.404
549.3736, 4304.980
549.8557, 4292.098
550.3378, 4286.899
550.8199, 4286.623
551.3021, 4286.061
551.7842, 4286.008
552.2663, 4281.436
552.7484, 4265.936
553.2305, 4243.972
553.7126, 4240.446
554.1948, 4256.171
554.6769, 4275.549
555.1590, 4284.176
555.6411, 4287.266
556.1232, 4298.331
556.6053, 4323.628
557.0875, 4342.452
557.5696, 4329.587
558.0517, 4298.624
558.5338, 4274.079
559.0159, 4265.524
559.4980, 4264.675
559.9802, 4269.643
560.4623, 4279.904
560.9444, 4291.975
561.4265, 4310.291
561.9086, 4326.076
562.3907, 4334.428
562.8729, 4332.454
563.3550, 4333.266
563.8371, 4341.141
564.3192, 4347.141
564.8013, 4338.121
565.2834, 4309.420
565.7656, 4291.367
566.2477, 4291.746
566.7298, 4303.422
567.2119, 4311.367
567.6940, 4315.655
568.1761, 4317.286
568.6583, 4317.331
569.1404, 4314.946
569.6225, 4304.961
570.1046, 4287.659
570.5867, 4276.809
571.0688, 4290.322
571.5510, 4312.100
572.0331, 4324.093
572.5152, 4317.211
572.9973, 4310.406
573.4794, 4308.296
573.9615, 4311.342
574.4437, 4320.311
574.9258, 4347.941
575.4079, 4367.454
575.8900, 4371.514
576.3721, 4361.608
576.8542, 4352.413
577.3364, 4343.486
577.8185, 4336.136
578.3006, 4331.767
578.7827, 4330.548
579.2648, 4327.511
579.7469, 4321.397
580.2291, 4317.869
580.7112, 4328.768
581.1933, 4349.126
581.6754, 4358.188
582.1575, 4344.680
582.6396, 4326.509
583.1218, 4324.836
583.6039, 4335.472
584.0860, 4346.549
584.5681, 4356.418
585.0502, 4361.588
585.5323, 4356.619
586.0145, 4341.394
586.4966, 4331.575
586.9787, 4334.020
587.4608, 4341.306
587.9429, 4348.751
588.4250, 4354.266
588.9072, 4364.372
589.3893, 4384.968
589.8714, 4405.283
590.3535, 4407.327
590.8356, 4385.833
591.3177, 4372.099
591.7999, 4374.873
592.2820, 4389.184
592.7641, 4403.725
593.2462, 4418.379
593.7283, 4429.423
594.2104, 4430.329
594.6926, 4427.790
595.1747, 4435.797
595.6568, 4455.037
596.1389, 4469.586
596.6210, 4460.333
597.1031, 4444.295
597.5853, 4440.445
598.0674, 4464.567
598.5495, 4479.544
599.0316, 4460.628
599.5137, 4428.848
599.9958, 4420.495
600.4780, 4460.313
600.9601, 4493.614
601.4423, 4508.547
601.9244, 4508.445
602.4065, 4513.344
602.8886, 4524.301
603.3707, 4537.091
603.8528, 4549.217
604.3350, 4560.873
604.8171, 4576.163
605.2992, 4595.710
605.7813, 4615.203
606.2634, 4630.126
606.7455, 4642.327
607.2277, 4655.837
607.7098, 4671.212
608.1919, 4688.646
608.6740, 4708.761
609.1561, 4730.981
609.6382, 4753.485
610.1204, 4779.021
610.6025, 4801.912
611.0846, 4815.637
611.5667, 4822.340
612.0488, 4841.292
612.5309, 4885.511
613.0131, 4927.776
613.4952, 4955.515
613.9773, 4966.821
614.4594, 4982.230
614.9415, 5004.127
615.4236, 5023.841
615.9058, 5031.798
616.3879, 5028.854
616.8700, 5020.985
617.3521, 5006.105
617.8342, 4995.224
618.3163, 5011.160
618.7985, 5042.787
619.2806, 5062.610
619.7627, 5042.336
620.2448, 5020.179
620.7269, 5025.195
621.2090, 5052.371
621.6912, 5078.391
622.1733, 5097.433
622.6554, 5111.925
623.1375, 5121.393
623.6196, 5124.192
624.1017, 5132.342
624.5839, 5154.876
625.0660, 5172.170
625.5481, 5164.796
626.0302, 5126.075
626.5123, 5104.991
626.9944, 5109.796
627.4766, 5123.504
627.9587, 5118.399
628.4408, 5097.856
628.9229, 5082.460
629.4050, 5082.188
629.8871, 5086.838
630.3693, 5085.509
630.8514, 5078.872
631.3335, 5069.170
631.8156, 5055.733
632.2977, 5040.939
632.7798, 5029.713
633.2620, 5022.699
633.7441, 5003.223
634.2262, 4950.829
634.7083, 4898.325
635.1904, 4867.246
635.6725, 4874.273
636.1547, 4855.410
636.6368, 4798.796
637.1189, 4733.861
637.6010, 4698.257
638.0831, 4692.403
638.5652, 4686.829
639.0474, 4675.319
639.5295, 4661.177
640.0116, 4650.415
640.4937, 4642.073
640.9758, 4632.502
641.4579, 4619.614
641.9401, 4605.031
642.4222, 4586.083
642.9043, 4564.620
643.3864, 4553.936
643.8685, 4569.023
644.3506, 4588.230
644.8328, 4602.292
645.3149, 4612.165
645.7970, 4607.508
646.2791, 4575.471
646.7612, 4542.753
647.2433, 4534.735
647.7255, 4557.672
648.2076, 4570.974
648.6897, 4569.957
649.1718, 4560.541
649.6539, 4546.750
650.1360, 4530.661
650.6182, 4524.388
651.1003, 4535.547
651.5824, 4554.046
652.0645, 4573.571
652.5466, 4591.195
653.0287, 4597.740
653.5109, 4572.219
653.9930, 4548.991
654.4751, 4550.092
654.9572, 4576.623
655.4393, 4597.426
655.9214, 4602.073
656.4036, 4605.593
